Data from BU26942_Reflection_00003.txt Node
Date: Mon Nov 18 16:50:30 EST 2019
User: vgr7
Spectrometer: USB2G7710
Scans to average: 3
Trigger mode: 4
Integration Time (sec): 2.000000E-2
Electric dark correction enabled: true
Boxcar width: 10
XAxis mode: Wavelengths
Number of Pixels in Spectrum: 2048
>>>>>Begin Spectral Data<<<<<
177.721	147.92
178.105	150.4
178.488	934.12
178.871	621.13
179.254	-278.7
179.636	2907.69
180.019	1001.41
180.402	113.04
180.785	-4.32
181.168	-120.3
181.55	-71.31
181.933	374.16
182.316	623.08
182.698	456.97
183.081	379.25
183.463	5792.31
183.846	102.13
184.228	288.51
184.611	764.15
184.993	1176.92
185.376	-356.01
185.758	-217.97
186.14	-205.52
186.522	236100
186.904	1297.86
187.287	1103.86
187.669	-1352.51
188.051	-822.19
188.433	-813.84
188.815	-1701.24
189.197	-528.37
189.579	-189.3
189.961	-125.74
190.342	-103.52
190.724	-53.73
191.106	-95.3
191.488	-261.56
191.869	-76.85
192.251	-53.44
192.633	-37.98
193.014	-40.5
193.396	16.29
193.777	-10.74
194.159	-6.55
194.54	46.31
194.922	31.42
195.303	36.12
195.684	41.74
196.065	73.2
196.447	67.71
196.828	68.86
197.209	131.88
197.59	142.51
197.971	98.52
198.352	111.45
198.733	53
199.114	49.75
199.495	86.92
199.876	64.04
200.257	82.82
200.638	67.85
201.018	74.35
201.399	53.02
201.78	54.39
202.16	37.57
202.541	-1.42
202.922	-40.15
203.302	1.56
203.683	-17.8
204.063	-34.73
204.444	-34.76
204.824	-31.25
205.204	-38.88
205.585	-34.32
205.965	-64.53
206.345	-78.16
206.725	-190.91
207.106	-121.85
207.486	-241.61
207.866	-166.57
208.246	-132.73
208.626	-137.08
209.006	-90.09
209.386	-95.06
209.766	-93.49
210.145	-83.86
210.525	-86.25
210.905	-45.06
211.285	-60
211.664	-41.85
212.044	-79.01
212.424	-53.79
212.803	-65.07
213.183	-80.61
213.562	-57.37
213.942	-53.91
214.321	-50.54
214.701	-61.91
215.08	-52.9
215.459	-50.52
215.838	-48.35
216.218	-65.38
216.597	-49.56
216.976	-37.66
217.355	-37.37
217.734	-40.95
218.113	-28.07
218.492	-20.35
218.871	-36.3
219.25	-44.15
219.629	-34.87
220.008	-17.96
220.387	-29.83
220.766	-19.51
221.144	-14.26
221.523	-10.49
221.902	-3.78
222.28	-7.21
222.659	1.93
223.037	-12.55
223.416	-14.79
223.794	-17.28
224.173	-1.14
224.551	-0.62
224.929	-15.75
225.308	-12.17
225.686	-14.26
226.064	-16.2
226.442	-15.41
226.821	-11.5
227.199	-10.08
227.577	-12.82
227.955	-13.02
228.333	-8.57
228.711	-6.35
229.089	-1.76
229.467	-4.37
229.845	-1.88
230.222	-0.53
230.6	-3.47
230.978	-2.28
231.356	-0.04
231.733	-1.32
232.111	-2.04
232.488	-2.37
232.866	0.22
233.243	-0.3
233.621	2.03
233.998	1.93
234.376	2.09
234.753	2.36
235.13	4.76
235.508	5.55
235.885	4.19
236.262	2.74
236.639	1.79
237.016	1.55
237.393	3.06
237.77	1.72
238.147	2.74
238.524	3.99
238.901	4.12
239.278	4.16
239.655	5.24
240.032	5.17
240.409	5.21
240.785	4.95
241.162	5.28
241.539	5.27
241.915	5.49
242.292	4.98
242.668	5.06
243.045	4.6
243.421	4.52
243.798	4.73
244.174	4.87
244.551	5.04
244.927	4.82
245.303	5.01
245.679	5.1
246.056	4.61
246.432	4.57
246.808	4.49
247.184	4.44
247.56	4.22
247.936	4.03
248.312	3.97
248.688	4.16
249.064	4.21
249.44	4.17
249.815	4.06
250.191	4.45
250.567	4.52
250.943	4.51
251.318	4.49
251.694	4.46
252.069	4.31
252.445	4.19
252.82	4.24
253.196	3.96
253.571	3.85
253.947	3.92
254.322	4.16
254.697	3.97
255.073	4.06
255.448	4.01
255.823	4.11
256.198	4.22
256.573	4.09
256.948	3.84
257.323	4.14
257.698	4.1
258.073	3.94
258.448	3.77
258.823	3.87
259.198	3.83
259.573	3.81
259.948	3.89
260.322	3.84
260.697	3.77
261.072	3.61
261.446	3.7
261.821	3.77
262.195	3.77
262.57	3.76
262.944	3.75
263.319	3.76
263.693	3.71
264.067	3.86
264.442	3.8
264.816	3.89
265.19	3.63
265.564	3.6
265.938	3.49
266.313	3.71
266.687	3.7
267.061	3.68
267.435	3.81
267.809	3.7
268.183	3.85
268.556	3.94
268.93	4.11
269.304	4.02
269.678	4.14
270.051	4.07
270.425	4.14
270.799	4.1
271.172	4.02
271.546	4.03
271.919	3.87
272.293	3.86
272.666	3.9
273.04	3.99
273.413	3.99
273.787	4.03
274.16	3.91
274.533	3.85
274.906	3.89
275.279	3.81
275.653	3.78
276.026	3.65
276.399	3.73
276.772	4.01
277.145	4.09
277.518	4
277.891	4.1
278.263	4.18
278.636	4.12
279.009	4.19
279.382	4.37
279.755	4.28
280.127	4.54
280.5	4.63
280.872	4.61
281.245	4.59
281.617	4.64
281.99	4.77
282.362	4.84
282.735	4.72
283.107	4.7
283.479	4.64
283.852	4.81
284.224	4.75
284.596	4.58
284.968	4.65
285.34	4.67
285.713	4.67
286.085	4.72
286.457	4.68
286.829	4.77
287.201	4.83
287.572	4.77
287.944	4.57
288.316	4.61
288.688	4.53
289.06	4.43
289.431	4.46
289.803	4.35
290.175	4.35
290.546	4.57
290.918	4.57
291.289	4.75
291.661	4.71
292.032	4.8
292.403	4.69
292.775	4.68
293.146	4.62
293.517	4.61
293.889	4.67
294.26	4.65
294.631	4.58
295.002	4.46
295.373	4.53
295.744	4.56
296.115	4.51
296.486	4.54
296.857	4.74
297.228	4.69
297.599	4.6
297.97	4.67
298.34	4.59
298.711	4.65
299.082	4.5
299.452	4.52
299.823	4.49
300.194	4.57
300.564	4.53
300.935	4.64
301.305	4.62
301.676	4.56
302.046	4.56
302.416	4.65
302.787	4.69
303.157	4.79
303.527	4.84
303.897	4.74
304.267	5.01
304.637	5.01
305.008	5.04
305.378	5.34
305.748	5.14
306.117	5.06
306.487	5.08
306.857	5.24
307.227	5.23
307.597	5.23
307.967	5.19
308.336	5.17
308.706	5
309.076	4.97
309.445	4.84
309.815	5.03
310.184	4.87
310.554	4.98
310.923	4.96
311.293	4.98
311.662	5.04
312.031	4.88
312.401	4.84
312.77	4.94
313.139	4.8
313.508	4.82
313.877	4.81
314.246	4.83
314.616	4.65
314.985	4.58
315.353	4.43
315.722	4.46
316.091	4.4
316.46	4.5
316.829	4.59
317.198	4.87
317.567	4.84
317.935	4.9
318.304	4.74
318.672	4.72
319.041	4.77
319.41	4.85
319.778	4.79
320.147	4.9
320.515	4.83
320.883	4.8
321.252	4.97
321.62	4.98
321.988	4.84
322.357	5.05
322.725	5.17
323.093	5.36
323.461	5.42
323.829	5.47
324.197	5.52
324.565	5.49
324.933	5.36
325.301	5.29
325.669	5.33
326.037	5.27
326.405	5.41
326.772	5.27
327.14	5.22
327.508	5.31
327.875	5.07
328.243	4.96
328.61	4.93
328.978	4.96
329.346	5.14
329.713	5.13
330.08	5.12
330.448	4.92
330.815	4.78
331.182	4.79
331.55	4.84
331.917	4.87
332.284	4.81
332.651	4.75
333.018	4.79
333.385	4.72
333.752	4.81
334.119	4.77
334.486	4.9
334.853	4.96
335.22	4.95
335.587	5.11
335.954	5.1
336.32	5.12
336.687	5.03
337.054	4.93
337.42	5.07
337.787	5.02
338.153	5.17
338.52	5.23
338.886	5.01
339.253	4.93
339.619	4.9
339.986	4.99
340.352	5.07
340.718	4.98
341.084	4.99
341.451	4.99
341.817	4.98
342.183	4.95
342.549	4.91
342.915	4.9
343.281	4.81
343.647	4.87
344.013	4.87
344.379	4.79
344.745	4.87
345.11	4.74
345.476	4.73
345.842	4.7
346.208	4.7
346.573	4.8
346.939	4.9
347.304	4.86
347.67	4.81
348.035	4.75
348.401	4.8
348.766	4.84
349.132	4.94
349.497	4.88
349.862	4.92
350.228	4.92
350.593	4.86
350.958	4.9
351.323	4.91
351.688	4.96
352.053	5.07
352.418	4.95
352.783	5.06
353.148	5.07
353.513	5.07
353.878	5.07
354.243	5.19
354.608	5.18
354.972	5.16
355.337	5.14
355.702	5.22
356.066	5.26
356.431	5.2
356.795	5.13
357.16	5.11
357.524	5.08
357.889	5.02
358.253	5.05
358.618	5.17
358.982	5.15
359.346	5.14
359.71	5.09
360.075	5.12
360.439	5.09
360.803	5.11
361.167	5.08
361.531	5.11
361.895	5
362.259	4.95
362.623	4.99
362.987	4.98
363.351	5.02
363.714	4.98
364.078	4.97
364.442	4.97
364.806	4.98
365.169	4.99
365.533	4.98
365.896	4.99
366.26	4.88
366.623	4.89
366.987	4.86
367.35	4.89
367.714	4.92
368.077	4.92
368.44	4.9
368.803	5.01
369.167	4.93
369.53	4.97
369.893	4.99
370.256	4.98
370.619	4.99
370.982	4.85
371.345	4.87
371.708	4.93
372.071	4.99
372.434	5
372.797	4.92
373.159	4.96
373.522	4.98
373.885	5.06
374.247	5.07
374.61	5.16
374.973	5.09
375.335	5.08
375.698	5.07
376.06	5.1
376.423	5.07
376.785	5.13
377.147	5.15
377.51	5.16
377.872	5.18
378.234	5.24
378.596	5.33
378.958	5.32
379.321	5.36
379.683	5.31
380.045	5.33
380.407	5.38
380.769	5.32
381.13	5.31
381.492	5.26
381.854	5.28
382.216	5.23
382.578	5.32
382.939	5.32
383.301	5.32
383.663	5.29
384.024	5.28
384.386	5.28
384.747	5.31
385.109	5.33
385.47	5.29
385.832	5.26
386.193	5.28
386.554	5.28
386.916	5.26
387.277	5.28
387.638	5.27
387.999	5.25
388.36	5.28
388.721	5.32
389.082	5.32
389.443	5.29
389.804	5.28
390.165	5.21
390.526	5.21
390.887	5.21
391.248	5.23
391.609	5.2
391.969	5.19
392.33	5.15
392.691	5.14
393.051	5.12
393.412	5.13
393.772	5.1
394.133	5.07
394.493	5.04
394.854	5.02
395.214	4.98
395.574	4.98
395.935	4.98
396.295	4.95
396.655	4.92
397.015	4.94
397.376	4.94
397.736	4.96
398.096	4.95
398.456	4.96
398.816	4.95
399.176	4.94
399.535	4.96
399.895	4.94
400.255	4.91
400.615	4.98
400.975	4.99
401.334	5.01
401.694	5.04
402.054	5.08
402.413	5.06
402.773	5.09
403.132	5.07
403.492	5.06
403.851	5.05
404.211	5.1
404.57	5.09
404.929	5.1
405.288	5.08
405.648	5.11
406.007	5.11
406.366	5.09
406.725	5.13
407.084	5.14
407.443	5.16
407.802	5.18
408.161	5.13
408.52	5.09
408.879	5.09
409.238	5.1
409.596	5.09
409.955	5.12
410.314	5.15
410.673	5.18
411.031	5.18
411.39	5.18
411.748	5.14
412.107	5.17
412.465	5.14
412.824	5.16
413.182	5.13
413.54	5.12
413.899	5.13
414.257	5.13
414.615	5.11
414.974	5.13
415.332	5.12
415.69	5.15
416.048	5.14
416.406	5.13
416.764	5.11
417.122	5.09
417.48	5.08
417.838	5.09
418.195	5.07
418.553	5.08
418.911	5.07
419.269	5.1
419.626	5.09
419.984	5.1
420.342	5.14
420.699	5.13
421.057	5.13
421.414	5.13
421.772	5.13
422.129	5.15
422.486	5.13
422.844	5.14
423.201	5.12
423.558	5.13
423.915	5.14
424.273	5.14
424.63	5.17
424.987	5.18
425.344	5.17
425.701	5.18
426.058	5.17
426.415	5.17
426.772	5.17
427.128	5.16
427.485	5.17
427.842	5.12
428.199	5.14
428.555	5.13
428.912	5.12
429.269	5.11
429.625	5.09
429.982	5.1
430.338	5.09
430.695	5.13
431.051	5.12
431.407	5.11
431.764	5.12
432.12	5.1
432.476	5.09
432.832	5.09
433.189	5.11
433.545	5.13
433.901	5.13
434.257	5.13
434.613	5.14
434.969	5.14
435.325	5.16
435.681	5.18
436.036	5.21
436.392	5.23
436.748	5.24
437.104	5.24
437.459	5.23
437.815	5.25
438.171	5.24
438.526	5.23
438.882	5.23
439.237	5.24
439.593	5.24
439.948	5.23
440.304	5.24
440.659	5.22
441.014	5.22
441.369	5.23
441.725	5.21
442.08	5.21
442.435	5.21
442.79	5.21
443.145	5.2
443.5	5.17
443.855	5.18
444.21	5.18
444.565	5.19
444.92	5.2
445.275	5.18
445.629	5.16
445.984	5.17
446.339	5.16
446.693	5.16
447.048	5.15
447.403	5.14
447.757	5.14
448.112	5.13
448.466	5.11
448.82	5.11
449.175	5.13
449.529	5.12
449.883	5.11
450.238	5.1
450.592	5.09
450.946	5.1
451.3	5.08
451.654	5.08
452.008	5.08
452.362	5.06
452.716	5.07
453.07	5.09
453.424	5.1
453.778	5.1
454.132	5.1
454.486	5.11
454.839	5.13
455.193	5.13
455.547	5.15
455.9	5.17
456.254	5.18
456.607	5.18
456.961	5.19
457.314	5.18
457.668	5.19
458.021	5.2
458.375	5.22
458.728	5.23
459.081	5.22
459.434	5.21
459.787	5.22
460.141	5.24
460.494	5.24
460.847	5.25
461.2	5.25
461.553	5.25
461.906	5.27
462.259	5.27
462.611	5.28
462.964	5.27
463.317	5.29
463.67	5.3
464.022	5.29
464.375	5.29
464.728	5.31
465.08	5.29
465.433	5.28
465.785	5.28
466.138	5.28
466.49	5.28
466.843	5.29
467.195	5.29
467.547	5.28
467.899	5.28
468.252	5.25
468.604	5.27
468.956	5.25
469.308	5.25
469.66	5.25
470.012	5.24
470.364	5.23
470.716	5.23
471.068	5.2
471.42	5.21
471.772	5.2
472.123	5.21
472.475	5.24
472.827	5.26
473.178	5.26
473.53	5.25
473.882	5.25
474.233	5.27
474.585	5.27
474.936	5.29
475.288	5.3
475.639	5.31
475.99	5.32
476.342	5.34
476.693	5.34
477.044	5.36
477.395	5.36
477.746	5.38
478.097	5.36
478.448	5.38
478.8	5.38
479.15	5.38
479.501	5.38
479.852	5.38
480.203	5.38
480.554	5.38
480.905	5.39
481.255	5.4
481.606	5.4
481.957	5.41
482.307	5.41
482.658	5.4
483.009	5.4
483.359	5.4
483.709	5.4
484.06	5.4
484.41	5.39
484.761	5.39
485.111	5.4
485.461	5.4
485.811	5.4
486.162	5.41
486.512	5.42
486.862	5.41
487.212	5.42
487.562	5.42
487.912	5.42
488.262	5.41
488.612	5.42
488.961	5.42
489.311	5.41
489.661	5.42
490.011	5.42
490.36	5.43
490.71	5.43
491.06	5.44
491.409	5.43
491.759	5.44
492.108	5.45
492.458	5.44
492.807	5.43
493.157	5.44
493.506	5.43
493.855	5.45
494.204	5.47
494.554	5.47
494.903	5.45
495.252	5.46
495.601	5.49
495.95	5.48
496.299	5.5
496.648	5.5
496.997	5.5
497.346	5.5
497.695	5.5
498.043	5.5
498.392	5.49
498.741	5.49
499.09	5.48
499.438	5.5
499.787	5.53
500.135	5.55
500.484	5.56
500.832	5.56
501.181	5.55
501.529	5.55
501.878	5.54
502.226	5.57
502.574	5.57
502.923	5.55
503.271	5.56
503.619	5.55
503.967	5.58
504.315	5.6
504.663	5.6
505.011	5.61
505.359	5.63
505.707	5.65
506.055	5.68
506.403	5.7
506.751	5.69
507.098	5.68
507.446	5.69
507.794	5.7
508.141	5.69
508.489	5.69
508.837	5.71
509.184	5.72
509.531	5.71
509.879	5.71
510.226	5.73
510.574	5.73
510.921	5.74
511.268	5.72
511.616	5.72
511.963	5.72
512.31	5.74
512.657	5.76
513.004	5.77
513.351	5.76
513.698	5.77
514.045	5.76
514.392	5.79
514.739	5.8
515.086	5.82
515.432	5.84
515.779	5.83
516.126	5.83
516.473	5.85
516.819	5.87
517.166	5.88
517.512	5.9
517.859	5.9
518.205	5.9
518.552	5.92
518.898	5.92
519.245	5.92
519.591	5.91
519.937	5.88
520.283	5.89
520.629	5.91
520.976	5.93
521.322	5.97
521.668	5.95
522.014	5.97
522.36	5.97
522.706	5.98
523.052	5.98
523.398	5.99
523.743	6
524.089	6
524.435	6
524.781	6
525.126	6.01
525.472	6.04
525.817	6.03
526.163	6.05
526.509	6.05
526.854	6.05
527.199	6.07
527.545	6.07
527.89	6.08
528.235	6.06
528.581	6.04
528.926	6.05
529.271	6.05
529.616	6.04
529.961	6.03
530.306	6.03
530.651	6.04
530.996	6.04
531.341	6.03
531.686	6.03
532.031	6.04
532.376	6.04
532.721	6.03
533.065	6.03
533.41	6.03
533.755	6.04
534.099	6.03
534.444	6.04
534.788	6.03
535.133	6.03
535.477	6.04
535.822	6.05
536.166	6.04
536.51	6.05
536.855	6.06
537.199	6.08
537.543	6.08
537.887	6.08
538.231	6.08
538.576	6.08
538.92	6.09
539.264	6.08
539.608	6.09
539.951	6.09
540.295	6.09
540.639	6.09
540.983	6.09
541.327	6.1
541.671	6.09
542.014	6.09
542.358	6.09
542.701	6.08
543.045	6.11
543.389	6.11
543.732	6.11
544.075	6.09
544.419	6.1
544.762	6.1
545.105	6.11
545.449	6.11
545.792	6.1
546.135	6.09
546.478	6.1
546.821	6.09
547.165	6.08
547.508	6.09
547.851	6.09
548.194	6.06
548.536	6.06
548.879	6.05
549.222	6.06
549.565	6.05
549.908	6.05
550.25	6.03
550.593	6.06
550.936	6.01
551.278	6.03
551.621	6.05
551.963	6.04
552.306	6.02
552.648	6.03
552.991	6.06
553.333	6.05
553.675	6.03
554.017	6.04
554.36	6.05
554.702	6.05
555.044	6.06
555.386	6.09
555.728	6.11
556.07	6.12
556.412	6.13
556.754	6.13
557.096	6.16
557.438	6.18
557.78	6.18
558.121	6.24
558.463	6.26
558.805	6.23
559.147	6.23
559.488	6.23
559.83	6.23
560.171	6.24
560.513	6.28
560.854	6.31
561.196	6.3
561.537	6.3
561.878	6.29
562.22	6.3
562.561	6.28
562.902	6.29
563.243	6.29
563.584	6.28
563.925	6.3
564.266	6.25
564.607	6.23
564.948	6.22
565.289	6.22
565.63	6.23
565.971	6.25
566.312	6.27
566.653	6.27
566.993	6.3
567.334	6.29
567.675	6.3
568.015	6.28
568.356	6.29
568.696	6.29
569.037	6.29
569.377	6.3
569.718	6.33
570.058	6.32
570.398	6.32
570.739	6.33
571.079	6.32
571.419	6.34
571.759	6.33
572.099	6.34
572.439	6.35
572.779	6.34
573.119	6.34
573.459	6.34
573.799	6.36
574.139	6.33
574.479	6.33
574.819	6.33
575.158	6.33
575.498	6.32
575.838	6.33
576.177	6.32
576.517	6.28
576.856	6.26
577.196	6.28
577.535	6.28
577.875	6.31
578.214	6.29
578.553	6.28
578.893	6.3
579.232	6.3
579.571	6.31
579.91	6.3
580.25	6.28
580.589	6.3
580.928	6.28
581.267	6.27
581.606	6.27
581.945	6.25
582.283	6.26
582.622	6.23
582.961	6.2
583.3	6.23
583.639	6.27
583.977	6.31
584.316	6.27
584.654	6.26
584.993	6.25
585.332	6.28
585.67	6.31
586.008	6.28
586.347	6.26
586.685	6.23
587.024	6.23
587.362	6.24
587.7	6.26
588.038	6.28
588.376	6.3
588.715	6.33
589.053	6.35
589.391	6.38
589.729	6.44
590.067	6.45
590.404	6.46
590.742	6.44
591.08	6.43
591.418	6.44
591.756	6.43
592.093	6.42
592.431	6.42
592.769	6.4
593.106	6.42
593.444	6.42
593.781	6.43
594.119	6.47
594.456	6.49
594.793	6.45
595.131	6.43
595.468	6.43
595.805	6.43
596.143	6.41
596.48	6.39
596.817	6.37
597.154	6.4
597.491	6.41
597.828	6.41
598.165	6.43
598.502	6.42
598.839	6.47
599.176	6.48
599.512	6.5
599.849	6.52
600.186	6.54
600.523	6.54
600.859	6.57
601.196	6.54
601.532	6.5
601.869	6.49
602.205	6.5
602.542	6.52
602.878	6.49
603.215	6.5
603.551	6.51
603.887	6.55
604.223	6.53
604.56	6.53
604.896	6.53
605.232	6.45
605.568	6.46
605.904	6.42
606.24	6.42
606.576	6.42
606.912	6.4
607.248	6.38
607.583	6.41
607.919	6.39
608.255	6.4
608.591	6.43
608.926	6.46
609.262	6.49
609.597	6.49
609.933	6.51
610.268	6.53
610.604	6.51
610.939	6.48
611.275	6.5
611.61	6.5
611.945	6.52
612.281	6.62
612.616	6.63
612.951	6.7
613.286	6.7
613.621	6.67
613.956	6.68
614.291	6.7
614.626	6.67
614.961	6.66
615.296	6.65
615.631	6.68
615.966	6.69
616.3	6.67
616.635	6.67
616.97	6.66
617.304	6.67
617.639	6.7
617.973	6.69
618.308	6.68
618.642	6.7
618.977	6.68
619.311	6.65
619.646	6.67
619.98	6.64
620.314	6.64
620.648	6.64
620.983	6.72
621.317	6.74
621.651	6.77
621.985	6.8
622.319	6.77
622.653	6.77
622.987	6.8
623.321	6.79
623.655	6.77
623.988	6.86
624.322	6.82
624.656	6.85
624.99	6.85
625.323	6.92
625.657	6.92
625.99	6.95
626.324	6.98
626.657	6.99
626.991	7.01
627.324	7.01
627.658	7.02
627.991	6.96
628.324	6.95
628.657	6.89
628.991	6.94
629.324	6.97
629.657	6.99
629.99	6.94
630.323	6.97
630.656	7.03
630.989	6.99
631.322	7.04
631.655	7.01
631.987	7.05
632.32	7
632.653	6.91
632.986	6.91
633.318	6.88
633.651	6.84
633.984	6.78
634.316	6.81
634.649	6.77
634.981	6.81
635.313	6.83
635.646	6.92
635.978	6.86
636.31	6.83
636.643	6.82
636.975	6.8
637.307	6.77
637.639	6.71
637.971	6.7
638.303	6.66
638.635	6.6
638.967	6.63
639.299	6.71
639.631	6.71
639.963	6.61
640.295	6.64
640.626	6.66
640.958	6.7
641.29	6.7
641.621	6.77
641.953	6.73
642.285	6.71
642.616	6.66
642.948	6.68
643.279	6.76
643.61	6.75
643.942	6.8
644.273	6.84
644.604	6.83
644.936	6.85
645.267	6.83
645.598	6.87
645.929	6.86
646.26	6.8
646.591	6.82
646.922	6.94
647.253	6.98
647.584	7
647.915	6.99
648.245	6.98
648.576	6.97
648.907	7.02
649.238	7.06
649.568	7.08
649.899	7.07
650.229	7.04
650.56	7
650.89	6.96
651.221	6.94
651.551	6.95
651.882	6.96
652.212	7.01
652.542	7.05
652.872	7
653.203	6.93
653.533	7.01
653.863	6.96
654.193	6.91
654.523	6.86
654.853	6.89
655.183	6.96
655.513	6.87
655.843	6.78
656.172	6.69
656.502	6.71
656.832	6.75
657.162	6.79
657.491	6.76
657.821	6.74
658.15	6.8
658.48	6.84
658.809	6.83
659.139	6.8
659.468	6.74
659.798	6.73
660.127	6.75
660.456	6.72
660.785	6.75
661.115	6.74
661.444	6.83
661.773	6.79
662.102	6.69
662.431	6.75
662.76	6.83
663.089	6.86
663.418	6.89
663.747	6.85
664.076	6.86
664.404	6.94
664.733	7.04
665.062	6.94
665.39	6.99
665.719	6.89
666.048	6.88
666.376	6.9
666.705	6.91
667.033	6.88
667.362	6.83
667.69	6.83
668.018	6.91
668.347	6.84
668.675	6.88
669.003	6.93
669.331	7
669.659	6.94
669.987	6.93
670.315	6.89
670.643	6.93
670.971	6.89
671.299	6.9
671.627	6.86
671.955	6.88
672.283	6.79
672.61	6.78
672.938	6.9
673.266	6.89
673.593	7.03
673.921	7.04
674.249	7.08
674.576	7
674.904	6.93
675.231	6.95
675.558	6.9
675.886	6.93
676.213	6.9
676.54	6.93
676.867	6.99
677.195	6.98
677.522	6.96
677.849	7.02
