Data from BU26944_Reflection_00001.txt Node
Date: Tue Nov 19 10:54:28 EST 2019
User: vgr7
Spectrometer: USB2G7710
Scans to average: 3
Trigger mode: 4
Integration Time (sec): 2.000000E-2
Electric dark correction enabled: true
Boxcar width: 10
XAxis mode: Wavelengths
Number of Pixels in Spectrum: 2048
>>>>>Begin Spectral Data<<<<<
177.721	-125.88
178.105	-90.27
178.488	-51.71
178.871	-60
179.254	120
179.636	251.45
180.019	27.99
180.402	-575
180.785	-70.59
181.168	56.11
181.55	149.36
181.933	137.28
182.316	50.81
182.698	6.22
183.081	13.94
183.463	-22.26
183.846	-17.36
184.228	-47.81
184.611	1086.49
184.993	274.29
185.376	239.1
185.758	-231.33
186.14	-189.47
186.522	88.15
186.904	50.6
187.287	76.95
187.669	153.6
188.051	100.68
188.433	82.28
188.815	31.97
189.197	56.08
189.579	62.95
189.961	34.22
190.342	41.3
190.724	32.98
191.106	47.61
191.488	35.05
191.869	37.83
192.251	33.32
192.633	26.68
193.014	42
193.396	48.61
193.777	45.52
194.159	33.61
194.54	44.17
194.922	38.23
195.303	21.37
195.684	12.79
196.065	8.68
196.447	27.71
196.828	30.6
197.209	16.72
197.59	22.85
197.971	37.36
198.352	-8.39
198.733	-3.39
199.114	-8.18
199.495	-5.45
199.876	-30.05
200.257	-42.48
200.638	-20.5
201.018	-38.26
201.399	-27.29
201.78	-25.06
202.16	-46.8
202.541	-44.49
202.922	-53.11
203.302	-59.77
203.683	-72.95
204.063	-75.71
204.444	-85.56
204.824	-76.39
205.204	-82.35
205.585	-80.15
205.965	-78.55
206.345	-61.95
206.725	-97.63
207.106	-107.49
207.486	-107.95
207.866	-68.79
208.246	-44.51
208.626	-87.55
209.006	-67.61
209.386	-85.52
209.766	-86.69
210.145	-52.79
210.525	-52.86
210.905	-50.48
211.285	-22.89
211.664	-13.83
212.044	-29.98
212.424	-9.18
212.803	2.9
213.183	20.48
213.562	45.25
213.942	57.38
214.321	46.04
214.701	60.95
215.08	57.16
215.459	78.35
215.838	52.98
216.218	61.9
216.597	90.75
216.976	78.8
217.355	62.57
217.734	62.17
218.113	29.45
218.492	10.24
218.871	15.27
219.25	25.22
219.629	44.31
220.008	66.85
220.387	-10.08
220.766	-12.75
221.144	-19.52
221.523	-54.84
221.902	-58.18
222.28	-20.53
222.659	9.12
223.037	-9.88
223.416	-10.84
223.794	2.36
224.173	-3.08
224.551	1.74
224.929	-8.17
225.308	-9.48
225.686	-6.43
226.064	-3.06
226.442	2.43
226.821	2.25
227.199	0.59
227.577	4.1
227.955	6.8
228.333	7.43
228.711	9.69
229.089	8.91
229.467	8.15
229.845	9.99
230.222	7.77
230.6	4.17
230.978	4.1
231.356	3.3
231.733	0.74
232.111	2.23
232.488	1.53
232.866	1.89
233.243	4.15
233.621	5.84
233.998	5.29
234.376	5.25
234.753	4.3
235.13	3.79
235.508	0.04
235.885	-1.91
236.262	-0.97
236.639	-2.78
237.016	-2.89
237.393	-1.95
237.77	-0.89
238.147	-0.05
238.524	0.08
238.901	0.69
239.278	0.39
239.655	1.37
240.032	1.71
240.409	1.79
240.785	2.19
241.162	2.27
241.539	2.14
241.915	2.02
242.292	1.75
242.668	1.98
243.045	2.42
243.421	3.16
243.798	3.56
244.174	3.96
244.551	4.02
244.927	4.04
245.303	3.77
245.679	3.58
246.056	3.29
246.432	3.62
246.808	3.82
247.184	3.82
247.56	3.7
247.936	3.66
248.312	3.77
248.688	3.69
249.064	3.49
249.44	3.35
249.815	3.53
250.191	3.76
250.567	3.87
250.943	3.7
251.318	3.54
251.694	3.52
252.069	3.14
252.445	3.09
252.82	3.14
253.196	3.21
253.571	3.56
253.947	3.72
254.322	3.34
254.697	3.46
255.073	3.39
255.448	3.34
255.823	3.54
256.198	3.24
256.573	3.24
256.948	3.65
257.323	3.81
257.698	3.69
258.073	3.4
258.448	3.18
258.823	2.97
259.198	2.97
259.573	2.91
259.948	3.03
260.322	2.92
260.697	2.87
261.072	2.95
261.446	2.8
261.821	2.89
262.195	2.92
262.57	2.78
262.944	2.82
263.319	2.85
263.693	2.71
264.067	2.87
264.442	2.89
264.816	2.55
265.19	2.43
265.564	2.36
265.938	2.55
266.313	2.51
266.687	2.61
267.061	2.63
267.435	2.54
267.809	2.4
268.183	2.67
268.556	2.63
268.93	2.47
269.304	2.33
269.678	2.43
270.051	2.27
270.425	2.22
270.799	2.18
271.172	2.12
271.546	2.04
271.919	1.99
272.293	2.04
272.666	2.11
273.04	2.12
273.413	2.3
273.787	2.17
274.16	2.16
274.533	2.31
274.906	2.26
275.279	2.44
275.653	2.47
276.026	2.45
276.399	2.4
276.772	2.45
277.145	2.66
277.518	2.55
277.891	2.83
278.263	2.99
278.636	3.06
279.009	3.15
279.382	3.18
279.755	3.03
280.127	2.9
280.5	2.97
280.872	2.94
281.245	2.73
281.617	2.91
281.99	3.08
282.362	3.13
282.735	3.11
283.107	3.03
283.479	3.12
283.852	3.1
284.224	3.21
284.596	3.23
284.968	3.14
285.34	3.21
285.713	3.22
286.085	3.15
286.457	3.08
286.829	3.12
287.201	3.09
287.572	3.26
287.944	3.35
288.316	3.25
288.688	3.41
289.06	3.56
289.431	3.57
289.803	3.56
290.175	3.47
290.546	3.53
290.918	3.49
291.289	3.36
291.661	3.3
292.032	3.25
292.403	3.24
292.775	3.2
293.146	3.07
293.517	3.02
293.889	3.04
294.26	3.24
294.631	3.15
295.002	3.26
295.373	3.12
295.744	3.11
296.115	3.2
296.486	3
296.857	2.97
297.228	2.87
297.599	2.7
297.97	2.75
298.34	2.72
298.711	2.76
299.082	2.79
299.452	2.79
299.823	2.77
300.194	2.78
300.564	2.84
300.935	2.92
301.305	2.83
301.676	2.71
302.046	2.57
302.416	2.59
302.787	2.58
303.157	2.58
303.527	2.64
303.897	2.54
304.267	2.52
304.637	2.45
305.008	2.47
305.378	2.61
305.748	2.45
306.117	2.46
306.487	2.4
306.857	2.49
307.227	2.62
307.597	2.69
307.967	2.66
308.336	2.54
308.706	2.44
309.076	2.66
309.445	2.87
309.815	2.84
310.184	2.81
310.554	2.72
310.923	2.66
311.293	2.58
311.662	2.55
312.031	2.63
312.401	2.55
312.77	2.54
313.139	2.52
313.508	2.54
313.877	2.48
314.246	2.35
314.616	2.34
314.985	2.17
315.353	2.08
315.722	2.08
316.091	2.07
316.46	2.09
316.829	1.85
317.198	1.59
317.567	1.67
317.935	1.81
318.304	2.01
318.672	2.02
319.041	2.16
319.41	2.16
319.778	2.17
320.147	2.28
320.515	2.26
320.883	2.19
321.252	2.14
321.62	2.23
321.988	2.47
322.357	2.34
322.725	2.43
323.093	2.42
323.461	2.48
323.829	2.43
324.197	2.57
324.565	2.59
324.933	2.58
325.301	2.4
325.669	2.28
326.037	2.2
326.405	2.36
326.772	2.23
327.14	2.35
327.508	2.45
327.875	2.39
328.243	2.39
328.61	2.35
328.978	2.38
329.346	2.29
329.713	2.22
330.08	2.35
330.448	2.21
330.815	2.18
331.182	2.04
331.55	2.15
331.917	1.92
332.284	1.97
332.651	2.16
333.018	2.19
333.385	2.26
333.752	2.29
334.119	2.18
334.486	2.21
334.853	2.05
335.22	1.87
335.587	1.95
335.954	1.95
336.32	1.98
336.687	2.08
337.054	2.1
337.42	2.2
337.787	2.11
338.153	2.21
338.52	2.27
338.886	2.48
339.253	2.5
339.619	2.65
339.986	2.66
340.352	2.5
340.718	2.5
341.084	2.45
341.451	2.41
341.817	2.45
342.183	2.46
342.549	2.69
342.915	2.8
343.281	2.78
343.647	2.81
344.013	2.86
344.379	2.85
344.745	2.88
345.11	2.79
345.476	2.77
345.842	2.78
346.208	2.85
346.573	2.73
346.939	2.72
347.304	2.69
347.67	2.68
348.035	2.72
348.401	2.8
348.766	2.76
349.132	2.73
349.497	2.8
349.862	2.76
350.228	2.67
350.593	2.66
350.958	2.76
351.323	2.75
351.688	2.82
352.053	2.81
352.418	2.83
352.783	2.85
353.148	2.91
353.513	2.88
353.878	2.86
354.243	2.83
354.608	2.82
354.972	2.84
355.337	2.81
355.702	2.8
356.066	2.84
356.431	2.86
356.795	2.9
357.16	2.87
357.524	2.91
357.889	2.9
358.253	2.86
358.618	2.76
358.982	2.79
359.346	2.74
359.71	2.7
360.075	2.67
360.439	2.68
360.803	2.7
361.167	2.63
361.531	2.62
361.895	2.68
362.259	2.67
362.623	2.58
362.987	2.56
363.351	2.58
363.714	2.56
364.078	2.61
364.442	2.53
364.806	2.52
365.169	2.54
365.533	2.56
365.896	2.6
366.26	2.63
366.623	2.54
366.987	2.53
367.35	2.54
367.714	2.54
368.077	2.55
368.44	2.53
368.803	2.57
369.167	2.51
369.53	2.49
369.893	2.52
370.256	2.56
370.619	2.61
370.982	2.62
371.345	2.6
371.708	2.55
372.071	2.6
372.434	2.58
372.797	2.59
373.159	2.56
373.522	2.55
373.885	2.53
374.247	2.61
374.61	2.68
374.973	2.7
375.335	2.73
375.698	2.68
376.06	2.71
376.423	2.75
376.785	2.79
377.147	2.77
377.51	2.75
377.872	2.77
378.234	2.81
378.596	2.86
378.958	2.87
379.321	2.91
379.683	2.93
380.045	2.94
380.407	2.88
380.769	2.82
381.13	2.8
381.492	2.82
381.854	2.82
382.216	2.82
382.578	2.82
382.939	2.81
383.301	2.85
383.663	2.84
384.024	2.81
384.386	2.81
384.747	2.8
385.109	2.82
385.47	2.82
385.832	2.73
386.193	2.68
386.554	2.62
386.916	2.62
387.277	2.6
387.638	2.61
387.999	2.63
388.36	2.69
388.721	2.66
389.082	2.66
389.443	2.64
389.804	2.62
390.165	2.58
390.526	2.59
390.887	2.59
391.248	2.6
391.609	2.63
391.969	2.6
392.33	2.59
392.691	2.57
393.051	2.57
393.412	2.57
393.772	2.59
394.133	2.58
394.493	2.53
394.854	2.55
395.214	2.55
395.574	2.56
395.935	2.54
396.295	2.58
396.655	2.56
397.015	2.57
397.376	2.59
397.736	2.62
398.096	2.62
398.456	2.57
398.816	2.56
399.176	2.53
399.535	2.56
399.895	2.56
400.255	2.59
400.615	2.56
400.975	2.58
401.334	2.57
401.694	2.6
402.054	2.66
402.413	2.65
402.773	2.67
403.132	2.68
403.492	2.67
403.851	2.66
404.211	2.67
404.57	2.67
404.929	2.65
405.288	2.67
405.648	2.69
406.007	2.7
406.366	2.73
406.725	2.75
407.084	2.75
407.443	2.8
407.802	2.78
408.161	2.82
408.52	2.83
408.879	2.83
409.238	2.84
409.596	2.85
409.955	2.85
410.314	2.81
410.673	2.76
411.031	2.77
411.39	2.76
411.748	2.79
412.107	2.75
412.465	2.76
412.824	2.74
413.182	2.73
413.54	2.76
413.899	2.75
414.257	2.74
414.615	2.75
414.974	2.74
415.332	2.76
415.69	2.75
416.048	2.76
416.406	2.74
416.764	2.76
417.122	2.74
417.48	2.73
417.838	2.75
418.195	2.77
418.553	2.77
418.911	2.78
419.269	2.77
419.626	2.79
419.984	2.79
420.342	2.79
420.699	2.8
421.057	2.78
421.414	2.78
421.772	2.79
422.129	2.78
422.486	2.78
422.844	2.78
423.201	2.78
423.558	2.77
423.915	2.79
424.273	2.78
424.63	2.8
424.987	2.8
425.344	2.8
425.701	2.81
426.058	2.83
426.415	2.83
426.772	2.84
427.128	2.84
427.485	2.84
427.842	2.86
428.199	2.85
428.555	2.87
428.912	2.87
429.269	2.87
429.625	2.89
429.982	2.89
430.338	2.91
430.695	2.9
431.051	2.92
431.407	2.92
431.764	2.91
432.12	2.9
432.476	2.92
432.832	2.92
433.189	2.9
433.545	2.88
433.901	2.85
434.257	2.83
434.613	2.82
434.969	2.82
435.325	2.81
435.681	2.8
436.036	2.79
436.392	2.81
436.748	2.82
437.104	2.81
437.459	2.81
437.815	2.8
438.171	2.81
438.526	2.81
438.882	2.8
439.237	2.8
439.593	2.81
439.948	2.82
440.304	2.81
440.659	2.83
441.014	2.84
441.369	2.86
441.725	2.87
442.08	2.89
442.435	2.88
442.79	2.86
443.145	2.88
443.5	2.87
443.855	2.85
444.21	2.85
444.565	2.85
444.92	2.85
445.275	2.84
445.629	2.84
445.984	2.86
446.339	2.86
446.693	2.86
447.048	2.85
447.403	2.83
447.757	2.84
448.112	2.84
448.466	2.85
448.82	2.84
449.175	2.84
449.529	2.84
449.883	2.86
450.238	2.87
450.592	2.86
450.946	2.86
451.3	2.88
451.654	2.86
452.008	2.85
452.362	2.85
452.716	2.85
453.07	2.84
453.424	2.8
453.778	2.81
454.132	2.81
454.486	2.8
454.839	2.8
455.193	2.8
455.547	2.79
455.9	2.77
456.254	2.77
456.607	2.78
456.961	2.78
457.314	2.75
457.668	2.78
458.021	2.78
458.375	2.79
458.728	2.78
459.081	2.81
459.434	2.8
459.787	2.82
460.141	2.81
460.494	2.81
460.847	2.82
461.2	2.82
461.553	2.82
461.906	2.83
462.259	2.84
462.611	2.83
462.964	2.84
463.317	2.84
463.67	2.86
464.022	2.85
464.375	2.84
464.728	2.86
465.08	2.84
465.433	2.85
465.785	2.86
466.138	2.85
466.49	2.85
466.843	2.84
467.195	2.83
467.547	2.84
467.899	2.86
468.252	2.88
468.604	2.88
468.956	2.89
469.308	2.9
469.66	2.91
470.012	2.93
470.364	2.92
470.716	2.92
471.068	2.92
471.42	2.92
471.772	2.93
472.123	2.93
472.475	2.96
472.827	2.94
473.178	2.96
473.53	2.95
473.882	2.96
474.233	2.96
474.585	2.94
474.936	2.94
475.288	2.91
475.639	2.92
475.99	2.92
476.342	2.92
476.693	2.93
477.044	2.95
477.395	2.92
477.746	2.93
478.097	2.92
478.448	2.92
478.8	2.92
479.15	2.93
479.501	2.94
479.852	2.93
480.203	2.95
480.554	2.95
480.905	2.95
481.255	2.96
481.606	2.98
481.957	2.99
482.307	3
482.658	3.01
483.009	3
483.359	3
483.709	3.01
484.06	3.01
484.41	3
484.761	3.02
485.111	3.02
485.461	3.01
485.811	3.01
486.162	3.02
486.512	3.02
486.862	3.03
487.212	3.03
487.562	3.03
487.912	3.03
488.262	3.03
488.612	3.02
488.961	3.02
489.311	3.03
489.661	3.03
490.011	3.02
490.36	3.02
490.71	3.03
491.06	3.02
491.409	3.01
491.759	3.01
492.108	3.01
492.458	3.01
492.807	3.02
493.157	3.02
493.506	3.03
493.855	3.02
494.204	3.01
494.554	2.99
494.903	2.99
495.252	2.99
495.601	3.01
495.95	3
496.299	2.98
496.648	2.98
496.997	2.98
497.346	2.99
497.695	2.99
498.043	2.99
498.392	3
498.741	3.02
499.09	3.03
499.438	3.05
499.787	3.06
500.135	3.05
500.484	3.06
500.832	3.06
501.181	3.06
501.529	3.06
501.878	3.07
502.226	3.08
502.574	3.08
502.923	3.07
503.271	3.07
503.619	3.06
503.967	3.04
504.315	3.05
504.663	3.04
505.011	3.05
505.359	3.04
505.707	3.05
506.055	3.03
506.403	3.03
506.751	3.01
507.098	3
507.446	3.01
507.794	3.01
508.141	2.99
508.489	2.99
508.837	3
509.184	3
509.531	3.01
509.879	3.02
510.226	3.03
510.574	3.04
510.921	3.05
511.268	3.07
511.616	3.05
511.963	3.07
512.31	3.07
512.657	3.08
513.004	3.08
513.351	3.08
513.698	3.08
514.045	3.06
514.392	3.07
514.739	3.06
515.086	3.06
515.432	3.09
515.779	3.1
516.126	3.12
516.473	3.11
516.819	3.1
517.166	3.11
517.512	3.1
517.859	3.13
518.205	3.12
518.552	3.1
518.898	3.1
519.245	3.09
519.591	3.1
519.937	3.1
520.283	3.1
520.629	3.1
520.976	3.09
521.322	3.11
521.668	3.1
522.014	3.11
522.36	3.11
522.706	3.11
523.052	3.12
523.398	3.12
523.743	3.12
524.089	3.13
524.435	3.12
524.781	3.13
525.126	3.13
525.472	3.15
525.817	3.16
526.163	3.16
526.509	3.17
526.854	3.18
527.199	3.2
527.545	3.2
527.89	3.21
528.235	3.22
528.581	3.22
528.926	3.22
529.271	3.21
529.616	3.22
529.961	3.22
530.306	3.22
530.651	3.21
530.996	3.23
531.341	3.24
531.686	3.24
532.031	3.25
532.376	3.25
532.721	3.26
533.065	3.25
533.41	3.26
533.755	3.25
534.099	3.24
534.444	3.23
534.788	3.22
535.133	3.22
535.477	3.24
535.822	3.24
536.166	3.25
536.51	3.27
536.855	3.26
537.199	3.25
537.543	3.24
537.887	3.24
538.231	3.23
538.576	3.23
538.92	3.23
539.264	3.24
539.608	3.24
539.951	3.23
540.295	3.25
540.639	3.26
540.983	3.28
541.327	3.3
541.671	3.3
542.014	3.31
542.358	3.32
542.701	3.32
543.045	3.33
543.389	3.32
543.732	3.31
544.075	3.31
544.419	3.32
544.762	3.32
545.105	3.33
545.449	3.34
545.792	3.33
546.135	3.34
546.478	3.34
546.821	3.34
547.165	3.34
547.508	3.33
547.851	3.33
548.194	3.31
548.536	3.3
548.879	3.28
549.222	3.27
549.565	3.26
549.908	3.24
550.25	3.24
550.593	3.25
550.936	3.26
551.278	3.27
551.621	3.27
551.963	3.29
552.306	3.28
552.648	3.27
552.991	3.27
553.333	3.26
553.675	3.26
554.017	3.25
554.36	3.26
554.702	3.25
555.044	3.24
555.386	3.24
555.728	3.26
556.07	3.25
556.412	3.24
556.754	3.22
557.096	3.22
557.438	3.2
557.78	3.19
558.121	3.17
558.463	3.15
558.805	3.17
559.147	3.14
559.488	3.13
559.83	3.15
560.171	3.16
560.513	3.16
560.854	3.18
561.196	3.18
561.537	3.18
561.878	3.18
562.22	3.21
562.561	3.21
562.902	3.17
563.243	3.22
563.584	3.23
563.925	3.27
564.266	3.26
564.607	3.27
564.948	3.29
565.289	3.3
565.63	3.29
565.971	3.3
566.312	3.31
566.653	3.33
566.993	3.32
567.334	3.34
567.675	3.35
568.015	3.32
568.356	3.33
568.696	3.31
569.037	3.34
569.377	3.33
569.718	3.33
570.058	3.36
570.398	3.34
570.739	3.32
571.079	3.29
571.419	3.31
571.759	3.29
572.099	3.26
572.439	3.27
572.779	3.29
573.119	3.28
573.459	3.29
573.799	3.26
574.139	3.25
574.479	3.24
574.819	3.23
575.158	3.25
575.498	3.26
575.838	3.26
576.177	3.26
576.517	3.22
576.856	3.2
577.196	3.2
577.535	3.17
577.875	3.2
578.214	3.2
578.553	3.19
578.893	3.21
579.232	3.23
579.571	3.26
579.91	3.25
580.25	3.22
580.589	3.21
580.928	3.22
581.267	3.24
581.606	3.22
581.945	3.24
582.283	3.23
582.622	3.2
582.961	3.23
583.3	3.21
583.639	3.23
583.977	3.27
584.316	3.25
584.654	3.3
584.993	3.31
585.332	3.32
585.67	3.34
586.008	3.35
586.347	3.33
586.685	3.29
587.024	3.33
587.362	3.36
587.7	3.39
588.038	3.42
588.376	3.39
588.715	3.38
589.053	3.39
589.391	3.37
589.729	3.37
590.067	3.37
590.404	3.4
590.742	3.41
591.08	3.4
591.418	3.41
591.756	3.4
592.093	3.38
592.431	3.39
592.769	3.37
593.106	3.39
593.444	3.42
593.781	3.44
594.119	3.42
594.456	3.43
594.793	3.41
595.131	3.38
595.468	3.43
595.805	3.45
596.143	3.4
596.48	3.45
596.817	3.43
597.154	3.43
597.491	3.44
597.828	3.43
598.165	3.42
598.502	3.43
598.839	3.41
599.176	3.44
599.512	3.46
599.849	3.43
600.186	3.41
600.523	3.41
600.859	3.39
601.196	3.38
601.532	3.34
601.869	3.36
602.205	3.37
602.542	3.36
602.878	3.35
603.215	3.39
603.551	3.35
603.887	3.37
604.223	3.37
604.56	3.37
604.896	3.42
605.232	3.42
605.568	3.43
605.904	3.42
606.24	3.42
606.576	3.44
606.912	3.44
607.248	3.48
607.583	3.44
607.919	3.43
608.255	3.44
608.591	3.47
608.926	3.46
609.262	3.48
609.597	3.49
609.933	3.49
610.268	3.46
610.604	3.46
610.939	3.48
611.275	3.5
611.61	3.43
611.945	3.37
612.281	3.36
612.616	3.37
612.951	3.41
613.286	3.37
613.621	3.35
613.956	3.38
614.291	3.33
614.626	3.36
614.961	3.38
615.296	3.39
615.631	3.37
615.966	3.34
616.3	3.33
616.635	3.32
616.97	3.32
617.304	3.35
617.639	3.4
617.973	3.37
618.308	3.36
618.642	3.39
618.977	3.4
619.311	3.44
619.646	3.44
619.98	3.35
620.314	3.37
620.648	3.35
620.983	3.31
621.317	3.35
621.651	3.35
621.985	3.4
622.319	3.36
622.653	3.37
622.987	3.37
623.321	3.38
623.655	3.34
623.988	3.38
624.322	3.36
624.656	3.31
624.99	3.32
625.323	3.32
625.657	3.3
625.99	3.31
626.324	3.31
626.657	3.31
626.991	3.39
627.324	3.37
627.658	3.36
627.991	3.41
628.324	3.38
628.657	3.39
628.991	3.35
629.324	3.37
629.657	3.36
629.99	3.38
630.323	3.41
630.656	3.43
630.989	3.42
631.322	3.45
631.655	3.49
631.987	3.5
632.32	3.52
632.653	3.54
632.986	3.5
633.318	3.48
633.651	3.45
633.984	3.42
634.316	3.45
634.649	3.47
634.981	3.44
635.313	3.45
635.646	3.44
635.978	3.47
636.31	3.44
636.643	3.45
636.975	3.44
637.307	3.48
637.639	3.48
637.971	3.41
638.303	3.42
638.635	3.39
638.967	3.38
639.299	3.34
639.631	3.34
639.963	3.35
640.295	3.38
640.626	3.39
640.958	3.4
641.29	3.44
641.621	3.38
641.953	3.44
642.285	3.47
642.616	3.5
642.948	3.46
643.279	3.42
643.61	3.45
643.942	3.47
644.273	3.42
644.604	3.39
644.936	3.46
645.267	3.43
645.598	3.4
645.929	3.35
646.26	3.35
646.591	3.37
646.922	3.45
647.253	3.48
647.584	3.51
647.915	3.49
648.245	3.46
648.576	3.53
648.907	3.53
649.238	3.43
649.568	3.39
649.899	3.4
650.229	3.49
650.56	3.45
650.89	3.43
651.221	3.39
651.551	3.41
651.882	3.4
652.212	3.39
652.542	3.49
652.872	3.58
653.203	3.65
653.533	3.71
653.863	3.68
654.193	3.62
654.523	3.55
654.853	3.61
655.183	3.57
655.513	3.59
655.843	3.54
656.172	3.69
656.502	3.66
656.832	3.68
657.162	3.64
657.491	3.7
657.821	3.7
658.15	3.72
658.48	3.74
658.809	3.75
659.139	3.8
659.468	3.75
659.798	3.7
660.127	3.68
660.456	3.59
660.785	3.58
661.115	3.6
661.444	3.65
661.773	3.64
662.102	3.63
662.431	3.61
662.76	3.61
663.089	3.57
663.418	3.57
663.747	3.57
664.076	3.63
664.404	3.62
664.733	3.62
665.062	3.63
665.39	3.62
665.719	3.64
666.048	3.59
666.376	3.59
666.705	3.56
667.033	3.66
667.362	3.69
667.69	3.7
668.018	3.71
668.347	3.73
668.675	3.7
669.003	3.73
669.331	3.75
669.659	3.73
669.987	3.69
670.315	3.75
670.643	3.75
670.971	3.7
671.299	3.67
671.627	3.62
671.955	3.53
672.283	3.49
672.61	3.41
672.938	3.42
673.266	3.46
673.593	3.47
673.921	3.4
674.249	3.46
674.576	3.49
674.904	3.5
675.231	3.48
675.558	3.47
675.886	3.49
676.213	3.51
676.54	3.62
676.867	3.61
677.195	3.68
677.522	3.64
677.849	3.73
678.176	3.77
678.503	3.82
678.83	3.9
679.157	3.94
