Data from BU26843_Reflection_00013.txt Node
Date: Mon Nov 18 16:31:22 EST 2019
User: vgr7
Spectrometer: USB2G7710
Scans to average: 3
Trigger mode: 4
Integration Time (sec): 2.000000E-2
Electric dark correction enabled: true
Boxcar width: 10
XAxis mode: Wavelengths
Number of Pixels in Spectrum: 2048
>>>>>Begin Spectral Data<<<<<
177.721	162.08
178.105	731.58
178.488	-230.83
178.871	-41.59
179.254	-26.13
179.636	-259.38
180.019	-43.95
180.402	120.69
180.785	13.56
181.168	38.68
181.55	80.2
181.933	113.48
182.316	115.24
182.698	166.16
183.081	215.94
183.463	654.46
183.846	795.65
184.228	546.6
184.611	420
184.993	-405.75
185.376	-87.92
185.758	5.58
186.14	10.11
186.522	-76.68
186.904	-66.27
187.287	-148.85
187.669	-43.14
188.051	-57.52
188.433	-20.3
188.815	-17.31
189.197	-19.71
189.579	-16.89
189.961	-15.19
190.342	-19.75
190.724	-11.58
191.106	-7.06
191.488	-12.87
191.869	-5.19
192.251	-14.67
192.633	-12.93
193.014	-17.09
193.396	-28.19
193.777	-40.32
194.159	-54.51
194.54	-31.31
194.922	-36.09
195.303	-26.61
195.684	-33.05
196.065	-26.45
196.447	-65.11
196.828	-59.61
197.209	-38.08
197.59	-12.92
197.971	-15.18
198.352	2.87
198.733	-2.43
199.114	-8.9
199.495	19.9
199.876	31.72
200.257	30.5
200.638	24.53
201.018	-10.47
201.399	-1.33
201.78	23.62
202.16	38.32
202.541	2.8
202.922	-9.22
203.302	-28.37
203.683	-29.03
204.063	-38.53
204.444	-19.64
204.824	-47.84
205.204	-63.5
205.585	-109.55
205.965	-205.88
206.345	-348.6
206.725	-404.62
207.106	-576.81
207.486	-537.17
207.866	-441.02
208.246	-354.38
208.626	-278.46
209.006	-216.17
209.386	-222.42
209.766	-259.4
210.145	-204.21
210.525	-151.14
210.905	-129.99
211.285	-96.74
211.664	-81.4
212.044	-87.97
212.424	-82.5
212.803	-67.28
213.183	-62.82
213.562	-58.52
213.942	-43.02
214.321	-35.15
214.701	-27.24
215.08	-25.14
215.459	-23.97
215.838	-27.48
216.218	-34.59
216.597	-31.41
216.976	-37.68
217.355	-36.77
217.734	-44.09
218.113	-48.69
218.492	-58.54
218.871	-63.01
219.25	-72.99
219.629	-73.3
220.008	-73.65
220.387	-72.4
220.766	-73.03
221.144	-92.78
221.523	-93.92
221.902	-101.67
222.28	-109.41
222.659	-95.21
223.037	-87.2
223.416	-78.13
223.794	-69.13
224.173	-64.33
224.551	-58.53
224.929	-45.14
225.308	-40.25
225.686	-32.92
226.064	-21.01
226.442	-16.32
226.821	-8.98
227.199	-2.24
227.577	-8.57
227.955	-10.42
228.333	-9.18
228.711	-6.96
229.089	-3.03
229.467	-2.28
229.845	-5.08
230.222	-4.12
230.6	-6.18
230.978	-4.75
231.356	-3.6
231.733	-2.19
232.111	-1.44
232.488	0.59
232.866	-0.68
233.243	-0.37
233.621	1.22
233.998	-0.44
234.376	-2.04
234.753	-2.95
235.13	-5.22
235.508	-3.09
235.885	-2.67
236.262	-4.5
236.639	-3.73
237.016	-2.31
237.393	-1.38
237.77	0.35
238.147	0.82
238.524	1.45
238.901	2.23
239.278	2.02
239.655	2.79
240.032	2.76
240.409	2.12
240.785	2.71
241.162	3.54
241.539	3.1
241.915	3.06
242.292	2.63
242.668	3.23
243.045	3.65
243.421	3.59
243.798	3.86
244.174	4.32
244.551	4.24
244.927	3.96
245.303	4.07
245.679	4.08
246.056	4.1
246.432	4.21
246.808	4.08
247.184	4
247.56	3.74
247.936	3.38
248.312	3.48
248.688	3.42
249.064	3.22
249.44	3.46
249.815	3.66
250.191	3.93
250.567	3.65
250.943	3.53
251.318	3.71
251.694	3.85
252.069	3.54
252.445	3.59
252.82	3.59
253.196	3.34
253.571	3.26
253.947	3.19
254.322	3.11
254.697	3.29
255.073	3.21
255.448	3.09
255.823	3.38
256.198	3.7
256.573	3.87
256.948	3.88
257.323	3.94
257.698	4
258.073	3.9
258.448	3.95
258.823	4
259.198	3.9
259.573	3.94
259.948	4.04
260.322	4
260.697	4.15
261.072	4.19
261.446	4.28
261.821	4.29
262.195	4.28
262.57	4.29
262.944	4.26
263.319	4.28
263.693	4.18
264.067	4.14
264.442	4.03
264.816	3.88
265.19	3.79
265.564	3.46
265.938	3.72
266.313	3.67
266.687	3.65
267.061	3.81
267.435	3.79
267.809	3.9
268.183	3.71
268.556	3.49
268.93	3.49
269.304	3.36
269.678	3.42
270.051	3.51
270.425	3.6
270.799	3.65
271.172	3.78
271.546	3.97
271.919	3.8
272.293	3.69
272.666	3.87
273.04	3.85
273.413	4.11
273.787	3.96
274.16	4.02
274.533	3.97
274.906	3.78
275.279	3.81
275.653	3.83
276.026	3.9
276.399	4.01
276.772	4.12
277.145	4.12
277.518	4.02
277.891	3.82
278.263	3.75
278.636	3.68
279.009	3.66
279.382	3.78
279.755	4.08
280.127	4.22
280.5	4.18
280.872	4.18
281.245	4.07
281.617	4.09
281.99	4.18
282.362	4.25
282.735	4.29
283.107	4.24
283.479	4.1
283.852	4.22
284.224	4.23
284.596	4.15
284.968	4.29
285.34	4.48
285.713	4.63
286.085	4.54
286.457	4.66
286.829	4.64
287.201	4.65
287.572	4.43
287.944	4.43
288.316	4.37
288.688	4.41
289.06	4.37
289.431	4.41
289.803	4.36
290.175	4.4
290.546	4.5
290.918	4.4
291.289	4.53
291.661	4.62
292.032	4.76
292.403	4.76
292.775	4.8
293.146	4.73
293.517	4.74
293.889	4.86
294.26	4.89
294.631	5.14
295.002	4.97
295.373	5.03
295.744	5.1
296.115	5.19
296.486	5.08
296.857	5.18
297.228	5.26
297.599	5.27
297.97	5.19
298.34	5.34
298.711	5.62
299.082	5.62
299.452	5.6
299.823	5.57
300.194	5.59
300.564	5.49
300.935	5.65
301.305	5.64
301.676	5.69
302.046	5.79
302.416	5.85
302.787	6
303.157	6.02
303.527	6.14
303.897	6.1
304.267	6.44
304.637	6.57
305.008	6.68
305.378	6.92
305.748	7.13
306.117	7.05
306.487	6.87
306.857	6.97
307.227	7.1
307.597	7.18
307.967	7.3
308.336	7.43
308.706	7.41
309.076	7.5
309.445	7.4
309.815	7.42
310.184	7.38
310.554	7.38
310.923	7.56
311.293	7.59
311.662	7.67
312.031	7.71
312.401	7.68
312.77	7.68
313.139	7.64
313.508	7.63
313.877	7.71
314.246	7.86
314.616	7.93
314.985	8.03
315.353	8.05
315.722	8.21
316.091	8.32
316.46	8.42
316.829	8.48
317.198	8.71
317.567	8.78
317.935	8.91
318.304	9.19
318.672	9.1
319.041	9.24
319.41	9.49
319.778	9.53
320.147	9.75
320.515	9.96
320.883	10
321.252	10.08
321.62	10.06
321.988	10.14
322.357	10.21
322.725	10.08
323.093	10.19
323.461	10.06
323.829	10.09
324.197	10.04
324.565	10.11
324.933	10.12
325.301	10.26
325.669	10.19
326.037	10.13
326.405	10.33
326.772	10.41
327.14	10.47
327.508	10.52
327.875	10.45
328.243	10.43
328.61	10.65
328.978	10.81
329.346	11
329.713	11.02
330.08	10.96
330.448	11.12
330.815	11.06
331.182	11.3
331.55	11.38
331.917	11.51
332.284	11.74
332.651	11.83
333.018	11.96
333.385	12.06
333.752	12.16
334.119	12.2
334.486	12.13
334.853	12.04
335.22	11.9
335.587	11.99
335.954	12.02
336.32	11.97
336.687	12.08
337.054	12.04
337.42	12.07
337.787	12.35
338.153	12.34
338.52	12.43
338.886	12.27
339.253	12.21
339.619	12.18
339.986	12.07
340.352	12.21
340.718	12.15
341.084	12.06
341.451	12.14
341.817	12.33
342.183	12.28
342.549	12.49
342.915	12.66
343.281	12.76
343.647	12.75
344.013	12.73
344.379	12.7
344.745	12.81
345.11	12.88
345.476	12.68
345.842	12.7
346.208	12.67
346.573	12.85
346.939	12.97
347.304	13
347.67	12.99
348.035	12.91
348.401	12.94
348.766	13.02
349.132	13.08
349.497	12.91
349.862	12.99
350.228	12.91
350.593	12.85
350.958	12.79
351.323	12.81
351.688	12.86
352.053	12.75
352.418	12.71
352.783	12.71
353.148	12.8
353.513	12.82
353.878	12.82
354.243	12.77
354.608	12.74
354.972	12.74
355.337	12.74
355.702	12.79
356.066	12.79
356.431	12.84
356.795	12.89
357.16	12.85
357.524	12.83
357.889	12.77
358.253	12.82
358.618	12.84
358.982	12.79
359.346	12.76
359.71	12.75
360.075	12.7
360.439	12.66
360.803	12.63
361.167	12.61
361.531	12.62
361.895	12.57
362.259	12.51
362.623	12.46
362.987	12.52
363.351	12.47
363.714	12.46
364.078	12.32
364.442	12.13
364.806	12.09
365.169	12.03
365.533	12.02
365.896	11.94
366.26	11.8
366.623	11.74
366.987	11.63
367.35	11.62
367.714	11.61
368.077	11.51
368.44	11.42
368.803	11.27
369.167	11.18
369.53	11.06
369.893	11.08
370.256	11.09
370.619	10.93
370.982	10.82
371.345	10.71
371.708	10.72
372.071	10.66
372.434	10.57
372.797	10.48
373.159	10.38
373.522	10.29
373.885	10.26
374.247	10.23
374.61	10.2
374.973	10.11
375.335	9.92
375.698	9.9
376.06	9.87
376.423	9.83
376.785	9.79
377.147	9.72
377.51	9.57
377.872	9.49
378.234	9.42
378.596	9.36
378.958	9.23
379.321	9.17
379.683	9.16
380.045	9.07
380.407	8.95
380.769	8.89
381.13	8.82
381.492	8.78
381.854	8.68
382.216	8.63
382.578	8.57
382.939	8.54
383.301	8.39
383.663	8.27
384.024	8.18
384.386	8.13
384.747	8.17
385.109	8.17
385.47	8.05
385.832	7.97
386.193	7.94
386.554	7.93
386.916	7.87
387.277	7.82
387.638	7.85
387.999	7.85
388.36	7.8
388.721	7.71
389.082	7.62
389.443	7.59
389.804	7.53
390.165	7.46
390.526	7.44
390.887	7.4
391.248	7.43
391.609	7.45
391.969	7.44
392.33	7.4
392.691	7.36
393.051	7.32
393.412	7.32
393.772	7.22
394.133	7.19
394.493	7.13
394.854	7.06
395.214	6.95
395.574	6.91
395.935	6.89
396.295	6.91
396.655	6.88
397.015	6.82
397.376	6.73
397.736	6.7
398.096	6.66
398.456	6.63
398.816	6.56
399.176	6.46
399.535	6.33
399.895	6.24
400.255	6.17
400.615	6.17
400.975	6.11
401.334	6.07
401.694	6.04
402.054	5.98
402.413	5.96
402.773	5.94
403.132	5.89
403.492	5.85
403.851	5.81
404.211	5.81
404.57	5.78
404.929	5.75
405.288	5.69
405.648	5.66
406.007	5.64
406.366	5.62
406.725	5.65
407.084	5.63
407.443	5.62
407.802	5.6
408.161	5.56
408.52	5.53
408.879	5.53
409.238	5.5
409.596	5.46
409.955	5.44
410.314	5.45
410.673	5.45
411.031	5.41
411.39	5.39
411.748	5.35
412.107	5.33
412.465	5.34
412.824	5.32
413.182	5.32
413.54	5.3
413.899	5.28
414.257	5.23
414.615	5.23
414.974	5.21
415.332	5.2
415.69	5.15
416.048	5.14
416.406	5.14
416.764	5.11
417.122	5.12
417.48	5.07
417.838	5.04
418.195	5.03
418.553	5.01
418.911	4.98
419.269	4.99
419.626	4.94
419.984	4.92
420.342	4.91
420.699	4.87
421.057	4.84
421.414	4.81
421.772	4.81
422.129	4.81
422.486	4.79
422.844	4.76
423.201	4.75
423.558	4.75
423.915	4.72
424.273	4.71
424.63	4.68
424.987	4.68
425.344	4.66
425.701	4.63
426.058	4.61
426.415	4.58
426.772	4.55
427.128	4.56
427.485	4.55
427.842	4.54
428.199	4.55
428.555	4.55
428.912	4.56
429.269	4.53
429.625	4.49
429.982	4.48
430.338	4.49
430.695	4.48
431.051	4.44
431.407	4.44
431.764	4.4
432.12	4.39
432.476	4.39
432.832	4.39
433.189	4.39
433.545	4.39
433.901	4.42
434.257	4.4
434.613	4.4
434.969	4.41
435.325	4.41
435.681	4.39
436.036	4.4
436.392	4.4
436.748	4.39
437.104	4.41
437.459	4.42
437.815	4.43
438.171	4.43
438.526	4.45
438.882	4.45
439.237	4.47
439.593	4.5
439.948	4.49
440.304	4.5
440.659	4.51
441.014	4.51
441.369	4.5
441.725	4.5
442.08	4.48
442.435	4.46
442.79	4.46
443.145	4.45
443.5	4.44
443.855	4.43
444.21	4.42
444.565	4.43
444.92	4.41
445.275	4.38
445.629	4.38
445.984	4.36
446.339	4.34
446.693	4.33
447.048	4.3
447.403	4.29
447.757	4.27
448.112	4.24
448.466	4.22
448.82	4.2
449.175	4.19
449.529	4.18
449.883	4.16
450.238	4.17
450.592	4.15
450.946	4.13
451.3	4.1
451.654	4.1
452.008	4.07
452.362	4.04
452.716	4.04
453.07	4.02
453.424	4.01
453.778	4
454.132	4.01
454.486	4
454.839	3.98
455.193	3.97
455.547	3.97
455.9	3.97
456.254	3.98
456.607	3.99
456.961	3.99
457.314	4.01
457.668	3.98
458.021	3.98
458.375	3.99
458.728	4
459.081	4
459.434	3.99
459.787	4.01
460.141	4.01
460.494	4
460.847	4.03
461.2	4.03
461.553	4.02
461.906	4.04
462.259	4.06
462.611	4.07
462.964	4.1
463.317	4.11
463.67	4.13
464.022	4.14
464.375	4.12
464.728	4.13
465.08	4.17
465.433	4.18
465.785	4.18
466.138	4.18
466.49	4.2
466.843	4.21
467.195	4.2
467.547	4.24
467.899	4.25
468.252	4.24
468.604	4.28
468.956	4.28
469.308	4.3
469.66	4.32
470.012	4.36
470.364	4.37
470.716	4.38
471.068	4.37
471.42	4.39
471.772	4.44
472.123	4.46
472.475	4.49
472.827	4.51
473.178	4.58
473.53	4.6
473.882	4.62
474.233	4.66
474.585	4.68
474.936	4.66
475.288	4.69
475.639	4.71
475.99	4.73
476.342	4.73
476.693	4.73
477.044	4.74
477.395	4.7
477.746	4.69
478.097	4.69
478.448	4.7
478.8	4.69
479.15	4.64
479.501	4.61
479.852	4.59
480.203	4.58
480.554	4.55
480.905	4.55
481.255	4.54
481.606	4.52
481.957	4.51
482.307	4.5
482.658	4.5
483.009	4.49
483.359	4.49
483.709	4.49
484.06	4.47
484.41	4.46
484.761	4.46
485.111	4.45
485.461	4.45
485.811	4.44
486.162	4.43
486.512	4.43
486.862	4.44
487.212	4.42
487.562	4.42
487.912	4.41
488.262	4.4
488.612	4.4
488.961	4.38
489.311	4.4
489.661	4.4
490.011	4.39
490.36	4.38
490.71	4.37
491.06	4.37
491.409	4.37
491.759	4.37
492.108	4.39
492.458	4.4
492.807	4.4
493.157	4.42
493.506	4.44
493.855	4.46
494.204	4.48
494.554	4.51
494.903	4.53
495.252	4.55
495.601	4.59
495.95	4.62
496.299	4.66
496.648	4.69
496.997	4.71
497.346	4.78
497.695	4.84
498.043	4.88
498.392	4.91
498.741	4.96
499.09	5.02
499.438	5.07
499.787	5.12
500.135	5.19
500.484	5.26
500.832	5.34
501.181	5.41
501.529	5.48
501.878	5.59
502.226	5.67
502.574	5.77
502.923	5.85
503.271	5.96
503.619	6.06
503.967	6.18
504.315	6.28
504.663	6.38
505.011	6.5
505.359	6.63
505.707	6.8
506.055	6.96
506.403	7.08
506.751	7.19
507.098	7.32
507.446	7.47
507.794	7.59
508.141	7.72
508.489	7.88
508.837	8.02
509.184	8.15
509.531	8.3
509.879	8.43
510.226	8.58
510.574	8.71
510.921	8.84
511.268	8.98
511.616	9.14
511.963	9.29
512.31	9.42
512.657	9.57
513.004	9.72
513.351	9.9
513.698	10.06
514.045	10.23
514.392	10.42
514.739	10.57
515.086	10.76
515.432	10.92
515.779	11.07
516.126	11.24
516.473	11.4
516.819	11.53
517.166	11.69
517.512	11.83
517.859	11.98
518.205	12.14
518.552	12.26
518.898	12.4
519.245	12.54
519.591	12.69
519.937	12.8
520.283	12.95
520.629	13.09
520.976	13.25
521.322	13.42
521.668	13.57
522.014	13.74
522.36	13.89
522.706	14.07
523.052	14.28
523.398	14.49
523.743	14.73
524.089	14.95
524.435	15.16
524.781	15.39
525.126	15.57
525.472	15.75
525.817	15.93
526.163	16.08
526.509	16.22
526.854	16.36
527.199	16.52
527.545	16.65
527.89	16.79
528.235	16.95
528.581	17.09
528.926	17.25
529.271	17.42
529.616	17.58
529.961	17.75
530.306	17.91
530.651	18.07
530.996	18.25
531.341	18.45
531.686	18.64
532.031	18.84
532.376	19.05
532.721	19.29
533.065	19.52
533.41	19.75
533.755	20.01
534.099	20.28
534.444	20.54
534.788	20.79
535.133	21.03
535.477	21.27
535.822	21.56
536.166	21.87
536.51	22.16
536.855	22.52
537.199	22.85
537.543	23.23
537.887	23.63
538.231	23.96
538.576	24.35
538.92	24.74
539.264	25.07
539.608	25.44
539.951	25.77
540.295	26.04
540.639	26.35
540.983	26.65
541.327	26.91
541.671	27.21
542.014	27.5
542.358	27.79
542.701	28.08
543.045	28.38
543.389	28.66
543.732	28.94
544.075	29.22
544.419	29.53
544.762	29.84
545.105	30.15
545.449	30.51
545.792	30.84
546.135	31.21
546.478	31.64
546.821	32.04
547.165	32.43
547.508	32.87
547.851	33.3
548.194	33.71
548.536	34.21
548.879	34.63
549.222	35.07
549.565	35.49
549.908	35.93
550.25	36.36
550.593	36.75
550.936	37.2
551.278	37.65
551.621	38.03
551.963	38.39
552.306	38.8
552.648	39.22
552.991	39.62
553.333	39.98
553.675	40.27
554.017	40.6
554.36	40.92
554.702	41.24
555.044	41.59
555.386	41.89
555.728	42.14
556.07	42.48
556.412	42.79
556.754	43.14
557.096	43.48
557.438	43.84
557.78	44.2
558.121	44.57
558.463	44.92
558.805	45.32
559.147	45.68
559.488	45.99
559.83	46.33
560.171	46.6
560.513	46.92
560.854	47.27
561.196	47.54
561.537	47.84
561.878	48.16
562.22	48.39
562.561	48.7
562.902	49
563.243	49.25
563.584	49.47
563.925	49.74
564.266	49.92
564.607	50.15
564.948	50.35
565.289	50.59
565.63	50.78
565.971	50.96
566.312	51.18
566.653	51.39
566.993	51.54
567.334	51.74
567.675	51.94
568.015	52.08
568.356	52.28
568.696	52.51
569.037	52.71
569.377	52.96
569.718	53.18
570.058	53.37
570.398	53.66
570.739	53.85
571.079	54.02
571.419	54.23
571.759	54.35
572.099	54.58
572.439	54.74
572.779	54.97
573.119	55.15
573.459	55.34
573.799	55.53
574.139	55.67
574.479	55.84
574.819	56.04
575.158	56.22
575.498	56.33
575.838	56.45
576.177	56.58
576.517	56.7
576.856	56.8
577.196	56.93
577.535	56.95
577.875	57.14
578.214	57.3
578.553	57.4
578.893	57.62
579.232	57.71
579.571	57.83
579.91	57.87
580.25	57.94
580.589	58.06
580.928	58.21
581.267	58.42
581.606	58.54
581.945	58.58
582.283	58.67
582.622	58.83
582.961	59
583.3	59.11
583.639	59.24
583.977	59.29
584.316	59.42
584.654	59.64
584.993	59.72
585.332	59.75
585.67	59.88
586.008	59.88
586.347	59.97
586.685	60.04
587.024	60.2
587.362	60.29
587.7	60.38
588.038	60.45
588.376	60.46
588.715	60.56
589.053	60.65
589.391	60.8
589.729	60.86
590.067	60.83
590.404	60.9
590.742	61.05
591.08	61.15
591.418	61.19
591.756	61.21
592.093	61.27
592.431	61.35
592.769	61.41
593.106	61.45
593.444	61.54
593.781	61.63
594.119	61.65
594.456	61.78
594.793	61.81
595.131	61.82
595.468	61.85
595.805	61.89
596.143	61.89
596.48	61.87
596.817	61.95
597.154	62.06
597.491	62.14
597.828	62.13
598.165	62.19
598.502	62.24
598.839	62.28
599.176	62.32
599.512	62.39
599.849	62.55
600.186	62.7
600.523	62.73
600.859	62.72
601.196	62.77
601.532	62.83
601.869	62.88
602.205	62.94
602.542	62.98
602.878	63.04
603.215	63.12
603.551	63.16
603.887	63.24
604.223	63.27
604.56	63.29
604.896	63.33
605.232	63.36
605.568	63.46
605.904	63.47
606.24	63.55
606.576	63.59
606.912	63.45
607.248	63.47
607.583	63.57
607.919	63.63
608.255	63.68
608.591	63.67
608.926	63.72
609.262	63.75
609.597	63.83
609.933	63.87
610.268	63.91
610.604	64
610.939	63.96
611.275	64.02
611.61	64.08
611.945	64.13
612.281	64.17
612.616	64.16
612.951	64.27
613.286	64.34
613.621	64.44
613.956	64.7
614.291	64.7
614.626	64.7
614.961	64.77
615.296	64.76
615.631	64.76
615.966	64.77
616.3	64.76
616.635	64.8
616.97	64.92
617.304	64.92
617.639	64.94
617.973	65.03
618.308	65.06
618.642	65.01
618.977	65.04
619.311	64.94
619.646	65
619.98	64.93
620.314	64.8
620.648	64.78
620.983	64.8
621.317	64.87
621.651	64.97
621.985	64.99
622.319	65.1
622.653	65.19
622.987	65.21
623.321	65.27
623.655	65.32
623.988	65.27
624.322	65.23
624.656	65.35
624.99	65.3
625.323	65.2
625.657	65.26
625.99	65.3
626.324	65.34
626.657	65.35
626.991	65.4
627.324	65.53
627.658	65.51
627.991	65.43
628.324	65.43
628.657	65.4
628.991	65.45
629.324	65.43
629.657	65.46
629.99	65.4
630.323	65.51
630.656	65.42
630.989	65.41
631.322	65.54
631.655	65.41
631.987	65.49
632.32	65.59
632.653	65.64
632.986	65.6
633.318	65.66
633.651	65.66
633.984	65.7
634.316	65.74
634.649	65.84
634.981	65.93
635.313	65.92
635.646	65.94
635.978	65.94
636.31	65.96
636.643	65.92
636.975	66.04
637.307	65.97
637.639	66.04
637.971	66.05
638.303	66.04
638.635	66.13
638.967	66.18
639.299	66.3
639.631	66.25
639.963	66.27
640.295	66.37
640.626	66.35
640.958	66.37
641.29	66.41
641.621	66.3
641.953	66.3
642.285	66.38
642.616	66.46
642.948	66.45
643.279	66.45
643.61	66.48
643.942	66.46
644.273	66.42
644.604	66.42
644.936	66.34
645.267	66.27
645.598	66.21
645.929	66.14
646.26	66
646.591	66.14
646.922	66.13
647.253	66.15
647.584	66.28
647.915	66.28
648.245	66.21
648.576	66.28
648.907	66.36
649.238	66.29
649.568	66.25
649.899	66.21
650.229	66.3
650.56	66.36
650.89	66.4
651.221	66.54
651.551	66.55
651.882	66.65
652.212	66.79
652.542	66.78
652.872	66.81
653.203	66.85
653.533	66.75
653.863	66.79
654.193	66.65
654.523	66.62
654.853	66.64
655.183	66.63
655.513	66.49
655.843	66.52
656.172	66.41
656.502	66.45
656.832	66.46
657.162	66.43
657.491	66.5
657.821	66.51
658.15	66.48
658.48	66.59
658.809	66.63
659.139	66.61
659.468	66.65
659.798	66.68
660.127	66.63
660.456	66.64
660.785	66.59
661.115	66.66
661.444	66.61
661.773	66.57
662.102	66.65
662.431	66.9
662.76	66.83
663.089	66.96
663.418	66.91
663.747	67.05
