Data from BU26940_Reflection_00002.txt Node
Date: Tue Nov 19 11:00:09 EST 2019
User: vgr7
Spectrometer: USB2G7710
Scans to average: 3
Trigger mode: 4
Integration Time (sec): 2.000000E-2
Electric dark correction enabled: true
Boxcar width: 10
XAxis mode: Wavelengths
Number of Pixels in Spectrum: 2048
>>>>>Begin Spectral Data<<<<<
177.721	56.04
178.105	-1733.33
178.488	46.79
178.871	47.44
179.254	70.83
179.636	54.71
180.019	79.17
180.402	380
180.785	42.98
181.168	-17.23
181.55	24.15
181.933	50.37
182.316	37.83
182.698	5.89
183.081	-19.13
183.463	-25.26
183.846	-21.5
184.228	-26.08
184.611	-21.27
184.993	-9.44
185.376	5.93
185.758	11.25
186.14	17.62
186.522	-41.44
186.904	-78.89
187.287	-91.39
187.669	-167.95
188.051	-221.9
188.433	-396.79
188.815	813.54
189.197	785.9
189.579	150.25
189.961	257.74
190.342	92.12
190.724	-14.58
191.106	-3.99
191.488	19.63
191.869	25.89
192.251	37.07
192.633	24.72
193.014	25.09
193.396	39.5
193.777	47.35
194.159	35.78
194.54	8.12
194.922	1.18
195.303	-17.3
195.684	-23.02
196.065	-44.97
196.447	-49.93
196.828	-57.25
197.209	-80.1
197.59	-56.98
197.971	-43.34
198.352	-66.96
198.733	-73.25
199.114	-76.34
199.495	-114.95
199.876	-133.97
200.257	-127.45
200.638	-154.71
201.018	-103.21
201.399	-89.64
201.78	-81.95
202.16	-84.77
202.541	-80.22
202.922	-68.95
203.302	-66
203.683	-65.56
204.063	-63.38
204.444	-63.94
204.824	-59.34
205.204	-28.12
205.585	-36.22
205.965	-39.76
206.345	-30.49
206.725	-9.46
207.106	-5.03
207.486	-4.73
207.866	0.71
208.246	10.16
208.626	-1.64
209.006	-10.73
209.386	-13.03
209.766	-16.49
210.145	-3.58
210.525	-12.14
210.905	-6.14
211.285	4.11
211.664	6.94
212.044	13.98
212.424	19.21
212.803	0.25
213.183	-14.15
213.562	-10.66
213.942	-14.28
214.321	-15.67
214.701	-24.25
215.08	-35.73
215.459	-9.14
215.838	-27.2
216.218	-41.04
216.597	-20.01
216.976	-20.91
217.355	-30.72
217.734	-30.64
218.113	-31.01
218.492	-20.97
218.871	-28.93
219.25	-34.86
219.629	-39.31
220.008	-38.54
220.387	-45.13
220.766	-33.64
221.144	-21.2
221.523	-21.44
221.902	-27.28
222.28	-18.01
222.659	-12.28
223.037	-8.58
223.416	-27.78
223.794	-17.73
224.173	-18.83
224.551	-18.39
224.929	-18.22
225.308	-16.61
225.686	-16.59
226.064	-15.91
226.442	-12.85
226.821	-11.08
227.199	-10.23
227.577	-14.17
227.955	-11.59
228.333	-12.69
228.711	-8.12
229.089	-11.27
229.467	-10.79
229.845	-8.82
230.222	-7.57
230.6	-8.37
230.978	-6.06
231.356	-2.15
231.733	-4.35
232.111	-2.24
232.488	-2.76
232.866	-1.6
233.243	0.46
233.621	1.05
233.998	0.55
234.376	-1.42
234.753	-1.5
235.13	-0.58
235.508	0.01
235.885	-0.77
236.262	-0.12
236.639	-1.38
237.016	-1.54
237.393	-0.81
237.77	0.47
238.147	0.61
238.524	1.57
238.901	1.23
239.278	0.54
239.655	1.05
240.032	1.03
240.409	1.69
240.785	1.25
241.162	0.78
241.539	0.96
241.915	1.72
242.292	2.09
242.668	2.31
243.045	2.56
243.421	2.62
243.798	2.66
244.174	2.62
244.551	2.77
244.927	3.18
245.303	2.98
245.679	2.97
246.056	2.87
246.432	2.77
246.808	2.81
247.184	3.06
247.56	2.83
247.936	2.98
248.312	2.9
248.688	3.03
249.064	3.15
249.44	3.09
249.815	2.78
250.191	2.88
250.567	2.87
250.943	2.85
251.318	2.97
251.694	2.93
252.069	3.14
252.445	3.08
252.82	3.29
253.196	3.42
253.571	3.23
253.947	3.13
254.322	3.15
254.697	3
255.073	2.52
255.448	2.89
255.823	2.87
256.198	2.97
256.573	2.9
256.948	2.76
257.323	2.87
257.698	3
258.073	2.79
258.448	2.83
258.823	2.61
259.198	2.66
259.573	2.43
259.948	2.45
260.322	2.5
260.697	2.55
261.072	2.5
261.446	2.51
261.821	2.45
262.195	2.49
262.57	2.55
262.944	2.84
263.319	2.78
263.693	2.73
264.067	2.69
264.442	2.76
264.816	2.93
265.19	2.77
265.564	2.68
265.938	2.87
266.313	2.68
266.687	2.73
267.061	2.7
267.435	3.04
267.809	2.94
268.183	2.87
268.556	2.69
268.93	2.89
269.304	2.97
269.678	3.11
270.051	3.03
270.425	2.94
270.799	2.67
271.172	2.7
271.546	2.67
271.919	2.66
272.293	2.6
272.666	2.58
273.04	2.73
273.413	2.7
273.787	2.56
274.16	2.65
274.533	2.68
274.906	2.77
275.279	2.67
275.653	2.71
276.026	2.88
276.399	2.98
276.772	2.85
277.145	2.84
277.518	2.81
277.891	2.75
278.263	2.9
278.636	3.13
279.009	3.16
279.382	3.19
279.755	3.15
280.127	3.25
280.5	3.18
280.872	3.08
281.245	3.14
281.617	3.1
281.99	3.1
282.362	3.15
282.735	3.13
283.107	3.05
283.479	3
283.852	2.96
284.224	2.89
284.596	2.86
284.968	2.7
285.34	2.65
285.713	2.69
286.085	2.61
286.457	2.59
286.829	2.58
287.201	2.6
287.572	2.65
287.944	2.67
288.316	2.69
288.688	2.83
289.06	2.81
289.431	2.92
289.803	3.02
290.175	3.05
290.546	2.97
290.918	3.01
291.289	2.95
291.661	2.87
292.032	2.84
292.403	2.85
292.775	3.1
293.146	3.15
293.517	3.11
293.889	3.17
294.26	3.17
294.631	3.07
295.002	3.08
295.373	2.98
295.744	2.96
296.115	2.99
296.486	2.96
296.857	2.92
297.228	2.86
297.599	2.7
297.97	2.69
298.34	2.76
298.711	2.74
299.082	2.89
299.452	2.94
299.823	2.86
300.194	2.91
300.564	2.71
300.935	2.8
301.305	2.91
301.676	2.84
302.046	2.84
302.416	2.9
302.787	2.89
303.157	2.92
303.527	2.95
303.897	2.87
304.267	2.82
304.637	2.84
305.008	2.83
305.378	2.77
305.748	2.77
306.117	2.67
306.487	2.73
306.857	2.65
307.227	2.64
307.597	2.69
307.967	2.74
308.336	2.82
308.706	2.71
309.076	2.69
309.445	2.8
309.815	2.77
310.184	2.68
310.554	2.6
310.923	2.59
311.293	2.62
311.662	2.68
312.031	2.64
312.401	2.62
312.77	2.69
313.139	2.89
313.508	2.74
313.877	2.81
314.246	2.84
314.616	3
314.985	3.03
315.353	3.04
315.722	3.01
316.091	3.09
316.46	2.99
316.829	2.99
317.198	2.94
317.567	2.96
317.935	2.94
318.304	3.13
318.672	3.23
319.041	3.31
319.41	3.22
319.778	3.33
320.147	3.49
320.515	3.26
320.883	3.07
321.252	3.24
321.62	3.21
321.988	3.2
322.357	3.03
322.725	3.01
323.093	2.93
323.461	2.94
323.829	2.86
324.197	3
324.565	2.91
324.933	2.84
325.301	2.76
325.669	2.85
326.037	2.77
326.405	2.72
326.772	2.7
327.14	2.81
327.508	2.61
327.875	2.42
328.243	2.44
328.61	2.51
328.978	2.39
329.346	2.31
329.713	2.31
330.08	2.36
330.448	2.24
330.815	2.34
331.182	2.24
331.55	2.35
331.917	2.28
332.284	2.32
332.651	2.28
333.018	2.29
333.385	2.32
333.752	2.31
334.119	2.3
334.486	2.16
334.853	2.13
335.22	2.31
335.587	2.4
335.954	2.48
336.32	2.45
336.687	2.5
337.054	2.66
337.42	2.61
337.787	2.58
338.153	2.6
338.52	2.66
338.886	2.7
339.253	2.6
339.619	2.59
339.986	2.5
340.352	2.6
340.718	2.64
341.084	2.64
341.451	2.55
341.817	2.5
342.183	2.5
342.549	2.52
342.915	2.48
343.281	2.4
343.647	2.41
344.013	2.51
344.379	2.54
344.745	2.43
345.11	2.51
345.476	2.49
345.842	2.56
346.208	2.5
346.573	2.55
346.939	2.55
347.304	2.68
347.67	2.74
348.035	2.68
348.401	2.76
348.766	2.73
349.132	2.87
349.497	2.97
349.862	3
350.228	3.02
350.593	2.98
350.958	3.12
351.323	3.15
351.688	3.14
352.053	3.15
352.418	3.11
352.783	3.06
353.148	3.07
353.513	3.02
353.878	3
354.243	2.95
354.608	2.96
354.972	2.92
355.337	2.95
355.702	2.92
356.066	2.92
356.431	2.91
356.795	2.8
357.16	2.75
357.524	2.74
357.889	2.73
358.253	2.76
358.618	2.72
358.982	2.66
359.346	2.62
359.71	2.64
360.075	2.69
360.439	2.71
360.803	2.75
361.167	2.75
361.531	2.76
361.895	2.78
362.259	2.79
362.623	2.79
362.987	2.77
363.351	2.76
363.714	2.74
364.078	2.76
364.442	2.74
364.806	2.81
365.169	2.82
365.533	2.82
365.896	2.89
366.26	2.88
366.623	2.88
366.987	2.9
367.35	2.85
367.714	2.82
368.077	2.81
368.44	2.79
368.803	2.81
369.167	2.8
369.53	2.82
369.893	2.81
370.256	2.76
370.619	2.76
370.982	2.82
371.345	2.78
371.708	2.73
372.071	2.8
372.434	2.75
372.797	2.75
373.159	2.67
373.522	2.6
373.885	2.58
374.247	2.6
374.61	2.65
374.973	2.66
375.335	2.72
375.698	2.76
376.06	2.8
376.423	2.81
376.785	2.86
377.147	2.83
377.51	2.89
377.872	2.9
378.234	2.86
378.596	2.83
378.958	2.84
379.321	2.9
379.683	2.92
380.045	2.88
380.407	2.85
380.769	2.84
381.13	2.87
381.492	2.89
381.854	2.91
382.216	2.89
382.578	2.93
382.939	2.92
383.301	2.89
383.663	2.83
384.024	2.82
384.386	2.78
384.747	2.79
385.109	2.75
385.47	2.81
385.832	2.83
386.193	2.82
386.554	2.77
386.916	2.79
387.277	2.76
387.638	2.84
387.999	2.82
388.36	2.87
388.721	2.83
389.082	2.84
389.443	2.82
389.804	2.82
390.165	2.79
390.526	2.77
390.887	2.78
391.248	2.81
391.609	2.79
391.969	2.84
392.33	2.82
392.691	2.83
393.051	2.8
393.412	2.82
393.772	2.88
394.133	2.94
394.493	2.94
394.854	2.95
395.214	2.9
395.574	2.94
395.935	2.91
396.295	2.93
396.655	2.91
397.015	2.92
397.376	2.92
397.736	2.96
398.096	2.97
398.456	2.91
398.816	2.88
399.176	2.9
399.535	2.9
399.895	2.92
400.255	2.89
400.615	2.9
400.975	2.92
401.334	2.89
401.694	2.89
402.054	2.89
402.413	2.86
402.773	2.89
403.132	2.9
403.492	2.9
403.851	2.9
404.211	2.91
404.57	2.93
404.929	2.89
405.288	2.89
405.648	2.92
406.007	2.96
406.366	2.95
406.725	2.94
407.084	2.89
407.443	2.88
407.802	2.92
408.161	2.92
408.52	2.91
408.879	2.88
409.238	2.9
409.596	2.9
409.955	2.91
410.314	2.88
410.673	2.86
411.031	2.88
411.39	2.9
411.748	2.91
412.107	2.9
412.465	2.94
412.824	2.93
413.182	2.89
413.54	2.92
413.899	2.96
414.257	2.97
414.615	2.98
414.974	2.99
415.332	2.95
415.69	2.96
416.048	2.96
416.406	2.96
416.764	2.94
417.122	2.95
417.48	2.95
417.838	2.96
418.195	2.96
418.553	2.97
418.911	2.95
419.269	2.94
419.626	2.94
419.984	2.94
420.342	2.97
420.699	2.97
421.057	2.96
421.414	2.96
421.772	2.97
422.129	2.96
422.486	2.96
422.844	2.97
423.201	2.96
423.558	2.97
423.915	2.97
424.273	2.97
424.63	2.98
424.987	2.99
425.344	2.99
425.701	3
426.058	3
426.415	3.02
426.772	3.03
427.128	3.05
427.485	3.06
427.842	3.03
428.199	3.03
428.555	3.04
428.912	3.02
429.269	3.02
429.625	3.03
429.982	3.04
430.338	3.05
430.695	3.05
431.051	3.04
431.407	3.04
431.764	3.03
432.12	3.03
432.476	3.03
432.832	3.04
433.189	3.05
433.545	3.06
433.901	3.07
434.257	3.07
434.613	3.04
434.969	3.04
435.325	3.05
435.681	3.06
436.036	3.06
436.392	3.06
436.748	3.06
437.104	3.06
437.459	3.06
437.815	3.07
438.171	3.07
438.526	3.09
438.882	3.1
439.237	3.1
439.593	3.1
439.948	3.08
440.304	3.06
440.659	3.05
441.014	3.06
441.369	3.06
441.725	3.05
442.08	3.06
442.435	3.05
442.79	3.05
443.145	3.06
443.5	3.05
443.855	3.07
444.21	3.07
444.565	3.08
444.92	3.1
445.275	3.08
445.629	3.09
445.984	3.09
446.339	3.08
446.693	3.08
447.048	3.08
447.403	3.08
447.757	3.1
448.112	3.11
448.466	3.1
448.82	3.08
449.175	3.09
449.529	3.1
449.883	3.1
450.238	3.1
450.592	3.11
450.946	3.12
451.3	3.1
451.654	3.09
452.008	3.09
452.362	3.06
452.716	3.08
453.07	3.08
453.424	3.06
453.778	3.06
454.132	3.07
454.486	3.07
454.839	3.07
455.193	3.08
455.547	3.07
455.9	3.08
456.254	3.09
456.607	3.06
456.961	3.07
457.314	3.09
457.668	3.07
458.021	3.05
458.375	3.06
458.728	3.05
459.081	3.06
459.434	3.08
459.787	3.1
460.141	3.09
460.494	3.09
460.847	3.08
461.2	3.08
461.553	3.1
461.906	3.1
462.259	3.11
462.611	3.11
462.964	3.1
463.317	3.11
463.67	3.09
464.022	3.12
464.375	3.09
464.728	3.07
465.08	3.08
465.433	3.11
465.785	3.11
466.138	3.13
466.49	3.15
466.843	3.14
467.195	3.14
467.547	3.16
467.899	3.18
468.252	3.19
468.604	3.19
468.956	3.16
469.308	3.15
469.66	3.16
470.012	3.15
470.364	3.17
470.716	3.16
471.068	3.19
471.42	3.19
471.772	3.19
472.123	3.22
472.475	3.25
472.827	3.24
473.178	3.24
473.53	3.23
473.882	3.22
474.233	3.21
474.585	3.2
474.936	3.19
475.288	3.16
475.639	3.19
475.99	3.19
476.342	3.22
476.693	3.24
477.044	3.22
477.395	3.22
477.746	3.22
478.097	3.23
478.448	3.21
478.8	3.2
479.15	3.21
479.501	3.19
479.852	3.19
480.203	3.19
480.554	3.2
480.905	3.22
481.255	3.23
481.606	3.23
481.957	3.24
482.307	3.24
482.658	3.25
483.009	3.25
483.359	3.26
483.709	3.27
484.06	3.27
484.41	3.28
484.761	3.29
485.111	3.3
485.461	3.3
485.811	3.31
486.162	3.32
486.512	3.32
486.862	3.33
487.212	3.33
487.562	3.35
487.912	3.34
488.262	3.34
488.612	3.33
488.961	3.34
489.311	3.34
489.661	3.34
490.011	3.33
490.36	3.34
490.71	3.33
491.06	3.32
491.409	3.31
491.759	3.32
492.108	3.31
492.458	3.3
492.807	3.29
493.157	3.29
493.506	3.3
493.855	3.3
494.204	3.3
494.554	3.3
494.903	3.3
495.252	3.31
495.601	3.32
495.95	3.34
496.299	3.32
496.648	3.31
496.997	3.32
497.346	3.34
497.695	3.34
498.043	3.35
498.392	3.35
498.741	3.35
499.09	3.37
499.438	3.39
499.787	3.37
500.135	3.38
500.484	3.38
500.832	3.37
501.181	3.36
501.529	3.37
501.878	3.36
502.226	3.35
502.574	3.35
502.923	3.33
503.271	3.34
503.619	3.35
503.967	3.35
504.315	3.34
504.663	3.33
505.011	3.33
505.359	3.32
505.707	3.33
506.055	3.35
506.403	3.33
506.751	3.33
507.098	3.36
507.446	3.34
507.794	3.34
508.141	3.34
508.489	3.36
508.837	3.35
509.184	3.36
509.531	3.34
509.879	3.35
510.226	3.35
510.574	3.33
510.921	3.34
511.268	3.36
511.616	3.39
511.963	3.38
512.31	3.39
512.657	3.41
513.004	3.39
513.351	3.38
513.698	3.4
514.045	3.38
514.392	3.37
514.739	3.38
515.086	3.39
515.432	3.43
515.779	3.43
516.126	3.45
516.473	3.44
516.819	3.45
517.166	3.47
517.512	3.47
517.859	3.49
518.205	3.48
518.552	3.48
518.898	3.46
519.245	3.46
519.591	3.45
519.937	3.46
520.283	3.46
520.629	3.47
520.976	3.47
521.322	3.48
521.668	3.49
522.014	3.51
522.36	3.52
522.706	3.51
523.052	3.52
523.398	3.5
523.743	3.51
524.089	3.54
524.435	3.51
524.781	3.51
525.126	3.52
525.472	3.53
525.817	3.54
526.163	3.55
526.509	3.57
526.854	3.58
527.199	3.58
527.545	3.59
527.89	3.6
528.235	3.6
528.581	3.6
528.926	3.6
529.271	3.58
529.616	3.58
529.961	3.57
530.306	3.56
530.651	3.56
530.996	3.58
531.341	3.57
531.686	3.58
532.031	3.59
532.376	3.58
532.721	3.58
533.065	3.58
533.41	3.57
533.755	3.57
534.099	3.56
534.444	3.56
534.788	3.54
535.133	3.51
535.477	3.52
535.822	3.52
536.166	3.52
536.51	3.53
536.855	3.5
537.199	3.52
537.543	3.53
537.887	3.53
538.231	3.52
538.576	3.5
538.92	3.52
539.264	3.51
539.608	3.52
539.951	3.53
540.295	3.54
540.639	3.55
540.983	3.56
541.327	3.58
541.671	3.58
542.014	3.61
542.358	3.63
542.701	3.62
543.045	3.63
543.389	3.63
543.732	3.63
544.075	3.65
544.419	3.66
544.762	3.67
545.105	3.67
545.449	3.67
545.792	3.69
546.135	3.69
546.478	3.71
546.821	3.7
547.165	3.7
547.508	3.69
547.851	3.7
548.194	3.67
548.536	3.65
548.879	3.65
549.222	3.64
549.565	3.63
549.908	3.63
550.25	3.63
550.593	3.64
550.936	3.65
551.278	3.64
551.621	3.62
551.963	3.63
552.306	3.64
552.648	3.64
552.991	3.65
553.333	3.61
553.675	3.61
554.017	3.62
554.36	3.64
554.702	3.65
555.044	3.64
555.386	3.68
555.728	3.72
556.07	3.7
556.412	3.7
556.754	3.69
557.096	3.72
557.438	3.72
557.78	3.71
558.121	3.72
558.463	3.74
558.805	3.74
559.147	3.77
559.488	3.77
559.83	3.76
560.171	3.75
560.513	3.78
560.854	3.76
561.196	3.78
561.537	3.77
561.878	3.76
562.22	3.76
562.561	3.77
562.902	3.75
563.243	3.75
563.584	3.76
563.925	3.77
564.266	3.77
564.607	3.79
564.948	3.78
565.289	3.79
565.63	3.79
565.971	3.81
566.312	3.76
566.653	3.76
566.993	3.76
567.334	3.79
567.675	3.8
568.015	3.81
568.356	3.78
568.696	3.78
569.037	3.76
569.377	3.76
569.718	3.76
570.058	3.74
570.398	3.76
570.739	3.74
571.079	3.73
571.419	3.7
571.759	3.68
572.099	3.68
572.439	3.65
572.779	3.65
573.119	3.63
573.459	3.64
573.799	3.65
574.139	3.64
574.479	3.61
574.819	3.6
575.158	3.6
575.498	3.58
575.838	3.59
576.177	3.61
576.517	3.63
576.856	3.63
577.196	3.62
577.535	3.64
577.875	3.65
578.214	3.65
578.553	3.66
578.893	3.69
579.232	3.7
579.571	3.71
579.91	3.7
580.25	3.73
580.589	3.73
580.928	3.74
581.267	3.72
581.606	3.76
581.945	3.77
582.283	3.77
582.622	3.82
582.961	3.82
583.3	3.79
583.639	3.8
583.977	3.8
584.316	3.82
584.654	3.8
584.993	3.83
585.332	3.87
585.67	3.87
586.008	3.87
586.347	3.91
586.685	3.91
587.024	3.93
587.362	3.89
587.7	3.91
588.038	3.92
588.376	3.93
588.715	3.9
589.053	3.9
589.391	3.89
589.729	3.86
590.067	3.88
590.404	3.89
590.742	3.88
591.08	3.84
591.418	3.87
591.756	3.84
592.093	3.85
592.431	3.83
592.769	3.82
593.106	3.8
593.444	3.78
593.781	3.77
594.119	3.78
594.456	3.78
594.793	3.79
595.131	3.78
595.468	3.81
595.805	3.83
596.143	3.83
596.48	3.84
596.817	3.87
597.154	3.89
597.491	3.94
597.828	3.92
598.165	3.94
598.502	3.91
598.839	3.93
599.176	3.91
599.512	3.92
599.849	3.95
600.186	3.94
600.523	3.96
600.859	3.97
601.196	3.95
601.532	3.99
601.869	3.96
602.205	3.97
602.542	3.93
602.878	3.93
603.215	3.94
603.551	3.94
603.887	3.91
604.223	3.88
604.56	3.85
604.896	3.88
605.232	3.88
605.568	3.9
605.904	3.89
606.24	3.88
606.576	3.91
606.912	3.9
607.248	3.96
607.583	3.99
607.919	4
608.255	4.02
608.591	4.01
608.926	4.05
609.262	4.03
609.597	4.05
609.933	4
610.268	4.04
610.604	4.03
610.939	4.1
611.275	4.14
611.61	4.15
611.945	4.13
612.281	4.12
612.616	4.14
612.951	4.18
613.286	4.2
613.621	4.16
613.956	4.19
614.291	4.16
614.626	4.1
614.961	4.08
615.296	4.09
615.631	4.09
615.966	4.09
616.3	4.12
616.635	4.13
616.97	4.18
617.304	4.13
617.639	4.16
617.973	4.1
618.308	4.09
618.642	4.1
618.977	4.09
619.311	4.14
619.646	4.11
619.98	4.07
620.314	4.08
620.648	4.09
620.983	4.06
621.317	4.07
621.651	4.06
621.985	4.14
622.319	4.11
622.653	4.13
622.987	4.15
623.321	4.15
623.655	4.17
623.988	4.19
624.322	4.17
624.656	4.16
624.99	4.17
625.323	4.16
625.657	4.16
625.99	4.18
626.324	4.15
626.657	4.12
626.991	4.14
627.324	4.14
627.658	4.1
627.991	4.17
628.324	4.15
628.657	4.16
628.991	4.14
629.324	4.12
629.657	4.07
629.99	4.06
630.323	4.06
630.656	4.07
630.989	4.04
631.322	4.07
631.655	4.05
631.987	4.03
632.32	4.04
632.653	4.02
632.986	3.98
633.318	3.96
633.651	3.97
633.984	3.97
634.316	3.96
634.649	3.99
634.981	3.94
635.313	3.97
635.646	3.97
635.978	3.99
636.31	4.01
636.643	4.02
636.975	4.01
637.307	4.01
637.639	3.97
637.971	3.99
638.303	4.02
638.635	4.05
638.967	4.09
639.299	4.06
639.631	4.1
639.963	4.13
640.295	4.2
640.626	4.22
640.958	4.23
641.29	4.24
641.621	4.24
641.953	4.2
642.285	4.21
642.616	4.2
642.948	4.19
643.279	4.17
643.61	4.19
643.942	4.18
644.273	4.23
644.604	4.28
644.936	4.24
645.267	4.22
645.598	4.23
645.929	4.19
646.26	4.2
646.591	4.23
646.922	4.25
647.253	4.21
647.584	4.25
647.915	4.23
648.245	4.26
648.576	4.24
648.907	4.26
649.238	4.2
649.568	4.2
649.899	4.13
650.229	4.19
650.56	4.18
650.89	4.2
651.221	4.14
651.551	4.09
651.882	4.09
652.212	4.11
652.542	4.16
652.872	4.18
653.203	4.19
653.533	4.13
653.863	4.11
654.193	4.09
654.523	4.02
654.853	4.05
655.183	4.02
655.513	4.09
655.843	4.12
656.172	4.13
656.502	4.12
656.832	4.23
657.162	4.15
657.491	4.17
657.821	4.12
658.15	4.19
658.48	4.23
658.809	4.27
659.139	4.29
659.468	4.24
659.798	4.24
660.127	4.24
660.456	4.29
660.785	4.27
661.115	4.33
661.444	4.4
661.773	4.47
662.102	4.52
662.431	4.53
662.76	4.52
663.089	4.59
663.418	4.6
663.747	4.6
664.076	4.74
664.404	4.72
664.733	4.77
665.062	4.8
665.39	4.77
665.719	4.82
666.048	4.77
666.376	4.8
666.705	4.77
667.033	4.75
667.362	4.69
667.69	4.75
668.018	4.75
668.347	4.7
668.675	4.6
669.003	4.54
669.331	4.5
669.659	4.49
669.987	4.46
670.315	4.48
670.643	4.41
670.971	4.34
671.299	4.34
671.627	4.32
671.955	4.24
672.283	4.17
672.61	4.11
672.938	4.13
673.266	4.13
673.593	4.17
673.921	4.15
674.249	4.22
674.576	4.25
674.904	4.23
675.231	4.21
675.558	4.2
675.886	4.26
676.213	4.36
676.54	4.42
676.867	4.4
677.195	4.46
677.522	4.48
677.849	4.48
678.176	4.45
