Data from BU26932_Reflection_00006.txt Node
Date: Tue Nov 19 10:44:27 EST 2019
User: vgr7
Spectrometer: USB2G7710
Scans to average: 3
Trigger mode: 4
Integration Time (sec): 2.000000E-2
Electric dark correction enabled: true
Boxcar width: 10
XAxis mode: Wavelengths
Number of Pixels in Spectrum: 2048
>>>>>Begin Spectral Data<<<<<
177.721	69.18
178.105	17.11
178.488	-23.89
178.871	-177.42
179.254	3200
179.636	281.82
180.019	-197.55
180.402	85.71
180.785	36.36
181.168	-127.27
181.55	-206.45
181.933	-547.54
182.316	-164.98
182.698	-29
183.081	28.57
183.463	-36.05
183.846	20.53
184.228	14.73
184.611	17.56
184.993	25.36
185.376	30.97
185.758	32.84
186.14	14.99
186.522	22.61
186.904	14.59
187.287	15.19
187.669	18.04
188.051	15.96
188.433	14.38
188.815	27.05
189.197	39.89
189.579	36.29
189.961	31.71
190.342	33.97
190.724	27.63
191.106	28.11
191.488	44.41
191.869	36.97
192.251	35.91
192.633	35.04
193.014	33.81
193.396	44.17
193.777	67.78
194.159	82.43
194.54	65.94
194.922	82.21
195.303	91.42
195.684	85.58
196.065	97.19
196.447	135.02
196.828	126.79
197.209	129.93
197.59	147.38
197.971	110.25
198.352	107.08
198.733	102.23
199.114	106.42
199.495	95.75
199.876	105.7
200.257	108.78
200.638	102.57
201.018	121.4
201.399	106.56
201.78	80.57
202.16	87.37
202.541	79.92
202.922	66.75
203.302	40.54
203.683	37.88
204.063	28.82
204.444	18.81
204.824	18.55
205.204	17.27
205.585	11.94
205.965	17.51
206.345	23.19
206.725	34.82
207.106	30.31
207.486	29.04
207.866	28.72
208.246	20.38
208.626	16.26
209.006	11.66
209.386	19.6
209.766	17.92
210.145	10.6
210.525	17.71
210.905	19.04
211.285	24.26
211.664	40.86
212.044	40.06
212.424	40.01
212.803	37.06
213.183	29.9
213.562	25.24
213.942	13.83
214.321	11.88
214.701	4.77
215.08	6.38
215.459	7.54
215.838	-1.88
216.218	-8.44
216.597	-0.41
216.976	0.84
217.355	2.15
217.734	1.21
218.113	4.69
218.492	-0.1
218.871	5.95
219.25	21.5
219.629	13.15
220.008	14.13
220.387	16.28
220.766	19.51
221.144	24.62
221.523	27.91
221.902	32.08
222.28	28.45
222.659	37.2
223.037	37.02
223.416	44.25
223.794	46.25
224.173	49.19
224.551	46.06
224.929	39.08
225.308	33.06
225.686	31.33
226.064	24.98
226.442	22.54
226.821	18.85
227.199	13.51
227.577	14.53
227.955	14.39
228.333	14.8
228.711	15.49
229.089	14.2
229.467	15.76
229.845	14.17
230.222	17.03
230.6	12.5
230.978	15.46
231.356	9.93
231.733	8.75
232.111	10.34
232.488	9.42
232.866	10.16
233.243	9.72
233.621	10.62
233.998	11.57
234.376	13.89
234.753	14.81
235.13	13.21
235.508	13.3
235.885	13.23
236.262	12.01
236.639	10.04
237.016	10.08
237.393	11.26
237.77	11.19
238.147	9.15
238.524	9.25
238.901	6.84
239.278	7.52
239.655	7.61
240.032	8.17
240.409	7.67
240.785	7.41
241.162	7.54
241.539	7.53
241.915	7.24
242.292	6.96
242.668	6.81
243.045	7.05
243.421	6.81
243.798	6.26
244.174	6.17
244.551	6.08
244.927	5.88
245.303	5.3
245.679	5.12
246.056	5.12
246.432	5.01
246.808	5.4
247.184	5.36
247.56	5.4
247.936	5.06
248.312	5.33
248.688	5.41
249.064	5.38
249.44	5.21
249.815	5.27
250.191	5.15
250.567	4.89
250.943	4.74
251.318	4.7
251.694	4.62
252.069	4.79
252.445	5.09
252.82	5.1
253.196	4.9
253.571	5.19
253.947	5.26
254.322	5.07
254.697	4.96
255.073	5.03
255.448	4.73
255.823	4.87
256.198	4.63
256.573	4.26
256.948	4.35
257.323	4.52
257.698	4.52
258.073	4.55
258.448	4.59
258.823	4.58
259.198	4.41
259.573	4.45
259.948	4.44
260.322	4.21
260.697	4.29
261.072	4.46
261.446	4.44
261.821	4.45
262.195	4.55
262.57	4.59
262.944	4.56
263.319	4.74
263.693	4.68
264.067	4.7
264.442	4.9
264.816	4.73
265.19	4.52
265.564	4.45
265.938	4.46
266.313	4.57
266.687	4.59
267.061	4.7
267.435	4.78
267.809	4.57
268.183	4.57
268.556	4.56
268.93	4.46
269.304	4.35
269.678	4.26
270.051	4.27
270.425	4.15
270.799	3.99
271.172	3.99
271.546	4.01
271.919	4.06
272.293	4.06
272.666	4.16
273.04	4.11
273.413	4.09
273.787	4.06
274.16	3.96
274.533	3.96
274.906	4.06
275.279	4.05
275.653	4.13
276.026	4.23
276.399	4.12
276.772	4.2
277.145	4.31
277.518	4.33
277.891	4.43
278.263	4.51
278.636	4.66
279.009	4.58
279.382	4.42
279.755	4.43
280.127	4.41
280.5	4.28
280.872	4.34
281.245	4.39
281.617	4.4
281.99	4.39
282.362	4.3
282.735	4.2
283.107	4.25
283.479	4.27
283.852	4.27
284.224	4.26
284.596	4.21
284.968	4.1
285.34	4.08
285.713	4.06
286.085	4.02
286.457	3.96
286.829	3.92
287.201	4.17
287.572	4.21
287.944	4.27
288.316	4.34
288.688	4.51
289.06	4.46
289.431	4.43
289.803	4.46
290.175	4.45
290.546	4.37
290.918	4.29
291.289	4.18
291.661	4.13
292.032	4.17
292.403	4.15
292.775	4.17
293.146	4.22
293.517	4.13
293.889	4.15
294.26	4.05
294.631	4.09
295.002	4.01
295.373	3.86
295.744	3.83
296.115	3.79
296.486	3.72
296.857	3.68
297.228	3.71
297.599	3.65
297.97	3.74
298.34	3.94
298.711	4.07
299.082	4.15
299.452	4.1
299.823	4
300.194	4.09
300.564	4.18
300.935	4.22
301.305	4.23
301.676	4.13
302.046	4.28
302.416	4.22
302.787	4.11
303.157	4.13
303.527	4.15
303.897	4.16
304.267	4.06
304.637	3.92
305.008	3.94
305.378	3.92
305.748	3.8
306.117	3.52
306.487	3.33
306.857	3.37
307.227	3.46
307.597	3.47
307.967	3.4
308.336	3.29
308.706	3.14
309.076	3.22
309.445	3.31
309.815	3.47
310.184	3.45
310.554	3.41
310.923	3.45
311.293	3.43
311.662	3.51
312.031	3.49
312.401	3.57
312.77	3.47
313.139	3.48
313.508	3.48
313.877	3.43
314.246	3.36
314.616	3.38
314.985	3.37
315.353	3.47
315.722	3.4
316.091	3.54
316.46	3.61
316.829	3.5
317.198	3.43
317.567	3.22
317.935	3.28
318.304	3.5
318.672	3.54
319.041	3.5
319.41	3.54
319.778	3.52
320.147	3.62
320.515	3.68
320.883	3.65
321.252	3.7
321.62	3.85
321.988	3.91
322.357	3.83
322.725	3.77
323.093	3.59
323.461	3.76
323.829	3.65
324.197	3.7
324.565	3.74
324.933	3.77
325.301	3.77
325.669	3.77
326.037	3.68
326.405	3.7
326.772	3.68
327.14	3.58
327.508	3.64
327.875	3.69
328.243	3.64
328.61	3.64
328.978	3.64
329.346	3.7
329.713	3.82
330.08	3.84
330.448	3.94
330.815	4.15
331.182	4.01
331.55	4.04
331.917	3.94
332.284	3.93
332.651	3.91
333.018	3.77
333.385	3.73
333.752	3.79
334.119	3.78
334.486	3.76
334.853	3.78
335.22	3.74
335.587	3.67
335.954	3.73
336.32	3.8
336.687	3.79
337.054	3.66
337.42	3.66
337.787	3.52
338.153	3.53
338.52	3.48
338.886	3.54
339.253	3.43
339.619	3.43
339.986	3.41
340.352	3.4
340.718	3.6
341.084	3.65
341.451	3.49
341.817	3.44
342.183	3.5
342.549	3.6
342.915	3.62
343.281	3.61
343.647	3.61
344.013	3.61
344.379	3.56
344.745	3.64
345.11	3.58
345.476	3.75
345.842	3.71
346.208	3.74
346.573	3.73
346.939	3.81
347.304	3.89
347.67	3.94
348.035	3.94
348.401	3.87
348.766	3.94
349.132	4.07
349.497	4.13
349.862	4.16
350.228	4.15
350.593	4.15
350.958	4.19
351.323	4.19
351.688	4.15
352.053	4.16
352.418	4.17
352.783	4.19
353.148	4.16
353.513	4.17
353.878	4.1
354.243	4.11
354.608	4.1
354.972	4.1
355.337	4.12
355.702	4.08
356.066	4.12
356.431	4.05
356.795	4.05
357.16	4.01
357.524	3.95
357.889	3.87
358.253	3.92
358.618	3.9
358.982	3.87
359.346	3.95
359.71	4.02
360.075	4.04
360.439	4.03
360.803	4.05
361.167	3.97
361.531	4
361.895	3.94
362.259	3.98
362.623	3.93
362.987	3.88
363.351	3.89
363.714	3.9
364.078	3.9
364.442	3.84
364.806	3.82
365.169	3.87
365.533	3.88
365.896	3.86
366.26	3.87
366.623	3.91
366.987	3.85
367.35	3.77
367.714	3.72
368.077	3.72
368.44	3.65
368.803	3.72
369.167	3.63
369.53	3.65
369.893	3.67
370.256	3.61
370.619	3.64
370.982	3.64
371.345	3.64
371.708	3.67
372.071	3.66
372.434	3.71
372.797	3.71
373.159	3.7
373.522	3.69
373.885	3.65
374.247	3.62
374.61	3.63
374.973	3.64
375.335	3.65
375.698	3.64
376.06	3.66
376.423	3.62
376.785	3.67
377.147	3.68
377.51	3.61
377.872	3.69
378.234	3.71
378.596	3.74
378.958	3.72
379.321	3.64
379.683	3.68
380.045	3.65
380.407	3.62
380.769	3.61
381.13	3.58
381.492	3.56
381.854	3.59
382.216	3.57
382.578	3.6
382.939	3.59
383.301	3.57
383.663	3.54
384.024	3.57
384.386	3.55
384.747	3.52
385.109	3.53
385.47	3.45
385.832	3.46
386.193	3.44
386.554	3.37
386.916	3.42
387.277	3.39
387.638	3.4
387.999	3.4
388.36	3.4
388.721	3.4
389.082	3.41
389.443	3.4
389.804	3.41
390.165	3.42
390.526	3.43
390.887	3.44
391.248	3.47
391.609	3.47
391.969	3.46
392.33	3.45
392.691	3.45
393.051	3.47
393.412	3.46
393.772	3.48
394.133	3.48
394.493	3.46
394.854	3.48
395.214	3.48
395.574	3.49
395.935	3.53
396.295	3.56
396.655	3.57
397.015	3.61
397.376	3.58
397.736	3.56
398.096	3.55
398.456	3.56
398.816	3.58
399.176	3.54
399.535	3.54
399.895	3.53
400.255	3.53
400.615	3.54
400.975	3.54
401.334	3.5
401.694	3.54
402.054	3.54
402.413	3.49
402.773	3.47
403.132	3.44
403.492	3.42
403.851	3.39
404.211	3.37
404.57	3.33
404.929	3.35
405.288	3.37
405.648	3.34
406.007	3.36
406.366	3.36
406.725	3.39
407.084	3.41
407.443	3.43
407.802	3.44
408.161	3.42
408.52	3.4
408.879	3.39
409.238	3.36
409.596	3.38
409.955	3.4
410.314	3.41
410.673	3.38
411.031	3.36
411.39	3.37
411.748	3.35
412.107	3.35
412.465	3.34
412.824	3.33
413.182	3.34
413.54	3.33
413.899	3.32
414.257	3.27
414.615	3.25
414.974	3.26
415.332	3.25
415.69	3.27
416.048	3.28
416.406	3.29
416.764	3.29
417.122	3.27
417.48	3.27
417.838	3.27
418.195	3.3
418.553	3.31
418.911	3.29
419.269	3.31
419.626	3.32
419.984	3.32
420.342	3.3
420.699	3.32
421.057	3.31
421.414	3.3
421.772	3.33
422.129	3.32
422.486	3.31
422.844	3.32
423.201	3.33
423.558	3.31
423.915	3.32
424.273	3.32
424.63	3.33
424.987	3.34
425.344	3.34
425.701	3.34
426.058	3.34
426.415	3.35
426.772	3.33
427.128	3.33
427.485	3.34
427.842	3.35
428.199	3.34
428.555	3.34
428.912	3.35
429.269	3.32
429.625	3.34
429.982	3.35
430.338	3.37
430.695	3.34
431.051	3.35
431.407	3.34
431.764	3.33
432.12	3.34
432.476	3.35
432.832	3.34
433.189	3.33
433.545	3.33
433.901	3.34
434.257	3.34
434.613	3.34
434.969	3.34
435.325	3.35
435.681	3.34
436.036	3.34
436.392	3.34
436.748	3.36
437.104	3.35
437.459	3.35
437.815	3.33
438.171	3.33
438.526	3.33
438.882	3.33
439.237	3.33
439.593	3.34
439.948	3.33
440.304	3.34
440.659	3.35
441.014	3.36
441.369	3.36
441.725	3.38
442.08	3.36
442.435	3.35
442.79	3.34
443.145	3.35
443.5	3.33
443.855	3.34
444.21	3.34
444.565	3.35
444.92	3.35
445.275	3.37
445.629	3.38
445.984	3.38
446.339	3.38
446.693	3.39
447.048	3.37
447.403	3.36
447.757	3.36
448.112	3.36
448.466	3.35
448.82	3.34
449.175	3.33
449.529	3.34
449.883	3.34
450.238	3.35
450.592	3.35
450.946	3.36
451.3	3.36
451.654	3.34
452.008	3.35
452.362	3.34
452.716	3.32
453.07	3.31
453.424	3.31
453.778	3.28
454.132	3.28
454.486	3.29
454.839	3.29
455.193	3.29
455.547	3.29
455.9	3.3
456.254	3.3
456.607	3.3
456.961	3.31
457.314	3.3
457.668	3.32
458.021	3.32
458.375	3.3
458.728	3.29
459.081	3.29
459.434	3.29
459.787	3.29
460.141	3.31
460.494	3.3
460.847	3.31
461.2	3.31
461.553	3.32
461.906	3.34
462.259	3.34
462.611	3.34
462.964	3.34
463.317	3.34
463.67	3.35
464.022	3.34
464.375	3.34
464.728	3.35
465.08	3.35
465.433	3.34
465.785	3.37
466.138	3.38
466.49	3.4
466.843	3.4
467.195	3.39
467.547	3.38
467.899	3.38
468.252	3.4
468.604	3.43
468.956	3.43
469.308	3.4
469.66	3.41
470.012	3.39
470.364	3.4
470.716	3.43
471.068	3.4
471.42	3.41
471.772	3.42
472.123	3.41
472.475	3.41
472.827	3.42
473.178	3.41
473.53	3.41
473.882	3.4
474.233	3.41
474.585	3.42
474.936	3.44
475.288	3.45
475.639	3.45
475.99	3.44
476.342	3.44
476.693	3.45
477.044	3.47
477.395	3.46
477.746	3.44
478.097	3.42
478.448	3.45
478.8	3.46
479.15	3.46
479.501	3.45
479.852	3.45
480.203	3.45
480.554	3.45
480.905	3.46
481.255	3.47
481.606	3.48
481.957	3.48
482.307	3.47
482.658	3.47
483.009	3.48
483.359	3.49
483.709	3.49
484.06	3.5
484.41	3.5
484.761	3.5
485.111	3.51
485.461	3.51
485.811	3.51
486.162	3.51
486.512	3.5
486.862	3.5
487.212	3.5
487.562	3.5
487.912	3.51
488.262	3.51
488.612	3.5
488.961	3.5
489.311	3.5
489.661	3.52
490.011	3.51
490.36	3.5
490.71	3.49
491.06	3.49
491.409	3.47
491.759	3.47
492.108	3.46
492.458	3.45
492.807	3.46
493.157	3.48
493.506	3.48
493.855	3.49
494.204	3.49
494.554	3.51
494.903	3.51
495.252	3.5
495.601	3.51
495.95	3.51
496.299	3.51
496.648	3.52
496.997	3.51
497.346	3.54
497.695	3.53
498.043	3.54
498.392	3.54
498.741	3.57
499.09	3.57
499.438	3.59
499.787	3.62
500.135	3.62
500.484	3.62
500.832	3.63
501.181	3.64
501.529	3.67
501.878	3.66
502.226	3.68
502.574	3.71
502.923	3.7
503.271	3.69
503.619	3.71
503.967	3.73
504.315	3.74
504.663	3.74
505.011	3.76
505.359	3.77
505.707	3.78
506.055	3.79
506.403	3.79
506.751	3.81
507.098	3.82
507.446	3.83
507.794	3.86
508.141	3.86
508.489	3.88
508.837	3.88
509.184	3.91
509.531	3.91
509.879	3.9
510.226	3.94
510.574	3.96
510.921	3.96
511.268	3.97
511.616	3.97
511.963	3.98
512.31	4.02
512.657	4.05
513.004	4.05
513.351	4.04
513.698	4.07
514.045	4.09
514.392	4.09
514.739	4.1
515.086	4.1
515.432	4.11
515.779	4.12
516.126	4.15
516.473	4.14
516.819	4.16
517.166	4.18
517.512	4.17
517.859	4.19
518.205	4.18
518.552	4.2
518.898	4.21
519.245	4.24
519.591	4.25
519.937	4.25
520.283	4.28
520.629	4.31
520.976	4.33
521.322	4.34
521.668	4.36
522.014	4.35
522.36	4.38
522.706	4.4
523.052	4.4
523.398	4.41
523.743	4.43
524.089	4.45
524.435	4.47
524.781	4.48
525.126	4.48
525.472	4.51
525.817	4.5
526.163	4.52
526.509	4.53
526.854	4.51
527.199	4.51
527.545	4.5
527.89	4.51
528.235	4.52
528.581	4.52
528.926	4.52
529.271	4.53
529.616	4.51
529.961	4.52
530.306	4.53
530.651	4.53
530.996	4.54
531.341	4.54
531.686	4.55
532.031	4.56
532.376	4.55
532.721	4.56
533.065	4.58
533.41	4.58
533.755	4.59
534.099	4.61
534.444	4.62
534.788	4.64
535.133	4.64
535.477	4.66
535.822	4.65
536.166	4.66
536.51	4.68
536.855	4.69
537.199	4.7
537.543	4.69
537.887	4.69
538.231	4.69
538.576	4.69
538.92	4.69
539.264	4.71
539.608	4.71
539.951	4.72
540.295	4.71
540.639	4.73
540.983	4.72
541.327	4.72
541.671	4.73
542.014	4.74
542.358	4.75
542.701	4.75
543.045	4.77
543.389	4.77
543.732	4.77
544.075	4.78
544.419	4.79
544.762	4.8
545.105	4.82
545.449	4.84
545.792	4.86
546.135	4.87
546.478	4.89
546.821	4.91
547.165	4.91
547.508	4.93
547.851	4.91
548.194	4.91
548.536	4.91
548.879	4.93
549.222	4.93
549.565	4.92
549.908	4.92
550.25	4.91
550.593	4.93
550.936	4.94
551.278	4.96
551.621	4.92
551.963	4.94
552.306	4.95
552.648	4.95
552.991	4.94
553.333	4.91
553.675	4.89
554.017	4.87
554.36	4.9
554.702	4.87
555.044	4.89
555.386	4.89
555.728	4.89
556.07	4.85
556.412	4.84
556.754	4.82
557.096	4.81
557.438	4.86
557.78	4.84
558.121	4.86
558.463	4.85
558.805	4.88
559.147	4.85
559.488	4.81
559.83	4.78
560.171	4.76
560.513	4.79
560.854	4.81
561.196	4.83
561.537	4.79
561.878	4.83
562.22	4.83
562.561	4.83
562.902	4.83
563.243	4.86
563.584	4.9
563.925	4.92
564.266	4.94
564.607	4.89
564.948	4.89
565.289	4.89
565.63	4.88
565.971	4.86
566.312	4.85
566.653	4.88
566.993	4.89
567.334	4.9
567.675	4.89
568.015	4.87
568.356	4.84
568.696	4.89
569.037	4.87
569.377	4.87
569.718	4.85
570.058	4.86
570.398	4.84
570.739	4.84
571.079	4.85
571.419	4.83
571.759	4.85
572.099	4.84
572.439	4.82
572.779	4.86
573.119	4.9
573.459	4.91
573.799	4.9
574.139	4.92
574.479	4.97
574.819	4.97
575.158	4.99
575.498	5.02
575.838	4.99
576.177	4.99
576.517	5
576.856	5.04
577.196	5.06
577.535	5.08
577.875	5.08
578.214	5.07
578.553	5.09
578.893	5.11
579.232	5.12
579.571	5.16
579.91	5.14
580.25	5.11
580.589	5.14
580.928	5.14
581.267	5.15
581.606	5.09
581.945	5.09
582.283	5.11
582.622	5.1
582.961	5.1
583.3	5.11
583.639	5.12
583.977	5.06
584.316	5.03
584.654	5.02
584.993	5
585.332	5
585.67	4.99
586.008	4.99
586.347	5
586.685	4.99
587.024	5.01
587.362	5.04
587.7	5.04
588.038	5.06
588.376	5.09
588.715	5.12
589.053	5.13
589.391	5.11
589.729	5.14
590.067	5.17
590.404	5.17
590.742	5.18
591.08	5.21
591.418	5.22
591.756	5.24
592.093	5.27
592.431	5.29
592.769	5.32
593.106	5.32
593.444	5.29
593.781	5.31
594.119	5.31
594.456	5.31
594.793	5.29
595.131	5.29
595.468	5.23
595.805	5.22
596.143	5.23
596.48	5.25
596.817	5.24
597.154	5.24
597.491	5.28
597.828	5.28
598.165	5.3
598.502	5.3
598.839	5.28
599.176	5.28
599.512	5.27
599.849	5.26
600.186	5.25
600.523	5.3
600.859	5.27
601.196	5.28
601.532	5.27
601.869	5.31
602.205	5.27
602.542	5.3
602.878	5.33
603.215	5.37
603.551	5.34
603.887	5.33
604.223	5.32
604.56	5.27
604.896	5.27
605.232	5.27
605.568	5.29
605.904	5.3
606.24	5.31
606.576	5.32
606.912	5.31
607.248	5.35
607.583	5.31
607.919	5.27
608.255	5.25
608.591	5.28
608.926	5.25
609.262	5.28
609.597	5.3
609.933	5.26
610.268	5.23
610.604	5.23
610.939	5.2
611.275	5.22
611.61	5.22
611.945	5.19
612.281	5.18
612.616	5.19
612.951	5.22
613.286	5.23
613.621	5.22
613.956	5.21
614.291	5.17
614.626	5.2
614.961	5.28
615.296	5.31
615.631	5.26
615.966	5.28
616.3	5.3
616.635	5.32
616.97	5.35
617.304	5.39
617.639	5.41
617.973	5.44
618.308	5.39
618.642	5.45
618.977	5.47
619.311	5.48
619.646	5.47
619.98	5.46
620.314	5.45
620.648	5.42
620.983	5.45
621.317	5.48
621.651	5.46
621.985	5.41
622.319	5.37
622.653	5.39
622.987	5.4
623.321	5.39
623.655	5.34
623.988	5.37
624.322	5.34
624.656	5.34
624.99	5.35
625.323	5.39
625.657	5.39
625.99	5.39
626.324	5.37
626.657	5.35
626.991	5.35
627.324	5.36
627.658	5.34
627.991	5.32
628.324	5.34
628.657	5.35
628.991	5.42
629.324	5.45
629.657	5.42
629.99	5.46
630.323	5.44
630.656	5.44
630.989	5.43
631.322	5.41
631.655	5.44
631.987	5.45
632.32	5.43
632.653	5.4
632.986	5.41
633.318	5.46
633.651	5.47
633.984	5.49
634.316	5.49
634.649	5.54
634.981	5.54
635.313	5.52
635.646	5.52
635.978	5.51
636.31	5.54
636.643	5.57
636.975	5.57
637.307	5.65
637.639	5.67
637.971	5.62
638.303	5.66
638.635	5.66
638.967	5.72
639.299	5.74
639.631	5.72
639.963	5.66
640.295	5.67
640.626	5.71
640.958	5.71
641.29	5.76
641.621	5.75
641.953	5.74
642.285	5.71
642.616	5.77
642.948	5.7
643.279	5.65
643.61	5.72
643.942	5.74
644.273	5.73
644.604	5.71
644.936	5.74
645.267	5.77
645.598	5.73
645.929	5.69
646.26	5.68
646.591	5.79
646.922	5.89
647.253	5.83
647.584	5.85
647.915	5.87
648.245	5.81
648.576	5.82
648.907	5.84
649.238	5.88
649.568	5.86
649.899	5.93
650.229	5.99
650.56	5.86
650.89	5.84
651.221	5.83
651.551	5.84
651.882	5.85
652.212	5.78
652.542	5.81
652.872	5.77
653.203	5.75
653.533	5.64
653.863	5.58
654.193	5.6
654.523	5.47
654.853	5.43
655.183	5.47
655.513	5.56
655.843	5.6
656.172	5.6
656.502	5.59
656.832	5.57
657.162	5.51
657.491	5.6
657.821	5.57
658.15	5.56
658.48	5.6
658.809	5.61
659.139	5.65
659.468	5.67
659.798	5.72
660.127	5.76
660.456	5.81
660.785	5.87
661.115	5.88
661.444	5.97
661.773	6
662.102	5.89
662.431	5.85
662.76	5.89
663.089	5.92
663.418	5.94
663.747	6
664.076	6.02
664.404	5.99
664.733	5.98
665.062	5.97
665.39	5.97
665.719	6.03
666.048	6
666.376	5.94
666.705	5.96
667.033	5.94
667.362	5.95
667.69	5.88
668.018	5.93
668.347	5.93
668.675	5.89
669.003	6.02
669.331	5.94
669.659	5.89
669.987	5.89
670.315	5.9
670.643	5.88
670.971	5.88
671.299	5.92
671.627	5.96
671.955	5.93
672.283	5.94
672.61	5.92
672.938	6.04
673.266	6.12
673.593	6.11
673.921	6.07
674.249	6.1
674.576	6.12
674.904	6.05
675.231	6.05
675.558	6.12
675.886	6.16
676.213	6.19
676.54	6.25
676.867	6.2
677.195	6.25
677.522	6.23
677.849	6.2
678.176	6.18
678.503	6.18
678.83	6.21
679.157	6.21
679.484	6.12
