Data from BU26848_Reflection_00009.txt Node
Date: Mon Nov 18 16:25:44 EST 2019
User: vgr7
Spectrometer: USB2G7710
Scans to average: 3
Trigger mode: 4
Integration Time (sec): 2.000000E-2
Electric dark correction enabled: true
Boxcar width: 10
XAxis mode: Wavelengths
Number of Pixels in Spectrum: 2048
>>>>>Begin Spectral Data<<<<<
177.721	-69.58
178.105	-410.64
178.488	220.27
178.871	159.21
179.254	277.51
179.636	-703.57
180.019	55.25
180.402	175
180.785	2611.63
181.168	171.81
181.55	510.96
181.933	80.9
182.316	58.95
182.698	52.48
183.081	68.17
183.463	68.23
183.846	90.83
184.228	157.57
184.611	177.25
184.993	263.85
185.376	-436.96
185.758	-228.27
186.14	-907.63
186.522	224.48
186.904	870.05
187.287	400.79
187.669	-670.95
188.051	731.58
188.433	-102.49
188.815	3.86
189.197	-2.37
189.579	1.91
189.961	-10
190.342	-20.65
190.724	-1.78
191.106	0.83
191.488	-19.74
191.869	-17.34
192.251	-5.17
192.633	-0.04
193.014	2.71
193.396	-41.9
193.777	-26.43
194.159	-22.25
194.54	-37.22
194.922	-10.91
195.303	-18.85
195.684	-26.48
196.065	-9.57
196.447	-12.17
196.828	-30.58
197.209	-43.92
197.59	-47.78
197.971	-90.73
198.352	-21.27
198.733	-85.35
199.114	-56.6
199.495	-22.53
199.876	-11.57
200.257	-19.22
200.638	-25.56
201.018	-32.64
201.399	-35.25
201.78	-37.96
202.16	-48.48
202.541	-70.63
202.922	-98.46
203.302	-64.45
203.683	-87.4
204.063	-147.6
204.444	-172.51
204.824	-147.53
205.204	-86.01
205.585	-94.07
205.965	-72.62
206.345	-120.18
206.725	-94
207.106	-175.23
207.486	-529.55
207.866	-232.03
208.246	-456.41
208.626	-358.28
209.006	-417.99
209.386	-623.29
209.766	-408.01
210.145	-139.72
210.525	-106.29
210.905	-51.9
211.285	-93.73
211.664	-64.11
212.044	-53.6
212.424	-45.66
212.803	-35.82
213.183	-36.59
213.562	-18.33
213.942	-26.48
214.321	-30.88
214.701	-27.25
215.08	-32.4
215.459	-28.8
215.838	-11.53
216.218	-25.43
216.597	-9.75
216.976	-8.55
217.355	-11.33
217.734	-19.28
218.113	-20.96
218.492	-6.72
218.871	-4.44
219.25	1.62
219.629	-3.54
220.008	-0.12
220.387	-11.61
220.766	-6.98
221.144	-13.58
221.523	-21.82
221.902	-25.5
222.28	-27.61
222.659	-24.6
223.037	-19.24
223.416	-17.6
223.794	-20.97
224.173	-2.85
224.551	-11.7
224.929	-7.29
225.308	-9.51
225.686	-3.85
226.064	-4.64
226.442	-11.92
226.821	-14.58
227.199	-13.86
227.577	-14.36
227.955	-13.72
228.333	-14.27
228.711	-12.53
229.089	-9.06
229.467	-12.44
229.845	-9.15
230.222	-8.31
230.6	-8.91
230.978	-6.67
231.356	-5.1
231.733	-6.22
232.111	-6.3
232.488	-4.8
232.866	-4.95
233.243	-3.71
233.621	-3.91
233.998	-3.6
234.376	-3.7
234.753	-2.09
235.13	-0.28
235.508	1.06
235.885	2
236.262	3.49
236.639	3.82
237.016	3.12
237.393	5.8
237.77	4.04
238.147	4.74
238.524	4.92
238.901	4.47
239.278	4.92
239.655	5.93
240.032	5.96
240.409	5.34
240.785	5.75
241.162	5.85
241.539	5.31
241.915	4.69
242.292	4.75
242.668	4.32
243.045	4.19
243.421	4.21
243.798	3.67
244.174	3.73
244.551	3.41
244.927	3.44
245.303	3.2
245.679	3.69
246.056	3.73
246.432	3.68
246.808	3.73
247.184	3.21
247.56	3.05
247.936	2.93
248.312	2.79
248.688	2.52
249.064	2.42
249.44	2.6
249.815	2.9
250.191	2.97
250.567	3.23
250.943	3.24
251.318	3.38
251.694	3.35
252.069	3.12
252.445	3.15
252.82	2.74
253.196	2.65
253.571	2.41
253.947	2.26
254.322	2.33
254.697	1.86
255.073	2.17
255.448	2.13
255.823	2.28
256.198	2.7
256.573	2.56
256.948	2.75
257.323	2.84
257.698	2.84
258.073	2.73
258.448	2.6
258.823	2.58
259.198	2.61
259.573	2.61
259.948	2.72
260.322	2.83
260.697	3.06
261.072	3.08
261.446	3.03
261.821	2.97
262.195	3.03
262.57	3.22
262.944	3.12
263.319	3.02
263.693	3.07
264.067	3.04
264.442	3.15
264.816	2.95
265.19	2.87
265.564	2.81
265.938	2.73
266.313	2.72
266.687	2.65
267.061	2.35
267.435	2.57
267.809	2.48
268.183	2.3
268.556	2.21
268.93	2.15
269.304	2.19
269.678	2.28
270.051	2.12
270.425	2.05
270.799	2.22
271.172	2.3
271.546	2.09
271.919	1.93
272.293	2
272.666	2.2
273.04	2.27
273.413	2.33
273.787	2.41
274.16	2.46
274.533	2.67
274.906	2.77
275.279	2.68
275.653	2.72
276.026	2.84
276.399	2.96
276.772	3.07
277.145	3.05
277.518	3.19
277.891	3.49
278.263	3.55
278.636	3.42
279.009	3.32
279.382	3.54
279.755	3.61
280.127	3.6
280.5	3.6
280.872	3.7
281.245	3.47
281.617	3.44
281.99	3.47
282.362	3.29
282.735	3.16
283.107	3.27
283.479	3.28
283.852	3.27
284.224	3.07
284.596	3.06
284.968	3.22
285.34	3.13
285.713	2.96
286.085	2.93
286.457	3.02
286.829	3.14
287.201	3.13
287.572	2.98
287.944	3.13
288.316	3.09
288.688	3.02
289.06	3.28
289.431	3.38
289.803	3.39
290.175	3.44
290.546	3.65
290.918	3.59
291.289	3.62
291.661	3.61
292.032	3.79
292.403	3.84
292.775	3.85
293.146	3.9
293.517	3.89
293.889	4.02
294.26	4.12
294.631	4.13
295.002	4.09
295.373	4.18
295.744	4.03
296.115	4.02
296.486	3.84
296.857	3.7
297.228	3.63
297.599	3.61
297.97	3.63
298.34	3.63
298.711	3.68
299.082	3.71
299.452	3.7
299.823	3.78
300.194	3.71
300.564	3.54
300.935	3.61
301.305	3.57
301.676	3.53
302.046	3.45
302.416	3.51
302.787	3.43
303.157	3.46
303.527	3.6
303.897	3.6
304.267	3.89
304.637	4.03
305.008	4.04
305.378	4.04
305.748	4.01
306.117	4
306.487	4.17
306.857	4.24
307.227	4.38
307.597	4.32
307.967	4.43
308.336	4.71
308.706	4.59
309.076	4.75
309.445	4.71
309.815	4.77
310.184	4.74
310.554	4.91
310.923	5.01
311.293	5.02
311.662	5.04
312.031	4.99
312.401	4.96
312.77	5.06
313.139	5.17
313.508	5.22
313.877	5.25
314.246	5.14
314.616	5.09
314.985	5.09
315.353	5.08
315.722	5.09
316.091	5.15
316.46	5.25
316.829	5.42
317.198	5.72
317.567	5.67
317.935	5.78
318.304	5.85
318.672	5.72
319.041	5.83
319.41	5.84
319.778	5.95
320.147	6.04
320.515	6.14
320.883	6.11
321.252	6.16
321.62	6.12
321.988	6.33
322.357	6.34
322.725	6.34
323.093	6.52
323.461	6.52
323.829	6.33
324.197	6.45
324.565	6.33
324.933	6.2
325.301	6.36
325.669	6.3
326.037	6.38
326.405	6.48
326.772	6.43
327.14	6.58
327.508	6.6
327.875	6.6
328.243	6.7
328.61	6.83
328.978	6.93
329.346	7.09
329.713	7.03
330.08	7.22
330.448	7.22
330.815	7.26
331.182	7.33
331.55	7.37
331.917	7.35
332.284	7.47
332.651	7.56
333.018	7.5
333.385	7.52
333.752	7.49
334.119	7.59
334.486	7.6
334.853	7.6
335.22	7.61
335.587	7.75
335.954	7.69
336.32	7.72
336.687	7.75
337.054	7.79
337.42	7.75
337.787	7.66
338.153	7.77
338.52	7.77
338.886	7.77
339.253	7.83
339.619	7.89
339.986	7.78
340.352	7.77
340.718	7.83
341.084	7.91
341.451	7.94
341.817	8.02
342.183	8.05
342.549	8.04
342.915	8.13
343.281	8.06
343.647	8
344.013	8.05
344.379	8
344.745	8.07
345.11	8.04
345.476	8.16
345.842	8.17
346.208	8.2
346.573	8.33
346.939	8.39
347.304	8.34
347.67	8.24
348.035	8.23
348.401	8.25
348.766	8.39
349.132	8.4
349.497	8.27
349.862	8.29
350.228	8.27
350.593	8.23
350.958	8.17
351.323	8.26
351.688	8.17
352.053	8.15
352.418	8.11
352.783	8.21
353.148	8.12
353.513	8.17
353.878	8.18
354.243	8.14
354.608	8.15
354.972	8.2
355.337	8.32
355.702	8.38
356.066	8.42
356.431	8.36
356.795	8.38
357.16	8.46
357.524	8.43
357.889	8.44
358.253	8.38
358.618	8.5
358.982	8.45
359.346	8.47
359.71	8.48
360.075	8.45
360.439	8.46
360.803	8.51
361.167	8.42
361.531	8.33
361.895	8.32
362.259	8.27
362.623	8.29
362.987	8.27
363.351	8.19
363.714	8.21
364.078	8.18
364.442	8.09
364.806	8.05
365.169	8
365.533	8.01
365.896	8
366.26	7.87
366.623	7.84
366.987	7.8
367.35	7.76
367.714	7.7
368.077	7.63
368.44	7.53
368.803	7.55
369.167	7.49
369.53	7.43
369.893	7.46
370.256	7.31
370.619	7.28
370.982	7.25
371.345	7.13
371.708	7.07
372.071	7.01
372.434	6.99
372.797	6.92
373.159	6.81
373.522	6.84
373.885	6.89
374.247	6.86
374.61	6.77
374.973	6.74
375.335	6.75
375.698	6.69
376.06	6.59
376.423	6.52
376.785	6.55
377.147	6.54
377.51	6.46
377.872	6.44
378.234	6.46
378.596	6.43
378.958	6.32
379.321	6.23
379.683	6.28
380.045	6.15
380.407	6.12
380.769	6.05
381.13	5.96
381.492	5.89
381.854	5.83
382.216	5.77
382.578	5.71
382.939	5.63
383.301	5.59
383.663	5.56
384.024	5.52
384.386	5.48
384.747	5.41
385.109	5.35
385.47	5.35
385.832	5.27
386.193	5.28
386.554	5.3
386.916	5.28
387.277	5.19
387.638	5.18
387.999	5.18
388.36	5.17
388.721	5.15
389.082	5.07
389.443	5.05
389.804	5.04
390.165	4.98
390.526	4.92
390.887	4.86
391.248	4.9
391.609	4.86
391.969	4.81
392.33	4.77
392.691	4.78
393.051	4.72
393.412	4.72
393.772	4.66
394.133	4.63
394.493	4.62
394.854	4.59
395.214	4.54
395.574	4.52
395.935	4.51
396.295	4.45
396.655	4.42
397.015	4.4
397.376	4.36
397.736	4.35
398.096	4.35
398.456	4.32
398.816	4.26
399.176	4.21
399.535	4.17
399.895	4.14
400.255	4.07
400.615	4.02
400.975	3.96
401.334	3.91
401.694	3.85
402.054	3.8
402.413	3.79
402.773	3.76
403.132	3.73
403.492	3.69
403.851	3.71
404.211	3.68
404.57	3.63
404.929	3.65
405.288	3.64
405.648	3.62
406.007	3.62
406.366	3.6
406.725	3.62
407.084	3.61
407.443	3.63
407.802	3.61
408.161	3.59
408.52	3.56
408.879	3.55
409.238	3.53
409.596	3.56
409.955	3.55
410.314	3.57
410.673	3.52
411.031	3.52
411.39	3.49
411.748	3.51
412.107	3.51
412.465	3.47
412.824	3.48
413.182	3.46
413.54	3.44
413.899	3.44
414.257	3.42
414.615	3.41
414.974	3.39
415.332	3.39
415.69	3.38
416.048	3.38
416.406	3.39
416.764	3.4
417.122	3.39
417.48	3.36
417.838	3.37
418.195	3.37
418.553	3.36
418.911	3.36
419.269	3.34
419.626	3.33
419.984	3.31
420.342	3.29
420.699	3.26
421.057	3.26
421.414	3.24
421.772	3.23
422.129	3.23
422.486	3.23
422.844	3.23
423.201	3.22
423.558	3.22
423.915	3.2
424.273	3.19
424.63	3.17
424.987	3.17
425.344	3.16
425.701	3.15
426.058	3.13
426.415	3.12
426.772	3.09
427.128	3.1
427.485	3.09
427.842	3.09
428.199	3.1
428.555	3.09
428.912	3.1
429.269	3.1
429.625	3.07
429.982	3.06
430.338	3.06
430.695	3.07
431.051	3.07
431.407	3.06
431.764	3.08
432.12	3.08
432.476	3.07
432.832	3.04
433.189	3.04
433.545	3.04
433.901	3.05
434.257	3.05
434.613	3.05
434.969	3.04
435.325	3.05
435.681	3.06
436.036	3.06
436.392	3.06
436.748	3.06
437.104	3.07
437.459	3.05
437.815	3.05
438.171	3.04
438.526	3.05
438.882	3.05
439.237	3.04
439.593	3.03
439.948	3.03
440.304	3.06
440.659	3.06
441.014	3.05
441.369	3.03
441.725	3.02
442.08	3.01
442.435	3.01
442.79	3.01
443.145	2.99
443.5	2.98
443.855	2.97
444.21	2.94
444.565	2.94
444.92	2.93
445.275	2.94
445.629	2.92
445.984	2.91
446.339	2.9
446.693	2.88
447.048	2.88
447.403	2.86
447.757	2.83
448.112	2.84
448.466	2.83
448.82	2.81
449.175	2.84
449.529	2.84
449.883	2.84
450.238	2.82
450.592	2.81
450.946	2.82
451.3	2.81
451.654	2.82
452.008	2.83
452.362	2.84
452.716	2.82
453.07	2.83
453.424	2.83
453.778	2.82
454.132	2.83
454.486	2.83
454.839	2.84
455.193	2.82
455.547	2.82
455.9	2.81
456.254	2.83
456.607	2.83
456.961	2.82
457.314	2.81
457.668	2.83
458.021	2.82
458.375	2.82
458.728	2.83
459.081	2.83
459.434	2.81
459.787	2.8
460.141	2.82
460.494	2.81
460.847	2.82
461.2	2.82
461.553	2.82
461.906	2.82
462.259	2.84
462.611	2.86
462.964	2.86
463.317	2.88
463.67	2.89
464.022	2.91
464.375	2.92
464.728	2.93
465.08	2.93
465.433	2.96
465.785	2.98
466.138	3
466.49	3
466.843	3
467.195	3.02
467.547	3.03
467.899	3.04
468.252	3.07
468.604	3.08
468.956	3.08
469.308	3.09
469.66	3.08
470.012	3.12
470.364	3.12
470.716	3.13
471.068	3.14
471.42	3.1
471.772	3.12
472.123	3.13
472.475	3.14
472.827	3.14
473.178	3.16
473.53	3.16
473.882	3.16
474.233	3.21
474.585	3.2
474.936	3.21
475.288	3.2
475.639	3.19
475.99	3.19
476.342	3.19
476.693	3.19
477.044	3.19
477.395	3.18
477.746	3.17
478.097	3.17
478.448	3.16
478.8	3.17
479.15	3.13
479.501	3.13
479.852	3.12
480.203	3.11
480.554	3.11
480.905	3.11
481.255	3.12
481.606	3.11
481.957	3.12
482.307	3.1
482.658	3.1
483.009	3.1
483.359	3.11
483.709	3.11
484.06	3.12
484.41	3.11
484.761	3.11
485.111	3.12
485.461	3.11
485.811	3.12
486.162	3.12
486.512	3.13
486.862	3.13
487.212	3.12
487.562	3.13
487.912	3.12
488.262	3.11
488.612	3.11
488.961	3.11
489.311	3.11
489.661	3.12
490.011	3.12
490.36	3.12
490.71	3.12
491.06	3.13
491.409	3.12
491.759	3.12
492.108	3.13
492.458	3.13
492.807	3.13
493.157	3.14
493.506	3.14
493.855	3.16
494.204	3.18
494.554	3.21
494.903	3.23
495.252	3.26
495.601	3.29
495.95	3.3
496.299	3.32
496.648	3.32
496.997	3.34
497.346	3.38
497.695	3.42
498.043	3.46
498.392	3.48
498.741	3.53
499.09	3.56
499.438	3.62
499.787	3.67
500.135	3.74
500.484	3.81
500.832	3.87
501.181	3.95
501.529	4.02
501.878	4.09
502.226	4.18
502.574	4.26
502.923	4.35
503.271	4.46
503.619	4.55
503.967	4.68
504.315	4.81
504.663	4.93
505.011	5.07
505.359	5.18
505.707	5.33
506.055	5.48
506.403	5.65
506.751	5.78
507.098	5.94
507.446	6.08
507.794	6.22
508.141	6.4
508.489	6.56
508.837	6.73
509.184	6.92
509.531	7.08
509.879	7.27
510.226	7.44
510.574	7.64
510.921	7.86
511.268	8.05
511.616	8.27
511.963	8.48
512.31	8.67
512.657	8.92
513.004	9.16
513.351	9.4
513.698	9.67
514.045	9.95
514.392	10.25
514.739	10.56
515.086	10.85
515.432	11.13
515.779	11.39
516.126	11.65
516.473	11.91
516.819	12.2
517.166	12.46
517.512	12.74
517.859	12.99
518.205	13.21
518.552	13.45
518.898	13.67
519.245	13.92
519.591	14.17
519.937	14.4
520.283	14.67
520.629	14.95
520.976	15.24
521.322	15.55
521.668	15.83
522.014	16.08
522.36	16.4
522.706	16.71
523.052	17.06
523.398	17.44
523.743	17.82
524.089	18.17
524.435	18.54
524.781	18.85
525.126	19.14
525.472	19.45
525.817	19.7
526.163	19.96
526.509	20.16
526.854	20.35
527.199	20.57
527.545	20.75
527.89	20.93
528.235	21.11
528.581	21.3
528.926	21.5
529.271	21.71
529.616	21.91
529.961	22.11
530.306	22.33
530.651	22.53
530.996	22.74
531.341	22.96
531.686	23.18
532.031	23.41
532.376	23.66
532.721	23.89
533.065	24.15
533.41	24.41
533.755	24.7
534.099	24.99
534.444	25.24
534.788	25.52
535.133	25.79
535.477	26.06
535.822	26.31
536.166	26.59
536.51	26.88
536.855	27.22
537.199	27.56
537.543	27.87
537.887	28.16
538.231	28.49
538.576	28.84
538.92	29.11
539.264	29.41
539.608	29.7
539.951	29.97
540.295	30.22
540.639	30.48
540.983	30.71
541.327	30.93
541.671	31.17
542.014	31.38
542.358	31.58
542.701	31.78
543.045	32.01
543.389	32.19
543.732	32.43
544.075	32.63
544.419	32.88
544.762	33.11
545.105	33.38
545.449	33.61
545.792	33.84
546.135	34.14
546.478	34.41
546.821	34.65
547.165	34.92
547.508	35.22
547.851	35.42
548.194	35.7
548.536	35.99
548.879	36.27
549.222	36.54
549.565	36.86
549.908	37.19
550.25	37.46
550.593	37.8
550.936	38.1
551.278	38.36
551.621	38.58
551.963	38.82
552.306	39.06
552.648	39.34
552.991	39.55
553.333	39.77
553.675	40.01
554.017	40.23
554.36	40.43
554.702	40.6
555.044	40.88
555.386	41.07
555.728	41.29
556.07	41.5
556.412	41.66
556.754	41.75
557.096	41.86
557.438	42.07
557.78	42.24
558.121	42.38
558.463	42.57
558.805	42.81
559.147	42.98
559.488	43.13
559.83	43.25
560.171	43.41
560.513	43.54
560.854	43.71
561.196	43.9
561.537	44.05
561.878	44.23
562.22	44.39
562.561	44.57
562.902	44.76
563.243	44.87
563.584	45.03
563.925	45.2
564.266	45.35
564.607	45.49
564.948	45.63
565.289	45.73
565.63	45.89
565.971	45.93
566.312	46.08
566.653	46.14
566.993	46.3
567.334	46.4
567.675	46.52
568.015	46.65
568.356	46.74
568.696	46.8
569.037	46.89
569.377	46.95
569.718	47.06
570.058	47.11
570.398	47.2
570.739	47.26
571.079	47.37
571.419	47.45
571.759	47.52
572.099	47.54
572.439	47.62
572.779	47.67
573.119	47.75
573.459	47.79
573.799	47.96
574.139	47.99
574.479	48.13
574.819	48.26
575.158	48.34
575.498	48.43
575.838	48.6
576.177	48.7
576.517	48.8
576.856	48.85
577.196	48.93
577.535	49.04
577.875	49.17
578.214	49.23
578.553	49.38
578.893	49.48
579.232	49.7
579.571	49.8
579.91	49.94
580.25	50.08
580.589	50.21
580.928	50.27
581.267	50.39
581.606	50.48
581.945	50.48
582.283	50.5
582.622	50.55
582.961	50.62
583.3	50.7
583.639	50.8
583.977	50.93
584.316	51.04
584.654	51.13
584.993	51.24
585.332	51.31
585.67	51.4
586.008	51.42
586.347	51.42
586.685	51.47
587.024	51.43
587.362	51.51
587.7	51.53
588.038	51.72
588.376	51.81
588.715	51.84
589.053	51.96
589.391	52
589.729	52.09
590.067	52.07
590.404	52.08
590.742	52.11
591.08	52.1
591.418	52.19
591.756	52.19
592.093	52.31
592.431	52.43
592.769	52.45
593.106	52.57
593.444	52.61
593.781	52.77
594.119	52.86
594.456	52.86
594.793	52.99
595.131	52.88
595.468	52.88
595.805	52.96
596.143	52.99
596.48	53.03
596.817	53.02
597.154	53.12
597.491	53.21
597.828	53.28
598.165	53.37
598.502	53.44
598.839	53.51
599.176	53.5
599.512	53.54
599.849	53.62
600.186	53.59
600.523	53.7
600.859	53.66
601.196	53.74
601.532	53.79
601.869	53.77
602.205	53.9
602.542	53.98
602.878	54.01
603.215	54.06
603.551	54.14
603.887	54.24
604.223	54.29
604.56	54.33
604.896	54.39
605.232	54.41
605.568	54.37
605.904	54.44
606.24	54.44
606.576	54.48
606.912	54.45
607.248	54.49
607.583	54.48
607.919	54.55
608.255	54.59
608.591	54.6
608.926	54.62
609.262	54.68
609.597	54.73
609.933	54.78
610.268	54.81
610.604	54.83
610.939	54.83
611.275	54.82
611.61	54.78
611.945	54.76
612.281	54.84
612.616	54.91
612.951	54.9
613.286	55.01
613.621	55
613.956	55.07
614.291	55.22
614.626	55.28
614.961	55.28
615.296	55.32
615.631	55.39
615.966	55.49
616.3	55.52
616.635	55.57
616.97	55.54
617.304	55.58
617.639	55.64
617.973	55.58
618.308	55.67
618.642	55.8
618.977	55.86
619.311	55.81
619.646	55.92
619.98	56
620.314	55.93
620.648	55.95
620.983	56.06
621.317	56.06
621.651	56.04
621.985	56.16
622.319	56.1
622.653	56.13
622.987	56.16
623.321	56.14
623.655	56.09
623.988	56.17
624.322	56.23
624.656	56.27
624.99	56.47
625.323	56.46
625.657	56.46
625.99	56.46
626.324	56.54
626.657	56.49
626.991	56.43
627.324	56.42
627.658	56.53
627.991	56.42
628.324	56.42
628.657	56.48
628.991	56.45
629.324	56.55
629.657	56.6
629.99	56.59
630.323	56.6
630.656	56.61
630.989	56.63
631.322	56.76
631.655	56.74
631.987	56.61
632.32	56.61
632.653	56.68
632.986	56.74
633.318	56.71
633.651	56.75
633.984	56.86
634.316	56.95
634.649	56.98
634.981	57.1
635.313	57.18
635.646	57.15
635.978	57.26
636.31	57.45
636.643	57.45
636.975	57.52
637.307	57.57
637.639	57.58
637.971	57.46
638.303	57.29
638.635	57.32
638.967	57.54
639.299	57.61
639.631	57.52
639.963	57.41
640.295	57.41
640.626	57.4
640.958	57.45
641.29	57.49
641.621	57.43
641.953	57.51
642.285	57.35
642.616	57.44
642.948	57.42
643.279	57.33
643.61	57.44
643.942	57.55
644.273	57.48
644.604	57.57
644.936	57.8
645.267	57.9
645.598	57.84
645.929	57.66
646.26	57.63
646.591	57.73
646.922	57.9
647.253	58
647.584	57.99
647.915	57.86
648.245	57.9
648.576	57.94
648.907	57.82
649.238	57.93
649.568	57.89
649.899	57.86
650.229	57.76
650.56	57.73
650.89	57.74
651.221	57.85
651.551	57.92
651.882	57.77
652.212	57.71
652.542	57.68
652.872	57.74
653.203	57.71
653.533	57.66
653.863	57.58
654.193	57.6
654.523	57.7
654.853	57.89
655.183	57.95
655.513	58.09
655.843	58.18
656.172	58.16
656.502	58.28
656.832	58.37
657.162	58.38
657.491	58.34
657.821	58.22
658.15	58.18
658.48	58.1
658.809	58.24
659.139	58.26
659.468	58.27
659.798	58.33
660.127	58.39
660.456	58.41
660.785	58.49
661.115	58.5
661.444	58.55
661.773	58.42
662.102	58.38
662.431	58.28
662.76	58.38
663.089	58.45
663.418	58.36
663.747	58.26
664.076	58.22
664.404	58.21
664.733	58.31
665.062	58.14
665.39	58.18
665.719	58.11
666.048	58.2
666.376	58.25
666.705	58.23
