Data from BU26942_Reflection_00007.txt Node
Date: Mon Nov 18 16:50:40 EST 2019
User: vgr7
Spectrometer: USB2G7710
Scans to average: 3
Trigger mode: 4
Integration Time (sec): 2.000000E-2
Electric dark correction enabled: true
Boxcar width: 10
XAxis mode: Wavelengths
Number of Pixels in Spectrum: 2048
>>>>>Begin Spectral Data<<<<<
177.721	-32.64
178.105	-35.28
178.488	-426.07
178.871	-47.89
179.254	188.76
179.636	-1515.38
180.019	-1378.87
180.402	108.7
180.785	15.58
181.168	-159.9
181.55	-86.3
181.933	349.44
182.316	663.08
182.698	386.06
183.081	518.87
183.463	7715.38
183.846	167.24
184.228	360.68
184.611	1039.62
184.993	1679.88
185.376	-551.71
185.758	-496.18
186.14	-382.96
186.522	327100
186.904	1784.49
187.287	1686.87
187.669	-2832.96
188.051	-1464.84
188.433	-1208.09
188.815	-3049.07
189.197	-831.78
189.579	-376.01
189.961	-346.44
190.342	-375.13
190.724	-332.92
191.106	-637.95
191.488	-1211.21
191.869	-444.21
192.251	-302.27
192.633	-302.58
193.014	-242.7
193.396	-294.38
193.777	-303.11
194.159	-421.4
194.54	-251.57
194.922	-161.4
195.303	-151.67
195.684	-184.78
196.065	-142.41
196.447	-144.46
196.828	-181.77
197.209	-218.21
197.59	-311.26
197.971	-225.46
198.352	-185.61
198.733	-137.23
199.114	-134.35
199.495	-121.9
199.876	-97.12
200.257	-114.37
200.638	-116.45
201.018	-114.73
201.399	-104.47
201.78	-89.53
202.16	-86.24
202.541	-115.3
202.922	-154.38
203.302	-148.41
203.683	-135.17
204.063	-211.97
204.444	-247.58
204.824	-212.46
205.204	-183.13
205.585	-250.03
205.965	-341.51
206.345	-299.87
206.725	-777.69
207.106	-392.91
207.486	-498.81
207.866	-368.28
208.246	-301.37
208.626	-332.12
209.006	-293.59
209.386	-219.55
209.766	-222.31
210.145	-225.49
210.525	-213.48
210.905	-192.98
211.285	-181.93
211.664	-143.78
212.044	-126.93
212.424	-99.05
212.803	-79.27
213.183	-58.19
213.562	-39.39
213.942	-26.88
214.321	-28.28
214.701	-36.99
215.08	-45.24
215.459	-39.37
215.838	-39.55
216.218	-48.04
216.597	-24.06
216.976	-31.89
217.355	-25.03
217.734	-27.14
218.113	-28.28
218.492	-25.66
218.871	-35.22
219.25	-30.43
219.629	-32.57
220.008	-36.88
220.387	-49.45
220.766	-57.38
221.144	-77.42
221.523	-108.89
221.902	-118.62
222.28	-109.3
222.659	-71.46
223.037	-74.24
223.416	-62.01
223.794	-56.44
224.173	-65.25
224.551	-61.33
224.929	-49
225.308	-45.73
225.686	-41.93
226.064	-32.12
226.442	-33.44
226.821	-30.22
227.199	-26
227.577	-21.67
227.955	-21.07
228.333	-18.35
228.711	-14.76
229.089	-5.82
229.467	-4.42
229.845	-4.55
230.222	-4.67
230.6	-5.33
230.978	-4.06
231.356	-3.86
231.733	-2.49
232.111	2.16
232.488	1.78
232.866	2.11
233.243	4.45
233.621	3.81
233.998	4.21
234.376	4.13
234.753	4.17
235.13	3.15
235.508	2.99
235.885	3.51
236.262	2.87
236.639	2.95
237.016	2.66
237.393	2.52
237.77	3.24
238.147	2.83
238.524	3.29
238.901	4.11
239.278	3.49
239.655	4.09
240.032	3.43
240.409	3.06
240.785	2.58
241.162	1.97
241.539	2.27
241.915	2.19
242.292	1.92
242.668	1.83
243.045	2.58
243.421	2.98
243.798	3.17
244.174	3.59
244.551	3.67
244.927	3.34
245.303	3.42
245.679	3.32
246.056	3.35
246.432	3.43
246.808	3.3
247.184	3.35
247.56	3.03
247.936	3.01
248.312	3.1
248.688	3.45
249.064	3.35
249.44	3.27
249.815	3.1
250.191	3.46
250.567	3.74
250.943	3.29
251.318	3.05
251.694	3.28
252.069	3.16
252.445	3.05
252.82	3.13
253.196	3.28
253.571	3.27
253.947	3.34
254.322	3.45
254.697	3.41
255.073	3.07
255.448	3.24
255.823	3.44
256.198	3.85
256.573	3.83
256.948	4.03
257.323	4.3
257.698	4.35
258.073	4.34
258.448	4.05
258.823	4.22
259.198	4.04
259.573	3.92
259.948	3.76
260.322	3.76
260.697	3.67
261.072	3.48
261.446	3.51
261.821	3.5
262.195	3.47
262.57	3.47
262.944	3.79
263.319	3.82
263.693	3.78
264.067	3.69
264.442	3.55
264.816	3.37
265.19	3.11
265.564	3.13
265.938	2.87
266.313	2.95
266.687	2.9
267.061	3
267.435	2.82
267.809	2.85
268.183	2.75
268.556	2.83
268.93	2.87
269.304	2.83
269.678	2.83
270.051	2.73
270.425	2.77
270.799	2.59
271.172	2.51
271.546	2.45
271.919	2.18
272.293	2.45
272.666	2.61
273.04	2.79
273.413	2.72
273.787	2.79
274.16	2.94
274.533	2.97
274.906	3
275.279	3.02
275.653	3
276.026	3.1
276.399	3.02
276.772	3.14
277.145	3.1
277.518	2.89
277.891	2.96
278.263	2.94
278.636	2.98
279.009	2.99
279.382	3.25
279.755	3.33
280.127	3.15
280.5	3.18
280.872	3.13
281.245	3.11
281.617	3.32
281.99	3.3
282.362	3.37
282.735	3.36
283.107	3.4
283.479	3.6
283.852	3.59
284.224	3.74
284.596	3.71
284.968	3.66
285.34	3.89
285.713	3.87
286.085	3.94
286.457	4.03
286.829	4.04
287.201	3.94
287.572	3.98
287.944	4.06
288.316	4.11
288.688	3.91
289.06	3.93
289.431	3.82
289.803	3.78
290.175	3.76
290.546	3.92
290.918	3.88
291.289	3.79
291.661	3.88
292.032	3.89
292.403	3.94
292.775	4.05
293.146	3.95
293.517	3.91
293.889	3.96
294.26	3.95
294.631	4.01
295.002	3.93
295.373	4
295.744	3.98
296.115	3.93
296.486	4.06
296.857	4.1
297.228	4.19
297.599	4.12
297.97	4.11
298.34	4.14
298.711	4.24
299.082	4.16
299.452	4.09
299.823	4.2
300.194	4.14
300.564	4.06
300.935	4.22
301.305	4.15
301.676	4.19
302.046	4.09
302.416	4.2
302.787	4.31
303.157	4.32
303.527	4.35
303.897	4.44
304.267	4.62
304.637	4.64
305.008	4.63
305.378	4.8
305.748	4.9
306.117	4.67
306.487	4.71
306.857	4.95
307.227	4.96
307.597	4.77
307.967	4.93
308.336	5.14
308.706	5.1
309.076	5.26
309.445	5.24
309.815	5.39
310.184	5.34
310.554	5.37
310.923	5.44
311.293	5.42
311.662	5.2
312.031	5.2
312.401	5.17
312.77	5.16
313.139	5.12
313.508	5.16
313.877	5.28
314.246	5.4
314.616	5.25
314.985	5.42
315.353	5.47
315.722	5.45
316.091	5.45
316.46	5.57
316.829	5.69
317.198	5.73
317.567	5.8
317.935	5.85
318.304	5.91
318.672	5.87
319.041	5.86
319.41	6.12
319.778	6.02
320.147	6.27
320.515	6.29
320.883	6.28
321.252	6.39
321.62	6.51
321.988	6.48
322.357	6.7
322.725	6.65
323.093	6.84
323.461	6.85
323.829	7.03
324.197	6.99
324.565	7.18
324.933	7.14
325.301	7.09
325.669	7.13
326.037	7.15
326.405	7.36
326.772	7.42
327.14	7.54
327.508	7.71
327.875	7.63
328.243	7.81
328.61	7.84
328.978	7.89
329.346	7.89
329.713	7.87
330.08	7.91
330.448	7.84
330.815	7.83
331.182	7.84
331.55	7.65
331.917	7.79
332.284	7.78
332.651	7.87
333.018	7.94
333.385	8.03
333.752	8.09
334.119	7.98
334.486	7.91
334.853	7.82
335.22	7.88
335.587	7.89
335.954	7.93
336.32	7.96
336.687	7.92
337.054	7.92
337.42	8.03
337.787	8.12
338.153	8.21
338.52	8.25
338.886	8.25
339.253	8.27
339.619	8.19
339.986	8.07
340.352	8.2
340.718	8.28
341.084	8.3
341.451	8.28
341.817	8.47
342.183	8.61
342.549	8.72
342.915	8.64
343.281	8.73
343.647	8.7
344.013	8.75
344.379	8.69
344.745	8.76
345.11	8.87
345.476	8.77
345.842	8.67
346.208	8.74
346.573	8.82
346.939	8.96
347.304	9.09
347.67	9.05
348.035	8.98
348.401	8.97
348.766	8.93
349.132	8.97
349.497	8.82
349.862	8.9
350.228	8.86
350.593	8.98
350.958	8.92
351.323	8.91
351.688	8.97
352.053	9.04
352.418	9.06
352.783	8.96
353.148	8.87
353.513	8.98
353.878	8.91
354.243	8.98
354.608	9.05
354.972	8.96
355.337	8.98
355.702	9.02
356.066	9.08
356.431	9.12
356.795	9.07
357.16	9.12
357.524	8.96
357.889	8.96
358.253	8.87
358.618	8.86
358.982	8.89
359.346	8.79
359.71	8.74
360.075	8.69
360.439	8.69
360.803	8.75
361.167	8.73
361.531	8.66
361.895	8.57
362.259	8.47
362.623	8.48
362.987	8.45
363.351	8.4
363.714	8.4
364.078	8.31
364.442	8.35
364.806	8.34
365.169	8.45
365.533	8.37
365.896	8.32
366.26	8.33
366.623	8.17
366.987	8.15
367.35	8.2
367.714	8.15
368.077	8.03
368.44	8.02
368.803	8.02
369.167	7.95
369.53	7.87
369.893	7.87
370.256	7.78
370.619	7.82
370.982	7.7
371.345	7.52
371.708	7.49
372.071	7.35
372.434	7.29
372.797	7.12
373.159	7.13
373.522	7.17
373.885	7.09
374.247	7.11
374.61	7.13
374.973	7.05
375.335	7.01
375.698	7.04
376.06	7
376.423	6.94
376.785	6.97
377.147	7.02
377.51	6.96
377.872	6.99
378.234	6.91
378.596	6.95
378.958	6.91
379.321	6.91
379.683	6.93
380.045	6.9
380.407	6.89
380.769	6.81
381.13	6.74
381.492	6.71
381.854	6.68
382.216	6.61
382.578	6.6
382.939	6.54
383.301	6.5
383.663	6.41
384.024	6.37
384.386	6.32
384.747	6.28
385.109	6.2
385.47	6.08
385.832	6.05
386.193	6.03
386.554	6.03
386.916	5.96
387.277	5.9
387.638	5.85
387.999	5.85
388.36	5.84
388.721	5.83
389.082	5.81
389.443	5.75
389.804	5.72
390.165	5.68
390.526	5.67
390.887	5.65
391.248	5.67
391.609	5.63
391.969	5.62
392.33	5.59
392.691	5.55
393.051	5.55
393.412	5.5
393.772	5.43
394.133	5.37
394.493	5.35
394.854	5.32
395.214	5.29
395.574	5.24
395.935	5.24
396.295	5.19
396.655	5.15
397.015	5.13
397.376	5.07
397.736	5.01
398.096	5.02
398.456	4.98
398.816	4.93
399.176	4.89
399.535	4.84
399.895	4.78
400.255	4.8
400.615	4.77
400.975	4.73
401.334	4.71
401.694	4.7
402.054	4.69
402.413	4.66
402.773	4.61
403.132	4.63
403.492	4.59
403.851	4.6
404.211	4.61
404.57	4.6
404.929	4.62
405.288	4.6
405.648	4.59
406.007	4.58
406.366	4.56
406.725	4.59
407.084	4.6
407.443	4.6
407.802	4.59
408.161	4.6
408.52	4.63
408.879	4.63
409.238	4.62
409.596	4.6
409.955	4.6
410.314	4.62
410.673	4.59
411.031	4.61
411.39	4.57
411.748	4.56
412.107	4.55
412.465	4.54
412.824	4.52
413.182	4.48
413.54	4.49
413.899	4.47
414.257	4.46
414.615	4.43
414.974	4.45
415.332	4.42
415.69	4.4
416.048	4.37
416.406	4.32
416.764	4.31
417.122	4.32
417.48	4.31
417.838	4.31
418.195	4.31
418.553	4.27
418.911	4.26
419.269	4.24
419.626	4.24
419.984	4.21
420.342	4.22
420.699	4.22
421.057	4.19
421.414	4.17
421.772	4.17
422.129	4.17
422.486	4.15
422.844	4.15
423.201	4.12
423.558	4.13
423.915	4.13
424.273	4.12
424.63	4.09
424.987	4.09
425.344	4.08
425.701	4.07
426.058	4.06
426.415	4.04
426.772	4.06
427.128	4.05
427.485	4.05
427.842	4.04
428.199	4.03
428.555	4.02
428.912	4.04
429.269	4.02
429.625	4.01
429.982	3.99
430.338	4
430.695	4.02
431.051	4
431.407	4
431.764	4.03
432.12	4.03
432.476	4.02
432.832	4
433.189	3.99
433.545	3.99
433.901	4.01
434.257	3.98
434.613	3.97
434.969	3.99
435.325	4.01
435.681	4
436.036	4.01
436.392	3.99
436.748	4
437.104	3.98
437.459	3.99
437.815	3.98
438.171	3.97
438.526	3.99
438.882	3.98
439.237	3.97
439.593	3.97
439.948	3.98
440.304	3.99
440.659	3.99
441.014	4
441.369	3.99
441.725	4
442.08	4.01
442.435	4.02
442.79	4.01
443.145	4.01
443.5	3.99
443.855	4
444.21	3.99
444.565	4
444.92	4.02
445.275	4.01
445.629	3.99
445.984	4
446.339	4
446.693	3.98
447.048	3.96
447.403	3.95
447.757	3.95
448.112	3.94
448.466	3.92
448.82	3.91
449.175	3.9
449.529	3.89
449.883	3.86
450.238	3.84
450.592	3.83
450.946	3.81
451.3	3.8
451.654	3.81
452.008	3.8
452.362	3.76
452.716	3.74
453.07	3.76
453.424	3.73
453.778	3.74
454.132	3.75
454.486	3.77
454.839	3.76
455.193	3.77
455.547	3.78
455.9	3.79
456.254	3.79
456.607	3.8
456.961	3.81
457.314	3.81
457.668	3.84
458.021	3.84
458.375	3.86
458.728	3.85
459.081	3.85
459.434	3.85
459.787	3.85
460.141	3.87
460.494	3.88
460.847	3.91
461.2	3.91
461.553	3.91
461.906	3.92
462.259	3.94
462.611	3.93
462.964	3.94
463.317	3.93
463.67	3.94
464.022	3.96
464.375	3.95
464.728	3.98
465.08	3.98
465.433	3.99
465.785	3.99
466.138	4.02
466.49	4.05
466.843	4.05
467.195	4.07
467.547	4.08
467.899	4.09
468.252	4.07
468.604	4.08
468.956	4.07
469.308	4.08
469.66	4.09
470.012	4.09
470.364	4.08
470.716	4.13
471.068	4.13
471.42	4.11
471.772	4.13
472.123	4.12
472.475	4.1
472.827	4.13
473.178	4.14
473.53	4.12
473.882	4.1
474.233	4.09
474.585	4.08
474.936	4.06
475.288	4.07
475.639	4.07
475.99	4.06
476.342	4.09
476.693	4.1
477.044	4.12
477.395	4.12
477.746	4.13
478.097	4.11
478.448	4.11
478.8	4.1
479.15	4.09
479.501	4.11
479.852	4.11
480.203	4.11
480.554	4.11
480.905	4.13
481.255	4.14
481.606	4.15
481.957	4.16
482.307	4.16
482.658	4.16
483.009	4.16
483.359	4.17
483.709	4.17
484.06	4.16
484.41	4.15
484.761	4.15
485.111	4.15
485.461	4.15
485.811	4.16
486.162	4.16
486.512	4.17
486.862	4.16
487.212	4.16
487.562	4.16
487.912	4.16
488.262	4.16
488.612	4.15
488.961	4.16
489.311	4.15
489.661	4.15
490.011	4.15
490.36	4.15
490.71	4.14
491.06	4.14
491.409	4.14
491.759	4.14
492.108	4.15
492.458	4.16
492.807	4.16
493.157	4.18
493.506	4.19
493.855	4.2
494.204	4.22
494.554	4.24
494.903	4.24
495.252	4.24
495.601	4.27
495.95	4.27
496.299	4.3
496.648	4.32
496.997	4.36
497.346	4.39
497.695	4.43
498.043	4.49
498.392	4.52
498.741	4.58
499.09	4.63
499.438	4.66
499.787	4.7
500.135	4.74
500.484	4.76
500.832	4.82
501.181	4.88
501.529	4.92
501.878	4.99
502.226	5.07
502.574	5.15
502.923	5.22
503.271	5.28
503.619	5.35
503.967	5.44
504.315	5.52
504.663	5.61
505.011	5.71
505.359	5.79
505.707	5.89
506.055	5.98
506.403	6.06
506.751	6.16
507.098	6.25
507.446	6.37
507.794	6.49
508.141	6.58
508.489	6.67
508.837	6.8
509.184	6.92
509.531	7.03
509.879	7.16
510.226	7.27
510.574	7.4
510.921	7.51
511.268	7.64
511.616	7.77
511.963	7.89
512.31	8.01
512.657	8.14
513.004	8.28
513.351	8.45
513.698	8.58
514.045	8.76
514.392	8.95
514.739	9.1
515.086	9.26
515.432	9.41
515.779	9.58
516.126	9.75
516.473	9.9
516.819	10.06
517.166	10.2
517.512	10.33
517.859	10.49
518.205	10.63
518.552	10.75
518.898	10.87
519.245	10.99
519.591	11.1
519.937	11.22
520.283	11.36
520.629	11.48
520.976	11.66
521.322	11.81
521.668	11.95
522.014	12.11
522.36	12.29
522.706	12.46
523.052	12.64
523.398	12.82
523.743	13
524.089	13.18
524.435	13.37
524.781	13.57
525.126	13.74
525.472	13.9
525.817	14.06
526.163	14.2
526.509	14.35
526.854	14.49
527.199	14.63
527.545	14.76
527.89	14.89
528.235	15.01
528.581	15.14
528.926	15.26
529.271	15.4
529.616	15.54
529.961	15.68
530.306	15.84
530.651	16
530.996	16.17
531.341	16.33
531.686	16.5
532.031	16.67
532.376	16.86
532.721	17.06
533.065	17.24
533.41	17.47
533.755	17.7
534.099	17.92
534.444	18.14
534.788	18.34
535.133	18.56
535.477	18.78
535.822	19.02
536.166	19.28
536.51	19.54
536.855	19.82
537.199	20.11
537.543	20.4
537.887	20.69
538.231	20.99
538.576	21.29
538.92	21.59
539.264	21.88
539.608	22.14
539.951	22.4
540.295	22.67
540.639	22.93
540.983	23.13
541.327	23.35
541.671	23.57
542.014	23.82
542.358	24.06
542.701	24.31
543.045	24.51
543.389	24.76
543.732	25.01
544.075	25.24
544.419	25.48
544.762	25.72
545.105	26
545.449	26.27
545.792	26.58
546.135	26.86
546.478	27.2
546.821	27.54
547.165	27.83
547.508	28.17
547.851	28.46
548.194	28.83
548.536	29.17
548.879	29.5
549.222	29.82
549.565	30.13
549.908	30.45
550.25	30.8
550.593	31.11
550.936	31.42
551.278	31.73
551.621	32.05
551.963	32.39
552.306	32.66
552.648	32.99
552.991	33.28
553.333	33.6
553.675	33.91
554.017	34.19
554.36	34.48
554.702	34.77
555.044	35.04
555.386	35.29
555.728	35.56
556.07	35.86
556.412	36.12
556.754	36.43
557.096	36.74
557.438	37.05
557.78	37.32
558.121	37.61
558.463	37.87
558.805	38.17
559.147	38.39
559.488	38.67
559.83	38.93
560.171	39.14
560.513	39.39
560.854	39.58
561.196	39.84
561.537	40.04
561.878	40.23
562.22	40.46
562.561	40.71
562.902	40.88
563.243	41.08
563.584	41.29
563.925	41.44
564.266	41.52
564.607	41.72
564.948	41.89
565.289	42.04
565.63	42.25
565.971	42.4
566.312	42.64
566.653	42.8
566.993	42.96
567.334	43.14
567.675	43.25
568.015	43.4
568.356	43.5
568.696	43.68
569.037	43.81
569.377	43.95
569.718	44.08
570.058	44.24
570.398	44.38
570.739	44.52
571.079	44.71
571.419	44.91
571.759	45.02
572.099	45.16
572.439	45.32
572.779	45.4
573.119	45.51
573.459	45.61
573.799	45.73
574.139	45.82
574.479	45.9
574.819	46.04
575.158	46.13
575.498	46.31
575.838	46.46
576.177	46.55
576.517	46.63
576.856	46.77
577.196	46.93
577.535	47.09
577.875	47.21
578.214	47.33
578.553	47.41
578.893	47.57
579.232	47.62
579.571	47.76
579.91	47.98
580.25	48.1
580.589	48.24
580.928	48.27
581.267	48.41
581.606	48.55
581.945	48.63
582.283	48.79
582.622	48.86
582.961	48.95
583.3	49.12
583.639	49.27
583.977	49.33
584.316	49.39
584.654	49.46
584.993	49.55
585.332	49.6
585.67	49.75
586.008	49.81
586.347	49.99
586.685	50.09
587.024	50.17
587.362	50.25
587.7	50.32
588.038	50.49
588.376	50.55
588.715	50.59
589.053	50.71
589.391	50.8
589.729	50.83
590.067	50.88
590.404	50.9
590.742	50.96
591.08	51.02
591.418	51.13
591.756	51.19
592.093	51.26
592.431	51.29
592.769	51.31
593.106	51.35
593.444	51.35
593.781	51.41
594.119	51.39
594.456	51.4
594.793	51.45
595.131	51.51
595.468	51.52
595.805	51.58
596.143	51.62
596.48	51.64
596.817	51.79
597.154	51.89
597.491	51.98
597.828	52.05
598.165	52.13
598.502	52.05
598.839	52.12
599.176	52.11
599.512	52.18
599.849	52.28
600.186	52.34
600.523	52.38
600.859	52.4
601.196	52.46
601.532	52.51
601.869	52.52
602.205	52.51
602.542	52.56
602.878	52.51
603.215	52.53
603.551	52.58
603.887	52.56
604.223	52.6
604.56	52.7
604.896	52.75
605.232	52.75
605.568	52.84
605.904	52.86
606.24	52.94
606.576	52.97
606.912	52.94
607.248	52.94
607.583	53.07
607.919	53.1
608.255	53.13
608.591	53.22
608.926	53.29
609.262	53.38
609.597	53.47
609.933	53.65
610.268	53.72
610.604	53.77
610.939	53.79
611.275	53.77
611.61	53.8
611.945	53.82
612.281	53.9
612.616	53.94
612.951	53.98
613.286	54
613.621	54.04
613.956	54.08
614.291	54.15
614.626	54.08
614.961	54.15
615.296	54.14
615.631	54.19
615.966	54.18
616.3	54.16
616.635	54.27
616.97	54.36
617.304	54.35
617.639	54.39
617.973	54.38
618.308	54.48
618.642	54.37
618.977	54.4
619.311	54.44
619.646	54.51
619.98	54.58
620.314	54.64
620.648	54.7
620.983	54.9
621.317	54.97
621.651	55.02
621.985	55.02
622.319	55.14
622.653	55.2
622.987	55.3
623.321	55.41
623.655	55.39
623.988	55.37
624.322	55.46
624.656	55.48
624.99	55.53
625.323	55.62
625.657	55.73
625.99	55.72
626.324	55.79
626.657	55.82
626.991	55.81
627.324	55.81
627.658	55.79
627.991	55.63
628.324	55.73
628.657	55.78
628.991	55.79
629.324	55.82
629.657	55.71
629.99	55.7
630.323	55.7
630.656	55.74
630.989	55.82
631.322	55.79
631.655	55.74
631.987	55.77
632.32	55.66
632.653	55.56
632.986	55.56
633.318	55.58
633.651	55.53
633.984	55.5
634.316	55.54
634.649	55.56
634.981	55.65
635.313	55.57
635.646	55.6
635.978	55.72
636.31	55.72
636.643	55.72
636.975	55.69
637.307	55.73
637.639	55.69
637.971	55.6
638.303	55.65
638.635	55.66
638.967	55.62
639.299	55.72
639.631	55.79
639.963	55.8
640.295	55.76
640.626	55.83
640.958	55.86
641.29	55.83
641.621	55.93
641.953	55.92
642.285	55.98
642.616	55.91
642.948	55.79
643.279	55.82
643.61	55.97
643.942	56.06
644.273	56.1
644.604	56.21
644.936	56.2
645.267	56.15
645.598	56.25
645.929	56.36
646.26	56.44
646.591	56.58
646.922	56.64
647.253	56.6
647.584	56.57
647.915	56.69
648.245	56.75
648.576	56.64
648.907	56.77
649.238	56.71
649.568	56.82
649.899	56.89
650.229	56.88
650.56	56.89
650.89	56.82
651.221	56.73
651.551	56.64
651.882	56.7
652.212	56.74
652.542	56.87
652.872	56.86
653.203	56.82
653.533	56.81
653.863	56.83
654.193	56.88
654.523	56.93
654.853	57.03
655.183	57.07
655.513	57.06
655.843	57.06
656.172	57.19
656.502	57.11
656.832	57.04
657.162	57.16
657.491	57.14
657.821	57.1
658.15	57.19
658.48	57.22
658.809	57.25
659.139	57.26
659.468	57.11
659.798	57.14
660.127	57.13
660.456	57.05
660.785	57.1
661.115	57.17
661.444	57.22
661.773	57.16
662.102	57.1
662.431	57.24
662.76	57.26
663.089	57.17
663.418	57.15
663.747	57.16
664.076	57.12
664.404	57.14
664.733	57.35
665.062	57.35
665.39	57.38
