Data from BU26932_Reflection_00003.txt Node
Date: Tue Nov 19 10:44:21 EST 2019
User: vgr7
Spectrometer: USB2G7710
Scans to average: 3
Trigger mode: 4
Integration Time (sec): 2.000000E-2
Electric dark correction enabled: true
Boxcar width: 10
XAxis mode: Wavelengths
Number of Pixels in Spectrum: 2048
>>>>>Begin Spectral Data<<<<<
177.721	69.18
178.105	41.18
178.488	29.42
178.871	170.97
179.254	-1000
179.636	-434.09
180.019	-142.33
180.402	-185.71
180.785	1018.18
181.168	22.39
181.55	-109.68
181.933	-498.36
182.316	-247.93
182.698	-163.33
183.081	-163.85
183.463	-145.23
183.846	-99.62
184.228	-73.06
184.611	-52.03
184.993	-21.33
185.376	-5.71
185.758	0.09
186.14	-11.99
186.522	-9.03
186.904	3.07
187.287	-9.63
187.669	-16.51
188.051	-30.38
188.433	-26.37
188.815	-37.01
189.197	-35.29
189.579	-19.66
189.961	-23.82
190.342	-21.09
190.724	-21.58
191.106	-28.4
191.488	-24.61
191.869	-25.89
192.251	-23.18
192.633	-24.61
193.014	-20.68
193.396	-30.75
193.777	-40.87
194.159	-32.74
194.54	-32.55
194.922	-49.64
195.303	-43.62
195.684	-25.48
196.065	-15.45
196.447	-25.66
196.828	-24.27
197.209	-14.11
197.59	-29.19
197.971	-3.58
198.352	-13.02
198.733	-16.01
199.114	-18.52
199.495	-22.48
199.876	-22.21
200.257	-31.21
200.638	-29.39
201.018	-36.41
201.399	-44.04
201.78	-42.36
202.16	-66.21
202.541	-68.2
202.922	-65.04
203.302	-41.79
203.683	-59.05
204.063	-61.1
204.444	-33.07
204.824	-25.97
205.204	-19.41
205.585	-20.01
205.965	-33.32
206.345	-21.81
206.725	-22.66
207.106	-7.21
207.486	0.73
207.866	7.81
208.246	14.86
208.626	21.56
209.006	9.03
209.386	2.17
209.766	5.7
210.145	7.17
210.525	6.84
210.905	16.7
211.285	5.37
211.664	3.14
212.044	-0.14
212.424	-3.77
212.803	-14.49
213.183	-30.68
213.562	-20.19
213.942	-18.27
214.321	-21.67
214.701	-22.21
215.08	-33.32
215.459	-27.61
215.838	-37.58
216.218	-29.71
216.597	-30.5
216.976	-31.63
217.355	-32.74
217.734	-38.26
218.113	-25.7
218.492	-26.08
218.871	-23.54
219.25	-27.17
219.629	-30.21
220.008	-22.27
220.387	-22.62
220.766	-10.94
221.144	-8.24
221.523	-15.43
221.902	-16.21
222.28	-18.33
222.659	-3.57
223.037	5.59
223.416	4.94
223.794	6.91
224.173	-7.13
224.551	-11.45
224.929	-14.21
225.308	-9.04
225.686	-3.95
226.064	-12.19
226.442	-12.62
226.821	-16.18
227.199	-14.99
227.577	-14.48
227.955	-15.79
228.333	-16.33
228.711	-17.65
229.089	-17.87
229.467	-14.56
229.845	-14.94
230.222	-12.12
230.6	-17.23
230.978	-20.07
231.356	-20.26
231.733	-20.79
232.111	-17.21
232.488	-16.21
232.866	-12.29
233.243	-9.9
233.621	-8.43
233.998	-8.79
234.376	-6.4
234.753	-4.9
235.13	-3.82
235.508	-1.62
235.885	-1.17
236.262	-1.3
236.639	-0.33
237.016	0.18
237.393	-0.66
237.77	0.66
238.147	1.1
238.524	2.37
238.901	2.21
239.278	2.13
239.655	2.48
240.032	2.8
240.409	3.45
240.785	3.49
241.162	3.2
241.539	3
241.915	3.35
242.292	2.91
242.668	2.97
243.045	2.98
243.421	2.9
243.798	3.27
244.174	3.4
244.551	3.2
244.927	3.02
245.303	3.22
245.679	3.09
246.056	2.67
246.432	2.61
246.808	2.82
247.184	2.8
247.56	2.75
247.936	2.81
248.312	2.93
248.688	2.9
249.064	3.04
249.44	3.09
249.815	2.93
250.191	3.03
250.567	2.81
250.943	3.02
251.318	2.96
251.694	2.55
252.069	2.74
252.445	2.85
252.82	3.41
253.196	3.41
253.571	3.6
253.947	3.86
254.322	3.94
254.697	4.21
255.073	4.38
255.448	4.43
255.823	4.56
256.198	4.13
256.573	4.15
256.948	3.95
257.323	3.99
257.698	3.96
258.073	3.87
258.448	3.87
258.823	3.73
259.198	3.87
259.573	3.79
259.948	3.62
260.322	3.56
260.697	3.45
261.072	3.46
261.446	3.42
261.821	3.44
262.195	3.33
262.57	3.19
262.944	3.21
263.319	3.29
263.693	3.19
264.067	3.3
264.442	3.17
264.816	3.19
265.19	3.21
265.564	3.22
265.938	3.25
266.313	3.29
266.687	3.21
267.061	3.15
267.435	3.53
267.809	3.44
268.183	3.48
268.556	3.29
268.93	3.3
269.304	3.33
269.678	3.33
270.051	3.28
270.425	3.3
270.799	3.01
271.172	2.87
271.546	2.93
271.919	3.02
272.293	3.28
272.666	3.21
273.04	3.17
273.413	3.18
273.787	3.21
274.16	3.13
274.533	3.21
274.906	3.34
275.279	3.17
275.653	3.21
276.026	3.17
276.399	3.2
276.772	3.11
277.145	3.1
277.518	3.22
277.891	3.29
278.263	3.19
278.636	3.45
279.009	3.63
279.382	3.6
279.755	3.65
280.127	3.32
280.5	3.39
280.872	3.32
281.245	3.38
281.617	3.43
281.99	3.4
282.362	3.35
282.735	3
283.107	2.96
283.479	2.99
283.852	3.01
284.224	3.04
284.596	3.06
284.968	2.98
285.34	2.93
285.713	3.01
286.085	3
286.457	2.89
286.829	2.92
287.201	2.87
287.572	2.83
287.944	3.06
288.316	3.02
288.688	3.09
289.06	3.08
289.431	3.17
289.803	3.35
290.175	3.34
290.546	3.47
290.918	3.51
291.289	3.45
291.661	3.51
292.032	3.39
292.403	3.5
292.775	3.59
293.146	3.67
293.517	3.58
293.889	3.55
294.26	3.59
294.631	3.58
295.002	3.66
295.373	3.65
295.744	3.51
296.115	3.63
296.486	3.58
296.857	3.71
297.228	3.56
297.599	3.33
297.97	3.36
298.34	3.5
298.711	3.52
299.082	3.63
299.452	3.58
299.823	3.65
300.194	3.69
300.564	3.63
300.935	3.63
301.305	3.67
301.676	3.76
302.046	3.74
302.416	3.59
302.787	3.58
303.157	3.59
303.527	3.65
303.897	3.45
304.267	3.56
304.637	3.51
305.008	3.49
305.378	3.72
305.748	3.8
306.117	3.69
306.487	3.75
306.857	3.79
307.227	3.89
307.597	3.82
307.967	3.62
308.336	3.58
308.706	3.55
309.076	3.59
309.445	3.68
309.815	3.7
310.184	3.79
310.554	3.79
310.923	3.71
311.293	3.63
311.662	3.72
312.031	3.63
312.401	3.61
312.77	3.58
313.139	3.48
313.508	3.44
313.877	3.43
314.246	3.41
314.616	3.38
314.985	3.34
315.353	3.42
315.722	3.49
316.091	3.69
316.46	3.66
316.829	3.62
317.198	3.48
317.567	3.6
317.935	3.58
318.304	3.42
318.672	3.5
319.041	3.57
319.41	3.64
319.778	3.61
320.147	3.6
320.515	3.68
320.883	3.68
321.252	3.67
321.62	3.62
321.988	3.53
322.357	3.4
322.725	3.33
323.093	3.3
323.461	3.28
323.829	3.14
324.197	3.17
324.565	3.08
324.933	3.07
325.301	2.87
325.669	2.82
326.037	2.92
326.405	2.87
326.772	2.81
327.14	2.84
327.508	2.75
327.875	2.59
328.243	2.53
328.61	2.56
328.978	2.45
329.346	2.47
329.713	2.47
330.08	2.51
330.448	2.59
330.815	2.66
331.182	2.68
331.55	2.69
331.917	2.64
332.284	2.82
332.651	2.94
333.018	3.02
333.385	3.04
333.752	3.09
334.119	3.1
334.486	3.15
334.853	3.05
335.22	3.12
335.587	3.25
335.954	3.22
336.32	3.22
336.687	3.32
337.054	3.25
337.42	3.33
337.787	3.35
338.153	3.35
338.52	3.37
338.886	3.38
339.253	3.36
339.619	3.29
339.986	3.17
340.352	3.15
340.718	3.23
341.084	3.41
341.451	3.4
341.817	3.35
342.183	3.3
342.549	3.3
342.915	3.36
343.281	3.34
343.647	3.34
344.013	3.32
344.379	3.21
344.745	3.33
345.11	3.29
345.476	3.28
345.842	3.14
346.208	3.05
346.573	3.08
346.939	3.05
347.304	3.16
347.67	3.21
348.035	3.16
348.401	3.09
348.766	2.95
349.132	2.93
349.497	2.93
349.862	2.97
350.228	3.02
350.593	3.05
350.958	3.12
351.323	3.22
351.688	3.3
352.053	3.38
352.418	3.36
352.783	3.26
353.148	3.25
353.513	3.28
353.878	3.3
354.243	3.27
354.608	3.29
354.972	3.29
355.337	3.26
355.702	3.25
356.066	3.28
356.431	3.31
356.795	3.38
357.16	3.42
357.524	3.4
357.889	3.37
358.253	3.3
358.618	3.36
358.982	3.36
359.346	3.33
359.71	3.34
360.075	3.35
360.439	3.4
360.803	3.42
361.167	3.47
361.531	3.44
361.895	3.39
362.259	3.49
362.623	3.47
362.987	3.47
363.351	3.49
363.714	3.51
364.078	3.49
364.442	3.48
364.806	3.47
365.169	3.46
365.533	3.44
365.896	3.58
366.26	3.45
366.623	3.36
366.987	3.37
367.35	3.39
367.714	3.36
368.077	3.44
368.44	3.42
368.803	3.43
369.167	3.39
369.53	3.49
369.893	3.38
370.256	3.3
370.619	3.27
370.982	3.21
371.345	3.24
371.708	3.26
372.071	3.2
372.434	3.22
372.797	3.3
373.159	3.31
373.522	3.24
373.885	3.29
374.247	3.31
374.61	3.26
374.973	3.26
375.335	3.3
375.698	3.27
376.06	3.31
376.423	3.29
376.785	3.37
377.147	3.38
377.51	3.36
377.872	3.44
378.234	3.47
378.596	3.51
378.958	3.48
379.321	3.42
379.683	3.44
380.045	3.43
380.407	3.44
380.769	3.42
381.13	3.4
381.492	3.41
381.854	3.45
382.216	3.5
382.578	3.5
382.939	3.47
383.301	3.44
383.663	3.44
384.024	3.42
384.386	3.41
384.747	3.38
385.109	3.41
385.47	3.38
385.832	3.39
386.193	3.37
386.554	3.32
386.916	3.34
387.277	3.34
387.638	3.35
387.999	3.32
388.36	3.35
388.721	3.35
389.082	3.37
389.443	3.35
389.804	3.41
390.165	3.38
390.526	3.35
390.887	3.37
391.248	3.35
391.609	3.37
391.969	3.37
392.33	3.35
392.691	3.39
393.051	3.39
393.412	3.41
393.772	3.45
394.133	3.47
394.493	3.47
394.854	3.49
395.214	3.51
395.574	3.5
395.935	3.49
396.295	3.52
396.655	3.5
397.015	3.51
397.376	3.45
397.736	3.46
398.096	3.49
398.456	3.46
398.816	3.48
399.176	3.45
399.535	3.48
399.895	3.52
400.255	3.5
400.615	3.53
400.975	3.5
401.334	3.48
401.694	3.5
402.054	3.53
402.413	3.49
402.773	3.45
403.132	3.46
403.492	3.47
403.851	3.46
404.211	3.44
404.57	3.43
404.929	3.45
405.288	3.47
405.648	3.47
406.007	3.5
406.366	3.48
406.725	3.52
407.084	3.49
407.443	3.48
407.802	3.46
408.161	3.46
408.52	3.46
408.879	3.47
409.238	3.47
409.596	3.46
409.955	3.51
410.314	3.52
410.673	3.52
411.031	3.51
411.39	3.51
411.748	3.51
412.107	3.52
412.465	3.49
412.824	3.49
413.182	3.51
413.54	3.51
413.899	3.53
414.257	3.51
414.615	3.51
414.974	3.51
415.332	3.52
415.69	3.51
416.048	3.51
416.406	3.49
416.764	3.49
417.122	3.5
417.48	3.47
417.838	3.46
418.195	3.47
418.553	3.47
418.911	3.49
419.269	3.51
419.626	3.51
419.984	3.52
420.342	3.53
420.699	3.52
421.057	3.52
421.414	3.53
421.772	3.53
422.129	3.53
422.486	3.54
422.844	3.53
423.201	3.54
423.558	3.54
423.915	3.55
424.273	3.56
424.63	3.57
424.987	3.58
425.344	3.59
425.701	3.6
426.058	3.6
426.415	3.59
426.772	3.59
427.128	3.58
427.485	3.58
427.842	3.58
428.199	3.58
428.555	3.6
428.912	3.59
429.269	3.58
429.625	3.6
429.982	3.6
430.338	3.61
430.695	3.6
431.051	3.61
431.407	3.63
431.764	3.59
432.12	3.62
432.476	3.64
432.832	3.64
433.189	3.64
433.545	3.65
433.901	3.64
434.257	3.64
434.613	3.63
434.969	3.62
435.325	3.62
435.681	3.61
436.036	3.61
436.392	3.6
436.748	3.62
437.104	3.61
437.459	3.6
437.815	3.59
438.171	3.61
438.526	3.6
438.882	3.59
439.237	3.59
439.593	3.57
439.948	3.56
440.304	3.55
440.659	3.54
441.014	3.52
441.369	3.54
441.725	3.54
442.08	3.55
442.435	3.56
442.79	3.56
443.145	3.54
443.5	3.52
443.855	3.51
444.21	3.51
444.565	3.52
444.92	3.53
445.275	3.52
445.629	3.53
445.984	3.53
446.339	3.54
446.693	3.55
447.048	3.55
447.403	3.55
447.757	3.55
448.112	3.56
448.466	3.57
448.82	3.57
449.175	3.57
449.529	3.58
449.883	3.56
450.238	3.57
450.592	3.6
450.946	3.62
451.3	3.64
451.654	3.64
452.008	3.65
452.362	3.65
452.716	3.66
453.07	3.66
453.424	3.65
453.778	3.63
454.132	3.63
454.486	3.67
454.839	3.66
455.193	3.68
455.547	3.67
455.9	3.67
456.254	3.66
456.607	3.67
456.961	3.68
457.314	3.68
457.668	3.68
458.021	3.68
458.375	3.66
458.728	3.65
459.081	3.66
459.434	3.64
459.787	3.64
460.141	3.65
460.494	3.65
460.847	3.67
461.2	3.68
461.553	3.68
461.906	3.67
462.259	3.66
462.611	3.65
462.964	3.66
463.317	3.66
463.67	3.7
464.022	3.68
464.375	3.66
464.728	3.67
465.08	3.69
465.433	3.67
465.785	3.71
466.138	3.71
466.49	3.71
466.843	3.72
467.195	3.72
467.547	3.72
467.899	3.71
468.252	3.7
468.604	3.71
468.956	3.72
469.308	3.71
469.66	3.74
470.012	3.74
470.364	3.76
470.716	3.76
471.068	3.75
471.42	3.76
471.772	3.77
472.123	3.77
472.475	3.76
472.827	3.75
473.178	3.74
473.53	3.75
473.882	3.75
474.233	3.73
474.585	3.73
474.936	3.73
475.288	3.72
475.639	3.74
475.99	3.72
476.342	3.73
476.693	3.75
477.044	3.73
477.395	3.73
477.746	3.73
478.097	3.72
478.448	3.72
478.8	3.71
479.15	3.7
479.501	3.7
479.852	3.7
480.203	3.73
480.554	3.74
480.905	3.74
481.255	3.75
481.606	3.77
481.957	3.78
482.307	3.78
482.658	3.79
483.009	3.79
483.359	3.8
483.709	3.8
484.06	3.79
484.41	3.79
484.761	3.79
485.111	3.79
485.461	3.79
485.811	3.8
486.162	3.81
486.512	3.82
486.862	3.83
487.212	3.84
487.562	3.83
487.912	3.84
488.262	3.84
488.612	3.84
488.961	3.84
489.311	3.84
489.661	3.85
490.011	3.84
490.36	3.84
490.71	3.84
491.06	3.85
491.409	3.84
491.759	3.85
492.108	3.84
492.458	3.85
492.807	3.85
493.157	3.84
493.506	3.84
493.855	3.84
494.204	3.83
494.554	3.84
494.903	3.85
495.252	3.85
495.601	3.85
495.95	3.86
496.299	3.87
496.648	3.86
496.997	3.85
497.346	3.87
497.695	3.87
498.043	3.86
498.392	3.86
498.741	3.89
499.09	3.89
499.438	3.91
499.787	3.91
500.135	3.92
500.484	3.91
500.832	3.92
501.181	3.92
501.529	3.94
501.878	3.94
502.226	3.93
502.574	3.92
502.923	3.93
503.271	3.91
503.619	3.93
503.967	3.93
504.315	3.94
504.663	3.94
505.011	3.95
505.359	3.97
505.707	3.96
506.055	3.96
506.403	3.95
506.751	3.96
507.098	3.96
507.446	3.95
507.794	3.98
508.141	3.99
508.489	4.01
508.837	4
509.184	4.01
509.531	4.02
509.879	4.03
510.226	4.02
510.574	4.04
510.921	4.03
511.268	4.03
511.616	4.05
511.963	4.06
512.31	4.08
512.657	4.08
513.004	4.06
513.351	4.05
513.698	4.08
514.045	4.06
514.392	4.06
514.739	4.09
515.086	4.09
515.432	4.07
515.779	4.04
516.126	4.06
516.473	4.03
516.819	4.02
517.166	4.05
517.512	4.05
517.859	4.05
518.205	4.05
518.552	4.07
518.898	4.07
519.245	4.06
519.591	4.06
519.937	4.07
520.283	4.09
520.629	4.08
520.976	4.06
521.322	4.08
521.668	4.09
522.014	4.09
522.36	4.09
522.706	4.1
523.052	4.13
523.398	4.14
523.743	4.16
524.089	4.18
524.435	4.18
524.781	4.2
525.126	4.22
525.472	4.23
525.817	4.23
526.163	4.24
526.509	4.25
526.854	4.25
527.199	4.25
527.545	4.25
527.89	4.27
528.235	4.3
528.581	4.29
528.926	4.29
529.271	4.29
529.616	4.28
529.961	4.29
530.306	4.29
530.651	4.29
530.996	4.29
531.341	4.29
531.686	4.29
532.031	4.28
532.376	4.28
532.721	4.28
533.065	4.28
533.41	4.28
533.755	4.29
534.099	4.3
534.444	4.3
534.788	4.3
535.133	4.3
535.477	4.29
535.822	4.29
536.166	4.3
536.51	4.31
536.855	4.31
537.199	4.32
537.543	4.34
537.887	4.34
538.231	4.33
538.576	4.33
538.92	4.32
539.264	4.33
539.608	4.33
539.951	4.36
540.295	4.37
540.639	4.36
540.983	4.36
541.327	4.35
541.671	4.35
542.014	4.36
542.358	4.36
542.701	4.36
543.045	4.37
543.389	4.39
543.732	4.39
544.075	4.4
544.419	4.4
544.762	4.38
545.105	4.39
545.449	4.4
545.792	4.39
546.135	4.4
546.478	4.4
546.821	4.4
547.165	4.38
547.508	4.37
547.851	4.38
548.194	4.37
548.536	4.37
548.879	4.38
549.222	4.38
549.565	4.41
549.908	4.41
550.25	4.38
550.593	4.36
550.936	4.37
551.278	4.37
551.621	4.34
551.963	4.37
552.306	4.39
552.648	4.38
552.991	4.41
553.333	4.41
553.675	4.4
554.017	4.38
554.36	4.39
554.702	4.36
555.044	4.34
555.386	4.34
555.728	4.33
556.07	4.3
556.412	4.3
556.754	4.28
557.096	4.3
557.438	4.29
557.78	4.29
558.121	4.27
558.463	4.27
558.805	4.32
559.147	4.3
559.488	4.28
559.83	4.28
560.171	4.24
560.513	4.27
560.854	4.27
561.196	4.29
561.537	4.3
561.878	4.32
562.22	4.34
562.561	4.36
562.902	4.37
563.243	4.39
563.584	4.4
563.925	4.38
564.266	4.36
564.607	4.4
564.948	4.42
565.289	4.42
565.63	4.42
565.971	4.43
566.312	4.42
566.653	4.43
566.993	4.46
567.334	4.48
567.675	4.48
568.015	4.48
568.356	4.49
568.696	4.48
569.037	4.47
569.377	4.5
569.718	4.5
570.058	4.5
570.398	4.5
570.739	4.5
571.079	4.52
571.419	4.53
571.759	4.52
572.099	4.52
572.439	4.53
572.779	4.53
573.119	4.51
573.459	4.54
573.799	4.54
574.139	4.51
574.479	4.53
574.819	4.54
575.158	4.57
575.498	4.57
575.838	4.59
576.177	4.59
576.517	4.58
576.856	4.59
577.196	4.58
577.535	4.59
577.875	4.57
578.214	4.55
578.553	4.56
578.893	4.61
579.232	4.58
579.571	4.59
579.91	4.6
580.25	4.62
580.589	4.6
580.928	4.57
581.267	4.6
581.606	4.57
581.945	4.55
582.283	4.53
582.622	4.53
582.961	4.52
583.3	4.52
583.639	4.5
583.977	4.5
584.316	4.52
584.654	4.55
584.993	4.56
585.332	4.6
585.67	4.6
586.008	4.57
586.347	4.61
586.685	4.58
587.024	4.57
587.362	4.56
587.7	4.6
588.038	4.63
588.376	4.62
588.715	4.63
589.053	4.64
589.391	4.63
589.729	4.61
590.067	4.61
590.404	4.63
590.742	4.69
591.08	4.67
591.418	4.66
591.756	4.63
592.093	4.65
592.431	4.64
592.769	4.63
593.106	4.62
593.444	4.64
593.781	4.68
594.119	4.68
594.456	4.67
594.793	4.65
595.131	4.65
595.468	4.71
595.805	4.68
596.143	4.63
596.48	4.63
596.817	4.64
597.154	4.66
597.491	4.64
597.828	4.61
598.165	4.59
598.502	4.6
598.839	4.6
599.176	4.61
599.512	4.59
599.849	4.61
600.186	4.59
600.523	4.57
600.859	4.52
601.196	4.55
601.532	4.56
601.869	4.57
602.205	4.56
602.542	4.5
602.878	4.54
603.215	4.6
603.551	4.6
603.887	4.6
604.223	4.57
604.56	4.59
604.896	4.59
605.232	4.61
605.568	4.62
605.904	4.62
606.24	4.62
606.576	4.64
606.912	4.64
607.248	4.66
607.583	4.69
607.919	4.7
608.255	4.67
608.591	4.67
608.926	4.66
609.262	4.62
609.597	4.61
609.933	4.62
610.268	4.63
610.604	4.66
610.939	4.64
611.275	4.67
611.61	4.66
611.945	4.64
612.281	4.67
612.616	4.67
612.951	4.71
613.286	4.68
613.621	4.72
613.956	4.71
614.291	4.71
614.626	4.69
614.961	4.75
615.296	4.78
615.631	4.83
615.966	4.86
616.3	4.93
616.635	4.97
616.97	4.92
617.304	4.88
617.639	4.89
617.973	4.91
618.308	4.88
618.642	4.91
618.977	4.92
619.311	4.92
619.646	4.93
619.98	4.9
620.314	4.92
620.648	4.86
620.983	4.89
621.317	4.9
621.651	4.88
621.985	4.83
622.319	4.83
622.653	4.84
622.987	4.84
623.321	4.81
623.655	4.83
623.988	4.88
624.322	4.94
624.656	4.93
624.99	4.9
625.323	4.95
625.657	4.95
625.99	4.93
626.324	4.91
626.657	4.92
626.991	4.91
627.324	4.92
627.658	4.96
627.991	4.92
628.324	4.88
628.657	4.88
628.991	4.91
629.324	4.91
629.657	4.87
629.99	4.89
630.323	4.94
630.656	4.93
630.989	4.9
631.322	4.85
631.655	4.82
631.987	4.89
632.32	4.92
632.653	4.91
632.986	4.92
633.318	4.94
633.651	4.94
633.984	4.95
634.316	4.94
634.649	4.91
634.981	4.93
635.313	4.99
635.646	5.04
635.978	5.05
636.31	5.03
636.643	5.05
636.975	4.99
637.307	4.94
637.639	4.88
637.971	4.87
638.303	4.89
638.635	4.93
638.967	4.85
639.299	4.83
639.631	4.81
639.963	4.84
640.295	4.81
640.626	4.83
640.958	4.84
641.29	4.9
641.621	4.91
641.953	4.88
642.285	4.86
642.616	4.83
642.948	4.85
643.279	4.87
643.61	4.9
643.942	4.93
644.273	4.95
644.604	5.03
644.936	5.04
645.267	5.09
645.598	5.01
645.929	5.08
646.26	5.02
646.591	5.1
646.922	5.1
647.253	5.1
647.584	5.13
647.915	5.12
648.245	5.11
648.576	5.12
648.907	5.19
649.238	5.15
649.568	5.09
649.899	5
650.229	5.03
650.56	5.01
650.89	5.02
651.221	5.04
651.551	5
651.882	5.01
652.212	4.98
652.542	5
652.872	4.9
653.203	4.97
653.533	5.01
653.863	5.02
654.193	5.04
654.523	4.94
654.853	5.01
655.183	4.97
655.513	5.01
655.843	5.01
656.172	5.09
656.502	5.12
656.832	5.23
657.162	5.2
657.491	5.23
657.821	5.28
658.15	5.27
658.48	5.35
658.809	5.37
659.139	5.36
659.468	5.5
659.798	5.6
660.127	5.6
660.456	5.55
660.785	5.51
661.115	5.53
661.444	5.64
661.773	5.62
662.102	5.66
662.431	5.61
662.76	5.63
663.089	5.61
663.418	5.62
663.747	5.56
664.076	5.56
664.404	5.55
664.733	5.5
665.062	5.56
665.39	5.5
665.719	5.54
666.048	5.53
666.376	5.44
666.705	5.36
667.033	5.32
667.362	5.35
667.69	5.37
668.018	5.36
668.347	5.29
668.675	5.22
669.003	5.22
669.331	5.28
669.659	5.23
669.987	5.22
670.315	5.25
670.643	5.27
670.971	5.27
671.299	5.29
671.627	5.32
671.955	5.33
672.283	5.37
672.61	5.36
672.938	5.4
673.266	5.4
673.593	5.4
673.921	5.39
674.249	5.37
674.576	5.41
674.904	5.38
675.231	5.4
675.558	5.48
675.886	5.47
676.213	5.46
676.54	5.46
676.867	5.49
677.195	5.5
677.522	5.5
