Data from BU26847_Reflection_00004.txt Node
Date: Mon Nov 18 16:40:48 EST 2019
User: vgr7
Spectrometer: USB2G7710
Scans to average: 3
Trigger mode: 4
Integration Time (sec): 2.000000E-2
Electric dark correction enabled: true
Boxcar width: 10
XAxis mode: Wavelengths
Number of Pixels in Spectrum: 2048
>>>>>Begin Spectral Data<<<<<
177.721	-18.91
178.105	-69.49
178.488	-3900
178.871	-210.81
179.254	146.51
179.636	106.85
180.019	-57.64
180.402	84.21
180.785	-680.49
181.168	-431.25
181.55	645.45
181.933	158.18
182.316	132
182.698	186.69
183.081	92.52
183.463	204.27
183.846	176.7
184.228	441.97
184.611	1700
184.993	32766.67
185.376	766.67
185.758	-35900
186.14	2844.19
186.522	2780.85
186.904	-1438.46
187.287	-1840.3
187.669	-223.33
188.051	-450.19
188.433	-304.43
188.815	-237.76
189.197	-284.13
189.579	-222.12
189.961	-232.76
190.342	-213.9
190.724	-148.6
191.106	-123.03
191.488	-168.49
191.869	-174.74
192.251	-213.66
192.633	-217.63
193.014	-200.47
193.396	-180.97
193.777	-204.96
194.159	-199.37
194.54	-197.97
194.922	-190.95
195.303	-271.47
195.684	-331.12
196.065	-276.33
196.447	-290.32
196.828	-354.38
197.209	-358.1
197.59	-438.64
197.971	-588.52
198.352	-285.9
198.733	-327.7
199.114	-401.24
199.495	-259.17
199.876	-230.21
200.257	-150.33
200.638	-145.26
201.018	-151.79
201.399	-113.8
201.78	-104.14
202.16	-158.29
202.541	-231
202.922	-1818.37
203.302	-2727.59
203.683	596.82
204.063	358.68
204.444	349.11
204.824	393.04
205.204	402.22
205.585	373.86
205.965	295.92
206.345	264.52
206.725	248.45
207.106	282.67
207.486	254.12
207.866	248.42
208.246	447.27
208.626	848.47
209.006	438.98
209.386	469.23
209.766	762.98
210.145	646.45
210.525	838.74
210.905	-626.11
211.285	-397.3
211.664	-192.43
212.044	-131.33
212.424	-173.73
212.803	-192.43
213.183	-135.76
213.562	-90.62
213.942	-74.32
214.321	-86.86
214.701	-82.95
215.08	-101.74
215.459	-42.38
215.838	-48.22
216.218	-83.91
216.597	-72.37
216.976	-50.64
217.355	-33.97
217.734	-50.56
218.113	-37.23
218.492	-57.96
218.871	-63.43
219.25	-52.62
219.629	-36.89
220.008	-73.17
220.387	-60.15
220.766	-31.85
221.144	-46.59
221.523	-54.54
221.902	-69.14
222.28	-70.32
222.659	-55.04
223.037	-42.76
223.416	-67.34
223.794	-61.51
224.173	-43.84
224.551	-30.6
224.929	-37.64
225.308	-36.3
225.686	-26.24
226.064	-20.88
226.442	-14.19
226.821	-11.36
227.199	-12.61
227.577	-12.24
227.955	-11.39
228.333	-12.7
228.711	-18.11
229.089	-12.71
229.467	-15.33
229.845	-13.71
230.222	-12.76
230.6	-14.35
230.978	-16.54
231.356	-12.33
231.733	-10.4
232.111	-10.34
232.488	-9.48
232.866	-6.75
233.243	-2.32
233.621	-4.52
233.998	-4.45
234.376	-7.63
234.753	-5.92
235.13	-4.98
235.508	-4.83
235.885	-2.62
236.262	-3.09
236.639	-0.31
237.016	-1.04
237.393	1.72
237.77	1.89
238.147	3.71
238.524	4.89
238.901	5.68
239.278	5.48
239.655	5.57
240.032	5.83
240.409	5.41
240.785	4.9
241.162	4.35
241.539	5
241.915	4.67
242.292	4.93
242.668	5.21
243.045	5.06
243.421	5.2
243.798	5.13
244.174	5.37
244.551	4.98
244.927	4.63
245.303	4.59
245.679	4.94
246.056	4.71
246.432	4.53
246.808	4.29
247.184	4.08
247.56	3.89
247.936	3.88
248.312	3.88
248.688	4.11
249.064	4.02
249.44	3.97
249.815	4.22
250.191	4.47
250.567	4.19
250.943	4.17
251.318	4.05
251.694	4.29
252.069	3.98
252.445	4.31
252.82	4.53
253.196	4.26
253.571	4.05
253.947	4.16
254.322	4.42
254.697	4.61
255.073	4.45
255.448	4.35
255.823	4.37
256.198	4.24
256.573	4.24
256.948	4.33
257.323	4.29
257.698	4.14
258.073	3.93
258.448	3.94
258.823	3.9
259.198	3.78
259.573	3.5
259.948	3.63
260.322	3.41
260.697	3.43
261.072	3.49
261.446	3.4
261.821	3.33
262.195	3.49
262.57	3.5
262.944	3.43
263.319	3.34
263.693	3.23
264.067	3.29
264.442	3.17
264.816	3
265.19	2.82
265.564	2.67
265.938	2.72
266.313	2.61
266.687	2.58
267.061	2.83
267.435	3.04
267.809	3.08
268.183	3.19
268.556	3.15
268.93	3.13
269.304	3.15
269.678	3.32
270.051	3.19
270.425	3.22
270.799	3.4
271.172	3.4
271.546	3.33
271.919	3.15
272.293	3.3
272.666	3.41
273.04	3.47
273.413	3.6
273.787	3.48
274.16	3.64
274.533	3.58
274.906	3.46
275.279	3.24
275.653	3.25
276.026	3.13
276.399	3.17
276.772	3.25
277.145	3.27
277.518	3.11
277.891	3.01
278.263	2.99
278.636	2.94
279.009	3.01
279.382	3.05
279.755	3.09
280.127	2.91
280.5	2.97
280.872	3.15
281.245	2.95
281.617	3.13
281.99	3.05
282.362	3.17
282.735	3.28
283.107	3.42
283.479	3.56
283.852	3.58
284.224	3.56
284.596	3.46
284.968	3.43
285.34	3.46
285.713	3.5
286.085	3.47
286.457	3.61
286.829	3.63
287.201	3.58
287.572	3.49
287.944	3.4
288.316	3.33
288.688	3.25
289.06	3.4
289.431	3.29
289.803	3.35
290.175	3.38
290.546	3.39
290.918	3.43
291.289	3.32
291.661	3.47
292.032	3.5
292.403	3.59
292.775	3.74
293.146	3.68
293.517	3.63
293.889	3.63
294.26	3.62
294.631	3.67
295.002	3.77
295.373	3.87
295.744	4.03
296.115	4.05
296.486	3.9
296.857	3.93
297.228	3.98
297.599	3.97
297.97	3.94
298.34	3.94
298.711	3.94
299.082	3.9
299.452	3.86
299.823	3.95
300.194	3.98
300.564	3.78
300.935	3.79
301.305	3.74
301.676	3.79
302.046	3.66
302.416	3.72
302.787	3.7
303.157	3.7
303.527	3.63
303.897	3.71
304.267	3.94
304.637	3.85
305.008	3.8
305.378	3.82
305.748	3.8
306.117	3.76
306.487	3.68
306.857	3.7
307.227	3.78
307.597	3.64
307.967	3.52
308.336	3.7
308.706	3.73
309.076	3.84
309.445	3.8
309.815	3.76
310.184	3.71
310.554	3.69
310.923	3.79
311.293	3.82
311.662	3.73
312.031	3.68
312.401	3.66
312.77	3.81
313.139	3.78
313.508	3.79
313.877	3.82
314.246	3.89
314.616	3.83
314.985	3.66
315.353	3.74
315.722	3.74
316.091	3.77
316.46	3.75
316.829	3.69
317.198	3.82
317.567	3.87
317.935	3.88
318.304	3.96
318.672	3.75
319.041	3.81
319.41	3.85
319.778	3.9
320.147	3.99
320.515	3.98
320.883	3.9
321.252	3.98
321.62	3.95
321.988	3.74
322.357	3.84
322.725	3.79
323.093	3.69
323.461	3.72
323.829	3.71
324.197	3.67
324.565	3.71
324.933	3.65
325.301	3.75
325.669	3.73
326.037	3.56
326.405	3.61
326.772	3.67
327.14	3.73
327.508	3.68
327.875	3.56
328.243	3.47
328.61	3.54
328.978	3.48
329.346	3.51
329.713	3.52
330.08	3.41
330.448	3.51
330.815	3.54
331.182	3.4
331.55	3.29
331.917	3.5
332.284	3.59
332.651	3.52
333.018	3.6
333.385	3.58
333.752	3.78
334.119	3.75
334.486	3.69
334.853	3.55
335.22	3.55
335.587	3.62
335.954	3.61
336.32	3.65
336.687	3.71
337.054	3.73
337.42	3.93
337.787	4
338.153	3.94
338.52	3.9
338.886	3.89
339.253	3.9
339.619	3.67
339.986	3.71
340.352	3.72
340.718	3.49
341.084	3.47
341.451	3.35
341.817	3.42
342.183	3.25
342.549	3.24
342.915	3.27
343.281	3.29
343.647	3.24
344.013	3.32
344.379	3.22
344.745	3.16
345.11	3.07
345.476	3.03
345.842	2.87
346.208	2.86
346.573	2.98
346.939	2.97
347.304	2.99
347.67	2.83
348.035	2.84
348.401	2.95
348.766	2.96
349.132	3.01
349.497	2.95
349.862	3.21
350.228	3.28
350.593	3.3
350.958	3.33
351.323	3.39
351.688	3.22
352.053	3.35
352.418	3.33
352.783	3.42
353.148	3.41
353.513	3.57
353.878	3.58
354.243	3.65
354.608	3.67
354.972	3.76
355.337	3.77
355.702	3.86
356.066	3.89
356.431	3.88
356.795	3.93
357.16	4.01
357.524	3.88
357.889	3.86
358.253	3.84
358.618	3.81
358.982	3.77
359.346	3.74
359.71	3.65
360.075	3.61
360.439	3.56
360.803	3.59
361.167	3.61
361.531	3.59
361.895	3.55
362.259	3.55
362.623	3.55
362.987	3.59
363.351	3.54
363.714	3.53
364.078	3.53
364.442	3.5
364.806	3.46
365.169	3.49
365.533	3.49
365.896	3.47
366.26	3.46
366.623	3.43
366.987	3.52
367.35	3.61
367.714	3.67
368.077	3.64
368.44	3.64
368.803	3.65
369.167	3.68
369.53	3.61
369.893	3.71
370.256	3.69
370.619	3.71
370.982	3.64
371.345	3.57
371.708	3.56
372.071	3.59
372.434	3.62
372.797	3.61
373.159	3.64
373.522	3.61
373.885	3.64
374.247	3.7
374.61	3.71
374.973	3.6
375.335	3.54
375.698	3.62
376.06	3.61
376.423	3.56
376.785	3.56
377.147	3.66
377.51	3.56
377.872	3.58
378.234	3.58
378.596	3.61
378.958	3.61
379.321	3.62
379.683	3.63
380.045	3.58
380.407	3.59
380.769	3.6
381.13	3.67
381.492	3.66
381.854	3.69
382.216	3.64
382.578	3.71
382.939	3.76
383.301	3.72
383.663	3.75
384.024	3.78
384.386	3.8
384.747	3.79
385.109	3.83
385.47	3.8
385.832	3.81
386.193	3.81
386.554	3.84
386.916	3.84
387.277	3.82
387.638	3.88
387.999	3.89
388.36	3.88
388.721	3.89
389.082	3.89
389.443	3.84
389.804	3.86
390.165	3.79
390.526	3.78
390.887	3.81
391.248	3.83
391.609	3.83
391.969	3.85
392.33	3.84
392.691	3.81
393.051	3.79
393.412	3.77
393.772	3.76
394.133	3.75
394.493	3.77
394.854	3.75
395.214	3.7
395.574	3.68
395.935	3.66
396.295	3.68
396.655	3.66
397.015	3.69
397.376	3.66
397.736	3.73
398.096	3.72
398.456	3.71
398.816	3.7
399.176	3.68
399.535	3.64
399.895	3.59
400.255	3.61
400.615	3.65
400.975	3.66
401.334	3.68
401.694	3.66
402.054	3.64
402.413	3.68
402.773	3.65
403.132	3.63
403.492	3.62
403.851	3.57
404.211	3.55
404.57	3.56
404.929	3.59
405.288	3.57
405.648	3.57
406.007	3.57
406.366	3.58
406.725	3.61
407.084	3.66
407.443	3.68
407.802	3.69
408.161	3.67
408.52	3.64
408.879	3.63
409.238	3.68
409.596	3.69
409.955	3.72
410.314	3.75
410.673	3.78
411.031	3.8
411.39	3.79
411.748	3.83
412.107	3.81
412.465	3.78
412.824	3.79
413.182	3.78
413.54	3.79
413.899	3.8
414.257	3.78
414.615	3.76
414.974	3.76
415.332	3.74
415.69	3.77
416.048	3.76
416.406	3.76
416.764	3.75
417.122	3.76
417.48	3.73
417.838	3.73
418.195	3.72
418.553	3.71
418.911	3.7
419.269	3.7
419.626	3.7
419.984	3.73
420.342	3.72
420.699	3.73
421.057	3.72
421.414	3.7
421.772	3.71
422.129	3.71
422.486	3.71
422.844	3.71
423.201	3.68
423.558	3.7
423.915	3.71
424.273	3.72
424.63	3.7
424.987	3.71
425.344	3.72
425.701	3.72
426.058	3.73
426.415	3.75
426.772	3.74
427.128	3.74
427.485	3.72
427.842	3.72
428.199	3.74
428.555	3.73
428.912	3.74
429.269	3.75
429.625	3.74
429.982	3.75
430.338	3.74
430.695	3.76
431.051	3.73
431.407	3.73
431.764	3.73
432.12	3.72
432.476	3.74
432.832	3.72
433.189	3.74
433.545	3.74
433.901	3.72
434.257	3.71
434.613	3.71
434.969	3.7
435.325	3.69
435.681	3.67
436.036	3.68
436.392	3.68
436.748	3.67
437.104	3.69
437.459	3.68
437.815	3.67
438.171	3.68
438.526	3.69
438.882	3.7
439.237	3.71
439.593	3.72
439.948	3.71
440.304	3.72
440.659	3.72
441.014	3.72
441.369	3.71
441.725	3.73
442.08	3.72
442.435	3.74
442.79	3.77
443.145	3.77
443.5	3.77
443.855	3.77
444.21	3.76
444.565	3.76
444.92	3.77
445.275	3.78
445.629	3.76
445.984	3.77
446.339	3.77
446.693	3.74
447.048	3.72
447.403	3.7
447.757	3.68
448.112	3.68
448.466	3.66
448.82	3.67
449.175	3.67
449.529	3.68
449.883	3.67
450.238	3.66
450.592	3.67
450.946	3.66
451.3	3.65
451.654	3.65
452.008	3.64
452.362	3.62
452.716	3.63
453.07	3.65
453.424	3.65
453.778	3.64
454.132	3.67
454.486	3.66
454.839	3.68
455.193	3.7
455.547	3.68
455.9	3.7
456.254	3.72
456.607	3.74
456.961	3.74
457.314	3.73
457.668	3.74
458.021	3.72
458.375	3.75
458.728	3.76
459.081	3.76
459.434	3.76
459.787	3.77
460.141	3.77
460.494	3.78
460.847	3.77
461.2	3.77
461.553	3.78
461.906	3.8
462.259	3.8
462.611	3.8
462.964	3.81
463.317	3.8
463.67	3.79
464.022	3.79
464.375	3.78
464.728	3.78
465.08	3.79
465.433	3.79
465.785	3.77
466.138	3.78
466.49	3.79
466.843	3.79
467.195	3.81
467.547	3.8
467.899	3.8
468.252	3.81
468.604	3.81
468.956	3.79
469.308	3.79
469.66	3.76
470.012	3.75
470.364	3.76
470.716	3.77
471.068	3.79
471.42	3.8
471.772	3.81
472.123	3.84
472.475	3.83
472.827	3.84
473.178	3.86
473.53	3.85
473.882	3.83
474.233	3.83
474.585	3.81
474.936	3.81
475.288	3.83
475.639	3.83
475.99	3.84
476.342	3.85
476.693	3.87
477.044	3.92
477.395	3.92
477.746	3.92
478.097	3.93
478.448	3.93
478.8	3.91
479.15	3.9
479.501	3.9
479.852	3.9
480.203	3.9
480.554	3.91
480.905	3.92
481.255	3.92
481.606	3.94
481.957	3.95
482.307	3.95
482.658	3.95
483.009	3.94
483.359	3.94
483.709	3.94
484.06	3.94
484.41	3.93
484.761	3.93
485.111	3.93
485.461	3.93
485.811	3.92
486.162	3.93
486.512	3.95
486.862	3.95
487.212	3.96
487.562	3.96
487.912	3.94
488.262	3.94
488.612	3.94
488.961	3.93
489.311	3.93
489.661	3.92
490.011	3.92
490.36	3.91
490.71	3.92
491.06	3.91
491.409	3.91
491.759	3.91
492.108	3.91
492.458	3.92
492.807	3.91
493.157	3.92
493.506	3.91
493.855	3.9
494.204	3.89
494.554	3.87
494.903	3.86
495.252	3.89
495.601	3.9
495.95	3.89
496.299	3.88
496.648	3.89
496.997	3.9
497.346	3.91
497.695	3.91
498.043	3.9
498.392	3.91
498.741	3.9
499.09	3.9
499.438	3.9
499.787	3.9
500.135	3.94
500.484	3.95
500.832	3.94
501.181	3.94
501.529	3.96
501.878	3.96
502.226	3.97
502.574	3.95
502.923	3.95
503.271	3.96
503.619	3.99
503.967	3.98
504.315	3.96
504.663	3.96
505.011	3.98
505.359	4
505.707	4.01
506.055	4.04
506.403	4.05
506.751	4.07
507.098	4.08
507.446	4.08
507.794	4.05
508.141	4.06
508.489	4.08
508.837	4.09
509.184	4.1
509.531	4.11
509.879	4.13
510.226	4.15
510.574	4.15
510.921	4.14
511.268	4.14
511.616	4.17
511.963	4.19
512.31	4.21
512.657	4.23
513.004	4.23
513.351	4.24
513.698	4.23
514.045	4.24
514.392	4.25
514.739	4.23
515.086	4.25
515.432	4.27
515.779	4.26
516.126	4.25
516.473	4.27
516.819	4.27
517.166	4.26
517.512	4.26
517.859	4.27
518.205	4.28
518.552	4.31
518.898	4.31
519.245	4.3
519.591	4.29
519.937	4.27
520.283	4.27
520.629	4.27
520.976	4.29
521.322	4.3
521.668	4.31
522.014	4.31
522.36	4.32
522.706	4.3
523.052	4.32
523.398	4.34
523.743	4.35
524.089	4.35
524.435	4.36
524.781	4.36
525.126	4.38
525.472	4.38
525.817	4.38
526.163	4.37
526.509	4.37
526.854	4.38
527.199	4.4
527.545	4.4
527.89	4.4
528.235	4.4
528.581	4.41
528.926	4.4
529.271	4.42
529.616	4.42
529.961	4.44
530.306	4.44
530.651	4.43
530.996	4.43
531.341	4.43
531.686	4.42
532.031	4.43
532.376	4.43
532.721	4.43
533.065	4.43
533.41	4.45
533.755	4.46
534.099	4.47
534.444	4.46
534.788	4.47
535.133	4.47
535.477	4.49
535.822	4.48
536.166	4.48
536.51	4.46
536.855	4.45
537.199	4.45
537.543	4.45
537.887	4.47
538.231	4.47
538.576	4.49
538.92	4.51
539.264	4.5
539.608	4.49
539.951	4.49
540.295	4.48
540.639	4.48
540.983	4.48
541.327	4.47
541.671	4.47
542.014	4.48
542.358	4.49
542.701	4.48
543.045	4.48
543.389	4.5
543.732	4.49
544.075	4.5
544.419	4.5
544.762	4.5
545.105	4.49
545.449	4.5
545.792	4.48
546.135	4.48
546.478	4.49
546.821	4.51
547.165	4.52
547.508	4.53
547.851	4.54
548.194	4.54
548.536	4.54
548.879	4.54
549.222	4.52
549.565	4.52
549.908	4.53
550.25	4.54
550.593	4.54
550.936	4.54
551.278	4.55
551.621	4.54
551.963	4.56
552.306	4.56
552.648	4.58
552.991	4.62
553.333	4.62
553.675	4.6
554.017	4.59
554.36	4.61
554.702	4.65
555.044	4.63
555.386	4.65
555.728	4.66
556.07	4.7
556.412	4.68
556.754	4.67
557.096	4.66
557.438	4.62
557.78	4.63
558.121	4.63
558.463	4.62
558.805	4.63
559.147	4.62
559.488	4.59
559.83	4.56
560.171	4.55
560.513	4.58
560.854	4.58
561.196	4.58
561.537	4.55
561.878	4.54
562.22	4.55
562.561	4.54
562.902	4.52
563.243	4.48
563.584	4.5
563.925	4.51
564.266	4.5
564.607	4.54
564.948	4.54
565.289	4.56
565.63	4.56
565.971	4.53
566.312	4.54
566.653	4.56
566.993	4.57
567.334	4.55
567.675	4.55
568.015	4.59
568.356	4.6
568.696	4.62
569.037	4.61
569.377	4.62
569.718	4.62
570.058	4.65
570.398	4.65
570.739	4.67
571.079	4.67
571.419	4.69
571.759	4.69
572.099	4.67
572.439	4.65
572.779	4.66
573.119	4.69
573.459	4.72
573.799	4.72
574.139	4.71
574.479	4.74
574.819	4.75
575.158	4.72
575.498	4.71
575.838	4.68
576.177	4.67
576.517	4.65
576.856	4.67
577.196	4.68
577.535	4.68
577.875	4.69
578.214	4.67
578.553	4.68
578.893	4.67
579.232	4.7
579.571	4.72
579.91	4.68
580.25	4.71
580.589	4.7
580.928	4.69
581.267	4.72
581.606	4.7
581.945	4.65
582.283	4.67
582.622	4.69
582.961	4.72
583.3	4.73
583.639	4.74
583.977	4.72
584.316	4.69
584.654	4.69
584.993	4.68
585.332	4.75
585.67	4.73
586.008	4.7
586.347	4.69
586.685	4.7
587.024	4.73
587.362	4.73
587.7	4.73
588.038	4.7
588.376	4.71
588.715	4.72
589.053	4.75
589.391	4.77
589.729	4.77
590.067	4.76
590.404	4.75
590.742	4.76
591.08	4.74
591.418	4.75
591.756	4.75
592.093	4.74
592.431	4.7
592.769	4.74
593.106	4.78
593.444	4.78
593.781	4.75
594.119	4.76
594.456	4.75
594.793	4.74
595.131	4.74
595.468	4.72
595.805	4.73
596.143	4.74
596.48	4.68
596.817	4.69
597.154	4.72
597.491	4.73
597.828	4.68
598.165	4.67
598.502	4.66
598.839	4.69
599.176	4.69
599.512	4.68
599.849	4.7
600.186	4.69
600.523	4.73
600.859	4.75
601.196	4.76
601.532	4.77
601.869	4.76
602.205	4.78
602.542	4.83
602.878	4.83
603.215	4.82
603.551	4.88
603.887	4.88
604.223	4.85
604.56	4.84
604.896	4.88
605.232	4.96
605.568	4.96
605.904	4.95
606.24	4.97
606.576	5.01
606.912	4.96
607.248	4.98
607.583	4.98
607.919	4.97
608.255	4.97
608.591	4.99
608.926	5.01
609.262	5.03
609.597	4.98
609.933	4.96
610.268	4.91
610.604	4.91
610.939	4.9
611.275	4.9
611.61	4.93
611.945	4.92
612.281	4.89
612.616	4.91
612.951	4.96
613.286	4.96
613.621	4.93
613.956	4.98
614.291	4.92
614.626	4.92
614.961	4.94
615.296	4.95
615.631	4.93
615.966	4.92
616.3	4.87
616.635	4.89
616.97	4.93
617.304	4.98
617.639	4.99
617.973	5
618.308	5.04
618.642	5.06
618.977	5.06
619.311	5.04
619.646	5.04
619.98	5
620.314	5.02
620.648	5.02
620.983	5.02
621.317	5.06
621.651	5.06
621.985	5.1
622.319	5.11
622.653	5.1
622.987	5.13
623.321	5.17
623.655	5.23
623.988	5.23
624.322	5.21
624.656	5.22
624.99	5.2
625.323	5.22
625.657	5.25
625.99	5.3
626.324	5.31
626.657	5.33
626.991	5.37
627.324	5.34
627.658	5.36
627.991	5.39
628.324	5.4
628.657	5.39
628.991	5.36
629.324	5.36
629.657	5.4
629.99	5.43
630.323	5.41
630.656	5.39
630.989	5.39
631.322	5.44
631.655	5.41
631.987	5.44
632.32	5.4
632.653	5.34
632.986	5.31
633.318	5.33
633.651	5.29
633.984	5.27
634.316	5.26
634.649	5.24
634.981	5.2
635.313	5.2
635.646	5.18
635.978	5.21
636.31	5.17
636.643	5.13
636.975	5.11
637.307	5.13
637.639	5.09
637.971	5.12
638.303	5.08
638.635	5.06
638.967	5.07
639.299	5.13
639.631	5.11
639.963	5.05
640.295	5.08
640.626	5.08
640.958	5.1
641.29	5.12
641.621	5.18
641.953	5.2
642.285	5.16
642.616	5.22
642.948	5.15
643.279	5.22
643.61	5.18
643.942	5.12
644.273	5.14
644.604	5.19
644.936	5.14
645.267	5.19
645.598	5.22
645.929	5.19
646.26	5.21
646.591	5.27
646.922	5.23
647.253	5.21
647.584	5.14
647.915	5.05
648.245	5.06
648.576	5.02
648.907	5.04
649.238	5.06
649.568	4.99
649.899	4.97
650.229	5.01
650.56	5.12
650.89	5.17
651.221	5.17
651.551	5.16
651.882	5.15
652.212	5.14
652.542	5.17
652.872	5.15
653.203	5.11
653.533	5.08
653.863	5.2
654.193	5.21
654.523	5.33
654.853	5.41
655.183	5.45
655.513	5.48
655.843	5.45
656.172	5.55
656.502	5.63
656.832	5.65
657.162	5.62
657.491	5.49
657.821	5.5
658.15	5.52
658.48	5.54
658.809	5.58
659.139	5.58
659.468	5.59
659.798	5.64
660.127	5.63
660.456	5.69
660.785	5.61
661.115	5.61
661.444	5.55
661.773	5.52
662.102	5.42
662.431	5.44
662.76	5.44
663.089	5.39
663.418	5.39
663.747	5.38
664.076	5.34
664.404	5.44
664.733	5.46
665.062	5.44
665.39	5.47
665.719	5.44
666.048	5.5
666.376	5.47
666.705	5.54
667.033	5.51
667.362	5.47
667.69	5.53
668.018	5.52
668.347	5.5
668.675	5.52
669.003	5.63
669.331	5.66
669.659	5.72
669.987	5.67
670.315	5.69
670.643	5.8
670.971	5.89
671.299	5.86
671.627	5.84
671.955	5.76
672.283	5.69
672.61	5.7
672.938	5.59
673.266	5.65
673.593	5.65
673.921	5.69
674.249	5.7
674.576	5.68
674.904	5.66
675.231	5.72
