Data from BU26940_Reflection_00004.txt Node
Date: Tue Nov 19 11:00:13 EST 2019
User: vgr7
Spectrometer: USB2G7710
Scans to average: 3
Trigger mode: 4
Integration Time (sec): 2.000000E-2
Electric dark correction enabled: true
Boxcar width: 10
XAxis mode: Wavelengths
Number of Pixels in Spectrum: 2048
>>>>>Begin Spectral Data<<<<<
177.721	122.97
178.105	766.67
178.488	70.88
178.871	66.67
179.254	370.83
179.636	272.1
180.019	382.74
180.402	170
180.785	64.04
181.168	54.8
181.55	30.56
181.933	33.52
182.316	21.96
182.698	31.75
183.081	9.04
183.463	14.62
183.846	-10.05
184.228	-55.3
184.611	-65.99
184.993	-76.11
185.376	-39.52
185.758	-94.44
186.14	-30.95
186.522	-46.02
186.904	-78.89
187.287	-124.36
187.669	-214.1
188.051	-172.88
188.433	-204.49
188.815	719.79
189.197	670.51
189.579	62.01
189.961	43.45
190.342	-22.75
190.724	8.14
191.106	16.67
191.488	31.46
191.869	15.64
192.251	13.63
192.633	15.06
193.014	3.81
193.396	-1.36
193.777	2.78
194.159	5.7
194.54	33.76
194.922	30.92
195.303	33.65
195.684	24.6
196.065	21.14
196.447	7.45
196.828	-9.14
197.209	21.14
197.59	27.52
197.971	17.98
198.352	32
198.733	24.5
199.114	-1.44
199.495	-14.09
199.876	-32.33
200.257	-17.35
200.638	-33.24
201.018	-31.49
201.399	2.95
201.78	-26.59
202.16	-48.56
202.541	-75.03
202.922	-61.35
203.302	-69.98
203.683	-70.89
204.063	-64.69
204.444	-66.91
204.824	-60.86
205.204	-59.13
205.585	-56.82
205.965	-71.11
206.345	-71.1
206.725	-61.72
207.106	-52.27
207.486	-44.51
207.866	-37.16
208.246	-35.2
208.626	-45.57
209.006	-38.13
209.386	-38.22
209.766	-30.62
210.145	-10.61
210.525	-8.88
210.905	-9.46
211.285	12.48
211.664	11.71
212.044	6.47
212.424	11.58
212.803	-1.89
213.183	3.29
213.562	13.76
213.942	14.76
214.321	18.98
214.701	24.85
215.08	32.02
215.459	26.29
215.838	32.32
216.218	19.3
216.597	33.38
216.976	28.16
217.355	21.47
217.734	9.22
218.113	10.01
218.492	15.79
218.871	20.5
219.25	19.01
219.629	18.34
220.008	24.92
220.387	22.28
220.766	28.99
221.144	19.48
221.523	8.38
221.902	19.99
222.28	17.71
222.659	26.5
223.037	17.08
223.416	20.19
223.794	19.07
224.173	10.5
224.551	9.83
224.929	10.07
225.308	8.27
225.686	12.39
226.064	6.69
226.442	4.17
226.821	-0.08
227.199	-4.68
227.577	-3.47
227.955	-2.66
228.333	-5.15
228.711	-5.34
229.089	-1.87
229.467	0.01
229.845	-0.45
230.222	1.07
230.6	-2.58
230.978	-0.66
231.356	-1.43
231.733	-1.66
232.111	0.63
232.488	-1.03
232.866	0.87
233.243	1.28
233.621	0.25
233.998	-0.03
234.376	-0.67
234.753	1.62
235.13	2.88
235.508	1.24
235.885	1.42
236.262	2.31
236.639	3.38
237.016	1.96
237.393	1.76
237.77	1.81
238.147	1.5
238.524	2.88
238.901	2.92
239.278	2.89
239.655	2.75
240.032	3.5
240.409	4.04
240.785	4.05
241.162	4.68
241.539	4.57
241.915	4.92
242.292	5.57
242.668	5.25
243.045	5.51
243.421	6.21
243.798	6.3
244.174	6.28
244.551	5.68
244.927	5.76
245.303	5.51
245.679	5.42
246.056	5.6
246.432	5.44
246.808	5.68
247.184	5.78
247.56	5.84
247.936	5.62
248.312	5.66
248.688	5.64
249.064	5.34
249.44	5.29
249.815	5.13
250.191	4.96
250.567	4.83
250.943	4.53
251.318	4.23
251.694	4.05
252.069	4.01
252.445	4.07
252.82	3.98
253.196	4.25
253.571	4.18
253.947	3.95
254.322	3.69
254.697	3.42
255.073	3.52
255.448	3.51
255.823	3.52
256.198	3.42
256.573	3.57
256.948	3.68
257.323	3.72
257.698	3.91
258.073	3.81
258.448	3.98
258.823	3.9
259.198	3.98
259.573	3.93
259.948	3.93
260.322	4.07
260.697	4.26
261.072	4.2
261.446	4.29
261.821	4.23
262.195	4.35
262.57	4.48
262.944	4.5
263.319	4.37
263.693	4.33
264.067	4.37
264.442	4.34
264.816	4.38
265.19	4.53
265.564	4.53
265.938	4.59
266.313	4.54
266.687	4.62
267.061	4.42
267.435	4.65
267.809	4.49
268.183	4.52
268.556	4.3
268.93	4.4
269.304	4.28
269.678	4.26
270.051	4.24
270.425	4.36
270.799	4.21
271.172	4.29
271.546	4.35
271.919	4.32
272.293	4.25
272.666	4.18
273.04	3.96
273.413	3.97
273.787	4.09
274.16	3.97
274.533	4.16
274.906	4.26
275.279	4.15
275.653	4.19
276.026	4.08
276.399	4.04
276.772	4.01
277.145	4.08
277.518	4.04
277.891	4.13
278.263	3.99
278.636	4
279.009	4.1
279.382	4.1
279.755	4.16
280.127	4.19
280.5	4.13
280.872	4.42
281.245	4.3
281.617	4.28
281.99	4.4
282.362	4.23
282.735	4.27
283.107	4.21
283.479	4.27
283.852	4.32
284.224	4.34
284.596	4.08
284.968	4.06
285.34	4.09
285.713	4.1
286.085	4.08
286.457	4.13
286.829	4.07
287.201	4.11
287.572	4.03
287.944	4.01
288.316	4.05
288.688	3.99
289.06	4.11
289.431	4.18
289.803	4.09
290.175	4.08
290.546	4.14
290.918	4.15
291.289	4.13
291.661	4.09
292.032	3.99
292.403	4.13
292.775	4.17
293.146	4.2
293.517	4.11
293.889	4.03
294.26	4.03
294.631	4.11
295.002	4.21
295.373	4.25
295.744	4.27
296.115	4.4
296.486	4.38
296.857	4.31
297.228	4.24
297.599	4.33
297.97	4.38
298.34	4.4
298.711	4.42
299.082	4.43
299.452	4.44
299.823	4.56
300.194	4.65
300.564	4.57
300.935	4.54
301.305	4.54
301.676	4.47
302.046	4.35
302.416	4.23
302.787	4.17
303.157	4.18
303.527	4.26
303.897	4.08
304.267	4.02
304.637	4.03
305.008	3.95
305.378	3.93
305.748	3.84
306.117	3.69
306.487	3.79
306.857	3.86
307.227	3.82
307.597	3.8
307.967	3.72
308.336	3.79
308.706	3.94
309.076	4.1
309.445	4.32
309.815	4.43
310.184	4.53
310.554	4.5
310.923	4.38
311.293	4.32
311.662	4.33
312.031	4.32
312.401	4.19
312.77	4.22
313.139	4.31
313.508	4.38
313.877	4.54
314.246	4.36
314.616	4.38
314.985	4.38
315.353	4.49
315.722	4.57
316.091	4.59
316.46	4.55
316.829	4.49
317.198	4.32
317.567	4.34
317.935	4.19
318.304	4.09
318.672	4.32
319.041	4.41
319.41	4.56
319.778	4.71
320.147	4.89
320.515	4.99
320.883	4.72
321.252	4.69
321.62	4.6
321.988	4.8
322.357	4.72
322.725	4.76
323.093	4.66
323.461	4.64
323.829	4.64
324.197	4.6
324.565	4.55
324.933	4.55
325.301	4.51
325.669	4.55
326.037	4.55
326.405	4.6
326.772	4.48
327.14	4.3
327.508	4.26
327.875	4.14
328.243	4.04
328.61	4.12
328.978	4.07
329.346	3.85
329.713	3.78
330.08	3.87
330.448	3.86
330.815	3.85
331.182	3.88
331.55	3.8
331.917	3.8
332.284	3.75
332.651	3.86
333.018	3.83
333.385	3.87
333.752	3.9
334.119	3.78
334.486	3.85
334.853	3.9
335.22	3.9
335.587	3.99
335.954	4.05
336.32	4.11
336.687	4.23
337.054	4.44
337.42	4.47
337.787	4.4
338.153	4.44
338.52	4.47
338.886	4.57
339.253	4.55
339.619	4.61
339.986	4.67
340.352	4.58
340.718	4.73
341.084	4.69
341.451	4.81
341.817	4.8
342.183	4.67
342.549	4.72
342.915	4.74
343.281	4.75
343.647	4.75
344.013	4.73
344.379	4.69
344.745	4.74
345.11	4.71
345.476	4.68
345.842	4.7
346.208	4.71
346.573	4.58
346.939	4.65
347.304	4.58
347.67	4.52
348.035	4.6
348.401	4.44
348.766	4.48
349.132	4.39
349.497	4.47
349.862	4.6
350.228	4.53
350.593	4.48
350.958	4.48
351.323	4.41
351.688	4.35
352.053	4.35
352.418	4.34
352.783	4.28
353.148	4.28
353.513	4.23
353.878	4.19
354.243	4.21
354.608	4.24
354.972	4.24
355.337	4.33
355.702	4.26
356.066	4.38
356.431	4.39
356.795	4.44
357.16	4.46
357.524	4.38
357.889	4.38
358.253	4.39
358.618	4.34
358.982	4.44
359.346	4.45
359.71	4.47
360.075	4.48
360.439	4.5
360.803	4.58
361.167	4.6
361.531	4.66
361.895	4.66
362.259	4.65
362.623	4.71
362.987	4.68
363.351	4.78
363.714	4.74
364.078	4.7
364.442	4.67
364.806	4.62
365.169	4.64
365.533	4.65
365.896	4.68
366.26	4.75
366.623	4.72
366.987	4.7
367.35	4.69
367.714	4.67
368.077	4.73
368.44	4.74
368.803	4.69
369.167	4.6
369.53	4.63
369.893	4.6
370.256	4.53
370.619	4.47
370.982	4.4
371.345	4.42
371.708	4.43
372.071	4.4
372.434	4.39
372.797	4.4
373.159	4.43
373.522	4.38
373.885	4.37
374.247	4.31
374.61	4.32
374.973	4.33
375.335	4.34
375.698	4.22
376.06	4.15
376.423	4.15
376.785	4.21
377.147	4.15
377.51	4.15
377.872	4.16
378.234	4.25
378.596	4.23
378.958	4.23
379.321	4.21
379.683	4.26
380.045	4.28
380.407	4.28
380.769	4.28
381.13	4.27
381.492	4.23
381.854	4.33
382.216	4.39
382.578	4.37
382.939	4.33
383.301	4.38
383.663	4.38
384.024	4.4
384.386	4.38
384.747	4.4
385.109	4.4
385.47	4.41
385.832	4.31
386.193	4.31
386.554	4.25
386.916	4.25
387.277	4.23
387.638	4.23
387.999	4.22
388.36	4.19
388.721	4.22
389.082	4.23
389.443	4.16
389.804	4.17
390.165	4.13
390.526	4.15
390.887	4.15
391.248	4.14
391.609	4.15
391.969	4.15
392.33	4.15
392.691	4.16
393.051	4.15
393.412	4.19
393.772	4.21
394.133	4.19
394.493	4.22
394.854	4.21
395.214	4.2
395.574	4.18
395.935	4.2
396.295	4.19
396.655	4.2
397.015	4.21
397.376	4.2
397.736	4.2
398.096	4.21
398.456	4.17
398.816	4.17
399.176	4.13
399.535	4.11
399.895	4.09
400.255	4.09
400.615	4.09
400.975	4.11
401.334	4.07
401.694	4.1
402.054	4.08
402.413	4.09
402.773	4.07
403.132	4.1
403.492	4.1
403.851	4.08
404.211	4.07
404.57	4.06
404.929	4.05
405.288	4.06
405.648	4.06
406.007	4.07
406.366	4.08
406.725	4.11
407.084	4.12
407.443	4.13
407.802	4.1
408.161	4.09
408.52	4.09
408.879	4.09
409.238	4.1
409.596	4.1
409.955	4.1
410.314	4.11
410.673	4.1
411.031	4.07
411.39	4.09
411.748	4.09
412.107	4.09
412.465	4.08
412.824	4.07
413.182	4.04
413.54	4.04
413.899	4.02
414.257	4.01
414.615	3.99
414.974	3.98
415.332	4
415.69	4
416.048	4
416.406	3.98
416.764	3.97
417.122	3.98
417.48	3.96
417.838	3.96
418.195	3.95
418.553	3.93
418.911	3.91
419.269	3.9
419.626	3.88
419.984	3.86
420.342	3.88
420.699	3.88
421.057	3.88
421.414	3.89
421.772	3.9
422.129	3.9
422.486	3.89
422.844	3.88
423.201	3.88
423.558	3.86
423.915	3.87
424.273	3.87
424.63	3.88
424.987	3.88
425.344	3.88
425.701	3.88
426.058	3.88
426.415	3.89
426.772	3.88
427.128	3.9
427.485	3.94
427.842	3.94
428.199	3.94
428.555	3.94
428.912	3.92
429.269	3.91
429.625	3.92
429.982	3.95
430.338	3.96
430.695	3.94
431.051	3.95
431.407	3.97
431.764	3.97
432.12	3.93
432.476	3.95
432.832	3.94
433.189	3.94
433.545	3.94
433.901	3.94
434.257	3.95
434.613	3.94
434.969	3.91
435.325	3.9
435.681	3.91
436.036	3.91
436.392	3.92
436.748	3.92
437.104	3.91
437.459	3.9
437.815	3.88
438.171	3.89
438.526	3.9
438.882	3.89
439.237	3.89
439.593	3.91
439.948	3.9
440.304	3.92
440.659	3.91
441.014	3.91
441.369	3.92
441.725	3.91
442.08	3.91
442.435	3.93
442.79	3.94
443.145	3.93
443.5	3.93
443.855	3.92
444.21	3.92
444.565	3.94
444.92	3.94
445.275	3.93
445.629	3.94
445.984	3.93
446.339	3.94
446.693	3.93
447.048	3.92
447.403	3.9
447.757	3.89
448.112	3.9
448.466	3.91
448.82	3.88
449.175	3.89
449.529	3.89
449.883	3.89
450.238	3.87
450.592	3.87
450.946	3.86
451.3	3.86
451.654	3.85
452.008	3.83
452.362	3.83
452.716	3.86
453.07	3.85
453.424	3.84
453.778	3.82
454.132	3.82
454.486	3.84
454.839	3.86
455.193	3.87
455.547	3.87
455.9	3.87
456.254	3.89
456.607	3.88
456.961	3.89
457.314	3.87
457.668	3.88
458.021	3.87
458.375	3.86
458.728	3.88
459.081	3.9
459.434	3.89
459.787	3.9
460.141	3.89
460.494	3.89
460.847	3.9
461.2	3.9
461.553	3.89
461.906	3.88
462.259	3.88
462.611	3.89
462.964	3.9
463.317	3.89
463.67	3.88
464.022	3.91
464.375	3.89
464.728	3.89
465.08	3.9
465.433	3.92
465.785	3.95
466.138	3.97
466.49	3.97
466.843	3.98
467.195	3.98
467.547	3.97
467.899	3.98
468.252	3.99
468.604	4
468.956	4.02
469.308	4.03
469.66	4.03
470.012	4.01
470.364	4
470.716	4.02
471.068	4.03
471.42	4.03
471.772	4.06
472.123	4.07
472.475	4.07
472.827	4.06
473.178	4.04
473.53	4.02
473.882	4.02
474.233	4.02
474.585	4.06
474.936	4.06
475.288	4.06
475.639	4.06
475.99	4.07
476.342	4.07
476.693	4.07
477.044	4.08
477.395	4.09
477.746	4.08
478.097	4.07
478.448	4.06
478.8	4.06
479.15	4.06
479.501	4.06
479.852	4.06
480.203	4.07
480.554	4.08
480.905	4.07
481.255	4.07
481.606	4.08
481.957	4.08
482.307	4.08
482.658	4.09
483.009	4.09
483.359	4.09
483.709	4.09
484.06	4.1
484.41	4.09
484.761	4.09
485.111	4.11
485.461	4.11
485.811	4.11
486.162	4.12
486.512	4.11
486.862	4.12
487.212	4.12
487.562	4.12
487.912	4.11
488.262	4.12
488.612	4.12
488.961	4.11
489.311	4.1
489.661	4.1
490.011	4.1
490.36	4.1
490.71	4.1
491.06	4.09
491.409	4.09
491.759	4.09
492.108	4.08
492.458	4.07
492.807	4.06
493.157	4.08
493.506	4.06
493.855	4.07
494.204	4.07
494.554	4.06
494.903	4.05
495.252	4.06
495.601	4.07
495.95	4.07
496.299	4.09
496.648	4.11
496.997	4.13
497.346	4.13
497.695	4.13
498.043	4.14
498.392	4.16
498.741	4.17
499.09	4.21
499.438	4.24
499.787	4.23
500.135	4.24
500.484	4.25
500.832	4.28
501.181	4.29
501.529	4.32
501.878	4.34
502.226	4.36
502.574	4.38
502.923	4.4
503.271	4.39
503.619	4.42
503.967	4.42
504.315	4.42
504.663	4.45
505.011	4.45
505.359	4.45
505.707	4.44
506.055	4.46
506.403	4.46
506.751	4.47
507.098	4.53
507.446	4.53
507.794	4.55
508.141	4.57
508.489	4.58
508.837	4.61
509.184	4.62
509.531	4.64
509.879	4.66
510.226	4.66
510.574	4.69
510.921	4.68
511.268	4.69
511.616	4.73
511.963	4.74
512.31	4.76
512.657	4.79
513.004	4.82
513.351	4.83
513.698	4.83
514.045	4.83
514.392	4.83
514.739	4.85
515.086	4.86
515.432	4.87
515.779	4.89
516.126	4.89
516.473	4.9
516.819	4.9
517.166	4.91
517.512	4.91
517.859	4.92
518.205	4.93
518.552	4.95
518.898	4.96
519.245	4.96
519.591	4.96
519.937	4.97
520.283	4.98
520.629	5
520.976	5
521.322	5.01
521.668	5
522.014	5.03
522.36	5.02
522.706	5.03
523.052	5.02
523.398	5.01
523.743	5.03
524.089	5.06
524.435	5.06
524.781	5.09
525.126	5.1
525.472	5.11
525.817	5.13
526.163	5.13
526.509	5.14
526.854	5.14
527.199	5.15
527.545	5.17
527.89	5.18
528.235	5.19
528.581	5.21
528.926	5.21
529.271	5.19
529.616	5.2
529.961	5.21
530.306	5.23
530.651	5.23
530.996	5.24
531.341	5.24
531.686	5.25
532.031	5.24
532.376	5.24
532.721	5.24
533.065	5.24
533.41	5.24
533.755	5.24
534.099	5.24
534.444	5.24
534.788	5.22
535.133	5.21
535.477	5.21
535.822	5.19
536.166	5.19
536.51	5.21
536.855	5.21
537.199	5.21
537.543	5.2
537.887	5.21
538.231	5.21
538.576	5.21
538.92	5.21
539.264	5.22
539.608	5.24
539.951	5.24
540.295	5.24
540.639	5.25
540.983	5.27
541.327	5.3
541.671	5.29
542.014	5.3
542.358	5.31
542.701	5.31
543.045	5.32
543.389	5.33
543.732	5.33
544.075	5.34
544.419	5.35
544.762	5.35
545.105	5.36
545.449	5.34
545.792	5.34
546.135	5.34
546.478	5.34
546.821	5.34
547.165	5.33
547.508	5.34
547.851	5.33
548.194	5.33
548.536	5.3
548.879	5.32
549.222	5.31
549.565	5.31
549.908	5.31
550.25	5.29
550.593	5.28
550.936	5.28
551.278	5.28
551.621	5.29
551.963	5.33
552.306	5.35
552.648	5.41
552.991	5.4
553.333	5.4
553.675	5.41
554.017	5.41
554.36	5.4
554.702	5.39
555.044	5.42
555.386	5.41
555.728	5.43
556.07	5.39
556.412	5.42
556.754	5.41
557.096	5.45
557.438	5.45
557.78	5.48
558.121	5.5
558.463	5.48
558.805	5.45
559.147	5.41
559.488	5.37
559.83	5.32
560.171	5.32
560.513	5.31
560.854	5.3
561.196	5.31
561.537	5.33
561.878	5.32
562.22	5.32
562.561	5.34
562.902	5.33
563.243	5.37
563.584	5.37
563.925	5.39
564.266	5.37
564.607	5.39
564.948	5.38
565.289	5.39
565.63	5.4
565.971	5.42
566.312	5.44
566.653	5.43
566.993	5.45
567.334	5.47
567.675	5.49
568.015	5.49
568.356	5.51
568.696	5.5
569.037	5.51
569.377	5.49
569.718	5.48
570.058	5.45
570.398	5.45
570.739	5.45
571.079	5.43
571.419	5.44
571.759	5.44
572.099	5.43
572.439	5.39
572.779	5.39
573.119	5.37
573.459	5.39
573.799	5.4
574.139	5.41
574.479	5.39
574.819	5.36
575.158	5.37
575.498	5.35
575.838	5.33
576.177	5.34
576.517	5.34
576.856	5.33
577.196	5.38
577.535	5.38
577.875	5.38
578.214	5.41
578.553	5.41
578.893	5.41
579.232	5.42
579.571	5.46
579.91	5.46
580.25	5.48
580.589	5.46
580.928	5.43
581.267	5.47
581.606	5.5
581.945	5.53
582.283	5.55
582.622	5.57
582.961	5.59
583.3	5.55
583.639	5.57
583.977	5.6
584.316	5.55
584.654	5.54
584.993	5.51
585.332	5.48
585.67	5.47
586.008	5.5
586.347	5.54
586.685	5.5
587.024	5.52
587.362	5.51
587.7	5.52
588.038	5.57
588.376	5.54
588.715	5.52
589.053	5.54
589.391	5.54
589.729	5.54
590.067	5.54
590.404	5.56
590.742	5.57
591.08	5.56
591.418	5.57
591.756	5.59
592.093	5.63
592.431	5.64
592.769	5.66
593.106	5.6
593.444	5.61
593.781	5.65
594.119	5.66
594.456	5.67
594.793	5.69
595.131	5.68
595.468	5.71
595.805	5.72
596.143	5.7
596.48	5.7
596.817	5.7
597.154	5.74
597.491	5.74
597.828	5.73
598.165	5.73
598.502	5.73
598.839	5.73
599.176	5.74
599.512	5.72
599.849	5.73
600.186	5.75
600.523	5.72
600.859	5.73
601.196	5.69
601.532	5.71
601.869	5.7
602.205	5.69
602.542	5.65
602.878	5.63
603.215	5.61
603.551	5.61
603.887	5.59
604.223	5.57
604.56	5.58
604.896	5.64
605.232	5.63
605.568	5.63
605.904	5.6
606.24	5.59
606.576	5.62
606.912	5.6
607.248	5.59
607.583	5.6
607.919	5.56
608.255	5.61
608.591	5.6
608.926	5.59
609.262	5.62
609.597	5.64
609.933	5.64
610.268	5.65
610.604	5.66
610.939	5.68
611.275	5.71
611.61	5.68
611.945	5.63
612.281	5.67
612.616	5.7
612.951	5.73
613.286	5.74
613.621	5.73
613.956	5.74
614.291	5.75
614.626	5.76
614.961	5.79
615.296	5.75
615.631	5.71
615.966	5.67
616.3	5.67
616.635	5.62
616.97	5.65
617.304	5.65
617.639	5.68
617.973	5.64
618.308	5.62
618.642	5.6
618.977	5.59
619.311	5.58
619.646	5.59
619.98	5.59
620.314	5.58
620.648	5.53
620.983	5.54
621.317	5.55
621.651	5.56
621.985	5.51
622.319	5.5
622.653	5.48
622.987	5.53
623.321	5.53
623.655	5.61
623.988	5.62
624.322	5.62
624.656	5.6
624.99	5.68
625.323	5.67
625.657	5.72
625.99	5.7
626.324	5.74
626.657	5.71
626.991	5.7
627.324	5.66
627.658	5.71
627.991	5.7
628.324	5.68
628.657	5.67
628.991	5.75
629.324	5.75
629.657	5.81
629.99	5.79
630.323	5.77
630.656	5.73
630.989	5.75
631.322	5.74
631.655	5.71
631.987	5.63
632.32	5.64
632.653	5.64
632.986	5.65
633.318	5.61
633.651	5.68
633.984	5.7
634.316	5.71
634.649	5.76
634.981	5.77
635.313	5.79
635.646	5.82
635.978	5.88
636.31	5.9
636.643	5.94
636.975	5.97
637.307	6
637.639	6.02
637.971	5.96
638.303	5.98
638.635	6.02
638.967	6.12
639.299	6.13
639.631	6.1
639.963	6.15
640.295	6.16
640.626	6.12
640.958	6.08
641.29	6.09
641.621	6.01
641.953	5.95
642.285	5.98
642.616	5.93
642.948	5.84
643.279	5.86
643.61	5.84
643.942	5.84
644.273	5.8
644.604	5.78
644.936	5.85
645.267	5.85
645.598	5.84
645.929	5.8
646.26	5.74
646.591	5.78
646.922	5.72
647.253	5.71
647.584	5.73
647.915	5.8
648.245	5.84
648.576	5.84
648.907	5.9
649.238	5.87
649.568	5.92
649.899	5.9
650.229	5.94
650.56	5.91
650.89	5.86
651.221	5.88
651.551	5.93
651.882	5.94
652.212	5.99
652.542	5.97
652.872	5.95
653.203	6.01
653.533	5.97
653.863	6.04
654.193	6
654.523	6.02
654.853	5.99
655.183	5.94
655.513	5.95
655.843	5.92
656.172	5.99
656.502	5.95
656.832	5.99
657.162	5.97
657.491	6.01
657.821	6.04
658.15	6.01
658.48	5.97
658.809	5.92
659.139	6.01
659.468	6.02
659.798	6
660.127	6
660.456	6
660.785	5.95
661.115	5.93
661.444	5.92
661.773	5.94
662.102	5.97
662.431	5.97
662.76	6
663.089	5.96
663.418	6.01
663.747	5.9
664.076	5.84
664.404	5.81
664.733	5.79
665.062	5.89
665.39	5.89
665.719	5.93
666.048	5.78
666.376	5.81
666.705	5.84
667.033	5.89
667.362	5.88
667.69	5.89
668.018	5.92
668.347	5.92
668.675	6.01
669.003	5.95
669.331	5.91
669.659	5.85
669.987	5.84
670.315	5.81
670.643	5.87
670.971	5.92
671.299	5.85
671.627	5.88
671.955	5.82
672.283	5.85
672.61	5.84
672.938	5.9
673.266	5.89
673.593	5.84
673.921	5.76
674.249	5.75
674.576	5.87
674.904	5.85
675.231	5.84
675.558	5.78
675.886	5.88
676.213	5.89
676.54	5.96
676.867	5.98
677.195	6.03
677.522	6.06
677.849	6.04
678.176	6.07
678.503	6.04
678.83	6
679.157	6.06
679.484	6.07
679.81	6.06
680.137	6.1
680.464	6.16
