Data from BU26946_Reflection_00007.txt Node
Date: Tue Nov 19 10:52:01 EST 2019
User: vgr7
Spectrometer: USB2G7710
Scans to average: 3
Trigger mode: 4
Integration Time (sec): 2.000000E-2
Electric dark correction enabled: true
Boxcar width: 10
XAxis mode: Wavelengths
Number of Pixels in Spectrum: 2048
>>>>>Begin Spectral Data<<<<<
177.721	-213.06
178.105	-197.3
178.488	-260.68
178.871	-163.16
179.254	-57.14
179.636	194.34
180.019	855.81
180.402	228.57
180.785	-1230.77
181.168	-77.03
181.55	-122.54
181.933	-27.68
182.316	-17.56
182.698	-19.96
183.081	-122.47
183.463	495.52
183.846	-101.86
184.228	41.47
184.611	-43.36
184.993	58.18
185.376	-80.85
185.758	22.38
186.14	98.46
186.522	23.14
186.904	33.55
187.287	33.06
187.669	56.46
188.051	133.08
188.433	65.44
188.815	8.95
189.197	19.95
189.579	-7.55
189.961	-10.53
190.342	6.51
190.724	1.7
191.106	-0.21
191.488	-2.41
191.869	2.11
192.251	13.79
192.633	3.78
193.014	-6.96
193.396	-12.41
193.777	-13.51
194.159	-15.96
194.54	-5.54
194.922	8.59
195.303	25.81
195.684	22.96
196.065	23.21
196.447	29.79
196.828	53.8
197.209	57.78
197.59	89.38
197.971	103.71
198.352	116.49
198.733	161.06
199.114	128.95
199.495	122.74
199.876	122.82
200.257	126.28
200.638	111.73
201.018	124.85
201.399	124.43
201.78	135.11
202.16	145.11
202.541	149.05
202.922	146
203.302	123.1
203.683	132.48
204.063	87.78
204.444	91.07
204.824	83.04
205.204	84.32
205.585	85.43
205.965	83.25
206.345	71.87
206.725	73.07
207.106	77.88
207.486	78.07
207.866	55.45
208.246	58.51
208.626	66.27
209.006	66.5
209.386	73.74
209.766	63.97
210.145	55.37
210.525	45.93
210.905	47.01
211.285	61.61
211.664	55.09
212.044	65.95
212.424	58.61
212.803	61.73
213.183	54.21
213.562	53.77
213.942	46.98
214.321	58.88
214.701	52.89
215.08	50.68
215.459	60.63
215.838	90.37
216.218	85
216.597	90.12
216.976	102.54
217.355	104.87
217.734	132.71
218.113	143.54
218.492	163.1
218.871	155.63
219.25	141.47
219.629	189.03
220.008	194.31
220.387	191.63
220.766	162.65
221.144	177.8
221.523	175.02
221.902	269.9
222.28	170.93
222.659	130.52
223.037	98.22
223.416	84.68
223.794	67.2
224.173	57.13
224.551	53.52
224.929	44.61
225.308	33.27
225.686	28.17
226.064	22.66
226.442	21.77
226.821	20.05
227.199	19.94
227.577	20.37
227.955	21.89
228.333	19.32
228.711	21.04
229.089	19.95
229.467	19.62
229.845	18.78
230.222	19.77
230.6	19.2
230.978	19.08
231.356	20.32
231.733	18.37
232.111	20.22
232.488	19.48
232.866	22.06
233.243	23.04
233.621	23.62
233.998	22.56
234.376	21.94
234.753	20.3
235.13	18.72
235.508	17.89
235.885	16.97
236.262	14.62
236.639	13.24
237.016	12.71
237.393	13.32
237.77	11.83
238.147	11.21
238.524	10.18
238.901	10.01
239.278	8.71
239.655	8.98
240.032	8.09
240.409	6.98
240.785	5.93
241.162	5.37
241.539	4.55
241.915	4.02
242.292	4.36
242.668	4.43
243.045	4.74
243.421	4.6
243.798	4.35
244.174	4.68
244.551	4.32
244.927	4.23
245.303	3.76
245.679	3.57
246.056	3.1
246.432	2.96
246.808	3.13
247.184	3.14
247.56	2.8
247.936	2.77
248.312	2.98
248.688	2.92
249.064	3.02
249.44	2.96
249.815	3.11
250.191	2.94
250.567	3.12
250.943	2.95
251.318	2.74
251.694	2.6
252.069	2.53
252.445	2.72
252.82	2.94
253.196	3.04
253.571	3.55
253.947	3.78
254.322	3.8
254.697	3.57
255.073	3.45
255.448	3.63
255.823	3.6
256.198	3.45
256.573	3.51
256.948	3.34
257.323	3.41
257.698	3.5
258.073	3.16
258.448	3.1
258.823	2.94
259.198	3.03
259.573	3.11
259.948	3.21
260.322	3.19
260.697	3.09
261.072	3.26
261.446	3.12
261.821	2.92
262.195	2.86
262.57	3
262.944	3.06
263.319	2.91
263.693	2.74
264.067	2.91
264.442	2.81
264.816	2.68
265.19	2.66
265.564	2.47
265.938	2.7
266.313	2.7
266.687	2.64
267.061	2.61
267.435	2.64
267.809	2.47
268.183	2.36
268.556	2.25
268.93	1.94
269.304	1.83
269.678	2.06
270.051	2.03
270.425	1.99
270.799	1.9
271.172	1.99
271.546	2.19
271.919	2.01
272.293	2.2
272.666	2.43
273.04	2.47
273.413	2.56
273.787	2.5
274.16	2.39
274.533	2.5
274.906	2.54
275.279	2.38
275.653	2.44
276.026	2.34
276.399	2.36
276.772	2.53
277.145	2.57
277.518	2.57
277.891	2.68
278.263	2.61
278.636	2.78
279.009	2.72
279.382	2.65
279.755	2.75
280.127	2.66
280.5	2.44
280.872	2.48
281.245	2.48
281.617	2.43
281.99	2.57
282.362	2.6
282.735	2.51
283.107	2.56
283.479	2.64
283.852	2.7
284.224	2.74
284.596	2.73
284.968	2.71
285.34	2.68
285.713	2.7
286.085	2.59
286.457	2.6
286.829	2.72
287.201	2.78
287.572	2.82
287.944	2.83
288.316	3
288.688	3.11
289.06	3.1
289.431	3.25
289.803	3.19
290.175	3.21
290.546	3.31
290.918	3.43
291.289	3.37
291.661	3.53
292.032	3.55
292.403	3.53
292.775	3.62
293.146	3.73
293.517	3.7
293.889	3.85
294.26	3.78
294.631	3.77
295.002	3.72
295.373	3.62
295.744	3.63
296.115	3.67
296.486	3.68
296.857	3.74
297.228	3.64
297.599	3.66
297.97	3.79
298.34	3.79
298.711	3.72
299.082	3.78
299.452	3.58
299.823	3.55
300.194	3.62
300.564	3.63
300.935	3.55
301.305	3.61
301.676	3.57
302.046	3.63
302.416	3.75
302.787	3.89
303.157	4.07
303.527	4.3
303.897	4.22
304.267	4.24
304.637	4.4
305.008	4.56
305.378	4.51
305.748	4.46
306.117	4.58
306.487	4.67
306.857	4.76
307.227	5.09
307.597	5.22
307.967	5.29
308.336	5.39
308.706	5.58
309.076	5.77
309.445	5.97
309.815	6.1
310.184	6.07
310.554	6.14
310.923	6.03
311.293	5.98
311.662	6.11
312.031	6.13
312.401	6.04
312.77	5.99
313.139	6.27
313.508	6.37
313.877	6.45
314.246	6.53
314.616	6.7
314.985	6.64
315.353	6.82
315.722	6.96
316.091	6.99
316.46	7.06
316.829	6.96
317.198	6.91
317.567	7.03
317.935	7.16
318.304	7.19
318.672	7.39
319.041	7.67
319.41	7.76
319.778	7.95
320.147	8.21
320.515	8.43
320.883	8.42
321.252	8.49
321.62	8.48
321.988	8.57
322.357	8.46
322.725	8.61
323.093	8.72
323.461	8.71
323.829	8.88
324.197	8.91
324.565	9.09
324.933	9.07
325.301	8.92
325.669	8.91
326.037	8.9
326.405	8.99
326.772	8.9
327.14	8.99
327.508	8.93
327.875	8.91
328.243	8.84
328.61	8.94
328.978	8.88
329.346	8.9
329.713	9.05
330.08	9.17
330.448	9.2
330.815	9.12
331.182	9.15
331.55	9.22
331.917	9.28
332.284	9.27
332.651	9.47
333.018	9.55
333.385	9.63
333.752	9.73
334.119	9.81
334.486	9.76
334.853	9.75
335.22	9.84
335.587	9.87
335.954	10.03
336.32	9.93
336.687	10.11
337.054	10.21
337.42	10.16
337.787	10.19
338.153	10.16
338.52	10.21
338.886	10.26
339.253	10.15
339.619	10.09
339.986	10.06
340.352	10.09
340.718	10.14
341.084	10.13
341.451	10.17
341.817	10.07
342.183	10.06
342.549	10.06
342.915	10.07
343.281	10.08
343.647	10
344.013	10.08
344.379	10.05
344.745	9.92
345.11	9.86
345.476	9.98
345.842	10.11
346.208	10.1
346.573	10.1
346.939	10.21
347.304	10.2
347.67	10.21
348.035	10.15
348.401	10.23
348.766	10.2
349.132	10.23
349.497	10.24
349.862	10.25
350.228	10.29
350.593	10.33
350.958	10.34
351.323	10.32
351.688	10.36
352.053	10.31
352.418	10.45
352.783	10.45
353.148	10.34
353.513	10.2
353.878	10.1
354.243	10.01
354.608	9.99
354.972	10.08
355.337	10.21
355.702	10.21
356.066	10.2
356.431	10.23
356.795	10.18
357.16	10.23
357.524	10.19
357.889	10.06
358.253	10
358.618	9.99
358.982	9.97
359.346	9.92
359.71	9.86
360.075	9.81
360.439	9.89
360.803	9.87
361.167	9.86
361.531	9.92
361.895	9.92
362.259	9.94
362.623	9.85
362.987	9.77
363.351	9.67
363.714	9.65
364.078	9.57
364.442	9.53
364.806	9.46
365.169	9.52
365.533	9.53
365.896	9.53
366.26	9.44
366.623	9.4
366.987	9.32
367.35	9.33
367.714	9.3
368.077	9.19
368.44	9.22
368.803	9.22
369.167	9.12
369.53	9.1
369.893	9.02
370.256	8.97
370.619	8.89
370.982	8.91
371.345	8.87
371.708	8.84
372.071	8.85
372.434	8.78
372.797	8.63
373.159	8.56
373.522	8.45
373.885	8.42
374.247	8.38
374.61	8.31
374.973	8.25
375.335	8.2
375.698	8.1
376.06	7.93
376.423	7.83
376.785	7.83
377.147	7.72
377.51	7.57
377.872	7.49
378.234	7.4
378.596	7.37
378.958	7.32
379.321	7.28
379.683	7.17
380.045	7.1
380.407	7.05
380.769	6.97
381.13	6.9
381.492	6.81
381.854	6.76
382.216	6.76
382.578	6.67
382.939	6.54
383.301	6.51
383.663	6.48
384.024	6.43
384.386	6.33
384.747	6.34
385.109	6.34
385.47	6.36
385.832	6.28
386.193	6.16
386.554	6.05
386.916	5.99
387.277	5.93
387.638	5.92
387.999	5.88
388.36	5.88
388.721	5.85
389.082	5.81
389.443	5.82
389.804	5.78
390.165	5.74
390.526	5.73
390.887	5.69
391.248	5.66
391.609	5.64
391.969	5.59
392.33	5.54
392.691	5.47
393.051	5.39
393.412	5.41
393.772	5.37
394.133	5.31
394.493	5.3
394.854	5.29
395.214	5.24
395.574	5.22
395.935	5.17
396.295	5.14
396.655	5.14
397.015	5.08
397.376	5.02
397.736	4.95
398.096	4.89
398.456	4.87
398.816	4.8
399.176	4.74
399.535	4.71
399.895	4.68
400.255	4.65
400.615	4.64
400.975	4.6
401.334	4.56
401.694	4.52
402.054	4.43
402.413	4.39
402.773	4.34
403.132	4.28
403.492	4.27
403.851	4.25
404.211	4.21
404.57	4.16
404.929	4.13
405.288	4.15
405.648	4.15
406.007	4.11
406.366	4.09
406.725	4.06
407.084	4.04
407.443	4.04
407.802	4.01
408.161	4
408.52	3.96
408.879	3.94
409.238	3.96
409.596	3.98
409.955	3.94
410.314	3.94
410.673	3.93
411.031	3.9
411.39	3.87
411.748	3.84
412.107	3.8
412.465	3.77
412.824	3.72
413.182	3.72
413.54	3.72
413.899	3.7
414.257	3.66
414.615	3.63
414.974	3.59
415.332	3.56
415.69	3.51
416.048	3.49
416.406	3.47
416.764	3.44
417.122	3.4
417.48	3.41
417.838	3.37
418.195	3.35
418.553	3.31
418.911	3.28
419.269	3.26
419.626	3.25
419.984	3.24
420.342	3.23
420.699	3.17
421.057	3.16
421.414	3.16
421.772	3.15
422.129	3.13
422.486	3.11
422.844	3.08
423.201	3.09
423.558	3.08
423.915	3.07
424.273	3.07
424.63	3.06
424.987	3.04
425.344	3.03
425.701	3.01
426.058	3.01
426.415	2.99
426.772	2.97
427.128	2.96
427.485	2.96
427.842	2.96
428.199	2.97
428.555	2.94
428.912	2.9
429.269	2.88
429.625	2.89
429.982	2.89
430.338	2.9
430.695	2.89
431.051	2.88
431.407	2.87
431.764	2.87
432.12	2.86
432.476	2.86
432.832	2.87
433.189	2.86
433.545	2.87
433.901	2.87
434.257	2.88
434.613	2.86
434.969	2.84
435.325	2.83
435.681	2.83
436.036	2.85
436.392	2.87
436.748	2.88
437.104	2.89
437.459	2.88
437.815	2.88
438.171	2.86
438.526	2.86
438.882	2.86
439.237	2.83
439.593	2.83
439.948	2.82
440.304	2.82
440.659	2.84
441.014	2.82
441.369	2.83
441.725	2.82
442.08	2.82
442.435	2.83
442.79	2.83
443.145	2.83
443.5	2.81
443.855	2.79
444.21	2.78
444.565	2.76
444.92	2.77
445.275	2.78
445.629	2.79
445.984	2.78
446.339	2.78
446.693	2.78
447.048	2.76
447.403	2.75
447.757	2.73
448.112	2.72
448.466	2.72
448.82	2.71
449.175	2.72
449.529	2.73
449.883	2.72
450.238	2.7
450.592	2.69
450.946	2.69
451.3	2.68
451.654	2.66
452.008	2.66
452.362	2.65
452.716	2.62
453.07	2.6
453.424	2.58
453.778	2.57
454.132	2.54
454.486	2.54
454.839	2.54
455.193	2.56
455.547	2.55
455.9	2.54
456.254	2.52
456.607	2.5
456.961	2.5
457.314	2.51
457.668	2.52
458.021	2.53
458.375	2.54
458.728	2.55
459.081	2.57
459.434	2.57
459.787	2.58
460.141	2.6
460.494	2.61
460.847	2.64
461.2	2.65
461.553	2.68
461.906	2.7
462.259	2.7
462.611	2.71
462.964	2.72
463.317	2.74
463.67	2.78
464.022	2.78
464.375	2.79
464.728	2.8
465.08	2.79
465.433	2.81
465.785	2.83
466.138	2.85
466.49	2.86
466.843	2.88
467.195	2.89
467.547	2.9
467.899	2.91
468.252	2.92
468.604	2.93
468.956	2.95
469.308	2.96
469.66	2.98
470.012	2.99
470.364	3
470.716	3.04
471.068	3.05
471.42	3.08
471.772	3.12
472.123	3.14
472.475	3.16
472.827	3.19
473.178	3.2
473.53	3.21
473.882	3.2
474.233	3.19
474.585	3.2
474.936	3.2
475.288	3.21
475.639	3.2
475.99	3.21
476.342	3.21
476.693	3.2
477.044	3.19
477.395	3.18
477.746	3.19
478.097	3.17
478.448	3.16
478.8	3.14
479.15	3.12
479.501	3.1
479.852	3.07
480.203	3.05
480.554	3.04
480.905	3.03
481.255	3.02
481.606	3.03
481.957	3.02
482.307	3
482.658	2.99
483.009	2.98
483.359	2.97
483.709	2.97
484.06	2.95
484.41	2.96
484.761	2.96
485.111	2.95
485.461	2.95
485.811	2.94
486.162	2.94
486.512	2.93
486.862	2.93
487.212	2.94
487.562	2.92
487.912	2.91
488.262	2.91
488.612	2.9
488.961	2.91
489.311	2.91
489.661	2.9
490.011	2.91
490.36	2.92
490.71	2.93
491.06	2.93
491.409	2.95
491.759	2.95
492.108	2.96
492.458	2.97
492.807	2.97
493.157	3
493.506	3.01
493.855	3.03
494.204	3.05
494.554	3.08
494.903	3.12
495.252	3.17
495.601	3.21
495.95	3.26
496.299	3.29
496.648	3.35
496.997	3.41
497.346	3.45
497.695	3.51
498.043	3.57
498.392	3.61
498.741	3.65
499.09	3.71
499.438	3.79
499.787	3.86
500.135	3.92
500.484	3.99
500.832	4.08
501.181	4.19
501.529	4.28
501.878	4.38
502.226	4.49
502.574	4.59
502.923	4.7
503.271	4.78
503.619	4.88
503.967	4.98
504.315	5.11
504.663	5.24
505.011	5.36
505.359	5.48
505.707	5.63
506.055	5.79
506.403	5.93
506.751	6.08
507.098	6.24
507.446	6.41
507.794	6.57
508.141	6.73
508.489	6.89
508.837	7.06
509.184	7.22
509.531	7.38
509.879	7.56
510.226	7.77
510.574	7.99
510.921	8.19
511.268	8.41
511.616	8.6
511.963	8.81
512.31	9.03
512.657	9.27
513.004	9.49
513.351	9.72
513.698	9.96
514.045	10.19
514.392	10.44
514.739	10.7
515.086	10.94
515.432	11.19
515.779	11.44
516.126	11.69
516.473	11.92
516.819	12.16
517.166	12.4
517.512	12.58
517.859	12.79
518.205	13.03
518.552	13.22
518.898	13.43
519.245	13.62
519.591	13.84
519.937	14.04
520.283	14.28
520.629	14.5
520.976	14.74
521.322	14.98
521.668	15.23
522.014	15.47
522.36	15.74
522.706	16.01
523.052	16.25
523.398	16.5
523.743	16.76
524.089	16.98
524.435	17.18
524.781	17.4
525.126	17.6
525.472	17.78
525.817	17.94
526.163	18.09
526.509	18.25
526.854	18.4
527.199	18.52
527.545	18.63
527.89	18.75
528.235	18.88
528.581	19
528.926	19.13
529.271	19.24
529.616	19.36
529.961	19.47
530.306	19.6
530.651	19.73
530.996	19.87
531.341	20.03
531.686	20.2
532.031	20.34
532.376	20.5
532.721	20.64
533.065	20.82
533.41	20.98
533.755	21.15
534.099	21.31
534.444	21.5
534.788	21.67
535.133	21.85
535.477	22
535.822	22.15
536.166	22.31
536.51	22.52
536.855	22.67
537.199	22.87
537.543	23.04
537.887	23.23
538.231	23.43
538.576	23.61
538.92	23.75
539.264	23.92
539.608	24.07
539.951	24.2
540.295	24.32
540.639	24.47
540.983	24.6
541.327	24.71
541.671	24.81
542.014	24.92
542.358	25.03
542.701	25.16
543.045	25.29
543.389	25.39
543.732	25.5
544.075	25.65
544.419	25.79
544.762	25.94
545.105	26.1
545.449	26.26
545.792	26.46
546.135	26.68
546.478	26.9
546.821	27.08
547.165	27.28
547.508	27.46
547.851	27.65
548.194	27.85
548.536	28.07
548.879	28.27
549.222	28.47
549.565	28.65
549.908	28.8
550.25	28.98
550.593	29.17
550.936	29.37
551.278	29.56
551.621	29.72
551.963	29.9
552.306	30.09
552.648	30.22
552.991	30.34
553.333	30.45
553.675	30.58
554.017	30.74
554.36	30.85
554.702	31.04
555.044	31.17
555.386	31.29
555.728	31.38
556.07	31.51
556.412	31.63
556.754	31.79
557.096	31.97
557.438	32.11
557.78	32.27
558.121	32.39
558.463	32.52
558.805	32.63
559.147	32.73
559.488	32.77
559.83	32.9
560.171	32.98
560.513	33.07
560.854	33.1
561.196	33.18
561.537	33.31
561.878	33.38
562.22	33.47
562.561	33.55
562.902	33.59
563.243	33.69
563.584	33.77
563.925	33.8
564.266	33.79
564.607	33.79
564.948	33.82
565.289	33.87
565.63	33.85
565.971	33.93
566.312	33.99
566.653	34.03
566.993	34.04
567.334	34.13
567.675	34.15
568.015	34.2
568.356	34.23
568.696	34.26
569.037	34.26
569.377	34.22
569.718	34.24
570.058	34.28
570.398	34.26
570.739	34.21
571.079	34.31
571.419	34.39
571.759	34.44
572.099	34.52
572.439	34.53
572.779	34.59
573.119	34.62
573.459	34.68
573.799	34.69
574.139	34.7
574.479	34.73
574.819	34.83
575.158	34.91
575.498	35.01
575.838	35.12
576.177	35.24
576.517	35.36
576.856	35.46
577.196	35.59
577.535	35.71
577.875	35.96
578.214	36.03
578.553	36.14
578.893	36.24
579.232	36.31
579.571	36.51
579.91	36.67
580.25	36.72
580.589	36.78
580.928	36.93
581.267	37.05
581.606	37.2
581.945	37.21
582.283	37.27
582.622	37.27
582.961	37.32
583.3	37.34
583.639	37.43
583.977	37.51
584.316	37.49
584.654	37.53
584.993	37.52
585.332	37.57
585.67	37.61
586.008	37.59
586.347	37.64
586.685	37.56
587.024	37.59
587.362	37.62
587.7	37.67
588.038	37.7
588.376	37.73
588.715	37.74
589.053	37.77
589.391	37.79
589.729	37.82
590.067	37.81
590.404	37.86
590.742	37.87
591.08	37.9
591.418	37.89
591.756	37.89
592.093	37.81
592.431	37.75
592.769	37.77
593.106	37.85
593.444	37.81
593.781	37.83
594.119	37.8
594.456	37.78
594.793	37.76
595.131	37.77
595.468	37.77
595.805	37.76
596.143	37.78
596.48	37.85
596.817	37.88
597.154	37.85
597.491	37.87
597.828	37.9
598.165	37.89
598.502	37.95
598.839	38
599.176	38.05
599.512	38.09
599.849	38.1
600.186	38.06
600.523	38.04
600.859	38.06
601.196	38.1
601.532	38.15
601.869	38.11
602.205	38.09
602.542	38.06
602.878	38.09
603.215	38.14
603.551	38.08
603.887	38.1
604.223	38.18
604.56	38.14
604.896	38.09
605.232	38.08
605.568	38.01
605.904	38.02
606.24	38.06
606.576	38.09
606.912	38.07
607.248	38.08
607.583	38.14
607.919	38.2
608.255	38.22
608.591	38.26
608.926	38.37
609.262	38.42
609.597	38.5
609.933	38.55
610.268	38.56
610.604	38.64
610.939	38.71
611.275	38.73
611.61	38.78
611.945	38.86
612.281	38.92
612.616	39.1
612.951	39.1
613.286	39.15
613.621	39.23
613.956	39.35
614.291	39.48
614.626	39.54
614.961	39.55
615.296	39.62
615.631	39.73
615.966	39.77
616.3	39.81
616.635	39.91
616.97	39.94
617.304	40
617.639	40.03
617.973	40.05
618.308	40.08
618.642	40.1
618.977	40.16
619.311	40.18
619.646	40.13
619.98	40.18
620.314	40.2
620.648	40.2
620.983	40.26
621.317	40.23
621.651	40.19
621.985	40.08
622.319	39.99
622.653	39.87
622.987	39.79
623.321	39.79
623.655	39.67
623.988	39.6
624.322	39.52
624.656	39.44
624.99	39.36
625.323	39.36
625.657	39.33
625.99	39.34
626.324	39.3
626.657	39.3
626.991	39.32
627.324	39.3
627.658	39.26
627.991	39.25
628.324	39.26
628.657	39.29
628.991	39.43
629.324	39.49
629.657	39.57
629.99	39.66
630.323	39.68
630.656	39.78
630.989	39.78
631.322	39.81
631.655	39.84
631.987	39.93
632.32	39.97
632.653	40.03
632.986	40.02
633.318	40.07
633.651	40.1
633.984	40.18
634.316	40.18
634.649	40.22
634.981	40.19
635.313	40.29
635.646	40.39
635.978	40.41
636.31	40.45
636.643	40.39
636.975	40.36
637.307	40.48
637.639	40.57
637.971	40.66
638.303	40.73
638.635	40.79
638.967	40.8
639.299	40.79
639.631	40.89
639.963	40.96
640.295	40.92
640.626	41
640.958	41.02
641.29	41.06
641.621	41.12
641.953	41.07
642.285	41.06
642.616	41.03
642.948	41.08
643.279	41.02
643.61	41.18
643.942	41.22
644.273	41.11
644.604	40.99
644.936	40.93
645.267	40.98
645.598	40.99
645.929	40.96
646.26	40.86
646.591	40.78
646.922	40.76
647.253	40.83
647.584	40.7
647.915	40.66
648.245	40.68
648.576	40.59
648.907	40.55
649.238	40.57
649.568	40.53
649.899	40.48
650.229	40.51
650.56	40.39
650.89	40.35
651.221	40.4
651.551	40.43
651.882	40.44
652.212	40.39
652.542	40.48
652.872	40.45
653.203	40.49
653.533	40.4
653.863	40.35
654.193	40.28
654.523	40.28
654.853	40.25
655.183	40.21
655.513	40.26
655.843	40.32
656.172	40.17
656.502	40.1
656.832	40.14
657.162	40.14
657.491	40.12
657.821	40.17
658.15	40.07
658.48	40.1
658.809	40.11
659.139	40.09
659.468	40.07
659.798	40.1
660.127	40.12
660.456	40.16
660.785	40.2
661.115	40.21
661.444	40.39
661.773	40.45
662.102	40.5
662.431	40.59
662.76	40.58
663.089	40.69
663.418	40.85
663.747	40.9
664.076	40.95
664.404	41.01
664.733	41.02
665.062	41.01
665.39	40.88
665.719	40.92
666.048	40.91
666.376	40.89
666.705	40.83
667.033	40.86
