Data from BU26940_Reflection_00011.txt Node
Date: Tue Nov 19 11:00:29 EST 2019
User: vgr7
Spectrometer: USB2G7710
Scans to average: 3
Trigger mode: 4
Integration Time (sec): 2.000000E-2
Electric dark correction enabled: true
Boxcar width: 10
XAxis mode: Wavelengths
Number of Pixels in Spectrum: 2048
>>>>>Begin Spectral Data<<<<<
177.721	-81.76
178.105	1766.67
178.488	-103.82
178.871	28.21
179.254	-54.17
179.636	16.67
180.019	204.17
180.402	180
180.785	-9.65
181.168	-0.28
181.55	17.74
181.933	72.85
182.316	172.75
182.698	87.79
183.081	47.77
183.463	33.03
183.846	35.75
184.228	35.61
184.611	55.96
184.993	40.56
185.376	40.03
185.758	60.03
186.14	37.62
186.522	45.72
186.904	27.78
187.287	56.96
187.669	62.82
188.051	101.63
188.433	141.67
188.815	-155.21
189.197	55.13
189.579	62.01
189.961	222.02
190.342	152.93
190.724	133.14
191.106	62.12
191.488	40.34
191.869	15.64
192.251	21.44
192.633	15.06
193.014	-1.51
193.396	-30.21
193.777	-6.91
194.159	-5.58
194.54	0.79
194.922	4.89
195.303	1.57
195.684	15.45
196.065	23.21
196.447	13.59
196.828	28.52
197.209	35.61
197.59	22.24
197.971	11.69
198.352	21.59
198.733	9.46
199.114	15.42
199.495	28.83
199.876	63.83
200.257	58.33
200.638	71.28
201.018	62.77
201.399	64.68
201.78	51.27
202.16	53.16
202.541	46.08
202.922	35.92
203.302	22.86
203.683	15.78
204.063	28.73
204.444	31.3
204.824	19.44
205.204	18.39
205.585	28.34
205.965	30.77
206.345	31.14
206.725	39.23
207.106	42.2
207.486	37.31
207.866	28.54
208.246	31.26
208.626	28.7
209.006	22.54
209.386	28.95
209.766	28.08
210.145	21.52
210.525	15.04
210.905	32.49
211.285	51.95
211.664	54.56
212.044	44.03
212.424	40.99
212.803	37.72
213.183	26.55
213.562	35.85
213.942	32.4
214.321	27.06
214.701	14.51
215.08	8.99
215.459	5.29
215.838	8.51
216.218	4.93
216.597	7.34
216.976	9.59
217.355	9.11
217.734	1.97
218.113	2.25
218.492	5.29
218.871	-10.54
219.25	-19.63
219.629	-29.28
220.008	-30.92
220.387	-26.03
220.766	-20.29
221.144	-17.23
221.523	-40.32
221.902	-30.43
222.28	-24.26
222.659	-13.97
223.037	-20.17
223.416	-16.4
223.794	-18.53
224.173	-16.74
224.551	-15.7
224.929	-30.95
225.308	-24.49
225.686	-18.82
226.064	-19.3
226.442	-17.11
226.821	-12.04
227.199	-8.1
227.577	-5.45
227.955	-5.27
228.333	-6.95
228.711	-8.12
229.089	-7.06
229.467	-3.69
229.845	-6.51
230.222	-7.57
230.6	-8.37
230.978	-4.52
231.356	-1.91
231.733	-0.08
232.111	-0.48
232.488	-0.6
232.866	2.31
233.243	3.32
233.621	3.66
233.998	4.43
234.376	3.64
234.753	2.36
235.13	2.52
235.508	1.95
235.885	1.58
236.262	1.98
236.639	1.69
237.016	1.67
237.393	1.62
237.77	2.67
238.147	4.07
238.524	5.09
238.901	4.62
239.278	3.41
239.655	2.99
240.032	2.97
240.409	2.8
240.785	2.49
241.162	1.94
241.539	2.05
241.915	2.26
242.292	2.59
242.668	2.64
243.045	2.73
243.421	2.98
243.798	3.4
244.174	3.47
244.551	3.56
244.927	3.5
245.303	3.29
245.679	3.29
246.056	3.39
246.432	3.33
246.808	3.7
247.184	3.69
247.56	3.58
247.936	3.56
248.312	3.66
248.688	3.46
249.064	3.43
249.44	3.37
249.815	3.31
250.191	3.39
250.567	3.43
250.943	3.37
251.318	3.09
251.694	2.66
252.069	2.93
252.445	2.73
252.82	2.65
253.196	3.16
253.571	3.02
253.947	2.59
254.322	2.54
254.697	2.06
255.073	2.23
255.448	2.58
255.823	2.85
256.198	2.95
256.573	3.33
256.948	3.36
257.323	3.36
257.698	3.2
258.073	3.08
258.448	3.23
258.823	3.18
259.198	3.27
259.573	3.35
259.948	3.25
260.322	3.54
260.697	3.72
261.072	3.65
261.446	3.62
261.821	3.69
262.195	3.53
262.57	3.57
262.944	3.56
263.319	3.59
263.693	3.45
264.067	3.3
264.442	3.17
264.816	3.17
265.19	3.29
265.564	3.47
265.938	3.61
266.313	3.55
266.687	3.51
267.061	3.59
267.435	3.8
267.809	3.61
268.183	3.4
268.556	3.07
268.93	3.09
269.304	3.22
269.678	3.24
270.051	3.29
270.425	3.22
270.799	3.08
271.172	2.94
271.546	2.98
271.919	3.11
272.293	3.19
272.666	3.12
273.04	2.94
273.413	2.99
273.787	2.71
274.16	2.56
274.533	2.55
274.906	2.54
275.279	2.43
275.653	2.62
276.026	2.56
276.399	2.46
276.772	2.37
277.145	2.23
277.518	2.2
277.891	2.14
278.263	2.31
278.636	2.5
279.009	2.61
279.382	2.51
279.755	2.53
280.127	2.5
280.5	2.57
280.872	2.76
281.245	2.65
281.617	2.96
281.99	3.2
282.362	3.32
282.735	3.33
283.107	3.29
283.479	3.2
283.852	3.23
284.224	3.38
284.596	3.35
284.968	3.41
285.34	3.33
285.713	3.46
286.085	3.45
286.457	3.41
286.829	3.38
287.201	3.5
287.572	3.45
287.944	3.52
288.316	3.53
288.688	3.52
289.06	3.49
289.431	3.47
289.803	3.46
290.175	3.47
290.546	3.44
290.918	3.53
291.289	3.33
291.661	3.49
292.032	3.55
292.403	3.58
292.775	3.59
293.146	3.73
293.517	3.67
293.889	3.68
294.26	3.69
294.631	3.85
295.002	3.86
295.373	3.97
295.744	3.96
296.115	4.07
296.486	4.26
296.857	4.37
297.228	4.35
297.599	4.24
297.97	4.26
298.34	4.38
298.711	4.42
299.082	4.64
299.452	4.64
299.823	4.63
300.194	4.63
300.564	4.61
300.935	4.72
301.305	4.75
301.676	4.7
302.046	4.71
302.416	4.67
302.787	4.72
303.157	4.66
303.527	4.77
303.897	4.66
304.267	4.44
304.637	4.33
305.008	4.37
305.378	4.61
305.748	4.63
306.117	4.65
306.487	4.66
306.857	4.83
307.227	4.98
307.597	5.08
307.967	5.32
308.336	5.35
308.706	5.35
309.076	5.66
309.445	5.92
309.815	6.09
310.184	6.02
310.554	6.13
310.923	6.14
311.293	6.09
311.662	6.15
312.031	6.17
312.401	6.39
312.77	6.42
313.139	6.41
313.508	6.5
313.877	6.47
314.246	6.53
314.616	6.56
314.985	6.41
315.353	6.49
315.722	6.5
316.091	6.71
316.46	6.71
316.829	6.51
317.198	6.58
317.567	6.65
317.935	6.72
318.304	6.67
318.672	6.79
319.041	6.95
319.41	7.02
319.778	7.21
320.147	7.14
320.515	7.2
320.883	7.11
321.252	7.22
321.62	7.26
321.988	7.2
322.357	7.04
322.725	7.15
323.093	7.16
323.461	7.27
323.829	7.38
324.197	7.42
324.565	7.5
324.933	7.39
325.301	7.3
325.669	7.42
326.037	7.38
326.405	7.54
326.772	7.64
327.14	7.57
327.508	7.48
327.875	7.59
328.243	7.64
328.61	7.82
328.978	7.79
329.346	7.96
329.713	8.09
330.08	8.29
330.448	8.21
330.815	8.34
331.182	8.2
331.55	7.99
331.917	7.9
332.284	8.11
332.651	8.08
333.018	8.06
333.385	8.05
333.752	8.13
334.119	8.15
334.486	8.12
334.853	8.15
335.22	8.26
335.587	8.2
335.954	8.23
336.32	8.19
336.687	8.17
337.054	8.21
337.42	8.17
337.787	8.18
338.153	8.36
338.52	8.45
338.886	8.38
339.253	8.53
339.619	8.77
339.986	8.68
340.352	8.75
340.718	8.81
341.084	8.85
341.451	8.87
341.817	8.8
342.183	8.77
342.549	9.02
342.915	8.99
343.281	9.08
343.647	9.22
344.013	9.19
344.379	9.16
344.745	9.09
345.11	9.2
345.476	9.13
345.842	9.14
346.208	9.06
346.573	9.27
346.939	9.23
347.304	9.18
347.67	9.18
348.035	9.24
348.401	9.27
348.766	9.38
349.132	9.45
349.497	9.5
349.862	9.62
350.228	9.57
350.593	9.52
350.958	9.6
351.323	9.47
351.688	9.54
352.053	9.56
352.418	9.67
352.783	9.63
353.148	9.68
353.513	9.66
353.878	9.68
354.243	9.56
354.608	9.61
354.972	9.56
355.337	9.53
355.702	9.57
356.066	9.6
356.431	9.56
356.795	9.59
357.16	9.58
357.524	9.47
357.889	9.36
358.253	9.34
358.618	9.33
358.982	9.41
359.346	9.35
359.71	9.34
360.075	9.27
360.439	9.26
360.803	9.3
361.167	9.23
361.531	9.16
361.895	9.17
362.259	9.17
362.623	9.14
362.987	9.12
363.351	8.99
363.714	8.97
364.078	8.91
364.442	8.83
364.806	8.85
365.169	8.82
365.533	8.84
365.896	8.94
366.26	8.84
366.623	8.7
366.987	8.75
367.35	8.77
367.714	8.73
368.077	8.73
368.44	8.67
368.803	8.61
369.167	8.57
369.53	8.6
369.893	8.5
370.256	8.46
370.619	8.49
370.982	8.49
371.345	8.41
371.708	8.36
372.071	8.28
372.434	8.21
372.797	8.25
373.159	8.14
373.522	7.98
373.885	7.98
374.247	7.89
374.61	7.79
374.973	7.7
375.335	7.66
375.698	7.52
376.06	7.41
376.423	7.4
376.785	7.38
377.147	7.36
377.51	7.29
377.872	7.26
378.234	7.17
378.596	7.14
378.958	7.11
379.321	7.02
379.683	7.05
380.045	6.96
380.407	6.83
380.769	6.85
381.13	6.83
381.492	6.74
381.854	6.75
382.216	6.71
382.578	6.68
382.939	6.62
383.301	6.64
383.663	6.63
384.024	6.59
384.386	6.51
384.747	6.39
385.109	6.38
385.47	6.35
385.832	6.28
386.193	6.2
386.554	6.11
386.916	6.06
387.277	5.99
387.638	6
387.999	5.98
388.36	5.9
388.721	5.86
389.082	5.86
389.443	5.85
389.804	5.79
390.165	5.8
390.526	5.76
390.887	5.7
391.248	5.65
391.609	5.62
391.969	5.62
392.33	5.59
392.691	5.58
393.051	5.51
393.412	5.52
393.772	5.47
394.133	5.49
394.493	5.51
394.854	5.46
395.214	5.39
395.574	5.36
395.935	5.33
396.295	5.31
396.655	5.24
397.015	5.21
397.376	5.15
397.736	5.07
398.096	5.04
398.456	5.05
398.816	5.04
399.176	4.97
399.535	4.91
399.895	4.9
400.255	4.85
400.615	4.83
400.975	4.79
401.334	4.79
401.694	4.74
402.054	4.68
402.413	4.67
402.773	4.64
403.132	4.62
403.492	4.61
403.851	4.58
404.211	4.56
404.57	4.52
404.929	4.51
405.288	4.53
405.648	4.5
406.007	4.46
406.366	4.41
406.725	4.41
407.084	4.41
407.443	4.37
407.802	4.34
408.161	4.36
408.52	4.34
408.879	4.31
409.238	4.28
409.596	4.29
409.955	4.27
410.314	4.26
410.673	4.24
411.031	4.21
411.39	4.22
411.748	4.2
412.107	4.18
412.465	4.18
412.824	4.11
413.182	4.13
413.54	4.11
413.899	4.12
414.257	4.1
414.615	4.09
414.974	4.08
415.332	4.08
415.69	4.03
416.048	4
416.406	3.96
416.764	3.96
417.122	3.93
417.48	3.92
417.838	3.9
418.195	3.88
418.553	3.86
418.911	3.83
419.269	3.83
419.626	3.81
419.984	3.79
420.342	3.8
420.699	3.76
421.057	3.74
421.414	3.72
421.772	3.72
422.129	3.7
422.486	3.69
422.844	3.66
423.201	3.65
423.558	3.66
423.915	3.67
424.273	3.66
424.63	3.65
424.987	3.63
425.344	3.61
425.701	3.61
426.058	3.62
426.415	3.6
426.772	3.59
427.128	3.59
427.485	3.61
427.842	3.61
428.199	3.61
428.555	3.61
428.912	3.58
429.269	3.56
429.625	3.58
429.982	3.58
430.338	3.59
430.695	3.56
431.051	3.54
431.407	3.54
431.764	3.53
432.12	3.52
432.476	3.53
432.832	3.54
433.189	3.54
433.545	3.52
433.901	3.54
434.257	3.53
434.613	3.51
434.969	3.49
435.325	3.48
435.681	3.48
436.036	3.49
436.392	3.5
436.748	3.52
437.104	3.5
437.459	3.49
437.815	3.49
438.171	3.51
438.526	3.5
438.882	3.49
439.237	3.5
439.593	3.51
439.948	3.51
440.304	3.5
440.659	3.51
441.014	3.51
441.369	3.5
441.725	3.49
442.08	3.5
442.435	3.5
442.79	3.48
443.145	3.48
443.5	3.48
443.855	3.47
444.21	3.46
444.565	3.48
444.92	3.49
445.275	3.49
445.629	3.48
445.984	3.47
446.339	3.48
446.693	3.47
447.048	3.46
447.403	3.46
447.757	3.45
448.112	3.44
448.466	3.45
448.82	3.45
449.175	3.45
449.529	3.46
449.883	3.45
450.238	3.44
450.592	3.44
450.946	3.42
451.3	3.41
451.654	3.4
452.008	3.38
452.362	3.36
452.716	3.35
453.07	3.32
453.424	3.33
453.778	3.31
454.132	3.31
454.486	3.3
454.839	3.31
455.193	3.3
455.547	3.29
455.9	3.28
456.254	3.27
456.607	3.28
456.961	3.27
457.314	3.27
457.668	3.27
458.021	3.26
458.375	3.27
458.728	3.27
459.081	3.28
459.434	3.28
459.787	3.28
460.141	3.29
460.494	3.33
460.847	3.34
461.2	3.35
461.553	3.38
461.906	3.39
462.259	3.39
462.611	3.4
462.964	3.41
463.317	3.42
463.67	3.43
464.022	3.43
464.375	3.43
464.728	3.44
465.08	3.44
465.433	3.46
465.785	3.47
466.138	3.51
466.49	3.51
466.843	3.54
467.195	3.56
467.547	3.58
467.899	3.59
468.252	3.59
468.604	3.59
468.956	3.56
469.308	3.59
469.66	3.59
470.012	3.6
470.364	3.63
470.716	3.64
471.068	3.66
471.42	3.68
471.772	3.69
472.123	3.72
472.475	3.74
472.827	3.76
473.178	3.77
473.53	3.78
473.882	3.77
474.233	3.75
474.585	3.75
474.936	3.73
475.288	3.72
475.639	3.74
475.99	3.74
476.342	3.78
476.693	3.77
477.044	3.77
477.395	3.79
477.746	3.76
478.097	3.75
478.448	3.74
478.8	3.72
479.15	3.7
479.501	3.69
479.852	3.68
480.203	3.66
480.554	3.64
480.905	3.63
481.255	3.64
481.606	3.64
481.957	3.63
482.307	3.64
482.658	3.63
483.009	3.63
483.359	3.63
483.709	3.63
484.06	3.63
484.41	3.63
484.761	3.63
485.111	3.64
485.461	3.64
485.811	3.64
486.162	3.65
486.512	3.65
486.862	3.65
487.212	3.64
487.562	3.65
487.912	3.66
488.262	3.66
488.612	3.66
488.961	3.68
489.311	3.68
489.661	3.67
490.011	3.68
490.36	3.67
490.71	3.67
491.06	3.67
491.409	3.67
491.759	3.67
492.108	3.66
492.458	3.67
492.807	3.68
493.157	3.69
493.506	3.71
493.855	3.73
494.204	3.75
494.554	3.77
494.903	3.8
495.252	3.81
495.601	3.84
495.95	3.88
496.299	3.9
496.648	3.95
496.997	3.99
497.346	4.03
497.695	4.08
498.043	4.14
498.392	4.18
498.741	4.24
499.09	4.3
499.438	4.39
499.787	4.44
500.135	4.49
500.484	4.56
500.832	4.59
501.181	4.69
501.529	4.78
501.878	4.86
502.226	4.95
502.574	5.06
502.923	5.15
503.271	5.25
503.619	5.37
503.967	5.47
504.315	5.58
504.663	5.69
505.011	5.81
505.359	5.92
505.707	6.04
506.055	6.18
506.403	6.33
506.751	6.47
507.098	6.63
507.446	6.79
507.794	6.96
508.141	7.15
508.489	7.3
508.837	7.46
509.184	7.65
509.531	7.81
509.879	7.98
510.226	8.16
510.574	8.34
510.921	8.53
511.268	8.76
511.616	8.98
511.963	9.19
512.31	9.42
512.657	9.66
513.004	9.91
513.351	10.15
513.698	10.4
514.045	10.67
514.392	10.96
514.739	11.25
515.086	11.54
515.432	11.83
515.779	12.13
516.126	12.42
516.473	12.69
516.819	12.97
517.166	13.24
517.512	13.52
517.859	13.81
518.205	14.04
518.552	14.27
518.898	14.52
519.245	14.78
519.591	15.03
519.937	15.32
520.283	15.61
520.629	15.9
520.976	16.21
521.322	16.54
521.668	16.84
522.014	17.16
522.36	17.5
522.706	17.86
523.052	18.22
523.398	18.59
523.743	19
524.089	19.42
524.435	19.8
524.781	20.13
525.126	20.43
525.472	20.76
525.817	21.04
526.163	21.29
526.509	21.54
526.854	21.74
527.199	21.94
527.545	22.13
527.89	22.34
528.235	22.55
528.581	22.74
528.926	22.96
529.271	23.15
529.616	23.35
529.961	23.55
530.306	23.75
530.651	23.98
530.996	24.19
531.341	24.39
531.686	24.61
532.031	24.87
532.376	25.11
532.721	25.36
533.065	25.61
533.41	25.86
533.755	26.1
534.099	26.39
534.444	26.66
534.788	26.93
535.133	27.17
535.477	27.42
535.822	27.71
536.166	27.99
536.51	28.29
536.855	28.62
537.199	28.96
537.543	29.26
537.887	29.58
538.231	29.91
538.576	30.24
538.92	30.59
539.264	30.86
539.608	31.14
539.951	31.37
540.295	31.62
540.639	31.85
540.983	32.07
541.327	32.29
541.671	32.52
542.014	32.74
542.358	32.93
542.701	33.14
543.045	33.33
543.389	33.54
543.732	33.77
544.075	33.93
544.419	34.13
544.762	34.37
545.105	34.58
545.449	34.8
545.792	35.03
546.135	35.26
546.478	35.5
546.821	35.75
547.165	36.01
547.508	36.25
547.851	36.53
548.194	36.82
548.536	37.05
548.879	37.29
549.222	37.5
549.565	37.78
549.908	38
550.25	38.23
550.593	38.45
550.936	38.66
551.278	38.89
551.621	39.09
551.963	39.29
552.306	39.48
552.648	39.67
552.991	39.87
553.333	40.04
553.675	40.24
554.017	40.39
554.36	40.56
554.702	40.73
555.044	40.89
555.386	41.04
555.728	41.27
556.07	41.39
556.412	41.58
556.754	41.74
557.096	41.92
557.438	42.09
557.78	42.21
558.121	42.34
558.463	42.53
558.805	42.71
559.147	42.87
559.488	42.97
559.83	43.14
560.171	43.21
560.513	43.35
560.854	43.44
561.196	43.62
561.537	43.81
561.878	44
562.22	44.13
562.561	44.33
562.902	44.46
563.243	44.62
563.584	44.78
563.925	44.87
564.266	44.97
564.607	45.07
564.948	45.13
565.289	45.26
565.63	45.34
565.971	45.39
566.312	45.52
566.653	45.68
566.993	45.76
567.334	45.89
567.675	45.98
568.015	46.14
568.356	46.22
568.696	46.36
569.037	46.47
569.377	46.57
569.718	46.6
570.058	46.71
570.398	46.84
570.739	46.95
571.079	47.1
571.419	47.17
571.759	47.31
572.099	47.49
572.439	47.57
572.779	47.65
573.119	47.76
573.459	47.84
573.799	47.93
574.139	48.01
574.479	48.09
574.819	48.17
575.158	48.22
575.498	48.32
575.838	48.36
576.177	48.39
576.517	48.47
576.856	48.58
577.196	48.61
577.535	48.67
577.875	48.7
578.214	48.76
578.553	48.88
578.893	48.94
579.232	48.96
579.571	49.03
579.91	49.18
580.25	49.25
580.589	49.21
580.928	49.25
581.267	49.34
581.606	49.46
581.945	49.49
582.283	49.57
582.622	49.63
582.961	49.61
583.3	49.63
583.639	49.71
583.977	49.75
584.316	49.83
584.654	49.86
584.993	49.91
585.332	50
585.67	50.05
586.008	50.11
586.347	50.21
586.685	50.28
587.024	50.32
587.362	50.38
587.7	50.62
588.038	50.73
588.376	50.81
588.715	50.8
589.053	50.96
589.391	51.02
589.729	51.06
590.067	51.13
590.404	51.22
590.742	51.27
591.08	51.36
591.418	51.35
591.756	51.43
592.093	51.5
592.431	51.54
592.769	51.63
593.106	51.73
593.444	51.85
593.781	51.95
594.119	51.95
594.456	51.99
594.793	51.99
595.131	52.04
595.468	52.03
595.805	52.09
596.143	52.12
596.48	52.18
596.817	52.16
597.154	52.19
597.491	52.28
597.828	52.28
598.165	52.25
598.502	52.37
598.839	52.46
599.176	52.48
599.512	52.49
599.849	52.53
600.186	52.63
600.523	52.58
600.859	52.6
601.196	52.7
601.532	52.82
601.869	52.85
602.205	52.85
602.542	52.93
602.878	53.02
603.215	53
603.551	53.03
603.887	53.1
604.223	53.2
604.56	53.24
604.896	53.33
605.232	53.41
605.568	53.41
605.904	53.43
606.24	53.48
606.576	53.55
606.912	53.57
607.248	53.52
607.583	53.6
607.919	53.64
608.255	53.68
608.591	53.72
608.926	53.72
609.262	53.77
609.597	53.8
609.933	53.79
610.268	53.84
610.604	53.85
610.939	53.98
611.275	53.98
611.61	53.99
611.945	54.02
612.281	54.07
612.616	54.18
612.951	54.13
613.286	54.17
613.621	54.22
613.956	54.31
614.291	54.3
614.626	54.35
614.961	54.36
615.296	54.38
615.631	54.39
615.966	54.41
616.3	54.41
616.635	54.41
616.97	54.42
617.304	54.49
617.639	54.62
617.973	54.58
618.308	54.62
618.642	54.6
618.977	54.63
619.311	54.59
619.646	54.64
619.98	54.69
620.314	54.74
620.648	54.68
620.983	54.68
621.317	54.75
621.651	54.74
621.985	54.84
622.319	54.85
622.653	54.85
622.987	54.9
623.321	54.96
623.655	55.01
623.988	55.06
624.322	55.04
624.656	54.93
624.99	55
625.323	55
625.657	55.06
625.99	55.1
626.324	55.08
626.657	55.01
626.991	55.01
627.324	54.98
627.658	55.07
627.991	55.08
628.324	55.09
628.657	55.16
628.991	55.17
629.324	55.2
629.657	55.17
629.99	55.23
630.323	55.22
630.656	55.2
630.989	55.19
631.322	55.25
631.655	55.35
631.987	55.31
632.32	55.28
632.653	55.32
632.986	55.24
633.318	55.27
633.651	55.38
633.984	55.37
634.316	55.41
634.649	55.35
634.981	55.34
635.313	55.39
635.646	55.41
635.978	55.41
636.31	55.31
636.643	55.37
636.975	55.35
637.307	55.44
637.639	55.48
637.971	55.55
638.303	55.5
638.635	55.6
638.967	55.69
639.299	55.83
639.631	55.77
639.963	55.89
640.295	55.98
640.626	55.88
640.958	55.99
641.29	56.04
641.621	56.11
641.953	56.03
642.285	56.09
642.616	56.06
642.948	56.06
643.279	56.13
643.61	56.13
643.942	56.16
644.273	56.19
644.604	56.21
644.936	56.18
645.267	56.22
645.598	56.11
645.929	56.03
646.26	55.91
646.591	55.95
646.922	55.98
647.253	56.03
647.584	56.13
647.915	56.11
648.245	56.18
648.576	56.12
648.907	56.23
649.238	56.2
649.568	56.2
649.899	56.21
650.229	56.24
650.56	56.34
650.89	56.32
651.221	56.24
651.551	56.18
651.882	56.21
652.212	56.21
652.542	56.26
652.872	56.27
653.203	56.36
653.533	56.32
653.863	56.28
654.193	56.12
654.523	56.09
654.853	56.06
655.183	56.11
655.513	56.18
655.843	56.1
656.172	56.2
656.502	56.17
656.832	56.11
657.162	56.13
657.491	56.06
657.821	56.13
658.15	56.21
658.48	56.36
658.809	56.36
659.139	56.33
659.468	56.28
659.798	56.29
660.127	56.24
660.456	56.3
660.785	56.29
661.115	56.39
661.444	56.39
661.773	56.4
662.102	56.32
662.431	56.31
662.76	56.37
663.089	56.31
663.418	56.3
663.747	56.39
664.076	56.38
664.404	56.31
664.733	56.2
665.062	56.22
665.39	56.24
665.719	56.14
666.048	56.22
666.376	56.27
666.705	56.33
667.033	56.44
667.362	56.59
667.69	56.6
668.018	56.68
668.347	56.79
