Data from BU26846_Reflection_00015.txt Node
Date: Mon Nov 18 16:33:50 EST 2019
User: vgr7
Spectrometer: USB2G7710
Scans to average: 3
Trigger mode: 4
Integration Time (sec): 2.000000E-2
Electric dark correction enabled: true
Boxcar width: 10
XAxis mode: Wavelengths
Number of Pixels in Spectrum: 2048
>>>>>Begin Spectral Data<<<<<
177.721	-154.8
178.105	590.57
178.488	-1121.37
178.871	187.58
179.254	61.87
179.636	0.68
180.019	14.98
180.402	124.24
180.785	11.94
181.168	140.64
181.55	75.5
181.933	81
182.316	100.83
182.698	95.55
183.081	95.38
183.463	82.64
183.846	502.75
184.228	323.71
184.611	637.7
184.993	1673.03
185.376	-1528.87
185.758	2578.87
186.14	273.05
186.522	182.83
186.904	109.05
187.287	54.25
187.669	69.49
188.051	77.71
188.433	85.98
188.815	80.94
189.197	39.89
189.579	45.13
189.961	44.99
190.342	37.68
190.724	11.82
191.106	-205.34
191.488	-45.65
191.869	-24.79
192.251	-12.09
192.633	-13.42
193.014	6.9
193.396	9.37
193.777	10.71
194.159	-3.62
194.54	8.08
194.922	3.9
195.303	32.86
195.684	10.18
196.065	-85.5
196.447	-100.47
196.828	-73.91
197.209	-75.53
197.59	-12.04
197.971	65.28
198.352	70.22
198.733	64.41
199.114	78.96
199.495	149.16
199.876	-633.67
200.257	-332.3
200.638	-165.81
201.018	-174.17
201.399	-104.47
201.78	-35.6
202.16	-37.55
202.541	-48.55
202.922	-64.98
203.302	-63.03
203.683	-90.61
204.063	-168.96
204.444	-125.38
204.824	-100.62
205.204	-93.06
205.585	-97.78
205.965	-40.68
206.345	-27.03
206.725	-28.44
207.106	-56
207.486	-77.5
207.866	-106.86
208.246	-173.76
208.626	-157.16
209.006	-77.93
209.386	-116.34
209.766	-134.89
210.145	-126.03
210.525	-82.01
210.905	-75.76
211.285	-1.9
211.664	36.73
212.044	76.03
212.424	107.82
212.803	93.89
213.183	117.64
213.562	75.44
213.942	120.33
214.321	120.47
214.701	158.58
215.08	333.58
215.459	454.79
215.838	329.19
216.218	314.57
216.597	508.5
216.976	445.4
217.355	416.28
217.734	293.93
218.113	292.92
218.492	485.05
218.871	11883.78
219.25	441.31
219.629	1108.45
220.008	-2331.14
220.387	10262.16
220.766	624.33
221.144	4985.25
221.523	-2049.07
221.902	-813.65
222.28	-2109.79
222.659	341.76
223.037	115.87
223.416	124.56
223.794	98.89
224.173	53.23
224.551	21.49
224.929	14.8
225.308	26.03
225.686	30.34
226.064	26
226.442	19
226.821	21.26
227.199	13.2
227.577	8.54
227.955	9.88
228.333	9.04
228.711	9.04
229.089	15.02
229.467	12.64
229.845	11.01
230.222	10.72
230.6	14.64
230.978	11.4
231.356	9.65
231.733	9.93
232.111	13.08
232.488	13.57
232.866	13.47
233.243	12.26
233.621	10.23
233.998	10.04
234.376	9.74
234.753	8.73
235.13	8.3
235.508	11.05
235.885	6.79
236.262	6.34
236.639	6.8
237.016	6.49
237.393	6.74
237.77	7.52
238.147	7.26
238.524	6.38
238.901	6.9
239.278	7.73
239.655	7.97
240.032	7.8
240.409	7.17
240.785	7.08
241.162	6.65
241.539	6.91
241.915	6.93
242.292	6.77
242.668	7.07
243.045	7.54
243.421	7.05
243.798	7.19
244.174	7.37
244.551	6.59
244.927	5.98
245.303	6.09
245.679	5.81
246.056	5.65
246.432	5.76
246.808	5.95
247.184	5.59
247.56	5.33
247.936	5.04
248.312	5.23
248.688	5.26
249.064	5.34
249.44	5.51
249.815	5.53
250.191	5.59
250.567	5.19
250.943	4.88
251.318	5.19
251.694	5.44
252.069	4.95
252.445	5.25
252.82	5.41
253.196	5.06
253.571	4.95
253.947	4.72
254.322	4.48
254.697	4.01
255.073	3.98
255.448	4.03
255.823	4.11
256.198	4.11
256.573	3.77
256.948	3.73
257.323	3.59
257.698	3.66
258.073	3.58
258.448	3.74
258.823	3.88
259.198	3.75
259.573	3.66
259.948	3.95
260.322	3.91
260.697	3.97
261.072	4.03
261.446	4.08
261.821	4.13
262.195	4.19
262.57	4.22
262.944	4.15
263.319	4.14
263.693	3.86
264.067	3.85
264.442	4.02
264.816	4.19
265.19	4.23
265.564	4.07
265.938	4.04
266.313	4.01
266.687	3.98
267.061	4.11
267.435	4.16
267.809	4.03
268.183	4.11
268.556	4.13
268.93	4.13
269.304	4.27
269.678	4.36
270.051	4.23
270.425	4.4
270.799	4.58
271.172	4.79
271.546	5.12
271.919	5.09
272.293	4.97
272.666	4.8
273.04	4.74
273.413	4.82
273.787	4.86
274.16	4.78
274.533	4.76
274.906	4.67
275.279	4.71
275.653	4.78
276.026	4.7
276.399	4.75
276.772	4.89
277.145	4.87
277.518	4.85
277.891	4.94
278.263	4.58
278.636	4.43
279.009	4.32
279.382	4.36
279.755	4.38
280.127	4.6
280.5	4.6
280.872	4.69
281.245	4.59
281.617	4.71
281.99	4.84
282.362	4.95
282.735	4.78
283.107	4.64
283.479	4.56
283.852	4.51
284.224	4.42
284.596	4.25
284.968	4.22
285.34	4.28
285.713	4.25
286.085	4.44
286.457	4.57
286.829	4.58
287.201	4.47
287.572	4.44
287.944	4.36
288.316	4.33
288.688	4.32
289.06	4.42
289.431	4.35
289.803	4.24
290.175	4.22
290.546	4.43
290.918	4.52
291.289	4.56
291.661	4.71
292.032	4.76
292.403	4.88
292.775	5.01
293.146	4.9
293.517	4.89
293.889	4.79
294.26	4.72
294.631	4.62
295.002	4.71
295.373	4.78
295.744	4.76
296.115	4.72
296.486	4.55
296.857	4.65
297.228	4.65
297.599	4.72
297.97	4.79
298.34	4.71
298.711	4.78
299.082	4.78
299.452	4.78
299.823	4.87
300.194	4.83
300.564	4.69
300.935	4.8
301.305	4.91
301.676	5.09
302.046	5.16
302.416	5.37
302.787	5.33
303.157	5.37
303.527	5.43
303.897	5.67
304.267	5.96
304.637	5.86
305.008	6.04
305.378	6.12
305.748	6.11
306.117	6.23
306.487	6.18
306.857	6.33
307.227	6.34
307.597	6.44
307.967	6.53
308.336	6.63
308.706	6.66
309.076	6.75
309.445	6.78
309.815	6.77
310.184	6.75
310.554	6.99
310.923	6.99
311.293	7.08
311.662	7.09
312.031	7.05
312.401	7.11
312.77	7.08
313.139	7.09
313.508	7.02
313.877	7.01
314.246	7.14
314.616	6.99
314.985	7.11
315.353	7.16
315.722	7.28
316.091	7.44
316.46	7.51
316.829	7.45
317.198	7.5
317.567	7.67
317.935	7.69
318.304	7.66
318.672	7.74
319.041	7.75
319.41	7.82
319.778	7.79
320.147	7.9
320.515	7.94
320.883	8.1
321.252	8.56
321.62	8.63
321.988	8.71
322.357	8.92
322.725	8.91
323.093	8.91
323.461	8.92
323.829	8.93
324.197	9.06
324.565	9.12
324.933	9.2
325.301	9.17
325.669	9.29
326.037	9.3
326.405	9.34
326.772	9.4
327.14	9.49
327.508	9.63
327.875	9.82
328.243	9.94
328.61	9.78
328.978	9.6
329.346	9.76
329.713	9.71
330.08	9.76
330.448	9.76
330.815	9.63
331.182	9.83
331.55	9.9
331.917	9.82
332.284	9.91
332.651	9.93
333.018	10.08
333.385	10.04
333.752	10.17
334.119	10.16
334.486	10.18
334.853	10.14
335.22	10.09
335.587	9.94
335.954	9.96
336.32	10.13
336.687	10.18
337.054	10.14
337.42	10.23
337.787	10.3
338.153	10.28
338.52	10.45
338.886	10.25
339.253	10.27
339.619	10.26
339.986	10.31
340.352	10.28
340.718	10.28
341.084	10.35
341.451	10.27
341.817	10.4
342.183	10.39
342.549	10.4
342.915	10.46
343.281	10.49
343.647	10.48
344.013	10.54
344.379	10.49
344.745	10.54
345.11	10.59
345.476	10.64
345.842	10.71
346.208	10.75
346.573	10.97
346.939	11.08
347.304	11.2
347.67	11.11
348.035	11.13
348.401	11.11
348.766	11.1
349.132	11.02
349.497	10.99
349.862	11.08
350.228	11.12
350.593	11.05
350.958	11.01
351.323	10.98
351.688	10.94
352.053	11.03
352.418	10.95
352.783	10.98
353.148	10.87
353.513	10.91
353.878	10.84
354.243	10.82
354.608	10.74
354.972	10.67
355.337	10.74
355.702	10.77
356.066	10.75
356.431	10.73
356.795	10.82
357.16	10.75
357.524	10.65
357.889	10.64
358.253	10.73
358.618	10.72
358.982	10.65
359.346	10.6
359.71	10.54
360.075	10.55
360.439	10.44
360.803	10.47
361.167	10.43
361.531	10.45
361.895	10.37
362.259	10.33
362.623	10.3
362.987	10.23
363.351	10.19
363.714	10.18
364.078	10.13
364.442	10.04
364.806	10.02
365.169	9.96
365.533	9.94
365.896	9.83
366.26	9.83
366.623	9.79
366.987	9.77
367.35	9.82
367.714	9.71
368.077	9.65
368.44	9.58
368.803	9.44
369.167	9.34
369.53	9.26
369.893	9.2
370.256	9.12
370.619	9.09
370.982	8.93
371.345	8.82
371.708	8.74
372.071	8.65
372.434	8.53
372.797	8.53
373.159	8.47
373.522	8.41
373.885	8.31
374.247	8.26
374.61	8.21
374.973	8.07
375.335	8.05
375.698	7.97
376.06	7.85
376.423	7.81
376.785	7.75
377.147	7.65
377.51	7.57
377.872	7.54
378.234	7.47
378.596	7.45
378.958	7.39
379.321	7.36
379.683	7.36
380.045	7.32
380.407	7.22
380.769	7.12
381.13	7.1
381.492	7.06
381.854	7.02
382.216	6.97
382.578	6.89
382.939	6.8
383.301	6.72
383.663	6.65
384.024	6.64
384.386	6.59
384.747	6.58
385.109	6.52
385.47	6.45
385.832	6.45
386.193	6.47
386.554	6.41
386.916	6.38
387.277	6.35
387.638	6.34
387.999	6.27
388.36	6.26
388.721	6.21
389.082	6.17
389.443	6.18
389.804	6.11
390.165	6.06
390.526	6.03
390.887	5.98
391.248	6
391.609	5.96
391.969	5.96
392.33	5.94
392.691	5.9
393.051	5.87
393.412	5.75
393.772	5.65
394.133	5.62
394.493	5.57
394.854	5.53
395.214	5.47
395.574	5.49
395.935	5.42
396.295	5.36
396.655	5.29
397.015	5.21
397.376	5.19
397.736	5.16
398.096	5.12
398.456	5.12
398.816	5.07
399.176	5.03
399.535	4.99
399.895	4.93
400.255	4.94
400.615	4.9
400.975	4.88
401.334	4.87
401.694	4.85
402.054	4.82
402.413	4.76
402.773	4.73
403.132	4.69
403.492	4.68
403.851	4.67
404.211	4.68
404.57	4.65
404.929	4.63
405.288	4.63
405.648	4.6
406.007	4.56
406.366	4.53
406.725	4.51
407.084	4.48
407.443	4.46
407.802	4.44
408.161	4.45
408.52	4.41
408.879	4.41
409.238	4.41
409.596	4.39
409.955	4.39
410.314	4.38
410.673	4.36
411.031	4.33
411.39	4.28
411.748	4.27
412.107	4.28
412.465	4.25
412.824	4.24
413.182	4.22
413.54	4.24
413.899	4.24
414.257	4.23
414.615	4.19
414.974	4.17
415.332	4.12
415.69	4.08
416.048	4.07
416.406	4.06
416.764	4.03
417.122	4.04
417.48	4.01
417.838	3.98
418.195	3.98
418.553	3.96
418.911	3.95
419.269	3.93
419.626	3.91
419.984	3.89
420.342	3.87
420.699	3.87
421.057	3.86
421.414	3.83
421.772	3.8
422.129	3.81
422.486	3.81
422.844	3.81
423.201	3.79
423.558	3.78
423.915	3.77
424.273	3.76
424.63	3.74
424.987	3.74
425.344	3.72
425.701	3.7
426.058	3.7
426.415	3.7
426.772	3.69
427.128	3.67
427.485	3.69
427.842	3.65
428.199	3.65
428.555	3.66
428.912	3.68
429.269	3.67
429.625	3.65
429.982	3.65
430.338	3.65
430.695	3.67
431.051	3.66
431.407	3.65
431.764	3.65
432.12	3.62
432.476	3.61
432.832	3.61
433.189	3.61
433.545	3.62
433.901	3.61
434.257	3.61
434.613	3.63
434.969	3.58
435.325	3.6
435.681	3.6
436.036	3.57
436.392	3.56
436.748	3.57
437.104	3.59
437.459	3.58
437.815	3.57
438.171	3.58
438.526	3.6
438.882	3.61
439.237	3.62
439.593	3.63
439.948	3.64
440.304	3.63
440.659	3.66
441.014	3.65
441.369	3.64
441.725	3.64
442.08	3.63
442.435	3.67
442.79	3.67
443.145	3.67
443.5	3.65
443.855	3.67
444.21	3.66
444.565	3.64
444.92	3.65
445.275	3.63
445.629	3.63
445.984	3.63
446.339	3.59
446.693	3.58
447.048	3.59
447.403	3.57
447.757	3.58
448.112	3.56
448.466	3.53
448.82	3.54
449.175	3.54
449.529	3.53
449.883	3.5
450.238	3.48
450.592	3.48
450.946	3.47
451.3	3.44
451.654	3.43
452.008	3.42
452.362	3.4
452.716	3.4
453.07	3.4
453.424	3.38
453.778	3.41
454.132	3.41
454.486	3.4
454.839	3.38
455.193	3.39
455.547	3.38
455.9	3.4
456.254	3.4
456.607	3.38
456.961	3.39
457.314	3.39
457.668	3.39
458.021	3.37
458.375	3.39
458.728	3.39
459.081	3.38
459.434	3.38
459.787	3.41
460.141	3.4
460.494	3.38
460.847	3.39
461.2	3.38
461.553	3.39
461.906	3.39
462.259	3.42
462.611	3.43
462.964	3.43
463.317	3.44
463.67	3.45
464.022	3.47
464.375	3.48
464.728	3.5
465.08	3.52
465.433	3.55
465.785	3.56
466.138	3.59
466.49	3.61
466.843	3.62
467.195	3.62
467.547	3.66
467.899	3.7
468.252	3.73
468.604	3.77
468.956	3.76
469.308	3.8
469.66	3.8
470.012	3.82
470.364	3.85
470.716	3.86
471.068	3.87
471.42	3.89
471.772	3.96
472.123	3.99
472.475	4
472.827	4.02
473.178	4.01
473.53	4.02
473.882	4.05
474.233	4.07
474.585	4.08
474.936	4.05
475.288	4.05
475.639	4.04
475.99	4.04
476.342	4.06
476.693	4.05
477.044	4.05
477.395	4
477.746	3.97
478.097	3.95
478.448	3.94
478.8	3.9
479.15	3.85
479.501	3.82
479.852	3.8
480.203	3.79
480.554	3.79
480.905	3.78
481.255	3.76
481.606	3.74
481.957	3.73
482.307	3.74
482.658	3.73
483.009	3.72
483.359	3.71
483.709	3.7
484.06	3.69
484.41	3.69
484.761	3.7
485.111	3.7
485.461	3.7
485.811	3.69
486.162	3.7
486.512	3.7
486.862	3.7
487.212	3.7
487.562	3.69
487.912	3.68
488.262	3.68
488.612	3.69
488.961	3.69
489.311	3.69
489.661	3.69
490.011	3.69
490.36	3.69
490.71	3.69
491.06	3.7
491.409	3.71
491.759	3.71
492.108	3.72
492.458	3.73
492.807	3.73
493.157	3.75
493.506	3.77
493.855	3.8
494.204	3.82
494.554	3.83
494.903	3.85
495.252	3.88
495.601	3.89
495.95	3.92
496.299	3.94
496.648	3.97
496.997	4
497.346	4.05
497.695	4.12
498.043	4.16
498.392	4.2
498.741	4.24
499.09	4.29
499.438	4.34
499.787	4.38
500.135	4.46
500.484	4.51
500.832	4.57
501.181	4.63
501.529	4.7
501.878	4.8
502.226	4.89
502.574	4.99
502.923	5.08
503.271	5.17
503.619	5.26
503.967	5.36
504.315	5.46
504.663	5.58
505.011	5.7
505.359	5.81
505.707	5.94
506.055	6.09
506.403	6.22
506.751	6.35
507.098	6.51
507.446	6.66
507.794	6.82
508.141	6.97
508.489	7.13
508.837	7.31
509.184	7.49
509.531	7.65
509.879	7.86
510.226	8.05
510.574	8.26
510.921	8.49
511.268	8.68
511.616	8.89
511.963	9.12
512.31	9.33
512.657	9.6
513.004	9.88
513.351	10.16
513.698	10.46
514.045	10.77
514.392	11.06
514.739	11.38
515.086	11.69
515.432	12
515.779	12.3
516.126	12.62
516.473	12.92
516.819	13.21
517.166	13.48
517.512	13.77
517.859	14.04
518.205	14.29
518.552	14.61
518.898	14.87
519.245	15.13
519.591	15.4
519.937	15.67
520.283	15.96
520.629	16.26
520.976	16.58
521.322	16.92
521.668	17.27
522.014	17.63
522.36	17.98
522.706	18.34
523.052	18.75
523.398	19.16
523.743	19.57
524.089	20.02
524.435	20.41
524.781	20.78
525.126	21.15
525.472	21.49
525.817	21.75
526.163	22.05
526.509	22.3
526.854	22.54
527.199	22.77
527.545	22.97
527.89	23.19
528.235	23.39
528.581	23.59
528.926	23.81
529.271	23.98
529.616	24.2
529.961	24.43
530.306	24.65
530.651	24.9
530.996	25.14
531.341	25.35
531.686	25.59
532.031	25.84
532.376	26.08
532.721	26.32
533.065	26.61
533.41	26.87
533.755	27.17
534.099	27.45
534.444	27.72
534.788	28.01
535.133	28.26
535.477	28.54
535.822	28.84
536.166	29.15
536.51	29.52
536.855	29.87
537.199	30.19
537.543	30.52
537.887	30.84
538.231	31.21
538.576	31.56
538.92	31.89
539.264	32.21
539.608	32.49
539.951	32.78
540.295	33.01
540.639	33.29
540.983	33.51
541.327	33.75
541.671	34
542.014	34.22
542.358	34.45
542.701	34.65
543.045	34.86
543.389	35.08
543.732	35.26
544.075	35.48
544.419	35.69
544.762	35.92
545.105	36.16
545.449	36.42
545.792	36.71
546.135	37.01
546.478	37.29
546.821	37.6
547.165	37.89
547.508	38.19
547.851	38.44
548.194	38.73
548.536	39.03
548.879	39.27
549.222	39.57
549.565	39.87
549.908	40.17
550.25	40.47
550.593	40.71
550.936	41.02
551.278	41.25
551.621	41.56
551.963	41.83
552.306	42.11
552.648	42.25
552.991	42.45
553.333	42.59
553.675	42.77
554.017	42.99
554.36	43.22
554.702	43.41
555.044	43.61
555.386	43.78
555.728	43.93
556.07	44.13
556.412	44.3
556.754	44.5
557.096	44.69
557.438	44.9
557.78	45.14
558.121	45.3
558.463	45.55
558.805	45.69
559.147	45.88
559.488	46.02
559.83	46.27
560.171	46.44
560.513	46.63
560.854	46.81
561.196	46.97
561.537	47.13
561.878	47.26
562.22	47.43
562.561	47.63
562.902	47.87
563.243	48.08
563.584	48.28
563.925	48.37
564.266	48.49
564.607	48.66
564.948	48.81
565.289	48.94
565.63	49.07
565.971	49.2
566.312	49.29
566.653	49.38
566.993	49.45
567.334	49.52
567.675	49.63
568.015	49.75
568.356	49.79
568.696	49.88
569.037	50.02
569.377	50.13
569.718	50.2
570.058	50.22
570.398	50.31
570.739	50.36
571.079	50.49
571.419	50.61
571.759	50.67
572.099	50.74
572.439	50.8
572.779	50.91
573.119	50.99
573.459	51.15
573.799	51.23
574.139	51.33
574.479	51.42
574.819	51.49
575.158	51.58
575.498	51.72
575.838	51.84
576.177	51.92
576.517	52.01
576.856	52.1
577.196	52.26
577.535	52.35
577.875	52.47
578.214	52.59
578.553	52.72
578.893	52.81
579.232	52.89
579.571	53.05
579.91	53.09
580.25	53.17
580.589	53.15
580.928	53.29
581.267	53.37
581.606	53.51
581.945	53.6
582.283	53.72
582.622	53.81
582.961	53.92
583.3	54.01
583.639	54.12
583.977	54.27
584.316	54.35
584.654	54.44
584.993	54.47
585.332	54.52
585.67	54.54
586.008	54.59
586.347	54.66
586.685	54.71
587.024	54.8
587.362	54.92
587.7	55.05
588.038	55.14
588.376	55.17
588.715	55.23
589.053	55.34
589.391	55.37
589.729	55.49
590.067	55.48
590.404	55.57
590.742	55.66
591.08	55.72
591.418	55.81
591.756	55.91
592.093	56.01
592.431	56.06
592.769	56.1
593.106	56.22
593.444	56.31
593.781	56.34
594.119	56.43
594.456	56.51
594.793	56.57
595.131	56.55
595.468	56.62
595.805	56.73
596.143	56.77
596.48	56.82
596.817	56.79
597.154	56.91
597.491	56.95
597.828	56.92
598.165	56.9
598.502	56.95
598.839	56.98
599.176	57
599.512	57.1
599.849	57.2
600.186	57.23
600.523	57.31
600.859	57.34
601.196	57.34
601.532	57.31
601.869	57.39
602.205	57.51
602.542	57.53
602.878	57.48
603.215	57.49
603.551	57.56
603.887	57.6
604.223	57.56
604.56	57.53
604.896	57.57
605.232	57.62
605.568	57.57
605.904	57.61
606.24	57.73
606.576	57.69
606.912	57.75
607.248	57.81
607.583	57.79
607.919	57.86
608.255	57.89
608.591	58
608.926	57.96
609.262	57.98
609.597	58.1
609.933	58.17
610.268	58.24
610.604	58.26
610.939	58.32
611.275	58.34
611.61	58.47
611.945	58.52
612.281	58.61
612.616	58.76
612.951	58.73
613.286	58.79
613.621	58.84
613.956	58.91
614.291	58.91
614.626	59.06
614.961	59.12
615.296	59.1
615.631	59.1
615.966	59.14
616.3	59.12
616.635	59.09
616.97	59.1
617.304	59.09
617.639	59.08
617.973	59.12
618.308	59.2
618.642	59.2
618.977	59.2
619.311	59.15
619.646	59.16
619.98	59.27
620.314	59.21
620.648	59.35
620.983	59.3
621.317	59.32
621.651	59.31
621.985	59.32
622.319	59.44
622.653	59.46
622.987	59.5
623.321	59.61
623.655	59.7
623.988	59.77
624.322	59.94
624.656	59.96
624.99	60.02
625.323	60.09
625.657	60.13
625.99	60.26
626.324	60.3
626.657	60.39
626.991	60.43
627.324	60.41
627.658	60.41
627.991	60.45
628.324	60.5
628.657	60.48
628.991	60.5
629.324	60.52
629.657	60.48
629.99	60.48
630.323	60.46
630.656	60.42
630.989	60.33
631.322	60.2
631.655	60.22
631.987	60.23
632.32	60.24
632.653	60.2
632.986	60.21
633.318	60.19
633.651	60.06
633.984	60
634.316	60
634.649	59.97
634.981	59.93
635.313	59.92
635.646	59.9
635.978	59.95
636.31	60.01
636.643	60.12
636.975	60.17
637.307	60.17
637.639	60.23
637.971	60.37
638.303	60.46
638.635	60.49
638.967	60.51
639.299	60.59
639.631	60.67
639.963	60.68
640.295	60.82
640.626	60.84
640.958	60.82
641.29	60.92
641.621	60.92
641.953	60.95
642.285	60.97
642.616	61.06
642.948	61.06
643.279	61.06
643.61	61.12
643.942	61.09
644.273	61.19
644.604	61.22
644.936	61.21
645.267	61.14
645.598	61.22
645.929	61.22
646.26	61.06
646.591	61.1
646.922	61.05
647.253	61
647.584	61.02
647.915	61.09
648.245	61.14
648.576	61.27
648.907	61.36
649.238	61.39
649.568	61.5
649.899	61.53
650.229	61.42
650.56	61.32
650.89	61.35
651.221	61.23
651.551	61.17
651.882	61.15
652.212	61.2
652.542	61.13
652.872	61.18
653.203	61.28
653.533	61.22
653.863	61.2
654.193	61.2
654.523	61.28
654.853	61.3
655.183	61.21
655.513	61.11
655.843	61.12
656.172	61.24
656.502	61.22
656.832	61.23
657.162	61.29
657.491	61.27
657.821	61.32
658.15	61.35
658.48	61.41
658.809	61.46
659.139	61.49
659.468	61.55
659.798	61.48
660.127	61.47
660.456	61.54
660.785	61.69
661.115	61.59
661.444	61.55
661.773	61.64
662.102	61.65
662.431	61.7
662.76	61.62
663.089	61.54
663.418	61.5
663.747	61.45
664.076	61.5
664.404	61.65
664.733	61.7
665.062	61.7
665.39	61.65
