Data from BU26944_Reflection_00002.txt Node
Date: Tue Nov 19 10:54:30 EST 2019
User: vgr7
Spectrometer: USB2G7710
Scans to average: 3
Trigger mode: 4
Integration Time (sec): 2.000000E-2
Electric dark correction enabled: true
Boxcar width: 10
XAxis mode: Wavelengths
Number of Pixels in Spectrum: 2048
>>>>>Begin Spectral Data<<<<<
177.721	-33.23
178.105	33.63
178.488	107.08
178.871	185.71
179.254	-1220
179.636	-5.81
180.019	-125.15
180.402	-700
180.785	-41.18
181.168	-117.56
181.55	-118.88
181.933	7.46
182.316	2.86
182.698	-4.62
183.081	-1.37
183.463	19.06
183.846	100
184.228	38.3
184.611	-1197.3
184.993	-20
185.376	325.56
185.758	-478.31
186.14	-342.11
186.522	227.96
186.904	121.69
187.287	39.88
187.669	100
188.051	71.58
188.433	132.36
188.815	97.15
189.197	40.97
189.579	58.18
189.961	51.39
190.342	41.01
190.724	37.75
191.106	38.22
191.488	38.47
191.869	44.48
192.251	43.48
192.633	56.2
193.014	53.34
193.396	18.98
193.777	17.86
194.159	15.98
194.54	8.3
194.922	9.45
195.303	19.45
195.684	5.78
196.065	6.8
196.447	10.94
196.828	1.23
197.209	2.46
197.59	3.16
197.971	14.48
198.352	2.73
198.733	-26.34
199.114	-22.7
199.495	-20.13
199.876	-23.11
200.257	-27.1
200.638	-15.11
201.018	-35.24
201.399	-21.6
201.78	-25.3
202.16	-37.05
202.541	-23.41
202.922	-26.99
203.302	-27.38
203.683	-33.13
204.063	-26.81
204.444	-45.53
204.824	-43.24
205.204	-42.78
205.585	-50.08
205.965	-54.87
206.345	-16.16
206.725	5.83
207.106	32.82
207.486	37.24
207.866	45.4
208.246	34.92
208.626	25.8
209.006	34.09
209.386	41.91
209.766	52.09
210.145	52.87
210.525	39.21
210.905	47.96
211.285	38.37
211.664	37.75
212.044	17.91
212.424	29.37
212.803	21.22
213.183	13.99
213.562	35.08
213.942	41.44
214.321	-1.06
214.701	-3.66
215.08	-27.62
215.459	-11.93
215.838	-24.91
216.218	-65.3
216.597	-59.96
216.976	-92.35
217.355	-84.19
217.734	-127.01
218.113	-73.53
218.492	-82.78
218.871	-78.91
219.25	-106.14
219.629	-181.6
220.008	-213.12
220.387	-252.94
220.766	-119.6
221.144	-117.77
221.523	-174.22
221.902	-85.11
222.28	-39.16
222.659	0.71
223.037	14.5
223.416	7.9
223.794	6.88
224.173	8.82
224.551	19.91
224.929	27.78
225.308	21.96
225.686	23.88
226.064	21.27
226.442	15.67
226.821	19.03
227.199	22.79
227.577	22.35
227.955	22.75
228.333	22.74
228.711	17.94
229.089	16.62
229.467	16.51
229.845	8.63
230.222	7.72
230.6	4.12
230.978	3.21
231.356	2.44
231.733	3.35
232.111	4.42
232.488	1.97
232.866	2.97
233.243	2.4
233.621	2.52
233.998	0.58
234.376	2.55
234.753	1.81
235.13	1.76
235.508	1.16
235.885	1.74
236.262	0.73
236.639	1.16
237.016	0.7
237.393	2.69
237.77	4.95
238.147	5.3
238.524	5.64
238.901	5.21
239.278	4.44
239.655	4.32
240.032	3.86
240.409	3.59
240.785	3.56
241.162	3.92
241.539	3.69
241.915	3.81
242.292	3.56
242.668	3.12
243.045	3.31
243.421	3.66
243.798	4.13
244.174	4.19
244.551	4.24
244.927	4.61
245.303	4.34
245.679	4.05
246.056	3.94
246.432	3.79
246.808	4.05
247.184	4.25
247.56	4.02
247.936	4.33
248.312	4.58
248.688	4.57
249.064	4.77
249.44	4.77
249.815	4.81
250.191	4.76
250.567	4.9
250.943	4.95
251.318	4.96
251.694	4.49
252.069	4.52
252.445	4.37
252.82	3.96
253.196	3.89
253.571	4.13
253.947	4.27
254.322	4.13
254.697	4.04
255.073	3.82
255.448	3.88
255.823	3.67
256.198	3.55
256.573	3.54
256.948	3.41
257.323	3.41
257.698	3.34
258.073	3.32
258.448	3.25
258.823	2.97
259.198	2.95
259.573	2.92
259.948	3.13
260.322	3.2
260.697	3.38
261.072	3.44
261.446	3.32
261.821	3.2
262.195	3.19
262.57	3.28
262.944	3.43
263.319	3.44
263.693	3.32
264.067	3.26
264.442	3.26
264.816	3.23
265.19	3.14
265.564	3.18
265.938	3.24
266.313	3.31
266.687	3.39
267.061	3.24
267.435	3.36
267.809	3.12
268.183	3.08
268.556	2.93
268.93	3.01
269.304	3.06
269.678	3.11
270.051	3.06
270.425	2.86
270.799	2.64
271.172	2.69
271.546	2.94
271.919	3.02
272.293	3.1
272.666	3.11
273.04	3.22
273.413	3.15
273.787	3.1
274.16	3.07
274.533	3.18
274.906	3.27
275.279	3.33
275.653	3.24
276.026	3.27
276.399	3.35
276.772	3.27
277.145	3.13
277.518	3.03
277.891	3.06
278.263	3.24
278.636	3.37
279.009	3.31
279.382	3.05
279.755	3.03
280.127	2.94
280.5	2.92
280.872	3.01
281.245	3.09
281.617	3.08
281.99	3.21
282.362	3.15
282.735	3.01
283.107	2.88
283.479	2.82
283.852	2.71
284.224	2.79
284.596	2.78
284.968	2.77
285.34	2.89
285.713	2.92
286.085	2.8
286.457	2.73
286.829	2.81
287.201	2.93
287.572	3.02
287.944	3.06
288.316	3.03
288.688	3.03
289.06	3.09
289.431	3.12
289.803	3.14
290.175	3.15
290.546	3.22
290.918	3.31
291.289	3.29
291.661	3.39
292.032	3.39
292.403	3.45
292.775	3.6
293.146	3.53
293.517	3.57
293.889	3.58
294.26	3.58
294.631	3.48
295.002	3.4
295.373	3.33
295.744	3.28
296.115	3.28
296.486	3.15
296.857	3.09
297.228	3.05
297.599	2.99
297.97	2.99
298.34	3.13
298.711	3.16
299.082	3.23
299.452	3.24
299.823	3.13
300.194	3.18
300.564	2.99
300.935	3.11
301.305	3.18
301.676	3.03
302.046	3.03
302.416	3.1
302.787	3.02
303.157	2.87
303.527	2.94
303.897	2.99
304.267	3.11
304.637	3.14
305.008	3.27
305.378	3.21
305.748	3.2
306.117	3.11
306.487	3.09
306.857	3.16
307.227	3.13
307.597	3.09
307.967	2.99
308.336	3.04
308.706	2.74
309.076	2.69
309.445	2.88
309.815	2.86
310.184	2.91
310.554	2.89
310.923	2.93
311.293	2.78
311.662	2.74
312.031	2.68
312.401	2.62
312.77	2.54
313.139	2.54
313.508	2.63
313.877	2.54
314.246	2.57
314.616	2.55
314.985	2.55
315.353	2.63
315.722	2.56
316.091	2.52
316.46	2.66
316.829	2.69
317.198	2.71
317.567	2.86
317.935	2.81
318.304	3.03
318.672	3.14
319.041	3.29
319.41	3.24
319.778	3.36
320.147	3.26
320.515	3.29
320.883	3.26
321.252	3.22
321.62	3.35
321.988	3.22
322.357	3.25
322.725	3.28
323.093	3.22
323.461	3.23
323.829	3.27
324.197	3.3
324.565	3.14
324.933	3.13
325.301	2.96
325.669	2.88
326.037	2.81
326.405	2.76
326.772	2.64
327.14	2.68
327.508	2.58
327.875	2.76
328.243	2.77
328.61	2.78
328.978	2.72
329.346	2.6
329.713	2.69
330.08	2.63
330.448	2.53
330.815	2.57
331.182	2.63
331.55	2.7
331.917	2.7
332.284	2.84
332.651	2.76
333.018	2.75
333.385	2.97
333.752	2.9
334.119	2.94
334.486	3.02
334.853	3.02
335.22	3.1
335.587	3.05
335.954	2.92
336.32	2.85
336.687	2.97
337.054	2.99
337.42	2.94
337.787	2.97
338.153	3.05
338.52	3.08
338.886	3.03
339.253	2.97
339.619	2.96
339.986	2.87
340.352	2.89
340.718	2.94
341.084	2.79
341.451	2.8
341.817	2.8
342.183	2.75
342.549	2.75
342.915	2.67
343.281	2.66
343.647	2.71
344.013	2.82
344.379	2.77
344.745	2.83
345.11	2.85
345.476	2.89
345.842	2.92
346.208	2.95
346.573	2.95
346.939	3.04
347.304	3.05
347.67	3.06
348.035	3.09
348.401	3.1
348.766	3.09
349.132	3.09
349.497	3.13
349.862	3.15
350.228	3.09
350.593	3.05
350.958	3.06
351.323	3.03
351.688	3.04
352.053	3
352.418	2.86
352.783	2.82
353.148	2.8
353.513	2.8
353.878	2.77
354.243	2.73
354.608	2.76
354.972	2.77
355.337	2.81
355.702	2.67
356.066	2.62
356.431	2.67
356.795	2.7
357.16	2.64
357.524	2.67
357.889	2.75
358.253	2.83
358.618	2.77
358.982	2.76
359.346	2.76
359.71	2.71
360.075	2.81
360.439	2.88
360.803	2.84
361.167	2.75
361.531	2.74
361.895	2.75
362.259	2.69
362.623	2.68
362.987	2.62
363.351	2.7
363.714	2.77
364.078	2.74
364.442	2.68
364.806	2.72
365.169	2.74
365.533	2.7
365.896	2.66
366.26	2.71
366.623	2.72
366.987	2.67
367.35	2.73
367.714	2.72
368.077	2.72
368.44	2.73
368.803	2.76
369.167	2.72
369.53	2.8
369.893	2.77
370.256	2.75
370.619	2.79
370.982	2.73
371.345	2.73
371.708	2.76
372.071	2.79
372.434	2.75
372.797	2.74
373.159	2.78
373.522	2.79
373.885	2.82
374.247	2.82
374.61	2.83
374.973	2.81
375.335	2.86
375.698	2.85
376.06	2.86
376.423	2.87
376.785	2.89
377.147	2.81
377.51	2.87
377.872	2.87
378.234	2.92
378.596	3
378.958	2.97
379.321	2.97
379.683	2.97
380.045	2.97
380.407	2.96
380.769	2.92
381.13	2.93
381.492	2.87
381.854	2.91
382.216	2.88
382.578	2.87
382.939	2.81
383.301	2.79
383.663	2.81
384.024	2.85
384.386	2.85
384.747	2.86
385.109	2.86
385.47	2.87
385.832	2.81
386.193	2.77
386.554	2.76
386.916	2.76
387.277	2.75
387.638	2.76
387.999	2.72
388.36	2.77
388.721	2.74
389.082	2.79
389.443	2.79
389.804	2.8
390.165	2.84
390.526	2.85
390.887	2.84
391.248	2.85
391.609	2.84
391.969	2.88
392.33	2.87
392.691	2.85
393.051	2.85
393.412	2.85
393.772	2.88
394.133	2.89
394.493	2.86
394.854	2.91
395.214	2.91
395.574	2.92
395.935	2.88
396.295	2.93
396.655	2.89
397.015	2.92
397.376	2.95
397.736	2.9
398.096	2.91
398.456	2.92
398.816	2.86
399.176	2.79
399.535	2.78
399.895	2.81
400.255	2.82
400.615	2.82
400.975	2.81
401.334	2.82
401.694	2.82
402.054	2.83
402.413	2.82
402.773	2.8
403.132	2.82
403.492	2.83
403.851	2.81
404.211	2.8
404.57	2.79
404.929	2.77
405.288	2.78
405.648	2.8
406.007	2.81
406.366	2.84
406.725	2.89
407.084	2.87
407.443	2.88
407.802	2.85
408.161	2.87
408.52	2.89
408.879	2.88
409.238	2.9
409.596	2.89
409.955	2.89
410.314	2.91
410.673	2.9
411.031	2.88
411.39	2.92
411.748	2.95
412.107	2.92
412.465	2.91
412.824	2.93
413.182	2.91
413.54	2.89
413.899	2.88
414.257	2.88
414.615	2.88
414.974	2.86
415.332	2.89
415.69	2.89
416.048	2.89
416.406	2.88
416.764	2.91
417.122	2.9
417.48	2.89
417.838	2.89
418.195	2.88
418.553	2.9
418.911	2.89
419.269	2.87
419.626	2.89
419.984	2.89
420.342	2.9
420.699	2.9
421.057	2.9
421.414	2.91
421.772	2.91
422.129	2.91
422.486	2.91
422.844	2.91
423.201	2.9
423.558	2.91
423.915	2.91
424.273	2.89
424.63	2.91
424.987	2.93
425.344	2.93
425.701	2.92
426.058	2.93
426.415	2.92
426.772	2.92
427.128	2.93
427.485	2.94
427.842	2.93
428.199	2.93
428.555	2.93
428.912	2.94
429.269	2.92
429.625	2.92
429.982	2.92
430.338	2.92
430.695	2.91
431.051	2.91
431.407	2.91
431.764	2.91
432.12	2.9
432.476	2.89
432.832	2.89
433.189	2.93
433.545	2.92
433.901	2.93
434.257	2.92
434.613	2.89
434.969	2.88
435.325	2.9
435.681	2.89
436.036	2.9
436.392	2.91
436.748	2.93
437.104	2.94
437.459	2.95
437.815	2.95
438.171	2.96
438.526	2.96
438.882	2.96
439.237	2.93
439.593	2.95
439.948	2.95
440.304	2.94
440.659	2.92
441.014	2.93
441.369	2.94
441.725	2.95
442.08	2.97
442.435	2.97
442.79	2.96
443.145	2.98
443.5	2.97
443.855	2.97
444.21	2.95
444.565	2.95
444.92	2.95
445.275	2.94
445.629	2.96
445.984	2.98
446.339	2.98
446.693	3
447.048	2.97
447.403	2.96
447.757	2.96
448.112	2.97
448.466	2.96
448.82	2.95
449.175	2.96
449.529	2.96
449.883	2.96
450.238	2.96
450.592	2.95
450.946	2.97
451.3	2.95
451.654	2.96
452.008	2.96
452.362	2.96
452.716	2.96
453.07	2.95
453.424	2.93
453.778	2.94
454.132	2.93
454.486	2.93
454.839	2.95
455.193	2.94
455.547	2.93
455.9	2.93
456.254	2.94
456.607	2.95
456.961	2.95
457.314	2.94
457.668	2.94
458.021	2.95
458.375	2.94
458.728	2.95
459.081	2.96
459.434	2.95
459.787	2.96
460.141	2.95
460.494	2.96
460.847	2.97
461.2	2.96
461.553	2.96
461.906	2.96
462.259	2.96
462.611	2.99
462.964	2.99
463.317	3.02
463.67	3.02
464.022	3.02
464.375	3.01
464.728	3
465.08	2.99
465.433	2.99
465.785	3.01
466.138	2.99
466.49	2.98
466.843	2.99
467.195	3
467.547	3
467.899	2.99
468.252	2.98
468.604	2.99
468.956	3.02
469.308	3.03
469.66	3.03
470.012	3.03
470.364	3.04
470.716	3.03
471.068	3.01
471.42	3.02
471.772	3.04
472.123	3.07
472.475	3.1
472.827	3.1
473.178	3.1
473.53	3.11
473.882	3.14
474.233	3.15
474.585	3.14
474.936	3.14
475.288	3.13
475.639	3.12
475.99	3.11
476.342	3.11
476.693	3.11
477.044	3.09
477.395	3.09
477.746	3.06
478.097	3.05
478.448	3.05
478.8	3.04
479.15	3.03
479.501	3.02
479.852	3.01
480.203	3.01
480.554	3.01
480.905	3.02
481.255	3.01
481.606	3.02
481.957	3.02
482.307	3.04
482.658	3.05
483.009	3.06
483.359	3.07
483.709	3.06
484.06	3.07
484.41	3.08
484.761	3.08
485.111	3.09
485.461	3.1
485.811	3.11
486.162	3.11
486.512	3.11
486.862	3.11
487.212	3.12
487.562	3.12
487.912	3.12
488.262	3.12
488.612	3.11
488.961	3.11
489.311	3.13
489.661	3.12
490.011	3.13
490.36	3.12
490.71	3.12
491.06	3.13
491.409	3.12
491.759	3.12
492.108	3.12
492.458	3.13
492.807	3.12
493.157	3.14
493.506	3.14
493.855	3.14
494.204	3.14
494.554	3.14
494.903	3.14
495.252	3.14
495.601	3.16
495.95	3.17
496.299	3.16
496.648	3.16
496.997	3.15
497.346	3.15
497.695	3.16
498.043	3.17
498.392	3.15
498.741	3.16
499.09	3.17
499.438	3.18
499.787	3.17
500.135	3.18
500.484	3.15
500.832	3.14
501.181	3.15
501.529	3.18
501.878	3.19
502.226	3.2
502.574	3.2
502.923	3.19
503.271	3.19
503.619	3.17
503.967	3.18
504.315	3.18
504.663	3.17
505.011	3.16
505.359	3.15
505.707	3.18
506.055	3.15
506.403	3.16
506.751	3.13
507.098	3.14
507.446	3.12
507.794	3.14
508.141	3.14
508.489	3.13
508.837	3.12
509.184	3.11
509.531	3.11
509.879	3.11
510.226	3.12
510.574	3.12
510.921	3.13
511.268	3.14
511.616	3.15
511.963	3.16
512.31	3.15
512.657	3.16
513.004	3.15
513.351	3.17
513.698	3.17
514.045	3.2
514.392	3.21
514.739	3.21
515.086	3.22
515.432	3.24
515.779	3.22
516.126	3.25
516.473	3.24
516.819	3.24
517.166	3.24
517.512	3.23
517.859	3.25
518.205	3.24
518.552	3.23
518.898	3.22
519.245	3.22
519.591	3.25
519.937	3.25
520.283	3.26
520.629	3.27
520.976	3.27
521.322	3.27
521.668	3.27
522.014	3.28
522.36	3.28
522.706	3.27
523.052	3.29
523.398	3.27
523.743	3.29
524.089	3.31
524.435	3.3
524.781	3.31
525.126	3.3
525.472	3.31
525.817	3.3
526.163	3.29
526.509	3.3
526.854	3.3
527.199	3.32
527.545	3.31
527.89	3.31
528.235	3.31
528.581	3.3
528.926	3.31
529.271	3.3
529.616	3.31
529.961	3.32
530.306	3.33
530.651	3.33
530.996	3.33
531.341	3.33
531.686	3.33
532.031	3.34
532.376	3.34
532.721	3.33
533.065	3.35
533.41	3.37
533.755	3.37
534.099	3.38
534.444	3.37
534.788	3.38
535.133	3.39
535.477	3.4
535.822	3.4
536.166	3.4
536.51	3.41
536.855	3.4
537.199	3.39
537.543	3.39
537.887	3.39
538.231	3.37
538.576	3.39
538.92	3.39
539.264	3.37
539.608	3.38
539.951	3.39
540.295	3.4
540.639	3.39
540.983	3.4
541.327	3.4
541.671	3.4
542.014	3.39
542.358	3.39
542.701	3.4
543.045	3.4
543.389	3.41
543.732	3.41
544.075	3.43
544.419	3.44
544.762	3.43
545.105	3.44
545.449	3.46
545.792	3.45
546.135	3.45
546.478	3.46
546.821	3.47
547.165	3.47
547.508	3.47
547.851	3.47
548.194	3.46
548.536	3.45
548.879	3.44
549.222	3.45
549.565	3.44
549.908	3.43
550.25	3.43
550.593	3.42
550.936	3.4
551.278	3.38
551.621	3.4
551.963	3.4
552.306	3.4
552.648	3.39
552.991	3.38
553.333	3.38
553.675	3.42
554.017	3.42
554.36	3.41
554.702	3.42
555.044	3.44
555.386	3.45
555.728	3.44
556.07	3.44
556.412	3.45
556.754	3.43
557.096	3.41
557.438	3.41
557.78	3.42
558.121	3.45
558.463	3.43
558.805	3.43
559.147	3.46
559.488	3.44
559.83	3.46
560.171	3.46
560.513	3.46
560.854	3.44
561.196	3.42
561.537	3.44
561.878	3.44
562.22	3.45
562.561	3.44
562.902	3.46
563.243	3.48
563.584	3.46
563.925	3.5
564.266	3.53
564.607	3.53
564.948	3.52
565.289	3.52
565.63	3.53
565.971	3.53
566.312	3.51
566.653	3.52
566.993	3.5
567.334	3.56
567.675	3.56
568.015	3.55
568.356	3.53
568.696	3.51
569.037	3.5
569.377	3.51
569.718	3.51
570.058	3.5
570.398	3.48
570.739	3.49
571.079	3.48
571.419	3.45
571.759	3.46
572.099	3.48
572.439	3.47
572.779	3.48
573.119	3.46
573.459	3.48
573.799	3.47
574.139	3.46
574.479	3.43
574.819	3.45
575.158	3.45
575.498	3.46
575.838	3.45
576.177	3.45
576.517	3.45
576.856	3.46
577.196	3.47
577.535	3.49
577.875	3.46
578.214	3.47
578.553	3.5
578.893	3.49
579.232	3.46
579.571	3.46
579.91	3.45
580.25	3.49
580.589	3.47
580.928	3.48
581.267	3.52
581.606	3.51
581.945	3.48
582.283	3.47
582.622	3.49
582.961	3.51
583.3	3.55
583.639	3.49
583.977	3.45
584.316	3.45
584.654	3.45
584.993	3.5
585.332	3.53
585.67	3.54
586.008	3.53
586.347	3.55
586.685	3.5
587.024	3.51
587.362	3.48
587.7	3.48
588.038	3.51
588.376	3.49
588.715	3.5
589.053	3.51
589.391	3.53
589.729	3.5
590.067	3.49
590.404	3.44
590.742	3.49
591.08	3.49
591.418	3.49
591.756	3.47
592.093	3.47
592.431	3.45
592.769	3.44
593.106	3.44
593.444	3.45
593.781	3.5
594.119	3.53
594.456	3.54
594.793	3.52
595.131	3.5
595.468	3.52
595.805	3.54
596.143	3.56
596.48	3.52
596.817	3.53
597.154	3.55
597.491	3.57
597.828	3.54
598.165	3.57
598.502	3.57
598.839	3.58
599.176	3.61
599.512	3.59
599.849	3.59
600.186	3.61
600.523	3.58
600.859	3.58
601.196	3.56
601.532	3.56
601.869	3.54
602.205	3.53
602.542	3.52
602.878	3.51
603.215	3.5
603.551	3.52
603.887	3.56
604.223	3.55
604.56	3.52
604.896	3.54
605.232	3.55
605.568	3.57
605.904	3.54
606.24	3.53
606.576	3.53
606.912	3.53
607.248	3.54
607.583	3.54
607.919	3.52
608.255	3.52
608.591	3.54
608.926	3.6
609.262	3.57
609.597	3.57
609.933	3.54
610.268	3.53
610.604	3.52
610.939	3.5
611.275	3.54
611.61	3.57
611.945	3.54
612.281	3.52
612.616	3.5
612.951	3.52
613.286	3.49
613.621	3.49
613.956	3.52
614.291	3.52
614.626	3.52
614.961	3.55
615.296	3.55
615.631	3.52
615.966	3.45
616.3	3.52
616.635	3.5
616.97	3.55
617.304	3.56
617.639	3.61
617.973	3.55
618.308	3.51
618.642	3.49
618.977	3.53
619.311	3.52
619.646	3.52
619.98	3.56
620.314	3.51
620.648	3.53
620.983	3.52
621.317	3.5
621.651	3.47
621.985	3.41
622.319	3.41
622.653	3.41
622.987	3.43
623.321	3.43
623.655	3.45
623.988	3.44
624.322	3.49
624.656	3.49
624.99	3.54
625.323	3.55
625.657	3.58
625.99	3.58
626.324	3.57
626.657	3.58
626.991	3.56
627.324	3.59
627.658	3.58
627.991	3.6
628.324	3.6
628.657	3.63
628.991	3.67
629.324	3.65
629.657	3.66
629.99	3.69
630.323	3.69
630.656	3.72
630.989	3.7
631.322	3.67
631.655	3.61
631.987	3.6
632.32	3.63
632.653	3.63
632.986	3.61
633.318	3.64
633.651	3.62
633.984	3.63
634.316	3.63
634.649	3.6
634.981	3.57
635.313	3.59
635.646	3.58
635.978	3.6
636.31	3.61
636.643	3.62
636.975	3.6
637.307	3.64
637.639	3.6
637.971	3.6
638.303	3.59
638.635	3.65
638.967	3.64
639.299	3.63
639.631	3.63
639.963	3.65
640.295	3.63
640.626	3.66
640.958	3.65
641.29	3.68
641.621	3.71
641.953	3.66
642.285	3.7
642.616	3.73
642.948	3.73
643.279	3.75
643.61	3.81
643.942	3.82
644.273	3.76
644.604	3.71
644.936	3.71
645.267	3.7
645.598	3.64
645.929	3.66
646.26	3.6
646.591	3.59
646.922	3.61
647.253	3.61
647.584	3.64
647.915	3.67
648.245	3.67
648.576	3.71
648.907	3.8
649.238	3.77
649.568	3.79
649.899	3.8
650.229	3.83
650.56	3.76
650.89	3.77
651.221	3.8
651.551	3.8
651.882	3.8
652.212	3.83
652.542	3.88
652.872	3.88
653.203	3.98
653.533	4.01
653.863	3.97
654.193	3.98
654.523	3.95
654.853	4
655.183	3.96
655.513	3.95
655.843	3.89
656.172	3.89
656.502	3.83
656.832	3.79
657.162	3.7
657.491	3.73
657.821	3.71
658.15	3.75
658.48	3.84
658.809	3.81
659.139	3.87
659.468	3.86
659.798	3.92
660.127	3.85
660.456	3.82
660.785	3.79
661.115	3.76
661.444	3.78
661.773	3.74
662.102	3.77
662.431	3.73
662.76	3.74
663.089	3.77
663.418	3.82
663.747	3.83
664.076	3.91
664.404	3.97
664.733	3.92
665.062	3.85
665.39	3.78
665.719	3.83
666.048	3.7
666.376	3.73
666.705	3.72
667.033	3.84
667.362	3.88
667.69	3.95
668.018	3.98
668.347	3.94
668.675	3.93
669.003	3.93
669.331	4.01
669.659	3.96
669.987	3.95
670.315	3.98
670.643	4
670.971	4
671.299	3.95
671.627	4.04
671.955	4.08
672.283	4.1
672.61	4.1
672.938	4.18
673.266	4.17
673.593	4.09
673.921	3.97
674.249	3.97
674.576	4.02
674.904	4.02
675.231	4.04
675.558	4.1
675.886	4.13
676.213	4.11
676.54	4.19
676.867	4.13
677.195	4.06
677.522	4.06
677.849	4.07
678.176	4.05
678.503	4.06
678.83	3.98
679.157	3.98
