Data from BU26848_Reflection_00010.txt Node
Date: Mon Nov 18 16:25:47 EST 2019
User: vgr7
Spectrometer: USB2G7710
Scans to average: 3
Trigger mode: 4
Integration Time (sec): 2.000000E-2
Electric dark correction enabled: true
Boxcar width: 10
XAxis mode: Wavelengths
Number of Pixels in Spectrum: 2048
>>>>>Begin Spectral Data<<<<<
177.721	-95.15
178.105	-304.26
178.488	84.41
178.871	-20.07
179.254	212.43
179.636	671.43
180.019	7.4
180.402	133.33
180.785	2495.35
181.168	110.64
181.55	689.04
181.933	62.33
182.316	49.7
182.698	42.21
183.081	59.13
183.463	60.11
183.846	77.46
184.228	108.91
184.611	75.11
184.993	109.1
185.376	-207.39
185.758	-267.78
186.14	-548.85
186.522	129.05
186.904	137.43
187.287	276.78
187.669	-307.82
188.051	693.98
188.433	-146.89
188.815	-76.25
189.197	-72.26
189.579	-28.07
189.961	-43.55
190.342	-104.02
190.724	-54.72
191.106	-61.01
191.488	-64.26
191.869	-69.37
192.251	-103.08
192.633	-90.95
193.014	-78
193.396	-144.39
193.777	-106.5
194.159	-119.3
194.54	-67.38
194.922	-78.69
195.303	-50.87
195.684	-49.79
196.065	-26.14
196.447	-14.31
196.828	-24.31
197.209	-34.21
197.59	-44.26
197.971	-100
198.352	19.61
198.733	-6.8
199.114	27.02
199.495	27.35
199.876	38.12
200.257	51.26
200.638	42.02
201.018	31.53
201.399	29.9
201.78	30.78
202.16	30.97
202.541	13.13
202.922	17.99
203.302	-14.58
203.683	-2.17
204.063	-39.63
204.444	-55.83
204.824	-26.09
205.204	4.35
205.585	-13.59
205.965	-10.57
206.345	-26.82
206.725	-30.72
207.106	-50.96
207.486	-82.01
207.866	-17.69
208.246	-133.38
208.626	-63.34
209.006	-5.04
209.386	-165.75
209.766	-259.27
210.145	-183.2
210.525	-67.52
210.905	-15.67
211.285	27.23
211.664	23.19
212.044	22.88
212.424	22.49
212.803	26.28
213.183	35.39
213.562	17.7
213.942	28.52
214.321	24
214.701	32.34
215.08	17.95
215.459	2.37
215.838	-2.23
216.218	-0.74
216.597	1.54
216.976	2.43
217.355	2.21
217.734	11.5
218.113	31.25
218.492	29.3
218.871	24.57
219.25	20.75
219.629	15.96
220.008	15.51
220.387	22.88
220.766	31.28
221.144	14.91
221.523	15.15
221.902	4.41
222.28	2.57
222.659	-8.93
223.037	-3.22
223.416	-4.99
223.794	-3.87
224.173	-6.17
224.551	-11.88
224.929	-13.64
225.308	-4.28
225.686	-6.82
226.064	-9.82
226.442	-10.23
226.821	-5.33
227.199	-3.42
227.577	-0.86
227.955	-0.56
228.333	-4.17
228.711	-1.82
229.089	1.19
229.467	5.16
229.845	4.62
230.222	6.1
230.6	5.19
230.978	6.47
231.356	10.28
231.733	7.53
232.111	8.03
232.488	9.52
232.866	10.7
233.243	10.02
233.621	8.57
233.998	8.86
234.376	9.25
234.753	8.48
235.13	8.41
235.508	7.86
235.885	7.83
236.262	6.86
236.639	4.58
237.016	5.45
237.393	4.97
237.77	5.87
238.147	5.5
238.524	6.31
238.901	5
239.278	4.49
239.655	5.54
240.032	5.87
240.409	5.46
240.785	4.98
241.162	4.77
241.539	5.69
241.915	5.63
242.292	5.23
242.668	5.09
243.045	5.02
243.421	4.75
243.798	4.67
244.174	4.68
244.551	4.85
244.927	4.51
245.303	4.37
245.679	4.43
246.056	4.35
246.432	4.16
246.808	4.26
247.184	4.12
247.56	4.02
247.936	4.05
248.312	4.08
248.688	3.96
249.064	3.94
249.44	3.57
249.815	3.6
250.191	3.73
250.567	3.64
250.943	3.42
251.318	3.66
251.694	3.64
252.069	3.65
252.445	3.49
252.82	3.37
253.196	3.48
253.571	3.45
253.947	3.66
254.322	4.15
254.697	4.06
255.073	3.77
255.448	3.64
255.823	3.53
256.198	3.62
256.573	3.71
256.948	3.66
257.323	3.87
257.698	3.65
258.073	3.47
258.448	3.55
258.823	3.5
259.198	3.3
259.573	3.25
259.948	3.33
260.322	3.46
260.697	3.55
261.072	3.44
261.446	3.41
261.821	3.31
262.195	3.22
262.57	3.28
262.944	3.52
263.319	3.58
263.693	3.51
264.067	3.53
264.442	3.55
264.816	3.56
265.19	3.5
265.564	3.65
265.938	3.64
266.313	3.67
266.687	3.74
267.061	3.66
267.435	3.76
267.809	3.72
268.183	3.72
268.556	3.7
268.93	3.63
269.304	3.63
269.678	3.69
270.051	3.63
270.425	3.68
270.799	3.47
271.172	3.49
271.546	3.46
271.919	3.07
272.293	3.1
272.666	3.06
273.04	3.14
273.413	3.09
273.787	3.11
274.16	3.13
274.533	3.31
274.906	3.53
275.279	3.47
275.653	3.39
276.026	3.23
276.399	3.18
276.772	3.18
277.145	3.18
277.518	3.11
277.891	3.16
278.263	3.04
278.636	3.01
279.009	3.01
279.382	3.05
279.755	3.52
280.127	3.63
280.5	3.77
280.872	3.69
281.245	3.65
281.617	3.83
281.99	3.83
282.362	3.86
282.735	3.74
283.107	3.81
283.479	3.86
283.852	3.87
284.224	3.91
284.596	3.94
284.968	3.8
285.34	3.9
285.713	3.88
286.085	4
286.457	4.21
286.829	4.21
287.201	4.31
287.572	4.11
287.944	4.07
288.316	4.04
288.688	4.05
289.06	3.89
289.431	3.8
289.803	3.8
290.175	3.71
290.546	3.77
290.918	3.7
291.289	3.61
291.661	3.7
292.032	3.73
292.403	3.83
292.775	3.97
293.146	3.88
293.517	3.85
293.889	3.85
294.26	3.77
294.631	3.76
295.002	3.72
295.373	3.68
295.744	3.66
296.115	3.64
296.486	3.46
296.857	3.53
297.228	3.61
297.599	3.55
297.97	3.51
298.34	3.65
298.711	3.67
299.082	3.72
299.452	3.68
299.823	3.8
300.194	3.96
300.564	3.92
300.935	4
301.305	4.1
301.676	4.06
302.046	4.07
302.416	4.13
302.787	4.15
303.157	4.22
303.527	4.2
303.897	4.18
304.267	4.52
304.637	4.73
305.008	4.75
305.378	4.9
305.748	5.03
306.117	4.88
306.487	4.94
306.857	4.99
307.227	4.94
307.597	4.76
307.967	4.66
308.336	4.7
308.706	4.71
309.076	4.68
309.445	4.73
309.815	4.62
310.184	4.64
310.554	4.67
310.923	4.69
311.293	4.75
311.662	4.86
312.031	4.71
312.401	4.73
312.77	4.75
313.139	4.76
313.508	4.76
313.877	4.76
314.246	4.75
314.616	4.81
314.985	4.91
315.353	4.91
315.722	4.84
316.091	4.79
316.46	4.79
316.829	4.79
317.198	4.83
317.567	4.88
317.935	4.88
318.304	4.89
318.672	5.06
319.041	5.08
319.41	5.1
319.778	5.16
320.147	5.04
320.515	5.03
320.883	4.94
321.252	5
321.62	5.12
321.988	5.21
322.357	5.18
322.725	5.09
323.093	5.37
323.461	5.35
323.829	5.59
324.197	5.69
324.565	5.82
324.933	5.81
325.301	5.94
325.669	6.01
326.037	6.01
326.405	6.03
326.772	6.1
327.14	6.25
327.508	6.33
327.875	6.42
328.243	6.4
328.61	6.43
328.978	6.41
329.346	6.52
329.713	6.55
330.08	6.67
330.448	6.76
330.815	6.68
331.182	6.7
331.55	6.59
331.917	6.55
332.284	6.59
332.651	6.56
333.018	6.48
333.385	6.44
333.752	6.54
334.119	6.64
334.486	6.44
334.853	6.37
335.22	6.35
335.587	6.4
335.954	6.45
336.32	6.43
336.687	6.4
337.054	6.4
337.42	6.43
337.787	6.38
338.153	6.44
338.52	6.49
338.886	6.5
339.253	6.47
339.619	6.45
339.986	6.44
340.352	6.54
340.718	6.64
341.084	6.69
341.451	6.74
341.817	6.72
342.183	6.87
342.549	6.84
342.915	7.08
343.281	7.02
343.647	7.07
344.013	7.12
344.379	7.13
344.745	7.12
345.11	7.14
345.476	7.17
345.842	7.16
346.208	7.21
346.573	7.27
346.939	7.43
347.304	7.44
347.67	7.39
348.035	7.37
348.401	7.38
348.766	7.32
349.132	7.24
349.497	7.15
349.862	7.19
350.228	7.17
350.593	7.02
350.958	7.09
351.323	7.11
351.688	7.12
352.053	7.21
352.418	7.26
352.783	7.28
353.148	7.31
353.513	7.32
353.878	7.31
354.243	7.38
354.608	7.31
354.972	7.38
355.337	7.45
355.702	7.48
356.066	7.55
356.431	7.57
356.795	7.69
357.16	7.71
357.524	7.65
357.889	7.65
358.253	7.65
358.618	7.63
358.982	7.55
359.346	7.48
359.71	7.42
360.075	7.35
360.439	7.3
360.803	7.24
361.167	7.24
361.531	7.18
361.895	7.08
362.259	7.06
362.623	6.99
362.987	6.92
363.351	6.93
363.714	6.82
364.078	6.84
364.442	6.72
364.806	6.65
365.169	6.59
365.533	6.59
365.896	6.52
366.26	6.51
366.623	6.53
366.987	6.52
367.35	6.47
367.714	6.44
368.077	6.37
368.44	6.3
368.803	6.26
369.167	6.26
369.53	6.21
369.893	6.2
370.256	6.19
370.619	6.15
370.982	6.05
371.345	5.97
371.708	5.86
372.071	5.79
372.434	5.72
372.797	5.71
373.159	5.65
373.522	5.68
373.885	5.66
374.247	5.63
374.61	5.53
374.973	5.49
375.335	5.4
375.698	5.33
376.06	5.31
376.423	5.28
376.785	5.26
377.147	5.29
377.51	5.23
377.872	5.19
378.234	5.19
378.596	5.22
378.958	5.17
379.321	5.17
379.683	5.16
380.045	5.16
380.407	5.09
380.769	5.05
381.13	4.97
381.492	4.83
381.854	4.76
382.216	4.81
382.578	4.85
382.939	4.81
383.301	4.85
383.663	4.81
384.024	4.73
384.386	4.74
384.747	4.68
385.109	4.66
385.47	4.6
385.832	4.58
386.193	4.52
386.554	4.55
386.916	4.53
387.277	4.44
387.638	4.41
387.999	4.4
388.36	4.38
388.721	4.34
389.082	4.38
389.443	4.37
389.804	4.34
390.165	4.22
390.526	4.24
390.887	4.19
391.248	4.22
391.609	4.2
391.969	4.06
392.33	4.02
392.691	4
393.051	4.02
393.412	3.97
393.772	3.92
394.133	3.91
394.493	3.87
394.854	3.92
395.214	3.91
395.574	3.9
395.935	3.85
396.295	3.88
396.655	3.8
397.015	3.75
397.376	3.73
397.736	3.73
398.096	3.71
398.456	3.69
398.816	3.63
399.176	3.62
399.535	3.63
399.895	3.63
400.255	3.58
400.615	3.53
400.975	3.52
401.334	3.5
401.694	3.47
402.054	3.47
402.413	3.41
402.773	3.38
403.132	3.35
403.492	3.34
403.851	3.27
404.211	3.32
404.57	3.31
404.929	3.31
405.288	3.3
405.648	3.26
406.007	3.26
406.366	3.23
406.725	3.24
407.084	3.27
407.443	3.28
407.802	3.31
408.161	3.32
408.52	3.29
408.879	3.31
409.238	3.33
409.596	3.31
409.955	3.31
410.314	3.31
410.673	3.32
411.031	3.31
411.39	3.33
411.748	3.3
412.107	3.28
412.465	3.24
412.824	3.24
413.182	3.25
413.54	3.26
413.899	3.28
414.257	3.26
414.615	3.24
414.974	3.21
415.332	3.19
415.69	3.16
416.048	3.15
416.406	3.14
416.764	3.14
417.122	3.12
417.48	3.11
417.838	3.13
418.195	3.1
418.553	3.09
418.911	3.08
419.269	3.08
419.626	3.08
419.984	3.07
420.342	3.07
420.699	3.04
421.057	3.02
421.414	3
421.772	2.99
422.129	2.99
422.486	2.97
422.844	2.98
423.201	2.96
423.558	2.97
423.915	2.96
424.273	2.95
424.63	2.96
424.987	2.96
425.344	2.94
425.701	2.94
426.058	2.95
426.415	2.94
426.772	2.96
427.128	2.94
427.485	2.96
427.842	2.94
428.199	2.96
428.555	2.97
428.912	2.98
429.269	3.01
429.625	2.98
429.982	2.99
430.338	2.97
430.695	2.98
431.051	2.97
431.407	2.96
431.764	2.96
432.12	2.94
432.476	2.95
432.832	2.94
433.189	2.96
433.545	2.94
433.901	2.95
434.257	2.91
434.613	2.93
434.969	2.93
435.325	2.91
435.681	2.89
436.036	2.89
436.392	2.87
436.748	2.84
437.104	2.85
437.459	2.85
437.815	2.86
438.171	2.87
438.526	2.86
438.882	2.85
439.237	2.85
439.593	2.86
439.948	2.86
440.304	2.87
440.659	2.85
441.014	2.86
441.369	2.84
441.725	2.83
442.08	2.82
442.435	2.83
442.79	2.84
443.145	2.85
443.5	2.85
443.855	2.86
444.21	2.86
444.565	2.86
444.92	2.88
445.275	2.86
445.629	2.86
445.984	2.86
446.339	2.86
446.693	2.84
447.048	2.83
447.403	2.8
447.757	2.8
448.112	2.82
448.466	2.82
448.82	2.83
449.175	2.85
449.529	2.84
449.883	2.83
450.238	2.82
450.592	2.82
450.946	2.82
451.3	2.81
451.654	2.8
452.008	2.79
452.362	2.76
452.716	2.77
453.07	2.77
453.424	2.78
453.778	2.79
454.132	2.78
454.486	2.79
454.839	2.82
455.193	2.8
455.547	2.78
455.9	2.77
456.254	2.75
456.607	2.75
456.961	2.76
457.314	2.75
457.668	2.75
458.021	2.76
458.375	2.77
458.728	2.79
459.081	2.8
459.434	2.79
459.787	2.81
460.141	2.82
460.494	2.81
460.847	2.81
461.2	2.81
461.553	2.83
461.906	2.84
462.259	2.84
462.611	2.86
462.964	2.88
463.317	2.88
463.67	2.9
464.022	2.92
464.375	2.93
464.728	2.95
465.08	2.98
465.433	2.97
465.785	2.97
466.138	2.96
466.49	2.97
466.843	2.98
467.195	2.98
467.547	2.98
467.899	2.99
468.252	2.98
468.604	2.98
468.956	2.99
469.308	2.98
469.66	2.99
470.012	3.01
470.364	3.03
470.716	3.04
471.068	3.04
471.42	3.04
471.772	3.07
472.123	3.07
472.475	3.06
472.827	3.08
473.178	3.09
473.53	3.1
473.882	3.1
474.233	3.12
474.585	3.1
474.936	3.1
475.288	3.13
475.639	3.15
475.99	3.16
476.342	3.16
476.693	3.16
477.044	3.15
477.395	3.12
477.746	3.09
478.097	3.07
478.448	3.06
478.8	3.06
479.15	3.03
479.501	3.03
479.852	3.03
480.203	3.02
480.554	3.01
480.905	3
481.255	2.99
481.606	2.98
481.957	2.99
482.307	2.99
482.658	2.98
483.009	2.98
483.359	2.97
483.709	2.98
484.06	2.97
484.41	2.98
484.761	2.98
485.111	2.98
485.461	3
485.811	3
486.162	3
486.512	3
486.862	3
487.212	3
487.562	3
487.912	3
488.262	3
488.612	3.01
488.961	3.01
489.311	3.01
489.661	3.01
490.011	3.02
490.36	3.01
490.71	3.02
491.06	3.03
491.409	3.02
491.759	3.03
492.108	3.04
492.458	3.04
492.807	3.04
493.157	3.05
493.506	3.07
493.855	3.07
494.204	3.09
494.554	3.09
494.903	3.1
495.252	3.11
495.601	3.13
495.95	3.14
496.299	3.16
496.648	3.19
496.997	3.23
497.346	3.25
497.695	3.29
498.043	3.32
498.392	3.33
498.741	3.37
499.09	3.39
499.438	3.43
499.787	3.48
500.135	3.53
500.484	3.58
500.832	3.6
501.181	3.66
501.529	3.71
501.878	3.78
502.226	3.85
502.574	3.93
502.923	4
503.271	4.07
503.619	4.17
503.967	4.24
504.315	4.3
504.663	4.39
505.011	4.46
505.359	4.58
505.707	4.68
506.055	4.79
506.403	4.9
506.751	5
507.098	5.11
507.446	5.24
507.794	5.36
508.141	5.5
508.489	5.67
508.837	5.8
509.184	5.96
509.531	6.1
509.879	6.26
510.226	6.43
510.574	6.59
510.921	6.75
511.268	6.92
511.616	7.11
511.963	7.3
512.31	7.51
512.657	7.69
513.004	7.9
513.351	8.14
513.698	8.38
514.045	8.64
514.392	8.9
514.739	9.16
515.086	9.42
515.432	9.65
515.779	9.86
516.126	10.12
516.473	10.35
516.819	10.62
517.166	10.86
517.512	11.09
517.859	11.32
518.205	11.54
518.552	11.76
518.898	11.99
519.245	12.22
519.591	12.43
519.937	12.68
520.283	12.95
520.629	13.21
520.976	13.49
521.322	13.77
521.668	14.04
522.014	14.32
522.36	14.62
522.706	14.97
523.052	15.32
523.398	15.68
523.743	16.03
524.089	16.38
524.435	16.73
524.781	17.04
525.126	17.34
525.472	17.63
525.817	17.91
526.163	18.11
526.509	18.31
526.854	18.52
527.199	18.72
527.545	18.9
527.89	19.08
528.235	19.25
528.581	19.44
528.926	19.64
529.271	19.83
529.616	20
529.961	20.18
530.306	20.39
530.651	20.58
530.996	20.79
531.341	21
531.686	21.21
532.031	21.44
532.376	21.66
532.721	21.89
533.065	22.12
533.41	22.41
533.755	22.69
534.099	22.94
534.444	23.2
534.788	23.47
535.133	23.74
535.477	24.02
535.822	24.3
536.166	24.55
536.51	24.83
536.855	25.19
537.199	25.51
537.543	25.81
537.887	26.12
538.231	26.44
538.576	26.76
538.92	27.05
539.264	27.32
539.608	27.63
539.951	27.88
540.295	28.14
540.639	28.35
540.983	28.57
541.327	28.8
541.671	29.02
542.014	29.23
542.358	29.43
542.701	29.63
543.045	29.82
543.389	30.05
543.732	30.26
544.075	30.47
544.419	30.7
544.762	30.92
545.105	31.18
545.449	31.43
545.792	31.7
546.135	31.97
546.478	32.25
546.821	32.49
547.165	32.76
547.508	33
547.851	33.28
548.194	33.57
548.536	33.84
548.879	34.09
549.222	34.38
549.565	34.65
549.908	34.99
550.25	35.25
550.593	35.47
550.936	35.78
551.278	36.02
551.621	36.22
551.963	36.46
552.306	36.67
552.648	36.85
552.991	37.05
553.333	37.26
553.675	37.45
554.017	37.66
554.36	37.88
554.702	38.06
555.044	38.27
555.386	38.46
555.728	38.67
556.07	38.91
556.412	39.05
556.754	39.22
557.096	39.26
557.438	39.48
557.78	39.67
558.121	39.82
558.463	40.01
558.805	40.22
559.147	40.44
559.488	40.57
559.83	40.76
560.171	40.9
560.513	41.1
560.854	41.25
561.196	41.44
561.537	41.62
561.878	41.82
562.22	41.96
562.561	42.07
562.902	42.23
563.243	42.34
563.584	42.48
563.925	42.61
564.266	42.83
564.607	42.93
564.948	43.1
565.289	43.19
565.63	43.31
565.971	43.41
566.312	43.54
566.653	43.69
566.993	43.8
567.334	43.9
567.675	43.96
568.015	44.12
568.356	44.2
568.696	44.27
569.037	44.38
569.377	44.49
569.718	44.63
570.058	44.71
570.398	44.81
570.739	44.87
571.079	44.93
571.419	44.98
571.759	45.1
572.099	45.16
572.439	45.28
572.779	45.34
573.119	45.45
573.459	45.53
573.799	45.61
574.139	45.69
574.479	45.8
574.819	45.93
575.158	45.97
575.498	46.08
575.838	46.22
576.177	46.28
576.517	46.36
576.856	46.46
577.196	46.55
577.535	46.57
577.875	46.75
578.214	46.9
578.553	47.09
578.893	47.19
579.232	47.38
579.571	47.49
579.91	47.6
580.25	47.72
580.589	47.79
580.928	47.95
581.267	48.03
581.606	48.2
581.945	48.26
582.283	48.35
582.622	48.47
582.961	48.54
583.3	48.58
583.639	48.71
583.977	48.82
584.316	48.88
584.654	49.04
584.993	49.11
585.332	49.18
585.67	49.2
586.008	49.21
586.347	49.2
586.685	49.2
587.024	49.24
587.362	49.25
587.7	49.28
588.038	49.38
588.376	49.52
588.715	49.51
589.053	49.58
589.391	49.67
589.729	49.66
590.067	49.71
590.404	49.8
590.742	49.84
591.08	49.83
591.418	49.9
591.756	49.87
592.093	50
592.431	50.06
592.769	50.09
593.106	50.2
593.444	50.24
593.781	50.37
594.119	50.45
594.456	50.48
594.793	50.57
595.131	50.52
595.468	50.55
595.805	50.57
596.143	50.6
596.48	50.66
596.817	50.71
597.154	50.77
597.491	50.85
597.828	50.89
598.165	51.01
598.502	51.11
598.839	51.27
599.176	51.31
599.512	51.34
599.849	51.47
600.186	51.44
600.523	51.51
600.859	51.57
601.196	51.67
601.532	51.74
601.869	51.81
602.205	51.92
602.542	51.95
602.878	52.04
603.215	52.1
603.551	52.2
603.887	52.22
604.223	52.27
604.56	52.28
604.896	52.37
605.232	52.37
605.568	52.4
605.904	52.36
606.24	52.38
606.576	52.4
606.912	52.35
607.248	52.41
607.583	52.46
607.919	52.47
608.255	52.49
608.591	52.56
608.926	52.58
609.262	52.63
609.597	52.68
609.933	52.72
610.268	52.74
610.604	52.76
610.939	52.8
611.275	52.79
611.61	52.79
611.945	52.81
612.281	52.9
612.616	52.96
612.951	53.08
613.286	53.13
613.621	53.25
613.956	53.43
614.291	53.54
614.626	53.62
614.961	53.74
615.296	53.85
615.631	53.84
615.966	53.87
616.3	53.89
616.635	53.97
616.97	54.05
617.304	54.17
617.639	54.12
617.973	54.1
618.308	54.24
618.642	54.41
618.977	54.38
619.311	54.39
619.646	54.5
619.98	54.55
620.314	54.65
620.648	54.64
620.983	54.59
621.317	54.66
621.651	54.67
621.985	54.61
622.319	54.56
622.653	54.64
622.987	54.65
623.321	54.58
623.655	54.52
623.988	54.56
624.322	54.51
624.656	54.61
624.99	54.73
625.323	54.65
625.657	54.56
625.99	54.64
626.324	54.58
626.657	54.47
626.991	54.48
627.324	54.4
627.658	54.38
627.991	54.32
628.324	54.28
628.657	54.29
628.991	54.34
629.324	54.32
629.657	54.34
629.99	54.41
630.323	54.51
630.656	54.53
630.989	54.53
631.322	54.6
631.655	54.53
631.987	54.56
632.32	54.61
632.653	54.76
632.986	54.7
633.318	54.76
633.651	54.83
633.984	54.85
634.316	54.87
634.649	55.01
634.981	55.16
635.313	55.19
635.646	55.24
635.978	55.34
636.31	55.41
636.643	55.49
636.975	55.5
637.307	55.53
637.639	55.59
637.971	55.59
638.303	55.6
638.635	55.72
638.967	55.82
639.299	55.89
639.631	55.79
639.963	55.78
640.295	55.72
640.626	55.7
640.958	55.78
641.29	55.78
641.621	55.72
641.953	55.75
642.285	55.75
642.616	55.7
642.948	55.73
643.279	55.8
643.61	55.74
643.942	55.86
644.273	55.83
644.604	55.84
644.936	55.93
645.267	55.98
645.598	55.82
645.929	55.73
646.26	55.63
646.591	55.73
646.922	55.87
647.253	56
647.584	56.03
647.915	55.89
648.245	55.99
648.576	56.08
648.907	56.02
649.238	56.14
649.568	56.18
649.899	56.09
650.229	56.09
650.56	56.15
650.89	56.14
651.221	56.24
651.551	56.31
651.882	56.27
652.212	56.24
652.542	56.39
652.872	56.36
653.203	56.36
653.533	56.29
653.863	56.31
654.193	56.23
654.523	56.23
654.853	56.46
655.183	56.4
655.513	56.42
655.843	56.44
656.172	56.42
656.502	56.44
656.832	56.53
657.162	56.57
657.491	56.55
657.821	56.47
658.15	56.43
658.48	56.43
658.809	56.46
659.139	56.31
659.468	56.31
659.798	56.36
660.127	56.46
660.456	56.55
660.785	56.6
661.115	56.71
661.444	56.76
661.773	56.59
662.102	56.61
662.431	56.6
662.76	56.67
663.089	56.76
663.418	56.85
663.747	56.8
664.076	56.79
664.404	56.83
664.733	56.94
665.062	56.9
665.39	56.97
665.719	57.01
666.048	57.36
666.376	57.29
666.705	57.29
667.033	57.2
667.362	57.21
667.69	57.1
668.018	57.02
668.347	57.08
668.675	57.16
669.003	57.31
