Data from BU26942_Reflection_00009.txt Node
Date: Mon Nov 18 16:50:45 EST 2019
User: vgr7
Spectrometer: USB2G7710
Scans to average: 3
Trigger mode: 4
Integration Time (sec): 2.000000E-2
Electric dark correction enabled: true
Boxcar width: 10
XAxis mode: Wavelengths
Number of Pixels in Spectrum: 2048
>>>>>Begin Spectral Data<<<<<
177.721	-2.6
178.105	25.73
178.488	-563.51
178.871	-674.65
179.254	301.18
179.636	61.54
180.019	-40.85
180.402	169.57
180.785	-79.82
181.168	-192.08
181.55	-88.44
181.933	338.2
182.316	666.15
182.698	608.56
183.081	1179.25
183.463	20715.38
183.846	277.16
184.228	468.19
184.611	1224.53
184.993	1366.27
185.376	-370.38
185.758	-316.53
186.14	-221.97
186.522	214100
186.904	1404.81
187.287	1181.08
187.669	-1631.84
188.051	-948.99
188.433	-772.06
188.815	-1676.4
189.197	-499.64
189.579	-226.2
189.961	-178.94
190.342	-164.73
190.724	-107.4
191.106	-134.86
191.488	-293.59
191.869	-144.3
192.251	-58.77
192.633	-39.5
193.014	-93.04
193.396	-114.52
193.777	-141.73
194.159	-155.02
194.54	-94.11
194.922	-42.81
195.303	-34.08
195.684	-10.5
196.065	29.84
196.447	12.88
196.828	16.62
197.209	5.58
197.59	6.48
197.971	-13.65
198.352	-10.24
198.733	-42.79
199.114	-60.8
199.495	-41.4
199.876	-18.99
200.257	-35.1
200.638	-38.32
201.018	-33.22
201.399	-23.99
201.78	-2.43
202.16	-33.38
202.541	-66.74
202.922	-134.06
203.302	-107.3
203.683	-101.82
204.063	-169.46
204.444	-164.59
204.824	-115.53
205.204	-72.13
205.585	-66.19
205.965	-129.43
206.345	-119.69
206.725	-223.97
207.106	-98.5
207.486	-130.39
207.866	-86.74
208.246	-74.24
208.626	-130.19
209.006	-84.26
209.386	-85.17
209.766	-97.37
210.145	-62.48
210.525	-45.1
210.905	-25.64
211.285	-20.48
211.664	-28.7
212.044	-48.91
212.424	-60.6
212.803	-79.6
213.183	-73.67
213.562	-48.03
213.942	-32.04
214.321	-23.74
214.701	-32.4
215.08	-31
215.459	-19.4
215.838	-33.77
216.218	-38.7
216.597	-13.99
216.976	-22.54
217.355	-22.47
217.734	-4.89
218.113	-6.36
218.492	-4.19
218.871	-12.14
219.25	-5.56
219.629	-2.62
220.008	17.65
220.387	29.26
220.766	35.99
221.144	30.82
221.523	24.16
221.902	25.22
222.28	20.38
222.659	35.75
223.037	51.85
223.416	30.08
223.794	36.34
224.173	27.76
224.551	25.56
224.929	26.42
225.308	18.84
225.686	12.48
226.064	12.9
226.442	12.13
226.821	14.82
227.199	12.12
227.577	12.9
227.955	7.98
228.333	4.9
228.711	11.35
229.089	15.85
229.467	12.95
229.845	13.19
230.222	8.93
230.6	6.06
230.978	2.37
231.356	4.38
231.733	2.22
232.111	3.9
232.488	3.73
232.866	3.56
233.243	5.66
233.621	4.18
233.998	4.37
234.376	3.16
234.753	2.85
235.13	2.06
235.508	1.61
235.885	1.52
236.262	1.1
236.639	-0.64
237.016	-2.04
237.393	-0.48
237.77	1.56
238.147	3.03
238.524	3.57
238.901	4.27
239.278	3.97
239.655	4.99
240.032	4.59
240.409	4.41
240.785	3.97
241.162	4.01
241.539	4.18
241.915	4.36
242.292	4.08
242.668	3.61
243.045	4.06
243.421	4.36
243.798	4.23
244.174	4.35
244.551	4.38
244.927	4.5
245.303	4.66
245.679	4.34
246.056	4.26
246.432	4.27
246.808	4.18
247.184	4.04
247.56	3.83
247.936	4.07
248.312	4.08
248.688	4.56
249.064	4.6
249.44	4.76
249.815	4.78
250.191	5.14
250.567	5.37
250.943	5.2
251.318	5.17
251.694	5.25
252.069	5.44
252.445	5.67
252.82	5.61
253.196	5.65
253.571	5.65
253.947	5.74
254.322	5.91
254.697	5.86
255.073	5.81
255.448	5.77
255.823	5.43
256.198	5.58
256.573	5.07
256.948	5.03
257.323	4.89
257.698	4.75
258.073	4.69
258.448	4.6
258.823	4.73
259.198	4.6
259.573	4.61
259.948	4.3
260.322	4.2
260.697	4.15
261.072	3.97
261.446	3.95
261.821	3.98
262.195	3.91
262.57	3.98
262.944	3.95
263.319	4
263.693	3.9
264.067	3.91
264.442	4.07
264.816	3.9
265.19	3.91
265.564	3.98
265.938	3.73
266.313	3.77
266.687	3.84
267.061	3.96
267.435	4.11
267.809	4.14
268.183	4.02
268.556	4.09
268.93	4.32
269.304	4.26
269.678	4.24
270.051	4.26
270.425	4.25
270.799	4.41
271.172	4.41
271.546	4.5
271.919	4.36
272.293	4.28
272.666	4.42
273.04	4.37
273.413	4.33
273.787	4.39
274.16	4.43
274.533	4.26
274.906	4.23
275.279	4.15
275.653	4.33
276.026	4.43
276.399	4.43
276.772	4.49
277.145	4.56
277.518	4.62
277.891	4.62
278.263	4.63
278.636	4.62
279.009	4.58
279.382	4.69
279.755	4.71
280.127	4.84
280.5	4.84
280.872	4.83
281.245	4.85
281.617	4.98
281.99	5.12
282.362	5.12
282.735	4.91
283.107	4.63
283.479	4.56
283.852	4.58
284.224	4.63
284.596	4.56
284.968	4.62
285.34	4.57
285.713	4.62
286.085	4.58
286.457	4.58
286.829	4.58
287.201	4.47
287.572	4.46
287.944	4.34
288.316	4.38
288.688	4.47
289.06	4.4
289.431	4.3
289.803	4.26
290.175	4.21
290.546	4.36
290.918	4.63
291.289	4.59
291.661	4.61
292.032	4.68
292.403	4.64
292.775	4.72
293.146	4.79
293.517	4.79
293.889	4.91
294.26	4.97
294.631	5.05
295.002	5.09
295.373	5.15
295.744	5.19
296.115	5.17
296.486	5.05
296.857	5.18
297.228	5.27
297.599	5.17
297.97	5.26
298.34	5.41
298.711	5.4
299.082	5.42
299.452	5.46
299.823	5.51
300.194	5.58
300.564	5.46
300.935	5.49
301.305	5.44
301.676	5.46
302.046	5.55
302.416	5.7
302.787	5.74
303.157	5.68
303.527	5.85
303.897	5.91
304.267	6.15
304.637	5.99
305.008	6.21
305.378	6.35
305.748	6.43
306.117	6.34
306.487	6.33
306.857	6.57
307.227	6.62
307.597	6.56
307.967	6.58
308.336	6.7
308.706	6.71
309.076	6.71
309.445	6.66
309.815	6.57
310.184	6.37
310.554	6.46
310.923	6.52
311.293	6.43
311.662	6.51
312.031	6.56
312.401	6.7
312.77	6.64
313.139	6.74
313.508	6.78
313.877	6.82
314.246	7.01
314.616	7.08
314.985	7.2
315.353	7.21
315.722	7.45
316.091	7.46
316.46	7.53
316.829	7.62
317.198	7.79
317.567	7.99
317.935	8.16
318.304	8.27
318.672	8.37
319.041	8.65
319.41	8.54
319.778	8.54
320.147	8.62
320.515	8.59
320.883	8.68
321.252	8.82
321.62	8.96
321.988	8.98
322.357	9.05
322.725	8.92
323.093	9.16
323.461	9.08
323.829	9.19
324.197	9.23
324.565	9.4
324.933	9.41
325.301	9.4
325.669	9.49
326.037	9.45
326.405	9.47
326.772	9.39
327.14	9.57
327.508	9.71
327.875	9.72
328.243	9.74
328.61	9.61
328.978	9.55
329.346	9.56
329.713	9.5
330.08	9.46
330.448	9.59
330.815	9.35
331.182	9.46
331.55	9.47
331.917	9.62
332.284	9.66
332.651	9.74
333.018	9.79
333.385	9.84
333.752	9.96
334.119	10.14
334.486	10.24
334.853	10.23
335.22	10.16
335.587	10.18
335.954	10.34
336.32	10.43
336.687	10.56
337.054	10.62
337.42	10.73
337.787	10.77
338.153	10.86
338.52	11.15
338.886	11.03
339.253	11.12
339.619	11.02
339.986	11.1
340.352	11.03
340.718	10.96
341.084	10.92
341.451	10.82
341.817	10.84
342.183	10.8
342.549	10.85
342.915	10.87
343.281	10.97
343.647	10.97
344.013	10.92
344.379	10.84
344.745	10.89
345.11	10.9
345.476	10.91
345.842	10.83
346.208	10.75
346.573	10.86
346.939	10.92
347.304	10.96
347.67	11
348.035	11.07
348.401	11.22
348.766	11.23
349.132	11.33
349.497	11.33
349.862	11.43
350.228	11.47
350.593	11.47
350.958	11.4
351.323	11.29
351.688	11.41
352.053	11.52
352.418	11.61
352.783	11.54
353.148	11.51
353.513	11.61
353.878	11.57
354.243	11.53
354.608	11.53
354.972	11.54
355.337	11.53
355.702	11.49
356.066	11.51
356.431	11.47
356.795	11.49
357.16	11.49
357.524	11.38
357.889	11.3
358.253	11.26
358.618	11.31
358.982	11.3
359.346	11.16
359.71	11.08
360.075	11
360.439	10.97
360.803	10.97
361.167	10.83
361.531	10.76
361.895	10.78
362.259	10.66
362.623	10.54
362.987	10.47
363.351	10.4
363.714	10.35
364.078	10.34
364.442	10.26
364.806	10.14
365.169	10.14
365.533	10.1
365.896	10.07
366.26	9.99
366.623	9.96
366.987	9.96
367.35	9.9
367.714	9.84
368.077	9.85
368.44	9.86
368.803	9.87
369.167	9.83
369.53	9.73
369.893	9.76
370.256	9.78
370.619	9.76
370.982	9.67
371.345	9.54
371.708	9.5
372.071	9.41
372.434	9.41
372.797	9.32
373.159	9.21
373.522	9.11
373.885	9.04
374.247	8.97
374.61	8.93
374.973	8.87
375.335	8.78
375.698	8.71
376.06	8.58
376.423	8.51
376.785	8.48
377.147	8.4
377.51	8.27
377.872	8.23
378.234	8.17
378.596	8.18
378.958	8.12
379.321	8.06
379.683	8.03
380.045	7.97
380.407	7.89
380.769	7.88
381.13	7.83
381.492	7.76
381.854	7.76
382.216	7.68
382.578	7.66
382.939	7.62
383.301	7.55
383.663	7.5
384.024	7.43
384.386	7.39
384.747	7.38
385.109	7.37
385.47	7.32
385.832	7.28
386.193	7.3
386.554	7.26
386.916	7.23
387.277	7.16
387.638	7.1
387.999	7.08
388.36	7.04
388.721	7.04
389.082	7.01
389.443	6.95
389.804	6.92
390.165	6.82
390.526	6.8
390.887	6.74
391.248	6.7
391.609	6.68
391.969	6.62
392.33	6.57
392.691	6.51
393.051	6.44
393.412	6.4
393.772	6.31
394.133	6.3
394.493	6.25
394.854	6.23
395.214	6.17
395.574	6.13
395.935	6.12
396.295	6.07
396.655	6
397.015	5.96
397.376	5.89
397.736	5.91
398.096	5.86
398.456	5.83
398.816	5.8
399.176	5.76
399.535	5.72
399.895	5.68
400.255	5.66
400.615	5.67
400.975	5.62
401.334	5.63
401.694	5.53
402.054	5.5
402.413	5.51
402.773	5.48
403.132	5.43
403.492	5.39
403.851	5.35
404.211	5.34
404.57	5.33
404.929	5.33
405.288	5.27
405.648	5.24
406.007	5.22
406.366	5.18
406.725	5.17
407.084	5.18
407.443	5.19
407.802	5.19
408.161	5.15
408.52	5.13
408.879	5.07
409.238	5.06
409.596	5.02
409.955	5.01
410.314	5.05
410.673	5.03
411.031	5.03
411.39	5.02
411.748	4.99
412.107	4.97
412.465	4.95
412.824	4.98
413.182	4.99
413.54	4.94
413.899	4.93
414.257	4.92
414.615	4.88
414.974	4.85
415.332	4.8
415.69	4.78
416.048	4.75
416.406	4.75
416.764	4.75
417.122	4.74
417.48	4.71
417.838	4.67
418.195	4.66
418.553	4.62
418.911	4.59
419.269	4.59
419.626	4.59
419.984	4.57
420.342	4.56
420.699	4.54
421.057	4.55
421.414	4.54
421.772	4.51
422.129	4.51
422.486	4.5
422.844	4.49
423.201	4.48
423.558	4.47
423.915	4.46
424.273	4.46
424.63	4.45
424.987	4.45
425.344	4.44
425.701	4.41
426.058	4.42
426.415	4.41
426.772	4.4
427.128	4.39
427.485	4.37
427.842	4.36
428.199	4.36
428.555	4.33
428.912	4.34
429.269	4.37
429.625	4.36
429.982	4.34
430.338	4.33
430.695	4.35
431.051	4.35
431.407	4.34
431.764	4.32
432.12	4.31
432.476	4.31
432.832	4.3
433.189	4.32
433.545	4.33
433.901	4.33
434.257	4.33
434.613	4.33
434.969	4.34
435.325	4.36
435.681	4.37
436.036	4.38
436.392	4.37
436.748	4.35
437.104	4.35
437.459	4.35
437.815	4.36
438.171	4.35
438.526	4.36
438.882	4.36
439.237	4.38
439.593	4.38
439.948	4.37
440.304	4.38
440.659	4.36
441.014	4.36
441.369	4.36
441.725	4.35
442.08	4.34
442.435	4.33
442.79	4.33
443.145	4.32
443.5	4.31
443.855	4.31
444.21	4.3
444.565	4.3
444.92	4.3
445.275	4.29
445.629	4.28
445.984	4.27
446.339	4.25
446.693	4.24
447.048	4.23
447.403	4.21
447.757	4.21
448.112	4.2
448.466	4.21
448.82	4.18
449.175	4.19
449.529	4.18
449.883	4.18
450.238	4.16
450.592	4.17
450.946	4.14
451.3	4.11
451.654	4.12
452.008	4.12
452.362	4.1
452.716	4.1
453.07	4.1
453.424	4.11
453.778	4.11
454.132	4.11
454.486	4.11
454.839	4.12
455.193	4.11
455.547	4.12
455.9	4.1
456.254	4.13
456.607	4.11
456.961	4.11
457.314	4.11
457.668	4.1
458.021	4.09
458.375	4.11
458.728	4.13
459.081	4.12
459.434	4.1
459.787	4.11
460.141	4.09
460.494	4.1
460.847	4.1
461.2	4.1
461.553	4.09
461.906	4.1
462.259	4.11
462.611	4.12
462.964	4.13
463.317	4.13
463.67	4.13
464.022	4.15
464.375	4.15
464.728	4.18
465.08	4.2
465.433	4.21
465.785	4.21
466.138	4.22
466.49	4.24
466.843	4.26
467.195	4.28
467.547	4.33
467.899	4.33
468.252	4.34
468.604	4.39
468.956	4.41
469.308	4.43
469.66	4.43
470.012	4.47
470.364	4.49
470.716	4.5
471.068	4.5
471.42	4.51
471.772	4.56
472.123	4.56
472.475	4.57
472.827	4.57
473.178	4.59
473.53	4.6
473.882	4.6
474.233	4.61
474.585	4.59
474.936	4.57
475.288	4.58
475.639	4.59
475.99	4.56
476.342	4.57
476.693	4.56
477.044	4.59
477.395	4.57
477.746	4.56
478.097	4.56
478.448	4.56
478.8	4.52
479.15	4.49
479.501	4.47
479.852	4.45
480.203	4.43
480.554	4.43
480.905	4.43
481.255	4.43
481.606	4.41
481.957	4.41
482.307	4.41
482.658	4.4
483.009	4.4
483.359	4.4
483.709	4.39
484.06	4.39
484.41	4.37
484.761	4.35
485.111	4.35
485.461	4.36
485.811	4.36
486.162	4.36
486.512	4.36
486.862	4.37
487.212	4.37
487.562	4.39
487.912	4.37
488.262	4.37
488.612	4.37
488.961	4.38
489.311	4.39
489.661	4.41
490.011	4.42
490.36	4.41
490.71	4.41
491.06	4.41
491.409	4.44
491.759	4.46
492.108	4.48
492.458	4.48
492.807	4.49
493.157	4.5
493.506	4.54
493.855	4.56
494.204	4.57
494.554	4.6
494.903	4.62
495.252	4.66
495.601	4.71
495.95	4.76
496.299	4.79
496.648	4.81
496.997	4.84
497.346	4.87
497.695	4.93
498.043	4.98
498.392	5.02
498.741	5.04
499.09	5.08
499.438	5.15
499.787	5.21
500.135	5.29
500.484	5.33
500.832	5.39
501.181	5.45
501.529	5.54
501.878	5.62
502.226	5.69
502.574	5.77
502.923	5.81
503.271	5.86
503.619	5.99
503.967	6.11
504.315	6.22
504.663	6.33
505.011	6.44
505.359	6.57
505.707	6.7
506.055	6.82
506.403	6.98
506.751	7.1
507.098	7.26
507.446	7.39
507.794	7.54
508.141	7.68
508.489	7.81
508.837	7.94
509.184	8.09
509.531	8.26
509.879	8.44
510.226	8.61
510.574	8.79
510.921	8.93
511.268	9.08
511.616	9.25
511.963	9.43
512.31	9.61
512.657	9.77
513.004	9.94
513.351	10.14
513.698	10.3
514.045	10.48
514.392	10.67
514.739	10.88
515.086	11.09
515.432	11.29
515.779	11.49
516.126	11.71
516.473	11.89
516.819	12.07
517.166	12.25
517.512	12.44
517.859	12.61
518.205	12.79
518.552	12.95
518.898	13.09
519.245	13.23
519.591	13.4
519.937	13.54
520.283	13.72
520.629	13.9
520.976	14.11
521.322	14.32
521.668	14.52
522.014	14.73
522.36	14.94
522.706	15.14
523.052	15.39
523.398	15.61
523.743	15.85
524.089	16.08
524.435	16.31
524.781	16.51
525.126	16.75
525.472	16.94
525.817	17.13
526.163	17.31
526.509	17.48
526.854	17.64
527.199	17.8
527.545	17.95
527.89	18.1
528.235	18.24
528.581	18.39
528.926	18.52
529.271	18.66
529.616	18.83
529.961	19.01
530.306	19.16
530.651	19.35
530.996	19.55
531.341	19.76
531.686	19.95
532.031	20.17
532.376	20.36
532.721	20.58
533.065	20.8
533.41	21.02
533.755	21.28
534.099	21.51
534.444	21.78
534.788	22.04
535.133	22.3
535.477	22.55
535.822	22.8
536.166	23.11
536.51	23.41
536.855	23.71
537.199	24.01
537.543	24.38
537.887	24.67
538.231	25
538.576	25.33
538.92	25.66
539.264	25.95
539.608	26.23
539.951	26.49
540.295	26.76
540.639	27.04
540.983	27.3
541.327	27.57
541.671	27.81
542.014	28.06
542.358	28.31
542.701	28.53
543.045	28.78
543.389	29.05
543.732	29.32
544.075	29.58
544.419	29.84
544.762	30.05
545.105	30.35
545.449	30.64
545.792	30.92
546.135	31.23
546.478	31.56
546.821	31.92
547.165	32.29
547.508	32.65
547.851	32.99
548.194	33.3
548.536	33.61
548.879	33.96
549.222	34.25
549.565	34.55
549.908	34.89
550.25	35.24
550.593	35.51
550.936	35.79
551.278	36.11
551.621	36.48
551.963	36.82
552.306	37.12
552.648	37.38
552.991	37.67
553.333	37.99
553.675	38.27
554.017	38.53
554.36	38.77
554.702	39.03
555.044	39.24
555.386	39.43
555.728	39.69
556.07	39.94
556.412	40.17
556.754	40.42
557.096	40.69
557.438	40.95
557.78	41.22
558.121	41.47
558.463	41.7
558.805	41.89
559.147	42.11
559.488	42.32
559.83	42.55
560.171	42.76
560.513	42.97
560.854	43.19
561.196	43.43
561.537	43.59
561.878	43.75
562.22	44
562.561	44.28
562.902	44.5
563.243	44.64
563.584	44.88
563.925	45.04
564.266	45.2
564.607	45.33
564.948	45.51
565.289	45.7
565.63	45.83
565.971	46.01
566.312	46.23
566.653	46.38
566.993	46.6
567.334	46.73
567.675	46.82
568.015	46.95
568.356	47.06
568.696	47.19
569.037	47.36
569.377	47.43
569.718	47.51
570.058	47.67
570.398	47.78
570.739	47.88
571.079	48
571.419	48.11
571.759	48.24
572.099	48.33
572.439	48.44
572.779	48.54
573.119	48.63
573.459	48.66
573.799	48.74
574.139	48.84
574.479	48.95
574.819	49.09
575.158	49.17
575.498	49.31
575.838	49.49
576.177	49.56
576.517	49.75
576.856	49.91
577.196	49.96
577.535	50.11
577.875	50.25
578.214	50.38
578.553	50.55
578.893	50.68
579.232	50.76
579.571	50.82
579.91	50.98
580.25	51.08
580.589	51.2
580.928	51.28
581.267	51.31
581.606	51.4
581.945	51.44
582.283	51.56
582.622	51.61
582.961	51.65
583.3	51.74
583.639	51.8
583.977	51.79
584.316	51.88
584.654	51.93
584.993	52
585.332	52.07
585.67	52.11
586.008	52.19
586.347	52.26
586.685	52.4
587.024	52.49
587.362	52.58
587.7	52.73
588.038	52.85
588.376	52.91
588.715	52.95
589.053	53.09
589.391	53.12
589.729	53.19
590.067	53.26
590.404	53.28
590.742	53.32
591.08	53.38
591.418	53.46
591.756	53.54
592.093	53.57
592.431	53.65
592.769	53.65
593.106	53.71
593.444	53.77
593.781	53.83
594.119	53.85
594.456	53.87
594.793	53.86
595.131	53.94
595.468	53.97
595.805	54.02
596.143	54.02
596.48	54.09
596.817	54.14
597.154	54.23
597.491	54.35
597.828	54.42
598.165	54.49
598.502	54.5
598.839	54.5
599.176	54.48
599.512	54.52
599.849	54.52
600.186	54.52
600.523	54.6
600.859	54.66
601.196	54.69
601.532	54.81
601.869	54.84
602.205	54.85
602.542	54.89
602.878	54.93
603.215	54.94
603.551	55.02
603.887	55.03
604.223	55.01
604.56	55.02
604.896	55.03
605.232	55.09
605.568	55.16
605.904	55.29
606.24	55.43
606.576	55.48
606.912	55.55
607.248	55.56
607.583	55.59
607.919	55.62
608.255	55.62
608.591	55.63
608.926	55.74
609.262	55.77
609.597	55.81
609.933	55.88
610.268	55.96
610.604	56.02
610.939	56.09
611.275	56.15
611.61	56.19
611.945	56.26
612.281	56.29
612.616	56.24
612.951	56.21
613.286	56.26
613.621	56.19
613.956	56.28
614.291	56.35
614.626	56.33
614.961	56.35
615.296	56.41
615.631	56.36
615.966	56.28
616.3	56.36
616.635	56.48
616.97	56.43
617.304	56.47
617.639	56.48
617.973	56.43
618.308	56.53
618.642	56.56
618.977	56.62
619.311	56.62
619.646	56.76
619.98	56.86
620.314	56.8
620.648	56.88
620.983	56.97
621.317	56.98
621.651	57.03
621.985	57.08
622.319	57.12
622.653	57.23
622.987	57.41
623.321	57.47
623.655	57.55
623.988	57.61
624.322	57.65
624.656	57.66
624.99	57.69
625.323	57.71
625.657	57.76
625.99	57.69
626.324	57.73
626.657	57.73
626.991	57.68
627.324	57.64
627.658	57.72
627.991	57.68
628.324	57.8
628.657	57.85
628.991	57.9
629.324	57.91
629.657	57.86
629.99	57.9
630.323	57.84
630.656	57.76
630.989	57.8
631.322	57.77
631.655	57.81
631.987	57.82
632.32	57.81
632.653	57.7
632.986	57.75
633.318	57.75
633.651	57.82
633.984	57.83
634.316	57.99
634.649	58.01
634.981	58.15
635.313	58.18
635.646	58.23
635.978	58.22
636.31	58.32
636.643	58.41
636.975	58.35
637.307	58.44
637.639	58.47
637.971	58.47
638.303	58.45
638.635	58.4
638.967	58.51
639.299	58.5
639.631	58.67
639.963	58.65
640.295	58.69
640.626	58.61
640.958	58.74
641.29	58.7
641.621	58.7
641.953	58.57
642.285	58.53
642.616	58.53
642.948	58.53
643.279	58.63
643.61	58.69
643.942	58.63
644.273	58.51
644.604	58.57
644.936	58.62
645.267	58.78
645.598	58.86
645.929	58.84
646.26	58.92
646.591	58.99
646.922	59.04
647.253	59.05
647.584	59.12
647.915	59.09
648.245	58.96
648.576	58.93
648.907	59
649.238	58.9
649.568	58.78
649.899	58.67
650.229	58.53
650.56	58.45
650.89	58.5
651.221	58.61
651.551	58.5
651.882	58.43
652.212	58.33
652.542	58.29
652.872	58.17
653.203	58.14
653.533	58.11
653.863	58.19
654.193	58.24
654.523	58.18
654.853	58.27
655.183	58.43
655.513	58.45
655.843	58.48
656.172	58.55
656.502	58.72
656.832	58.78
657.162	58.81
657.491	58.81
657.821	58.86
658.15	58.82
658.48	58.89
658.809	58.98
659.139	59.1
659.468	59.03
659.798	59.12
660.127	59.13
660.456	59.12
660.785	59.1
661.115	59.19
661.444	59.35
661.773	59.22
662.102	59.22
662.431	59.28
662.76	59.34
663.089	59.44
663.418	59.42
663.747	59.61
664.076	59.64
664.404	59.62
664.733	59.67
