Data from BU26938_Reflection_00006.txt Node
Date: Tue Nov 19 10:42:17 EST 2019
User: vgr7
Spectrometer: USB2G7710
Scans to average: 3
Trigger mode: 4
Integration Time (sec): 2.000000E-2
Electric dark correction enabled: true
Boxcar width: 10
XAxis mode: Wavelengths
Number of Pixels in Spectrum: 2048
>>>>>Begin Spectral Data<<<<<
177.721	136.4
178.105	-515.38
178.488	761.65
178.871	6050
179.254	170.97
179.636	128.41
180.019	24.91
180.402	109.52
180.785	57.89
181.168	-67.94
181.55	-302.6
181.933	-235.08
182.316	-1198.7
182.698	3809.68
183.081	-417.11
183.463	529.45
183.846	1739.34
184.228	1137.97
184.611	1937.21
184.993	535.29
185.376	6242.86
185.758	-139.75
186.14	-218.03
186.522	-97.4
186.904	-197.67
187.287	-102
187.669	-134.53
188.051	-134.86
188.433	-265.04
188.815	-246.63
189.197	-162.88
189.579	-155.81
189.961	-200.49
190.342	-40.64
190.724	-71.56
191.106	-153.37
191.488	-82.94
191.869	-47.4
192.251	-32.6
192.633	-62.58
193.014	-63.12
193.396	-51.18
193.777	-50.3
194.159	-25.57
194.54	-23.67
194.922	-20.24
195.303	-29.58
195.684	-24.8
196.065	-33.16
196.447	-25.18
196.828	-25.15
197.209	-19.83
197.59	-29.44
197.971	-37.02
198.352	-47.91
198.733	-33.51
199.114	-38.88
199.495	-48
199.876	-37.99
200.257	-27.42
200.638	-12.25
201.018	-18.57
201.399	-27.51
201.78	-14.82
202.16	-35.28
202.541	-30.41
202.922	-32.93
203.302	-22
203.683	-15.84
204.063	-6.61
204.444	-9.42
204.824	-8.45
205.204	-7.03
205.585	27.08
205.965	52.17
206.345	55.89
206.725	29.38
207.106	22.52
207.486	11.66
207.866	1.09
208.246	-11.58
208.626	-10.93
209.006	8.83
209.386	38.9
209.766	12.71
210.145	23.4
210.525	-8.86
210.905	97.39
211.285	67.66
211.664	56.78
212.044	47.22
212.424	10.7
212.803	-6.65
213.183	-27.39
213.562	-17.54
213.942	24.19
214.321	17.8
214.701	14.71
215.08	5.64
215.459	17.56
215.838	32.89
216.218	14.78
216.597	-10.16
216.976	-29.56
217.355	-29.95
217.734	-11.43
218.113	-6.01
218.492	20.98
218.871	-4.94
219.25	-22.57
219.629	-40.76
220.008	-42.55
220.387	-52.87
220.766	-26.03
221.144	-36.56
221.523	-44.66
221.902	-66.16
222.28	-58.45
222.659	-32.42
223.037	-36.38
223.416	-31.09
223.794	-32.35
224.173	-36.38
224.551	-21.16
224.929	-13.69
225.308	-11.33
225.686	-20.89
226.064	-17.71
226.442	-19.82
226.821	-16.17
227.199	-16.1
227.577	-12.72
227.955	-3.85
228.333	-1.04
228.711	-4.8
229.089	-1.07
229.467	-6.36
229.845	-9.2
230.222	-6.07
230.6	-6.02
230.978	-2.32
231.356	0.01
231.733	2.49
232.111	6.76
232.488	8.32
232.866	8.7
233.243	7.66
233.621	8.08
233.998	6.35
234.376	8.64
234.753	8.8
235.13	10.17
235.508	8.7
235.885	8.67
236.262	8.48
236.639	7.74
237.016	8.1
237.393	9.91
237.77	10.56
238.147	9.69
238.524	8.67
238.901	8.33
239.278	7.45
239.655	6.67
240.032	6.08
240.409	4.94
240.785	4.74
241.162	4.83
241.539	4.74
241.915	5.31
242.292	4.89
242.668	5.06
243.045	4.81
243.421	5.16
243.798	4.9
244.174	4.96
244.551	5.05
244.927	4.66
245.303	4.5
245.679	4.43
246.056	4.37
246.432	4.38
246.808	4.2
247.184	4.34
247.56	4.37
247.936	4.61
248.312	4.69
248.688	4.74
249.064	4.43
249.44	4.34
249.815	4.12
250.191	4.06
250.567	4.13
250.943	4.13
251.318	3.77
251.694	3.58
252.069	3.7
252.445	3.9
252.82	4.03
253.196	3.92
253.571	4.02
253.947	4.05
254.322	4.24
254.697	4.44
255.073	4.45
255.448	4.21
255.823	3.97
256.198	4
256.573	3.54
256.948	3.64
257.323	3.81
257.698	3.83
258.073	3.82
258.448	3.76
258.823	3.88
259.198	4.11
259.573	3.95
259.948	3.81
260.322	3.64
260.697	3.77
261.072	4.02
261.446	3.9
261.821	3.89
262.195	3.8
262.57	3.7
262.944	3.52
263.319	3.52
263.693	3.52
264.067	3.59
264.442	3.78
264.816	3.79
265.19	3.64
265.564	3.61
265.938	3.71
266.313	3.63
266.687	3.55
267.061	3.57
267.435	3.91
267.809	3.92
268.183	4.07
268.556	3.75
268.93	3.67
269.304	3.55
269.678	3.67
270.051	3.63
270.425	3.78
270.799	3.64
271.172	3.61
271.546	3.67
271.919	3.62
272.293	3.66
272.666	3.78
273.04	3.91
273.413	4
273.787	3.82
274.16	3.74
274.533	3.9
274.906	3.79
275.279	3.75
275.653	3.82
276.026	3.9
276.399	4.03
276.772	3.96
277.145	4.17
277.518	4.06
277.891	4.13
278.263	4.05
278.636	4.18
279.009	4.34
279.382	4.22
279.755	4.27
280.127	4.32
280.5	4.3
280.872	4.28
281.245	4.03
281.617	4.15
281.99	4.24
282.362	4.08
282.735	4.02
283.107	4.1
283.479	4.18
283.852	4.1
284.224	4.02
284.596	4.06
284.968	3.9
285.34	3.8
285.713	3.94
286.085	3.98
286.457	4.02
286.829	3.9
287.201	3.98
287.572	4.01
287.944	4.04
288.316	4.1
288.688	4.13
289.06	4.23
289.431	4.35
289.803	4.39
290.175	4.4
290.546	4.46
290.918	4.49
291.289	4.23
291.661	4.16
292.032	4.16
292.403	4.15
292.775	4.33
293.146	4.44
293.517	4.32
293.889	4.14
294.26	4.03
294.631	4.09
295.002	4
295.373	3.86
295.744	3.72
296.115	3.73
296.486	3.73
296.857	3.76
297.228	3.49
297.599	3.37
297.97	3.34
298.34	3.27
298.711	3.2
299.082	3.35
299.452	3.3
299.823	3.35
300.194	3.42
300.564	3.25
300.935	3.12
301.305	3.08
301.676	3.04
302.046	3.08
302.416	2.97
302.787	3.01
303.157	3.06
303.527	3.23
303.897	3.14
304.267	3.02
304.637	2.97
305.008	3.03
305.378	3.11
305.748	3.26
306.117	3.41
306.487	3.31
306.857	3.23
307.227	3.43
307.597	3.43
307.967	3.38
308.336	3.46
308.706	3.54
309.076	3.53
309.445	3.74
309.815	3.74
310.184	3.8
310.554	3.68
310.923	3.67
311.293	3.55
311.662	3.55
312.031	3.58
312.401	3.57
312.77	3.63
313.139	3.56
313.508	3.45
313.877	3.43
314.246	3.36
314.616	3.42
314.985	3.19
315.353	3.22
315.722	3.27
316.091	3.34
316.46	3.26
316.829	3.29
317.198	3.08
317.567	3.19
317.935	3.19
318.304	3.28
318.672	3.17
319.041	3.21
319.41	3.14
319.778	3.12
320.147	3
320.515	2.97
320.883	3.05
321.252	3
321.62	3.02
321.988	3.22
322.357	3.13
322.725	3.16
323.093	3.07
323.461	3.08
323.829	2.97
324.197	3.06
324.565	3.07
324.933	3.1
325.301	2.89
325.669	2.9
326.037	2.93
326.405	3
326.772	2.93
327.14	3
327.508	2.94
327.875	3.06
328.243	3.1
328.61	3.1
328.978	3.07
329.346	3.09
329.713	2.94
330.08	2.98
330.448	3.06
330.815	3.07
331.182	2.86
331.55	2.89
331.917	2.89
332.284	2.87
332.651	2.96
333.018	3.01
333.385	3.11
333.752	3.15
334.119	3.14
334.486	3.3
334.853	3.3
335.22	3.36
335.587	3.32
335.954	3.2
336.32	3.17
336.687	3.27
337.054	3.33
337.42	3.46
337.787	3.46
338.153	3.41
338.52	3.39
338.886	3.52
339.253	3.39
339.619	3.35
339.986	3.33
340.352	3.28
340.718	3.36
341.084	3.29
341.451	3.21
341.817	3.25
342.183	3.01
342.549	3.01
342.915	3
343.281	3.08
343.647	3.11
344.013	3.16
344.379	3.1
344.745	2.9
345.11	2.86
345.476	2.91
345.842	2.9
346.208	2.94
346.573	2.86
346.939	3.02
347.304	3.08
347.67	3.03
348.035	2.96
348.401	2.86
348.766	2.92
349.132	2.95
349.497	2.92
349.862	3.02
350.228	2.96
350.593	3
350.958	2.94
351.323	3.06
351.688	3
352.053	2.98
352.418	3.08
352.783	3.07
353.148	3.09
353.513	3.13
353.878	3.02
354.243	3.01
354.608	2.98
354.972	2.89
355.337	2.9
355.702	2.98
356.066	3.08
356.431	3.01
356.795	3
357.16	3.02
357.524	3.06
357.889	3.03
358.253	3.03
358.618	3.01
358.982	2.92
359.346	2.94
359.71	2.97
360.075	2.95
360.439	3
360.803	2.96
361.167	2.91
361.531	3
361.895	3.05
362.259	3.06
362.623	3.1
362.987	3.14
363.351	3.09
363.714	3.03
364.078	3.01
364.442	2.95
364.806	2.9
365.169	2.87
365.533	2.89
365.896	2.9
366.26	2.92
366.623	2.94
366.987	2.98
367.35	2.98
367.714	2.98
368.077	2.9
368.44	2.94
368.803	2.94
369.167	2.91
369.53	2.88
369.893	2.83
370.256	2.81
370.619	2.77
370.982	2.76
371.345	2.87
371.708	2.92
372.071	2.94
372.434	2.92
372.797	2.86
373.159	2.86
373.522	2.84
373.885	2.83
374.247	2.85
374.61	2.86
374.973	2.83
375.335	2.83
375.698	2.84
376.06	2.81
376.423	2.86
376.785	2.87
377.147	2.9
377.51	2.93
377.872	3
378.234	3.09
378.596	3.16
378.958	3.15
379.321	3.14
379.683	3.21
380.045	3.26
380.407	3.3
380.769	3.31
381.13	3.31
381.492	3.33
381.854	3.33
382.216	3.28
382.578	3.33
382.939	3.37
383.301	3.37
383.663	3.34
384.024	3.3
384.386	3.26
384.747	3.21
385.109	3.16
385.47	3.11
385.832	3.05
386.193	3.04
386.554	2.97
386.916	2.98
387.277	2.94
387.638	2.95
387.999	2.98
388.36	2.97
388.721	3
389.082	2.98
389.443	3
389.804	3.02
390.165	2.99
390.526	2.94
390.887	2.93
391.248	2.94
391.609	2.98
391.969	3.01
392.33	3
392.691	3.03
393.051	3.04
393.412	3.07
393.772	3.08
394.133	3.1
394.493	3.1
394.854	3.1
395.214	3.11
395.574	3.1
395.935	3.08
396.295	3.06
396.655	3.05
397.015	3.03
397.376	3.02
397.736	3.01
398.096	3.02
398.456	3.01
398.816	3.03
399.176	2.99
399.535	3
399.895	3.02
400.255	3.01
400.615	3.01
400.975	2.97
401.334	2.96
401.694	2.98
402.054	2.96
402.413	2.95
402.773	2.92
403.132	2.9
403.492	2.93
403.851	2.94
404.211	2.98
404.57	2.96
404.929	2.95
405.288	2.96
405.648	2.96
406.007	2.96
406.366	2.95
406.725	2.97
407.084	2.97
407.443	2.99
407.802	2.99
408.161	2.99
408.52	3.03
408.879	3
409.238	2.96
409.596	2.98
409.955	2.97
410.314	2.99
410.673	3
411.031	2.97
411.39	2.98
411.748	2.98
412.107	2.97
412.465	2.97
412.824	2.95
413.182	2.98
413.54	3
413.899	3
414.257	2.97
414.615	2.98
414.974	2.96
415.332	2.95
415.69	2.94
416.048	2.91
416.406	2.92
416.764	2.93
417.122	2.9
417.48	2.93
417.838	2.93
418.195	2.94
418.553	2.96
418.911	2.94
419.269	2.92
419.626	2.93
419.984	2.92
420.342	2.94
420.699	2.92
421.057	2.92
421.414	2.94
421.772	2.94
422.129	2.91
422.486	2.91
422.844	2.93
423.201	2.93
423.558	2.92
423.915	2.93
424.273	2.94
424.63	2.96
424.987	2.95
425.344	2.95
425.701	2.94
426.058	2.93
426.415	2.93
426.772	2.95
427.128	2.97
427.485	2.97
427.842	2.95
428.199	2.97
428.555	2.96
428.912	2.92
429.269	2.92
429.625	2.95
429.982	2.94
430.338	2.92
430.695	2.9
431.051	2.93
431.407	2.93
431.764	2.92
432.12	2.9
432.476	2.9
432.832	2.93
433.189	2.93
433.545	2.92
433.901	2.92
434.257	2.91
434.613	2.89
434.969	2.89
435.325	2.9
435.681	2.91
436.036	2.9
436.392	2.93
436.748	2.95
437.104	2.95
437.459	2.95
437.815	2.97
438.171	2.98
438.526	2.97
438.882	2.96
439.237	2.95
439.593	2.96
439.948	2.96
440.304	2.92
440.659	2.93
441.014	2.93
441.369	2.93
441.725	2.94
442.08	2.94
442.435	2.94
442.79	2.95
443.145	2.94
443.5	2.93
443.855	2.92
444.21	2.93
444.565	2.92
444.92	2.93
445.275	2.93
445.629	2.92
445.984	2.92
446.339	2.93
446.693	2.94
447.048	2.93
447.403	2.93
447.757	2.93
448.112	2.93
448.466	2.94
448.82	2.95
449.175	2.94
449.529	2.95
449.883	2.94
450.238	2.92
450.592	2.92
450.946	2.91
451.3	2.92
451.654	2.89
452.008	2.9
452.362	2.9
452.716	2.9
453.07	2.91
453.424	2.89
453.778	2.9
454.132	2.9
454.486	2.91
454.839	2.91
455.193	2.93
455.547	2.94
455.9	2.92
456.254	2.92
456.607	2.92
456.961	2.91
457.314	2.93
457.668	2.95
458.021	2.95
458.375	2.97
458.728	2.97
459.081	2.97
459.434	2.97
459.787	2.98
460.141	2.99
460.494	2.99
460.847	3
461.2	2.99
461.553	3
461.906	3
462.259	3.01
462.611	3
462.964	3.01
463.317	3.01
463.67	3.03
464.022	3.05
464.375	3.06
464.728	3.05
465.08	3.05
465.433	3.05
465.785	3.05
466.138	3.05
466.49	3.05
466.843	3.05
467.195	3.05
467.547	3.04
467.899	3.04
468.252	3.06
468.604	3.05
468.956	3.06
469.308	3.04
469.66	3.05
470.012	3.06
470.364	3.04
470.716	3.06
471.068	3.04
471.42	3.04
471.772	3.04
472.123	3.06
472.475	3.07
472.827	3.07
473.178	3.06
473.53	3.06
473.882	3.05
474.233	3.02
474.585	3.02
474.936	3.02
475.288	3.01
475.639	3.02
475.99	3.01
476.342	2.99
476.693	3
477.044	2.99
477.395	2.99
477.746	2.99
478.097	2.99
478.448	2.98
478.8	2.97
479.15	2.96
479.501	2.94
479.852	2.95
480.203	2.96
480.554	2.96
480.905	2.97
481.255	2.99
481.606	3
481.957	3
482.307	2.99
482.658	3.01
483.009	3
483.359	3.01
483.709	3.01
484.06	3.02
484.41	3.02
484.761	3.03
485.111	3.03
485.461	3.03
485.811	3.03
486.162	3.03
486.512	3.03
486.862	3.05
487.212	3.05
487.562	3.05
487.912	3.06
488.262	3.05
488.612	3.06
488.961	3.06
489.311	3.07
489.661	3.07
490.011	3.05
490.36	3.06
490.71	3.06
491.06	3.06
491.409	3.06
491.759	3.05
492.108	3.04
492.458	3.03
492.807	3.03
493.157	3.02
493.506	3.03
493.855	3.02
494.204	3.01
494.554	3
494.903	3.02
495.252	3.02
495.601	3.03
495.95	3.02
496.299	3.02
496.648	3.02
496.997	3.03
497.346	3.07
497.695	3.05
498.043	3.06
498.392	3.07
498.741	3.07
499.09	3.09
499.438	3.11
499.787	3.14
500.135	3.16
500.484	3.18
500.832	3.18
501.181	3.2
501.529	3.21
501.878	3.24
502.226	3.22
502.574	3.22
502.923	3.23
503.271	3.24
503.619	3.24
503.967	3.22
504.315	3.23
504.663	3.18
505.011	3.2
505.359	3.18
505.707	3.15
506.055	3.15
506.403	3.14
506.751	3.13
507.098	3.12
507.446	3.12
507.794	3.13
508.141	3.14
508.489	3.14
508.837	3.14
509.184	3.13
509.531	3.12
509.879	3.11
510.226	3.1
510.574	3.11
510.921	3.11
511.268	3.12
511.616	3.12
511.963	3.15
512.31	3.16
512.657	3.17
513.004	3.18
513.351	3.19
513.698	3.2
514.045	3.21
514.392	3.19
514.739	3.2
515.086	3.21
515.432	3.22
515.779	3.22
516.126	3.24
516.473	3.23
516.819	3.25
517.166	3.28
517.512	3.3
517.859	3.29
518.205	3.29
518.552	3.31
518.898	3.3
519.245	3.31
519.591	3.33
519.937	3.34
520.283	3.35
520.629	3.34
520.976	3.33
521.322	3.32
521.668	3.33
522.014	3.34
522.36	3.32
522.706	3.3
523.052	3.3
523.398	3.28
523.743	3.3
524.089	3.3
524.435	3.27
524.781	3.28
525.126	3.28
525.472	3.29
525.817	3.29
526.163	3.3
526.509	3.29
526.854	3.29
527.199	3.3
527.545	3.31
527.89	3.32
528.235	3.33
528.581	3.33
528.926	3.33
529.271	3.33
529.616	3.32
529.961	3.33
530.306	3.33
530.651	3.34
530.996	3.33
531.341	3.34
531.686	3.35
532.031	3.33
532.376	3.32
532.721	3.33
533.065	3.32
533.41	3.33
533.755	3.32
534.099	3.31
534.444	3.3
534.788	3.28
535.133	3.28
535.477	3.28
535.822	3.28
536.166	3.27
536.51	3.26
536.855	3.29
537.199	3.3
537.543	3.3
537.887	3.31
538.231	3.32
538.576	3.31
538.92	3.3
539.264	3.32
539.608	3.33
539.951	3.32
540.295	3.33
540.639	3.34
540.983	3.34
541.327	3.35
541.671	3.36
542.014	3.38
542.358	3.39
542.701	3.4
543.045	3.4
543.389	3.41
543.732	3.41
544.075	3.41
544.419	3.4
544.762	3.41
545.105	3.41
545.449	3.41
545.792	3.42
546.135	3.44
546.478	3.45
546.821	3.46
547.165	3.46
547.508	3.46
547.851	3.45
548.194	3.45
548.536	3.44
548.879	3.44
549.222	3.43
549.565	3.41
549.908	3.4
550.25	3.4
550.593	3.39
550.936	3.39
551.278	3.39
551.621	3.38
551.963	3.4
552.306	3.39
552.648	3.39
552.991	3.41
553.333	3.4
553.675	3.41
554.017	3.39
554.36	3.39
554.702	3.37
555.044	3.38
555.386	3.37
555.728	3.39
556.07	3.4
556.412	3.39
556.754	3.4
557.096	3.42
557.438	3.45
557.78	3.45
558.121	3.46
558.463	3.44
558.805	3.46
559.147	3.42
559.488	3.42
559.83	3.4
560.171	3.38
560.513	3.39
560.854	3.37
561.196	3.4
561.537	3.43
561.878	3.46
562.22	3.46
562.561	3.49
562.902	3.49
563.243	3.49
563.584	3.5
563.925	3.51
564.266	3.49
564.607	3.47
564.948	3.46
565.289	3.45
565.63	3.43
565.971	3.44
566.312	3.43
566.653	3.43
566.993	3.42
567.334	3.42
567.675	3.42
568.015	3.42
568.356	3.39
568.696	3.38
569.037	3.36
569.377	3.38
569.718	3.36
570.058	3.38
570.398	3.38
570.739	3.38
571.079	3.37
571.419	3.37
571.759	3.37
572.099	3.38
572.439	3.38
572.779	3.38
573.119	3.37
573.459	3.38
573.799	3.39
574.139	3.41
574.479	3.41
574.819	3.4
575.158	3.4
575.498	3.44
575.838	3.42
576.177	3.4
576.517	3.39
576.856	3.37
577.196	3.34
577.535	3.35
577.875	3.34
578.214	3.33
578.553	3.31
578.893	3.32
579.232	3.33
579.571	3.35
579.91	3.36
580.25	3.33
580.589	3.35
580.928	3.33
581.267	3.36
581.606	3.33
581.945	3.32
582.283	3.34
582.622	3.32
582.961	3.34
583.3	3.4
583.639	3.4
583.977	3.41
584.316	3.45
584.654	3.41
584.993	3.39
585.332	3.37
585.67	3.43
586.008	3.43
586.347	3.45
586.685	3.39
587.024	3.42
587.362	3.48
587.7	3.5
588.038	3.54
588.376	3.5
588.715	3.52
589.053	3.54
589.391	3.53
589.729	3.54
590.067	3.56
590.404	3.54
590.742	3.53
591.08	3.5
591.418	3.51
591.756	3.53
592.093	3.56
592.431	3.6
592.769	3.58
593.106	3.57
593.444	3.53
593.781	3.54
594.119	3.53
594.456	3.51
594.793	3.47
595.131	3.45
595.468	3.46
595.805	3.48
596.143	3.48
596.48	3.48
596.817	3.46
597.154	3.46
597.491	3.44
597.828	3.45
598.165	3.48
598.502	3.44
598.839	3.46
599.176	3.43
599.512	3.4
599.849	3.39
600.186	3.39
600.523	3.43
600.859	3.48
601.196	3.46
601.532	3.46
601.869	3.47
602.205	3.48
602.542	3.48
602.878	3.46
603.215	3.49
603.551	3.51
603.887	3.51
604.223	3.5
604.56	3.5
604.896	3.5
605.232	3.5
605.568	3.51
605.904	3.5
606.24	3.54
606.576	3.56
606.912	3.57
607.248	3.58
607.583	3.55
607.919	3.52
608.255	3.55
608.591	3.56
608.926	3.57
609.262	3.55
609.597	3.56
609.933	3.59
610.268	3.57
610.604	3.54
610.939	3.6
611.275	3.62
611.61	3.67
611.945	3.63
612.281	3.65
612.616	3.65
612.951	3.7
613.286	3.67
613.621	3.68
613.956	3.7
614.291	3.69
614.626	3.73
614.961	3.71
615.296	3.72
615.631	3.74
615.966	3.75
616.3	3.82
616.635	3.82
616.97	3.78
617.304	3.76
617.639	3.79
617.973	3.72
618.308	3.69
618.642	3.59
618.977	3.62
619.311	3.59
619.646	3.58
619.98	3.56
620.314	3.55
620.648	3.54
620.983	3.51
621.317	3.48
621.651	3.52
621.985	3.6
622.319	3.6
622.653	3.6
622.987	3.58
623.321	3.52
623.655	3.51
623.988	3.54
624.322	3.58
624.656	3.58
624.99	3.58
625.323	3.55
625.657	3.62
625.99	3.67
626.324	3.67
626.657	3.68
626.991	3.67
627.324	3.64
627.658	3.62
627.991	3.64
628.324	3.66
628.657	3.63
628.991	3.6
629.324	3.58
629.657	3.59
629.99	3.59
630.323	3.61
630.656	3.62
630.989	3.64
631.322	3.6
631.655	3.58
631.987	3.58
632.32	3.62
632.653	3.59
632.986	3.56
633.318	3.61
633.651	3.65
633.984	3.66
634.316	3.7
634.649	3.7
634.981	3.68
635.313	3.71
635.646	3.73
635.978	3.75
636.31	3.76
636.643	3.76
636.975	3.73
637.307	3.73
637.639	3.77
637.971	3.71
638.303	3.73
638.635	3.72
638.967	3.76
639.299	3.73
639.631	3.74
639.963	3.77
640.295	3.77
640.626	3.78
640.958	3.78
641.29	3.82
641.621	3.85
641.953	3.9
642.285	3.93
642.616	3.88
642.948	3.88
643.279	3.9
643.61	3.9
643.942	3.93
644.273	3.95
644.604	3.89
644.936	3.91
645.267	3.88
645.598	3.92
645.929	3.93
646.26	4.04
646.591	4.05
646.922	4.05
647.253	4.03
647.584	3.97
647.915	3.95
648.245	3.93
648.576	3.91
648.907	3.96
649.238	3.91
649.568	3.93
649.899	3.91
650.229	3.91
650.56	3.87
650.89	3.9
651.221	3.91
651.551	3.94
651.882	3.93
652.212	4.02
652.542	4.03
652.872	3.99
653.203	3.98
653.533	4.02
653.863	4.01
654.193	3.98
654.523	3.95
654.853	3.98
655.183	3.98
655.513	4.06
655.843	3.98
656.172	4.01
656.502	4
656.832	3.98
657.162	3.96
657.491	3.95
657.821	3.89
658.15	3.87
658.48	3.86
658.809	3.87
659.139	3.83
659.468	3.78
659.798	3.77
660.127	3.76
660.456	3.73
660.785	3.71
661.115	3.76
661.444	3.79
661.773	3.8
662.102	3.76
662.431	3.71
662.76	3.74
663.089	3.78
663.418	3.83
663.747	3.85
664.076	3.88
664.404	3.91
664.733	4.01
665.062	4.02
665.39	3.93
665.719	3.97
666.048	3.94
666.376	3.94
666.705	3.94
667.033	3.92
667.362	3.92
667.69	3.97
668.018	3.94
668.347	3.97
668.675	3.96
669.003	3.97
669.331	4
669.659	3.96
669.987	3.88
670.315	3.77
670.643	3.74
670.971	3.73
671.299	3.78
671.627	3.76
671.955	3.63
672.283	3.68
672.61	3.67
672.938	3.74
673.266	3.78
673.593	3.8
673.921	3.89
674.249	3.91
674.576	3.93
674.904	3.92
675.231	3.95
675.558	3.98
675.886	4.02
676.213	3.99
676.54	4.09
676.867	4.1
677.195	4.2
677.522	4.18
677.849	4.26
678.176	4.24
678.503	4.24
678.83	4.35
679.157	4.33
679.484	4.37
679.81	4.32
