Data from BU26848_Reflection_00006.txt Node
Date: Mon Nov 18 16:25:35 EST 2019
User: vgr7
Spectrometer: USB2G7710
Scans to average: 3
Trigger mode: 4
Integration Time (sec): 2.000000E-2
Electric dark correction enabled: true
Boxcar width: 10
XAxis mode: Wavelengths
Number of Pixels in Spectrum: 2048
>>>>>Begin Spectral Data<<<<<
177.721	190.17
178.105	57.45
178.488	-178.4
178.871	47.37
179.254	165.09
179.636	867.86
180.019	-49.78
180.402	225
180.785	2867.44
181.168	153.19
181.55	661.64
181.933	121.75
182.316	99.6
182.698	75.07
183.081	77.22
183.463	65.76
183.846	60.64
184.228	111.65
184.611	68.24
184.993	106.5
185.376	-479.77
185.758	-298.18
186.14	-1312.21
186.522	444.4
186.904	928.88
187.287	477.31
187.669	-698.88
188.051	1265.41
188.433	-324.51
188.815	-119.6
189.197	-74.46
189.579	-66.21
189.961	-36.63
190.342	-32.8
190.724	-15.53
191.106	-0.6
191.488	-24.96
191.869	-20.98
192.251	-9.88
192.633	-9.17
193.014	0.95
193.396	-1.27
193.777	-0.54
194.159	0.8
194.54	-1.09
194.922	2.5
195.303	11.19
195.684	12.17
196.065	19.17
196.447	-4.51
196.828	-16.93
197.209	-19.36
197.59	-4.86
197.971	37.75
198.352	6.75
198.733	-31.51
199.114	-50.31
199.495	1.91
199.876	-5.48
200.257	-9.59
200.638	-6.69
201.018	-13.91
201.399	-15.68
201.78	-23.35
202.16	-23.21
202.541	-30.5
202.922	-21.88
203.302	-38.94
203.683	-48.76
204.063	-31.71
204.444	35
204.824	62.23
205.204	36.86
205.585	17.21
205.965	13
206.345	29.3
206.725	42.26
207.106	110.84
207.486	153.53
207.866	49.34
208.246	45.9
208.626	-46.89
209.006	23.74
209.386	36.99
209.766	129.75
210.145	44.77
210.525	-13.39
210.905	-9.56
211.285	-3.61
211.664	10.45
212.044	6.24
212.424	7.28
212.803	-19
213.183	-6.13
213.562	-0.71
213.942	10.1
214.321	12.06
214.701	0.95
215.08	2.71
215.459	13.94
215.838	17.14
216.218	16.92
216.597	20.95
216.976	7.38
217.355	15.29
217.734	18.86
218.113	31.55
218.492	34
218.871	31.47
219.25	37.47
219.629	35.98
220.008	37.99
220.387	35.16
220.766	42.01
221.144	34.02
221.523	39.94
221.902	31.19
222.28	19.99
222.659	32.23
223.037	36.52
223.416	29.17
223.794	35.37
224.173	38.25
224.551	52.59
224.929	57.59
225.308	51.12
225.686	42.5
226.064	36.69
226.442	34.02
226.821	35.28
227.199	29.65
227.577	23.55
227.955	19.97
228.333	17.33
228.711	17.21
229.089	18.56
229.467	14.36
229.845	14.94
230.222	15.13
230.6	12.34
230.978	8.79
231.356	8.72
231.733	6.93
232.111	7.05
232.488	3.44
232.866	2.52
233.243	3.11
233.621	4.09
233.998	3.59
234.376	2.64
234.753	3.24
235.13	5.15
235.508	6.72
235.885	7.88
236.262	8.53
236.639	7.76
237.016	7.11
237.393	9.6
237.77	8.87
238.147	8.65
238.524	8.16
238.901	9.28
239.278	9.1
239.655	9.38
240.032	9.49
240.409	9.84
240.785	9.8
241.162	9.26
241.539	9.01
241.915	8.96
242.292	8.6
242.668	8.22
243.045	7.69
243.421	7.25
243.798	6.89
244.174	6.35
244.551	6.28
244.927	6.25
245.303	5.86
245.679	6.02
246.056	5.96
246.432	6.07
246.808	6.07
247.184	5.75
247.56	5.63
247.936	5.53
248.312	5.27
248.688	5.14
249.064	4.74
249.44	4.66
249.815	4.74
250.191	5
250.567	4.96
250.943	4.91
251.318	5.13
251.694	5.25
252.069	5.38
252.445	5.47
252.82	5.57
253.196	5.86
253.571	5.43
253.947	5.7
254.322	5.77
254.697	5.3
255.073	5.36
255.448	4.99
255.823	4.88
256.198	5.12
256.573	5.28
256.948	5.42
257.323	5.38
257.698	5.07
258.073	4.86
258.448	4.62
258.823	4.49
259.198	4.31
259.573	4.21
259.948	4.19
260.322	4.31
260.697	4.1
261.072	3.97
261.446	4.29
261.821	4.22
262.195	4.26
262.57	4.4
262.944	4.43
263.319	4.53
263.693	4.47
264.067	4.55
264.442	4.6
264.816	4.61
265.19	4.71
265.564	4.78
265.938	4.94
266.313	4.89
266.687	4.88
267.061	4.79
267.435	5.03
267.809	4.91
268.183	4.74
268.556	4.9
268.93	5.03
269.304	4.63
269.678	4.72
270.051	4.57
270.425	4.5
270.799	4.62
271.172	4.75
271.546	4.79
271.919	4.65
272.293	4.61
272.666	4.8
273.04	4.64
273.413	4.52
273.787	4.37
274.16	4.53
274.533	4.52
274.906	4.6
275.279	4.39
275.653	4.55
276.026	4.54
276.399	4.48
276.772	4.46
277.145	4.49
277.518	4.41
277.891	4.55
278.263	4.57
278.636	4.34
279.009	4.11
279.382	4.1
279.755	4.08
280.127	4.14
280.5	4.14
280.872	4.18
281.245	4.21
281.617	4.37
281.99	4.53
282.362	4.66
282.735	4.45
283.107	4.51
283.479	4.55
283.852	4.47
284.224	4.52
284.596	4.45
284.968	4.5
285.34	4.51
285.713	4.44
286.085	4.54
286.457	4.77
286.829	4.81
287.201	4.8
287.572	4.8
287.944	4.68
288.316	4.65
288.688	4.69
289.06	4.74
289.431	4.62
289.803	4.54
290.175	4.57
290.546	4.83
290.918	4.76
291.289	4.74
291.661	4.87
292.032	4.87
292.403	4.84
292.775	4.9
293.146	4.74
293.517	4.75
293.889	4.73
294.26	4.53
294.631	4.56
295.002	4.6
295.373	4.65
295.744	4.75
296.115	4.71
296.486	4.6
296.857	4.69
297.228	4.81
297.599	4.76
297.97	4.68
298.34	4.77
298.711	4.96
299.082	4.98
299.452	4.92
299.823	4.92
300.194	5
300.564	4.93
300.935	5.07
301.305	4.96
301.676	4.92
302.046	5.03
302.416	5.13
302.787	4.98
303.157	4.93
303.527	4.85
303.897	4.83
304.267	5.02
304.637	4.89
305.008	4.86
305.378	4.86
305.748	4.86
306.117	4.86
306.487	4.65
306.857	4.59
307.227	4.53
307.597	4.53
307.967	4.48
308.336	4.6
308.706	4.45
309.076	4.66
309.445	4.59
309.815	4.55
310.184	4.57
310.554	4.76
310.923	4.76
311.293	4.76
311.662	4.73
312.031	4.61
312.401	4.7
312.77	4.68
313.139	4.69
313.508	4.61
313.877	4.52
314.246	4.7
314.616	4.69
314.985	4.74
315.353	4.65
315.722	4.75
316.091	4.71
316.46	4.84
316.829	4.86
317.198	4.92
317.567	4.85
317.935	4.83
318.304	4.9
318.672	4.84
319.041	4.76
319.41	4.75
319.778	4.78
320.147	4.78
320.515	4.61
320.883	4.45
321.252	4.63
321.62	4.61
321.988	4.51
322.357	4.55
322.725	4.53
323.093	4.48
323.461	4.58
323.829	4.58
324.197	4.56
324.565	4.46
324.933	4.49
325.301	4.54
325.669	4.49
326.037	4.35
326.405	4.32
326.772	4.46
327.14	4.62
327.508	4.68
327.875	4.72
328.243	4.89
328.61	5.07
328.978	5.03
329.346	4.96
329.713	4.89
330.08	4.85
330.448	4.87
330.815	4.91
331.182	4.72
331.55	4.65
331.917	4.65
332.284	4.76
332.651	4.78
333.018	4.82
333.385	4.8
333.752	4.89
334.119	4.94
334.486	4.78
334.853	4.63
335.22	4.63
335.587	4.69
335.954	4.76
336.32	4.82
336.687	4.73
337.054	4.67
337.42	4.7
337.787	4.8
338.153	4.76
338.52	4.92
338.886	4.98
339.253	4.94
339.619	4.9
339.986	4.77
340.352	4.85
340.718	4.84
341.084	4.83
341.451	4.72
341.817	4.86
342.183	4.85
342.549	4.96
342.915	4.94
343.281	4.83
343.647	4.66
344.013	4.54
344.379	4.55
344.745	4.61
345.11	4.62
345.476	4.57
345.842	4.62
346.208	4.56
346.573	4.56
346.939	4.68
347.304	4.68
347.67	4.57
348.035	4.4
348.401	4.29
348.766	4.29
349.132	4.34
349.497	4.17
349.862	4.24
350.228	4.15
350.593	4.04
350.958	4.08
351.323	4.2
351.688	4.12
352.053	4.18
352.418	4.22
352.783	4.18
353.148	4.06
353.513	4.01
353.878	4.03
354.243	4.12
354.608	4.06
354.972	4.12
355.337	4.25
355.702	4.35
356.066	4.49
356.431	4.44
356.795	4.44
357.16	4.54
357.524	4.53
357.889	4.47
358.253	4.49
358.618	4.51
358.982	4.37
359.346	4.37
359.71	4.3
360.075	4.29
360.439	4.28
360.803	4.35
361.167	4.31
361.531	4.23
361.895	4.13
362.259	4.14
362.623	4.09
362.987	4.09
363.351	4.07
363.714	4.05
364.078	4.09
364.442	4.02
364.806	3.98
365.169	4
365.533	4.04
365.896	4.03
366.26	3.97
366.623	4.03
366.987	4.07
367.35	4.12
367.714	4.14
368.077	4.14
368.44	4.13
368.803	4.18
369.167	4.16
369.53	4.07
369.893	4.08
370.256	4.07
370.619	4.01
370.982	3.96
371.345	3.95
371.708	3.92
372.071	3.97
372.434	3.97
372.797	3.93
373.159	3.89
373.522	3.89
373.885	3.92
374.247	3.92
374.61	3.97
374.973	3.92
375.335	3.93
375.698	3.94
376.06	3.94
376.423	3.95
376.785	4.03
377.147	4.12
377.51	4.08
377.872	4.13
378.234	4.14
378.596	4.16
378.958	4.11
379.321	4.13
379.683	4.17
380.045	4.18
380.407	4.15
380.769	4.13
381.13	4.13
381.492	4.11
381.854	4.16
382.216	4.13
382.578	4.13
382.939	4.06
383.301	4.08
383.663	4.07
384.024	4.07
384.386	4.07
384.747	4.09
385.109	4.08
385.47	4.01
385.832	4.02
386.193	4.08
386.554	4.09
386.916	4.09
387.277	4.06
387.638	4.05
387.999	4.04
388.36	4.06
388.721	4.1
389.082	4.07
389.443	4.06
389.804	4.06
390.165	4.05
390.526	4.06
390.887	4.01
391.248	4.04
391.609	4.05
391.969	4.04
392.33	4
392.691	3.99
393.051	4.03
393.412	4.04
393.772	3.95
394.133	3.96
394.493	3.96
394.854	3.95
395.214	3.95
395.574	3.96
395.935	3.97
396.295	4
396.655	4.02
397.015	4.02
397.376	4.03
397.736	4.05
398.096	4.07
398.456	4.09
398.816	4.05
399.176	4.03
399.535	3.99
399.895	4.01
400.255	3.98
400.615	3.96
400.975	3.95
401.334	3.99
401.694	3.99
402.054	3.98
402.413	3.98
402.773	3.94
403.132	3.95
403.492	3.94
403.851	3.89
404.211	3.88
404.57	3.84
404.929	3.82
405.288	3.83
405.648	3.84
406.007	3.85
406.366	3.87
406.725	3.9
407.084	3.92
407.443	3.92
407.802	3.95
408.161	3.97
408.52	3.96
408.879	3.98
409.238	3.96
409.596	3.97
409.955	3.98
410.314	4.02
410.673	4.04
411.031	4.04
411.39	4.06
411.748	4.09
412.107	4.11
412.465	4.1
412.824	4.09
413.182	4.09
413.54	4.1
413.899	4.12
414.257	4.1
414.615	4.06
414.974	4.07
415.332	4.08
415.69	4.05
416.048	4.04
416.406	4.04
416.764	4.05
417.122	4.05
417.48	4.05
417.838	4.05
418.195	4.04
418.553	4.04
418.911	4.02
419.269	4.01
419.626	4.01
419.984	4.01
420.342	4.01
420.699	4
421.057	4
421.414	3.96
421.772	3.97
422.129	3.98
422.486	3.98
422.844	3.97
423.201	3.97
423.558	3.96
423.915	3.95
424.273	3.95
424.63	3.94
424.987	3.93
425.344	3.92
425.701	3.92
426.058	3.92
426.415	3.93
426.772	3.92
427.128	3.91
427.485	3.92
427.842	3.92
428.199	3.91
428.555	3.89
428.912	3.91
429.269	3.91
429.625	3.9
429.982	3.89
430.338	3.89
430.695	3.9
431.051	3.9
431.407	3.89
431.764	3.87
432.12	3.87
432.476	3.88
432.832	3.85
433.189	3.84
433.545	3.83
433.901	3.83
434.257	3.83
434.613	3.84
434.969	3.84
435.325	3.84
435.681	3.83
436.036	3.86
436.392	3.85
436.748	3.84
437.104	3.84
437.459	3.83
437.815	3.84
438.171	3.84
438.526	3.87
438.882	3.88
439.237	3.9
439.593	3.9
439.948	3.9
440.304	3.9
440.659	3.9
441.014	3.91
441.369	3.9
441.725	3.9
442.08	3.87
442.435	3.89
442.79	3.87
443.145	3.89
443.5	3.88
443.855	3.87
444.21	3.86
444.565	3.89
444.92	3.9
445.275	3.89
445.629	3.88
445.984	3.86
446.339	3.85
446.693	3.84
447.048	3.82
447.403	3.82
447.757	3.82
448.112	3.82
448.466	3.82
448.82	3.82
449.175	3.83
449.529	3.84
449.883	3.81
450.238	3.8
450.592	3.81
450.946	3.79
451.3	3.8
451.654	3.81
452.008	3.78
452.362	3.79
452.716	3.8
453.07	3.82
453.424	3.83
453.778	3.84
454.132	3.84
454.486	3.85
454.839	3.85
455.193	3.85
455.547	3.85
455.9	3.85
456.254	3.86
456.607	3.86
456.961	3.85
457.314	3.84
457.668	3.87
458.021	3.85
458.375	3.86
458.728	3.84
459.081	3.85
459.434	3.84
459.787	3.82
460.141	3.81
460.494	3.8
460.847	3.79
461.2	3.78
461.553	3.78
461.906	3.79
462.259	3.8
462.611	3.82
462.964	3.83
463.317	3.83
463.67	3.83
464.022	3.83
464.375	3.83
464.728	3.86
465.08	3.85
465.433	3.88
465.785	3.9
466.138	3.93
466.49	3.92
466.843	3.92
467.195	3.95
467.547	3.97
467.899	3.96
468.252	3.99
468.604	4.01
468.956	3.99
469.308	4
469.66	3.97
470.012	3.94
470.364	3.95
470.716	3.97
471.068	3.97
471.42	3.97
471.772	3.98
472.123	3.99
472.475	3.99
472.827	3.99
473.178	3.98
473.53	3.97
473.882	3.95
474.233	4
474.585	3.98
474.936	3.96
475.288	3.97
475.639	3.98
475.99	3.98
476.342	4.03
476.693	4.01
477.044	4.03
477.395	4.05
477.746	4.04
478.097	4.02
478.448	4.03
478.8	4.02
479.15	4
479.501	3.99
479.852	4.01
480.203	4.01
480.554	4.02
480.905	4.02
481.255	4.02
481.606	4
481.957	4.01
482.307	4.01
482.658	4.01
483.009	4.01
483.359	4
483.709	3.98
484.06	3.98
484.41	3.98
484.761	3.97
485.111	3.97
485.461	3.97
485.811	3.96
486.162	3.96
486.512	3.97
486.862	3.97
487.212	3.97
487.562	3.96
487.912	3.95
488.262	3.96
488.612	3.97
488.961	3.97
489.311	3.97
489.661	3.96
490.011	3.96
490.36	3.95
490.71	3.96
491.06	3.96
491.409	3.98
491.759	3.98
492.108	3.99
492.458	3.99
492.807	4.01
493.157	4.02
493.506	4.04
493.855	4.03
494.204	4.02
494.554	4.03
494.903	4.03
495.252	4.04
495.601	4.05
495.95	4.05
496.299	4.05
496.648	4.06
496.997	4.09
497.346	4.09
497.695	4.11
498.043	4.09
498.392	4.11
498.741	4.11
499.09	4.11
499.438	4.11
499.787	4.14
500.135	4.15
500.484	4.16
500.832	4.16
501.181	4.18
501.529	4.22
501.878	4.25
502.226	4.26
502.574	4.25
502.923	4.26
503.271	4.28
503.619	4.3
503.967	4.31
504.315	4.3
504.663	4.32
505.011	4.33
505.359	4.37
505.707	4.38
506.055	4.4
506.403	4.41
506.751	4.42
507.098	4.42
507.446	4.43
507.794	4.44
508.141	4.44
508.489	4.45
508.837	4.45
509.184	4.45
509.531	4.47
509.879	4.49
510.226	4.51
510.574	4.51
510.921	4.53
511.268	4.54
511.616	4.55
511.963	4.57
512.31	4.58
512.657	4.6
513.004	4.62
513.351	4.63
513.698	4.65
514.045	4.67
514.392	4.68
514.739	4.68
515.086	4.69
515.432	4.71
515.779	4.71
516.126	4.72
516.473	4.71
516.819	4.72
517.166	4.72
517.512	4.71
517.859	4.72
518.205	4.73
518.552	4.75
518.898	4.75
519.245	4.73
519.591	4.73
519.937	4.71
520.283	4.72
520.629	4.71
520.976	4.69
521.322	4.69
521.668	4.68
522.014	4.7
522.36	4.7
522.706	4.68
523.052	4.68
523.398	4.69
523.743	4.68
524.089	4.69
524.435	4.71
524.781	4.74
525.126	4.74
525.472	4.74
525.817	4.75
526.163	4.75
526.509	4.76
526.854	4.78
527.199	4.8
527.545	4.79
527.89	4.79
528.235	4.8
528.581	4.8
528.926	4.8
529.271	4.8
529.616	4.8
529.961	4.81
530.306	4.83
530.651	4.83
530.996	4.84
531.341	4.85
531.686	4.83
532.031	4.84
532.376	4.85
532.721	4.86
533.065	4.86
533.41	4.88
533.755	4.89
534.099	4.88
534.444	4.88
534.788	4.9
535.133	4.91
535.477	4.93
535.822	4.93
536.166	4.94
536.51	4.94
536.855	4.95
537.199	4.94
537.543	4.93
537.887	4.92
538.231	4.92
538.576	4.91
538.92	4.93
539.264	4.91
539.608	4.89
539.951	4.88
540.295	4.89
540.639	4.89
540.983	4.89
541.327	4.9
541.671	4.89
542.014	4.87
542.358	4.87
542.701	4.88
543.045	4.89
543.389	4.89
543.732	4.88
544.075	4.9
544.419	4.91
544.762	4.92
545.105	4.93
545.449	4.95
545.792	4.97
546.135	4.96
546.478	4.96
546.821	4.98
547.165	5
547.508	5
547.851	4.99
548.194	4.98
548.536	4.97
548.879	4.97
549.222	4.97
549.565	4.96
549.908	4.96
550.25	4.96
550.593	4.97
550.936	4.98
551.278	4.95
551.621	4.97
551.963	4.99
552.306	4.99
552.648	4.99
552.991	4.99
553.333	4.99
553.675	5.02
554.017	5.01
554.36	4.98
554.702	4.97
555.044	4.98
555.386	4.99
555.728	4.99
556.07	5.04
556.412	5.04
556.754	5.06
557.096	5.06
557.438	5.06
557.78	5.06
558.121	5.08
558.463	5.11
558.805	5.12
559.147	5.09
559.488	5.11
559.83	5.1
560.171	5.07
560.513	5.06
560.854	5.02
561.196	5.02
561.537	5.03
561.878	5.03
562.22	5.02
562.561	5.02
562.902	5.02
563.243	5
563.584	5.01
563.925	5.03
564.266	5
564.607	5.02
564.948	5.01
565.289	5
565.63	5
565.971	4.96
566.312	4.99
566.653	4.97
566.993	4.95
567.334	4.98
567.675	4.99
568.015	4.99
568.356	5.01
568.696	5.05
569.037	5.07
569.377	5.08
569.718	5.11
570.058	5.11
570.398	5.11
570.739	5.11
571.079	5.09
571.419	5.11
571.759	5.11
572.099	5.12
572.439	5.12
572.779	5.11
573.119	5.12
573.459	5.12
573.799	5.16
574.139	5.17
574.479	5.16
574.819	5.18
575.158	5.21
575.498	5.22
575.838	5.18
576.177	5.17
576.517	5.16
576.856	5.16
577.196	5.17
577.535	5.15
577.875	5.17
578.214	5.2
578.553	5.23
578.893	5.2
579.232	5.21
579.571	5.24
579.91	5.22
580.25	5.25
580.589	5.24
580.928	5.19
581.267	5.19
581.606	5.19
581.945	5.13
582.283	5.13
582.622	5.09
582.961	5.1
583.3	5.09
583.639	5.13
583.977	5.15
584.316	5.14
584.654	5.13
584.993	5.15
585.332	5.14
585.67	5.11
586.008	5.13
586.347	5.12
586.685	5.09
587.024	5.12
587.362	5.14
587.7	5.16
588.038	5.17
588.376	5.19
588.715	5.22
589.053	5.31
589.391	5.32
589.729	5.36
590.067	5.35
590.404	5.35
590.742	5.31
591.08	5.29
591.418	5.31
591.756	5.36
592.093	5.37
592.431	5.33
592.769	5.35
593.106	5.33
593.444	5.29
593.781	5.29
594.119	5.26
594.456	5.25
594.793	5.23
595.131	5.23
595.468	5.27
595.805	5.24
596.143	5.26
596.48	5.24
596.817	5.22
597.154	5.23
597.491	5.24
597.828	5.24
598.165	5.25
598.502	5.23
598.839	5.21
599.176	5.2
599.512	5.22
599.849	5.24
600.186	5.24
600.523	5.31
600.859	5.35
601.196	5.38
601.532	5.38
601.869	5.38
602.205	5.38
602.542	5.37
602.878	5.37
603.215	5.29
603.551	5.29
603.887	5.29
604.223	5.3
604.56	5.33
604.896	5.34
605.232	5.38
605.568	5.39
605.904	5.36
606.24	5.35
606.576	5.33
606.912	5.33
607.248	5.33
607.583	5.33
607.919	5.29
608.255	5.28
608.591	5.3
608.926	5.3
609.262	5.34
609.597	5.35
609.933	5.36
610.268	5.41
610.604	5.41
610.939	5.47
611.275	5.44
611.61	5.42
611.945	5.39
612.281	5.38
612.616	5.4
612.951	5.46
613.286	5.43
613.621	5.47
613.956	5.47
614.291	5.47
614.626	5.38
614.961	5.41
615.296	5.41
615.631	5.4
615.966	5.43
616.3	5.4
616.635	5.39
616.97	5.43
617.304	5.43
617.639	5.39
617.973	5.3
618.308	5.29
618.642	5.3
618.977	5.31
619.311	5.28
619.646	5.31
619.98	5.3
620.314	5.34
620.648	5.36
620.983	5.33
621.317	5.41
621.651	5.51
621.985	5.53
622.319	5.55
622.653	5.56
622.987	5.55
623.321	5.57
623.655	5.56
623.988	5.57
624.322	5.53
624.656	5.57
624.99	5.64
625.323	5.68
625.657	5.75
625.99	5.74
626.324	5.74
626.657	5.7
626.991	5.67
627.324	5.66
627.658	5.68
627.991	5.69
628.324	5.62
628.657	5.57
628.991	5.53
629.324	5.54
629.657	5.56
629.99	5.56
630.323	5.56
630.656	5.57
630.989	5.53
631.322	5.61
631.655	5.62
631.987	5.59
632.32	5.6
632.653	5.52
632.986	5.6
633.318	5.59
633.651	5.65
633.984	5.7
634.316	5.71
634.649	5.71
634.981	5.74
635.313	5.76
635.646	5.82
635.978	5.84
636.31	5.84
636.643	5.81
636.975	5.87
637.307	5.85
637.639	5.84
637.971	5.83
638.303	5.76
638.635	5.71
638.967	5.74
639.299	5.72
639.631	5.79
639.963	5.77
640.295	5.8
640.626	5.79
640.958	5.8
641.29	5.84
641.621	5.78
641.953	5.77
642.285	5.79
642.616	5.74
642.948	5.74
643.279	5.73
643.61	5.76
643.942	5.72
644.273	5.71
644.604	5.67
644.936	5.64
645.267	5.75
645.598	5.78
645.929	5.79
646.26	5.8
646.591	5.78
646.922	5.74
647.253	5.74
647.584	5.71
647.915	5.65
648.245	5.6
648.576	5.65
648.907	5.71
649.238	5.67
649.568	5.69
649.899	5.69
650.229	5.66
650.56	5.65
650.89	5.67
651.221	5.67
651.551	5.72
651.882	5.77
652.212	5.71
652.542	5.7
652.872	5.65
653.203	5.63
653.533	5.63
653.863	5.62
654.193	5.53
654.523	5.54
654.853	5.57
655.183	5.55
655.513	5.53
655.843	5.46
656.172	5.51
656.502	5.55
656.832	5.54
657.162	5.53
657.491	5.53
657.821	5.54
658.15	5.53
658.48	5.5
658.809	5.5
659.139	5.49
659.468	5.5
659.798	5.57
660.127	5.68
660.456	5.67
660.785	5.71
661.115	5.83
661.444	5.79
661.773	5.82
662.102	5.83
662.431	5.91
662.76	5.94
663.089	5.96
663.418	5.96
663.747	5.97
664.076	6.03
664.404	6.07
664.733	6.13
665.062	6.25
665.39	6.29
665.719	6.31
666.048	6.43
666.376	6.43
666.705	6.35
667.033	6.29
667.362	6.3
667.69	6.3
668.018	6.28
668.347	6.31
668.675	6.27
669.003	6.29
669.331	6.26
669.659	6.34
669.987	6.26
670.315	6.25
670.643	6.3
670.971	6.41
671.299	6.4
671.627	6.34
671.955	6.26
672.283	6.22
672.61	6.2
672.938	6.06
673.266	6.17
673.593	6.33
673.921	6.28
674.249	6.25
674.576	6.21
674.904	6.17
675.231	6.13
675.558	6.17
675.886	6.14
676.213	6.05
676.54	5.94
676.867	6.06
677.195	6.06
677.522	6.07
677.849	5.97
678.176	5.97
678.503	5.94
678.83	5.95
679.157	5.93
679.484	6
679.81	6.07
