Data from BU26943_Reflection_00002.txt Node
Date: Tue Nov 19 11:02:16 EST 2019
User: vgr7
Spectrometer: USB2G7710
Scans to average: 3
Trigger mode: 4
Integration Time (sec): 2.000000E-2
Electric dark correction enabled: true
Boxcar width: 10
XAxis mode: Wavelengths
Number of Pixels in Spectrum: 2048
>>>>>Begin Spectral Data<<<<<
177.721	-313.27
178.105	-175.96
178.488	-55.64
178.871	-9.22
179.254	-72.84
179.636	-523.19
180.019	755.91
180.402	140
180.785	524.24
181.168	0.64
181.55	-267.82
181.933	997.44
182.316	-619.3
182.698	87.65
183.081	31.44
183.463	55.26
183.846	21.89
184.228	72.32
184.611	77.13
184.993	114.69
185.376	169.38
185.758	106.5
186.14	100.91
186.522	50.42
186.904	31.35
187.287	36.92
187.669	37.52
188.051	31.36
188.433	9.25
188.815	4.13
189.197	10.97
189.579	20.9
189.961	14.79
190.342	26.2
190.724	28.81
191.106	27.3
191.488	15.89
191.869	19.01
192.251	17.55
192.633	21.25
193.014	28.68
193.396	30.28
193.777	31.81
194.159	36.58
194.54	56.32
194.922	67.99
195.303	86.58
195.684	96.08
196.065	101.96
196.447	125.36
196.828	128.73
197.209	124.45
197.59	141.74
197.971	164.77
198.352	112.06
198.733	89.45
199.114	80.14
199.495	100.44
199.876	104.39
200.257	100.46
200.638	88.87
201.018	86.99
201.399	81.37
201.78	85.47
202.16	90.68
202.541	75.9
202.922	61.7
203.302	49.18
203.683	40.95
204.063	53.87
204.444	51.99
204.824	42.41
205.204	45.96
205.585	41.86
205.965	40.34
206.345	49.77
206.725	56.27
207.106	44.51
207.486	44.96
207.866	36.94
208.246	37.3
208.626	40.73
209.006	32.8
209.386	20.46
209.766	18.2
210.145	7.73
210.525	7.9
210.905	14.05
211.285	14.62
211.664	20.1
212.044	7.95
212.424	5.18
212.803	11.05
213.183	10.96
213.562	10.9
213.942	2.66
214.321	0.97
214.701	-1.29
215.08	-6.95
215.459	-8.33
215.838	3.12
216.218	4.22
216.597	4.93
216.976	6.44
217.355	11.97
217.734	11.06
218.113	20.37
218.492	21.51
218.871	9.35
219.25	9.14
219.629	-10.91
220.008	-0.31
220.387	-8.88
220.766	-13.27
221.144	-13.97
221.523	-9.55
221.902	2.43
222.28	8.73
222.659	13.12
223.037	17.53
223.416	18.78
223.794	10.38
224.173	10.36
224.551	9.3
224.929	12.87
225.308	14.1
225.686	11.41
226.064	7.21
226.442	5.57
226.821	7.22
227.199	4.85
227.577	10.35
227.955	10.02
228.333	12.81
228.711	14.97
229.089	14.96
229.467	13.56
229.845	10.36
230.222	10.14
230.6	8.65
230.978	9.47
231.356	8.31
231.733	11.03
232.111	10.61
232.488	11.03
232.866	9.49
233.243	8.48
233.621	11.07
233.998	10.32
234.376	11.11
234.753	11.25
235.13	11.97
235.508	10.08
235.885	10.35
236.262	9.8
236.639	9.28
237.016	6.66
237.393	7.12
237.77	7.06
238.147	6.24
238.524	7.28
238.901	6.49
239.278	6.6
239.655	5.24
240.032	5.48
240.409	4.96
240.785	4.68
241.162	4.62
241.539	4.79
241.915	4.72
242.292	4.98
242.668	5.17
243.045	5.1
243.421	5.39
243.798	5.14
244.174	5.28
244.551	5.44
244.927	5.47
245.303	5.45
245.679	5.43
246.056	5.16
246.432	4.82
246.808	4.69
247.184	4.72
247.56	4.7
247.936	4.67
248.312	4.51
248.688	4.58
249.064	4.47
249.44	4.05
249.815	4.18
250.191	4.13
250.567	3.91
250.943	4.1
251.318	4.06
251.694	3.81
252.069	3.61
252.445	3.43
252.82	3.37
253.196	3.28
253.571	3.38
253.947	3.74
254.322	3.86
254.697	4.4
255.073	4.38
255.448	4.47
255.823	4.52
256.198	4.68
256.573	4.57
256.948	4.72
257.323	5
257.698	5.05
258.073	4.87
258.448	4.97
258.823	4.68
259.198	4.54
259.573	4.34
259.948	4.33
260.322	4.31
260.697	4.54
261.072	4.62
261.446	4.66
261.821	4.44
262.195	4.52
262.57	4.38
262.944	4.28
263.319	4.24
263.693	4.2
264.067	4.13
264.442	4.14
264.816	4
265.19	3.86
265.564	3.7
265.938	3.7
266.313	3.44
266.687	3.54
267.061	3.65
267.435	4.11
267.809	4.13
268.183	4.02
268.556	3.92
268.93	3.78
269.304	3.63
269.678	3.8
270.051	3.78
270.425	3.7
270.799	3.54
271.172	3.67
271.546	3.63
271.919	3.79
272.293	3.85
272.666	3.86
273.04	3.9
273.413	3.98
273.787	3.96
274.16	4.07
274.533	3.99
274.906	3.91
275.279	3.68
275.653	3.84
276.026	3.88
276.399	3.9
276.772	3.87
277.145	3.89
277.518	3.78
277.891	3.67
278.263	3.83
278.636	3.94
279.009	4.06
279.382	4.05
279.755	3.92
280.127	3.9
280.5	3.86
280.872	3.66
281.245	3.64
281.617	3.75
281.99	3.81
282.362	3.83
282.735	3.82
283.107	3.73
283.479	3.56
283.852	3.55
284.224	3.54
284.596	3.68
284.968	3.73
285.34	3.72
285.713	3.67
286.085	3.58
286.457	3.57
286.829	3.42
287.201	3.41
287.572	3.48
287.944	3.46
288.316	3.55
288.688	3.71
289.06	3.88
289.431	3.8
289.803	3.76
290.175	3.8
290.546	3.75
290.918	3.93
291.289	3.88
291.661	4.01
292.032	3.9
292.403	3.83
292.775	3.88
293.146	4
293.517	3.87
293.889	3.86
294.26	3.87
294.631	3.85
295.002	3.94
295.373	3.91
295.744	3.8
296.115	3.86
296.486	3.8
296.857	3.72
297.228	3.68
297.599	3.64
297.97	3.65
298.34	3.78
298.711	3.75
299.082	3.68
299.452	3.49
299.823	3.57
300.194	3.47
300.564	3.33
300.935	3.25
301.305	3.46
301.676	3.47
302.046	3.46
302.416	3.58
302.787	3.48
303.157	3.3
303.527	3.44
303.897	3.42
304.267	3.47
304.637	3.3
305.008	3.46
305.378	3.45
305.748	3.4
306.117	3.27
306.487	3.37
306.857	3.62
307.227	3.81
307.597	3.74
307.967	3.77
308.336	3.81
308.706	3.88
309.076	3.85
309.445	4
309.815	3.97
310.184	3.78
310.554	3.77
310.923	3.86
311.293	3.8
311.662	3.72
312.031	3.67
312.401	3.64
312.77	3.55
313.139	3.45
313.508	3.6
313.877	3.66
314.246	3.49
314.616	3.5
314.985	3.38
315.353	3.4
315.722	3.48
316.091	3.41
316.46	3.31
316.829	3.28
317.198	3.05
317.567	3.08
317.935	3.18
318.304	3.31
318.672	3.47
319.041	3.54
319.41	3.41
319.778	3.41
320.147	3.67
320.515	3.7
320.883	3.89
321.252	3.64
321.62	3.55
321.988	3.69
322.357	3.58
322.725	3.65
323.093	3.63
323.461	3.62
323.829	3.73
324.197	3.63
324.565	3.69
324.933	3.71
325.301	3.62
325.669	3.61
326.037	3.56
326.405	3.38
326.772	3.38
327.14	3.47
327.508	3.55
327.875	3.34
328.243	3.25
328.61	3.24
328.978	3.19
329.346	3.24
329.713	3.28
330.08	3.34
330.448	3.17
330.815	3.28
331.182	3.24
331.55	3.18
331.917	3.25
332.284	3.17
332.651	3.18
333.018	3.3
333.385	3.27
333.752	3.13
334.119	3.21
334.486	3.3
334.853	3.31
335.22	3.31
335.587	3.4
335.954	3.4
336.32	3.4
336.687	3.5
337.054	3.46
337.42	3.41
337.787	3.35
338.153	3.46
338.52	3.48
338.886	3.56
339.253	3.48
339.619	3.47
339.986	3.47
340.352	3.45
340.718	3.43
341.084	3.38
341.451	3.4
341.817	3.41
342.183	3.25
342.549	3.33
342.915	3.32
343.281	3.36
343.647	3.36
344.013	3.33
344.379	3.37
344.745	3.42
345.11	3.4
345.476	3.45
345.842	3.5
346.208	3.47
346.573	3.43
346.939	3.49
347.304	3.52
347.67	3.54
348.035	3.53
348.401	3.53
348.766	3.54
349.132	3.63
349.497	3.6
349.862	3.65
350.228	3.58
350.593	3.67
350.958	3.69
351.323	3.74
351.688	3.8
352.053	3.81
352.418	3.85
352.783	3.74
353.148	3.64
353.513	3.55
353.878	3.47
354.243	3.4
354.608	3.52
354.972	3.51
355.337	3.47
355.702	3.48
356.066	3.47
356.431	3.49
356.795	3.47
357.16	3.55
357.524	3.51
357.889	3.5
358.253	3.34
358.618	3.33
358.982	3.31
359.346	3.31
359.71	3.29
360.075	3.27
360.439	3.37
360.803	3.38
361.167	3.46
361.531	3.44
361.895	3.46
362.259	3.39
362.623	3.45
362.987	3.45
363.351	3.46
363.714	3.47
364.078	3.48
364.442	3.44
364.806	3.38
365.169	3.41
365.533	3.46
365.896	3.55
366.26	3.55
366.623	3.5
366.987	3.5
367.35	3.57
367.714	3.55
368.077	3.52
368.44	3.49
368.803	3.41
369.167	3.48
369.53	3.46
369.893	3.46
370.256	3.39
370.619	3.48
370.982	3.46
371.345	3.52
371.708	3.57
372.071	3.57
372.434	3.55
372.797	3.55
373.159	3.53
373.522	3.42
373.885	3.37
374.247	3.37
374.61	3.35
374.973	3.24
375.335	3.25
375.698	3.2
376.06	3.21
376.423	3.22
376.785	3.26
377.147	3.23
377.51	3.22
377.872	3.26
378.234	3.22
378.596	3.23
378.958	3.2
379.321	3.14
379.683	3.15
380.045	3.18
380.407	3.19
380.769	3.16
381.13	3.23
381.492	3.25
381.854	3.33
382.216	3.33
382.578	3.38
382.939	3.38
383.301	3.42
383.663	3.48
384.024	3.49
384.386	3.43
384.747	3.45
385.109	3.48
385.47	3.48
385.832	3.48
386.193	3.47
386.554	3.44
386.916	3.46
387.277	3.46
387.638	3.47
387.999	3.45
388.36	3.46
388.721	3.44
389.082	3.44
389.443	3.41
389.804	3.43
390.165	3.44
390.526	3.46
390.887	3.43
391.248	3.41
391.609	3.43
391.969	3.46
392.33	3.47
392.691	3.48
393.051	3.46
393.412	3.5
393.772	3.52
394.133	3.54
394.493	3.52
394.854	3.5
395.214	3.5
395.574	3.48
395.935	3.48
396.295	3.5
396.655	3.49
397.015	3.51
397.376	3.47
397.736	3.5
398.096	3.46
398.456	3.47
398.816	3.49
399.176	3.45
399.535	3.44
399.895	3.46
400.255	3.43
400.615	3.44
400.975	3.42
401.334	3.44
401.694	3.43
402.054	3.45
402.413	3.49
402.773	3.46
403.132	3.47
403.492	3.48
403.851	3.52
404.211	3.52
404.57	3.53
404.929	3.53
405.288	3.52
405.648	3.57
406.007	3.58
406.366	3.58
406.725	3.6
407.084	3.63
407.443	3.59
407.802	3.59
408.161	3.58
408.52	3.55
408.879	3.55
409.238	3.54
409.596	3.57
409.955	3.57
410.314	3.59
410.673	3.59
411.031	3.6
411.39	3.59
411.748	3.62
412.107	3.61
412.465	3.63
412.824	3.6
413.182	3.58
413.54	3.59
413.899	3.57
414.257	3.57
414.615	3.54
414.974	3.56
415.332	3.57
415.69	3.58
416.048	3.58
416.406	3.55
416.764	3.56
417.122	3.54
417.48	3.54
417.838	3.53
418.195	3.55
418.553	3.53
418.911	3.52
419.269	3.53
419.626	3.52
419.984	3.53
420.342	3.53
420.699	3.5
421.057	3.5
421.414	3.53
421.772	3.51
422.129	3.52
422.486	3.52
422.844	3.53
423.201	3.55
423.558	3.55
423.915	3.56
424.273	3.57
424.63	3.57
424.987	3.57
425.344	3.57
425.701	3.56
426.058	3.56
426.415	3.56
426.772	3.55
427.128	3.57
427.485	3.57
427.842	3.56
428.199	3.59
428.555	3.59
428.912	3.58
429.269	3.62
429.625	3.6
429.982	3.61
430.338	3.62
430.695	3.61
431.051	3.62
431.407	3.61
431.764	3.61
432.12	3.62
432.476	3.63
432.832	3.65
433.189	3.67
433.545	3.67
433.901	3.69
434.257	3.69
434.613	3.69
434.969	3.68
435.325	3.73
435.681	3.71
436.036	3.71
436.392	3.72
436.748	3.71
437.104	3.71
437.459	3.71
437.815	3.7
438.171	3.7
438.526	3.69
438.882	3.71
439.237	3.71
439.593	3.7
439.948	3.72
440.304	3.7
440.659	3.69
441.014	3.7
441.369	3.71
441.725	3.72
442.08	3.71
442.435	3.71
442.79	3.68
443.145	3.71
443.5	3.71
443.855	3.69
444.21	3.7
444.565	3.71
444.92	3.71
445.275	3.71
445.629	3.71
445.984	3.7
446.339	3.7
446.693	3.72
447.048	3.7
447.403	3.7
447.757	3.7
448.112	3.71
448.466	3.71
448.82	3.71
449.175	3.69
449.529	3.69
449.883	3.69
450.238	3.7
450.592	3.69
450.946	3.7
451.3	3.71
451.654	3.71
452.008	3.7
452.362	3.71
452.716	3.71
453.07	3.71
453.424	3.72
453.778	3.71
454.132	3.71
454.486	3.72
454.839	3.72
455.193	3.74
455.547	3.73
455.9	3.73
456.254	3.71
456.607	3.72
456.961	3.74
457.314	3.75
457.668	3.75
458.021	3.74
458.375	3.73
458.728	3.73
459.081	3.72
459.434	3.73
459.787	3.74
460.141	3.74
460.494	3.74
460.847	3.76
461.2	3.79
461.553	3.79
461.906	3.81
462.259	3.79
462.611	3.78
462.964	3.79
463.317	3.8
463.67	3.81
464.022	3.8
464.375	3.8
464.728	3.78
465.08	3.76
465.433	3.76
465.785	3.77
466.138	3.78
466.49	3.78
466.843	3.79
467.195	3.79
467.547	3.8
467.899	3.8
468.252	3.79
468.604	3.78
468.956	3.8
469.308	3.78
469.66	3.79
470.012	3.8
470.364	3.8
470.716	3.8
471.068	3.83
471.42	3.85
471.772	3.85
472.123	3.89
472.475	3.91
472.827	3.92
473.178	3.92
473.53	3.91
473.882	3.93
474.233	3.94
474.585	3.93
474.936	3.92
475.288	3.92
475.639	3.91
475.99	3.87
476.342	3.87
476.693	3.88
477.044	3.91
477.395	3.9
477.746	3.89
478.097	3.88
478.448	3.86
478.8	3.84
479.15	3.85
479.501	3.83
479.852	3.83
480.203	3.84
480.554	3.85
480.905	3.85
481.255	3.85
481.606	3.86
481.957	3.87
482.307	3.87
482.658	3.88
483.009	3.88
483.359	3.9
483.709	3.91
484.06	3.91
484.41	3.9
484.761	3.91
485.111	3.91
485.461	3.91
485.811	3.92
486.162	3.93
486.512	3.93
486.862	3.94
487.212	3.95
487.562	3.94
487.912	3.95
488.262	3.94
488.612	3.95
488.961	3.95
489.311	3.95
489.661	3.95
490.011	3.95
490.36	3.95
490.71	3.94
491.06	3.93
491.409	3.94
491.759	3.93
492.108	3.93
492.458	3.94
492.807	3.92
493.157	3.92
493.506	3.92
493.855	3.92
494.204	3.9
494.554	3.89
494.903	3.89
495.252	3.88
495.601	3.89
495.95	3.89
496.299	3.89
496.648	3.9
496.997	3.9
497.346	3.91
497.695	3.91
498.043	3.94
498.392	3.94
498.741	3.92
499.09	3.93
499.438	3.94
499.787	3.97
500.135	3.98
500.484	3.97
500.832	3.99
501.181	3.99
501.529	4.03
501.878	4.04
502.226	4.07
502.574	4.09
502.923	4.08
503.271	4.07
503.619	4.07
503.967	4.04
504.315	4.03
504.663	4.02
505.011	4.04
505.359	4.01
505.707	4.02
506.055	4.04
506.403	4.06
506.751	4.06
507.098	4.06
507.446	4.09
507.794	4.1
508.141	4.1
508.489	4.11
508.837	4.09
509.184	4.09
509.531	4.09
509.879	4.07
510.226	4.08
510.574	4.1
510.921	4.07
511.268	4.08
511.616	4.12
511.963	4.13
512.31	4.11
512.657	4.14
513.004	4.13
513.351	4.12
513.698	4.12
514.045	4.12
514.392	4.11
514.739	4.11
515.086	4.13
515.432	4.14
515.779	4.15
516.126	4.17
516.473	4.17
516.819	4.17
517.166	4.2
517.512	4.21
517.859	4.21
518.205	4.22
518.552	4.22
518.898	4.2
519.245	4.2
519.591	4.21
519.937	4.2
520.283	4.2
520.629	4.22
520.976	4.2
521.322	4.21
521.668	4.22
522.014	4.21
522.36	4.2
522.706	4.19
523.052	4.18
523.398	4.18
523.743	4.21
524.089	4.21
524.435	4.21
524.781	4.22
525.126	4.22
525.472	4.25
525.817	4.25
526.163	4.25
526.509	4.26
526.854	4.26
527.199	4.26
527.545	4.27
527.89	4.26
528.235	4.26
528.581	4.27
528.926	4.27
529.271	4.28
529.616	4.28
529.961	4.28
530.306	4.29
530.651	4.28
530.996	4.28
531.341	4.28
531.686	4.28
532.031	4.27
532.376	4.28
532.721	4.27
533.065	4.28
533.41	4.28
533.755	4.27
534.099	4.27
534.444	4.27
534.788	4.25
535.133	4.26
535.477	4.28
535.822	4.28
536.166	4.27
536.51	4.27
536.855	4.28
537.199	4.28
537.543	4.29
537.887	4.31
538.231	4.31
538.576	4.3
538.92	4.3
539.264	4.31
539.608	4.31
539.951	4.31
540.295	4.31
540.639	4.33
540.983	4.35
541.327	4.36
541.671	4.38
542.014	4.39
542.358	4.41
542.701	4.39
543.045	4.37
543.389	4.39
543.732	4.39
544.075	4.4
544.419	4.41
544.762	4.4
545.105	4.41
545.449	4.4
545.792	4.43
546.135	4.42
546.478	4.43
546.821	4.44
547.165	4.44
547.508	4.45
547.851	4.42
548.194	4.43
548.536	4.41
548.879	4.4
549.222	4.39
549.565	4.35
549.908	4.37
550.25	4.39
550.593	4.41
550.936	4.4
551.278	4.41
551.621	4.41
551.963	4.44
552.306	4.42
552.648	4.42
552.991	4.4
553.333	4.41
553.675	4.4
554.017	4.41
554.36	4.42
554.702	4.4
555.044	4.43
555.386	4.44
555.728	4.46
556.07	4.45
556.412	4.46
556.754	4.46
557.096	4.44
557.438	4.42
557.78	4.4
558.121	4.41
558.463	4.38
558.805	4.38
559.147	4.33
559.488	4.36
559.83	4.37
560.171	4.38
560.513	4.41
560.854	4.39
561.196	4.41
561.537	4.42
561.878	4.45
562.22	4.46
562.561	4.47
562.902	4.46
563.243	4.49
563.584	4.51
563.925	4.56
564.266	4.56
564.607	4.57
564.948	4.56
565.289	4.54
565.63	4.56
565.971	4.57
566.312	4.57
566.653	4.57
566.993	4.57
567.334	4.55
567.675	4.52
568.015	4.53
568.356	4.5
568.696	4.49
569.037	4.49
569.377	4.47
569.718	4.44
570.058	4.46
570.398	4.45
570.739	4.43
571.079	4.41
571.419	4.41
571.759	4.42
572.099	4.45
572.439	4.44
572.779	4.43
573.119	4.43
573.459	4.42
573.799	4.4
574.139	4.4
574.479	4.42
574.819	4.44
575.158	4.46
575.498	4.49
575.838	4.51
576.177	4.49
576.517	4.51
576.856	4.55
577.196	4.58
577.535	4.59
577.875	4.61
578.214	4.63
578.553	4.65
578.893	4.64
579.232	4.6
579.571	4.6
579.91	4.61
580.25	4.6
580.589	4.63
580.928	4.62
581.267	4.63
581.606	4.64
581.945	4.65
582.283	4.62
582.622	4.59
582.961	4.59
583.3	4.59
583.639	4.58
583.977	4.59
584.316	4.54
584.654	4.54
584.993	4.53
585.332	4.53
585.67	4.57
586.008	4.62
586.347	4.67
586.685	4.7
587.024	4.7
587.362	4.69
587.7	4.67
588.038	4.73
588.376	4.72
588.715	4.7
589.053	4.7
589.391	4.7
589.729	4.7
590.067	4.69
590.404	4.71
590.742	4.68
591.08	4.68
591.418	4.66
591.756	4.67
592.093	4.65
592.431	4.66
592.769	4.65
593.106	4.62
593.444	4.6
593.781	4.59
594.119	4.6
594.456	4.6
594.793	4.63
595.131	4.6
595.468	4.63
595.805	4.63
596.143	4.62
596.48	4.64
596.817	4.67
597.154	4.7
597.491	4.67
597.828	4.69
598.165	4.67
598.502	4.68
598.839	4.68
599.176	4.72
599.512	4.67
599.849	4.65
600.186	4.63
600.523	4.63
600.859	4.64
601.196	4.63
601.532	4.65
601.869	4.65
602.205	4.63
602.542	4.62
602.878	4.63
603.215	4.63
603.551	4.61
603.887	4.58
604.223	4.55
604.56	4.54
604.896	4.59
605.232	4.62
605.568	4.63
605.904	4.59
606.24	4.58
606.576	4.63
606.912	4.61
607.248	4.61
607.583	4.65
607.919	4.66
608.255	4.65
608.591	4.67
608.926	4.63
609.262	4.67
609.597	4.65
609.933	4.64
610.268	4.63
610.604	4.64
610.939	4.68
611.275	4.72
611.61	4.75
611.945	4.69
612.281	4.67
612.616	4.66
612.951	4.72
613.286	4.7
613.621	4.67
613.956	4.71
614.291	4.74
614.626	4.73
614.961	4.75
615.296	4.77
615.631	4.76
615.966	4.82
616.3	4.79
616.635	4.84
616.97	4.84
617.304	4.87
617.639	4.91
617.973	4.89
618.308	4.9
618.642	4.85
618.977	4.84
619.311	4.84
619.646	4.86
619.98	4.86
620.314	4.86
620.648	4.87
620.983	4.83
621.317	4.84
621.651	4.81
621.985	4.79
622.319	4.78
622.653	4.81
622.987	4.8
623.321	4.8
623.655	4.77
623.988	4.77
624.322	4.77
624.656	4.77
624.99	4.73
625.323	4.7
625.657	4.71
625.99	4.72
626.324	4.73
626.657	4.74
626.991	4.76
627.324	4.79
627.658	4.78
627.991	4.82
628.324	4.82
628.657	4.85
628.991	4.85
629.324	4.87
629.657	4.81
629.99	4.83
630.323	4.88
630.656	4.86
630.989	4.83
631.322	4.83
631.655	4.77
631.987	4.82
632.32	4.83
632.653	4.87
632.986	4.85
633.318	4.85
633.651	4.82
633.984	4.77
634.316	4.77
634.649	4.77
634.981	4.76
635.313	4.78
635.646	4.78
635.978	4.79
636.31	4.81
636.643	4.85
636.975	4.83
637.307	4.83
637.639	4.9
637.971	4.89
638.303	4.96
638.635	5
638.967	5.05
639.299	5.04
639.631	5.03
639.963	5.01
640.295	4.99
640.626	5
640.958	5
641.29	4.95
641.621	5.02
641.953	5.01
642.285	5
642.616	5.03
642.948	5.01
643.279	4.98
643.61	5.07
643.942	5.14
644.273	5.1
644.604	5.07
644.936	5.15
645.267	5.09
645.598	5.12
645.929	5.06
646.26	5.07
646.591	5.12
646.922	5.18
647.253	5.19
647.584	5.13
647.915	5.19
648.245	5.23
648.576	5.24
648.907	5.26
649.238	5.21
649.568	5.14
649.899	5.14
650.229	5.19
650.56	5.13
650.89	5.11
651.221	5.13
651.551	5.14
651.882	5.12
652.212	5.15
652.542	5.15
652.872	5.15
653.203	5.21
653.533	5.17
653.863	5.22
654.193	5.24
654.523	5.28
654.853	5.25
655.183	5.24
655.513	5.16
655.843	5.15
656.172	5.2
656.502	5.17
656.832	5.22
657.162	5.11
657.491	5.15
657.821	5.13
658.15	5.09
658.48	5.09
658.809	5.07
659.139	5.05
659.468	5.03
659.798	5.07
660.127	5.04
660.456	5.06
660.785	5.05
661.115	5.03
661.444	5.09
661.773	5.12
662.102	5.11
662.431	5.18
662.76	5.22
663.089	5.3
663.418	5.33
663.747	5.33
664.076	5.4
664.404	5.39
664.733	5.41
665.062	5.44
665.39	5.45
665.719	5.52
666.048	5.53
666.376	5.53
666.705	5.5
667.033	5.6
667.362	5.52
667.69	5.47
668.018	5.53
668.347	5.45
668.675	5.41
669.003	5.4
669.331	5.38
669.659	5.32
669.987	5.25
670.315	5.26
670.643	5.24
670.971	5.31
671.299	5.26
671.627	5.26
671.955	5.29
672.283	5.33
672.61	5.31
672.938	5.35
673.266	5.39
673.593	5.41
673.921	5.29
674.249	5.37
674.576	5.39
674.904	5.32
675.231	5.44
675.558	5.49
675.886	5.57
676.213	5.56
676.54	5.7
676.867	5.66
677.195	5.72
677.522	5.77
677.849	5.72
678.176	5.75
678.503	5.68
678.83	5.68
679.157	5.66
679.484	5.66
679.81	5.64
680.137	5.63
680.464	5.61
