Data from BU26944_Reflection_00015.txt Node
Date: Tue Nov 19 10:54:59 EST 2019
User: vgr7
Spectrometer: USB2G7710
Scans to average: 3
Trigger mode: 4
Integration Time (sec): 2.000000E-2
Electric dark correction enabled: true
Boxcar width: 10
XAxis mode: Wavelengths
Number of Pixels in Spectrum: 2048
>>>>>Begin Spectral Data<<<<<
177.721	-267.53
178.105	-231.86
178.488	-116.06
178.871	-354.29
179.254	1180
179.636	68.88
180.019	57.4
180.402	-1125
180.785	107.06
181.168	45.61
181.55	61.37
181.933	61.44
182.316	62.64
182.698	32.14
183.081	33.47
183.463	84.82
183.846	100
184.228	7.46
184.611	-386.49
184.993	31.43
185.376	-80.45
185.758	-297.59
186.14	-405.26
186.522	213.74
186.904	100
187.287	9.82
187.669	-0.8
188.051	2.57
188.433	-34.05
188.815	-22.74
189.197	-22.28
189.579	-23.26
189.961	-22.49
190.342	-7.58
190.724	-12.73
191.106	-41.73
191.488	-13.74
191.869	2.83
192.251	-10.06
192.633	12.41
193.014	12.51
193.396	16.73
193.777	4.16
194.159	-8.64
194.54	-31
194.922	-15.71
195.303	-11.78
195.684	-22.83
196.065	-20.51
196.447	-8.85
196.828	5.1
197.209	18.38
197.59	10.91
197.971	3.23
198.352	0.83
198.733	1.95
199.114	21.75
199.495	15.11
199.876	5.85
200.257	2.5
200.638	-5.29
201.018	-7.2
201.399	-0.84
201.78	-15.1
202.16	-22.01
202.541	-32.55
202.922	-46.78
203.302	-43.71
203.683	-53.19
204.063	-51.42
204.444	-50.79
204.824	-51.19
205.204	-59.38
205.585	-46.89
205.965	-50.08
206.345	-58.57
206.725	-59.51
207.106	-63.75
207.486	-88.28
207.866	-93.81
208.246	-55.35
208.626	-75.6
209.006	-65.84
209.386	-81.25
209.766	-64.26
210.145	-62.61
210.525	-45.37
210.905	-50.91
211.285	-40.87
211.664	-21.04
212.044	-10.65
212.424	-11.24
212.803	-14.03
213.183	-29.01
213.562	-33.77
213.942	-34.68
214.321	-40.36
214.701	-51.35
215.08	-50.99
215.459	-59.89
215.838	-89.52
216.218	-118.05
216.597	-121.98
216.976	-145.09
217.355	-109.42
217.734	-154.95
218.113	-86.68
218.492	-87.65
218.871	-57.09
219.25	-55.21
219.629	-121.53
220.008	-149.65
220.387	-177.31
220.766	-112.51
221.144	-106.51
221.523	-121.01
221.902	-70.42
222.28	-48.29
222.659	-18.83
223.037	-25.4
223.416	-15.12
223.794	-2.55
224.173	-19.74
224.551	-10
224.929	-7.38
225.308	-13.35
225.686	-7.41
226.064	-14.65
226.442	-8.59
226.821	-9.09
227.199	-6.91
227.577	-2.08
227.955	-2.07
228.333	-6.89
228.711	-4.83
229.089	-4.31
229.467	-3.36
229.845	-3.45
230.222	-0.05
230.6	-3.14
230.978	-4.09
231.356	-4.86
231.733	-3.8
232.111	-3.01
232.488	-4.73
232.866	-4.22
233.243	-2.3
233.621	-1.39
233.998	-1.05
234.376	-1.76
234.753	-2.9
235.13	-5.02
235.508	-6.89
235.885	-6.91
236.262	-4.99
236.639	-5.94
237.016	-5.11
237.393	-4.94
237.77	-3.47
238.147	-4.62
238.524	-2.77
238.901	-1.44
239.278	-1.75
239.655	-1.04
240.032	0.14
240.409	0.24
240.785	0.21
241.162	0.36
241.539	-0.02
241.915	0.21
242.292	0.83
242.668	1.37
243.045	2.07
243.421	3.23
243.798	2.94
244.174	3.12
244.551	3.37
244.927	3.08
245.303	3.05
245.679	3.08
246.056	3.26
246.432	2.98
246.808	2.87
247.184	3.22
247.56	3.03
247.936	2.91
248.312	3.2
248.688	3.36
249.064	3.33
249.44	3.08
249.815	3.14
250.191	3.08
250.567	3.07
250.943	3.06
251.318	2.63
251.694	2.65
252.069	2.51
252.445	2.37
252.82	2.77
253.196	2.93
253.571	2.79
253.947	2.6
254.322	2.77
254.697	2.93
255.073	2.7
255.448	2.88
255.823	3.07
256.198	3.01
256.573	3.12
256.948	3.19
257.323	3.43
257.698	3.48
258.073	3.43
258.448	3.48
258.823	3.25
259.198	3.35
259.573	3.28
259.948	3.37
260.322	3.31
260.697	3.27
261.072	3.22
261.446	3.27
261.821	3.3
262.195	3.29
262.57	3.36
262.944	3.49
263.319	3.42
263.693	3.23
264.067	3.32
264.442	3.28
264.816	3.26
265.19	3.14
265.564	2.95
265.938	2.9
266.313	2.68
266.687	2.7
267.061	2.52
267.435	2.76
267.809	2.59
268.183	2.65
268.556	2.56
268.93	2.7
269.304	2.64
269.678	2.78
270.051	2.73
270.425	2.63
270.799	2.47
271.172	2.6
271.546	2.72
271.919	2.56
272.293	2.38
272.666	2.42
273.04	2.57
273.413	2.42
273.787	2.42
274.16	2.41
274.533	2.56
274.906	2.61
275.279	2.38
275.653	2.59
276.026	2.59
276.399	2.53
276.772	2.53
277.145	2.36
277.518	2.26
277.891	2.36
278.263	2.34
278.636	2.59
279.009	2.45
279.382	2.46
279.755	2.63
280.127	2.85
280.5	2.68
280.872	2.62
281.245	2.89
281.617	2.84
281.99	2.74
282.362	2.61
282.735	2.57
283.107	2.75
283.479	2.77
283.852	2.75
284.224	2.87
284.596	2.76
284.968	2.9
285.34	2.92
285.713	2.94
286.085	2.89
286.457	2.75
286.829	2.76
287.201	2.7
287.572	2.63
287.944	2.7
288.316	2.79
288.688	2.83
289.06	2.83
289.431	2.87
289.803	3.17
290.175	3.2
290.546	3.26
290.918	3.18
291.289	3.08
291.661	3.13
292.032	3.14
292.403	3.11
292.775	3.22
293.146	3.26
293.517	3.04
293.889	3.07
294.26	3.14
294.631	3.12
295.002	3.1
295.373	3.1
295.744	3
296.115	3.08
296.486	3.04
296.857	3.02
297.228	2.97
297.599	2.75
297.97	2.81
298.34	2.82
298.711	2.89
299.082	2.88
299.452	2.79
299.823	2.66
300.194	2.77
300.564	2.59
300.935	2.67
301.305	2.72
301.676	2.67
302.046	2.68
302.416	2.66
302.787	2.63
303.157	2.59
303.527	2.57
303.897	2.45
304.267	2.55
304.637	2.6
305.008	2.6
305.378	2.68
305.748	2.79
306.117	2.75
306.487	2.8
306.857	2.83
307.227	3.09
307.597	3.33
307.967	3.3
308.336	3.34
308.706	3.33
309.076	3.63
309.445	3.81
309.815	3.79
310.184	3.93
310.554	4.07
310.923	4.11
311.293	4.13
311.662	4.3
312.031	4.33
312.401	4.28
312.77	4.47
313.139	4.53
313.508	4.51
313.877	4.54
314.246	4.49
314.616	4.62
314.985	4.56
315.353	4.55
315.722	4.71
316.091	4.88
316.46	4.94
316.829	4.93
317.198	4.9
317.567	5.03
317.935	5.06
318.304	5.15
318.672	5.15
319.041	5.31
319.41	5.18
319.778	5.33
320.147	5.45
320.515	5.43
320.883	5.32
321.252	5.44
321.62	5.46
321.988	5.62
322.357	5.61
322.725	5.62
323.093	5.55
323.461	5.47
323.829	5.35
324.197	5.23
324.565	5.22
324.933	5.28
325.301	5.07
325.669	5.19
326.037	5.18
326.405	5.24
326.772	5.26
327.14	5.32
327.508	5.2
327.875	5.18
328.243	5.18
328.61	5.36
328.978	5.3
329.346	5.41
329.713	5.43
330.08	5.52
330.448	5.58
330.815	5.81
331.182	5.76
331.55	5.94
331.917	5.94
332.284	6.04
332.651	6.05
333.018	6.19
333.385	6.17
333.752	6.13
334.119	6.21
334.486	6.2
334.853	6.29
335.22	6.26
335.587	6.27
335.954	6.21
336.32	6.24
336.687	6.22
337.054	6.28
337.42	6.3
337.787	6.28
338.153	6.34
338.52	6.33
338.886	6.43
339.253	6.45
339.619	6.58
339.986	6.4
340.352	6.44
340.718	6.45
341.084	6.43
341.451	6.47
341.817	6.56
342.183	6.55
342.549	6.52
342.915	6.61
343.281	6.63
343.647	6.72
344.013	6.75
344.379	6.74
344.745	6.71
345.11	6.66
345.476	6.6
345.842	6.6
346.208	6.6
346.573	6.54
346.939	6.39
347.304	6.39
347.67	6.54
348.035	6.51
348.401	6.64
348.766	6.6
349.132	6.71
349.497	6.54
349.862	6.6
350.228	6.63
350.593	6.61
350.958	6.64
351.323	6.67
351.688	6.61
352.053	6.71
352.418	6.76
352.783	6.79
353.148	6.8
353.513	6.72
353.878	6.63
354.243	6.64
354.608	6.78
354.972	6.82
355.337	6.78
355.702	6.8
356.066	6.78
356.431	6.81
356.795	6.72
357.16	6.78
357.524	6.76
357.889	6.73
358.253	6.73
358.618	6.75
358.982	6.73
359.346	6.72
359.71	6.68
360.075	6.69
360.439	6.7
360.803	6.75
361.167	6.75
361.531	6.72
361.895	6.74
362.259	6.7
362.623	6.67
362.987	6.65
363.351	6.68
363.714	6.63
364.078	6.63
364.442	6.66
364.806	6.65
365.169	6.63
365.533	6.63
365.896	6.64
366.26	6.57
366.623	6.53
366.987	6.51
367.35	6.52
367.714	6.44
368.077	6.38
368.44	6.33
368.803	6.28
369.167	6.24
369.53	6.13
369.893	6.15
370.256	6.1
370.619	6.12
370.982	6.02
371.345	5.98
371.708	5.95
372.071	5.85
372.434	5.76
372.797	5.76
373.159	5.7
373.522	5.65
373.885	5.54
374.247	5.56
374.61	5.52
374.973	5.44
375.335	5.4
375.698	5.39
376.06	5.33
376.423	5.35
376.785	5.44
377.147	5.43
377.51	5.38
377.872	5.33
378.234	5.28
378.596	5.29
378.958	5.27
379.321	5.23
379.683	5.2
380.045	5.19
380.407	5.11
380.769	5.07
381.13	5.03
381.492	5.02
381.854	5
382.216	5.01
382.578	5.01
382.939	4.99
383.301	4.91
383.663	4.89
384.024	4.85
384.386	4.8
384.747	4.76
385.109	4.69
385.47	4.65
385.832	4.63
386.193	4.6
386.554	4.52
386.916	4.55
387.277	4.55
387.638	4.53
387.999	4.51
388.36	4.47
388.721	4.46
389.082	4.46
389.443	4.45
389.804	4.42
390.165	4.41
390.526	4.37
390.887	4.38
391.248	4.37
391.609	4.37
391.969	4.35
392.33	4.33
392.691	4.34
393.051	4.32
393.412	4.26
393.772	4.25
394.133	4.27
394.493	4.2
394.854	4.18
395.214	4.16
395.574	4.11
395.935	4.08
396.295	4.06
396.655	4.05
397.015	3.97
397.376	3.96
397.736	3.92
398.096	3.9
398.456	3.86
398.816	3.79
399.176	3.75
399.535	3.7
399.895	3.7
400.255	3.67
400.615	3.68
400.975	3.7
401.334	3.66
401.694	3.64
402.054	3.61
402.413	3.57
402.773	3.57
403.132	3.54
403.492	3.6
403.851	3.57
404.211	3.55
404.57	3.55
404.929	3.52
405.288	3.52
405.648	3.5
406.007	3.5
406.366	3.49
406.725	3.46
407.084	3.44
407.443	3.43
407.802	3.43
408.161	3.4
408.52	3.35
408.879	3.34
409.238	3.3
409.596	3.33
409.955	3.33
410.314	3.29
410.673	3.27
411.031	3.22
411.39	3.23
411.748	3.23
412.107	3.22
412.465	3.19
412.824	3.2
413.182	3.21
413.54	3.2
413.899	3.21
414.257	3.19
414.615	3.17
414.974	3.16
415.332	3.16
415.69	3.17
416.048	3.18
416.406	3.16
416.764	3.18
417.122	3.15
417.48	3.13
417.838	3.13
418.195	3.16
418.553	3.14
418.911	3.12
419.269	3.12
419.626	3.14
419.984	3.14
420.342	3.12
420.699	3.12
421.057	3.12
421.414	3.11
421.772	3.11
422.129	3.1
422.486	3.09
422.844	3.09
423.201	3.08
423.558	3.08
423.915	3.09
424.273	3.07
424.63	3.08
424.987	3.07
425.344	3.09
425.701	3.07
426.058	3.09
426.415	3.09
426.772	3.08
427.128	3.07
427.485	3.06
427.842	3.05
428.199	3.04
428.555	3.03
428.912	3.03
429.269	3.02
429.625	3.03
429.982	3.03
430.338	3.01
430.695	3.02
431.051	3
431.407	2.99
431.764	2.98
432.12	3
432.476	3.02
432.832	3.02
433.189	3.02
433.545	3
433.901	2.99
434.257	3
434.613	2.98
434.969	2.98
435.325	2.99
435.681	2.99
436.036	2.99
436.392	3.01
436.748	3.01
437.104	3.02
437.459	3.02
437.815	3.02
438.171	3.02
438.526	3.03
438.882	3.03
439.237	3.04
439.593	3.02
439.948	3.02
440.304	2.99
440.659	3.01
441.014	3
441.369	3.01
441.725	2.99
442.08	2.99
442.435	2.99
442.79	2.97
443.145	2.97
443.5	2.95
443.855	2.95
444.21	2.94
444.565	2.94
444.92	2.96
445.275	2.96
445.629	2.95
445.984	2.94
446.339	2.93
446.693	2.93
447.048	2.93
447.403	2.92
447.757	2.93
448.112	2.92
448.466	2.93
448.82	2.92
449.175	2.91
449.529	2.92
449.883	2.91
450.238	2.93
450.592	2.93
450.946	2.93
451.3	2.92
451.654	2.91
452.008	2.9
452.362	2.86
452.716	2.84
453.07	2.84
453.424	2.84
453.778	2.84
454.132	2.83
454.486	2.84
454.839	2.84
455.193	2.81
455.547	2.78
455.9	2.78
456.254	2.8
456.607	2.81
456.961	2.8
457.314	2.81
457.668	2.79
458.021	2.8
458.375	2.8
458.728	2.81
459.081	2.82
459.434	2.82
459.787	2.83
460.141	2.85
460.494	2.85
460.847	2.84
461.2	2.85
461.553	2.85
461.906	2.85
462.259	2.85
462.611	2.88
462.964	2.9
463.317	2.89
463.67	2.88
464.022	2.89
464.375	2.89
464.728	2.9
465.08	2.92
465.433	2.92
465.785	2.93
466.138	2.92
466.49	2.94
466.843	2.96
467.195	2.97
467.547	2.98
467.899	3.01
468.252	3.02
468.604	3.03
468.956	3.04
469.308	3.02
469.66	3.05
470.012	3.03
470.364	3.02
470.716	3.06
471.068	3.07
471.42	3.11
471.772	3.11
472.123	3.13
472.475	3.13
472.827	3.16
473.178	3.16
473.53	3.16
473.882	3.17
474.233	3.15
474.585	3.16
474.936	3.16
475.288	3.15
475.639	3.16
475.99	3.16
476.342	3.15
476.693	3.17
477.044	3.17
477.395	3.17
477.746	3.18
478.097	3.16
478.448	3.14
478.8	3.14
479.15	3.15
479.501	3.12
479.852	3.12
480.203	3.11
480.554	3.12
480.905	3.13
481.255	3.11
481.606	3.12
481.957	3.12
482.307	3.11
482.658	3.12
483.009	3.12
483.359	3.13
483.709	3.14
484.06	3.14
484.41	3.14
484.761	3.15
485.111	3.15
485.461	3.14
485.811	3.15
486.162	3.15
486.512	3.15
486.862	3.16
487.212	3.16
487.562	3.16
487.912	3.15
488.262	3.16
488.612	3.16
488.961	3.16
489.311	3.16
489.661	3.18
490.011	3.16
490.36	3.15
490.71	3.14
491.06	3.13
491.409	3.13
491.759	3.12
492.108	3.12
492.458	3.12
492.807	3.14
493.157	3.14
493.506	3.15
493.855	3.15
494.204	3.14
494.554	3.15
494.903	3.16
495.252	3.18
495.601	3.17
495.95	3.18
496.299	3.2
496.648	3.22
496.997	3.22
497.346	3.27
497.695	3.3
498.043	3.33
498.392	3.36
498.741	3.38
499.09	3.41
499.438	3.44
499.787	3.48
500.135	3.51
500.484	3.52
500.832	3.53
501.181	3.57
501.529	3.61
501.878	3.65
502.226	3.69
502.574	3.73
502.923	3.78
503.271	3.82
503.619	3.87
503.967	3.88
504.315	3.92
504.663	3.92
505.011	3.96
505.359	3.99
505.707	4.05
506.055	4.08
506.403	4.13
506.751	4.16
507.098	4.2
507.446	4.25
507.794	4.31
508.141	4.37
508.489	4.44
508.837	4.46
509.184	4.5
509.531	4.54
509.879	4.58
510.226	4.65
510.574	4.71
510.921	4.76
511.268	4.84
511.616	4.9
511.963	4.98
512.31	5.05
512.657	5.13
513.004	5.2
513.351	5.3
513.698	5.4
514.045	5.47
514.392	5.53
514.739	5.62
515.086	5.7
515.432	5.79
515.779	5.87
516.126	5.97
516.473	6.04
516.819	6.13
517.166	6.22
517.512	6.27
517.859	6.34
518.205	6.42
518.552	6.5
518.898	6.58
519.245	6.65
519.591	6.72
519.937	6.77
520.283	6.84
520.629	6.91
520.976	6.99
521.322	7.08
521.668	7.17
522.014	7.26
522.36	7.36
522.706	7.47
523.052	7.57
523.398	7.7
523.743	7.85
524.089	7.99
524.435	8.11
524.781	8.23
525.126	8.36
525.472	8.46
525.817	8.55
526.163	8.64
526.509	8.73
526.854	8.79
527.199	8.88
527.545	8.96
527.89	9.02
528.235	9.11
528.581	9.2
528.926	9.28
529.271	9.36
529.616	9.43
529.961	9.5
530.306	9.57
530.651	9.64
530.996	9.7
531.341	9.79
531.686	9.86
532.031	9.95
532.376	10.03
532.721	10.12
533.065	10.22
533.41	10.3
533.755	10.4
534.099	10.53
534.444	10.64
534.788	10.73
535.133	10.85
535.477	10.93
535.822	11.04
536.166	11.16
536.51	11.29
536.855	11.45
537.199	11.59
537.543	11.77
537.887	11.91
538.231	12.09
538.576	12.25
538.92	12.43
539.264	12.6
539.608	12.75
539.951	12.88
540.295	12.99
540.639	13.15
540.983	13.29
541.327	13.41
541.671	13.53
542.014	13.69
542.358	13.8
542.701	13.97
543.045	14.1
543.389	14.22
543.732	14.36
544.075	14.49
544.419	14.65
544.762	14.78
545.105	14.97
545.449	15.13
545.792	15.28
546.135	15.48
546.478	15.63
546.821	15.82
547.165	16.04
547.508	16.23
547.851	16.42
548.194	16.63
548.536	16.86
548.879	17.08
549.222	17.24
549.565	17.47
549.908	17.65
550.25	17.86
550.593	18.14
550.936	18.32
551.278	18.54
551.621	18.75
551.963	19.01
552.306	19.22
552.648	19.44
552.991	19.64
553.333	19.83
553.675	20.1
554.017	20.29
554.36	20.5
554.702	20.76
555.044	20.97
555.386	21.16
555.728	21.35
556.07	21.58
556.412	21.82
556.754	22.05
557.096	22.27
557.438	22.55
557.78	22.78
558.121	23.06
558.463	23.3
558.805	23.52
559.147	23.79
559.488	24.02
559.83	24.28
560.171	24.5
560.513	24.75
560.854	24.99
561.196	25.29
561.537	25.57
561.878	25.77
562.22	26
562.561	26.27
562.902	26.51
563.243	26.72
563.584	27
563.925	27.28
564.266	27.55
564.607	27.73
564.948	27.9
565.289	28.11
565.63	28.33
565.971	28.58
566.312	28.74
566.653	29
566.993	29.2
567.334	29.49
567.675	29.69
568.015	29.87
568.356	30.06
568.696	30.28
569.037	30.55
569.377	30.76
569.718	30.97
570.058	31.2
570.398	31.44
570.739	31.66
571.079	31.82
571.419	32.01
571.759	32.21
572.099	32.44
572.439	32.62
572.779	32.8
573.119	32.98
573.459	33.17
573.799	33.33
574.139	33.49
574.479	33.67
574.819	33.86
575.158	34.04
575.498	34.2
575.838	34.35
576.177	34.47
576.517	34.63
576.856	34.78
577.196	34.95
577.535	35.11
577.875	35.24
578.214	35.44
578.553	35.6
578.893	35.81
579.232	35.99
579.571	36.21
579.91	36.41
580.25	36.62
580.589	36.8
580.928	36.92
581.267	37.15
581.606	37.25
581.945	37.43
582.283	37.67
582.622	37.82
582.961	37.99
583.3	38.15
583.639	38.42
583.977	38.62
584.316	38.83
584.654	38.96
584.993	39.17
585.332	39.29
585.67	39.46
586.008	39.64
586.347	39.8
586.685	39.87
587.024	40.03
587.362	40.17
587.7	40.31
588.038	40.51
588.376	40.55
588.715	40.71
589.053	40.82
589.391	40.89
589.729	41.02
590.067	41.15
590.404	41.29
590.742	41.3
591.08	41.38
591.418	41.46
591.756	41.57
592.093	41.64
592.431	41.78
592.769	41.93
593.106	41.93
593.444	41.98
593.781	42.11
594.119	42.21
594.456	42.21
594.793	42.26
595.131	42.35
595.468	42.5
595.805	42.58
596.143	42.66
596.48	42.73
596.817	42.79
597.154	42.86
597.491	42.94
597.828	43.03
598.165	43.15
598.502	43.22
598.839	43.29
599.176	43.43
599.512	43.52
599.849	43.55
600.186	43.76
600.523	43.82
600.859	43.86
601.196	43.91
601.532	43.99
601.869	44.06
602.205	44.1
602.542	44.19
602.878	44.24
603.215	44.28
603.551	44.39
603.887	44.49
604.223	44.58
604.56	44.62
604.896	44.68
605.232	44.7
605.568	44.75
605.904	44.81
606.24	44.83
606.576	44.91
606.912	44.99
607.248	44.94
607.583	45.08
607.919	45.26
608.255	45.36
608.591	45.44
608.926	45.55
609.262	45.65
609.597	45.65
609.933	45.74
610.268	45.83
610.604	45.84
610.939	45.85
611.275	45.86
611.61	45.95
611.945	45.97
612.281	46.04
612.616	46.14
612.951	46.25
613.286	46.29
613.621	46.32
613.956	46.46
614.291	46.55
614.626	46.58
614.961	46.53
615.296	46.68
615.631	46.82
615.966	46.87
616.3	46.85
616.635	46.89
616.97	46.88
617.304	46.88
617.639	46.98
617.973	47.07
618.308	47.1
618.642	47.09
618.977	47.12
619.311	47.16
619.646	47.17
619.98	47.13
620.314	47.21
620.648	47.23
620.983	47.15
621.317	47.25
621.651	47.32
621.985	47.4
622.319	47.33
622.653	47.34
622.987	47.37
623.321	47.52
623.655	47.53
623.988	47.61
624.322	47.66
624.656	47.66
624.99	47.71
625.323	47.77
625.657	47.85
625.99	47.9
626.324	47.97
626.657	48.03
626.991	48.11
627.324	48.12
627.658	48.13
627.991	48.18
628.324	48.18
628.657	48.2
628.991	48.17
629.324	48.18
629.657	48.2
629.99	48.23
630.323	48.18
630.656	48.23
630.989	48.22
631.322	48.27
631.655	48.24
631.987	48.22
632.32	48.23
632.653	48.23
632.986	48.29
633.318	48.28
633.651	48.31
633.984	48.38
634.316	48.38
634.649	48.44
634.981	48.49
635.313	48.57
635.646	48.56
635.978	48.56
636.31	48.58
636.643	48.59
636.975	48.6
637.307	48.7
637.639	48.74
637.971	48.74
638.303	48.73
638.635	48.82
638.967	48.96
639.299	48.94
639.631	48.95
639.963	48.97
640.295	49.03
640.626	48.97
640.958	48.91
641.29	48.93
641.621	48.83
641.953	48.86
642.285	48.81
642.616	48.83
642.948	48.89
643.279	48.97
643.61	49.03
643.942	49.11
644.273	49.04
644.604	49.06
644.936	49.14
645.267	49.23
645.598	49.26
645.929	49.19
646.26	49.23
646.591	49.33
646.922	49.25
647.253	49.27
647.584	49.24
647.915	49.36
648.245	49.48
648.576	49.64
648.907	49.62
649.238	49.67
649.568	49.65
649.899	49.77
650.229	49.81
650.56	49.78
650.89	49.76
651.221	49.88
651.551	49.88
651.882	49.91
652.212	49.94
652.542	49.96
652.872	50
653.203	50.01
653.533	49.92
653.863	50.07
654.193	50.09
654.523	50.2
654.853	50.18
655.183	50.12
655.513	50.09
655.843	50.21
656.172	50.23
656.502	50.27
656.832	50.26
657.162	50.22
657.491	50.22
657.821	50.28
658.15	50.26
658.48	50.23
658.809	50.32
659.139	50.4
659.468	50.45
659.798	50.48
660.127	50.51
660.456	50.6
660.785	50.59
661.115	50.58
661.444	50.54
661.773	50.65
662.102	50.59
662.431	50.69
662.76	50.67
663.089	50.68
663.418	50.77
663.747	50.81
664.076	50.82
664.404	50.79
664.733	50.75
665.062	50.79
665.39	50.88
665.719	50.79
666.048	50.69
666.376	50.76
666.705	50.74
667.033	50.7
667.362	50.75
667.69	50.77
668.018	50.89
