Data from BU26846_Reflection_00007.txt Node
Date: Mon Nov 18 16:33:32 EST 2019
User: vgr7
Spectrometer: USB2G7710
Scans to average: 3
Trigger mode: 4
Integration Time (sec): 2.000000E-2
Electric dark correction enabled: true
Boxcar width: 10
XAxis mode: Wavelengths
Number of Pixels in Spectrum: 2048
>>>>>Begin Spectral Data<<<<<
177.721	82.35
178.105	-315.09
178.488	367.18
178.871	-8.28
179.254	1.81
179.636	-50.68
180.019	-10.53
180.402	39.39
180.785	-137.54
181.168	-103.18
181.55	-48.55
181.933	62.47
182.316	69.65
182.698	64.87
183.081	63.51
183.463	77.06
183.846	83.98
184.228	-51.92
184.611	-257.38
184.993	-922.47
185.376	419.59
185.758	170.42
186.14	-27.32
186.522	3.78
186.904	-20.88
187.287	-2.75
187.669	-36.24
188.051	-44.45
188.433	-53.73
188.815	-23.39
189.197	-13.91
189.579	-17.69
189.961	-55.21
190.342	-293.77
190.724	114.03
191.106	-411.45
191.488	-253.46
191.869	-63.93
192.251	-1.96
192.633	-18.47
193.014	8.17
193.396	14.56
193.777	-0.31
194.159	16.35
194.54	-1.34
194.922	4.87
195.303	-11.28
195.684	14.18
196.065	-3.66
196.447	-46.44
196.828	-52.68
197.209	-153.4
197.59	-201.55
197.971	-127.17
198.352	-119.66
198.733	-98.78
199.114	-157.7
199.495	-180.72
199.876	979.4
200.257	487.17
200.638	294.84
201.018	350.92
201.399	222.55
201.78	112.61
202.16	144.5
202.541	96.85
202.922	92.5
203.302	72.94
203.683	102.55
204.063	120.01
204.444	80.95
204.824	94.1
205.204	68.6
205.585	63.48
205.965	57.54
206.345	39.04
206.725	14.5
207.106	11.4
207.486	-2.04
207.866	-36.5
208.246	-29.9
208.626	-75.83
209.006	-39.8
209.386	-132.68
209.766	-152
210.145	-177.5
210.525	-159.57
210.905	-82.14
211.285	-95.44
211.664	-62.04
212.044	-54.57
212.424	-86.86
212.803	-100.92
213.183	-84.12
213.562	-55.79
213.942	-28.34
214.321	-21.86
214.701	25.52
215.08	22.63
215.459	82.73
215.838	25.69
216.218	14.33
216.597	122.43
216.976	70.01
217.355	117.67
217.734	56.33
218.113	60.06
218.492	107.93
218.871	1586.49
219.25	157.23
219.629	238.03
220.008	-373.05
220.387	451.35
220.766	26.22
221.144	-1260.66
221.523	615.53
221.902	515.04
222.28	1603.5
222.659	-397.65
223.037	-112.32
223.416	-110.89
223.794	-123.4
224.173	-90.35
224.551	-69.16
224.929	-69.15
225.308	-56.58
225.686	-53.8
226.064	-39.67
226.442	-39.04
226.821	-30.09
227.199	-30.92
227.577	-27.04
227.955	-22.24
228.333	-20.18
228.711	-17.64
229.089	-13.85
229.467	-11.7
229.845	-6.86
230.222	-1.75
230.6	-2.45
230.978	-5.2
231.356	-5.01
231.733	-3.19
232.111	-1.7
232.488	-3.07
232.866	-0.24
233.243	0.91
233.621	2.82
233.998	4.16
234.376	6.02
234.753	6.32
235.13	4.84
235.508	6
235.885	5.27
236.262	5.92
236.639	6.07
237.016	7.02
237.393	6.68
237.77	6.12
238.147	7.21
238.524	6.92
238.901	8.27
239.278	7.77
239.655	8.37
240.032	9.05
240.409	9.31
240.785	8.84
241.162	8.72
241.539	8.08
241.915	7.44
242.292	6.84
242.668	6.54
243.045	6.58
243.421	6.14
243.798	5.84
244.174	5.65
244.551	5.97
244.927	5.85
245.303	5.95
245.679	5.92
246.056	5.43
246.432	5.4
246.808	5.31
247.184	5.38
247.56	5.16
247.936	5.03
248.312	4.79
248.688	4.89
249.064	4.75
249.44	4.93
249.815	4.99
250.191	5.13
250.567	5.24
250.943	4.98
251.318	5.27
251.694	5.38
252.069	5.34
252.445	5.19
252.82	5.22
253.196	5.15
253.571	5.02
253.947	5.35
254.322	5.54
254.697	5.43
255.073	5.31
255.448	5.03
255.823	4.8
256.198	5.11
256.573	5.02
256.948	5.25
257.323	5.21
257.698	5.37
258.073	5.4
258.448	5.34
258.823	5.54
259.198	5.2
259.573	5.11
259.948	5.04
260.322	4.99
260.697	4.91
261.072	4.91
261.446	4.99
261.821	4.78
262.195	4.82
262.57	4.71
262.944	4.63
263.319	4.65
263.693	4.55
264.067	4.48
264.442	4.42
264.816	4.28
265.19	4.19
265.564	4.02
265.938	3.81
266.313	3.8
266.687	3.67
267.061	4.12
267.435	3.97
267.809	4
268.183	4.19
268.556	4.09
268.93	4.14
269.304	4.24
269.678	4.52
270.051	4.5
270.425	4.68
270.799	4.72
271.172	4.91
271.546	5.03
271.919	4.8
272.293	4.87
272.666	4.86
273.04	4.96
273.413	4.84
273.787	4.82
274.16	4.76
274.533	4.81
274.906	4.6
275.279	4.74
275.653	4.75
276.026	4.42
276.399	4.56
276.772	4.56
277.145	4.46
277.518	4.22
277.891	4.22
278.263	4.19
278.636	4.13
279.009	4.09
279.382	4.12
279.755	4.39
280.127	4.3
280.5	4.27
280.872	4.32
281.245	4.4
281.617	4.62
281.99	4.78
282.362	4.85
282.735	4.78
283.107	4.71
283.479	4.79
283.852	4.87
284.224	4.89
284.596	4.9
284.968	5.03
285.34	5.15
285.713	5.09
286.085	5.05
286.457	5.18
286.829	5.29
287.201	5.31
287.572	5.28
287.944	5.28
288.316	5.35
288.688	5.27
289.06	5.29
289.431	5.21
289.803	5.32
290.175	5.27
290.546	5.45
290.918	5.55
291.289	5.62
291.661	5.67
292.032	5.74
292.403	5.84
292.775	5.82
293.146	5.78
293.517	5.89
293.889	6.08
294.26	6.14
294.631	6.08
295.002	6.13
295.373	6.1
295.744	6.17
296.115	6.2
296.486	6.2
296.857	6.21
297.228	6.27
297.599	6.15
297.97	6.22
298.34	6.2
298.711	6.3
299.082	6.3
299.452	6.54
299.823	6.51
300.194	6.51
300.564	6.5
300.935	6.75
301.305	6.78
301.676	6.82
302.046	6.91
302.416	7.08
302.787	7.2
303.157	7.35
303.527	7.46
303.897	7.62
304.267	7.82
304.637	8.06
305.008	8.22
305.378	8.45
305.748	8.66
306.117	8.75
306.487	8.73
306.857	8.94
307.227	8.91
307.597	9.18
307.967	9.3
308.336	9.43
308.706	9.43
309.076	9.58
309.445	9.62
309.815	9.59
310.184	9.61
310.554	9.66
310.923	9.77
311.293	9.9
311.662	9.95
312.031	10
312.401	10.05
312.77	10.29
313.139	10.39
313.508	10.46
313.877	10.64
314.246	10.79
314.616	10.88
314.985	11.06
315.353	11.07
315.722	11.3
316.091	11.42
316.46	11.41
316.829	11.45
317.198	11.75
317.567	12.01
317.935	12.15
318.304	12.34
318.672	12.38
319.041	12.57
319.41	12.78
319.778	12.98
320.147	13.12
320.515	13.19
320.883	13.14
321.252	13.23
321.62	13.24
321.988	13.4
322.357	13.37
322.725	13.31
323.093	13.46
323.461	13.37
323.829	13.46
324.197	13.61
324.565	13.79
324.933	13.89
325.301	13.96
325.669	14.07
326.037	14.08
326.405	14.1
326.772	14.14
327.14	14.19
327.508	14.25
327.875	14.27
328.243	14.24
328.61	14.22
328.978	14.28
329.346	14.42
329.713	14.4
330.08	14.46
330.448	14.43
330.815	14.44
331.182	14.49
331.55	14.6
331.917	14.67
332.284	14.66
332.651	14.44
333.018	14.51
333.385	14.44
333.752	14.49
334.119	14.58
334.486	14.57
334.853	14.48
335.22	14.36
335.587	14.46
335.954	14.51
336.32	14.63
336.687	14.69
337.054	14.66
337.42	14.75
337.787	14.91
338.153	15.04
338.52	15.13
338.886	15.12
339.253	15.06
339.619	15.11
339.986	15.22
340.352	15.4
340.718	15.28
341.084	15.44
341.451	15.54
341.817	15.73
342.183	15.83
342.549	15.91
342.915	16.13
343.281	16.07
343.647	15.99
344.013	16.01
344.379	16.03
344.745	16.06
345.11	16.13
345.476	16.12
345.842	16.15
346.208	16.2
346.573	16.32
346.939	16.42
347.304	16.43
347.67	16.34
348.035	16.35
348.401	16.49
348.766	16.4
349.132	16.32
349.497	16.17
349.862	16.18
350.228	16.23
350.593	16.2
350.958	16.32
351.323	16.35
351.688	16.44
352.053	16.43
352.418	16.4
352.783	16.37
353.148	16.35
353.513	16.42
353.878	16.34
354.243	16.35
354.608	16.32
354.972	16.23
355.337	16.28
355.702	16.27
356.066	16.23
356.431	16.26
356.795	16.27
357.16	16.24
357.524	16.08
357.889	16.01
358.253	16
358.618	16
358.982	15.97
359.346	15.92
359.71	15.91
360.075	15.91
360.439	15.87
360.803	15.84
361.167	15.71
361.531	15.78
361.895	15.71
362.259	15.65
362.623	15.68
362.987	15.58
363.351	15.56
363.714	15.54
364.078	15.46
364.442	15.38
364.806	15.4
365.169	15.4
365.533	15.4
365.896	15.29
366.26	15.16
366.623	15.16
366.987	15.03
367.35	14.93
367.714	14.9
368.077	14.81
368.44	14.74
368.803	14.7
369.167	14.52
369.53	14.43
369.893	14.44
370.256	14.29
370.619	14.25
370.982	14.14
371.345	14.01
371.708	13.93
372.071	13.87
372.434	13.72
372.797	13.66
373.159	13.52
373.522	13.47
373.885	13.45
374.247	13.27
374.61	13.26
374.973	13.14
375.335	13.01
375.698	12.89
376.06	12.75
376.423	12.65
376.785	12.55
377.147	12.45
377.51	12.21
377.872	12.16
378.234	12.05
378.596	11.96
378.958	11.86
379.321	11.75
379.683	11.69
380.045	11.58
380.407	11.47
380.769	11.31
381.13	11.14
381.492	10.97
381.854	10.94
382.216	10.81
382.578	10.73
382.939	10.58
383.301	10.51
383.663	10.47
384.024	10.4
384.386	10.39
384.747	10.32
385.109	10.33
385.47	10.23
385.832	10.13
386.193	10.06
386.554	10.07
386.916	10.04
387.277	9.93
387.638	9.88
387.999	9.83
388.36	9.82
388.721	9.77
389.082	9.7
389.443	9.6
389.804	9.54
390.165	9.47
390.526	9.42
390.887	9.37
391.248	9.29
391.609	9.2
391.969	9.08
392.33	8.99
392.691	8.92
393.051	8.87
393.412	8.84
393.772	8.76
394.133	8.63
394.493	8.55
394.854	8.46
395.214	8.36
395.574	8.28
395.935	8.21
396.295	8.12
396.655	8.07
397.015	8.02
397.376	7.91
397.736	7.85
398.096	7.84
398.456	7.8
398.816	7.71
399.176	7.63
399.535	7.57
399.895	7.48
400.255	7.44
400.615	7.39
400.975	7.29
401.334	7.23
401.694	7.17
402.054	7.08
402.413	7.08
402.773	7.05
403.132	6.96
403.492	6.89
403.851	6.86
404.211	6.84
404.57	6.77
404.929	6.74
405.288	6.71
405.648	6.63
406.007	6.56
406.366	6.53
406.725	6.52
407.084	6.49
407.443	6.49
407.802	6.45
408.161	6.39
408.52	6.37
408.879	6.34
409.238	6.3
409.596	6.32
409.955	6.29
410.314	6.28
410.673	6.27
411.031	6.26
411.39	6.24
411.748	6.18
412.107	6.15
412.465	6.14
412.824	6.08
413.182	6.05
413.54	6.02
413.899	6
414.257	5.99
414.615	5.95
414.974	5.91
415.332	5.87
415.69	5.85
416.048	5.81
416.406	5.76
416.764	5.74
417.122	5.69
417.48	5.61
417.838	5.58
418.195	5.57
418.553	5.54
418.911	5.5
419.269	5.48
419.626	5.44
419.984	5.39
420.342	5.35
420.699	5.31
421.057	5.3
421.414	5.26
421.772	5.23
422.129	5.19
422.486	5.15
422.844	5.13
423.201	5.1
423.558	5.09
423.915	5.08
424.273	5.07
424.63	5.05
424.987	5.04
425.344	5.02
425.701	4.99
426.058	4.96
426.415	4.93
426.772	4.9
427.128	4.9
427.485	4.9
427.842	4.9
428.199	4.92
428.555	4.89
428.912	4.87
429.269	4.85
429.625	4.84
429.982	4.83
430.338	4.8
430.695	4.8
431.051	4.79
431.407	4.74
431.764	4.71
432.12	4.69
432.476	4.69
432.832	4.67
433.189	4.67
433.545	4.67
433.901	4.7
434.257	4.69
434.613	4.69
434.969	4.67
435.325	4.65
435.681	4.65
436.036	4.66
436.392	4.67
436.748	4.66
437.104	4.66
437.459	4.66
437.815	4.67
438.171	4.68
438.526	4.66
438.882	4.71
439.237	4.72
439.593	4.72
439.948	4.72
440.304	4.72
440.659	4.72
441.014	4.71
441.369	4.7
441.725	4.71
442.08	4.69
442.435	4.69
442.79	4.71
443.145	4.68
443.5	4.67
443.855	4.66
444.21	4.66
444.565	4.67
444.92	4.67
445.275	4.65
445.629	4.64
445.984	4.63
446.339	4.6
446.693	4.56
447.048	4.55
447.403	4.54
447.757	4.52
448.112	4.5
448.466	4.49
448.82	4.48
449.175	4.46
449.529	4.45
449.883	4.44
450.238	4.41
450.592	4.41
450.946	4.39
451.3	4.39
451.654	4.38
452.008	4.35
452.362	4.33
452.716	4.34
453.07	4.32
453.424	4.32
453.778	4.31
454.132	4.3
454.486	4.28
454.839	4.27
455.193	4.26
455.547	4.28
455.9	4.29
456.254	4.27
456.607	4.27
456.961	4.28
457.314	4.25
457.668	4.26
458.021	4.23
458.375	4.23
458.728	4.22
459.081	4.22
459.434	4.22
459.787	4.26
460.141	4.26
460.494	4.26
460.847	4.27
461.2	4.28
461.553	4.3
461.906	4.33
462.259	4.37
462.611	4.41
462.964	4.42
463.317	4.44
463.67	4.46
464.022	4.48
464.375	4.49
464.728	4.53
465.08	4.57
465.433	4.63
465.785	4.65
466.138	4.69
466.49	4.72
466.843	4.74
467.195	4.74
467.547	4.77
467.899	4.8
468.252	4.82
468.604	4.86
468.956	4.88
469.308	4.91
469.66	4.92
470.012	4.94
470.364	4.97
470.716	5.01
471.068	5.04
471.42	5.06
471.772	5.12
472.123	5.14
472.475	5.16
472.827	5.17
473.178	5.22
473.53	5.24
473.882	5.25
474.233	5.28
474.585	5.28
474.936	5.28
475.288	5.28
475.639	5.32
475.99	5.33
476.342	5.33
476.693	5.31
477.044	5.3
477.395	5.3
477.746	5.26
478.097	5.24
478.448	5.21
478.8	5.19
479.15	5.12
479.501	5.09
479.852	5.08
480.203	5.05
480.554	5
480.905	4.97
481.255	4.96
481.606	4.94
481.957	4.93
482.307	4.92
482.658	4.91
483.009	4.9
483.359	4.88
483.709	4.86
484.06	4.85
484.41	4.84
484.761	4.82
485.111	4.81
485.461	4.8
485.811	4.8
486.162	4.79
486.512	4.8
486.862	4.8
487.212	4.78
487.562	4.77
487.912	4.77
488.262	4.75
488.612	4.75
488.961	4.75
489.311	4.75
489.661	4.74
490.011	4.73
490.36	4.72
490.71	4.75
491.06	4.76
491.409	4.76
491.759	4.77
492.108	4.8
492.458	4.81
492.807	4.83
493.157	4.86
493.506	4.89
493.855	4.91
494.204	4.93
494.554	4.97
494.903	5.02
495.252	5.07
495.601	5.14
495.95	5.19
496.299	5.22
496.648	5.25
496.997	5.34
497.346	5.43
497.695	5.51
498.043	5.55
498.392	5.63
498.741	5.72
499.09	5.81
499.438	5.91
499.787	6.02
500.135	6.14
500.484	6.23
500.832	6.36
501.181	6.49
501.529	6.62
501.878	6.8
502.226	6.98
502.574	7.12
502.923	7.3
503.271	7.49
503.619	7.71
503.967	7.94
504.315	8.15
504.663	8.36
505.011	8.58
505.359	8.82
505.707	9.07
506.055	9.32
506.403	9.58
506.751	9.82
507.098	10.09
507.446	10.39
507.794	10.68
508.141	10.96
508.489	11.28
508.837	11.57
509.184	11.86
509.531	12.2
509.879	12.54
510.226	12.86
510.574	13.19
510.921	13.51
511.268	13.84
511.616	14.16
511.963	14.53
512.31	14.93
512.657	15.32
513.004	15.72
513.351	16.15
513.698	16.59
514.045	17.03
514.392	17.46
514.739	17.88
515.086	18.34
515.432	18.77
515.779	19.21
516.126	19.64
516.473	20.07
516.819	20.44
517.166	20.84
517.512	21.21
517.859	21.59
518.205	21.98
518.552	22.31
518.898	22.64
519.245	22.96
519.591	23.29
519.937	23.64
520.283	23.99
520.629	24.35
520.976	24.72
521.322	25.14
521.668	25.54
522.014	25.97
522.36	26.4
522.706	26.84
523.052	27.26
523.398	27.74
523.743	28.2
524.089	28.7
524.435	29.18
524.781	29.61
525.126	30.03
525.472	30.4
525.817	30.75
526.163	31.07
526.509	31.37
526.854	31.64
527.199	31.88
527.545	32.13
527.89	32.36
528.235	32.59
528.581	32.82
528.926	33.06
529.271	33.29
529.616	33.52
529.961	33.74
530.306	34
530.651	34.24
530.996	34.51
531.341	34.75
531.686	34.97
532.031	35.21
532.376	35.47
532.721	35.75
533.065	36.02
533.41	36.3
533.755	36.57
534.099	36.88
534.444	37.17
534.788	37.46
535.133	37.74
535.477	38.02
535.822	38.33
536.166	38.63
536.51	38.95
536.855	39.28
537.199	39.62
537.543	39.95
537.887	40.3
538.231	40.66
538.576	40.99
538.92	41.38
539.264	41.74
539.608	42.05
539.951	42.3
540.295	42.58
540.639	42.84
540.983	43.06
541.327	43.26
541.671	43.52
542.014	43.74
542.358	43.95
542.701	44.17
543.045	44.36
543.389	44.55
543.732	44.76
544.075	44.97
544.419	45.21
544.762	45.47
545.105	45.72
545.449	45.93
545.792	46.22
546.135	46.41
546.478	46.64
546.821	46.85
547.165	47.14
547.508	47.43
547.851	47.69
548.194	47.99
548.536	48.24
548.879	48.51
549.222	48.77
549.565	49.06
549.908	49.31
550.25	49.55
550.593	49.78
550.936	50.01
551.278	50.26
551.621	50.51
551.963	50.69
552.306	50.86
552.648	51.09
552.991	51.25
553.333	51.44
553.675	51.69
554.017	51.84
554.36	51.95
554.702	52.11
555.044	52.3
555.386	52.44
555.728	52.62
556.07	52.75
556.412	52.86
556.754	52.99
557.096	53.19
557.438	53.41
557.78	53.63
558.121	53.8
558.463	53.99
558.805	54.07
559.147	54.23
559.488	54.38
559.83	54.51
560.171	54.63
560.513	54.73
560.854	54.78
561.196	54.97
561.537	55.21
561.878	55.29
562.22	55.41
562.561	55.5
562.902	55.68
563.243	55.77
563.584	55.98
563.925	56.06
564.266	56.13
564.607	56.26
564.948	56.38
565.289	56.5
565.63	56.61
565.971	56.71
566.312	56.85
566.653	56.92
566.993	56.94
567.334	57.02
567.675	57.13
568.015	57.27
568.356	57.36
568.696	57.4
569.037	57.51
569.377	57.59
569.718	57.71
570.058	57.73
570.398	57.76
570.739	57.8
571.079	57.91
571.419	58.05
571.759	58.05
572.099	58.09
572.439	58.11
572.779	58.17
573.119	58.24
573.459	58.34
573.799	58.39
574.139	58.51
574.479	58.56
574.819	58.63
575.158	58.7
575.498	58.74
575.838	58.84
576.177	58.89
576.517	58.93
576.856	59.06
577.196	59.19
577.535	59.3
577.875	59.4
578.214	59.44
578.553	59.49
578.893	59.64
579.232	59.76
579.571	59.91
579.91	59.94
580.25	60.08
580.589	60.09
580.928	60.24
581.267	60.35
581.606	60.37
581.945	60.39
582.283	60.51
582.622	60.62
582.961	60.67
583.3	60.74
583.639	60.87
583.977	60.88
584.316	60.94
584.654	61.04
584.993	61.01
585.332	61.13
585.67	61.25
586.008	61.26
586.347	61.28
586.685	61.32
587.024	61.38
587.362	61.41
587.7	61.44
588.038	61.5
588.376	61.53
588.715	61.63
589.053	61.79
589.391	61.81
589.729	61.86
590.067	61.88
590.404	61.98
590.742	62.07
591.08	62.21
591.418	62.23
591.756	62.23
592.093	62.32
592.431	62.31
592.769	62.31
593.106	62.35
593.444	62.44
593.781	62.48
594.119	62.54
594.456	62.58
594.793	62.62
595.131	62.62
595.468	62.67
595.805	62.74
596.143	62.73
596.48	62.73
596.817	62.73
597.154	62.8
597.491	62.77
597.828	62.68
598.165	62.61
598.502	62.65
598.839	62.67
599.176	62.73
599.512	62.81
599.849	62.88
600.186	62.98
600.523	63.03
600.859	63.07
601.196	63.06
601.532	63.06
601.869	63.08
602.205	63.15
602.542	63.18
602.878	63.17
603.215	63.23
603.551	63.29
603.887	63.33
604.223	63.28
604.56	63.27
604.896	63.29
605.232	63.36
605.568	63.39
605.904	63.47
606.24	63.48
606.576	63.5
606.912	63.51
607.248	63.5
607.583	63.47
607.919	63.45
608.255	63.47
608.591	63.51
608.926	63.49
609.262	63.48
609.597	63.54
609.933	63.66
610.268	63.63
610.604	63.62
610.939	63.65
611.275	63.71
611.61	63.77
611.945	63.86
612.281	63.84
612.616	63.91
612.951	63.85
613.286	63.89
613.621	63.93
613.956	63.95
614.291	63.89
614.626	64.02
614.961	64.04
615.296	64.16
615.631	64.21
615.966	64.34
616.3	64.4
616.635	64.33
616.97	64.26
617.304	64.34
617.639	64.38
617.973	64.37
618.308	64.42
618.642	64.52
618.977	64.52
619.311	64.54
619.646	64.51
619.98	64.66
620.314	64.69
620.648	64.64
620.983	64.59
621.317	64.58
621.651	64.54
621.985	64.56
622.319	64.52
622.653	64.57
622.987	64.49
623.321	64.52
623.655	64.54
623.988	64.52
624.322	64.58
624.656	64.49
624.99	64.55
625.323	64.64
625.657	64.62
625.99	64.7
626.324	64.71
626.657	64.84
626.991	64.84
627.324	64.82
627.658	64.92
627.991	64.99
628.324	65.07
628.657	65.07
628.991	65.11
629.324	65.14
629.657	65.13
629.99	65.13
630.323	65.08
630.656	65.14
630.989	65.19
631.322	65.17
631.655	65.28
631.987	65.27
632.32	65.22
632.653	65.21
632.986	65.2
633.318	65.25
633.651	65.08
633.984	64.95
634.316	64.92
634.649	64.89
634.981	64.88
635.313	64.91
635.646	64.83
635.978	64.93
636.31	64.91
636.643	64.89
636.975	65.02
637.307	65.06
637.639	65.15
637.971	65.24
638.303	65.28
638.635	65.21
638.967	65.13
639.299	65.15
639.631	65.13
639.963	65.06
640.295	65.12
640.626	65.15
640.958	65.22
641.29	65.28
641.621	65.24
641.953	65.22
642.285	65.22
642.616	65.43
642.948	65.31
643.279	65.4
643.61	65.48
643.942	65.54
644.273	65.57
644.604	65.48
644.936	65.4
645.267	65.44
645.598	65.53
645.929	65.68
646.26	65.6
646.591	65.77
646.922	65.71
647.253	65.69
647.584	65.73
647.915	65.83
648.245	65.87
648.576	65.93
648.907	66.02
649.238	66.1
649.568	66.12
649.899	66.18
650.229	66.2
650.56	66.16
650.89	66.14
651.221	66.18
651.551	66.21
651.882	66.19
652.212	66.24
652.542	66.37
652.872	66.29
653.203	66.37
653.533	66.3
653.863	66.4
654.193	66.32
654.523	66.39
654.853	66.44
655.183	66.61
655.513	66.61
655.843	66.54
656.172	66.42
656.502	66.37
656.832	66.33
657.162	66.27
657.491	66.21
657.821	66.15
658.15	66.08
658.48	66.01
658.809	66
659.139	65.9
659.468	65.78
659.798	65.84
660.127	65.81
660.456	65.72
660.785	65.77
661.115	65.79
661.444	65.74
