Data from BU26842_Reflection_00010.txt Node
Date: Mon Nov 18 16:38:44 EST 2019
User: vgr7
Spectrometer: USB2G7710
Scans to average: 3
Trigger mode: 4
Integration Time (sec): 2.000000E-2
Electric dark correction enabled: true
Boxcar width: 10
XAxis mode: Wavelengths
Number of Pixels in Spectrum: 2048
>>>>>Begin Spectral Data<<<<<
177.721	-121.37
178.105	-42.21
178.488	-26.54
178.871	-53.62
179.254	17.33
179.636	-63.49
180.019	-143.44
180.402	79.07
180.785	92.38
181.168	87.22
181.55	79.2
181.933	209.09
182.316	-562.07
182.698	-247.11
183.081	63.08
183.463	30.94
183.846	11.54
184.228	26.36
184.611	29.62
184.993	17.29
185.376	144.16
185.758	364.53
186.14	-427.2
186.522	-208.68
186.904	-509.14
187.287	-727.59
187.669	78.74
188.051	45.35
188.433	5.96
188.815	-6.45
189.197	-27.07
189.579	-14.53
189.961	-21
190.342	-14.98
190.724	-8.75
191.106	-28.32
191.488	10.63
191.869	8.8
192.251	4.96
192.633	7.09
193.014	-1.47
193.396	-44.62
193.777	-51.07
194.159	-27.18
194.54	-17.49
194.922	-10.85
195.303	-14.04
195.684	-28.24
196.065	-14.43
196.447	-6.98
196.828	-14.26
197.209	-24.02
197.59	-30.79
197.971	-28.21
198.352	-29.63
198.733	-35.48
199.114	-32.6
199.495	-49.26
199.876	-51.47
200.257	-21.33
200.638	-15.49
201.018	-4.37
201.399	21.98
201.78	35.45
202.16	15.21
202.541	-3.25
202.922	-13.44
203.302	13.1
203.683	69.98
204.063	53.09
204.444	56.2
204.824	55.25
205.204	62.98
205.585	55.09
205.965	42.11
206.345	55.53
206.725	23.96
207.106	19.03
207.486	15.59
207.866	40.52
208.246	-11.82
208.626	-31.52
209.006	-15.35
209.386	-31.05
209.766	-45.23
210.145	-23.87
210.525	10.67
210.905	4.64
211.285	-16.05
211.664	-8.8
212.044	-13.7
212.424	-10.94
212.803	-6.82
213.183	-11.54
213.562	-16.55
213.942	-4.6
214.321	-7.8
214.701	-2.89
215.08	5.98
215.459	1.14
215.838	-15.02
216.218	-28.6
216.597	-16.61
216.976	-23.91
217.355	-19.48
217.734	-13.11
218.113	-15.92
218.492	-19.12
218.871	-28.56
219.25	-13.12
219.629	-25.27
220.008	-15.32
220.387	-23.97
220.766	-33.14
221.144	-37.98
221.523	-37.07
221.902	-34.52
222.28	-31.14
222.659	-21.19
223.037	-19.32
223.416	-15.97
223.794	-7.06
224.173	11.66
224.551	12.17
224.929	20.07
225.308	18.89
225.686	19.6
226.064	18.64
226.442	15
226.821	16.94
227.199	10.79
227.577	12.08
227.955	8.96
228.333	11.6
228.711	12.34
229.089	16.6
229.467	14.43
229.845	12.5
230.222	12.58
230.6	11.01
230.978	12.29
231.356	13.74
231.733	12.4
232.111	9.58
232.488	10.43
232.866	8.82
233.243	8.35
233.621	8.07
233.998	10.58
234.376	9.14
234.753	9.09
235.13	9.17
235.508	9.63
235.885	7.26
236.262	5.78
236.639	6.31
237.016	5.26
237.393	7.17
237.77	8.06
238.147	6.96
238.524	5.83
238.901	5.74
239.278	5.36
239.655	6.9
240.032	6.99
240.409	6.09
240.785	5.84
241.162	5.63
241.539	5.3
241.915	4.81
242.292	4.43
242.668	4.11
243.045	4.01
243.421	3.85
243.798	4.25
244.174	3.99
244.551	3.75
244.927	3.45
245.303	3.49
245.679	3.59
246.056	3.68
246.432	3.85
246.808	3.83
247.184	3.53
247.56	3.25
247.936	3.27
248.312	3.64
248.688	3.51
249.064	3.55
249.44	3.72
249.815	3.82
250.191	4.09
250.567	4.32
250.943	4.28
251.318	4.4
251.694	4.23
252.069	4.49
252.445	4.86
252.82	5.23
253.196	4.94
253.571	4.88
253.947	5.1
254.322	5.08
254.697	5.15
255.073	4.97
255.448	4.78
255.823	4.67
256.198	4.17
256.573	4.3
256.948	4.37
257.323	4.23
257.698	4.27
258.073	4.16
258.448	4.03
258.823	4.19
259.198	3.96
259.573	4.12
259.948	3.92
260.322	3.87
260.697	3.71
261.072	3.85
261.446	3.75
261.821	3.45
262.195	3.58
262.57	3.3
262.944	3.49
263.319	3.51
263.693	3.4
264.067	3.52
264.442	3.52
264.816	3.23
265.19	3.24
265.564	3
265.938	3.11
266.313	3.3
266.687	3.29
267.061	3.53
267.435	3.45
267.809	3.56
268.183	3.37
268.556	3.17
268.93	3.1
269.304	3.06
269.678	3.4
270.051	3.29
270.425	3.44
270.799	3.32
271.172	3.43
271.546	3.46
271.919	3.49
272.293	3.55
272.666	3.65
273.04	3.71
273.413	3.54
273.787	3.55
274.16	3.42
274.533	3.41
274.906	3.19
275.279	3.3
275.653	3.26
276.026	3.42
276.399	3.5
276.772	3.47
277.145	3.52
277.518	3.32
277.891	3.43
278.263	3.45
278.636	3.56
279.009	3.34
279.382	3.46
279.755	3.33
280.127	3.37
280.5	3.27
280.872	3.22
281.245	3.34
281.617	3.33
281.99	3.33
282.362	3.35
282.735	3.26
283.107	3.17
283.479	3.28
283.852	3.23
284.224	3.35
284.596	3.4
284.968	3.45
285.34	3.63
285.713	3.61
286.085	3.56
286.457	3.53
286.829	3.61
287.201	3.47
287.572	3.42
287.944	3.25
288.316	3.4
288.688	3.41
289.06	3.52
289.431	3.52
289.803	3.6
290.175	3.61
290.546	3.79
290.918	3.87
291.289	3.92
291.661	3.99
292.032	4.03
292.403	3.99
292.775	4.05
293.146	3.94
293.517	4.03
293.889	4.02
294.26	4.09
294.631	4.05
295.002	4.23
295.373	4.37
295.744	4.43
296.115	4.39
296.486	4.19
296.857	4.14
297.228	4.16
297.599	4.1
297.97	4.12
298.34	4.09
298.711	4.18
299.082	4.19
299.452	4.25
299.823	4.26
300.194	4.34
300.564	4.26
300.935	4.3
301.305	4.17
301.676	4.29
302.046	4.27
302.416	4.57
302.787	4.61
303.157	4.69
303.527	4.76
303.897	4.75
304.267	5.12
304.637	5.21
305.008	5.27
305.378	5.41
305.748	5.27
306.117	5.34
306.487	5.27
306.857	5.26
307.227	5.18
307.597	5.13
307.967	5.09
308.336	5.15
308.706	5.11
309.076	5.19
309.445	5.11
309.815	5.04
310.184	4.85
310.554	4.84
310.923	4.82
311.293	4.85
311.662	4.89
312.031	4.84
312.401	4.9
312.77	4.93
313.139	5.08
313.508	5.27
313.877	5.41
314.246	5.48
314.616	5.52
314.985	5.51
315.353	5.49
315.722	5.52
316.091	5.43
316.46	5.57
316.829	5.55
317.198	5.64
317.567	5.71
317.935	5.72
318.304	5.64
318.672	5.54
319.041	5.48
319.41	5.55
319.778	5.48
320.147	5.34
320.515	5.32
320.883	5.1
321.252	5.19
321.62	5.07
321.988	5.02
322.357	5.09
322.725	5.15
323.093	5.38
323.461	5.37
323.829	5.52
324.197	5.59
324.565	5.76
324.933	5.78
325.301	5.81
325.669	5.88
326.037	5.95
326.405	6.19
326.772	6.36
327.14	6.59
327.508	6.58
327.875	6.54
328.243	6.61
328.61	6.63
328.978	6.64
329.346	6.75
329.713	6.68
330.08	6.71
330.448	6.73
330.815	6.52
331.182	6.65
331.55	6.64
331.917	6.59
332.284	6.55
332.651	6.61
333.018	6.71
333.385	6.82
333.752	6.87
334.119	6.79
334.486	6.72
334.853	6.5
335.22	6.49
335.587	6.77
335.954	6.81
336.32	6.79
336.687	6.7
337.054	6.72
337.42	6.76
337.787	6.69
338.153	6.64
338.52	6.93
338.886	6.92
339.253	6.95
339.619	7.06
339.986	7.08
340.352	7.08
340.718	7.15
341.084	7.08
341.451	7.15
341.817	7.21
342.183	7.2
342.549	7.24
342.915	7.32
343.281	7.15
343.647	7.1
344.013	7.12
344.379	7.17
344.745	7.09
345.11	7.15
345.476	7.2
345.842	7.23
346.208	7.13
346.573	7.17
346.939	7.24
347.304	7.23
347.67	7.07
348.035	7.06
348.401	7.07
348.766	6.95
349.132	6.93
349.497	6.96
349.862	7.07
350.228	7.1
350.593	7.02
350.958	7.15
351.323	7.18
351.688	7.21
352.053	7.26
352.418	7.34
352.783	7.39
353.148	7.34
353.513	7.3
353.878	7.32
354.243	7.33
354.608	7.28
354.972	7.24
355.337	7.3
355.702	7.41
356.066	7.45
356.431	7.54
356.795	7.47
357.16	7.37
357.524	7.23
357.889	7.26
358.253	7.37
358.618	7.4
358.982	7.32
359.346	7.3
359.71	7.23
360.075	7.27
360.439	7.18
360.803	7.19
361.167	7.2
361.531	7.12
361.895	7.06
362.259	7.03
362.623	7.03
362.987	7.02
363.351	6.94
363.714	6.88
364.078	6.81
364.442	6.81
364.806	6.84
365.169	6.89
365.533	6.83
365.896	6.7
366.26	6.68
366.623	6.67
366.987	6.67
367.35	6.63
367.714	6.58
368.077	6.57
368.44	6.52
368.803	6.51
369.167	6.51
369.53	6.44
369.893	6.42
370.256	6.43
370.619	6.4
370.982	6.3
371.345	6.16
371.708	6.19
372.071	6.12
372.434	6.01
372.797	5.94
373.159	5.86
373.522	5.83
373.885	5.78
374.247	5.79
374.61	5.75
374.973	5.76
375.335	5.69
375.698	5.68
376.06	5.65
376.423	5.6
376.785	5.62
377.147	5.65
377.51	5.6
377.872	5.5
378.234	5.47
378.596	5.44
378.958	5.47
379.321	5.38
379.683	5.42
380.045	5.43
380.407	5.4
380.769	5.4
381.13	5.4
381.492	5.29
381.854	5.21
382.216	5.16
382.578	5.11
382.939	5.06
383.301	5.03
383.663	5.01
384.024	4.98
384.386	4.94
384.747	4.93
385.109	4.92
385.47	4.93
385.832	4.98
386.193	5.02
386.554	5
386.916	5.01
387.277	4.97
387.638	4.97
387.999	4.95
388.36	4.92
388.721	4.92
389.082	4.89
389.443	4.84
389.804	4.78
390.165	4.75
390.526	4.74
390.887	4.69
391.248	4.68
391.609	4.67
391.969	4.63
392.33	4.59
392.691	4.57
393.051	4.53
393.412	4.46
393.772	4.41
394.133	4.39
394.493	4.38
394.854	4.35
395.214	4.29
395.574	4.27
395.935	4.24
396.295	4.21
396.655	4.2
397.015	4.2
397.376	4.21
397.736	4.22
398.096	4.2
398.456	4.17
398.816	4.16
399.176	4.09
399.535	4.06
399.895	4.01
400.255	3.98
400.615	3.94
400.975	3.94
401.334	3.91
401.694	3.86
402.054	3.82
402.413	3.81
402.773	3.78
403.132	3.77
403.492	3.78
403.851	3.76
404.211	3.79
404.57	3.77
404.929	3.75
405.288	3.71
405.648	3.7
406.007	3.7
406.366	3.66
406.725	3.72
407.084	3.72
407.443	3.74
407.802	3.76
408.161	3.75
408.52	3.74
408.879	3.71
409.238	3.72
409.596	3.69
409.955	3.67
410.314	3.68
410.673	3.63
411.031	3.6
411.39	3.62
411.748	3.59
412.107	3.6
412.465	3.6
412.824	3.59
413.182	3.56
413.54	3.54
413.899	3.56
414.257	3.5
414.615	3.47
414.974	3.43
415.332	3.41
415.69	3.42
416.048	3.39
416.406	3.41
416.764	3.39
417.122	3.4
417.48	3.39
417.838	3.37
418.195	3.38
418.553	3.37
418.911	3.35
419.269	3.35
419.626	3.34
419.984	3.35
420.342	3.34
420.699	3.33
421.057	3.34
421.414	3.31
421.772	3.3
422.129	3.31
422.486	3.32
422.844	3.31
423.201	3.29
423.558	3.29
423.915	3.27
424.273	3.28
424.63	3.27
424.987	3.26
425.344	3.26
425.701	3.26
426.058	3.26
426.415	3.24
426.772	3.22
427.128	3.21
427.485	3.2
427.842	3.2
428.199	3.18
428.555	3.18
428.912	3.2
429.269	3.22
429.625	3.22
429.982	3.21
430.338	3.21
430.695	3.23
431.051	3.22
431.407	3.24
431.764	3.22
432.12	3.21
432.476	3.22
432.832	3.23
433.189	3.22
433.545	3.22
433.901	3.25
434.257	3.25
434.613	3.27
434.969	3.27
435.325	3.29
435.681	3.31
436.036	3.32
436.392	3.31
436.748	3.31
437.104	3.3
437.459	3.3
437.815	3.3
438.171	3.28
438.526	3.3
438.882	3.3
439.237	3.31
439.593	3.31
439.948	3.32
440.304	3.31
440.659	3.31
441.014	3.3
441.369	3.27
441.725	3.26
442.08	3.26
442.435	3.25
442.79	3.24
443.145	3.23
443.5	3.21
443.855	3.2
444.21	3.19
444.565	3.18
444.92	3.2
445.275	3.19
445.629	3.2
445.984	3.2
446.339	3.19
446.693	3.18
447.048	3.17
447.403	3.16
447.757	3.17
448.112	3.17
448.466	3.17
448.82	3.19
449.175	3.18
449.529	3.17
449.883	3.16
450.238	3.14
450.592	3.15
450.946	3.13
451.3	3.14
451.654	3.13
452.008	3.14
452.362	3.09
452.716	3.1
453.07	3.11
453.424	3.08
453.778	3.07
454.132	3.07
454.486	3.06
454.839	3.06
455.193	3.05
455.547	3.05
455.9	3.06
456.254	3.07
456.607	3.06
456.961	3.06
457.314	3.07
457.668	3.08
458.021	3.07
458.375	3.08
458.728	3.08
459.081	3.08
459.434	3.07
459.787	3.09
460.141	3.09
460.494	3.09
460.847	3.1
461.2	3.11
461.553	3.12
461.906	3.14
462.259	3.15
462.611	3.16
462.964	3.16
463.317	3.18
463.67	3.18
464.022	3.21
464.375	3.22
464.728	3.22
465.08	3.23
465.433	3.26
465.785	3.26
466.138	3.26
466.49	3.25
466.843	3.26
467.195	3.25
467.547	3.25
467.899	3.24
468.252	3.24
468.604	3.25
468.956	3.26
469.308	3.26
469.66	3.24
470.012	3.26
470.364	3.27
470.716	3.24
471.068	3.24
471.42	3.22
471.772	3.24
472.123	3.27
472.475	3.27
472.827	3.25
473.178	3.25
473.53	3.26
473.882	3.29
474.233	3.32
474.585	3.31
474.936	3.31
475.288	3.32
475.639	3.34
475.99	3.32
476.342	3.31
476.693	3.31
477.044	3.32
477.395	3.31
477.746	3.3
478.097	3.29
478.448	3.29
478.8	3.29
479.15	3.27
479.501	3.26
479.852	3.25
480.203	3.24
480.554	3.24
480.905	3.25
481.255	3.24
481.606	3.24
481.957	3.25
482.307	3.25
482.658	3.25
483.009	3.24
483.359	3.24
483.709	3.23
484.06	3.23
484.41	3.23
484.761	3.23
485.111	3.24
485.461	3.24
485.811	3.24
486.162	3.24
486.512	3.25
486.862	3.26
487.212	3.25
487.562	3.26
487.912	3.26
488.262	3.26
488.612	3.26
488.961	3.27
489.311	3.28
489.661	3.28
490.011	3.28
490.36	3.29
490.71	3.31
491.06	3.31
491.409	3.32
491.759	3.32
492.108	3.33
492.458	3.34
492.807	3.35
493.157	3.36
493.506	3.38
493.855	3.38
494.204	3.37
494.554	3.39
494.903	3.4
495.252	3.43
495.601	3.45
495.95	3.47
496.299	3.47
496.648	3.47
496.997	3.48
497.346	3.53
497.695	3.57
498.043	3.57
498.392	3.58
498.741	3.61
499.09	3.62
499.438	3.65
499.787	3.66
500.135	3.71
500.484	3.73
500.832	3.77
501.181	3.79
501.529	3.83
501.878	3.87
502.226	3.92
502.574	3.95
502.923	4
503.271	4.03
503.619	4.1
503.967	4.15
504.315	4.21
504.663	4.25
505.011	4.29
505.359	4.34
505.707	4.41
506.055	4.47
506.403	4.56
506.751	4.6
507.098	4.67
507.446	4.73
507.794	4.79
508.141	4.87
508.489	4.95
508.837	5
509.184	5.08
509.531	5.15
509.879	5.23
510.226	5.31
510.574	5.4
510.921	5.43
511.268	5.48
511.616	5.57
511.963	5.64
512.31	5.73
512.657	5.81
513.004	5.9
513.351	6
513.698	6.06
514.045	6.17
514.392	6.26
514.739	6.35
515.086	6.46
515.432	6.55
515.779	6.63
516.126	6.75
516.473	6.83
516.819	6.91
517.166	6.98
517.512	7.07
517.859	7.15
518.205	7.22
518.552	7.31
518.898	7.39
519.245	7.46
519.591	7.52
519.937	7.61
520.283	7.71
520.629	7.8
520.976	7.9
521.322	7.98
521.668	8.07
522.014	8.18
522.36	8.26
522.706	8.35
523.052	8.47
523.398	8.59
523.743	8.72
524.089	8.86
524.435	8.99
524.781	9.1
525.126	9.22
525.472	9.34
525.817	9.44
526.163	9.53
526.509	9.62
526.854	9.71
527.199	9.8
527.545	9.9
527.89	9.98
528.235	10.06
528.581	10.15
528.926	10.25
529.271	10.33
529.616	10.44
529.961	10.55
530.306	10.66
530.651	10.76
530.996	10.89
531.341	11.01
531.686	11.15
532.031	11.28
532.376	11.42
532.721	11.57
533.065	11.72
533.41	11.88
533.755	12.05
534.099	12.2
534.444	12.36
534.788	12.51
535.133	12.69
535.477	12.88
535.822	13.07
536.166	13.26
536.51	13.48
536.855	13.73
537.199	13.97
537.543	14.23
537.887	14.5
538.231	14.74
538.576	14.97
538.92	15.19
539.264	15.43
539.608	15.67
539.951	15.89
540.295	16.1
540.639	16.32
540.983	16.54
541.327	16.72
541.671	16.93
542.014	17.14
542.358	17.33
542.701	17.55
543.045	17.74
543.389	17.95
543.732	18.18
544.075	18.4
544.419	18.63
544.762	18.87
545.105	19.11
545.449	19.36
545.792	19.62
546.135	19.93
546.478	20.23
546.821	20.51
547.165	20.83
547.508	21.17
547.851	21.49
548.194	21.78
548.536	22.17
548.879	22.52
549.222	22.87
549.565	23.18
549.908	23.48
550.25	23.88
550.593	24.23
550.936	24.54
551.278	24.85
551.621	25.2
551.963	25.51
552.306	25.84
552.648	26.18
552.991	26.56
553.333	26.88
553.675	27.18
554.017	27.48
554.36	27.74
554.702	28.04
555.044	28.33
555.386	28.68
555.728	28.97
556.07	29.26
556.412	29.51
556.754	29.85
557.096	30.22
557.438	30.47
557.78	30.82
558.121	31.16
558.463	31.49
558.805	31.76
559.147	32.06
559.488	32.35
559.83	32.66
560.171	32.86
560.513	33.18
560.854	33.43
561.196	33.68
561.537	34
561.878	34.22
562.22	34.42
562.561	34.67
562.902	34.93
563.243	35.2
563.584	35.47
563.925	35.73
564.266	35.91
564.607	36.14
564.948	36.32
565.289	36.53
565.63	36.71
565.971	36.91
566.312	37.05
566.653	37.2
566.993	37.33
567.334	37.6
567.675	37.76
568.015	37.94
568.356	38.22
568.696	38.44
569.037	38.64
569.377	38.86
569.718	39.05
570.058	39.13
570.398	39.27
570.739	39.47
571.079	39.58
571.419	39.85
571.759	40.01
572.099	40.13
572.439	40.26
572.779	40.4
573.119	40.56
573.459	40.78
573.799	40.98
574.139	41.1
574.479	41.2
574.819	41.32
575.158	41.46
575.498	41.55
575.838	41.69
576.177	41.8
576.517	41.97
576.856	42.08
577.196	42.32
577.535	42.41
577.875	42.54
578.214	42.72
578.553	42.77
578.893	42.89
579.232	43.1
579.571	43.24
579.91	43.35
580.25	43.48
580.589	43.58
580.928	43.63
581.267	43.78
581.606	43.89
581.945	44.04
582.283	44.2
582.622	44.33
582.961	44.36
583.3	44.64
583.639	44.8
583.977	44.96
584.316	45.06
584.654	45.26
584.993	45.35
585.332	45.42
585.67	45.52
586.008	45.7
586.347	45.79
586.685	45.86
587.024	45.99
587.362	46.13
587.7	46.21
588.038	46.43
588.376	46.53
588.715	46.7
589.053	46.81
589.391	46.91
589.729	46.96
590.067	47.09
590.404	47.09
590.742	47.14
591.08	47.21
591.418	47.26
591.756	47.38
592.093	47.51
592.431	47.61
592.769	47.68
593.106	47.76
593.444	47.73
593.781	47.76
594.119	47.84
594.456	47.98
594.793	48.01
595.131	48.01
595.468	48.1
595.805	48.1
596.143	48.12
596.48	48.12
596.817	48.19
597.154	48.24
597.491	48.23
597.828	48.28
598.165	48.32
598.502	48.44
598.839	48.46
599.176	48.44
599.512	48.49
599.849	48.53
600.186	48.55
600.523	48.73
600.859	48.89
601.196	48.96
601.532	48.98
601.869	49.06
602.205	49.08
602.542	49.15
602.878	49.18
603.215	49.23
603.551	49.34
603.887	49.43
604.223	49.4
604.56	49.5
604.896	49.57
605.232	49.62
605.568	49.63
605.904	49.72
606.24	49.84
606.576	49.89
606.912	49.97
607.248	50.05
607.583	50.11
607.919	50.14
608.255	50.07
608.591	50.07
608.926	50.14
609.262	50.21
609.597	50.23
609.933	50.31
610.268	50.41
610.604	50.47
610.939	50.47
611.275	50.56
611.61	50.6
611.945	50.61
612.281	50.64
612.616	50.67
612.951	50.68
613.286	50.71
613.621	50.7
613.956	50.8
614.291	50.77
614.626	50.79
614.961	50.74
615.296	50.88
615.631	50.98
615.966	51.02
616.3	51.08
616.635	51.09
616.97	51.13
617.304	51.08
617.639	51.04
617.973	51.12
618.308	51.24
618.642	51.24
618.977	51.23
619.311	51.31
619.646	51.34
619.98	51.38
620.314	51.46
620.648	51.51
620.983	51.54
621.317	51.63
621.651	51.63
621.985	51.69
622.319	51.67
622.653	51.63
622.987	51.67
623.321	51.7
623.655	51.71
623.988	51.74
624.322	51.77
624.656	51.8
624.99	51.77
625.323	51.75
625.657	51.78
625.99	51.87
626.324	51.86
626.657	51.87
626.991	51.88
627.324	51.8
627.658	51.82
627.991	51.78
628.324	51.81
628.657	51.79
628.991	51.83
629.324	51.94
629.657	52.02
629.99	52.05
630.323	52.15
630.656	52.25
630.989	52.35
631.322	52.39
631.655	52.45
631.987	52.49
632.32	52.49
632.653	52.49
632.986	52.47
633.318	52.4
633.651	52.42
633.984	52.43
634.316	52.45
634.649	52.55
634.981	52.56
635.313	52.48
635.646	52.55
635.978	52.62
636.31	52.62
636.643	52.58
636.975	52.62
637.307	52.54
637.639	52.44
637.971	52.35
638.303	52.36
638.635	52.41
638.967	52.4
639.299	52.54
639.631	52.62
639.963	52.51
640.295	52.58
640.626	52.69
640.958	52.75
641.29	52.83
641.621	52.73
641.953	52.83
642.285	52.86
642.616	52.9
642.948	52.88
643.279	52.82
643.61	52.86
643.942	52.74
644.273	52.74
644.604	52.82
644.936	52.92
645.267	52.95
645.598	53
645.929	53.09
646.26	53.13
646.591	53.08
646.922	53.15
647.253	53.29
647.584	53.23
647.915	53.23
648.245	53.21
648.576	53.35
648.907	53.36
649.238	53.41
649.568	53.48
649.899	53.57
650.229	53.51
650.56	53.59
650.89	53.8
651.221	53.86
651.551	53.86
651.882	53.78
652.212	53.82
652.542	53.72
652.872	53.72
653.203	53.58
653.533	53.69
653.863	53.88
654.193	53.79
654.523	53.82
654.853	53.85
655.183	53.84
655.513	53.75
655.843	53.68
656.172	53.86
656.502	53.89
656.832	53.9
657.162	54.07
657.491	53.88
657.821	53.82
658.15	53.84
658.48	53.91
658.809	53.98
659.139	53.98
659.468	54.05
659.798	53.98
660.127	54.08
660.456	54.03
660.785	53.96
661.115	54.07
661.444	54.08
661.773	54.06
662.102	54.15
662.431	54.25
662.76	54.3
663.089	54.16
663.418	54.08
663.747	54
664.076	53.96
664.404	54.13
664.733	54.18
665.062	54.26
665.39	54.23
665.719	54.24
666.048	54.21
666.376	54.26
666.705	54.38
667.033	54.41
667.362	54.41
667.69	54.38
668.018	54.29
668.347	54.34
668.675	54.36
