Data from BU26944_Reflection_00013.txt Node
Date: Tue Nov 19 10:54:55 EST 2019
User: vgr7
Spectrometer: USB2G7710
Scans to average: 3
Trigger mode: 4
Integration Time (sec): 2.000000E-2
Electric dark correction enabled: true
Boxcar width: 10
XAxis mode: Wavelengths
Number of Pixels in Spectrum: 2048
>>>>>Begin Spectral Data<<<<<
177.721	-184.84
178.105	-85.84
178.488	-9.8
178.871	31.43
179.254	340
179.636	106.22
180.019	-33.87
180.402	-875
180.785	22.35
181.168	54.2
181.55	74.25
181.933	84.58
182.316	47.7
182.698	54.76
183.081	61.99
183.463	54.47
183.846	-25.4
184.228	-61.95
184.611	424.32
184.993	134.29
185.376	122.56
185.758	-550.6
186.14	-26.32
186.522	28.91
186.904	-1.2
187.287	69.94
187.669	42.4
188.051	35.05
188.433	35.29
188.815	37.2
189.197	32.54
189.579	22.96
189.961	12.51
190.342	6.3
190.724	2.41
191.106	9.15
191.488	-13.74
191.869	-26.66
192.251	-30.89
192.633	-29.4
193.014	-26.38
193.396	-37.28
193.777	-36.91
194.159	-12.99
194.54	-23.52
194.922	-22.41
195.303	-41.37
195.684	-44.7
196.065	-49.44
196.447	-38.54
196.828	-49.13
197.209	-45.32
197.59	-23.95
197.971	-5.78
198.352	-2.99
198.733	11.38
199.114	-10.25
199.495	2.3
199.876	7.66
200.257	14.68
200.638	8.75
201.018	-3.9
201.399	-12.7
201.78	-20.93
202.16	-43.73
202.541	-56.93
202.922	-48.43
203.302	-43.71
203.683	-45.9
204.063	-47.63
204.444	-63.06
204.824	-48.01
205.204	-59.38
205.585	-75.63
205.965	-82.01
206.345	-86.23
206.725	-97.95
207.106	-70.05
207.486	-98.33
207.866	-77.43
208.246	-46.96
208.626	-65.7
209.006	-48.83
209.386	-46.4
209.766	-30.04
210.145	-13.12
210.525	-3.08
210.905	-24.89
211.285	-21.06
211.664	4.9
212.044	-3.51
212.424	18.78
212.803	6.7
213.183	13.99
213.562	31.15
213.942	19.97
214.321	25.14
214.701	-11.96
215.08	-36.61
215.459	-17.92
215.838	-39.99
216.218	-82.88
216.597	-43.63
216.976	-27.2
217.355	-16.06
217.734	-22.24
218.113	-26.21
218.492	-29.16
218.871	-26.55
219.25	-13.99
219.629	-46.43
220.008	-43.86
220.387	-101.68
220.766	-70.01
221.144	-76.47
221.523	-92.36
221.902	-41.04
222.28	-36.88
222.659	18.61
223.037	12.6
223.416	-1.58
223.794	6.88
224.173	3.33
224.551	5.44
224.929	1.17
225.308	6.16
225.686	-2.34
226.064	-2.42
226.442	6.57
226.821	6.65
227.199	4.97
227.577	6.21
227.955	8.34
228.333	9.24
228.711	7.82
229.089	8.52
229.467	9.1
229.845	6.34
230.222	7.41
230.6	4.43
230.978	8.26
231.356	7.04
231.733	6.52
232.111	6.64
232.488	4.84
232.866	6.79
233.243	4.33
233.621	4.37
233.998	4.24
234.376	3.78
234.753	3.86
235.13	4.16
235.508	4.22
235.885	3.39
236.262	3.16
236.639	2.82
237.016	2.89
237.393	2.97
237.77	4.19
238.147	3.55
238.524	4.59
238.901	2.99
239.278	2.23
239.655	1.68
240.032	1.85
240.409	1.91
240.785	1.59
241.162	2.14
241.539	2.24
241.915	2.28
242.292	2.45
242.668	2.8
243.045	2.93
243.421	2.64
243.798	2.47
244.174	2.68
244.551	2.97
244.927	2.73
245.303	2.64
245.679	2.66
246.056	2.68
246.432	2.56
246.808	2.87
247.184	3.46
247.56	3.62
247.936	3.54
248.312	3.54
248.688	3.41
249.064	3.37
249.44	3.19
249.815	3.23
250.191	3.06
250.567	2.71
250.943	2.54
251.318	2.63
251.694	2.63
252.069	2.66
252.445	2.4
252.82	2.79
253.196	2.96
253.571	2.76
253.947	2.69
254.322	2.71
254.697	2.43
255.073	2.16
255.448	1.98
255.823	2.27
256.198	2.28
256.573	2.39
256.948	2.43
257.323	2.84
257.698	2.81
258.073	2.78
258.448	3
258.823	2.83
259.198	2.77
259.573	2.64
259.948	2.71
260.322	2.69
260.697	2.69
261.072	2.61
261.446	2.68
261.821	2.81
262.195	2.61
262.57	2.78
262.944	2.85
263.319	3.03
263.693	2.94
264.067	2.91
264.442	2.92
264.816	2.93
265.19	2.8
265.564	2.9
265.938	2.88
266.313	2.78
266.687	2.89
267.061	2.85
267.435	3.11
267.809	2.76
268.183	2.76
268.556	2.61
268.93	2.69
269.304	2.54
269.678	2.59
270.051	2.7
270.425	2.58
270.799	2.39
271.172	2.25
271.546	2.19
271.919	2.3
272.293	2.31
272.666	2.41
273.04	2.45
273.413	2.48
273.787	2.37
274.16	2.43
274.533	2.68
274.906	2.82
275.279	2.8
275.653	3.01
276.026	3.05
276.399	3.06
276.772	3.1
277.145	3.25
277.518	3.08
277.891	3.13
278.263	3.19
278.636	3.26
279.009	3.34
279.382	3.31
279.755	3.31
280.127	3.34
280.5	3.15
280.872	3.1
281.245	2.96
281.617	3.22
281.99	3.18
282.362	3.09
282.735	2.91
283.107	2.8
283.479	2.7
283.852	2.79
284.224	2.9
284.596	2.78
284.968	2.62
285.34	2.74
285.713	2.8
286.085	2.83
286.457	2.76
286.829	2.74
287.201	2.8
287.572	2.86
287.944	2.98
288.316	3.01
288.688	2.89
289.06	3.06
289.431	2.92
289.803	2.93
290.175	2.78
290.546	2.83
290.918	2.9
291.289	2.84
291.661	2.75
292.032	2.71
292.403	2.81
292.775	2.91
293.146	2.86
293.517	2.7
293.889	2.73
294.26	2.91
294.631	2.95
295.002	3.04
295.373	2.97
295.744	2.87
296.115	2.93
296.486	3.06
296.857	2.99
297.228	3.05
297.599	3.01
297.97	3.16
298.34	3.28
298.711	3.34
299.082	3.38
299.452	3.39
299.823	3.39
300.194	3.45
300.564	3.44
300.935	3.5
301.305	3.58
301.676	3.5
302.046	3.48
302.416	3.46
302.787	3.38
303.157	3.45
303.527	3.53
303.897	3.57
304.267	3.63
304.637	3.59
305.008	3.75
305.378	3.83
305.748	3.68
306.117	3.62
306.487	3.73
306.857	3.8
307.227	4.13
307.597	4.17
307.967	4.09
308.336	4.16
308.706	4.25
309.076	4.4
309.445	4.54
309.815	4.61
310.184	4.63
310.554	4.69
310.923	4.57
311.293	4.56
311.662	4.58
312.031	4.7
312.401	4.74
312.77	4.67
313.139	4.79
313.508	4.97
313.877	4.95
314.246	4.91
314.616	5.14
314.985	4.93
315.353	4.97
315.722	5.16
316.091	5.3
316.46	5.21
316.829	5.26
317.198	5.31
317.567	5.35
317.935	5.43
318.304	5.58
318.672	5.87
319.041	5.8
319.41	5.9
319.778	5.78
320.147	5.92
320.515	5.98
320.883	5.96
321.252	5.92
321.62	6.05
321.988	6.16
322.357	5.96
322.725	6.13
323.093	6.08
323.461	6.04
323.829	5.96
324.197	6.01
324.565	6.04
324.933	6.18
325.301	6.1
325.669	6.09
326.037	6.07
326.405	5.97
326.772	6.15
327.14	6.1
327.508	6.1
327.875	6.16
328.243	6.16
328.61	6.28
328.978	6.36
329.346	6.46
329.713	6.51
330.08	6.58
330.448	6.62
330.815	6.77
331.182	6.72
331.55	6.69
331.917	6.58
332.284	6.63
332.651	6.65
333.018	6.63
333.385	6.78
333.752	6.71
334.119	6.81
334.486	6.79
334.853	6.81
335.22	6.86
335.587	6.83
335.954	6.88
336.32	6.77
336.687	6.8
337.054	6.73
337.42	6.69
337.787	6.67
338.153	6.76
338.52	6.75
338.886	6.81
339.253	6.96
339.619	7.21
339.986	7.02
340.352	6.86
340.718	6.97
341.084	6.96
341.451	7.03
341.817	7.05
342.183	7.05
342.549	7.16
342.915	7.26
343.281	7.4
343.647	7.36
344.013	7.37
344.379	7.4
344.745	7.48
345.11	7.5
345.476	7.64
345.842	7.51
346.208	7.49
346.573	7.56
346.939	7.54
347.304	7.59
347.67	7.75
348.035	7.83
348.401	7.91
348.766	7.94
349.132	7.98
349.497	8.01
349.862	8.08
350.228	8.04
350.593	8.13
350.958	8.13
351.323	8.23
351.688	8.32
352.053	8.34
352.418	8.29
352.783	8.33
353.148	8.3
353.513	8.31
353.878	8.37
354.243	8.25
354.608	8.27
354.972	8.22
355.337	8.16
355.702	8.11
356.066	8.09
356.431	7.99
356.795	7.9
357.16	7.9
357.524	7.88
357.889	7.9
358.253	7.81
358.618	7.75
358.982	7.72
359.346	7.7
359.71	7.65
360.075	7.75
360.439	7.71
360.803	7.73
361.167	7.73
361.531	7.68
361.895	7.7
362.259	7.73
362.623	7.67
362.987	7.64
363.351	7.66
363.714	7.63
364.078	7.65
364.442	7.6
364.806	7.61
365.169	7.53
365.533	7.46
365.896	7.37
366.26	7.33
366.623	7.27
366.987	7.26
367.35	7.22
367.714	7.06
368.077	7.05
368.44	6.97
368.803	6.92
369.167	6.83
369.53	6.81
369.893	6.73
370.256	6.68
370.619	6.63
370.982	6.51
371.345	6.44
371.708	6.43
372.071	6.44
372.434	6.34
372.797	6.32
373.159	6.34
373.522	6.37
373.885	6.3
374.247	6.28
374.61	6.2
374.973	6.19
375.335	6.23
375.698	6.17
376.06	6.14
376.423	6.15
376.785	6.16
377.147	6.18
377.51	6.14
377.872	6.07
378.234	6.13
378.596	6.12
378.958	6.08
379.321	6.02
379.683	5.97
380.045	5.96
380.407	5.95
380.769	5.83
381.13	5.8
381.492	5.8
381.854	5.77
382.216	5.72
382.578	5.64
382.939	5.57
383.301	5.53
383.663	5.44
384.024	5.36
384.386	5.31
384.747	5.21
385.109	5.13
385.47	5.17
385.832	5.08
386.193	5.1
386.554	5.06
386.916	5.04
387.277	5.01
387.638	4.94
387.999	4.91
388.36	4.95
388.721	4.93
389.082	4.88
389.443	4.86
389.804	4.84
390.165	4.82
390.526	4.82
390.887	4.79
391.248	4.79
391.609	4.76
391.969	4.73
392.33	4.71
392.691	4.68
393.051	4.65
393.412	4.61
393.772	4.56
394.133	4.53
394.493	4.44
394.854	4.46
395.214	4.44
395.574	4.4
395.935	4.36
396.295	4.33
396.655	4.3
397.015	4.25
397.376	4.21
397.736	4.2
398.096	4.14
398.456	4.13
398.816	4.11
399.176	4.07
399.535	4.05
399.895	4.04
400.255	4.02
400.615	3.99
400.975	3.97
401.334	3.95
401.694	3.96
402.054	3.97
402.413	3.92
402.773	3.88
403.132	3.87
403.492	3.83
403.851	3.78
404.211	3.78
404.57	3.75
404.929	3.77
405.288	3.75
405.648	3.74
406.007	3.7
406.366	3.65
406.725	3.68
407.084	3.68
407.443	3.67
407.802	3.68
408.161	3.64
408.52	3.65
408.879	3.67
409.238	3.62
409.596	3.62
409.955	3.61
410.314	3.64
410.673	3.64
411.031	3.62
411.39	3.62
411.748	3.6
412.107	3.61
412.465	3.58
412.824	3.58
413.182	3.55
413.54	3.59
413.899	3.6
414.257	3.55
414.615	3.49
414.974	3.48
415.332	3.46
415.69	3.43
416.048	3.41
416.406	3.35
416.764	3.33
417.122	3.32
417.48	3.31
417.838	3.29
418.195	3.28
418.553	3.29
418.911	3.27
419.269	3.27
419.626	3.26
419.984	3.26
420.342	3.26
420.699	3.25
421.057	3.22
421.414	3.22
421.772	3.22
422.129	3.21
422.486	3.21
422.844	3.2
423.201	3.21
423.558	3.22
423.915	3.23
424.273	3.24
424.63	3.23
424.987	3.22
425.344	3.22
425.701	3.2
426.058	3.2
426.415	3.19
426.772	3.18
427.128	3.18
427.485	3.18
427.842	3.14
428.199	3.16
428.555	3.14
428.912	3.12
429.269	3.12
429.625	3.14
429.982	3.13
430.338	3.13
430.695	3.09
431.051	3.08
431.407	3.06
431.764	3.05
432.12	3.05
432.476	3.06
432.832	3.06
433.189	3.06
433.545	3.03
433.901	3.04
434.257	3.02
434.613	2.99
434.969	2.96
435.325	2.97
435.681	2.94
436.036	2.96
436.392	2.96
436.748	2.95
437.104	2.95
437.459	2.96
437.815	2.95
438.171	2.98
438.526	2.98
438.882	2.99
439.237	2.99
439.593	3
439.948	2.99
440.304	3
440.659	2.99
441.014	3.01
441.369	3.02
441.725	3.03
442.08	3.05
442.435	3.05
442.79	3.04
443.145	3.05
443.5	3.04
443.855	3.04
444.21	3.04
444.565	3.04
444.92	3.03
445.275	3.04
445.629	3.04
445.984	3.04
446.339	3.02
446.693	3.04
447.048	3.02
447.403	3.03
447.757	3.02
448.112	3.02
448.466	3
448.82	2.99
449.175	2.98
449.529	2.98
449.883	2.97
450.238	2.98
450.592	2.97
450.946	2.96
451.3	2.96
451.654	2.94
452.008	2.96
452.362	2.94
452.716	2.93
453.07	2.91
453.424	2.88
453.778	2.88
454.132	2.84
454.486	2.85
454.839	2.84
455.193	2.84
455.547	2.85
455.9	2.84
456.254	2.86
456.607	2.86
456.961	2.87
457.314	2.89
457.668	2.88
458.021	2.88
458.375	2.88
458.728	2.88
459.081	2.88
459.434	2.87
459.787	2.88
460.141	2.88
460.494	2.88
460.847	2.89
461.2	2.88
461.553	2.9
461.906	2.89
462.259	2.88
462.611	2.89
462.964	2.87
463.317	2.86
463.67	2.87
464.022	2.87
464.375	2.85
464.728	2.86
465.08	2.86
465.433	2.86
465.785	2.87
466.138	2.89
466.49	2.9
466.843	2.92
467.195	2.94
467.547	2.94
467.899	2.96
468.252	2.96
468.604	3
468.956	3.01
469.308	3
469.66	3.03
470.012	3.04
470.364	3.08
470.716	3.1
471.068	3.1
471.42	3.11
471.772	3.12
472.123	3.13
472.475	3.14
472.827	3.16
473.178	3.16
473.53	3.15
473.882	3.18
474.233	3.16
474.585	3.16
474.936	3.18
475.288	3.18
475.639	3.21
475.99	3.21
476.342	3.22
476.693	3.24
477.044	3.23
477.395	3.23
477.746	3.21
478.097	3.23
478.448	3.22
478.8	3.21
479.15	3.23
479.501	3.21
479.852	3.22
480.203	3.23
480.554	3.23
480.905	3.23
481.255	3.22
481.606	3.22
481.957	3.21
482.307	3.22
482.658	3.22
483.009	3.21
483.359	3.21
483.709	3.21
484.06	3.2
484.41	3.2
484.761	3.2
485.111	3.2
485.461	3.19
485.811	3.19
486.162	3.21
486.512	3.2
486.862	3.2
487.212	3.19
487.562	3.18
487.912	3.18
488.262	3.18
488.612	3.18
488.961	3.18
489.311	3.18
489.661	3.17
490.011	3.16
490.36	3.16
490.71	3.16
491.06	3.17
491.409	3.16
491.759	3.16
492.108	3.16
492.458	3.18
492.807	3.2
493.157	3.2
493.506	3.18
493.855	3.18
494.204	3.19
494.554	3.21
494.903	3.25
495.252	3.25
495.601	3.26
495.95	3.28
496.299	3.27
496.648	3.29
496.997	3.34
497.346	3.36
497.695	3.38
498.043	3.4
498.392	3.4
498.741	3.44
499.09	3.47
499.438	3.51
499.787	3.51
500.135	3.53
500.484	3.55
500.832	3.59
501.181	3.62
501.529	3.66
501.878	3.69
502.226	3.71
502.574	3.76
502.923	3.8
503.271	3.86
503.619	3.94
503.967	3.98
504.315	4.01
504.663	4.06
505.011	4.14
505.359	4.18
505.707	4.25
506.055	4.32
506.403	4.39
506.751	4.44
507.098	4.52
507.446	4.57
507.794	4.65
508.141	4.71
508.489	4.77
508.837	4.84
509.184	4.88
509.531	4.95
509.879	4.99
510.226	5.08
510.574	5.15
510.921	5.2
511.268	5.27
511.616	5.34
511.963	5.4
512.31	5.48
512.657	5.55
513.004	5.62
513.351	5.7
513.698	5.77
514.045	5.86
514.392	5.93
514.739	6.05
515.086	6.15
515.432	6.26
515.779	6.37
516.126	6.46
516.473	6.58
516.819	6.65
517.166	6.75
517.512	6.81
517.859	6.88
518.205	6.97
518.552	7.05
518.898	7.14
519.245	7.23
519.591	7.31
519.937	7.41
520.283	7.51
520.629	7.6
520.976	7.7
521.322	7.81
521.668	7.92
522.014	8.01
522.36	8.1
522.706	8.2
523.052	8.33
523.398	8.45
523.743	8.58
524.089	8.73
524.435	8.85
524.781	8.99
525.126	9.12
525.472	9.25
525.817	9.35
526.163	9.42
526.509	9.5
526.854	9.58
527.199	9.65
527.545	9.71
527.89	9.78
528.235	9.86
528.581	9.92
528.926	10.01
529.271	10.09
529.616	10.17
529.961	10.25
530.306	10.32
530.651	10.4
530.996	10.49
531.341	10.59
531.686	10.69
532.031	10.78
532.376	10.88
532.721	10.95
533.065	11.07
533.41	11.18
533.755	11.3
534.099	11.41
534.444	11.52
534.788	11.63
535.133	11.75
535.477	11.89
535.822	12.01
536.166	12.14
536.51	12.28
536.855	12.44
537.199	12.58
537.543	12.74
537.887	12.91
538.231	13.06
538.576	13.21
538.92	13.37
539.264	13.52
539.608	13.66
539.951	13.8
540.295	13.92
540.639	14.06
540.983	14.19
541.327	14.33
541.671	14.45
542.014	14.6
542.358	14.74
542.701	14.87
543.045	15.02
543.389	15.16
543.732	15.28
544.075	15.44
544.419	15.61
544.762	15.77
545.105	15.91
545.449	16.09
545.792	16.28
546.135	16.44
546.478	16.62
546.821	16.82
547.165	17.02
547.508	17.2
547.851	17.43
548.194	17.62
548.536	17.81
548.879	18.04
549.222	18.24
549.565	18.46
549.908	18.65
550.25	18.81
550.593	19.02
550.936	19.26
551.278	19.46
551.621	19.65
551.963	19.9
552.306	20.14
552.648	20.37
552.991	20.57
553.333	20.79
553.675	21.05
554.017	21.25
554.36	21.48
554.702	21.72
555.044	21.94
555.386	22.18
555.728	22.45
556.07	22.65
556.412	22.89
556.754	23.1
557.096	23.39
557.438	23.69
557.78	23.92
558.121	24.2
558.463	24.42
558.805	24.66
559.147	24.91
559.488	25.1
559.83	25.33
560.171	25.6
560.513	25.81
560.854	26.04
561.196	26.3
561.537	26.58
561.878	26.81
562.22	27.05
562.561	27.3
562.902	27.5
563.243	27.77
563.584	28
563.925	28.24
564.266	28.45
564.607	28.67
564.948	28.92
565.289	29.16
565.63	29.45
565.971	29.68
566.312	29.85
566.653	30.15
566.993	30.32
567.334	30.54
567.675	30.78
568.015	30.99
568.356	31.2
568.696	31.38
569.037	31.63
569.377	31.81
569.718	32
570.058	32.22
570.398	32.45
570.739	32.65
571.079	32.89
571.419	33.02
571.759	33.21
572.099	33.37
572.439	33.56
572.779	33.67
573.119	33.87
573.459	34.04
573.799	34.2
574.139	34.37
574.479	34.56
574.819	34.72
575.158	34.84
575.498	35.03
575.838	35.22
576.177	35.32
576.517	35.51
576.856	35.7
577.196	35.9
577.535	36.02
577.875	36.2
578.214	36.33
578.553	36.53
578.893	36.69
579.232	36.88
579.571	37.04
579.91	37.19
580.25	37.37
580.589	37.6
580.928	37.73
581.267	37.92
581.606	38.05
581.945	38.2
582.283	38.43
582.622	38.56
582.961	38.69
583.3	38.85
583.639	39.06
583.977	39.26
584.316	39.39
584.654	39.55
584.993	39.69
585.332	39.82
585.67	40
586.008	40.15
586.347	40.3
586.685	40.37
587.024	40.57
587.362	40.7
587.7	40.71
588.038	40.88
588.376	41
588.715	41.13
589.053	41.26
589.391	41.34
589.729	41.5
590.067	41.61
590.404	41.76
590.742	41.83
591.08	41.85
591.418	41.94
591.756	42.05
592.093	42.2
592.431	42.32
592.769	42.44
593.106	42.59
593.444	42.68
593.781	42.79
594.119	42.87
594.456	42.95
594.793	43.1
595.131	43.12
595.468	43.2
595.805	43.29
596.143	43.37
596.48	43.45
596.817	43.48
597.154	43.59
597.491	43.6
597.828	43.69
598.165	43.79
598.502	43.91
598.839	43.97
599.176	44.04
599.512	44.15
599.849	44.25
600.186	44.33
600.523	44.4
600.859	44.53
601.196	44.62
601.532	44.68
601.869	44.75
602.205	44.85
602.542	44.97
602.878	45.04
603.215	45.09
603.551	45.22
603.887	45.32
604.223	45.3
604.56	45.37
604.896	45.42
605.232	45.45
605.568	45.45
605.904	45.46
606.24	45.5
606.576	45.57
606.912	45.65
607.248	45.72
607.583	45.78
607.919	45.83
608.255	45.84
608.591	45.88
608.926	46
609.262	46.12
609.597	46.15
609.933	46.18
610.268	46.25
610.604	46.25
610.939	46.25
611.275	46.4
611.61	46.54
611.945	46.56
612.281	46.66
612.616	46.73
612.951	46.92
613.286	47.02
613.621	47.12
613.956	47.15
614.291	47.21
614.626	47.27
614.961	47.35
615.296	47.46
615.631	47.5
615.966	47.49
616.3	47.44
616.635	47.46
616.97	47.51
617.304	47.52
617.639	47.61
617.973	47.73
618.308	47.69
618.642	47.72
618.977	47.78
619.311	47.82
619.646	47.85
619.98	47.87
620.314	47.87
620.648	47.79
620.983	47.9
621.317	47.87
621.651	47.83
621.985	47.81
622.319	47.72
622.653	47.77
622.987	47.89
623.321	48.01
623.655	48.05
623.988	48.13
624.322	48.25
624.656	48.26
624.99	48.29
625.323	48.39
625.657	48.41
625.99	48.45
626.324	48.51
626.657	48.6
626.991	48.59
627.324	48.64
627.658	48.71
627.991	48.65
628.324	48.7
628.657	48.8
628.991	48.87
629.324	49.06
629.657	49.08
629.99	49.01
630.323	48.93
630.656	49.04
630.989	49
631.322	49.04
631.655	49.09
631.987	49.16
632.32	49.18
632.653	49.21
632.986	49.24
633.318	49.21
633.651	49.27
633.984	49.35
634.316	49.35
634.649	49.32
634.981	49.43
635.313	49.48
635.646	49.53
635.978	49.49
636.31	49.35
636.643	49.44
636.975	49.52
637.307	49.61
637.639	49.58
637.971	49.56
638.303	49.51
638.635	49.43
638.967	49.44
639.299	49.38
639.631	49.44
639.963	49.54
640.295	49.67
640.626	49.62
640.958	49.62
641.29	49.6
641.621	49.63
641.953	49.61
642.285	49.6
642.616	49.6
642.948	49.69
643.279	49.87
643.61	49.81
643.942	49.86
644.273	49.86
644.604	49.83
644.936	49.99
645.267	50.07
645.598	50.13
645.929	50.08
646.26	50.13
646.591	50.08
646.922	50.01
647.253	49.96
647.584	49.9
647.915	49.97
648.245	50.07
648.576	50.1
648.907	50.11
649.238	50.18
649.568	50.12
649.899	50.14
650.229	50.14
650.56	50.26
650.89	50.28
651.221	50.34
651.551	50.38
651.882	50.29
652.212	50.33
652.542	50.32
652.872	50.34
653.203	50.39
653.533	50.42
653.863	50.42
654.193	50.45
654.523	50.61
654.853	50.53
655.183	50.49
655.513	50.6
655.843	50.73
656.172	50.85
656.502	50.84
656.832	50.83
657.162	50.85
657.491	50.85
657.821	50.86
658.15	50.95
658.48	50.97
658.809	51.02
659.139	51.02
659.468	51.03
659.798	51.05
660.127	51.06
660.456	51.08
660.785	51.17
661.115	51.07
661.444	51.07
661.773	51.12
662.102	51.11
662.431	51.11
662.76	51.01
663.089	50.89
663.418	51.08
663.747	51.02
664.076	51.1
664.404	51.02
664.733	51.06
665.062	50.96
665.39	50.96
665.719	51.01
666.048	50.95
666.376	51.03
666.705	51.12
667.033	51.19
667.362	51.16
667.69	51.28
668.018	51.35
668.347	51.24
668.675	51.27
669.003	51.37
669.331	51.34
669.659	51.34
