Data from BU26848_Reflection_00001.txt Node
Date: Mon Nov 18 16:25:25 EST 2019
User: vgr7
Spectrometer: USB2G7710
Scans to average: 3
Trigger mode: 4
Integration Time (sec): 2.000000E-2
Electric dark correction enabled: true
Boxcar width: 10
XAxis mode: Wavelengths
Number of Pixels in Spectrum: 2048
>>>>>Begin Spectral Data<<<<<
177.721	-229.74
178.105	-580.85
178.488	409.58
178.871	141.12
179.254	484.62
179.636	439.29
180.019	-23.68
180.402	175
180.785	-760.47
181.168	25.53
181.55	497.26
181.933	86.74
182.316	60.97
182.698	55.71
183.081	58.5
183.463	38.23
183.846	37.71
184.228	82.86
184.611	104.29
184.993	192.33
185.376	-503.11
185.758	-462.31
186.14	-1312.21
186.522	369.71
186.904	543.85
187.287	382.32
187.669	-330.17
188.051	408.27
188.433	-36.77
188.815	4.81
189.197	34.51
189.579	35.15
189.961	23.56
190.342	12.44
190.724	26.59
191.106	25.05
191.488	8.2
191.869	12.83
192.251	8.08
192.633	31.32
193.014	32.68
193.396	2.37
193.777	6.68
194.159	32.98
194.54	-17
194.922	-8.37
195.303	-20.5
195.684	-24.24
196.065	-7.2
196.447	-24.73
196.828	-74.47
197.209	-142.72
197.59	-165.31
197.971	-272.19
198.352	-75.93
198.733	-185.08
199.114	-64.81
199.495	-56.34
199.876	-61.27
200.257	-59.89
200.638	-76.67
201.018	-74.7
201.399	-54.32
201.78	-40.6
202.16	-60.72
202.541	-91.27
202.922	-138.79
203.302	-116.6
203.683	-131.34
204.063	-180.95
204.444	-261
204.824	-136.49
205.204	-78.83
205.585	-82.13
205.965	-90.99
206.345	-148.79
206.725	-137.88
207.106	-304.5
207.486	-784.37
207.866	-263.99
208.246	-436.32
208.626	-343.01
209.006	-338.85
209.386	-719.18
209.766	-694.05
210.145	-335.96
210.525	-184.56
210.905	-85.51
211.285	-73.01
211.664	-70.48
212.044	-49.44
212.424	-36.59
212.803	-44.69
213.183	-48.31
213.562	-8.6
213.942	2.83
214.321	16.19
214.701	7.32
215.08	3.91
215.459	17.3
215.838	19.52
216.218	15.84
216.597	19.99
216.976	12.94
217.355	18.02
217.734	13.56
218.113	17.11
218.492	14.6
218.871	10.77
219.25	13.36
219.629	17.34
220.008	21.13
220.387	25.41
220.766	25.39
221.144	20.79
221.523	-3.65
221.902	-7.72
222.28	-21.33
222.659	-14.22
223.037	-12.1
223.416	-23.23
223.794	-31.59
224.173	-28.91
224.551	-24.98
224.929	-19.55
225.308	-17.8
225.686	-10.14
226.064	-5.17
226.442	-1.1
226.821	3.66
227.199	6.79
227.577	1.75
227.955	1.83
228.333	1.91
228.711	2.2
229.089	4.01
229.467	4.11
229.845	4.99
230.222	6.45
230.6	6.32
230.978	4.56
231.356	4.99
231.733	5.8
232.111	5.57
232.488	2.82
232.866	2.93
233.243	3.31
233.621	1.05
233.998	1.39
234.376	0.48
234.753	0.24
235.13	-2.52
235.508	0.57
235.885	-0.81
236.262	-1.66
236.639	-3.36
237.016	-3.31
237.393	-2.68
237.77	-2.72
238.147	-1.92
238.524	-1.42
238.901	0.59
239.278	1.27
239.655	2.21
240.032	1.66
240.409	2.34
240.785	3.05
241.162	3.18
241.539	3.98
241.915	3.43
242.292	3.43
242.668	3.55
243.045	3.94
243.421	3.17
243.798	3.35
244.174	3.24
244.551	3.57
244.927	3.36
245.303	3.34
245.679	3.25
246.056	3.36
246.432	3.32
246.808	3.21
247.184	3
247.56	2.56
247.936	2.52
248.312	2.29
248.688	2.25
249.064	2.24
249.44	2.22
249.815	2.32
250.191	2.4
250.567	2.16
250.943	2.04
251.318	2.16
251.694	2.25
252.069	2.39
252.445	2.34
252.82	2.53
253.196	2.74
253.571	2.99
253.947	2.91
254.322	3.29
254.697	3.34
255.073	2.95
255.448	3.28
255.823	3.49
256.198	3.76
256.573	3.48
256.948	3.67
257.323	3.77
257.698	3.68
258.073	3.65
258.448	3.85
258.823	3.75
259.198	3.93
259.573	3.62
259.948	3.47
260.322	3.47
260.697	3.32
261.072	3.23
261.446	3.18
261.821	2.95
262.195	2.9
262.57	2.79
262.944	2.78
263.319	2.79
263.693	2.77
264.067	2.86
264.442	3.12
264.816	2.97
265.19	2.8
265.564	2.98
265.938	2.81
266.313	2.7
266.687	2.88
267.061	2.73
267.435	2.88
267.809	2.94
268.183	2.9
268.556	2.97
268.93	2.97
269.304	2.88
269.678	2.98
270.051	2.71
270.425	2.68
270.799	2.97
271.172	2.87
271.546	2.82
271.919	2.61
272.293	2.57
272.666	2.53
273.04	2.48
273.413	2.38
273.787	2.36
274.16	2.37
274.533	2.26
274.906	2.32
275.279	2.17
275.653	2.04
276.026	2.02
276.399	2
276.772	2.03
277.145	1.85
277.518	1.82
277.891	1.8
278.263	1.72
278.636	1.52
279.009	1.61
279.382	1.77
279.755	1.86
280.127	1.9
280.5	1.74
280.872	1.87
281.245	1.86
281.617	1.83
281.99	1.88
282.362	1.88
282.735	1.64
283.107	1.73
283.479	1.93
283.852	1.89
284.224	1.91
284.596	1.94
284.968	2.2
285.34	2.39
285.713	2.5
286.085	2.66
286.457	2.76
286.829	2.76
287.201	2.77
287.572	2.74
287.944	2.66
288.316	2.79
288.688	2.69
289.06	2.65
289.431	2.81
289.803	2.79
290.175	2.72
290.546	2.85
290.918	3
291.289	2.85
291.661	3.05
292.032	3.07
292.403	3.03
292.775	3
293.146	2.74
293.517	2.71
293.889	2.75
294.26	2.69
294.631	2.63
295.002	2.4
295.373	2.36
295.744	2.36
296.115	2.35
296.486	2.28
296.857	2.31
297.228	2.36
297.599	2.32
297.97	2.37
298.34	2.44
298.711	2.44
299.082	2.54
299.452	2.37
299.823	2.47
300.194	2.41
300.564	2.31
300.935	2.44
301.305	2.35
301.676	2.31
302.046	2.37
302.416	2.5
302.787	2.62
303.157	2.64
303.527	2.5
303.897	2.64
304.267	2.88
304.637	2.87
305.008	2.71
305.378	2.94
305.748	3.03
306.117	3.01
306.487	2.98
306.857	3.02
307.227	3.19
307.597	3.08
307.967	3.09
308.336	3.15
308.706	3.12
309.076	3.2
309.445	3.07
309.815	2.9
310.184	2.69
310.554	2.67
310.923	2.6
311.293	2.69
311.662	2.61
312.031	2.45
312.401	2.47
312.77	2.58
313.139	2.57
313.508	2.64
313.877	2.58
314.246	2.56
314.616	2.51
314.985	2.43
315.353	2.39
315.722	2.42
316.091	2.39
316.46	2.38
316.829	2.45
317.198	2.65
317.567	2.92
317.935	3.03
318.304	3.09
318.672	3.26
319.041	3.39
319.41	3.3
319.778	3.36
320.147	3.42
320.515	3.34
320.883	3.06
321.252	3
321.62	2.97
321.988	2.83
322.357	2.85
322.725	2.74
323.093	2.61
323.461	2.67
323.829	2.81
324.197	2.81
324.565	2.81
324.933	2.75
325.301	2.61
325.669	2.7
326.037	2.57
326.405	2.57
326.772	2.49
327.14	2.55
327.508	2.67
327.875	2.46
328.243	2.55
328.61	2.65
328.978	2.61
329.346	2.61
329.713	2.63
330.08	2.8
330.448	2.9
330.815	2.91
331.182	2.92
331.55	2.87
331.917	2.97
332.284	3.03
332.651	2.98
333.018	2.98
333.385	2.95
333.752	3.03
334.119	2.89
334.486	2.9
334.853	2.87
335.22	2.84
335.587	2.98
335.954	2.91
336.32	2.74
336.687	2.84
337.054	2.85
337.42	2.9
337.787	2.75
338.153	2.76
338.52	2.93
338.886	2.84
339.253	2.76
339.619	2.68
339.986	2.54
340.352	2.54
340.718	2.52
341.084	2.46
341.451	2.48
341.817	2.53
342.183	2.48
342.549	2.52
342.915	2.53
343.281	2.59
343.647	2.62
344.013	2.68
344.379	2.52
344.745	2.59
345.11	2.52
345.476	2.52
345.842	2.42
346.208	2.42
346.573	2.49
346.939	2.54
347.304	2.46
347.67	2.48
348.035	2.45
348.401	2.59
348.766	2.63
349.132	2.62
349.497	2.6
349.862	2.69
350.228	2.66
350.593	2.6
350.958	2.56
351.323	2.58
351.688	2.64
352.053	2.76
352.418	2.8
352.783	2.86
353.148	2.89
353.513	2.99
353.878	2.9
354.243	2.93
354.608	2.89
354.972	2.9
355.337	2.98
355.702	3.07
356.066	2.99
356.431	2.96
356.795	3
357.16	3.01
357.524	2.94
357.889	2.93
358.253	2.96
358.618	2.92
358.982	2.86
359.346	2.78
359.71	2.69
360.075	2.61
360.439	2.58
360.803	2.54
361.167	2.52
361.531	2.52
361.895	2.47
362.259	2.49
362.623	2.56
362.987	2.53
363.351	2.53
363.714	2.56
364.078	2.53
364.442	2.45
364.806	2.41
365.169	2.44
365.533	2.46
365.896	2.43
366.26	2.4
366.623	2.41
366.987	2.48
367.35	2.55
367.714	2.6
368.077	2.57
368.44	2.61
368.803	2.58
369.167	2.53
369.53	2.53
369.893	2.54
370.256	2.48
370.619	2.47
370.982	2.38
371.345	2.35
371.708	2.39
372.071	2.45
372.434	2.43
372.797	2.35
373.159	2.35
373.522	2.38
373.885	2.44
374.247	2.48
374.61	2.49
374.973	2.49
375.335	2.43
375.698	2.51
376.06	2.49
376.423	2.55
376.785	2.63
377.147	2.67
377.51	2.72
377.872	2.78
378.234	2.8
378.596	2.84
378.958	2.82
379.321	2.88
379.683	2.88
380.045	2.94
380.407	2.97
380.769	2.99
381.13	2.98
381.492	2.95
381.854	2.94
382.216	2.89
382.578	2.87
382.939	2.88
383.301	2.88
383.663	2.83
384.024	2.77
384.386	2.76
384.747	2.79
385.109	2.72
385.47	2.67
385.832	2.68
386.193	2.72
386.554	2.75
386.916	2.74
387.277	2.73
387.638	2.76
387.999	2.77
388.36	2.77
388.721	2.79
389.082	2.8
389.443	2.77
389.804	2.8
390.165	2.82
390.526	2.85
390.887	2.82
391.248	2.85
391.609	2.86
391.969	2.87
392.33	2.84
392.691	2.86
393.051	2.88
393.412	2.91
393.772	2.89
394.133	2.88
394.493	2.86
394.854	2.87
395.214	2.84
395.574	2.81
395.935	2.78
396.295	2.8
396.655	2.81
397.015	2.82
397.376	2.81
397.736	2.82
398.096	2.85
398.456	2.89
398.816	2.93
399.176	2.93
399.535	2.91
399.895	2.93
400.255	2.96
400.615	2.96
400.975	2.93
401.334	2.93
401.694	2.91
402.054	2.94
402.413	2.91
402.773	2.88
403.132	2.91
403.492	2.93
403.851	2.91
404.211	2.9
404.57	2.92
404.929	2.95
405.288	2.9
405.648	2.89
406.007	2.85
406.366	2.83
406.725	2.85
407.084	2.87
407.443	2.86
407.802	2.87
408.161	2.87
408.52	2.86
408.879	2.84
409.238	2.87
409.596	2.86
409.955	2.89
410.314	2.92
410.673	2.91
411.031	2.89
411.39	2.89
411.748	2.9
412.107	2.91
412.465	2.86
412.824	2.9
413.182	2.87
413.54	2.9
413.899	2.95
414.257	2.93
414.615	2.92
414.974	2.93
415.332	2.9
415.69	2.88
416.048	2.88
416.406	2.88
416.764	2.9
417.122	2.91
417.48	2.91
417.838	2.92
418.195	2.9
418.553	2.89
418.911	2.89
419.269	2.9
419.626	2.89
419.984	2.91
420.342	2.91
420.699	2.92
421.057	2.92
421.414	2.89
421.772	2.91
422.129	2.9
422.486	2.89
422.844	2.89
423.201	2.91
423.558	2.91
423.915	2.91
424.273	2.9
424.63	2.88
424.987	2.89
425.344	2.89
425.701	2.91
426.058	2.93
426.415	2.95
426.772	2.93
427.128	2.93
427.485	2.93
427.842	2.92
428.199	2.94
428.555	2.93
428.912	2.95
429.269	2.97
429.625	2.97
429.982	2.98
430.338	3
430.695	2.99
431.051	2.99
431.407	2.98
431.764	2.97
432.12	2.98
432.476	2.97
432.832	2.98
433.189	2.98
433.545	2.98
433.901	2.96
434.257	2.96
434.613	2.97
434.969	2.96
435.325	2.97
435.681	2.97
436.036	2.98
436.392	2.99
436.748	2.97
437.104	2.97
437.459	2.97
437.815	2.96
438.171	2.97
438.526	2.95
438.882	2.97
439.237	2.98
439.593	3
439.948	3
440.304	3
440.659	2.98
441.014	2.98
441.369	2.99
441.725	3
442.08	3
442.435	3
442.79	3
443.145	2.99
443.5	2.97
443.855	2.96
444.21	2.96
444.565	2.98
444.92	2.98
445.275	2.97
445.629	2.97
445.984	2.99
446.339	2.98
446.693	2.97
447.048	2.95
447.403	2.94
447.757	2.94
448.112	2.94
448.466	2.92
448.82	2.93
449.175	2.92
449.529	2.91
449.883	2.92
450.238	2.92
450.592	2.92
450.946	2.92
451.3	2.93
451.654	2.93
452.008	2.9
452.362	2.89
452.716	2.91
453.07	2.91
453.424	2.9
453.778	2.89
454.132	2.91
454.486	2.91
454.839	2.91
455.193	2.9
455.547	2.91
455.9	2.93
456.254	2.92
456.607	2.94
456.961	2.93
457.314	2.92
457.668	2.91
458.021	2.91
458.375	2.92
458.728	2.92
459.081	2.92
459.434	2.94
459.787	2.95
460.141	2.94
460.494	2.93
460.847	2.93
461.2	2.95
461.553	2.95
461.906	2.95
462.259	2.98
462.611	2.98
462.964	3
463.317	3
463.67	3.01
464.022	3.01
464.375	3.01
464.728	3.02
465.08	3.02
465.433	3.02
465.785	3.02
466.138	3.02
466.49	3.02
466.843	3.02
467.195	3.02
467.547	3.03
467.899	3.03
468.252	3.03
468.604	3.02
468.956	3.01
469.308	3.01
469.66	2.99
470.012	3
470.364	2.98
470.716	2.96
471.068	2.96
471.42	2.95
471.772	2.99
472.123	3.01
472.475	3.03
472.827	3.04
473.178	3.03
473.53	3.03
473.882	3.03
474.233	3.03
474.585	3.01
474.936	2.99
475.288	2.99
475.639	2.99
475.99	3
476.342	3.01
476.693	3.03
477.044	3.04
477.395	3.04
477.746	3.02
478.097	3.03
478.448	3.04
478.8	3.06
479.15	3.03
479.501	3.02
479.852	3.01
480.203	3.01
480.554	3.03
480.905	3.03
481.255	3.03
481.606	3.03
481.957	3.05
482.307	3.06
482.658	3.06
483.009	3.07
483.359	3.07
483.709	3.08
484.06	3.08
484.41	3.08
484.761	3.08
485.111	3.09
485.461	3.1
485.811	3.09
486.162	3.08
486.512	3.1
486.862	3.1
487.212	3.11
487.562	3.11
487.912	3.12
488.262	3.12
488.612	3.13
488.961	3.13
489.311	3.12
489.661	3.12
490.011	3.13
490.36	3.12
490.71	3.11
491.06	3.11
491.409	3.11
491.759	3.1
492.108	3.11
492.458	3.11
492.807	3.1
493.157	3.1
493.506	3.11
493.855	3.11
494.204	3.1
494.554	3.09
494.903	3.09
495.252	3.08
495.601	3.08
495.95	3.08
496.299	3.1
496.648	3.1
496.997	3.11
497.346	3.13
497.695	3.14
498.043	3.16
498.392	3.15
498.741	3.16
499.09	3.15
499.438	3.16
499.787	3.16
500.135	3.18
500.484	3.19
500.832	3.18
501.181	3.16
501.529	3.18
501.878	3.19
502.226	3.2
502.574	3.21
502.923	3.21
503.271	3.19
503.619	3.19
503.967	3.18
504.315	3.17
504.663	3.16
505.011	3.16
505.359	3.16
505.707	3.15
506.055	3.15
506.403	3.17
506.751	3.17
507.098	3.17
507.446	3.16
507.794	3.16
508.141	3.17
508.489	3.19
508.837	3.2
509.184	3.21
509.531	3.19
509.879	3.2
510.226	3.2
510.574	3.21
510.921	3.19
511.268	3.22
511.616	3.24
511.963	3.25
512.31	3.28
512.657	3.3
513.004	3.3
513.351	3.3
513.698	3.3
514.045	3.32
514.392	3.33
514.739	3.32
515.086	3.34
515.432	3.32
515.779	3.3
516.126	3.29
516.473	3.3
516.819	3.31
517.166	3.3
517.512	3.32
517.859	3.33
518.205	3.34
518.552	3.35
518.898	3.34
519.245	3.32
519.591	3.32
519.937	3.29
520.283	3.31
520.629	3.31
520.976	3.31
521.322	3.3
521.668	3.3
522.014	3.32
522.36	3.33
522.706	3.34
523.052	3.36
523.398	3.37
523.743	3.38
524.089	3.38
524.435	3.39
524.781	3.39
525.126	3.38
525.472	3.38
525.817	3.37
526.163	3.37
526.509	3.37
526.854	3.37
527.199	3.38
527.545	3.38
527.89	3.4
528.235	3.4
528.581	3.4
528.926	3.39
529.271	3.39
529.616	3.39
529.961	3.39
530.306	3.4
530.651	3.39
530.996	3.39
531.341	3.38
531.686	3.39
532.031	3.38
532.376	3.39
532.721	3.38
533.065	3.39
533.41	3.4
533.755	3.39
534.099	3.4
534.444	3.41
534.788	3.4
535.133	3.4
535.477	3.41
535.822	3.41
536.166	3.41
536.51	3.42
536.855	3.42
537.199	3.41
537.543	3.4
537.887	3.41
538.231	3.41
538.576	3.42
538.92	3.42
539.264	3.42
539.608	3.43
539.951	3.44
540.295	3.43
540.639	3.44
540.983	3.45
541.327	3.44
541.671	3.45
542.014	3.45
542.358	3.44
542.701	3.44
543.045	3.45
543.389	3.46
543.732	3.46
544.075	3.46
544.419	3.46
544.762	3.47
545.105	3.47
545.449	3.48
545.792	3.48
546.135	3.5
546.478	3.51
546.821	3.5
547.165	3.49
547.508	3.51
547.851	3.48
548.194	3.48
548.536	3.49
548.879	3.49
549.222	3.49
549.565	3.5
549.908	3.48
550.25	3.49
550.593	3.48
550.936	3.47
551.278	3.48
551.621	3.51
551.963	3.51
552.306	3.51
552.648	3.49
552.991	3.51
553.333	3.47
553.675	3.46
554.017	3.44
554.36	3.47
554.702	3.46
555.044	3.49
555.386	3.51
555.728	3.5
556.07	3.5
556.412	3.49
556.754	3.48
557.096	3.49
557.438	3.48
557.78	3.5
558.121	3.52
558.463	3.51
558.805	3.49
559.147	3.51
559.488	3.51
559.83	3.52
560.171	3.49
560.513	3.5
560.854	3.5
561.196	3.51
561.537	3.51
561.878	3.52
562.22	3.55
562.561	3.53
562.902	3.55
563.243	3.53
563.584	3.56
563.925	3.58
564.266	3.59
564.607	3.59
564.948	3.58
565.289	3.57
565.63	3.58
565.971	3.6
566.312	3.58
566.653	3.56
566.993	3.57
567.334	3.58
567.675	3.59
568.015	3.59
568.356	3.57
568.696	3.57
569.037	3.57
569.377	3.56
569.718	3.57
570.058	3.56
570.398	3.57
570.739	3.54
571.079	3.53
571.419	3.52
571.759	3.5
572.099	3.51
572.439	3.5
572.779	3.47
573.119	3.45
573.459	3.45
573.799	3.48
574.139	3.47
574.479	3.46
574.819	3.46
575.158	3.46
575.498	3.46
575.838	3.47
576.177	3.43
576.517	3.43
576.856	3.42
577.196	3.42
577.535	3.39
577.875	3.43
578.214	3.41
578.553	3.41
578.893	3.39
579.232	3.36
579.571	3.41
579.91	3.43
580.25	3.44
580.589	3.43
580.928	3.45
581.267	3.45
581.606	3.46
581.945	3.43
582.283	3.44
582.622	3.44
582.961	3.45
583.3	3.51
583.639	3.52
583.977	3.52
584.316	3.49
584.654	3.54
584.993	3.49
585.332	3.56
585.67	3.57
586.008	3.6
586.347	3.62
586.685	3.61
587.024	3.62
587.362	3.65
587.7	3.65
588.038	3.65
588.376	3.62
588.715	3.58
589.053	3.63
589.391	3.68
589.729	3.72
590.067	3.7
590.404	3.65
590.742	3.66
591.08	3.63
591.418	3.65
591.756	3.64
592.093	3.7
592.431	3.64
592.769	3.64
593.106	3.65
593.444	3.64
593.781	3.64
594.119	3.66
594.456	3.63
594.793	3.63
595.131	3.6
595.468	3.61
595.805	3.66
596.143	3.62
596.48	3.58
596.817	3.58
597.154	3.62
597.491	3.63
597.828	3.65
598.165	3.65
598.502	3.65
598.839	3.66
599.176	3.65
599.512	3.66
599.849	3.67
600.186	3.67
600.523	3.71
600.859	3.72
601.196	3.69
601.532	3.71
601.869	3.73
602.205	3.74
602.542	3.75
602.878	3.74
603.215	3.76
603.551	3.79
603.887	3.8
604.223	3.77
604.56	3.77
604.896	3.77
605.232	3.82
605.568	3.81
605.904	3.81
606.24	3.84
606.576	3.85
606.912	3.83
607.248	3.78
607.583	3.78
607.919	3.76
608.255	3.76
608.591	3.76
608.926	3.76
609.262	3.79
609.597	3.82
609.933	3.83
610.268	3.79
610.604	3.75
610.939	3.75
611.275	3.72
611.61	3.72
611.945	3.7
612.281	3.66
612.616	3.68
612.951	3.67
613.286	3.64
613.621	3.62
613.956	3.64
614.291	3.69
614.626	3.69
614.961	3.59
615.296	3.61
615.631	3.64
615.966	3.6
616.3	3.54
616.635	3.53
616.97	3.53
617.304	3.58
617.639	3.62
617.973	3.58
618.308	3.6
618.642	3.62
618.977	3.62
619.311	3.58
619.646	3.58
619.98	3.59
620.314	3.57
620.648	3.6
620.983	3.59
621.317	3.6
621.651	3.59
621.985	3.71
622.319	3.76
622.653	3.73
622.987	3.75
623.321	3.8
623.655	3.8
623.988	3.82
624.322	3.79
624.656	3.82
624.99	3.84
625.323	3.82
625.657	3.83
625.99	3.85
626.324	3.9
626.657	3.87
626.991	3.87
627.324	3.87
627.658	3.9
627.991	3.94
628.324	3.95
628.657	3.96
628.991	3.96
629.324	3.92
629.657	3.96
629.99	3.98
630.323	3.97
630.656	3.99
630.989	3.97
631.322	3.96
631.655	3.9
631.987	3.91
632.32	3.93
632.653	3.93
632.986	3.94
633.318	3.99
633.651	4.06
633.984	4.05
634.316	4.05
634.649	3.98
634.981	3.92
635.313	3.9
635.646	3.88
635.978	3.89
636.31	3.91
636.643	3.87
636.975	3.84
637.307	3.84
637.639	3.83
637.971	3.84
638.303	3.82
638.635	3.76
638.967	3.78
639.299	3.79
639.631	3.74
639.963	3.66
640.295	3.59
640.626	3.57
640.958	3.58
641.29	3.57
641.621	3.57
641.953	3.58
642.285	3.61
642.616	3.64
642.948	3.62
643.279	3.61
643.61	3.6
643.942	3.65
644.273	3.69
644.604	3.69
644.936	3.61
645.267	3.69
645.598	3.81
645.929	3.78
646.26	3.77
646.591	3.8
646.922	3.8
647.253	3.82
647.584	3.83
647.915	3.82
648.245	3.89
648.576	3.94
648.907	3.99
649.238	3.96
649.568	3.97
649.899	3.93
650.229	4.03
650.56	4.08
650.89	4.08
651.221	4.07
651.551	4.07
651.882	4.15
652.212	4.16
652.542	4.14
652.872	4.13
653.203	4.1
653.533	4.11
653.863	4.15
654.193	4.17
654.523	4.12
654.853	4.08
655.183	4.06
655.513	4.07
655.843	4.05
656.172	4.1
656.502	4.12
656.832	4.09
657.162	4.03
657.491	4
657.821	3.97
658.15	3.9
658.48	3.92
658.809	3.9
659.139	3.89
659.468	3.88
659.798	3.9
660.127	3.94
660.456	3.97
660.785	3.97
661.115	3.97
661.444	4
661.773	4.03
662.102	4.03
662.431	4.04
662.76	4.05
663.089	4.02
663.418	4.02
663.747	4.05
664.076	4.03
664.404	4
664.733	4.01
665.062	4.03
665.39	4.03
665.719	4.01
666.048	4.06
666.376	4.1
666.705	4.1
667.033	4.13
667.362	4.11
667.69	4.12
668.018	4.06
668.347	4.03
668.675	4.08
669.003	4.04
669.331	4.01
669.659	3.97
669.987	3.9
670.315	3.85
670.643	3.81
670.971	3.9
671.299	3.98
671.627	3.94
671.955	3.98
672.283	3.99
672.61	4
672.938	3.97
673.266	3.92
673.593	3.99
673.921	3.96
674.249	3.92
674.576	3.89
674.904	3.97
675.231	3.9
675.558	3.93
675.886	3.97
676.213	3.99
676.54	3.99
676.867	4.05
677.195	4.11
677.522	4.16
677.849	4.03
678.176	3.95
678.503	3.95
678.83	3.94
679.157	3.9
