Data from BU26932_Reflection_00015.txt Node
Date: Tue Nov 19 10:44:51 EST 2019
User: vgr7
Spectrometer: USB2G7710
Scans to average: 3
Trigger mode: 4
Integration Time (sec): 2.000000E-2
Electric dark correction enabled: true
Boxcar width: 10
XAxis mode: Wavelengths
Number of Pixels in Spectrum: 2048
>>>>>Begin Spectral Data<<<<<
177.721	-80.31
178.105	-49.73
178.488	-64.86
178.871	-261.29
179.254	5100
179.636	531.82
180.019	-347.85
180.402	128.57
180.785	1227.27
181.168	87.8
181.55	95.39
181.933	-162.3
182.316	-56.68
182.698	-36.46
183.081	-34.11
183.463	-52.51
183.846	-51.44
184.228	-13.02
184.611	-20.13
184.993	-12.97
185.376	-10.55
185.758	-20.08
186.14	-18.63
186.522	-9.24
186.904	-13.24
187.287	-17.71
187.669	-8.64
188.051	-5.19
188.433	-2.68
188.815	-5.14
189.197	-11.07
189.579	-16.03
189.961	-14.57
190.342	-16.95
190.724	-16.3
191.106	-10.11
191.488	-7.01
191.869	-7.81
192.251	-14.63
192.633	-19.64
193.014	-18.76
193.396	-26.65
193.777	-27.34
194.159	-18.8
194.54	-23.19
194.922	-34.78
195.303	-29.93
195.684	-32.16
196.065	-36.38
196.447	-41.85
196.828	-49.77
197.209	-39.3
197.59	-18.89
197.971	-2.49
198.352	-1.09
198.733	-5.24
199.114	-9.44
199.495	-14.64
199.876	-13.53
200.257	-1.35
200.638	11.09
201.018	8.2
201.399	24.13
201.78	32.41
202.16	48.12
202.541	36.14
202.922	55.46
203.302	27.3
203.683	27.58
204.063	19.88
204.444	17.33
204.824	16.14
205.204	20.52
205.585	22.02
205.965	22.15
206.345	22.98
206.725	29.61
207.106	35.64
207.486	36.48
207.866	26.46
208.246	37.84
208.626	38.58
209.006	35.12
209.386	34.52
209.766	39.71
210.145	36.71
210.525	35.61
210.905	29.38
211.285	35.38
211.664	45.38
212.044	42.05
212.424	47.31
212.803	48.08
213.183	43.69
213.562	47.18
213.942	49.18
214.321	46.39
214.701	38.6
215.08	24.87
215.459	22.74
215.838	27.15
216.218	13.63
216.597	7.17
216.976	13.39
217.355	12.47
217.734	1.07
218.113	-1.84
218.492	1.34
218.871	1.94
219.25	5.69
219.629	-1.45
220.008	-4.61
220.387	-12
220.766	-3.47
221.144	-0.61
221.523	-3.6
221.902	-10.42
222.28	2.87
222.659	8.38
223.037	11.45
223.416	12.98
223.794	14.66
224.173	7.53
224.551	18.65
224.929	13.44
225.308	4.88
225.686	5.92
226.064	3.3
226.442	7.3
226.821	10.26
227.199	9.37
227.577	7.21
227.955	11.27
228.333	10.61
228.711	4.38
229.089	0.64
229.467	-0.1
229.845	-0.59
230.222	-4.36
230.6	-4.33
230.978	-3.89
231.356	-5.9
231.733	-4.36
232.111	-1.61
232.488	-1.43
232.866	1.49
233.243	3.7
233.621	4.3
233.998	4.17
234.376	3.62
234.753	2.14
235.13	2.78
235.508	4.21
235.885	5.05
236.262	4.75
236.639	4.91
237.016	6.47
237.393	7.27
237.77	7.08
238.147	7.74
238.524	7.3
238.901	6.56
239.278	7.02
239.655	6.84
240.032	6.82
240.409	6.27
240.785	5.04
241.162	4.66
241.539	4.15
241.915	4.38
242.292	3.87
242.668	4.44
243.045	4.29
243.421	4.51
243.798	4.45
244.174	4.84
244.551	4.82
244.927	4.8
245.303	4.16
245.679	4.13
246.056	4.03
246.432	4.19
246.808	4.07
247.184	4.12
247.56	3.83
247.936	3.97
248.312	4.3
248.688	4.7
249.064	4.89
249.44	4.98
249.815	4.94
250.191	5.04
250.567	4.83
250.943	5.02
251.318	4.56
251.694	4.45
252.069	4.17
252.445	4.3
252.82	4.55
253.196	5.03
253.571	5.36
253.947	5.55
254.322	5.13
254.697	5.65
255.073	5.56
255.448	5.55
255.823	5.33
256.198	4.7
256.573	4.58
256.948	4.5
257.323	4.53
257.698	4.66
258.073	4.66
258.448	4.68
258.823	4.6
259.198	4.84
259.573	4.69
259.948	4.77
260.322	4.66
260.697	4.46
261.072	4.33
261.446	4.27
261.821	4.13
262.195	4.22
262.57	4.26
262.944	4.38
263.319	4.51
263.693	4.48
264.067	4.8
264.442	4.83
264.816	4.72
265.19	4.76
265.564	4.6
265.938	4.81
266.313	4.93
266.687	4.78
267.061	4.74
267.435	4.98
267.809	4.94
268.183	4.99
268.556	5.09
268.93	5.17
269.304	5.15
269.678	5.34
270.051	5.26
270.425	5.13
270.799	4.88
271.172	4.82
271.546	4.91
271.919	4.75
272.293	4.62
272.666	4.65
273.04	4.58
273.413	4.56
273.787	4.54
274.16	4.39
274.533	4.77
274.906	4.89
275.279	4.8
275.653	4.72
276.026	4.83
276.399	4.82
276.772	4.7
277.145	4.67
277.518	4.34
277.891	4.43
278.263	4.48
278.636	4.55
279.009	4.71
279.382	4.6
279.755	4.58
280.127	4.75
280.5	4.89
280.872	4.97
281.245	5.16
281.617	4.94
281.99	4.98
282.362	4.72
282.735	4.53
283.107	4.61
283.479	4.61
283.852	4.58
284.224	4.58
284.596	4.71
284.968	4.84
285.34	5.02
285.713	5.06
286.085	4.95
286.457	5.03
286.829	4.89
287.201	4.85
287.572	4.96
287.944	4.91
288.316	4.93
288.688	5.05
289.06	5
289.431	5.18
289.803	5.2
290.175	5.22
290.546	5.24
290.918	5.26
291.289	5.39
291.661	5.45
292.032	5.42
292.403	5.43
292.775	5.49
293.146	5.57
293.517	5.46
293.889	5.64
294.26	5.59
294.631	5.71
295.002	5.89
295.373	5.92
295.744	5.93
296.115	5.84
296.486	5.78
296.857	5.85
297.228	5.8
297.599	5.8
297.97	5.9
298.34	6.03
298.711	6.2
299.082	6.14
299.452	6.19
299.823	6.29
300.194	6.42
300.564	6.29
300.935	6.45
301.305	6.51
301.676	6.48
302.046	6.55
302.416	6.69
302.787	6.72
303.157	6.77
303.527	6.99
303.897	7.26
304.267	7.5
304.637	7.47
305.008	7.54
305.378	7.83
305.748	7.89
306.117	7.89
306.487	7.77
306.857	8.09
307.227	8.17
307.597	8.28
307.967	8.36
308.336	8.47
308.706	8.43
309.076	8.71
309.445	8.88
309.815	8.99
310.184	8.97
310.554	9.08
310.923	9.12
311.293	8.98
311.662	8.99
312.031	9
312.401	9.2
312.77	9.34
313.139	9.39
313.508	9.48
313.877	9.67
314.246	9.81
314.616	9.76
314.985	9.88
315.353	9.96
315.722	10.07
316.091	10.33
316.46	10.41
316.829	10.42
317.198	10.55
317.567	10.89
317.935	11.1
318.304	11.32
318.672	11.4
319.041	11.75
319.41	11.84
319.778	11.77
320.147	11.71
320.515	11.87
320.883	11.81
321.252	11.94
321.62	12.05
321.988	12.09
322.357	12.2
322.725	12.25
323.093	12.35
323.461	12.53
323.829	12.54
324.197	12.66
324.565	12.72
324.933	12.58
325.301	12.36
325.669	12.38
326.037	12.39
326.405	12.56
326.772	12.52
327.14	12.59
327.508	12.7
327.875	12.82
328.243	12.93
328.61	13.05
328.978	13.01
329.346	13.01
329.713	13.17
330.08	13.31
330.448	13.41
330.815	13.36
331.182	13.24
331.55	13.41
331.917	13.44
332.284	13.53
332.651	13.72
333.018	13.88
333.385	13.93
333.752	13.89
334.119	13.88
334.486	13.94
334.853	14.05
335.22	14.18
335.587	14.2
335.954	14.17
336.32	14.27
336.687	14.46
337.054	14.64
337.42	14.56
337.787	14.5
338.153	14.4
338.52	14.44
338.886	14.66
339.253	14.67
339.619	14.78
339.986	14.81
340.352	14.86
340.718	14.88
341.084	14.94
341.451	15.13
341.817	15.21
342.183	15.37
342.549	15.36
342.915	15.42
343.281	15.62
343.647	15.72
344.013	15.67
344.379	15.68
344.745	15.62
345.11	15.67
345.476	15.8
345.842	15.94
346.208	16.09
346.573	15.99
346.939	15.93
347.304	15.96
347.67	15.9
348.035	15.95
348.401	15.99
348.766	15.96
349.132	15.95
349.497	15.87
349.862	15.87
350.228	15.93
350.593	15.81
350.958	15.81
351.323	15.77
351.688	15.81
352.053	15.74
352.418	15.77
352.783	15.75
353.148	15.81
353.513	15.87
353.878	15.78
354.243	15.67
354.608	15.71
354.972	15.67
355.337	15.73
355.702	15.68
356.066	15.75
356.431	15.74
356.795	15.74
357.16	15.85
357.524	15.79
357.889	15.77
358.253	15.83
358.618	15.72
358.982	15.73
359.346	15.7
359.71	15.69
360.075	15.66
360.439	15.7
360.803	15.66
361.167	15.48
361.531	15.51
361.895	15.59
362.259	15.58
362.623	15.55
362.987	15.54
363.351	15.5
363.714	15.37
364.078	15.39
364.442	15.33
364.806	15.3
365.169	15.19
365.533	15.1
365.896	15.09
366.26	15.03
366.623	14.97
366.987	14.93
367.35	14.92
367.714	14.89
368.077	14.86
368.44	14.71
368.803	14.72
369.167	14.54
369.53	14.49
369.893	14.46
370.256	14.36
370.619	14.24
370.982	14.16
371.345	14.14
371.708	14.06
372.071	13.96
372.434	13.85
372.797	13.88
373.159	13.79
373.522	13.66
373.885	13.59
374.247	13.46
374.61	13.4
374.973	13.33
375.335	13.31
375.698	13.16
376.06	13.11
376.423	12.98
376.785	12.96
377.147	12.86
377.51	12.73
377.872	12.59
378.234	12.47
378.596	12.43
378.958	12.32
379.321	12.19
379.683	12.14
380.045	12.01
380.407	11.88
380.769	11.79
381.13	11.71
381.492	11.65
381.854	11.66
382.216	11.59
382.578	11.47
382.939	11.35
383.301	11.25
383.663	11.14
384.024	11.09
384.386	11.07
384.747	10.97
385.109	10.91
385.47	10.88
385.832	10.84
386.193	10.77
386.554	10.71
386.916	10.66
387.277	10.53
387.638	10.51
387.999	10.46
388.36	10.4
388.721	10.34
389.082	10.25
389.443	10.09
389.804	10.02
390.165	9.96
390.526	9.85
390.887	9.87
391.248	9.82
391.609	9.77
391.969	9.72
392.33	9.67
392.691	9.58
393.051	9.55
393.412	9.52
393.772	9.45
394.133	9.33
394.493	9.25
394.854	9.2
395.214	9.11
395.574	9.02
395.935	8.92
396.295	8.85
396.655	8.8
397.015	8.74
397.376	8.66
397.736	8.58
398.096	8.5
398.456	8.37
398.816	8.29
399.176	8.19
399.535	8.08
399.895	8.01
400.255	7.95
400.615	7.88
400.975	7.81
401.334	7.75
401.694	7.76
402.054	7.68
402.413	7.63
402.773	7.59
403.132	7.55
403.492	7.54
403.851	7.48
404.211	7.45
404.57	7.46
404.929	7.37
405.288	7.35
405.648	7.32
406.007	7.3
406.366	7.27
406.725	7.27
407.084	7.23
407.443	7.19
407.802	7.18
408.161	7.17
408.52	7.14
408.879	7.13
409.238	7.13
409.596	7.12
409.955	7.09
410.314	7.09
410.673	7.07
411.031	7.03
411.39	7.03
411.748	6.98
412.107	6.92
412.465	6.96
412.824	6.9
413.182	6.87
413.54	6.85
413.899	6.82
414.257	6.78
414.615	6.73
414.974	6.71
415.332	6.67
415.69	6.61
416.048	6.57
416.406	6.5
416.764	6.44
417.122	6.4
417.48	6.39
417.838	6.33
418.195	6.29
418.553	6.25
418.911	6.21
419.269	6.17
419.626	6.14
419.984	6.08
420.342	6.05
420.699	6.02
421.057	5.98
421.414	5.96
421.772	5.93
422.129	5.91
422.486	5.88
422.844	5.85
423.201	5.82
423.558	5.79
423.915	5.78
424.273	5.75
424.63	5.74
424.987	5.71
425.344	5.69
425.701	5.67
426.058	5.65
426.415	5.62
426.772	5.61
427.128	5.61
427.485	5.58
427.842	5.57
428.199	5.55
428.555	5.54
428.912	5.53
429.269	5.5
429.625	5.48
429.982	5.47
430.338	5.48
430.695	5.48
431.051	5.47
431.407	5.45
431.764	5.46
432.12	5.44
432.476	5.45
432.832	5.43
433.189	5.43
433.545	5.43
433.901	5.43
434.257	5.42
434.613	5.41
434.969	5.4
435.325	5.39
435.681	5.4
436.036	5.4
436.392	5.4
436.748	5.43
437.104	5.43
437.459	5.42
437.815	5.4
438.171	5.41
438.526	5.41
438.882	5.41
439.237	5.41
439.593	5.41
439.948	5.4
440.304	5.38
440.659	5.39
441.014	5.38
441.369	5.37
441.725	5.38
442.08	5.39
442.435	5.39
442.79	5.4
443.145	5.39
443.5	5.39
443.855	5.36
444.21	5.34
444.565	5.33
444.92	5.31
445.275	5.28
445.629	5.29
445.984	5.26
446.339	5.24
446.693	5.2
447.048	5.18
447.403	5.15
447.757	5.14
448.112	5.1
448.466	5.09
448.82	5.07
449.175	5.03
449.529	5.01
449.883	4.98
450.238	4.95
450.592	4.92
450.946	4.89
451.3	4.87
451.654	4.84
452.008	4.83
452.362	4.83
452.716	4.82
453.07	4.78
453.424	4.77
453.778	4.76
454.132	4.77
454.486	4.75
454.839	4.76
455.193	4.77
455.547	4.78
455.9	4.78
456.254	4.8
456.607	4.83
456.961	4.82
457.314	4.85
457.668	4.85
458.021	4.87
458.375	4.87
458.728	4.88
459.081	4.91
459.434	4.91
459.787	4.91
460.141	4.94
460.494	4.96
460.847	4.97
461.2	4.99
461.553	5
461.906	5.03
462.259	5.04
462.611	5.06
462.964	5.09
463.317	5.11
463.67	5.12
464.022	5.13
464.375	5.16
464.728	5.18
465.08	5.25
465.433	5.28
465.785	5.31
466.138	5.34
466.49	5.39
466.843	5.42
467.195	5.48
467.547	5.49
467.899	5.51
468.252	5.55
468.604	5.59
468.956	5.66
469.308	5.69
469.66	5.73
470.012	5.76
470.364	5.79
470.716	5.83
471.068	5.86
471.42	5.91
471.772	5.92
472.123	5.93
472.475	5.93
472.827	5.94
473.178	5.97
473.53	6.01
473.882	6
474.233	5.99
474.585	5.99
474.936	6
475.288	6
475.639	6
475.99	5.99
476.342	5.95
476.693	5.91
477.044	5.89
477.395	5.87
477.746	5.84
478.097	5.82
478.448	5.81
478.8	5.77
479.15	5.75
479.501	5.71
479.852	5.67
480.203	5.66
480.554	5.64
480.905	5.62
481.255	5.61
481.606	5.6
481.957	5.6
482.307	5.59
482.658	5.58
483.009	5.57
483.359	5.56
483.709	5.57
484.06	5.57
484.41	5.56
484.761	5.57
485.111	5.57
485.461	5.58
485.811	5.57
486.162	5.57
486.512	5.57
486.862	5.58
487.212	5.59
487.562	5.59
487.912	5.58
488.262	5.59
488.612	5.59
488.961	5.6
489.311	5.6
489.661	5.61
490.011	5.62
490.36	5.64
490.71	5.67
491.06	5.67
491.409	5.7
491.759	5.73
492.108	5.76
492.458	5.79
492.807	5.83
493.157	5.89
493.506	5.93
493.855	5.99
494.204	6.06
494.554	6.11
494.903	6.19
495.252	6.28
495.601	6.34
495.95	6.42
496.299	6.52
496.648	6.59
496.997	6.73
497.346	6.85
497.695	6.95
498.043	7.04
498.392	7.17
498.741	7.29
499.09	7.42
499.438	7.54
499.787	7.66
500.135	7.79
500.484	7.92
500.832	8.06
501.181	8.21
501.529	8.37
501.878	8.57
502.226	8.76
502.574	8.93
502.923	9.14
503.271	9.35
503.619	9.58
503.967	9.82
504.315	10.01
504.663	10.22
505.011	10.46
505.359	10.7
505.707	10.96
506.055	11.21
506.403	11.44
506.751	11.69
507.098	11.95
507.446	12.2
507.794	12.47
508.141	12.76
508.489	13.05
508.837	13.3
509.184	13.59
509.531	13.86
509.879	14.15
510.226	14.44
510.574	14.74
510.921	15.02
511.268	15.32
511.616	15.63
511.963	15.95
512.31	16.25
512.657	16.59
513.004	16.89
513.351	17.2
513.698	17.55
514.045	17.92
514.392	18.28
514.739	18.64
515.086	19.02
515.432	19.38
515.779	19.69
516.126	20.05
516.473	20.33
516.819	20.64
517.166	20.95
517.512	21.22
517.859	21.5
518.205	21.73
518.552	21.97
518.898	22.22
519.245	22.45
519.591	22.69
519.937	22.97
520.283	23.23
520.629	23.52
520.976	23.78
521.322	24.03
521.668	24.33
522.014	24.62
522.36	24.91
522.706	25.18
523.052	25.48
523.398	25.82
523.743	26.17
524.089	26.53
524.435	26.87
524.781	27.18
525.126	27.43
525.472	27.72
525.817	28
526.163	28.22
526.509	28.44
526.854	28.63
527.199	28.82
527.545	28.98
527.89	29.15
528.235	29.34
528.581	29.53
528.926	29.7
529.271	29.87
529.616	30.03
529.961	30.21
530.306	30.39
530.651	30.55
530.996	30.72
531.341	30.9
531.686	31.07
532.031	31.25
532.376	31.45
532.721	31.64
533.065	31.79
533.41	31.98
533.755	32.18
534.099	32.39
534.444	32.56
534.788	32.77
535.133	32.95
535.477	33.13
535.822	33.29
536.166	33.44
536.51	33.64
536.855	33.85
537.199	34.07
537.543	34.29
537.887	34.5
538.231	34.73
538.576	34.94
538.92	35.16
539.264	35.36
539.608	35.52
539.951	35.69
540.295	35.86
540.639	36.01
540.983	36.17
541.327	36.32
541.671	36.46
542.014	36.59
542.358	36.75
542.701	36.89
543.045	37.07
543.389	37.21
543.732	37.37
544.075	37.5
544.419	37.63
544.762	37.79
545.105	37.94
545.449	38.07
545.792	38.17
546.135	38.32
546.478	38.5
546.821	38.69
547.165	38.87
547.508	39.05
547.851	39.22
548.194	39.33
548.536	39.52
548.879	39.69
549.222	39.86
549.565	39.96
549.908	40.07
550.25	40.16
550.593	40.32
550.936	40.5
551.278	40.66
551.621	40.79
551.963	40.91
552.306	41.11
552.648	41.22
552.991	41.41
553.333	41.53
553.675	41.62
554.017	41.72
554.36	41.79
554.702	41.87
555.044	41.98
555.386	42.11
555.728	42.15
556.07	42.22
556.412	42.32
556.754	42.43
557.096	42.54
557.438	42.7
557.78	42.77
558.121	42.84
558.463	42.97
558.805	43.05
559.147	43.15
559.488	43.2
559.83	43.3
560.171	43.38
560.513	43.45
560.854	43.52
561.196	43.66
561.537	43.7
561.878	43.78
562.22	43.86
562.561	43.92
562.902	44.02
563.243	44.09
563.584	44.16
563.925	44.24
564.266	44.33
564.607	44.39
564.948	44.49
565.289	44.52
565.63	44.56
565.971	44.61
566.312	44.67
566.653	44.75
566.993	44.81
567.334	44.86
567.675	44.91
568.015	45
568.356	45.04
568.696	45.12
569.037	45.15
569.377	45.22
569.718	45.24
570.058	45.3
570.398	45.32
570.739	45.37
571.079	45.43
571.419	45.47
571.759	45.5
572.099	45.49
572.439	45.54
572.779	45.61
573.119	45.72
573.459	45.76
573.799	45.76
574.139	45.87
574.479	45.92
574.819	46
575.158	46.05
575.498	46.07
575.838	46.16
576.177	46.24
576.517	46.3
576.856	46.42
577.196	46.45
577.535	46.54
577.875	46.61
578.214	46.67
578.553	46.74
578.893	46.81
579.232	46.9
579.571	46.96
579.91	47
580.25	46.97
580.589	47.05
580.928	47.13
581.267	47.11
581.606	47.16
581.945	47.2
582.283	47.3
582.622	47.38
582.961	47.38
583.3	47.4
583.639	47.39
583.977	47.4
584.316	47.46
584.654	47.48
584.993	47.44
585.332	47.46
585.67	47.48
586.008	47.48
586.347	47.54
586.685	47.5
587.024	47.53
587.362	47.54
587.7	47.57
588.038	47.64
588.376	47.65
588.715	47.68
589.053	47.71
589.391	47.68
589.729	47.61
590.067	47.65
590.404	47.69
590.742	47.81
591.08	47.86
591.418	47.84
591.756	47.89
592.093	48.01
592.431	48.03
592.769	48.03
593.106	48.1
593.444	48.1
593.781	48.15
594.119	48.2
594.456	48.22
594.793	48.21
595.131	48.22
595.468	48.17
595.805	48.18
596.143	48.18
596.48	48.19
596.817	48.37
597.154	48.43
597.491	48.48
597.828	48.5
598.165	48.49
598.502	48.53
598.839	48.56
599.176	48.55
599.512	48.62
599.849	48.63
600.186	48.64
600.523	48.71
600.859	48.73
601.196	48.7
601.532	48.81
601.869	48.85
602.205	48.81
602.542	48.93
602.878	49
603.215	49
603.551	48.96
603.887	48.85
604.223	48.86
604.56	48.81
604.896	48.82
605.232	48.87
605.568	48.84
605.904	48.83
606.24	48.82
606.576	48.81
606.912	48.8
607.248	48.84
607.583	48.79
607.919	48.87
608.255	48.9
608.591	48.86
608.926	48.89
609.262	48.92
609.597	48.89
609.933	48.85
610.268	48.88
610.604	48.92
610.939	49
611.275	49
611.61	49.08
611.945	49.05
612.281	49.04
612.616	49.13
612.951	49.12
613.286	49.1
613.621	49.09
613.956	49.16
614.291	49.13
614.626	49.22
614.961	49.21
615.296	49.16
615.631	49.14
615.966	49.06
616.3	49.13
616.635	49.14
616.97	49.21
617.304	49.13
617.639	49.15
617.973	49.08
618.308	49.01
618.642	48.95
618.977	48.96
619.311	49
619.646	48.94
619.98	48.97
620.314	49.05
620.648	49.03
620.983	49
621.317	49.08
621.651	48.97
621.985	48.98
622.319	49.02
622.653	49.01
622.987	49.15
623.321	49.1
623.655	49.15
623.988	49.11
624.322	49.2
624.656	49.31
624.99	49.34
625.323	49.43
625.657	49.4
625.99	49.43
626.324	49.37
626.657	49.46
626.991	49.52
627.324	49.52
627.658	49.55
627.991	49.54
628.324	49.51
628.657	49.49
628.991	49.53
629.324	49.61
629.657	49.54
629.99	49.52
630.323	49.56
630.656	49.51
630.989	49.55
631.322	49.51
631.655	49.38
631.987	49.41
632.32	49.33
632.653	49.45
632.986	49.48
633.318	49.59
633.651	49.56
633.984	49.57
634.316	49.53
634.649	49.61
634.981	49.63
635.313	49.62
635.646	49.68
635.978	49.65
636.31	49.58
636.643	49.69
636.975	49.65
637.307	49.7
637.639	49.7
637.971	49.64
638.303	49.67
638.635	49.8
638.967	49.87
639.299	49.95
639.631	49.93
639.963	49.9
640.295	49.78
640.626	49.89
640.958	49.92
641.29	50.02
641.621	49.84
641.953	49.91
642.285	50
642.616	50.03
642.948	49.99
643.279	49.96
643.61	49.98
643.942	49.97
644.273	49.95
644.604	50.01
644.936	50.05
645.267	50.12
645.598	50.07
645.929	49.94
646.26	49.94
646.591	50.01
646.922	49.95
647.253	50.02
647.584	49.86
647.915	49.9
648.245	49.85
648.576	50.03
648.907	50.02
649.238	49.95
649.568	49.92
649.899	49.96
650.229	50
650.56	49.86
650.89	49.99
651.221	49.98
651.551	50.01
651.882	49.97
652.212	49.94
652.542	49.87
652.872	49.93
653.203	49.98
653.533	49.87
653.863	49.92
654.193	49.95
654.523	49.97
654.853	49.91
655.183	49.91
655.513	49.9
655.843	49.93
656.172	49.98
656.502	50
656.832	49.99
657.162	50.08
657.491	50.24
657.821	50.17
658.15	50.22
658.48	50.2
658.809	50.28
659.139	50.32
659.468	50.35
659.798	50.45
660.127	50.43
660.456	50.37
660.785	50.43
661.115	50.51
661.444	50.52
661.773	50.61
662.102	50.6
662.431	50.57
662.76	50.54
663.089	50.53
663.418	50.62
663.747	50.69
664.076	50.57
