Data from BU26943_Reflection_00006.txt Node
Date: Tue Nov 19 11:02:24 EST 2019
User: vgr7
Spectrometer: USB2G7710
Scans to average: 3
Trigger mode: 4
Integration Time (sec): 2.000000E-2
Electric dark correction enabled: true
Boxcar width: 10
XAxis mode: Wavelengths
Number of Pixels in Spectrum: 2048
>>>>>Begin Spectral Data<<<<<
177.721	-22.17
178.105	-31.15
178.488	-38.28
178.871	-34.04
179.254	-25.93
179.636	-486.96
180.019	583.87
180.402	780
180.785	100
181.168	-15.38
181.55	-175.86
181.933	330.77
182.316	-321.05
182.698	100
183.081	-34.75
183.463	-121.48
183.846	-65.02
184.228	-80.51
184.611	-66.23
184.993	-72.88
185.376	-71.95
185.758	-28.13
186.14	-15.07
186.522	-9.84
186.904	-12.87
187.287	-14.19
187.669	-2.86
188.051	-6.24
188.433	-29.69
188.815	-32.04
189.197	-35.65
189.579	-24
189.961	-28.71
190.342	-31.75
190.724	-37.49
191.106	-47.03
191.488	-28.73
191.869	-42.3
192.251	-35.71
192.633	-37.14
193.014	-29.97
193.396	-40.99
193.777	-40.82
194.159	-44.33
194.54	-45.01
194.922	-47.66
195.303	-55.97
195.684	-68.87
196.065	-64.95
196.447	-53.53
196.828	-64.93
197.209	-60.79
197.59	-86.96
197.971	-99.64
198.352	-73.66
198.733	-77.44
199.114	-58.52
199.495	-70.83
199.876	-60.74
200.257	-73.37
200.638	-63.03
201.018	-85.73
201.399	-75.98
201.78	-76.84
202.16	-90.21
202.541	-100.55
202.922	-93.43
203.302	-84.3
203.683	-82.86
204.063	-82.7
204.444	-74.73
204.824	-76.33
205.204	-74.1
205.585	-63.6
205.965	-63.99
206.345	-72.23
206.725	-67.59
207.106	-59.91
207.486	-57.95
207.866	-51.91
208.246	-38.23
208.626	-43.9
209.006	-32.08
209.386	-16.06
209.766	-19.65
210.145	-12.2
210.525	-11.65
210.905	-11.2
211.285	-13.4
211.664	-9.03
212.044	-1.66
212.424	-2.51
212.803	4.02
213.183	2.42
213.562	0.97
213.942	1.2
214.321	7.55
214.701	7.96
215.08	7.73
215.459	10.61
215.838	6.45
216.218	-5.61
216.597	-7.61
216.976	-11.02
217.355	-12.02
217.734	-15.17
218.113	-13.04
218.492	-22.51
218.871	-18.58
219.25	-17.17
219.629	-30.63
220.008	-41.52
220.387	-46.72
220.766	-42.64
221.144	-43.2
221.523	-46.99
221.902	-43.54
222.28	-43.17
222.659	-35.04
223.037	-34.72
223.416	-31.56
223.794	-26.72
224.173	-34.46
224.551	-30.8
224.929	-34.38
225.308	-34.38
225.686	-30.93
226.064	-31.05
226.442	-22.7
226.821	-22.01
227.199	-19.15
227.577	-14.23
227.955	-10.5
228.333	-9.74
228.711	-5.78
229.089	-3.48
229.467	-5.29
229.845	-6.13
230.222	-5.21
230.6	-4.99
230.978	-2.88
231.356	-2.25
231.733	-0.98
232.111	3.99
232.488	3.37
232.866	5.57
233.243	4.96
233.621	4.47
233.998	3.91
234.376	3.81
234.753	4.92
235.13	4.85
235.508	4.22
235.885	4.33
236.262	3.76
236.639	1.6
237.016	3.1
237.393	4.49
237.77	5.6
238.147	6.42
238.524	6.75
238.901	5.36
239.278	4.58
239.655	3.98
240.032	3.6
240.409	4.14
240.785	3.35
241.162	3.31
241.539	3.55
241.915	3.35
242.292	3.38
242.668	3.32
243.045	3.31
243.421	3.74
243.798	3.73
244.174	4.06
244.551	4.06
244.927	3.71
245.303	3.42
245.679	3.2
246.056	2.76
246.432	2.68
246.808	2.95
247.184	3.06
247.56	2.97
247.936	2.96
248.312	2.84
248.688	3.11
249.064	3.17
249.44	2.89
249.815	2.92
250.191	2.95
250.567	2.88
250.943	2.86
251.318	2.43
251.694	2.14
252.069	2.01
252.445	2.13
252.82	2.32
253.196	2.43
253.571	2.47
253.947	2.81
254.322	2.66
254.697	2.54
255.073	2.26
255.448	2.48
255.823	2.54
256.198	2.66
256.573	2.56
256.948	2.57
257.323	2.82
257.698	2.89
258.073	2.88
258.448	2.93
258.823	2.84
259.198	2.89
259.573	2.83
259.948	2.86
260.322	2.83
260.697	2.77
261.072	2.92
261.446	2.96
261.821	2.89
262.195	2.8
262.57	2.84
262.944	3.01
263.319	3.01
263.693	2.86
264.067	2.81
264.442	2.82
264.816	2.82
265.19	2.84
265.564	2.73
265.938	2.78
266.313	2.67
266.687	2.79
267.061	2.87
267.435	3.14
267.809	2.97
268.183	2.72
268.556	2.58
268.93	2.62
269.304	2.4
269.678	2.46
270.051	2.58
270.425	2.68
270.799	2.52
271.172	2.49
271.546	2.73
271.919	2.81
272.293	2.86
272.666	2.93
273.04	2.8
273.413	2.98
273.787	3.1
274.16	3.19
274.533	3.13
274.906	3.02
275.279	2.88
275.653	2.9
276.026	3.09
276.399	3.1
276.772	3.1
277.145	3.13
277.518	2.93
277.891	2.81
278.263	2.72
278.636	2.98
279.009	2.95
279.382	2.99
279.755	2.89
280.127	2.72
280.5	2.66
280.872	2.8
281.245	2.75
281.617	2.71
281.99	2.69
282.362	2.67
282.735	2.69
283.107	2.76
283.479	2.85
283.852	2.79
284.224	2.77
284.596	2.67
284.968	2.84
285.34	2.95
285.713	3.1
286.085	3.04
286.457	2.96
286.829	2.96
287.201	2.81
287.572	2.78
287.944	2.9
288.316	3.02
288.688	3.07
289.06	3.03
289.431	3.06
289.803	3.17
290.175	3.19
290.546	3.25
290.918	3.33
291.289	3.19
291.661	3.23
292.032	3.3
292.403	3.33
292.775	3.42
293.146	3.35
293.517	3.3
293.889	3.34
294.26	3.36
294.631	3.51
295.002	3.54
295.373	3.58
295.744	3.58
296.115	3.45
296.486	3.48
296.857	3.5
297.228	3.42
297.599	3.28
297.97	3.31
298.34	3.33
298.711	3.29
299.082	3.35
299.452	3.26
299.823	3.2
300.194	3.17
300.564	2.91
300.935	2.95
301.305	2.9
301.676	2.81
302.046	2.84
302.416	2.75
302.787	2.7
303.157	2.81
303.527	2.95
303.897	3.02
304.267	2.95
304.637	2.91
305.008	2.9
305.378	2.87
305.748	2.71
306.117	2.76
306.487	2.69
306.857	2.62
307.227	2.85
307.597	2.87
307.967	2.89
308.336	3.02
308.706	3.01
309.076	3
309.445	3.11
309.815	3.02
310.184	2.97
310.554	2.93
310.923	2.88
311.293	2.92
311.662	2.87
312.031	2.92
312.401	2.88
312.77	2.91
313.139	2.96
313.508	3.05
313.877	2.99
314.246	2.96
314.616	3.05
314.985	2.89
315.353	3.06
315.722	3.11
316.091	2.97
316.46	3.01
316.829	3.04
317.198	3.09
317.567	3.22
317.935	3.33
318.304	3.6
318.672	3.65
319.041	3.48
319.41	3.46
319.778	3.24
320.147	3.28
320.515	3.19
320.883	3.04
321.252	3.21
321.62	3.2
321.988	3.3
322.357	3.34
322.725	3.42
323.093	3.37
323.461	3.31
323.829	3.5
324.197	3.48
324.565	3.49
324.933	3.43
325.301	3.35
325.669	3.39
326.037	3.13
326.405	2.97
326.772	3.04
327.14	2.94
327.508	3
327.875	3.06
328.243	3.14
328.61	3.2
328.978	3.1
329.346	3.09
329.713	3.05
330.08	3.06
330.448	3.09
330.815	2.99
331.182	2.94
331.55	2.87
331.917	2.76
332.284	2.78
332.651	2.74
333.018	2.75
333.385	2.61
333.752	2.76
334.119	2.87
334.486	2.74
334.853	2.8
335.22	2.79
335.587	2.75
335.954	2.75
336.32	2.79
336.687	2.82
337.054	2.76
337.42	2.71
337.787	2.72
338.153	2.75
338.52	2.76
338.886	2.78
339.253	2.73
339.619	2.84
339.986	2.81
340.352	2.89
340.718	2.8
341.084	2.89
341.451	2.91
341.817	2.88
342.183	2.88
342.549	2.89
342.915	2.95
343.281	2.89
343.647	2.87
344.013	2.93
344.379	2.9
344.745	3.01
345.11	3.08
345.476	2.96
345.842	2.84
346.208	2.9
346.573	2.84
346.939	2.9
347.304	2.99
347.67	2.97
348.035	2.98
348.401	2.96
348.766	2.91
349.132	2.84
349.497	2.87
349.862	2.92
350.228	3.04
350.593	2.98
350.958	3.1
351.323	3.03
351.688	3
352.053	2.95
352.418	2.95
352.783	2.95
353.148	3.03
353.513	3.16
353.878	3.12
354.243	3.08
354.608	3.12
354.972	3.07
355.337	3.05
355.702	3.03
356.066	3.05
356.431	2.97
356.795	3.01
357.16	2.98
357.524	3
357.889	2.95
358.253	3.04
358.618	3.07
358.982	3.12
359.346	3.12
359.71	3.14
360.075	3.16
360.439	3.18
360.803	3.25
361.167	3.22
361.531	3.2
361.895	3.29
362.259	3.26
362.623	3.23
362.987	3.31
363.351	3.29
363.714	3.39
364.078	3.48
364.442	3.41
364.806	3.5
365.169	3.48
365.533	3.5
365.896	3.4
366.26	3.34
366.623	3.31
366.987	3.34
367.35	3.39
367.714	3.35
368.077	3.33
368.44	3.29
368.803	3.23
369.167	3.25
369.53	3.19
369.893	3.22
370.256	3.17
370.619	3.03
370.982	3.01
371.345	2.97
371.708	2.91
372.071	2.97
372.434	2.87
372.797	2.86
373.159	2.87
373.522	2.96
373.885	3.02
374.247	2.99
374.61	2.99
374.973	3.02
375.335	3.06
375.698	3.08
376.06	3.07
376.423	3.09
376.785	3.15
377.147	3.16
377.51	3.1
377.872	3.15
378.234	3.24
378.596	3.25
378.958	3.24
379.321	3.23
379.683	3.26
380.045	3.28
380.407	3.32
380.769	3.29
381.13	3.23
381.492	3.18
381.854	3.23
382.216	3.24
382.578	3.19
382.939	3.14
383.301	3.13
383.663	3.15
384.024	3.14
384.386	3.07
384.747	3.09
385.109	3.13
385.47	3.12
385.832	3.11
386.193	3.11
386.554	3.06
386.916	3.11
387.277	3.08
387.638	3.13
387.999	3.09
388.36	3.06
388.721	3.06
389.082	3.07
389.443	3.06
389.804	3.09
390.165	3.11
390.526	3.12
390.887	3.12
391.248	3.11
391.609	3.15
391.969	3.15
392.33	3.16
392.691	3.15
393.051	3.15
393.412	3.15
393.772	3.15
394.133	3.13
394.493	3.11
394.854	3.11
395.214	3.1
395.574	3.1
395.935	3.13
396.295	3.14
396.655	3.13
397.015	3.12
397.376	3.1
397.736	3.07
398.096	3.06
398.456	3.04
398.816	3.03
399.176	2.99
399.535	3.03
399.895	3.01
400.255	2.98
400.615	2.99
400.975	3.01
401.334	3
401.694	3.05
402.054	3.07
402.413	3.06
402.773	3.03
403.132	3.05
403.492	3.02
403.851	3.02
404.211	3.02
404.57	3.04
404.929	3.01
405.288	3
405.648	3
406.007	3
406.366	2.97
406.725	2.99
407.084	2.99
407.443	2.98
407.802	3
408.161	2.98
408.52	2.95
408.879	2.96
409.238	2.97
409.596	2.96
409.955	2.93
410.314	2.94
410.673	2.91
411.031	2.89
411.39	2.89
411.748	2.91
412.107	2.91
412.465	2.91
412.824	2.92
413.182	2.93
413.54	2.96
413.899	2.98
414.257	2.96
414.615	2.94
414.974	2.97
415.332	2.98
415.69	3.01
416.048	3.03
416.406	3.03
416.764	3.03
417.122	3.01
417.48	3.03
417.838	3.04
418.195	3.05
418.553	3.07
418.911	3.07
419.269	3.08
419.626	3.09
419.984	3.09
420.342	3.1
420.699	3.1
421.057	3.08
421.414	3.1
421.772	3.11
422.129	3.11
422.486	3.1
422.844	3.11
423.201	3.1
423.558	3.09
423.915	3.1
424.273	3.1
424.63	3.11
424.987	3.12
425.344	3.11
425.701	3.12
426.058	3.12
426.415	3.12
426.772	3.1
427.128	3.09
427.485	3.09
427.842	3.08
428.199	3.1
428.555	3.11
428.912	3.09
429.269	3.08
429.625	3.08
429.982	3.09
430.338	3.06
430.695	3.05
431.051	3.07
431.407	3.07
431.764	3.04
432.12	3.05
432.476	3.05
432.832	3.07
433.189	3.04
433.545	3.02
433.901	3.02
434.257	3.03
434.613	3.02
434.969	3.02
435.325	3.03
435.681	3.03
436.036	3.02
436.392	3.04
436.748	3.02
437.104	3.03
437.459	3.03
437.815	3.06
438.171	3.06
438.526	3.05
438.882	3.06
439.237	3.06
439.593	3.06
439.948	3.05
440.304	3.05
440.659	3.07
441.014	3.08
441.369	3.09
441.725	3.1
442.08	3.12
442.435	3.13
442.79	3.14
443.145	3.13
443.5	3.14
443.855	3.12
444.21	3.16
444.565	3.15
444.92	3.15
445.275	3.14
445.629	3.15
445.984	3.14
446.339	3.14
446.693	3.15
447.048	3.14
447.403	3.14
447.757	3.12
448.112	3.11
448.466	3.12
448.82	3.1
449.175	3.09
449.529	3.08
449.883	3.06
450.238	3.06
450.592	3.05
450.946	3.06
451.3	3.06
451.654	3.05
452.008	3.06
452.362	3.03
452.716	3.06
453.07	3.04
453.424	3.05
453.778	3.07
454.132	3.05
454.486	3.06
454.839	3.04
455.193	3.05
455.547	3.07
455.9	3.07
456.254	3.08
456.607	3.09
456.961	3.1
457.314	3.12
457.668	3.11
458.021	3.1
458.375	3.09
458.728	3.11
459.081	3.1
459.434	3.09
459.787	3.1
460.141	3.09
460.494	3.11
460.847	3.11
461.2	3.12
461.553	3.13
461.906	3.15
462.259	3.15
462.611	3.17
462.964	3.18
463.317	3.17
463.67	3.18
464.022	3.18
464.375	3.16
464.728	3.14
465.08	3.16
465.433	3.16
465.785	3.15
466.138	3.15
466.49	3.16
466.843	3.16
467.195	3.19
467.547	3.18
467.899	3.19
468.252	3.2
468.604	3.19
468.956	3.2
469.308	3.18
469.66	3.2
470.012	3.2
470.364	3.21
470.716	3.23
471.068	3.22
471.42	3.23
471.772	3.26
472.123	3.29
472.475	3.31
472.827	3.32
473.178	3.32
473.53	3.3
473.882	3.31
474.233	3.31
474.585	3.3
474.936	3.3
475.288	3.29
475.639	3.29
475.99	3.28
476.342	3.29
476.693	3.3
477.044	3.32
477.395	3.29
477.746	3.28
478.097	3.26
478.448	3.26
478.8	3.27
479.15	3.27
479.501	3.26
479.852	3.26
480.203	3.27
480.554	3.28
480.905	3.3
481.255	3.3
481.606	3.31
481.957	3.32
482.307	3.32
482.658	3.32
483.009	3.32
483.359	3.32
483.709	3.32
484.06	3.32
484.41	3.3
484.761	3.31
485.111	3.32
485.461	3.33
485.811	3.33
486.162	3.33
486.512	3.33
486.862	3.32
487.212	3.32
487.562	3.32
487.912	3.32
488.262	3.31
488.612	3.31
488.961	3.3
489.311	3.3
489.661	3.3
490.011	3.3
490.36	3.3
490.71	3.31
491.06	3.31
491.409	3.31
491.759	3.31
492.108	3.32
492.458	3.31
492.807	3.31
493.157	3.31
493.506	3.31
493.855	3.32
494.204	3.32
494.554	3.33
494.903	3.33
495.252	3.32
495.601	3.33
495.95	3.33
496.299	3.34
496.648	3.33
496.997	3.34
497.346	3.35
497.695	3.33
498.043	3.34
498.392	3.35
498.741	3.37
499.09	3.37
499.438	3.38
499.787	3.4
500.135	3.39
500.484	3.4
500.832	3.4
501.181	3.42
501.529	3.44
501.878	3.43
502.226	3.44
502.574	3.45
502.923	3.44
503.271	3.45
503.619	3.45
503.967	3.46
504.315	3.48
504.663	3.47
505.011	3.49
505.359	3.48
505.707	3.46
506.055	3.48
506.403	3.49
506.751	3.5
507.098	3.51
507.446	3.53
507.794	3.54
508.141	3.56
508.489	3.57
508.837	3.58
509.184	3.6
509.531	3.64
509.879	3.63
510.226	3.67
510.574	3.7
510.921	3.71
511.268	3.74
511.616	3.74
511.963	3.74
512.31	3.75
512.657	3.75
513.004	3.77
513.351	3.76
513.698	3.79
514.045	3.8
514.392	3.8
514.739	3.84
515.086	3.87
515.432	3.88
515.779	3.87
516.126	3.89
516.473	3.89
516.819	3.89
517.166	3.91
517.512	3.9
517.859	3.93
518.205	3.92
518.552	3.94
518.898	3.94
519.245	3.94
519.591	3.96
519.937	3.97
520.283	4
520.629	4
520.976	3.99
521.322	3.98
521.668	3.99
522.014	3.99
522.36	3.99
522.706	3.99
523.052	4
523.398	4
523.743	4.02
524.089	4.04
524.435	4.05
524.781	4.06
525.126	4.05
525.472	4.07
525.817	4.07
526.163	4.09
526.509	4.1
526.854	4.1
527.199	4.11
527.545	4.12
527.89	4.13
528.235	4.14
528.581	4.14
528.926	4.13
529.271	4.13
529.616	4.14
529.961	4.13
530.306	4.14
530.651	4.14
530.996	4.14
531.341	4.14
531.686	4.14
532.031	4.16
532.376	4.15
532.721	4.15
533.065	4.16
533.41	4.16
533.755	4.16
534.099	4.17
534.444	4.17
534.788	4.15
535.133	4.15
535.477	4.16
535.822	4.16
536.166	4.17
536.51	4.17
536.855	4.17
537.199	4.18
537.543	4.19
537.887	4.19
538.231	4.2
538.576	4.2
538.92	4.21
539.264	4.21
539.608	4.21
539.951	4.2
540.295	4.2
540.639	4.19
540.983	4.21
541.327	4.22
541.671	4.21
542.014	4.23
542.358	4.23
542.701	4.24
543.045	4.25
543.389	4.26
543.732	4.27
544.075	4.26
544.419	4.28
544.762	4.27
545.105	4.28
545.449	4.28
545.792	4.27
546.135	4.26
546.478	4.24
546.821	4.26
547.165	4.25
547.508	4.27
547.851	4.27
548.194	4.24
548.536	4.24
548.879	4.24
549.222	4.25
549.565	4.27
549.908	4.24
550.25	4.25
550.593	4.23
550.936	4.22
551.278	4.23
551.621	4.18
551.963	4.18
552.306	4.19
552.648	4.17
552.991	4.19
553.333	4.22
553.675	4.23
554.017	4.23
554.36	4.23
554.702	4.25
555.044	4.24
555.386	4.25
555.728	4.27
556.07	4.28
556.412	4.26
556.754	4.24
557.096	4.23
557.438	4.21
557.78	4.22
558.121	4.22
558.463	4.21
558.805	4.25
559.147	4.25
559.488	4.21
559.83	4.24
560.171	4.23
560.513	4.22
560.854	4.21
561.196	4.23
561.537	4.29
561.878	4.28
562.22	4.3
562.561	4.29
562.902	4.27
563.243	4.3
563.584	4.3
563.925	4.33
564.266	4.32
564.607	4.32
564.948	4.31
565.289	4.33
565.63	4.35
565.971	4.34
566.312	4.34
566.653	4.38
566.993	4.36
567.334	4.35
567.675	4.36
568.015	4.34
568.356	4.34
568.696	4.32
569.037	4.32
569.377	4.3
569.718	4.3
570.058	4.33
570.398	4.32
570.739	4.3
571.079	4.29
571.419	4.29
571.759	4.32
572.099	4.34
572.439	4.33
572.779	4.34
573.119	4.34
573.459	4.35
573.799	4.33
574.139	4.34
574.479	4.36
574.819	4.36
575.158	4.38
575.498	4.36
575.838	4.36
576.177	4.36
576.517	4.37
576.856	4.38
577.196	4.35
577.535	4.35
577.875	4.41
578.214	4.42
578.553	4.44
578.893	4.44
579.232	4.42
579.571	4.42
579.91	4.41
580.25	4.44
580.589	4.43
580.928	4.4
581.267	4.42
581.606	4.43
581.945	4.41
582.283	4.39
582.622	4.39
582.961	4.4
583.3	4.41
583.639	4.4
583.977	4.38
584.316	4.4
584.654	4.38
584.993	4.32
585.332	4.31
585.67	4.28
586.008	4.28
586.347	4.27
586.685	4.25
587.024	4.27
587.362	4.25
587.7	4.27
588.038	4.32
588.376	4.3
588.715	4.3
589.053	4.31
589.391	4.31
589.729	4.29
590.067	4.27
590.404	4.29
590.742	4.29
591.08	4.3
591.418	4.32
591.756	4.33
592.093	4.33
592.431	4.37
592.769	4.39
593.106	4.38
593.444	4.42
593.781	4.47
594.119	4.44
594.456	4.46
594.793	4.44
595.131	4.43
595.468	4.46
595.805	4.46
596.143	4.45
596.48	4.47
596.817	4.51
597.154	4.52
597.491	4.49
597.828	4.51
598.165	4.5
598.502	4.46
598.839	4.44
599.176	4.49
599.512	4.44
599.849	4.43
600.186	4.46
600.523	4.44
600.859	4.46
601.196	4.46
601.532	4.49
601.869	4.49
602.205	4.49
602.542	4.47
602.878	4.47
603.215	4.51
603.551	4.51
603.887	4.47
604.223	4.49
604.56	4.49
604.896	4.52
605.232	4.53
605.568	4.57
605.904	4.57
606.24	4.56
606.576	4.59
606.912	4.63
607.248	4.63
607.583	4.66
607.919	4.64
608.255	4.63
608.591	4.6
608.926	4.63
609.262	4.59
609.597	4.65
609.933	4.67
610.268	4.61
610.604	4.6
610.939	4.64
611.275	4.6
611.61	4.61
611.945	4.57
612.281	4.59
612.616	4.57
612.951	4.6
613.286	4.59
613.621	4.61
613.956	4.6
614.291	4.63
614.626	4.61
614.961	4.58
615.296	4.61
615.631	4.61
615.966	4.57
616.3	4.58
616.635	4.56
616.97	4.53
617.304	4.59
617.639	4.62
617.973	4.59
618.308	4.59
618.642	4.57
618.977	4.56
619.311	4.57
619.646	4.57
619.98	4.57
620.314	4.59
620.648	4.54
620.983	4.51
621.317	4.49
621.651	4.51
621.985	4.56
622.319	4.53
622.653	4.53
622.987	4.54
623.321	4.54
623.655	4.56
623.988	4.59
624.322	4.58
624.656	4.56
624.99	4.61
625.323	4.62
625.657	4.7
625.99	4.75
626.324	4.76
626.657	4.78
626.991	4.81
627.324	4.81
627.658	4.77
627.991	4.79
628.324	4.78
628.657	4.75
628.991	4.73
629.324	4.77
629.657	4.76
629.99	4.78
630.323	4.81
630.656	4.81
630.989	4.81
631.322	4.82
631.655	4.81
631.987	4.81
632.32	4.81
632.653	4.75
632.986	4.73
633.318	4.7
633.651	4.7
633.984	4.67
634.316	4.69
634.649	4.76
634.981	4.8
635.313	4.82
635.646	4.79
635.978	4.82
636.31	4.82
636.643	4.87
636.975	4.86
637.307	4.84
637.639	4.84
637.971	4.77
638.303	4.75
638.635	4.78
638.967	4.73
639.299	4.77
639.631	4.76
639.963	4.73
640.295	4.76
640.626	4.71
640.958	4.72
641.29	4.71
641.621	4.69
641.953	4.65
642.285	4.59
642.616	4.65
642.948	4.65
643.279	4.63
643.61	4.64
643.942	4.66
644.273	4.63
644.604	4.64
644.936	4.69
645.267	4.69
645.598	4.69
645.929	4.7
646.26	4.63
646.591	4.64
646.922	4.74
647.253	4.73
647.584	4.8
647.915	4.82
648.245	4.83
648.576	4.85
648.907	4.84
649.238	4.83
649.568	4.78
649.899	4.75
650.229	4.72
650.56	4.69
650.89	4.68
651.221	4.69
651.551	4.72
651.882	4.74
652.212	4.78
652.542	4.86
652.872	4.9
653.203	4.96
653.533	5.03
653.863	5.01
654.193	4.98
654.523	4.99
654.853	5.06
655.183	5.07
655.513	5.12
655.843	5.19
656.172	5.27
656.502	5.31
656.832	5.33
657.162	5.36
657.491	5.43
657.821	5.47
658.15	5.53
658.48	5.5
658.809	5.54
659.139	5.61
659.468	5.55
659.798	5.51
660.127	5.5
660.456	5.43
660.785	5.38
661.115	5.43
661.444	5.39
661.773	5.36
662.102	5.3
662.431	5.24
662.76	5.19
663.089	5.23
663.418	5.24
663.747	5.24
664.076	5.25
664.404	5.21
664.733	5.26
665.062	5.27
665.39	5.24
665.719	5.1
666.048	4.99
666.376	4.98
666.705	5.06
667.033	5.06
667.362	5.04
667.69	5.11
668.018	5.1
668.347	5.1
668.675	5.05
669.003	5.01
669.331	5.06
669.659	5.03
669.987	4.99
670.315	4.91
670.643	4.9
670.971	4.93
671.299	4.8
671.627	4.76
671.955	4.65
672.283	4.7
672.61	4.79
672.938	4.85
673.266	4.91
673.593	4.89
673.921	4.91
674.249	4.97
674.576	4.95
674.904	4.85
675.231	4.9
675.558	4.91
675.886	4.92
676.213	4.89
676.54	4.92
676.867	4.91
677.195	5.04
677.522	5.07
677.849	5.12
678.176	5.21
678.503	5.15
