Data from BU26942_Reflection_00001.txt Node
Date: Mon Nov 18 16:50:26 EST 2019
User: vgr7
Spectrometer: USB2G7710
Scans to average: 3
Trigger mode: 4
Integration Time (sec): 2.000000E-2
Electric dark correction enabled: true
Boxcar width: 10
XAxis mode: Wavelengths
Number of Pixels in Spectrum: 2048
>>>>>Begin Spectral Data<<<<<
177.721	32.84
178.105	25.73
178.488	-208.06
178.871	-463.38
179.254	389.94
179.636	-400
180.019	-2111.27
180.402	173.91
180.785	66.37
181.168	-21.29
181.55	-69.16
181.933	264.04
182.316	361.54
182.698	234.47
183.081	420.75
183.463	8946.15
183.846	171.5
184.228	21.94
184.611	81.13
184.993	-284.62
185.376	98.2
185.758	-54.21
186.14	-42.19
186.522	37100
186.904	329.95
187.287	219.69
187.669	-106.7
188.051	-196.83
188.433	66.06
188.815	-18.01
189.197	87.43
189.579	46.13
189.961	38.89
190.342	62.51
190.724	90.57
191.106	187.76
191.488	358.58
191.869	170.19
192.251	63.31
192.633	53.75
193.014	40.75
193.396	44.41
193.777	95.27
194.159	72.93
194.54	46.82
194.922	27.96
195.303	38.57
195.684	63.34
196.065	87.78
196.447	59.07
196.828	69.36
197.209	95.71
197.59	207.33
197.971	112.55
198.352	60.63
198.733	4.65
199.114	17.31
199.495	18.68
199.876	11.41
200.257	1.21
200.638	23.36
201.018	0.29
201.399	2.58
201.78	-8.04
202.16	3.87
202.541	-21.62
202.922	-14.23
203.302	-74.29
203.683	-64.14
204.063	-112.56
204.444	-107.89
204.824	-99.28
205.204	-105.87
205.585	-160.1
205.965	-181.51
206.345	-149.83
206.725	-328.1
207.106	-201.08
207.486	-300.2
207.866	-182.97
208.246	-143.31
208.626	-198.41
209.006	-110.5
209.386	-86.52
209.766	-98.83
210.145	-128.22
210.525	-114.94
210.905	-116.45
211.285	-82.65
211.664	-55.47
212.044	-69.11
212.424	-59.58
212.803	-40.97
213.183	-29.14
213.562	-3.9
213.942	14.38
214.321	14.68
214.701	10.07
215.08	3.83
215.459	12.76
215.838	4.7
216.218	14.91
216.597	29.08
216.976	18.64
217.355	18.74
217.734	39.36
218.113	46.39
218.492	38.55
218.871	18.27
219.25	34.2
219.629	30.68
220.008	27.67
220.387	19.56
220.766	14.73
221.144	19.44
221.523	23.18
221.902	-17.13
222.28	-39.93
222.659	-22.08
223.037	-8.64
223.416	-2.01
223.794	4.29
224.173	0.13
224.551	-1.4
224.929	3.92
225.308	5.39
225.686	-4.13
226.064	3.82
226.442	4.25
226.821	14.58
227.199	10.02
227.577	-0.04
227.955	1.4
228.333	0.82
228.711	5.09
229.089	6.66
229.467	3.77
229.845	6.04
230.222	7.43
230.6	5.15
230.978	7.21
231.356	8.04
231.733	9.34
232.111	10.47
232.488	9.79
232.866	9.42
233.243	11.59
233.621	11.75
233.998	10.25
234.376	10.76
234.753	7.72
235.13	7.78
235.508	9.8
235.885	9.61
236.262	8.01
236.639	6.57
237.016	5.82
237.393	6.19
237.77	6.37
238.147	6.89
238.524	6.97
238.901	7.36
239.278	7.12
239.655	6.01
240.032	5.32
240.409	4.96
240.785	4.9
241.162	4.61
241.539	4.31
241.915	4.38
242.292	4.48
242.668	4.59
243.045	4.93
243.421	4.94
243.798	4.7
244.174	5.03
244.551	4.9
244.927	4.83
245.303	5.02
245.679	5.16
246.056	5.25
246.432	5.28
246.808	4.99
247.184	4.7
247.56	4.82
247.936	4.8
248.312	4.92
248.688	4.9
249.064	4.72
249.44	4.74
249.815	4.79
250.191	4.87
250.567	5.01
250.943	4.51
251.318	4.77
251.694	5
252.069	5.24
252.445	5.4
252.82	5.42
253.196	5.25
253.571	5.1
253.947	5.15
254.322	4.99
254.697	4.59
255.073	4.55
255.448	4.18
255.823	4.33
256.198	4.22
256.573	4.09
256.948	4.41
257.323	4.53
257.698	4.41
258.073	4
258.448	3.86
258.823	4.19
259.198	4.06
259.573	3.99
259.948	3.74
260.322	3.75
260.697	3.77
261.072	3.81
261.446	3.83
261.821	3.72
262.195	3.82
262.57	3.86
262.944	3.84
263.319	4.05
263.693	3.87
264.067	3.74
264.442	4.01
264.816	3.78
265.19	3.78
265.564	3.68
265.938	3.76
266.313	3.75
266.687	3.71
267.061	3.7
267.435	3.78
267.809	3.95
268.183	3.92
268.556	3.65
268.93	3.49
269.304	3.51
269.678	3.63
270.051	3.62
270.425	3.75
270.799	4.02
271.172	4.07
271.546	4.15
271.919	4.24
272.293	4.09
272.666	4.15
273.04	4.19
273.413	4.35
273.787	4.31
274.16	4.31
274.533	4.26
274.906	4.26
275.279	4.17
275.653	4.09
276.026	4.09
276.399	4.19
276.772	4.47
277.145	4.32
277.518	4.25
277.891	4.37
278.263	4.29
278.636	4
279.009	3.96
279.382	4.07
279.755	4.17
280.127	4.22
280.5	4.36
280.872	4.4
281.245	4.25
281.617	4.61
281.99	4.68
282.362	4.67
282.735	4.63
283.107	4.59
283.479	4.72
283.852	4.64
284.224	4.62
284.596	4.44
284.968	4.43
285.34	4.56
285.713	4.43
286.085	4.56
286.457	4.67
286.829	4.55
287.201	4.55
287.572	4.48
287.944	4.39
288.316	4.34
288.688	4.17
289.06	4.22
289.431	4.09
289.803	4.06
290.175	4.17
290.546	4.23
290.918	4.3
291.289	4.35
291.661	4.62
292.032	4.73
292.403	4.88
292.775	4.96
293.146	4.81
293.517	4.82
293.889	4.83
294.26	4.93
294.631	5.05
295.002	4.95
295.373	4.98
295.744	4.93
296.115	4.89
296.486	4.81
296.857	4.74
297.228	4.74
297.599	4.71
297.97	4.63
298.34	4.58
298.711	4.61
299.082	4.47
299.452	4.33
299.823	4.35
300.194	4.33
300.564	4.27
300.935	4.3
301.305	4.3
301.676	4.32
302.046	4.32
302.416	4.41
302.787	4.43
303.157	4.34
303.527	4.46
303.897	4.43
304.267	4.67
304.637	4.83
305.008	4.92
305.378	4.95
305.748	4.97
306.117	5.01
306.487	5.01
306.857	5.11
307.227	5.04
307.597	5.04
307.967	5.1
308.336	5.12
308.706	5.13
309.076	5.15
309.445	5.05
309.815	4.95
310.184	4.86
310.554	5
310.923	5.06
311.293	5.11
311.662	5.09
312.031	5.07
312.401	5.03
312.77	5.1
313.139	5.08
313.508	5.05
313.877	4.94
314.246	4.88
314.616	4.73
314.985	4.82
315.353	4.78
315.722	4.71
316.091	4.8
316.46	4.73
316.829	4.81
317.198	4.87
317.567	4.86
317.935	4.93
318.304	4.78
318.672	4.61
319.041	4.56
319.41	4.48
319.778	4.44
320.147	4.42
320.515	4.32
320.883	4.45
321.252	4.47
321.62	4.56
321.988	4.46
322.357	4.54
322.725	4.45
323.093	4.46
323.461	4.34
323.829	4.38
324.197	4.38
324.565	4.23
324.933	4.29
325.301	4.32
325.669	4.3
326.037	4.37
326.405	4.6
326.772	4.6
327.14	4.71
327.508	4.7
327.875	4.72
328.243	4.7
328.61	4.55
328.978	4.69
329.346	4.75
329.713	4.94
330.08	5.05
330.448	5.05
330.815	4.95
331.182	5.07
331.55	5.1
331.917	5.09
332.284	5.16
332.651	5.06
333.018	5.01
333.385	4.91
333.752	4.94
334.119	4.87
334.486	4.8
334.853	4.87
335.22	4.82
335.587	4.74
335.954	4.61
336.32	4.65
336.687	4.55
337.054	4.57
337.42	4.47
337.787	4.5
338.153	4.46
338.52	4.55
338.886	4.5
339.253	4.37
339.619	4.36
339.986	4.37
340.352	4.38
340.718	4.36
341.084	4.39
341.451	4.4
341.817	4.44
342.183	4.41
342.549	4.4
342.915	4.47
343.281	4.47
343.647	4.48
344.013	4.49
344.379	4.43
344.745	4.46
345.11	4.51
345.476	4.46
345.842	4.54
346.208	4.52
346.573	4.58
346.939	4.69
347.304	4.75
347.67	4.63
348.035	4.66
348.401	4.69
348.766	4.68
349.132	4.69
349.497	4.65
349.862	4.77
350.228	4.72
350.593	4.71
350.958	4.73
351.323	4.88
351.688	4.88
352.053	4.9
352.418	4.87
352.783	4.9
353.148	4.84
353.513	4.79
353.878	4.82
354.243	4.84
354.608	4.75
354.972	4.78
355.337	4.94
355.702	4.95
356.066	4.99
356.431	4.95
356.795	4.9
357.16	4.88
357.524	4.84
357.889	4.85
358.253	4.83
358.618	4.86
358.982	4.8
359.346	4.81
359.71	4.78
360.075	4.78
360.439	4.75
360.803	4.8
361.167	4.81
361.531	4.82
361.895	4.75
362.259	4.81
362.623	4.8
362.987	4.75
363.351	4.74
363.714	4.74
364.078	4.75
364.442	4.77
364.806	4.8
365.169	4.78
365.533	4.79
365.896	4.79
366.26	4.81
366.623	4.81
366.987	4.86
367.35	4.92
367.714	4.88
368.077	4.85
368.44	4.85
368.803	4.84
369.167	4.78
369.53	4.77
369.893	4.8
370.256	4.82
370.619	4.87
370.982	4.86
371.345	4.75
371.708	4.8
372.071	4.75
372.434	4.76
372.797	4.8
373.159	4.82
373.522	4.84
373.885	4.89
374.247	4.9
374.61	4.86
374.973	4.83
375.335	4.84
375.698	4.83
376.06	4.83
376.423	4.82
376.785	4.91
377.147	4.97
377.51	4.9
377.872	4.86
378.234	4.84
378.596	4.79
378.958	4.84
379.321	4.79
379.683	4.82
380.045	4.83
380.407	4.81
380.769	4.78
381.13	4.79
381.492	4.72
381.854	4.71
382.216	4.79
382.578	4.81
382.939	4.79
383.301	4.8
383.663	4.73
384.024	4.75
384.386	4.71
384.747	4.7
385.109	4.74
385.47	4.75
385.832	4.74
386.193	4.78
386.554	4.79
386.916	4.84
387.277	4.87
387.638	4.91
387.999	4.89
388.36	4.88
388.721	4.87
389.082	4.88
389.443	4.84
389.804	4.75
390.165	4.72
390.526	4.76
390.887	4.8
391.248	4.86
391.609	4.86
391.969	4.87
392.33	4.88
392.691	4.84
393.051	4.82
393.412	4.85
393.772	4.87
394.133	4.89
394.493	4.87
394.854	4.86
395.214	4.82
395.574	4.81
395.935	4.8
396.295	4.82
396.655	4.83
397.015	4.88
397.376	4.92
397.736	4.95
398.096	4.97
398.456	4.97
398.816	4.94
399.176	4.92
399.535	4.9
399.895	4.87
400.255	4.9
400.615	4.9
400.975	4.91
401.334	4.86
401.694	4.85
402.054	4.84
402.413	4.84
402.773	4.81
403.132	4.83
403.492	4.87
403.851	4.84
404.211	4.83
404.57	4.82
404.929	4.84
405.288	4.84
405.648	4.79
406.007	4.79
406.366	4.79
406.725	4.81
407.084	4.82
407.443	4.83
407.802	4.82
408.161	4.82
408.52	4.79
408.879	4.8
409.238	4.79
409.596	4.81
409.955	4.81
410.314	4.84
410.673	4.82
411.031	4.8
411.39	4.82
411.748	4.83
412.107	4.83
412.465	4.8
412.824	4.78
413.182	4.8
413.54	4.8
413.899	4.84
414.257	4.84
414.615	4.8
414.974	4.8
415.332	4.78
415.69	4.81
416.048	4.79
416.406	4.81
416.764	4.8
417.122	4.79
417.48	4.77
417.838	4.79
418.195	4.8
418.553	4.8
418.911	4.78
419.269	4.79
419.626	4.8
419.984	4.8
420.342	4.81
420.699	4.8
421.057	4.79
421.414	4.78
421.772	4.78
422.129	4.81
422.486	4.82
422.844	4.82
423.201	4.82
423.558	4.82
423.915	4.83
424.273	4.83
424.63	4.84
424.987	4.86
425.344	4.85
425.701	4.84
426.058	4.84
426.415	4.86
426.772	4.84
427.128	4.82
427.485	4.83
427.842	4.83
428.199	4.85
428.555	4.86
428.912	4.86
429.269	4.9
429.625	4.86
429.982	4.85
430.338	4.85
430.695	4.84
431.051	4.83
431.407	4.85
431.764	4.87
432.12	4.85
432.476	4.85
432.832	4.83
433.189	4.84
433.545	4.83
433.901	4.85
434.257	4.82
434.613	4.84
434.969	4.84
435.325	4.84
435.681	4.83
436.036	4.81
436.392	4.81
436.748	4.78
437.104	4.79
437.459	4.8
437.815	4.82
438.171	4.82
438.526	4.82
438.882	4.81
439.237	4.8
439.593	4.82
439.948	4.8
440.304	4.81
440.659	4.81
441.014	4.83
441.369	4.8
441.725	4.81
442.08	4.83
442.435	4.8
442.79	4.79
443.145	4.81
443.5	4.82
443.855	4.82
444.21	4.84
444.565	4.84
444.92	4.85
445.275	4.83
445.629	4.83
445.984	4.84
446.339	4.82
446.693	4.79
447.048	4.79
447.403	4.8
447.757	4.81
448.112	4.8
448.466	4.78
448.82	4.79
449.175	4.78
449.529	4.78
449.883	4.78
450.238	4.79
450.592	4.79
450.946	4.78
451.3	4.78
451.654	4.74
452.008	4.76
452.362	4.73
452.716	4.74
453.07	4.77
453.424	4.76
453.778	4.79
454.132	4.81
454.486	4.81
454.839	4.8
455.193	4.79
455.547	4.8
455.9	4.81
456.254	4.82
456.607	4.83
456.961	4.81
457.314	4.83
457.668	4.82
458.021	4.81
458.375	4.81
458.728	4.82
459.081	4.84
459.434	4.83
459.787	4.86
460.141	4.86
460.494	4.84
460.847	4.86
461.2	4.85
461.553	4.87
461.906	4.88
462.259	4.89
462.611	4.89
462.964	4.9
463.317	4.91
463.67	4.92
464.022	4.93
464.375	4.96
464.728	4.98
465.08	4.97
465.433	4.98
465.785	5
466.138	5
466.49	5.01
466.843	4.99
467.195	4.98
467.547	4.98
467.899	4.98
468.252	4.98
468.604	4.99
468.956	4.97
469.308	4.98
469.66	4.97
470.012	4.98
470.364	4.96
470.716	4.98
471.068	4.97
471.42	4.97
471.772	4.96
472.123	4.96
472.475	4.98
472.827	4.99
473.178	5
473.53	4.99
473.882	4.98
474.233	5.01
474.585	4.97
474.936	4.96
475.288	4.95
475.639	4.95
475.99	4.94
476.342	4.95
476.693	4.96
477.044	4.96
477.395	4.97
477.746	4.98
478.097	4.97
478.448	4.98
478.8	4.98
479.15	4.96
479.501	4.96
479.852	4.95
480.203	4.96
480.554	4.96
480.905	4.99
481.255	4.99
481.606	5
481.957	5.03
482.307	5.04
482.658	5.06
483.009	5.06
483.359	5.07
483.709	5.08
484.06	5.07
484.41	5.08
484.761	5.08
485.111	5.08
485.461	5.09
485.811	5.09
486.162	5.09
486.512	5.11
486.862	5.11
487.212	5.12
487.562	5.13
487.912	5.12
488.262	5.12
488.612	5.12
488.961	5.12
489.311	5.11
489.661	5.11
490.011	5.1
490.36	5.11
490.71	5.11
491.06	5.09
491.409	5.1
491.759	5.09
492.108	5.1
492.458	5.1
492.807	5.09
493.157	5.09
493.506	5.09
493.855	5.11
494.204	5.11
494.554	5.12
494.903	5.08
495.252	5.1
495.601	5.1
495.95	5.12
496.299	5.11
496.648	5.11
496.997	5.13
497.346	5.14
497.695	5.14
498.043	5.15
498.392	5.19
498.741	5.19
499.09	5.18
499.438	5.18
499.787	5.2
500.135	5.21
500.484	5.22
500.832	5.22
501.181	5.21
501.529	5.19
501.878	5.22
502.226	5.24
502.574	5.25
502.923	5.26
503.271	5.26
503.619	5.27
503.967	5.28
504.315	5.29
504.663	5.29
505.011	5.29
505.359	5.29
505.707	5.3
506.055	5.29
506.403	5.32
506.751	5.34
507.098	5.35
507.446	5.35
507.794	5.35
508.141	5.36
508.489	5.36
508.837	5.38
509.184	5.38
509.531	5.39
509.879	5.4
510.226	5.44
510.574	5.46
510.921	5.47
511.268	5.47
511.616	5.48
511.963	5.5
512.31	5.5
512.657	5.5
513.004	5.5
513.351	5.52
513.698	5.49
514.045	5.47
514.392	5.47
514.739	5.46
515.086	5.46
515.432	5.45
515.779	5.46
516.126	5.47
516.473	5.47
516.819	5.48
517.166	5.47
517.512	5.45
517.859	5.46
518.205	5.47
518.552	5.47
518.898	5.47
519.245	5.45
519.591	5.47
519.937	5.46
520.283	5.47
520.629	5.47
520.976	5.5
521.322	5.52
521.668	5.53
522.014	5.55
522.36	5.56
522.706	5.59
523.052	5.6
523.398	5.59
523.743	5.58
524.089	5.58
524.435	5.59
524.781	5.6
525.126	5.59
525.472	5.59
525.817	5.61
526.163	5.6
526.509	5.61
526.854	5.61
527.199	5.65
527.545	5.64
527.89	5.63
528.235	5.64
528.581	5.64
528.926	5.64
529.271	5.64
529.616	5.63
529.961	5.62
530.306	5.62
530.651	5.62
530.996	5.64
531.341	5.63
531.686	5.63
532.031	5.63
532.376	5.64
532.721	5.62
533.065	5.62
533.41	5.64
533.755	5.64
534.099	5.64
534.444	5.63
534.788	5.64
535.133	5.64
535.477	5.63
535.822	5.62
536.166	5.63
536.51	5.62
536.855	5.66
537.199	5.66
537.543	5.66
537.887	5.68
538.231	5.68
538.576	5.68
538.92	5.68
539.264	5.68
539.608	5.69
539.951	5.7
540.295	5.69
540.639	5.68
540.983	5.68
541.327	5.66
541.671	5.65
542.014	5.63
542.358	5.64
542.701	5.67
543.045	5.68
543.389	5.68
543.732	5.68
544.075	5.66
544.419	5.66
544.762	5.67
545.105	5.66
545.449	5.66
545.792	5.68
546.135	5.69
546.478	5.69
546.821	5.69
547.165	5.68
547.508	5.7
547.851	5.7
548.194	5.7
548.536	5.7
548.879	5.72
549.222	5.75
549.565	5.76
549.908	5.74
550.25	5.75
550.593	5.76
550.936	5.75
551.278	5.77
551.621	5.79
551.963	5.79
552.306	5.79
552.648	5.79
552.991	5.76
553.333	5.73
553.675	5.75
554.017	5.76
554.36	5.77
554.702	5.76
555.044	5.78
555.386	5.81
555.728	5.82
556.07	5.81
556.412	5.8
556.754	5.8
557.096	5.83
557.438	5.82
557.78	5.85
558.121	5.88
558.463	5.89
558.805	5.89
559.147	5.88
559.488	5.89
559.83	5.9
560.171	5.91
560.513	5.95
560.854	5.91
561.196	5.89
561.537	5.88
561.878	5.86
562.22	5.84
562.561	5.85
562.902	5.91
563.243	5.89
563.584	5.9
563.925	5.91
564.266	5.88
564.607	5.88
564.948	5.88
565.289	5.89
565.63	5.84
565.971	5.83
566.312	5.88
566.653	5.87
566.993	5.87
567.334	5.87
567.675	5.85
568.015	5.87
568.356	5.86
568.696	5.91
569.037	5.94
569.377	5.97
569.718	5.94
570.058	5.89
570.398	5.88
570.739	5.88
571.079	5.87
571.419	5.87
571.759	5.9
572.099	5.88
572.439	5.86
572.779	5.87
573.119	5.88
573.459	5.84
573.799	5.86
574.139	5.89
574.479	5.89
574.819	5.89
575.158	5.9
575.498	5.91
575.838	5.91
576.177	5.88
576.517	5.88
576.856	5.91
577.196	5.92
577.535	5.95
577.875	5.94
578.214	5.96
578.553	5.97
578.893	5.95
579.232	5.92
579.571	5.9
579.91	5.91
580.25	5.94
580.589	5.97
580.928	5.98
581.267	5.93
581.606	5.92
581.945	5.9
582.283	5.88
582.622	5.89
582.961	5.88
583.3	5.88
583.639	5.91
583.977	5.88
584.316	5.89
584.654	5.88
584.993	5.9
585.332	5.94
585.67	5.95
586.008	5.93
586.347	5.96
586.685	6.01
587.024	5.98
587.362	5.97
587.7	5.98
588.038	5.95
588.376	5.93
588.715	5.94
589.053	5.96
589.391	6
589.729	6.02
590.067	6.06
590.404	6.09
590.742	6.06
591.08	6.07
591.418	6.09
591.756	6.09
592.093	6.07
592.431	6.03
592.769	6.03
593.106	6.05
593.444	6.01
593.781	5.98
594.119	6.06
594.456	6.06
594.793	6.05
595.131	6.03
595.468	6.06
595.805	6.09
596.143	6.1
596.48	6.09
596.817	6.06
597.154	6.02
597.491	6.02
597.828	6.02
598.165	6.01
598.502	6
598.839	6.03
599.176	6.04
599.512	6.04
599.849	6.01
600.186	6.02
600.523	6.07
600.859	6.11
601.196	6.13
601.532	6.14
601.869	6.12
602.205	6.14
602.542	6.15
602.878	6.14
603.215	6.13
603.551	6.15
603.887	6.16
604.223	6.18
604.56	6.21
604.896	6.23
605.232	6.22
605.568	6.2
605.904	6.16
606.24	6.17
606.576	6.16
606.912	6.22
607.248	6.21
607.583	6.22
607.919	6.18
608.255	6.13
608.591	6.17
608.926	6.19
609.262	6.22
609.597	6.21
609.933	6.22
610.268	6.23
610.604	6.19
610.939	6.15
611.275	6.16
611.61	6.14
611.945	6.14
612.281	6.15
612.616	6.2
612.951	6.22
613.286	6.26
613.621	6.3
613.956	6.28
614.291	6.31
614.626	6.32
614.961	6.34
615.296	6.33
615.631	6.27
615.966	6.25
616.3	6.18
616.635	6.17
616.97	6.13
617.304	6.11
617.639	6.18
617.973	6.25
618.308	6.22
618.642	6.17
618.977	6.12
619.311	6.15
619.646	6.09
619.98	6.05
620.314	6.05
620.648	6.05
620.983	6.02
621.317	6
621.651	5.96
621.985	6.01
622.319	6.01
622.653	6.05
622.987	6.12
623.321	6.19
623.655	6.21
623.988	6.27
624.322	6.31
624.656	6.35
624.99	6.31
625.323	6.26
625.657	6.33
625.99	6.34
626.324	6.35
626.657	6.37
626.991	6.43
627.324	6.4
627.658	6.4
627.991	6.42
628.324	6.4
628.657	6.41
628.991	6.39
629.324	6.41
629.657	6.39
629.99	6.37
630.323	6.34
630.656	6.34
630.989	6.32
631.322	6.29
631.655	6.24
631.987	6.25
632.32	6.28
632.653	6.27
632.986	6.31
633.318	6.29
633.651	6.32
633.984	6.26
634.316	6.3
634.649	6.3
634.981	6.27
635.313	6.34
635.646	6.36
635.978	6.35
636.31	6.37
636.643	6.4
636.975	6.47
637.307	6.48
637.639	6.5
637.971	6.49
638.303	6.49
638.635	6.48
638.967	6.5
639.299	6.58
639.631	6.6
639.963	6.56
640.295	6.57
640.626	6.55
640.958	6.66
641.29	6.61
641.621	6.61
641.953	6.68
642.285	6.69
642.616	6.66
642.948	6.67
643.279	6.63
643.61	6.59
643.942	6.56
644.273	6.56
644.604	6.52
644.936	6.54
645.267	6.51
645.598	6.56
645.929	6.6
646.26	6.58
646.591	6.48
646.922	6.41
647.253	6.36
647.584	6.43
647.915	6.29
648.245	6.25
648.576	6.26
648.907	6.24
649.238	6.24
649.568	6.31
649.899	6.32
650.229	6.33
650.56	6.39
650.89	6.34
651.221	6.39
651.551	6.36
651.882	6.36
652.212	6.4
652.542	6.37
652.872	6.35
653.203	6.29
653.533	6.41
653.863	6.51
654.193	6.53
654.523	6.48
654.853	6.6
655.183	6.65
655.513	6.6
655.843	6.6
656.172	6.63
656.502	6.63
656.832	6.64
657.162	6.67
657.491	6.62
657.821	6.65
658.15	6.62
658.48	6.68
658.809	6.72
659.139	6.73
659.468	6.69
659.798	6.69
660.127	6.75
660.456	6.71
660.785	6.69
661.115	6.73
661.444	6.81
661.773	6.81
662.102	6.89
662.431	6.99
662.76	6.99
663.089	7.02
663.418	6.93
663.747	6.9
664.076	6.88
664.404	6.89
664.733	6.92
665.062	6.94
665.39	6.96
665.719	6.84
666.048	6.85
666.376	6.89
666.705	6.99
667.033	6.88
667.362	6.91
667.69	6.91
668.018	6.91
668.347	6.85
668.675	6.81
669.003	6.76
669.331	6.76
669.659	6.82
669.987	6.78
670.315	6.82
670.643	6.87
670.971	6.89
671.299	6.92
671.627	6.9
671.955	6.88
672.283	6.93
672.61	6.98
672.938	7
673.266	6.96
673.593	6.95
673.921	7.04
674.249	7.09
674.576	7.03
674.904	6.96
675.231	7
675.558	7.08
675.886	7.13
676.213	7.06
676.54	7.05
676.867	7.04
677.195	7.06
677.522	7.08
677.849	7.03
678.176	7.02
678.503	6.96
678.83	7.01
679.157	6.88
