Data from BU26845_Reflection_00015.txt Node
Date: Mon Nov 18 16:28:27 EST 2019
User: vgr7
Spectrometer: USB2G7710
Scans to average: 3
Trigger mode: 4
Integration Time (sec): 2.000000E-2
Electric dark correction enabled: true
Boxcar width: 10
XAxis mode: Wavelengths
Number of Pixels in Spectrum: 2048
>>>>>Begin Spectral Data<<<<<
177.721	-7.7
178.105	16.41
178.488	128.76
178.871	272.86
179.254	126.73
179.636	73.45
180.019	33.27
180.402	120
180.785	141.96
181.168	-837.5
181.55	-526.87
181.933	135.88
182.316	213.83
182.698	263.8
183.081	293.55
183.463	545.19
183.846	338.04
184.228	286.87
184.611	229.46
184.993	932.9
185.376	668.85
185.758	-519.41
186.14	-376.91
186.522	-290.28
186.904	-181.44
187.287	-131.03
187.669	-72.58
188.051	-87.73
188.433	-65.59
188.815	-57.92
189.197	-58.85
189.579	-61.75
189.961	-48.36
190.342	-44.7
190.724	-41.04
191.106	-49.8
191.488	-42.71
191.869	-44.97
192.251	-54.81
192.633	-45.97
193.014	-49.61
193.396	-55.71
193.777	-76.31
194.159	-76.8
194.54	-79.88
194.922	-74.66
195.303	-84.11
195.684	-86.09
196.065	-57.32
196.447	-64.96
196.828	-66.45
197.209	-70.78
197.59	-80.97
197.971	-88.21
198.352	-75.8
198.733	-82.6
199.114	-49.14
199.495	-50.42
199.876	-31.28
200.257	-16.43
200.638	-20.13
201.018	-14.77
201.399	-13.78
201.78	7.21
202.16	-2.07
202.541	-5.46
202.922	-30.9
203.302	-43.99
203.683	-37.09
204.063	-59.4
204.444	-58.53
204.824	-67.94
205.204	-43.92
205.585	-26.97
205.965	-27.11
206.345	-36.31
206.725	-43.34
207.106	-70.12
207.486	-81
207.866	-97.79
208.246	-108.06
208.626	-97.2
209.006	-86.13
209.386	-91.6
209.766	-115.85
210.145	-98.51
210.525	-82.88
210.905	-68.88
211.285	-70.76
211.664	-75.09
212.044	-84.43
212.424	-90.73
212.803	-95.86
213.183	-79.99
213.562	-79.33
213.942	-70.09
214.321	-59.25
214.701	-69.37
215.08	-67.55
215.459	-64.21
215.838	-57.57
216.218	-55.62
216.597	-50.84
216.976	-68.49
217.355	-74.18
217.734	-79.87
218.113	-73.64
218.492	-69.25
218.871	-64.85
219.25	-49.6
219.629	-55.91
220.008	-56.08
220.387	-48.16
220.766	-47.49
221.144	-66.34
221.523	-70.46
221.902	-80.4
222.28	-86.65
222.659	-86.5
223.037	-73.52
223.416	-90.62
223.794	-92.7
224.173	-88.45
224.551	-73.05
224.929	-55.31
225.308	-35.54
225.686	-28.64
226.064	-18.07
226.442	-19.8
226.821	-16.37
227.199	-22.78
227.577	-21.04
227.955	-19.44
228.333	-21.98
228.711	-14.71
229.089	-10.46
229.467	-12.55
229.845	-9.91
230.222	-9.92
230.6	-6.85
230.978	-8.2
231.356	-3.92
231.733	-1.73
232.111	-1.91
232.488	-2.17
232.866	-2.12
233.243	-3.68
233.621	-4.24
233.998	-4.85
234.376	-6
234.753	-5.68
235.13	-5.24
235.508	-3.36
235.885	-3.6
236.262	-2.98
236.639	-4.16
237.016	-2.98
237.393	0.04
237.77	1.02
238.147	1.6
238.524	1.02
238.901	1.3
239.278	1.09
239.655	0.77
240.032	1.57
240.409	1.75
240.785	2.19
241.162	2.59
241.539	2.89
241.915	2.97
242.292	3.09
242.668	3
243.045	3.1
243.421	2.77
243.798	2.81
244.174	3.05
244.551	3.11
244.927	2.68
245.303	2.75
245.679	2.75
246.056	2.89
246.432	2.79
246.808	2.8
247.184	2.56
247.56	2.59
247.936	2.4
248.312	2.28
248.688	2.31
249.064	2.13
249.44	2.21
249.815	2.22
250.191	2.46
250.567	2.45
250.943	2.66
251.318	2.89
251.694	3.13
252.069	3.11
252.445	3.24
252.82	3.24
253.196	3.06
253.571	2.93
253.947	2.42
254.322	2.85
254.697	2.68
255.073	2.66
255.448	2.37
255.823	2.44
256.198	2.52
256.573	2.62
256.948	2.8
257.323	2.82
257.698	2.87
258.073	2.83
258.448	2.82
258.823	2.67
259.198	2.48
259.573	2.49
259.948	2.36
260.322	2.43
260.697	2.5
261.072	2.42
261.446	2.5
261.821	2.59
262.195	2.5
262.57	2.5
262.944	2.6
263.319	2.68
263.693	2.8
264.067	2.92
264.442	2.97
264.816	2.79
265.19	2.69
265.564	2.59
265.938	2.38
266.313	2.28
266.687	2.28
267.061	2.54
267.435	2.52
267.809	2.56
268.183	2.44
268.556	2.45
268.93	2.68
269.304	2.58
269.678	2.64
270.051	2.52
270.425	2.6
270.799	2.53
271.172	2.5
271.546	2.37
271.919	2.27
272.293	2.34
272.666	2.57
273.04	2.65
273.413	2.66
273.787	2.8
274.16	3.01
274.533	2.96
274.906	2.8
275.279	2.81
275.653	2.69
276.026	2.62
276.399	2.79
276.772	2.6
277.145	2.63
277.518	2.78
277.891	2.85
278.263	2.76
278.636	2.8
279.009	2.8
279.382	3.01
279.755	3.02
280.127	2.91
280.5	2.86
280.872	2.91
281.245	2.96
281.617	3.04
281.99	3.1
282.362	3.24
282.735	3.12
283.107	3.14
283.479	3.27
283.852	3.23
284.224	3.1
284.596	3
284.968	3.06
285.34	3.09
285.713	2.98
286.085	3.09
286.457	3.16
286.829	3.26
287.201	3.13
287.572	3.08
287.944	2.99
288.316	3.07
288.688	3
289.06	2.97
289.431	2.9
289.803	2.83
290.175	2.78
290.546	3.01
290.918	2.93
291.289	2.99
291.661	3.15
292.032	3.27
292.403	3.45
292.775	3.47
293.146	3.41
293.517	3.59
293.889	3.65
294.26	3.6
294.631	3.7
295.002	3.71
295.373	3.79
295.744	3.89
296.115	3.92
296.486	3.86
296.857	3.97
297.228	4.1
297.599	4.03
297.97	4.04
298.34	3.98
298.711	4.09
299.082	4.09
299.452	4
299.823	4.08
300.194	4.09
300.564	4
300.935	4.1
301.305	4.12
301.676	4.04
302.046	4.19
302.416	4.17
302.787	4.29
303.157	4.4
303.527	4.41
303.897	4.45
304.267	4.74
304.637	4.78
305.008	4.88
305.378	5.21
305.748	5.35
306.117	5.4
306.487	5.44
306.857	5.6
307.227	5.69
307.597	5.68
307.967	5.83
308.336	5.94
308.706	5.95
309.076	5.97
309.445	6.08
309.815	6.1
310.184	6.11
310.554	6.18
310.923	6.13
311.293	6.15
311.662	6.27
312.031	6.19
312.401	6.24
312.77	6.31
313.139	6.24
313.508	6.24
313.877	6.27
314.246	6.31
314.616	6.24
314.985	6.33
315.353	6.35
315.722	6.42
316.091	6.37
316.46	6.37
316.829	6.53
317.198	6.6
317.567	6.57
317.935	6.67
318.304	6.72
318.672	6.74
319.041	6.91
319.41	6.76
319.778	6.77
320.147	6.66
320.515	6.65
320.883	6.57
321.252	6.72
321.62	6.83
321.988	6.79
322.357	7
322.725	7.04
323.093	7.09
323.461	7.08
323.829	7.23
324.197	7.37
324.565	7.33
324.933	7.36
325.301	7.53
325.669	7.6
326.037	7.68
326.405	7.8
326.772	7.8
327.14	7.88
327.508	7.92
327.875	7.97
328.243	8.02
328.61	8.07
328.978	7.96
329.346	8.07
329.713	8.13
330.08	8.08
330.448	8.08
330.815	8.03
331.182	8
331.55	8.07
331.917	8.06
332.284	8.26
332.651	8.32
333.018	8.32
333.385	8.35
333.752	8.43
334.119	8.41
334.486	8.46
334.853	8.44
335.22	8.53
335.587	8.71
335.954	8.71
336.32	8.81
336.687	9.03
337.054	8.99
337.42	9.07
337.787	9.19
338.153	9.32
338.52	9.52
338.886	9.5
339.253	9.46
339.619	9.55
339.986	9.53
340.352	9.59
340.718	9.61
341.084	9.66
341.451	9.64
341.817	9.75
342.183	9.82
342.549	9.89
342.915	9.93
343.281	9.87
343.647	9.88
344.013	9.88
344.379	9.77
344.745	9.91
345.11	9.93
345.476	9.86
345.842	9.9
346.208	9.86
346.573	10
346.939	10.07
347.304	10.09
347.67	10.04
348.035	10.1
348.401	10.16
348.766	10.17
349.132	10.21
349.497	10.18
349.862	10.23
350.228	10.33
350.593	10.21
350.958	10.27
351.323	10.31
351.688	10.31
352.053	10.42
352.418	10.38
352.783	10.37
353.148	10.36
353.513	10.3
353.878	10.31
354.243	10.32
354.608	10.37
354.972	10.3
355.337	10.37
355.702	10.35
356.066	10.43
356.431	10.35
356.795	10.36
357.16	10.38
357.524	10.23
357.889	10.12
358.253	10.22
358.618	10.22
358.982	10.09
359.346	10.03
359.71	9.98
360.075	9.98
360.439	9.98
360.803	9.98
361.167	9.93
361.531	9.9
361.895	9.84
362.259	9.81
362.623	9.83
362.987	9.74
363.351	9.66
363.714	9.57
364.078	9.56
364.442	9.5
364.806	9.41
365.169	9.43
365.533	9.42
365.896	9.28
366.26	9.18
366.623	9.21
366.987	9.23
367.35	9.22
367.714	9.13
368.077	9.05
368.44	9.07
368.803	9.01
369.167	8.96
369.53	8.88
369.893	8.77
370.256	8.68
370.619	8.67
370.982	8.59
371.345	8.48
371.708	8.4
372.071	8.33
372.434	8.31
372.797	8.23
373.159	8.13
373.522	8.12
373.885	8.08
374.247	7.99
374.61	7.91
374.973	7.82
375.335	7.75
375.698	7.7
376.06	7.59
376.423	7.64
376.785	7.58
377.147	7.53
377.51	7.51
377.872	7.43
378.234	7.37
378.596	7.39
378.958	7.36
379.321	7.33
379.683	7.31
380.045	7.22
380.407	7.17
380.769	7.09
381.13	7.07
381.492	7.04
381.854	7.08
382.216	7.06
382.578	7.04
382.939	7
383.301	6.98
383.663	6.93
384.024	6.82
384.386	6.8
384.747	6.8
385.109	6.8
385.47	6.79
385.832	6.74
386.193	6.71
386.554	6.67
386.916	6.67
387.277	6.62
387.638	6.63
387.999	6.59
388.36	6.62
388.721	6.58
389.082	6.52
389.443	6.38
389.804	6.33
390.165	6.31
390.526	6.26
390.887	6.2
391.248	6.24
391.609	6.22
391.969	6.19
392.33	6.11
392.691	6.03
393.051	5.98
393.412	5.94
393.772	5.86
394.133	5.85
394.493	5.77
394.854	5.73
395.214	5.7
395.574	5.68
395.935	5.67
396.295	5.64
396.655	5.61
397.015	5.6
397.376	5.53
397.736	5.46
398.096	5.43
398.456	5.38
398.816	5.26
399.176	5.19
399.535	5.14
399.895	5.15
400.255	5.13
400.615	5.11
400.975	5.1
401.334	5.08
401.694	4.97
402.054	4.96
402.413	4.94
402.773	4.91
403.132	4.9
403.492	4.83
403.851	4.79
404.211	4.81
404.57	4.8
404.929	4.8
405.288	4.77
405.648	4.77
406.007	4.76
406.366	4.76
406.725	4.79
407.084	4.76
407.443	4.73
407.802	4.72
408.161	4.7
408.52	4.66
408.879	4.64
409.238	4.7
409.596	4.69
409.955	4.68
410.314	4.7
410.673	4.63
411.031	4.63
411.39	4.62
411.748	4.58
412.107	4.56
412.465	4.55
412.824	4.53
413.182	4.49
413.54	4.5
413.899	4.51
414.257	4.48
414.615	4.48
414.974	4.47
415.332	4.45
415.69	4.45
416.048	4.44
416.406	4.42
416.764	4.38
417.122	4.37
417.48	4.34
417.838	4.29
418.195	4.29
418.553	4.27
418.911	4.25
419.269	4.23
419.626	4.21
419.984	4.2
420.342	4.2
420.699	4.19
421.057	4.17
421.414	4.14
421.772	4.13
422.129	4.12
422.486	4.09
422.844	4.08
423.201	4.05
423.558	4.04
423.915	4.03
424.273	4.02
424.63	4
424.987	4
425.344	3.98
425.701	3.96
426.058	3.95
426.415	3.95
426.772	3.94
427.128	3.92
427.485	3.9
427.842	3.89
428.199	3.86
428.555	3.84
428.912	3.85
429.269	3.82
429.625	3.79
429.982	3.81
430.338	3.81
430.695	3.83
431.051	3.81
431.407	3.8
431.764	3.8
432.12	3.78
432.476	3.78
432.832	3.8
433.189	3.81
433.545	3.81
433.901	3.78
434.257	3.79
434.613	3.8
434.969	3.82
435.325	3.82
435.681	3.83
436.036	3.82
436.392	3.83
436.748	3.82
437.104	3.82
437.459	3.79
437.815	3.78
438.171	3.77
438.526	3.78
438.882	3.79
439.237	3.81
439.593	3.83
439.948	3.84
440.304	3.83
440.659	3.85
441.014	3.85
441.369	3.84
441.725	3.83
442.08	3.83
442.435	3.81
442.79	3.81
443.145	3.82
443.5	3.82
443.855	3.8
444.21	3.79
444.565	3.81
444.92	3.82
445.275	3.79
445.629	3.79
445.984	3.79
446.339	3.76
446.693	3.73
447.048	3.69
447.403	3.67
447.757	3.66
448.112	3.62
448.466	3.62
448.82	3.62
449.175	3.62
449.529	3.59
449.883	3.57
450.238	3.56
450.592	3.56
450.946	3.54
451.3	3.54
451.654	3.54
452.008	3.52
452.362	3.5
452.716	3.51
453.07	3.49
453.424	3.49
453.778	3.5
454.132	3.51
454.486	3.52
454.839	3.53
455.193	3.53
455.547	3.56
455.9	3.57
456.254	3.57
456.607	3.57
456.961	3.6
457.314	3.62
457.668	3.61
458.021	3.6
458.375	3.6
458.728	3.61
459.081	3.63
459.434	3.63
459.787	3.64
460.141	3.66
460.494	3.68
460.847	3.69
461.2	3.7
461.553	3.71
461.906	3.73
462.259	3.73
462.611	3.75
462.964	3.75
463.317	3.75
463.67	3.76
464.022	3.77
464.375	3.77
464.728	3.82
465.08	3.83
465.433	3.84
465.785	3.87
466.138	3.88
466.49	3.9
466.843	3.91
467.195	3.93
467.547	3.93
467.899	3.96
468.252	3.97
468.604	3.99
468.956	4.01
469.308	4.01
469.66	4.02
470.012	4.03
470.364	4.04
470.716	4.05
471.068	4.08
471.42	4.11
471.772	4.14
472.123	4.13
472.475	4.16
472.827	4.18
473.178	4.18
473.53	4.18
473.882	4.18
474.233	4.18
474.585	4.18
474.936	4.17
475.288	4.16
475.639	4.16
475.99	4.15
476.342	4.15
476.693	4.15
477.044	4.14
477.395	4.12
477.746	4.11
478.097	4.1
478.448	4.07
478.8	4.04
479.15	4.01
479.501	4.01
479.852	3.98
480.203	3.98
480.554	3.98
480.905	3.98
481.255	3.97
481.606	3.97
481.957	3.98
482.307	3.99
482.658	3.98
483.009	3.97
483.359	3.97
483.709	3.97
484.06	3.96
484.41	3.97
484.761	3.99
485.111	3.99
485.461	3.99
485.811	4
486.162	4.01
486.512	4.02
486.862	4.02
487.212	4.02
487.562	4.01
487.912	4.02
488.262	4.03
488.612	4.05
488.961	4.06
489.311	4.06
489.661	4.07
490.011	4.09
490.36	4.11
490.71	4.12
491.06	4.15
491.409	4.17
491.759	4.18
492.108	4.19
492.458	4.22
492.807	4.24
493.157	4.25
493.506	4.28
493.855	4.31
494.204	4.35
494.554	4.39
494.903	4.43
495.252	4.46
495.601	4.5
495.95	4.54
496.299	4.59
496.648	4.65
496.997	4.71
497.346	4.77
497.695	4.82
498.043	4.87
498.392	4.91
498.741	4.98
499.09	5.05
499.438	5.1
499.787	5.18
500.135	5.28
500.484	5.38
500.832	5.48
501.181	5.59
501.529	5.67
501.878	5.79
502.226	5.93
502.574	6.04
502.923	6.15
503.271	6.28
503.619	6.4
503.967	6.54
504.315	6.65
504.663	6.83
505.011	7.01
505.359	7.18
505.707	7.36
506.055	7.52
506.403	7.71
506.751	7.92
507.098	8.09
507.446	8.3
507.794	8.5
508.141	8.7
508.489	8.91
508.837	9.13
509.184	9.36
509.531	9.59
509.879	9.83
510.226	10.09
510.574	10.32
510.921	10.57
511.268	10.8
511.616	11.09
511.963	11.34
512.31	11.61
512.657	11.9
513.004	12.22
513.351	12.55
513.698	12.88
514.045	13.2
514.392	13.57
514.739	13.9
515.086	14.24
515.432	14.56
515.779	14.91
516.126	15.23
516.473	15.58
516.819	15.88
517.166	16.21
517.512	16.48
517.859	16.8
518.205	17.08
518.552	17.37
518.898	17.63
519.245	17.91
519.591	18.16
519.937	18.44
520.283	18.71
520.629	19
520.976	19.3
521.322	19.67
521.668	20.04
522.014	20.37
522.36	20.73
522.706	21.12
523.052	21.47
523.398	21.86
523.743	22.22
524.089	22.62
524.435	22.96
524.781	23.31
525.126	23.61
525.472	23.91
525.817	24.21
526.163	24.47
526.509	24.73
526.854	24.96
527.199	25.18
527.545	25.43
527.89	25.63
528.235	25.83
528.581	26
528.926	26.16
529.271	26.37
529.616	26.55
529.961	26.75
530.306	26.96
530.651	27.19
530.996	27.41
531.341	27.62
531.686	27.85
532.031	28.11
532.376	28.33
532.721	28.57
533.065	28.76
533.41	29.01
533.755	29.23
534.099	29.46
534.444	29.69
534.788	29.85
535.133	30.06
535.477	30.27
535.822	30.52
536.166	30.76
536.51	31
536.855	31.3
537.199	31.53
537.543	31.77
537.887	32
538.231	32.28
538.576	32.55
538.92	32.78
539.264	33
539.608	33.23
539.951	33.43
540.295	33.62
540.639	33.81
540.983	33.97
541.327	34.15
541.671	34.33
542.014	34.5
542.358	34.66
542.701	34.83
543.045	34.96
543.389	35.1
543.732	35.26
544.075	35.38
544.419	35.58
544.762	35.73
545.105	35.9
545.449	36.06
545.792	36.23
546.135	36.41
546.478	36.57
546.821	36.78
547.165	37
547.508	37.22
547.851	37.4
548.194	37.61
548.536	37.8
548.879	38.02
549.222	38.23
549.565	38.45
549.908	38.67
550.25	38.92
550.593	39.16
550.936	39.33
551.278	39.51
551.621	39.65
551.963	39.86
552.306	40.05
552.648	40.2
552.991	40.37
553.333	40.58
553.675	40.76
554.017	40.88
554.36	40.98
554.702	41.17
555.044	41.33
555.386	41.46
555.728	41.63
556.07	41.77
556.412	41.92
556.754	42.05
557.096	42.15
557.438	42.22
557.78	42.3
558.121	42.45
558.463	42.55
558.805	42.64
559.147	42.77
559.488	42.85
559.83	42.96
560.171	43.1
560.513	43.16
560.854	43.28
561.196	43.37
561.537	43.45
561.878	43.45
562.22	43.57
562.561	43.66
562.902	43.71
563.243	43.77
563.584	43.82
563.925	43.81
564.266	43.86
564.607	43.97
564.948	44.03
565.289	44.1
565.63	44.24
565.971	44.33
566.312	44.4
566.653	44.57
566.993	44.64
567.334	44.69
567.675	44.78
568.015	44.86
568.356	44.95
568.696	45.06
569.037	45.19
569.377	45.3
569.718	45.38
570.058	45.47
570.398	45.55
570.739	45.71
571.079	45.84
571.419	45.96
571.759	46.03
572.099	46.21
572.439	46.28
572.779	46.34
573.119	46.41
573.459	46.45
573.799	46.46
574.139	46.52
574.479	46.63
574.819	46.71
575.158	46.77
575.498	46.81
575.838	46.89
576.177	46.93
576.517	46.97
576.856	47.02
577.196	47.14
577.535	47.22
577.875	47.26
578.214	47.32
578.553	47.37
578.893	47.49
579.232	47.49
579.571	47.53
579.91	47.58
580.25	47.63
580.589	47.75
580.928	47.83
581.267	47.9
581.606	47.96
581.945	48
582.283	48.01
582.622	48.08
582.961	48.19
583.3	48.24
583.639	48.29
583.977	48.36
584.316	48.4
584.654	48.47
584.993	48.52
585.332	48.57
585.67	48.7
586.008	48.71
586.347	48.66
586.685	48.75
587.024	48.82
587.362	48.89
587.7	48.9
588.038	48.91
588.376	48.91
588.715	48.87
589.053	48.93
589.391	48.98
589.729	49.1
590.067	49.04
590.404	49.16
590.742	49.15
591.08	49.25
591.418	49.31
591.756	49.27
592.093	49.31
592.431	49.36
592.769	49.32
593.106	49.39
593.444	49.46
593.781	49.42
594.119	49.48
594.456	49.53
594.793	49.56
595.131	49.6
595.468	49.7
595.805	49.78
596.143	49.77
596.48	49.84
596.817	49.84
597.154	49.9
597.491	49.88
597.828	49.87
598.165	49.83
598.502	49.85
598.839	49.89
599.176	49.85
599.512	49.85
599.849	49.89
600.186	49.87
600.523	49.94
600.859	49.99
601.196	49.96
601.532	49.96
601.869	50.03
602.205	50.06
602.542	50.09
602.878	50.1
603.215	50.2
603.551	50.15
603.887	50.22
604.223	50.24
604.56	50.28
604.896	50.34
605.232	50.38
605.568	50.37
605.904	50.41
606.24	50.49
606.576	50.56
606.912	50.59
607.248	50.61
607.583	50.67
607.919	50.76
608.255	50.79
608.591	50.79
608.926	50.76
609.262	50.86
609.597	50.81
609.933	50.83
610.268	50.81
610.604	50.87
610.939	50.8
611.275	50.84
611.61	50.88
611.945	50.93
612.281	50.95
612.616	50.92
612.951	51.03
613.286	51.02
613.621	51.03
613.956	51.06
614.291	51.08
614.626	51.07
614.961	51.04
615.296	51.07
615.631	51.13
615.966	51.22
616.3	51.21
616.635	51.16
616.97	51.16
617.304	51.15
617.639	51.2
617.973	51.28
618.308	51.34
618.642	51.27
618.977	51.27
619.311	51.21
619.646	51.27
619.98	51.27
620.314	51.35
620.648	51.33
620.983	51.41
621.317	51.47
621.651	51.46
621.985	51.46
622.319	51.54
622.653	51.61
622.987	51.65
623.321	51.64
623.655	51.88
623.988	51.92
624.322	51.99
624.656	52.02
624.99	52
625.323	51.94
625.657	51.99
625.99	51.99
626.324	52.05
626.657	52.06
626.991	51.98
627.324	51.98
627.658	52
627.991	52
628.324	52.07
628.657	52.14
628.991	52.21
629.324	52.19
629.657	52.16
629.99	52.17
630.323	52.16
630.656	52.15
630.989	52.13
631.322	52.11
631.655	52.15
631.987	52.16
632.32	52.16
632.653	52.14
632.986	52.21
633.318	52.23
633.651	52.34
633.984	52.49
634.316	52.45
634.649	52.55
634.981	52.49
635.313	52.48
635.646	52.54
635.978	52.49
636.31	52.48
636.643	52.56
636.975	52.54
637.307	52.62
637.639	52.65
637.971	52.73
638.303	52.73
638.635	52.78
638.967	52.76
639.299	52.85
639.631	52.92
639.963	52.87
640.295	53.01
640.626	52.88
640.958	52.83
641.29	52.92
641.621	52.9
641.953	53
642.285	52.97
642.616	52.88
642.948	53.09
643.279	53.17
643.61	53.15
643.942	53.15
644.273	53.07
644.604	52.97
644.936	52.99
645.267	53.04
645.598	52.91
645.929	52.93
646.26	52.82
646.591	52.73
646.922	52.76
647.253	52.64
647.584	52.7
647.915	52.76
648.245	52.82
648.576	52.82
648.907	52.79
649.238	52.86
649.568	52.89
649.899	52.75
650.229	52.76
650.56	52.8
650.89	52.83
651.221	52.85
651.551	52.9
651.882	52.81
652.212	52.76
652.542	52.75
652.872	52.7
653.203	52.7
653.533	52.77
653.863	52.83
654.193	52.81
654.523	52.74
654.853	52.58
655.183	52.47
655.513	52.5
655.843	52.57
656.172	52.52
656.502	52.44
656.832	52.39
657.162	52.28
657.491	52.23
657.821	52.24
658.15	52.26
658.48	52.25
658.809	52.3
659.139	52.33
659.468	52.48
659.798	52.52
660.127	52.56
660.456	52.57
660.785	52.51
661.115	52.56
661.444	52.63
661.773	52.7
662.102	52.83
662.431	52.79
662.76	52.66
663.089	52.63
663.418	52.67
663.747	52.76
664.076	52.84
664.404	52.91
664.733	52.89
665.062	52.9
665.39	52.85
665.719	52.87
666.048	52.83
666.376	52.75
