Data from BU26845_Reflection_00012.txt Node
Date: Mon Nov 18 16:28:14 EST 2019
User: vgr7
Spectrometer: USB2G7710
Scans to average: 3
Trigger mode: 4
Integration Time (sec): 2.000000E-2
Electric dark correction enabled: true
Boxcar width: 10
XAxis mode: Wavelengths
Number of Pixels in Spectrum: 2048
>>>>>Begin Spectral Data<<<<<
177.721	-105.95
178.105	-33.13
178.488	-88.14
178.871	-43.12
179.254	10.91
179.636	11.5
180.019	-61.78
180.402	136
180.785	869.23
181.168	-1337.5
181.55	-914.93
181.933	129.24
182.316	125.3
182.698	168.76
183.081	151.61
183.463	204.55
183.846	39.32
184.228	-24.58
184.611	-47.72
184.993	-49.1
185.376	-112.19
185.758	-32.51
186.14	-69.71
186.522	-25.8
186.904	-29.4
187.287	-27.36
187.669	-15.57
188.051	-12.24
188.433	-10.81
188.815	-2.63
189.197	-9.01
189.579	-5.48
189.961	0.17
190.342	-8.6
190.724	2.68
191.106	-3.93
191.488	-6.67
191.869	-16.23
192.251	-25.55
192.633	-33.26
193.014	-29.47
193.396	-37.81
193.777	-31.52
194.159	-30.4
194.54	-27.94
194.922	-21.29
195.303	-20.41
195.684	-27.53
196.065	-22.48
196.447	-22.98
196.828	-27.72
197.209	-26.82
197.59	-32.04
197.971	-43.27
198.352	-30.76
198.733	-32.53
199.114	-24.48
199.495	-11.95
199.876	-5.79
200.257	-0.4
200.638	10.74
201.018	4.73
201.399	7.61
201.78	17.29
202.16	9.82
202.541	12.35
202.922	-11.81
203.302	-24.9
203.683	-34.3
204.063	-48.25
204.444	-55.42
204.824	-48.62
205.204	-23.18
205.585	-27.65
205.965	-34.29
206.345	-30.54
206.725	-54.98
207.106	-72.67
207.486	-91.71
207.866	-78.21
208.246	-83.25
208.626	-70.08
209.006	-69.68
209.386	-67.59
209.766	-96.92
210.145	-77.42
210.525	-60.42
210.905	-42.29
211.285	-34.64
211.664	-12.7
212.044	-2.33
212.424	-1.24
212.803	-7.42
213.183	-9.59
213.562	-3.49
213.942	15.1
214.321	17.91
214.701	20.77
215.08	23.62
215.459	29.45
215.838	30.28
216.218	38.4
216.597	47.68
216.976	48.21
217.355	36.17
217.734	33.34
218.113	35.27
218.492	30.71
218.871	19.96
219.25	7.39
219.629	-4.2
220.008	-1.68
220.387	0.22
220.766	7.1
221.144	8.8
221.523	-2.01
221.902	-14.47
222.28	-20.43
222.659	-8.52
223.037	-10.17
223.416	-3.93
223.794	-15.54
224.173	-26.76
224.551	-21.45
224.929	-13.61
225.308	-1.01
225.686	-0.26
226.064	-1.31
226.442	-4.74
226.821	3.44
227.199	8.22
227.577	7.94
227.955	5.43
228.333	4.62
228.711	4.3
229.089	6.77
229.467	4.64
229.845	2.18
230.222	3.56
230.6	2.47
230.978	3.14
231.356	3.62
231.733	5.81
232.111	8.5
232.488	7.93
232.866	5.89
233.243	3.89
233.621	4.25
233.998	4.33
234.376	4.47
234.753	2.41
235.13	0.87
235.508	1.59
235.885	1.21
236.262	0.98
236.639	-0.37
237.016	-1.96
237.393	0.36
237.77	2.1
238.147	2.27
238.524	2
238.901	2.93
239.278	2.88
239.655	2.83
240.032	1.75
240.409	1.79
240.785	2.29
241.162	2.52
241.539	2.77
241.915	2.66
242.292	2.54
242.668	2.86
243.045	3.24
243.421	3.18
243.798	3.36
244.174	3.56
244.551	3.61
244.927	3.8
245.303	3.81
245.679	3.54
246.056	3.4
246.432	3.47
246.808	3.08
247.184	2.91
247.56	2.94
247.936	3.18
248.312	3.19
248.688	3.12
249.064	3.36
249.44	3.14
249.815	3.44
250.191	3.57
250.567	3.49
250.943	3.22
251.318	3.26
251.694	3.12
252.069	3.1
252.445	3.37
252.82	3.28
253.196	3.36
253.571	3.38
253.947	3.43
254.322	3.78
254.697	3.87
255.073	3.76
255.448	3.34
255.823	2.86
256.198	2.61
256.573	2.55
256.948	2.3
257.323	2.45
257.698	2.25
258.073	2.17
258.448	2.36
258.823	2.6
259.198	2.61
259.573	2.66
259.948	2.59
260.322	2.73
260.697	2.74
261.072	2.56
261.446	2.51
261.821	2.47
262.195	2.18
262.57	2.12
262.944	2.16
263.319	2.26
263.693	2.34
264.067	2.49
264.442	2.48
264.816	2.51
265.19	2.42
265.564	2.28
265.938	2.32
266.313	2.13
266.687	1.97
267.061	2.01
267.435	2.13
267.809	1.99
268.183	1.82
268.556	1.77
268.93	1.85
269.304	2.12
269.678	2.28
270.051	2.39
270.425	2.52
270.799	2.6
271.172	2.67
271.546	2.7
271.919	2.62
272.293	2.68
272.666	2.64
273.04	2.78
273.413	2.77
273.787	2.82
274.16	2.9
274.533	2.82
274.906	2.77
275.279	2.66
275.653	2.78
276.026	2.64
276.399	2.66
276.772	2.79
277.145	2.59
277.518	2.38
277.891	2.26
278.263	2.16
278.636	2.15
279.009	2.16
279.382	2.28
279.755	2.19
280.127	2.4
280.5	2.63
280.872	2.56
281.245	2.81
281.617	2.8
281.99	2.83
282.362	2.96
282.735	3.01
283.107	3.05
283.479	3.01
283.852	3.18
284.224	3.12
284.596	2.88
284.968	2.99
285.34	3.09
285.713	3.12
286.085	3.22
286.457	3.25
286.829	3.27
287.201	3.34
287.572	3.39
287.944	3.3
288.316	3.2
288.688	3.15
289.06	3.02
289.431	3.02
289.803	2.97
290.175	2.99
290.546	3
290.918	2.92
291.289	2.97
291.661	2.98
292.032	3.1
292.403	3.23
292.775	3.36
293.146	3.32
293.517	3.38
293.889	3.38
294.26	3.36
294.631	3.4
295.002	3.28
295.373	3.32
295.744	3.23
296.115	3.31
296.486	3.31
296.857	3.46
297.228	3.56
297.599	3.59
297.97	3.52
298.34	3.59
298.711	3.7
299.082	3.6
299.452	3.55
299.823	3.59
300.194	3.73
300.564	3.58
300.935	3.73
301.305	3.73
301.676	3.74
302.046	3.73
302.416	3.69
302.787	3.76
303.157	3.84
303.527	3.93
303.897	3.98
304.267	4.17
304.637	4.06
305.008	4.01
305.378	4.13
305.748	4.23
306.117	4.18
306.487	4.22
306.857	4.46
307.227	4.58
307.597	4.56
307.967	4.48
308.336	4.53
308.706	4.49
309.076	4.69
309.445	4.75
309.815	4.79
310.184	4.84
310.554	5.05
310.923	4.96
311.293	4.98
311.662	5.02
312.031	5.01
312.401	5.05
312.77	5.09
313.139	5.04
313.508	5.12
313.877	5.12
314.246	5.15
314.616	5.16
314.985	5.18
315.353	5.12
315.722	5.29
316.091	5.34
316.46	5.38
316.829	5.41
317.198	5.41
317.567	5.49
317.935	5.47
318.304	5.32
318.672	5.55
319.041	5.71
319.41	5.78
319.778	5.79
320.147	5.94
320.515	6.06
320.883	6.22
321.252	6.39
321.62	6.56
321.988	6.64
322.357	6.76
322.725	6.68
323.093	6.98
323.461	6.93
323.829	7.05
324.197	7.08
324.565	7.04
324.933	7.2
325.301	7.25
325.669	7.3
326.037	7.33
326.405	7.28
326.772	7.18
327.14	7.28
327.508	7.31
327.875	7.27
328.243	7.36
328.61	7.34
328.978	7.31
329.346	7.32
329.713	7.21
330.08	7.21
330.448	7.25
330.815	7.08
331.182	7.24
331.55	7.22
331.917	7.32
332.284	7.31
332.651	7.2
333.018	7.33
333.385	7.26
333.752	7.46
334.119	7.52
334.486	7.56
334.853	7.49
335.22	7.6
335.587	7.71
335.954	7.73
336.32	7.79
336.687	7.75
337.054	7.69
337.42	7.75
337.787	7.7
338.153	7.75
338.52	7.88
338.886	7.85
339.253	7.88
339.619	7.95
339.986	8.01
340.352	8.07
340.718	7.99
341.084	8.16
341.451	8.16
341.817	8.27
342.183	8.36
342.549	8.37
342.915	8.42
343.281	8.43
343.647	8.34
344.013	8.32
344.379	8.3
344.745	8.44
345.11	8.55
345.476	8.56
345.842	8.54
346.208	8.54
346.573	8.44
346.939	8.5
347.304	8.45
347.67	8.41
348.035	8.41
348.401	8.52
348.766	8.55
349.132	8.52
349.497	8.46
349.862	8.48
350.228	8.51
350.593	8.35
350.958	8.35
351.323	8.35
351.688	8.37
352.053	8.46
352.418	8.43
352.783	8.35
353.148	8.37
353.513	8.4
353.878	8.38
354.243	8.53
354.608	8.53
354.972	8.52
355.337	8.56
355.702	8.63
356.066	8.62
356.431	8.58
356.795	8.6
357.16	8.58
357.524	8.57
357.889	8.51
358.253	8.61
358.618	8.69
358.982	8.67
359.346	8.64
359.71	8.59
360.075	8.59
360.439	8.59
360.803	8.61
361.167	8.57
361.531	8.58
361.895	8.47
362.259	8.4
362.623	8.42
362.987	8.4
363.351	8.39
363.714	8.35
364.078	8.34
364.442	8.27
364.806	8.25
365.169	8.24
365.533	8.25
365.896	8.16
366.26	8.02
366.623	8.05
366.987	8.06
367.35	8.06
367.714	8.02
368.077	7.96
368.44	7.87
368.803	7.82
369.167	7.65
369.53	7.66
369.893	7.65
370.256	7.57
370.619	7.47
370.982	7.29
371.345	7.25
371.708	7.2
372.071	7.15
372.434	7.08
372.797	7.04
373.159	6.96
373.522	6.98
373.885	6.92
374.247	6.85
374.61	6.76
374.973	6.73
375.335	6.64
375.698	6.61
376.06	6.56
376.423	6.51
376.785	6.53
377.147	6.51
377.51	6.46
377.872	6.42
378.234	6.44
378.596	6.5
378.958	6.43
379.321	6.35
379.683	6.33
380.045	6.31
380.407	6.22
380.769	6.2
381.13	6.13
381.492	6.1
381.854	6.04
382.216	5.97
382.578	5.91
382.939	5.86
383.301	5.8
383.663	5.77
384.024	5.75
384.386	5.73
384.747	5.65
385.109	5.6
385.47	5.54
385.832	5.47
386.193	5.44
386.554	5.44
386.916	5.42
387.277	5.31
387.638	5.25
387.999	5.22
388.36	5.2
388.721	5.23
389.082	5.17
389.443	5.12
389.804	5.12
390.165	5.03
390.526	5.02
390.887	4.97
391.248	4.98
391.609	4.96
391.969	4.91
392.33	4.87
392.691	4.84
393.051	4.78
393.412	4.73
393.772	4.66
394.133	4.6
394.493	4.53
394.854	4.54
395.214	4.51
395.574	4.49
395.935	4.43
396.295	4.34
396.655	4.29
397.015	4.23
397.376	4.17
397.736	4.12
398.096	4.07
398.456	4.05
398.816	3.96
399.176	3.89
399.535	3.84
399.895	3.8
400.255	3.79
400.615	3.81
400.975	3.76
401.334	3.72
401.694	3.71
402.054	3.7
402.413	3.66
402.773	3.64
403.132	3.57
403.492	3.54
403.851	3.5
404.211	3.52
404.57	3.5
404.929	3.49
405.288	3.52
405.648	3.49
406.007	3.48
406.366	3.46
406.725	3.49
407.084	3.51
407.443	3.49
407.802	3.46
408.161	3.44
408.52	3.43
408.879	3.41
409.238	3.37
409.596	3.36
409.955	3.35
410.314	3.34
410.673	3.31
411.031	3.32
411.39	3.32
411.748	3.33
412.107	3.33
412.465	3.31
412.824	3.28
413.182	3.26
413.54	3.23
413.899	3.27
414.257	3.21
414.615	3.18
414.974	3.19
415.332	3.16
415.69	3.14
416.048	3.16
416.406	3.16
416.764	3.15
417.122	3.16
417.48	3.12
417.838	3.1
418.195	3.09
418.553	3.08
418.911	3.06
419.269	3.03
419.626	3
419.984	2.98
420.342	2.98
420.699	2.97
421.057	2.97
421.414	2.94
421.772	2.93
422.129	2.92
422.486	2.9
422.844	2.9
423.201	2.88
423.558	2.86
423.915	2.84
424.273	2.83
424.63	2.82
424.987	2.81
425.344	2.82
425.701	2.82
426.058	2.8
426.415	2.81
426.772	2.81
427.128	2.81
427.485	2.81
427.842	2.81
428.199	2.81
428.555	2.8
428.912	2.81
429.269	2.82
429.625	2.83
429.982	2.79
430.338	2.78
430.695	2.79
431.051	2.8
431.407	2.79
431.764	2.78
432.12	2.77
432.476	2.8
432.832	2.8
433.189	2.79
433.545	2.78
433.901	2.77
434.257	2.75
434.613	2.78
434.969	2.78
435.325	2.77
435.681	2.78
436.036	2.78
436.392	2.78
436.748	2.78
437.104	2.78
437.459	2.81
437.815	2.82
438.171	2.83
438.526	2.83
438.882	2.84
439.237	2.86
439.593	2.87
439.948	2.85
440.304	2.85
440.659	2.86
441.014	2.88
441.369	2.87
441.725	2.86
442.08	2.83
442.435	2.82
442.79	2.83
443.145	2.81
443.5	2.81
443.855	2.79
444.21	2.78
444.565	2.77
444.92	2.77
445.275	2.76
445.629	2.73
445.984	2.74
446.339	2.72
446.693	2.68
447.048	2.66
447.403	2.66
447.757	2.64
448.112	2.62
448.466	2.6
448.82	2.62
449.175	2.62
449.529	2.62
449.883	2.62
450.238	2.59
450.592	2.59
450.946	2.58
451.3	2.57
451.654	2.56
452.008	2.57
452.362	2.55
452.716	2.55
453.07	2.57
453.424	2.54
453.778	2.54
454.132	2.54
454.486	2.54
454.839	2.55
455.193	2.54
455.547	2.54
455.9	2.55
456.254	2.56
456.607	2.57
456.961	2.58
457.314	2.58
457.668	2.6
458.021	2.58
458.375	2.61
458.728	2.62
459.081	2.62
459.434	2.6
459.787	2.6
460.141	2.59
460.494	2.6
460.847	2.63
461.2	2.64
461.553	2.68
461.906	2.69
462.259	2.7
462.611	2.73
462.964	2.75
463.317	2.75
463.67	2.73
464.022	2.74
464.375	2.74
464.728	2.75
465.08	2.79
465.433	2.8
465.785	2.8
466.138	2.81
466.49	2.82
466.843	2.87
467.195	2.89
467.547	2.94
467.899	2.93
468.252	2.92
468.604	2.93
468.956	2.92
469.308	2.93
469.66	2.92
470.012	2.95
470.364	2.95
470.716	2.96
471.068	3.01
471.42	3.03
471.772	3.05
472.123	3.07
472.475	3.06
472.827	3.07
473.178	3.07
473.53	3.08
473.882	3.08
474.233	3.08
474.585	3.07
474.936	3.06
475.288	3.07
475.639	3.08
475.99	3.07
476.342	3.08
476.693	3.06
477.044	3.06
477.395	3.02
477.746	3.03
478.097	3.01
478.448	2.97
478.8	2.93
479.15	2.91
479.501	2.88
479.852	2.87
480.203	2.86
480.554	2.85
480.905	2.83
481.255	2.83
481.606	2.82
481.957	2.82
482.307	2.81
482.658	2.81
483.009	2.81
483.359	2.8
483.709	2.8
484.06	2.8
484.41	2.8
484.761	2.8
485.111	2.81
485.461	2.81
485.811	2.82
486.162	2.83
486.512	2.83
486.862	2.85
487.212	2.85
487.562	2.86
487.912	2.87
488.262	2.88
488.612	2.89
488.961	2.88
489.311	2.89
489.661	2.91
490.011	2.92
490.36	2.92
490.71	2.94
491.06	2.95
491.409	2.97
491.759	2.98
492.108	3
492.458	3.01
492.807	3.02
493.157	3.05
493.506	3.07
493.855	3.09
494.204	3.11
494.554	3.14
494.903	3.14
495.252	3.18
495.601	3.23
495.95	3.28
496.299	3.31
496.648	3.36
496.997	3.39
497.346	3.45
497.695	3.53
498.043	3.57
498.392	3.62
498.741	3.67
499.09	3.72
499.438	3.79
499.787	3.86
500.135	3.96
500.484	4.02
500.832	4.12
501.181	4.22
501.529	4.3
501.878	4.41
502.226	4.53
502.574	4.64
502.923	4.74
503.271	4.85
503.619	4.98
503.967	5.13
504.315	5.27
504.663	5.39
505.011	5.51
505.359	5.66
505.707	5.85
506.055	6.01
506.403	6.2
506.751	6.38
507.098	6.52
507.446	6.7
507.794	6.88
508.141	7.07
508.489	7.25
508.837	7.45
509.184	7.65
509.531	7.87
509.879	8.1
510.226	8.33
510.574	8.56
510.921	8.83
511.268	9.04
511.616	9.3
511.963	9.57
512.31	9.86
512.657	10.14
513.004	10.45
513.351	10.79
513.698	11.1
514.045	11.43
514.392	11.8
514.739	12.15
515.086	12.5
515.432	12.85
515.779	13.19
516.126	13.58
516.473	13.91
516.819	14.21
517.166	14.53
517.512	14.84
517.859	15.15
518.205	15.44
518.552	15.76
518.898	16.06
519.245	16.35
519.591	16.65
519.937	16.95
520.283	17.23
520.629	17.52
520.976	17.86
521.322	18.2
521.668	18.55
522.014	18.91
522.36	19.31
522.706	19.72
523.052	20.14
523.398	20.53
523.743	20.98
524.089	21.42
524.435	21.84
524.781	22.21
525.126	22.54
525.472	22.85
525.817	23.14
526.163	23.4
526.509	23.65
526.854	23.86
527.199	24.1
527.545	24.33
527.89	24.55
528.235	24.76
528.581	24.99
528.926	25.2
529.271	25.41
529.616	25.6
529.961	25.8
530.306	26.02
530.651	26.25
530.996	26.46
531.341	26.68
531.686	26.88
532.031	27.11
532.376	27.37
532.721	27.61
533.065	27.84
533.41	28.1
533.755	28.33
534.099	28.6
534.444	28.85
534.788	29.08
535.133	29.33
535.477	29.58
535.822	29.8
536.166	30.06
536.51	30.36
536.855	30.68
537.199	30.97
537.543	31.26
537.887	31.55
538.231	31.88
538.576	32.18
538.92	32.47
539.264	32.74
539.608	33
539.951	33.23
540.295	33.49
540.639	33.7
540.983	33.91
541.327	34.12
541.671	34.29
542.014	34.45
542.358	34.62
542.701	34.77
543.045	34.97
543.389	35.14
543.732	35.29
544.075	35.43
544.419	35.61
544.762	35.75
545.105	35.93
545.449	36.06
545.792	36.26
546.135	36.45
546.478	36.66
546.821	36.85
547.165	37.07
547.508	37.28
547.851	37.51
548.194	37.72
548.536	37.96
548.879	38.2
549.222	38.43
549.565	38.67
549.908	38.94
550.25	39.16
550.593	39.43
550.936	39.64
551.278	39.85
551.621	40.05
551.963	40.26
552.306	40.45
552.648	40.68
552.991	40.85
553.333	41.09
553.675	41.28
554.017	41.44
554.36	41.6
554.702	41.72
555.044	41.9
555.386	42.09
555.728	42.23
556.07	42.35
556.412	42.57
556.754	42.71
557.096	42.85
557.438	42.94
557.78	43.01
558.121	43.15
558.463	43.33
558.805	43.52
559.147	43.68
559.488	43.8
559.83	43.97
560.171	44.13
560.513	44.22
560.854	44.38
561.196	44.52
561.537	44.62
561.878	44.7
562.22	44.84
562.561	44.97
562.902	45.06
563.243	45.16
563.584	45.23
563.925	45.32
564.266	45.4
564.607	45.59
564.948	45.71
565.289	45.79
565.63	45.91
565.971	45.96
566.312	46.09
566.653	46.22
566.993	46.27
567.334	46.34
567.675	46.4
568.015	46.5
568.356	46.6
568.696	46.73
569.037	46.88
569.377	46.98
569.718	47.09
570.058	47.19
570.398	47.29
570.739	47.44
571.079	47.57
571.419	47.68
571.759	47.74
572.099	47.81
572.439	47.97
572.779	48.07
573.119	48.19
573.459	48.18
573.799	48.26
574.139	48.33
574.479	48.44
574.819	48.53
575.158	48.58
575.498	48.67
575.838	48.81
576.177	48.84
576.517	48.9
576.856	48.92
577.196	49.08
577.535	49.2
577.875	49.29
578.214	49.41
578.553	49.48
578.893	49.53
579.232	49.7
579.571	49.72
579.91	49.75
580.25	49.79
580.589	49.92
580.928	49.98
581.267	50.05
581.606	50.16
581.945	50.28
582.283	50.37
582.622	50.47
582.961	50.51
583.3	50.64
583.639	50.72
583.977	50.8
584.316	50.86
584.654	50.93
584.993	51.01
585.332	50.98
585.67	51.12
586.008	51.12
586.347	51.03
586.685	51.11
587.024	51.23
587.362	51.37
587.7	51.44
588.038	51.53
588.376	51.62
588.715	51.64
589.053	51.69
589.391	51.76
589.729	51.8
590.067	51.83
590.404	51.9
590.742	51.99
591.08	52.04
591.418	52.1
591.756	52.09
592.093	52.13
592.431	52.24
592.769	52.21
593.106	52.3
593.444	52.39
593.781	52.47
594.119	52.48
594.456	52.44
594.793	52.5
595.131	52.54
595.468	52.6
595.805	52.62
596.143	52.66
596.48	52.65
596.817	52.66
597.154	52.74
597.491	52.71
597.828	52.68
598.165	52.76
598.502	52.81
598.839	52.83
599.176	52.82
599.512	52.83
599.849	52.82
600.186	52.87
600.523	53.03
600.859	53.03
601.196	53.05
601.532	53.11
601.869	53.13
602.205	53.14
602.542	53.14
602.878	53.17
603.215	53.22
603.551	53.23
603.887	53.25
604.223	53.29
604.56	53.34
604.896	53.4
605.232	53.41
605.568	53.42
605.904	53.48
606.24	53.58
606.576	53.64
606.912	53.7
607.248	53.73
607.583	53.74
607.919	53.75
608.255	53.82
608.591	53.87
608.926	53.87
609.262	53.97
609.597	53.98
609.933	54.04
610.268	54.07
610.604	54.27
610.939	54.36
611.275	54.31
611.61	54.3
611.945	54.35
612.281	54.46
612.616	54.49
612.951	54.6
613.286	54.56
613.621	54.57
613.956	54.76
614.291	54.84
614.626	54.81
614.961	54.91
615.296	54.88
615.631	54.9
615.966	54.91
616.3	54.88
616.635	54.96
616.97	54.94
617.304	54.89
617.639	54.81
617.973	54.78
618.308	54.89
618.642	55
618.977	55
619.311	54.92
619.646	54.95
619.98	54.99
620.314	55.13
620.648	55.2
620.983	55.17
621.317	55.09
621.651	55.11
621.985	55.08
622.319	55.17
622.653	55.2
622.987	55.38
623.321	55.39
623.655	55.48
623.988	55.55
624.322	55.58
624.656	55.57
624.99	55.48
625.323	55.52
625.657	55.5
625.99	55.47
626.324	55.49
626.657	55.56
626.991	55.54
627.324	55.53
627.658	55.54
627.991	55.54
628.324	55.73
628.657	55.75
628.991	55.77
629.324	55.78
629.657	55.84
629.99	55.86
630.323	55.83
630.656	55.81
630.989	55.85
631.322	55.98
631.655	55.99
631.987	56.03
632.32	55.92
632.653	55.89
632.986	55.92
633.318	55.96
633.651	56.07
633.984	56.06
634.316	56.11
634.649	56.08
634.981	56.06
635.313	55.95
635.646	56.01
635.978	56.08
636.31	56.15
636.643	56.15
636.975	56.16
637.307	56.2
637.639	56.21
637.971	56.2
638.303	56.13
638.635	56.24
638.967	56.35
639.299	56.52
639.631	56.6
639.963	56.58
640.295	56.63
640.626	56.48
640.958	56.54
641.29	56.63
641.621	56.61
641.953	56.71
642.285	56.8
642.616	56.84
642.948	56.92
643.279	56.88
643.61	56.87
643.942	56.75
644.273	56.84
644.604	56.83
644.936	56.85
645.267	56.98
645.598	56.96
645.929	57.05
646.26	56.91
646.591	56.94
646.922	57.03
647.253	56.97
647.584	56.89
647.915	56.96
648.245	56.91
648.576	57.05
648.907	57.05
649.238	57.07
649.568	57.12
649.899	57.06
650.229	57.09
650.56	57.18
650.89	57.29
651.221	57.31
651.551	57.33
651.882	57.31
652.212	57.15
652.542	57.08
652.872	57.05
653.203	57.1
653.533	57.07
653.863	57.16
654.193	57.16
654.523	57.25
654.853	57.05
655.183	57.02
655.513	56.95
655.843	57.02
656.172	56.99
656.502	56.84
656.832	56.81
657.162	56.78
657.491	56.79
657.821	56.77
658.15	56.72
658.48	56.79
658.809	56.92
659.139	56.89
659.468	56.91
659.798	56.85
660.127	56.9
660.456	57
660.785	56.97
661.115	57.09
661.444	57.14
661.773	57.24
662.102	57.17
662.431	57.24
662.76	57.21
663.089	57.15
663.418	57.24
663.747	57.34
664.076	57.35
664.404	57.31
664.733	57.32
665.062	57.34
665.39	57.19
665.719	57.07
666.048	57.2
666.376	57.26
666.705	57.51
667.033	57.49
667.362	57.4
667.69	57.4
668.018	57.26
