Data from BU26844_Reflection_00010.txt Node
Date: Mon Nov 18 16:36:21 EST 2019
User: vgr7
Spectrometer: USB2G7710
Scans to average: 3
Trigger mode: 4
Integration Time (sec): 2.000000E-2
Electric dark correction enabled: true
Boxcar width: 10
XAxis mode: Wavelengths
Number of Pixels in Spectrum: 2048
>>>>>Begin Spectral Data<<<<<
177.721	583.18
178.105	17766.67
178.488	-321.28
178.871	-11483.33
179.254	94.28
179.636	-295.83
180.019	217.15
180.402	116.67
180.785	-58.17
181.168	30.37
181.55	30.62
181.933	72.51
182.316	101.37
182.698	114.09
183.081	104.56
183.463	136.58
183.846	143.51
184.228	105.1
184.611	174.32
184.993	689.97
185.376	7615.15
185.758	-463.04
186.14	-380.43
186.522	-412.04
186.904	-916.5
187.287	1023.69
187.669	-234.51
188.051	-327.28
188.433	-149.8
188.815	-87.1
189.197	-49.11
189.579	-46.32
189.961	-63.49
190.342	-46.02
190.724	-29.05
191.106	-21.5
191.488	-33.44
191.869	-17.36
192.251	-25.23
192.633	-38.3
193.014	-32.87
193.396	-28.46
193.777	-29.75
194.159	-47.09
194.54	-31.78
194.922	-36.81
195.303	-32.72
195.684	-27.85
196.065	-8.25
196.447	-10.03
196.828	-27.13
197.209	-40.06
197.59	-49.4
197.971	-54.18
198.352	-63.58
198.733	-106.59
199.114	-89.28
199.495	-75.29
199.876	-54.7
200.257	-52.17
200.638	-50.28
201.018	-68.03
201.399	-81.76
201.78	-56.86
202.16	-72.95
202.541	-60.67
202.922	-91.13
203.302	-128.64
203.683	-144.68
204.063	-341.47
204.444	-593.44
204.824	-481.37
205.204	-377.29
205.585	-497.05
205.965	-290.87
206.345	-277.93
206.725	-355.97
207.106	-469.86
207.486	-605.72
207.866	-1017
208.246	-885.32
208.626	-1233.33
209.006	-250.96
209.386	-281.89
209.766	-338.73
210.145	-189.18
210.525	-231.48
210.905	-171.28
211.285	-133.12
211.664	-104.88
212.044	-90.79
212.424	-49.26
212.803	-34.75
213.183	-22.49
213.562	-10.51
213.942	-7.09
214.321	11.66
214.701	19.64
215.08	14.16
215.459	21.59
215.838	13.81
216.218	9.95
216.597	14.62
216.976	10.95
217.355	5.54
217.734	0.02
218.113	-1.52
218.492	2.42
218.871	-2.08
219.25	-1.6
219.629	-4.89
220.008	-13.41
220.387	-13.5
220.766	-24.74
221.144	-39.69
221.523	-38.71
221.902	-54.57
222.28	-73.78
222.659	-73.72
223.037	-52.97
223.416	-72.57
223.794	-69.46
224.173	-67.91
224.551	-55.57
224.929	-54.32
225.308	-38.81
225.686	-31.06
226.064	-20.39
226.442	-20.83
226.821	-15.14
227.199	-17.51
227.577	-19.78
227.955	-15.69
228.333	-12.74
228.711	-7.98
229.089	-3.23
229.467	-5.66
229.845	-6.26
230.222	-3.39
230.6	-3.08
230.978	-2.44
231.356	0
231.733	0.7
232.111	3.04
232.488	3.38
232.866	4.2
233.243	4.43
233.621	3.95
233.998	4.46
234.376	3.29
234.753	1.62
235.13	2.44
235.508	4.17
235.885	3.87
236.262	2.11
236.639	1.8
237.016	1.27
237.393	2.87
237.77	4.03
238.147	3.78
238.524	4.12
238.901	3.89
239.278	3
239.655	3.59
240.032	3.56
240.409	2.95
240.785	3.14
241.162	3.33
241.539	3.9
241.915	3.74
242.292	3.98
242.668	3.85
243.045	4.13
243.421	4.18
243.798	3.99
244.174	4.14
244.551	3.76
244.927	3.68
245.303	3.81
245.679	3.94
246.056	3.94
246.432	3.79
246.808	3.59
247.184	3.57
247.56	3.12
247.936	2.98
248.312	3.14
248.688	3.28
249.064	3.08
249.44	2.86
249.815	2.84
250.191	2.85
250.567	2.92
250.943	2.75
251.318	2.7
251.694	3.02
252.069	2.95
252.445	2.99
252.82	3.16
253.196	2.87
253.571	2.6
253.947	2.65
254.322	2.9
254.697	3.23
255.073	2.93
255.448	3.07
255.823	3.07
256.198	3.21
256.573	2.88
256.948	3.03
257.323	3.24
257.698	3.23
258.073	3.21
258.448	3.23
258.823	3.18
259.198	3.12
259.573	2.88
259.948	3.02
260.322	3.19
260.697	3.09
261.072	3.06
261.446	3.13
261.821	3.11
262.195	3.11
262.57	3.11
262.944	3.29
263.319	3.24
263.693	3.25
264.067	3.2
264.442	3.4
264.816	3.32
265.19	3.13
265.564	3.22
265.938	3.18
266.313	3.27
266.687	3.49
267.061	3.65
267.435	3.74
267.809	3.62
268.183	3.52
268.556	3.4
268.93	3.34
269.304	3.18
269.678	3.14
270.051	3.06
270.425	2.96
270.799	2.95
271.172	2.94
271.546	2.98
271.919	2.88
272.293	2.8
272.666	3.05
273.04	3.12
273.413	3.01
273.787	2.96
274.16	2.91
274.533	2.79
274.906	2.7
275.279	2.76
275.653	2.82
276.026	2.86
276.399	2.98
276.772	3.06
277.145	3.14
277.518	3.02
277.891	3.02
278.263	3.08
278.636	3.19
279.009	3.28
279.382	3.19
279.755	3.29
280.127	3.49
280.5	3.27
280.872	3.31
281.245	3.23
281.617	3.31
281.99	3.27
282.362	3.14
282.735	3.03
283.107	2.92
283.479	2.93
283.852	2.93
284.224	2.94
284.596	2.89
284.968	2.89
285.34	2.99
285.713	2.98
286.085	2.99
286.457	2.92
286.829	2.95
287.201	3.01
287.572	3.01
287.944	2.87
288.316	2.95
288.688	2.93
289.06	3.09
289.431	3
289.803	3.05
290.175	3.17
290.546	3.35
290.918	3.47
291.289	3.32
291.661	3.32
292.032	3.28
292.403	3.47
292.775	3.54
293.146	3.62
293.517	3.61
293.889	3.6
294.26	3.67
294.631	3.57
295.002	3.57
295.373	3.55
295.744	3.55
296.115	3.59
296.486	3.56
296.857	3.45
297.228	3.53
297.599	3.5
297.97	3.63
298.34	3.52
298.711	3.61
299.082	3.77
299.452	3.86
299.823	3.93
300.194	3.93
300.564	3.86
300.935	3.85
301.305	3.87
301.676	3.88
302.046	3.92
302.416	4.05
302.787	4.14
303.157	4.21
303.527	4.29
303.897	4.3
304.267	4.49
304.637	4.74
305.008	4.84
305.378	4.97
305.748	4.88
306.117	5.01
306.487	5.04
306.857	5.04
307.227	5.05
307.597	5.06
307.967	5.01
308.336	5.28
308.706	5.25
309.076	5.4
309.445	5.39
309.815	5.43
310.184	5.45
310.554	5.58
310.923	5.6
311.293	5.7
311.662	5.74
312.031	5.7
312.401	5.62
312.77	5.63
313.139	5.68
313.508	5.82
313.877	5.9
314.246	5.9
314.616	5.96
314.985	5.96
315.353	6
315.722	6.12
316.091	6.02
316.46	6.09
316.829	6.05
317.198	6.19
317.567	6.13
317.935	6.23
318.304	6.19
318.672	6.33
319.041	6.34
319.41	6.38
319.778	6.49
320.147	6.62
320.515	6.63
320.883	6.68
321.252	6.58
321.62	6.59
321.988	6.62
322.357	6.58
322.725	6.63
323.093	6.73
323.461	6.8
323.829	6.92
324.197	7.09
324.565	7.25
324.933	7.23
325.301	7.31
325.669	7.23
326.037	7.18
326.405	7.25
326.772	7.18
327.14	7.3
327.508	7.27
327.875	7.16
328.243	7.33
328.61	7.36
328.978	7.38
329.346	7.46
329.713	7.47
330.08	7.58
330.448	7.55
330.815	7.45
331.182	7.39
331.55	7.32
331.917	7.32
332.284	7.25
332.651	7.25
333.018	7.26
333.385	7.42
333.752	7.54
334.119	7.52
334.486	7.55
334.853	7.6
335.22	7.49
335.587	7.71
335.954	7.62
336.32	7.64
336.687	7.76
337.054	7.85
337.42	7.84
337.787	7.86
338.153	7.91
338.52	8.05
338.886	8.07
339.253	8.07
339.619	8.08
339.986	8.11
340.352	8.3
340.718	8.35
341.084	8.33
341.451	8.4
341.817	8.46
342.183	8.5
342.549	8.35
342.915	8.57
343.281	8.44
343.647	8.44
344.013	8.46
344.379	8.45
344.745	8.36
345.11	8.47
345.476	8.52
345.842	8.55
346.208	8.47
346.573	8.52
346.939	8.62
347.304	8.53
347.67	8.51
348.035	8.37
348.401	8.35
348.766	8.48
349.132	8.41
349.497	8.34
349.862	8.44
350.228	8.5
350.593	8.4
350.958	8.46
351.323	8.59
351.688	8.62
352.053	8.66
352.418	8.72
352.783	8.71
353.148	8.58
353.513	8.61
353.878	8.65
354.243	8.7
354.608	8.68
354.972	8.78
355.337	8.87
355.702	9
356.066	9.02
356.431	8.88
356.795	8.96
357.16	8.98
357.524	8.88
357.889	8.86
358.253	8.9
358.618	8.93
358.982	8.83
359.346	8.7
359.71	8.61
360.075	8.52
360.439	8.56
360.803	8.56
361.167	8.55
361.531	8.56
361.895	8.55
362.259	8.53
362.623	8.55
362.987	8.51
363.351	8.37
363.714	8.37
364.078	8.34
364.442	8.27
364.806	8.19
365.169	8.2
365.533	8.2
365.896	8.14
366.26	8.04
366.623	8
366.987	7.99
367.35	8.01
367.714	8.01
368.077	7.91
368.44	7.94
368.803	7.85
369.167	7.74
369.53	7.6
369.893	7.53
370.256	7.46
370.619	7.42
370.982	7.43
371.345	7.34
371.708	7.32
372.071	7.21
372.434	7.21
372.797	7.14
373.159	7
373.522	6.95
373.885	6.91
374.247	6.83
374.61	6.81
374.973	6.75
375.335	6.66
375.698	6.65
376.06	6.53
376.423	6.5
376.785	6.52
377.147	6.49
377.51	6.46
377.872	6.38
378.234	6.29
378.596	6.2
378.958	6.12
379.321	6.04
379.683	6.03
380.045	5.92
380.407	5.89
380.769	5.9
381.13	5.83
381.492	5.82
381.854	5.82
382.216	5.77
382.578	5.72
382.939	5.68
383.301	5.61
383.663	5.54
384.024	5.48
384.386	5.44
384.747	5.44
385.109	5.4
385.47	5.37
385.832	5.31
386.193	5.34
386.554	5.31
386.916	5.31
387.277	5.32
387.638	5.33
387.999	5.26
388.36	5.22
388.721	5.24
389.082	5.19
389.443	5.15
389.804	5.11
390.165	5.06
390.526	5.05
390.887	4.99
391.248	5.02
391.609	5.02
391.969	4.99
392.33	4.92
392.691	4.87
393.051	4.84
393.412	4.84
393.772	4.81
394.133	4.8
394.493	4.75
394.854	4.69
395.214	4.69
395.574	4.71
395.935	4.68
396.295	4.62
396.655	4.61
397.015	4.58
397.376	4.57
397.736	4.55
398.096	4.51
398.456	4.48
398.816	4.4
399.176	4.37
399.535	4.34
399.895	4.32
400.255	4.31
400.615	4.29
400.975	4.26
401.334	4.19
401.694	4.16
402.054	4.11
402.413	4.13
402.773	4.06
403.132	4
403.492	4.02
403.851	4
404.211	3.99
404.57	3.96
404.929	3.94
405.288	3.9
405.648	3.89
406.007	3.88
406.366	3.88
406.725	3.88
407.084	3.86
407.443	3.89
407.802	3.92
408.161	3.93
408.52	3.89
408.879	3.88
409.238	3.89
409.596	3.88
409.955	3.88
410.314	3.91
410.673	3.9
411.031	3.85
411.39	3.85
411.748	3.81
412.107	3.82
412.465	3.8
412.824	3.84
413.182	3.85
413.54	3.85
413.899	3.87
414.257	3.83
414.615	3.82
414.974	3.81
415.332	3.76
415.69	3.72
416.048	3.71
416.406	3.72
416.764	3.69
417.122	3.71
417.48	3.67
417.838	3.65
418.195	3.65
418.553	3.64
418.911	3.63
419.269	3.62
419.626	3.59
419.984	3.58
420.342	3.57
420.699	3.54
421.057	3.55
421.414	3.52
421.772	3.52
422.129	3.51
422.486	3.49
422.844	3.48
423.201	3.47
423.558	3.47
423.915	3.47
424.273	3.48
424.63	3.46
424.987	3.45
425.344	3.44
425.701	3.43
426.058	3.42
426.415	3.42
426.772	3.41
427.128	3.42
427.485	3.41
427.842	3.39
428.199	3.4
428.555	3.38
428.912	3.39
429.269	3.4
429.625	3.4
429.982	3.39
430.338	3.41
430.695	3.42
431.051	3.4
431.407	3.39
431.764	3.37
432.12	3.38
432.476	3.39
432.832	3.39
433.189	3.4
433.545	3.39
433.901	3.39
434.257	3.4
434.613	3.42
434.969	3.46
435.325	3.46
435.681	3.45
436.036	3.45
436.392	3.44
436.748	3.43
437.104	3.41
437.459	3.41
437.815	3.39
438.171	3.39
438.526	3.4
438.882	3.38
439.237	3.38
439.593	3.38
439.948	3.39
440.304	3.41
440.659	3.39
441.014	3.39
441.369	3.38
441.725	3.36
442.08	3.35
442.435	3.34
442.79	3.32
443.145	3.31
443.5	3.31
443.855	3.3
444.21	3.29
444.565	3.29
444.92	3.29
445.275	3.28
445.629	3.28
445.984	3.27
446.339	3.28
446.693	3.28
447.048	3.26
447.403	3.25
447.757	3.24
448.112	3.24
448.466	3.25
448.82	3.24
449.175	3.25
449.529	3.23
449.883	3.21
450.238	3.21
450.592	3.22
450.946	3.21
451.3	3.22
451.654	3.21
452.008	3.21
452.362	3.2
452.716	3.22
453.07	3.22
453.424	3.21
453.778	3.2
454.132	3.2
454.486	3.19
454.839	3.19
455.193	3.18
455.547	3.18
455.9	3.18
456.254	3.18
456.607	3.18
456.961	3.19
457.314	3.21
457.668	3.22
458.021	3.23
458.375	3.24
458.728	3.25
459.081	3.25
459.434	3.26
459.787	3.26
460.141	3.27
460.494	3.28
460.847	3.3
461.2	3.3
461.553	3.32
461.906	3.35
462.259	3.35
462.611	3.37
462.964	3.37
463.317	3.39
463.67	3.39
464.022	3.4
464.375	3.39
464.728	3.39
465.08	3.4
465.433	3.4
465.785	3.4
466.138	3.4
466.49	3.44
466.843	3.45
467.195	3.47
467.547	3.47
467.899	3.47
468.252	3.47
468.604	3.5
468.956	3.48
469.308	3.45
469.66	3.45
470.012	3.45
470.364	3.46
470.716	3.48
471.068	3.5
471.42	3.5
471.772	3.54
472.123	3.57
472.475	3.59
472.827	3.58
473.178	3.6
473.53	3.6
473.882	3.58
474.233	3.59
474.585	3.57
474.936	3.58
475.288	3.58
475.639	3.57
475.99	3.57
476.342	3.59
476.693	3.62
477.044	3.63
477.395	3.63
477.746	3.64
478.097	3.61
478.448	3.6
478.8	3.59
479.15	3.56
479.501	3.53
479.852	3.51
480.203	3.51
480.554	3.52
480.905	3.53
481.255	3.53
481.606	3.51
481.957	3.51
482.307	3.5
482.658	3.5
483.009	3.49
483.359	3.47
483.709	3.48
484.06	3.48
484.41	3.48
484.761	3.48
485.111	3.47
485.461	3.47
485.811	3.46
486.162	3.47
486.512	3.48
486.862	3.48
487.212	3.49
487.562	3.49
487.912	3.48
488.262	3.48
488.612	3.49
488.961	3.5
489.311	3.5
489.661	3.51
490.011	3.51
490.36	3.52
490.71	3.54
491.06	3.54
491.409	3.53
491.759	3.54
492.108	3.55
492.458	3.56
492.807	3.57
493.157	3.58
493.506	3.6
493.855	3.61
494.204	3.62
494.554	3.63
494.903	3.64
495.252	3.65
495.601	3.69
495.95	3.72
496.299	3.73
496.648	3.75
496.997	3.78
497.346	3.81
497.695	3.85
498.043	3.88
498.392	3.92
498.741	3.96
499.09	3.97
499.438	4.02
499.787	4.08
500.135	4.13
500.484	4.19
500.832	4.23
501.181	4.28
501.529	4.35
501.878	4.43
502.226	4.53
502.574	4.6
502.923	4.67
503.271	4.76
503.619	4.86
503.967	4.96
504.315	5.04
504.663	5.15
505.011	5.26
505.359	5.37
505.707	5.49
506.055	5.61
506.403	5.75
506.751	5.88
507.098	6
507.446	6.14
507.794	6.29
508.141	6.44
508.489	6.63
508.837	6.81
509.184	6.97
509.531	7.15
509.879	7.34
510.226	7.51
510.574	7.69
510.921	7.9
511.268	8.1
511.616	8.32
511.963	8.53
512.31	8.75
512.657	9
513.004	9.26
513.351	9.53
513.698	9.85
514.045	10.12
514.392	10.44
514.739	10.75
515.086	11.05
515.432	11.37
515.779	11.64
516.126	11.92
516.473	12.23
516.819	12.52
517.166	12.78
517.512	13.07
517.859	13.35
518.205	13.62
518.552	13.88
518.898	14.14
519.245	14.45
519.591	14.73
519.937	14.98
520.283	15.28
520.629	15.56
520.976	15.86
521.322	16.22
521.668	16.55
522.014	16.92
522.36	17.29
522.706	17.64
523.052	18.06
523.398	18.46
523.743	18.88
524.089	19.27
524.435	19.69
524.781	20.07
525.126	20.41
525.472	20.75
525.817	21.06
526.163	21.33
526.509	21.59
526.854	21.86
527.199	22.1
527.545	22.34
527.89	22.59
528.235	22.82
528.581	23.03
528.926	23.27
529.271	23.5
529.616	23.72
529.961	23.94
530.306	24.19
530.651	24.45
530.996	24.71
531.341	24.99
531.686	25.26
532.031	25.54
532.376	25.84
532.721	26.11
533.065	26.42
533.41	26.74
533.755	27.05
534.099	27.34
534.444	27.67
534.788	27.98
535.133	28.26
535.477	28.57
535.822	28.91
536.166	29.23
536.51	29.59
536.855	29.97
537.199	30.37
537.543	30.76
537.887	31.13
538.231	31.51
538.576	31.91
538.92	32.24
539.264	32.56
539.608	32.87
539.951	33.18
540.295	33.46
540.639	33.73
540.983	33.96
541.327	34.24
541.671	34.45
542.014	34.66
542.358	34.89
542.701	35.09
543.045	35.32
543.389	35.54
543.732	35.74
544.075	35.95
544.419	36.16
544.762	36.34
545.105	36.56
545.449	36.79
545.792	37
546.135	37.28
546.478	37.56
546.821	37.87
547.165	38.14
547.508	38.41
547.851	38.7
548.194	38.98
548.536	39.2
548.879	39.53
549.222	39.82
549.565	40.04
549.908	40.37
550.25	40.64
550.593	40.91
550.936	41.15
551.278	41.43
551.621	41.68
551.963	41.98
552.306	42.28
552.648	42.54
552.991	42.78
553.333	42.99
553.675	43.21
554.017	43.45
554.36	43.67
554.702	43.86
555.044	44.03
555.386	44.23
555.728	44.52
556.07	44.72
556.412	44.94
556.754	45.2
557.096	45.36
557.438	45.62
557.78	45.84
558.121	46.13
558.463	46.35
558.805	46.58
559.147	46.74
559.488	46.84
559.83	47.04
560.171	47.21
560.513	47.44
560.854	47.6
561.196	47.69
561.537	47.83
561.878	48.05
562.22	48.18
562.561	48.36
562.902	48.52
563.243	48.68
563.584	48.86
563.925	49
564.266	49.14
564.607	49.25
564.948	49.42
565.289	49.57
565.63	49.68
565.971	49.79
566.312	49.92
566.653	50.13
566.993	50.25
567.334	50.37
567.675	50.46
568.015	50.63
568.356	50.77
568.696	50.89
569.037	50.96
569.377	51.1
569.718	51.2
570.058	51.32
570.398	51.39
570.739	51.48
571.079	51.6
571.419	51.71
571.759	51.83
572.099	51.83
572.439	51.89
572.779	52
573.119	52.06
573.459	52.16
573.799	52.21
574.139	52.27
574.479	52.41
574.819	52.47
575.158	52.55
575.498	52.68
575.838	52.79
576.177	52.92
576.517	53.13
576.856	53.23
577.196	53.29
577.535	53.38
577.875	53.47
578.214	53.53
578.553	53.65
578.893	53.76
579.232	53.95
579.571	54.07
579.91	54.19
580.25	54.37
580.589	54.48
580.928	54.58
581.267	54.7
581.606	54.73
581.945	54.87
582.283	54.91
582.622	54.99
582.961	55.05
583.3	55.12
583.639	55.15
583.977	55.33
584.316	55.43
584.654	55.53
584.993	55.62
585.332	55.77
585.67	55.85
586.008	55.97
586.347	56.06
586.685	56.06
587.024	56.11
587.362	56.19
587.7	56.28
588.038	56.39
588.376	56.46
588.715	56.55
589.053	56.65
589.391	56.77
589.729	56.83
590.067	57.04
590.404	57.08
590.742	57.12
591.08	57.09
591.418	57.21
591.756	57.3
592.093	57.4
592.431	57.54
592.769	57.58
593.106	57.59
593.444	57.63
593.781	57.67
594.119	57.78
594.456	57.83
594.793	57.9
595.131	57.99
595.468	58.1
595.805	58.18
596.143	58.18
596.48	58.25
596.817	58.27
597.154	58.2
597.491	58.33
597.828	58.4
598.165	58.47
598.502	58.46
598.839	58.54
599.176	58.55
599.512	58.55
599.849	58.71
600.186	58.81
600.523	58.83
600.859	58.98
601.196	59.06
601.532	59.08
601.869	59.18
602.205	59.19
602.542	59.12
602.878	59.14
603.215	59.22
603.551	59.29
603.887	59.45
604.223	59.49
604.56	59.52
604.896	59.63
605.232	59.75
605.568	59.84
605.904	59.95
606.24	60.02
606.576	60.06
606.912	60
607.248	60.01
607.583	60.16
607.919	60.21
608.255	60.24
608.591	60.28
608.926	60.34
609.262	60.43
609.597	60.58
609.933	60.65
610.268	60.68
610.604	60.64
610.939	60.62
611.275	60.72
611.61	60.82
611.945	60.77
612.281	60.78
612.616	60.77
612.951	60.74
613.286	60.85
613.621	60.89
613.956	60.93
614.291	60.98
614.626	60.92
614.961	60.89
615.296	60.89
615.631	61.01
615.966	60.98
616.3	61.02
616.635	61.14
616.97	61.14
617.304	61.26
617.639	61.32
617.973	61.37
618.308	61.43
618.642	61.38
618.977	61.39
619.311	61.4
619.646	61.52
619.98	61.49
620.314	61.48
620.648	61.53
620.983	61.65
621.317	61.67
621.651	61.77
621.985	61.73
622.319	61.79
622.653	61.8
622.987	61.84
623.321	61.84
623.655	61.83
623.988	61.92
624.322	61.79
624.656	61.73
624.99	61.74
625.323	61.72
625.657	61.78
625.99	61.85
626.324	61.96
626.657	61.94
626.991	61.99
627.324	61.98
627.658	61.98
627.991	61.95
628.324	62.03
628.657	62.06
628.991	62.23
629.324	62.33
629.657	62.35
629.99	62.4
630.323	62.37
630.656	62.35
630.989	62.35
631.322	62.37
631.655	62.59
631.987	62.63
632.32	62.76
632.653	62.67
632.986	62.64
633.318	62.55
633.651	62.6
633.984	62.69
634.316	62.72
634.649	62.76
634.981	62.85
635.313	62.83
635.646	62.73
635.978	62.71
636.31	62.65
636.643	62.72
636.975	62.75
637.307	62.86
637.639	62.9
637.971	62.91
638.303	63.06
638.635	62.92
638.967	62.94
639.299	62.91
639.631	63.07
639.963	63.2
640.295	63.18
640.626	63.2
640.958	63.19
641.29	63.29
641.621	63.23
641.953	63.24
642.285	63.22
642.616	63.35
642.948	63.37
643.279	63.41
643.61	63.31
643.942	63.3
644.273	63.28
644.604	63.21
644.936	63.31
645.267	63.23
645.598	63.37
645.929	63.51
646.26	63.52
646.591	63.39
646.922	63.35
647.253	63.5
647.584	63.42
647.915	63.36
648.245	63.34
648.576	63.46
648.907	63.36
649.238	63.35
649.568	63.29
649.899	63.3
650.229	63.37
650.56	63.4
650.89	63.41
651.221	63.48
651.551	63.48
651.882	63.52
652.212	63.58
652.542	63.51
652.872	63.38
653.203	63.34
653.533	63.55
653.863	63.6
654.193	63.56
654.523	63.67
654.853	63.69
655.183	63.66
655.513	63.74
655.843	63.85
656.172	63.97
656.502	64.13
656.832	64.13
657.162	64.06
657.491	64.12
657.821	64.09
658.15	64.05
658.48	64.21
658.809	64.16
659.139	64.12
659.468	64.1
659.798	64.05
660.127	64.03
660.456	63.9
660.785	63.89
661.115	63.91
661.444	63.9
661.773	63.97
662.102	63.95
662.431	63.96
662.76	64.03
663.089	64.06
663.418	64.07
663.747	64.06
664.076	64.04
664.404	64.07
664.733	64.19
665.062	64.2
665.39	64.05
665.719	64.18
666.048	64.24
666.376	64.26
