Data from BU26843_Reflection_00008.txt Node
Date: Mon Nov 18 16:31:09 EST 2019
User: vgr7
Spectrometer: USB2G7710
Scans to average: 3
Trigger mode: 4
Integration Time (sec): 2.000000E-2
Electric dark correction enabled: true
Boxcar width: 10
XAxis mode: Wavelengths
Number of Pixels in Spectrum: 2048
>>>>>Begin Spectral Data<<<<<
177.721	87.44
178.105	275.44
178.488	-243.36
178.871	-71.09
179.254	8.91
179.636	-74.48
180.019	47.42
180.402	110.34
180.785	22.01
181.168	-118.55
181.55	-140.92
181.933	72.28
182.316	65.08
182.698	68.62
183.081	139.61
183.463	195.71
183.846	153.14
184.228	-39.16
184.611	-142.67
184.993	586.59
185.376	384.12
185.758	213.02
186.14	206.12
186.522	214.25
186.904	143.55
187.287	64.67
187.669	48.97
188.051	-8.99
188.433	10.13
188.815	24.63
189.197	-21.43
189.579	-5.63
189.961	20.89
190.342	25.23
190.724	39.42
191.106	37.01
191.488	28.02
191.869	19.89
192.251	1.96
192.633	-0.9
193.014	-5.97
193.396	-7.55
193.777	6.19
194.159	-21.6
194.54	-15.03
194.922	-1.66
195.303	58.19
195.684	51.78
196.065	83.49
196.447	116.42
196.828	83.47
197.209	89.57
197.59	92.89
197.971	35.43
198.352	21.04
198.733	8.24
199.114	57.95
199.495	42.85
199.876	35.04
200.257	74.69
200.638	55.14
201.018	24.43
201.399	20.79
201.78	-2.18
202.16	24.48
202.541	20.96
202.922	-6.56
203.302	-58.75
203.683	-76.25
204.063	-90
204.444	-92.02
204.824	-105.95
205.204	-86.37
205.585	-127.53
205.965	-148.63
206.345	-191.8
206.725	-249.74
207.106	-476.68
207.486	-412.29
207.866	-289.5
208.246	-246.45
208.626	-149.88
209.006	-100.8
209.386	-110.51
209.766	-124.51
210.145	-89.5
210.525	-79.86
210.905	-61.36
211.285	-40.5
211.664	-33.3
212.044	-37.34
212.424	-27.57
212.803	-27.37
213.183	-31.27
213.562	-20.5
213.942	-21.01
214.321	-17.93
214.701	-8.84
215.08	-2.75
215.459	8.33
215.838	8.96
216.218	10.13
216.597	8.58
216.976	11.12
217.355	15.85
217.734	14.97
218.113	23.05
218.492	31.23
218.871	28.91
219.25	36.44
219.629	43.51
220.008	36.56
220.387	34.5
220.766	46.03
221.144	56.02
221.523	50.85
221.902	53.97
222.28	52.51
222.659	57.23
223.037	42.01
223.416	33.86
223.794	33.04
224.173	36.36
224.551	33.39
224.929	33.72
225.308	18.55
225.686	24.06
226.064	14.15
226.442	11.44
226.821	14.32
227.199	12.62
227.577	12.14
227.955	13.96
228.333	14.06
228.711	11.32
229.089	12.85
229.467	13.8
229.845	15.92
230.222	14.88
230.6	10.7
230.978	13.39
231.356	13.87
231.733	13.52
232.111	10.76
232.488	9.99
232.866	9.44
233.243	11.85
233.621	9.6
233.998	10.25
234.376	7.69
234.753	6.99
235.13	7.83
235.508	8.86
235.885	10.84
236.262	10.14
236.639	9.34
237.016	8.33
237.393	8.83
237.77	9.38
238.147	8.48
238.524	8.72
238.901	8.11
239.278	8.12
239.655	8.68
240.032	8.94
240.409	8.34
240.785	7.36
241.162	7.24
241.539	8.31
241.915	8.15
242.292	8.02
242.668	7.49
243.045	7.12
243.421	6.72
243.798	6.06
244.174	5.98
244.551	6.01
244.927	5.89
245.303	5.89
245.679	5.79
246.056	5.79
246.432	5.88
246.808	5.89
247.184	5.7
247.56	5.54
247.936	5.56
248.312	5.83
248.688	6.11
249.064	6.05
249.44	5.62
249.815	5.6
250.191	6.02
250.567	6.23
250.943	6.34
251.318	6.49
251.694	6.49
252.069	6.55
252.445	6.72
252.82	6.77
253.196	6.77
253.571	6.76
253.947	7.05
254.322	7.22
254.697	7.08
255.073	7.08
255.448	6.69
255.823	6.77
256.198	6.54
256.573	6.57
256.948	6.42
257.323	6.45
257.698	6.62
258.073	6.49
258.448	6.26
258.823	6.1
259.198	5.81
259.573	5.74
259.948	5.67
260.322	5.74
260.697	5.8
261.072	5.76
261.446	5.66
261.821	5.62
262.195	5.57
262.57	5.48
262.944	5.58
263.319	5.67
263.693	5.46
264.067	5.33
264.442	5.46
264.816	5.55
265.19	5.42
265.564	5.24
265.938	5.06
266.313	5.4
266.687	5.49
267.061	5.88
267.435	5.9
267.809	5.91
268.183	5.79
268.556	5.65
268.93	5.65
269.304	5.77
269.678	5.83
270.051	5.74
270.425	5.85
270.799	5.89
271.172	5.96
271.546	6.06
271.919	6.12
272.293	5.97
272.666	6.01
273.04	6.09
273.413	6.15
273.787	6.33
274.16	6
274.533	5.9
274.906	5.72
275.279	5.86
275.653	5.83
276.026	5.69
276.399	5.69
276.772	5.83
277.145	5.71
277.518	5.63
277.891	5.62
278.263	5.69
278.636	5.7
279.009	5.74
279.382	5.82
279.755	5.83
280.127	5.98
280.5	5.89
280.872	5.91
281.245	5.96
281.617	5.83
281.99	6.03
282.362	6.18
282.735	5.95
283.107	5.82
283.479	5.85
283.852	6.01
284.224	6.02
284.596	5.89
284.968	5.91
285.34	5.96
285.713	5.92
286.085	5.91
286.457	5.95
286.829	5.9
287.201	5.95
287.572	6.03
287.944	5.88
288.316	5.94
288.688	5.95
289.06	5.93
289.431	5.93
289.803	5.88
290.175	5.8
290.546	6.12
290.918	6.26
291.289	6.33
291.661	6.34
292.032	6.46
292.403	6.69
292.775	6.86
293.146	6.78
293.517	7.01
293.889	7.13
294.26	7
294.631	7.09
295.002	7.11
295.373	7.21
295.744	7.38
296.115	7.32
296.486	7.32
296.857	7.4
297.228	7.59
297.599	7.64
297.97	7.63
298.34	7.71
298.711	7.77
299.082	7.83
299.452	8.01
299.823	8.16
300.194	8.11
300.564	8.17
300.935	8.45
301.305	8.39
301.676	8.45
302.046	8.63
302.416	8.85
302.787	8.85
303.157	8.78
303.527	8.74
303.897	9.04
304.267	9.29
304.637	9.29
305.008	9.39
305.378	9.67
305.748	10.08
306.117	10.08
306.487	10.15
306.857	10.23
307.227	10.24
307.597	10.2
307.967	10.44
308.336	10.52
308.706	10.48
309.076	10.76
309.445	10.82
309.815	10.85
310.184	10.77
310.554	10.8
310.923	10.86
311.293	11
311.662	10.95
312.031	10.97
312.401	11.12
312.77	11.19
313.139	11.24
313.508	11.14
313.877	11.23
314.246	11.31
314.616	11.44
314.985	11.55
315.353	11.67
315.722	11.67
316.091	11.65
316.46	11.81
316.829	11.84
317.198	11.97
317.567	12.1
317.935	12.04
318.304	12.27
318.672	12.54
319.041	12.63
319.41	12.86
319.778	12.79
320.147	12.88
320.515	12.96
320.883	12.89
321.252	12.92
321.62	13.05
321.988	13.23
322.357	13.33
322.725	13.41
323.093	13.65
323.461	13.73
323.829	13.96
324.197	14.01
324.565	14.14
324.933	14.13
325.301	14.28
325.669	14.6
326.037	14.72
326.405	14.74
326.772	14.89
327.14	14.95
327.508	15.2
327.875	15.25
328.243	15.37
328.61	15.49
328.978	15.64
329.346	15.76
329.713	15.75
330.08	15.87
330.448	15.83
330.815	15.77
331.182	15.94
331.55	15.86
331.917	16.02
332.284	16.09
332.651	16.16
333.018	16.07
333.385	16.17
333.752	16.24
334.119	16.23
334.486	16.09
334.853	16.14
335.22	16.15
335.587	16.22
335.954	16.1
336.32	16.21
336.687	16.33
337.054	16.39
337.42	16.35
337.787	16.23
338.153	16.36
338.52	16.41
338.886	16.36
339.253	16.56
339.619	16.57
339.986	16.55
340.352	16.71
340.718	16.89
341.084	16.78
341.451	16.8
341.817	16.86
342.183	16.97
342.549	17.03
342.915	16.99
343.281	17.05
343.647	17.08
344.013	17.11
344.379	17.01
344.745	17.1
345.11	17.1
345.476	17.23
345.842	17.28
346.208	17.33
346.573	17.43
346.939	17.47
347.304	17.51
347.67	17.57
348.035	17.56
348.401	17.53
348.766	17.56
349.132	17.58
349.497	17.59
349.862	17.78
350.228	17.78
350.593	17.81
350.958	17.87
351.323	18
351.688	17.98
352.053	18.14
352.418	18.1
352.783	18.25
353.148	18.22
353.513	18.1
353.878	18.14
354.243	18.07
354.608	18.03
354.972	17.98
355.337	17.91
355.702	17.97
356.066	18.06
356.431	18.09
356.795	18.14
357.16	18.18
357.524	18.05
357.889	18.08
358.253	18.13
358.618	18.06
358.982	17.96
359.346	17.89
359.71	17.79
360.075	17.81
360.439	17.83
360.803	17.79
361.167	17.8
361.531	17.75
361.895	17.72
362.259	17.71
362.623	17.71
362.987	17.69
363.351	17.65
363.714	17.62
364.078	17.64
364.442	17.54
364.806	17.43
365.169	17.35
365.533	17.28
365.896	17.19
366.26	17.1
366.623	17.04
366.987	17.07
367.35	17.04
367.714	16.93
368.077	16.86
368.44	16.9
368.803	16.88
369.167	16.79
369.53	16.7
369.893	16.65
370.256	16.58
370.619	16.49
370.982	16.38
371.345	16.16
371.708	16.11
372.071	15.99
372.434	15.9
372.797	15.91
373.159	15.84
373.522	15.8
373.885	15.82
374.247	15.72
374.61	15.65
374.973	15.54
375.335	15.46
375.698	15.28
376.06	15.09
376.423	14.98
376.785	14.91
377.147	14.89
377.51	14.76
377.872	14.65
378.234	14.62
378.596	14.54
378.958	14.46
379.321	14.29
379.683	14.26
380.045	14.22
380.407	14.1
380.769	14.01
381.13	13.94
381.492	13.78
381.854	13.72
382.216	13.58
382.578	13.52
382.939	13.39
383.301	13.35
383.663	13.28
384.024	13.25
384.386	13.18
384.747	13.15
385.109	13.11
385.47	13.02
385.832	12.95
386.193	12.85
386.554	12.86
386.916	12.82
387.277	12.75
387.638	12.74
387.999	12.67
388.36	12.67
388.721	12.57
389.082	12.56
389.443	12.49
389.804	12.45
390.165	12.41
390.526	12.37
390.887	12.33
391.248	12.31
391.609	12.24
391.969	12.26
392.33	12.15
392.691	12.07
393.051	12.03
393.412	11.99
393.772	11.96
394.133	11.92
394.493	11.83
394.854	11.75
395.214	11.66
395.574	11.59
395.935	11.44
396.295	11.38
396.655	11.28
397.015	11.25
397.376	11.18
397.736	11.11
398.096	11.09
398.456	11.01
398.816	10.92
399.176	10.81
399.535	10.66
399.895	10.59
400.255	10.53
400.615	10.48
400.975	10.38
401.334	10.27
401.694	10.17
402.054	10.15
402.413	10.12
402.773	10.05
403.132	9.99
403.492	9.95
403.851	9.89
404.211	9.86
404.57	9.79
404.929	9.77
405.288	9.75
405.648	9.64
406.007	9.6
406.366	9.56
406.725	9.58
407.084	9.54
407.443	9.53
407.802	9.5
408.161	9.47
408.52	9.43
408.879	9.41
409.238	9.39
409.596	9.36
409.955	9.31
410.314	9.3
410.673	9.3
411.031	9.27
411.39	9.26
411.748	9.23
412.107	9.2
412.465	9.13
412.824	9.07
413.182	9.06
413.54	9.03
413.899	9
414.257	8.96
414.615	8.92
414.974	8.86
415.332	8.82
415.69	8.76
416.048	8.72
416.406	8.68
416.764	8.63
417.122	8.59
417.48	8.55
417.838	8.52
418.195	8.48
418.553	8.44
418.911	8.4
419.269	8.37
419.626	8.36
419.984	8.32
420.342	8.3
420.699	8.28
421.057	8.25
421.414	8.2
421.772	8.15
422.129	8.12
422.486	8.08
422.844	8.05
423.201	8.02
423.558	8
423.915	7.98
424.273	7.97
424.63	7.94
424.987	7.91
425.344	7.89
425.701	7.84
426.058	7.81
426.415	7.8
426.772	7.76
427.128	7.72
427.485	7.7
427.842	7.65
428.199	7.63
428.555	7.61
428.912	7.61
429.269	7.59
429.625	7.58
429.982	7.55
430.338	7.53
430.695	7.52
431.051	7.49
431.407	7.48
431.764	7.44
432.12	7.4
432.476	7.4
432.832	7.37
433.189	7.39
433.545	7.36
433.901	7.34
434.257	7.33
434.613	7.33
434.969	7.34
435.325	7.37
435.681	7.36
436.036	7.36
436.392	7.37
436.748	7.36
437.104	7.36
437.459	7.37
437.815	7.37
438.171	7.36
438.526	7.39
438.882	7.4
439.237	7.41
439.593	7.43
439.948	7.44
440.304	7.45
440.659	7.44
441.014	7.46
441.369	7.46
441.725	7.45
442.08	7.43
442.435	7.42
442.79	7.41
443.145	7.4
443.5	7.38
443.855	7.37
444.21	7.37
444.565	7.36
444.92	7.36
445.275	7.35
445.629	7.34
445.984	7.34
446.339	7.31
446.693	7.29
447.048	7.26
447.403	7.23
447.757	7.2
448.112	7.18
448.466	7.17
448.82	7.17
449.175	7.16
449.529	7.14
449.883	7.11
450.238	7.07
450.592	7.04
450.946	7.03
451.3	7
451.654	6.97
452.008	6.96
452.362	6.93
452.716	6.91
453.07	6.87
453.424	6.83
453.778	6.82
454.132	6.8
454.486	6.8
454.839	6.8
455.193	6.8
455.547	6.76
455.9	6.74
456.254	6.72
456.607	6.72
456.961	6.73
457.314	6.74
457.668	6.74
458.021	6.75
458.375	6.74
458.728	6.75
459.081	6.76
459.434	6.73
459.787	6.73
460.141	6.75
460.494	6.78
460.847	6.82
461.2	6.83
461.553	6.84
461.906	6.85
462.259	6.88
462.611	6.9
462.964	6.96
463.317	7
463.67	7.04
464.022	7.07
464.375	7.09
464.728	7.12
465.08	7.17
465.433	7.2
465.785	7.24
466.138	7.25
466.49	7.29
466.843	7.34
467.195	7.38
467.547	7.43
467.899	7.46
468.252	7.47
468.604	7.5
468.956	7.53
469.308	7.55
469.66	7.57
470.012	7.59
470.364	7.63
470.716	7.65
471.068	7.68
471.42	7.72
471.772	7.76
472.123	7.8
472.475	7.81
472.827	7.85
473.178	7.88
473.53	7.92
473.882	7.94
474.233	7.97
474.585	7.99
474.936	8
475.288	7.98
475.639	8.01
475.99	8.01
476.342	8.03
476.693	8.04
477.044	8.03
477.395	8.04
477.746	8.01
478.097	7.99
478.448	7.98
478.8	7.93
479.15	7.88
479.501	7.88
479.852	7.85
480.203	7.83
480.554	7.8
480.905	7.8
481.255	7.78
481.606	7.77
481.957	7.76
482.307	7.73
482.658	7.71
483.009	7.69
483.359	7.67
483.709	7.67
484.06	7.65
484.41	7.65
484.761	7.63
485.111	7.62
485.461	7.61
485.811	7.59
486.162	7.59
486.512	7.6
486.862	7.57
487.212	7.57
487.562	7.56
487.912	7.56
488.262	7.54
488.612	7.53
488.961	7.51
489.311	7.5
489.661	7.52
490.011	7.54
490.36	7.53
490.71	7.53
491.06	7.52
491.409	7.54
491.759	7.55
492.108	7.59
492.458	7.61
492.807	7.62
493.157	7.64
493.506	7.68
493.855	7.7
494.204	7.74
494.554	7.77
494.903	7.82
495.252	7.85
495.601	7.92
495.95	8
496.299	8.07
496.648	8.13
496.997	8.18
497.346	8.26
497.695	8.36
498.043	8.48
498.392	8.57
498.741	8.66
499.09	8.74
499.438	8.82
499.787	8.91
500.135	9.08
500.484	9.22
500.832	9.33
501.181	9.46
501.529	9.6
501.878	9.75
502.226	9.87
502.574	10.03
502.923	10.19
503.271	10.34
503.619	10.54
503.967	10.71
504.315	10.89
504.663	11.07
505.011	11.24
505.359	11.41
505.707	11.61
506.055	11.79
506.403	11.98
506.751	12.18
507.098	12.37
507.446	12.56
507.794	12.72
508.141	12.92
508.489	13.12
508.837	13.34
509.184	13.57
509.531	13.79
509.879	13.98
510.226	14.18
510.574	14.38
510.921	14.57
511.268	14.77
511.616	14.97
511.963	15.18
512.31	15.42
512.657	15.64
513.004	15.83
513.351	16.09
513.698	16.35
514.045	16.58
514.392	16.84
514.739	17.07
515.086	17.35
515.432	17.58
515.779	17.81
516.126	18.04
516.473	18.27
516.819	18.47
517.166	18.65
517.512	18.85
517.859	19.03
518.205	19.21
518.552	19.4
518.898	19.62
519.245	19.78
519.591	19.94
519.937	20.13
520.283	20.32
520.629	20.5
520.976	20.69
521.322	20.88
521.668	21.09
522.014	21.32
522.36	21.53
522.706	21.79
523.052	22.06
523.398	22.29
523.743	22.58
524.089	22.84
524.435	23.13
524.781	23.39
525.126	23.62
525.472	23.85
525.817	24.05
526.163	24.22
526.509	24.38
526.854	24.53
527.199	24.67
527.545	24.81
527.89	24.98
528.235	25.14
528.581	25.31
528.926	25.47
529.271	25.62
529.616	25.77
529.961	25.91
530.306	26.07
530.651	26.26
530.996	26.42
531.341	26.64
531.686	26.81
532.031	26.98
532.376	27.19
532.721	27.4
533.065	27.6
533.41	27.8
533.755	28.05
534.099	28.3
534.444	28.56
534.788	28.81
535.133	29.01
535.477	29.25
535.822	29.51
536.166	29.79
536.51	30.08
536.855	30.41
537.199	30.77
537.543	31.09
537.887	31.41
538.231	31.7
538.576	31.99
538.92	32.33
539.264	32.65
539.608	32.94
539.951	33.2
540.295	33.45
540.639	33.7
540.983	33.92
541.327	34.15
541.671	34.36
542.014	34.59
542.358	34.82
542.701	35.05
543.045	35.26
543.389	35.43
543.732	35.66
544.075	35.86
544.419	36.06
544.762	36.29
545.105	36.53
545.449	36.82
545.792	37.09
546.135	37.36
546.478	37.64
546.821	37.93
547.165	38.25
547.508	38.55
547.851	38.93
548.194	39.26
548.536	39.62
548.879	39.93
549.222	40.23
549.565	40.5
549.908	40.79
550.25	41.14
550.593	41.47
550.936	41.78
551.278	42.05
551.621	42.3
551.963	42.56
552.306	42.84
552.648	43.11
552.991	43.32
553.333	43.6
553.675	43.83
554.017	44.06
554.36	44.24
554.702	44.47
555.044	44.62
555.386	44.91
555.728	45.08
556.07	45.31
556.412	45.55
556.754	45.81
557.096	46.03
557.438	46.22
557.78	46.4
558.121	46.65
558.463	46.85
558.805	47.14
559.147	47.33
559.488	47.49
559.83	47.71
560.171	47.88
560.513	48.06
560.854	48.19
561.196	48.36
561.537	48.49
561.878	48.68
562.22	48.82
562.561	48.94
562.902	49.09
563.243	49.23
563.584	49.33
563.925	49.48
564.266	49.59
564.607	49.73
564.948	49.88
565.289	50
565.63	50.19
565.971	50.26
566.312	50.41
566.653	50.53
566.993	50.64
567.334	50.79
567.675	50.91
568.015	51.03
568.356	51.12
568.696	51.31
569.037	51.46
569.377	51.57
569.718	51.72
570.058	51.82
570.398	52
570.739	52.12
571.079	52.19
571.419	52.34
571.759	52.43
572.099	52.49
572.439	52.56
572.779	52.62
573.119	52.71
573.459	52.87
573.799	52.99
574.139	53.06
574.479	53.07
574.819	53.14
575.158	53.24
575.498	53.35
575.838	53.39
576.177	53.47
576.517	53.51
576.856	53.55
577.196	53.66
577.535	53.68
577.875	53.78
578.214	53.96
578.553	53.95
578.893	54.06
579.232	54.25
579.571	54.32
579.91	54.41
580.25	54.47
580.589	54.47
580.928	54.44
581.267	54.52
581.606	54.68
581.945	54.75
582.283	54.8
582.622	54.87
582.961	54.96
583.3	55.01
583.639	55.15
583.977	55.14
584.316	55.26
584.654	55.41
584.993	55.49
585.332	55.45
585.67	55.58
586.008	55.6
586.347	55.61
586.685	55.67
587.024	55.78
587.362	55.87
587.7	55.91
588.038	56.09
588.376	56.07
588.715	56.19
589.053	56.15
589.391	56.22
589.729	56.29
590.067	56.33
590.404	56.33
590.742	56.41
591.08	56.46
591.418	56.42
591.756	56.35
592.093	56.35
592.431	56.44
592.769	56.53
593.106	56.53
593.444	56.55
593.781	56.59
594.119	56.64
594.456	56.69
594.793	56.77
595.131	56.78
595.468	56.81
595.805	56.8
596.143	56.9
596.48	56.89
596.817	56.99
597.154	57.04
597.491	57.13
597.828	57.14
598.165	57.23
598.502	57.28
598.839	57.47
599.176	57.58
599.512	57.57
599.849	57.57
600.186	57.73
600.523	57.72
600.859	57.73
601.196	57.64
601.532	57.67
601.869	57.7
602.205	57.77
602.542	57.79
602.878	57.78
603.215	57.79
603.551	57.83
603.887	57.81
604.223	57.8
604.56	57.84
604.896	57.83
605.232	57.83
605.568	57.86
605.904	57.79
606.24	57.74
606.576	57.83
606.912	57.81
607.248	57.73
607.583	57.85
607.919	57.88
608.255	57.98
608.591	58.01
608.926	57.98
609.262	57.96
609.597	58.04
609.933	58.09
610.268	58.13
610.604	58.2
610.939	58.2
611.275	58.2
611.61	58.19
611.945	58.25
612.281	58.29
612.616	58.38
612.951	58.38
613.286	58.45
613.621	58.52
613.956	58.63
614.291	58.67
614.626	58.64
614.961	58.71
615.296	58.72
615.631	58.75
615.966	58.67
616.3	58.7
616.635	58.79
616.97	58.81
617.304	58.76
617.639	58.76
617.973	58.78
618.308	58.79
618.642	58.86
618.977	58.91
619.311	58.96
619.646	58.93
619.98	58.92
620.314	58.81
620.648	58.72
620.983	58.82
621.317	58.97
621.651	58.97
621.985	59.03
622.319	59.16
622.653	59.22
622.987	59.33
623.321	59.36
623.655	59.41
623.988	59.48
624.322	59.54
624.656	59.58
624.99	59.59
625.323	59.65
625.657	59.64
625.99	59.61
626.324	59.51
626.657	59.53
626.991	59.6
627.324	59.74
627.658	59.78
627.991	59.78
628.324	59.73
628.657	59.75
628.991	59.7
629.324	59.7
629.657	59.65
629.99	59.58
630.323	59.57
630.656	59.45
630.989	59.49
631.322	59.53
631.655	59.47
631.987	59.47
632.32	59.46
632.653	59.45
632.986	59.52
633.318	59.65
633.651	59.7
633.984	59.69
634.316	59.65
634.649	59.55
634.981	59.48
635.313	59.42
635.646	59.54
635.978	59.57
636.31	59.51
636.643	59.56
636.975	59.79
637.307	59.76
637.639	59.91
637.971	59.92
638.303	59.91
638.635	59.9
638.967	59.87
639.299	59.95
639.631	59.86
639.963	59.79
640.295	59.75
640.626	59.74
640.958	59.79
641.29	59.93
641.621	60.01
641.953	59.94
642.285	60.08
642.616	59.98
642.948	60.18
643.279	60.2
643.61	60.18
643.942	60.12
644.273	60.19
644.604	60.05
644.936	59.95
645.267	59.96
645.598	60.11
645.929	60.25
646.26	60.27
646.591	60.41
646.922	60.48
647.253	60.48
647.584	60.34
647.915	60.28
648.245	60.12
648.576	60.17
648.907	60.29
649.238	60.23
649.568	60.28
649.899	60.08
650.229	60.08
650.56	60.11
650.89	60.1
651.221	60.08
651.551	60.14
651.882	60.25
652.212	60.25
652.542	60.23
652.872	60.19
653.203	60.11
653.533	60.13
653.863	60.08
654.193	60.04
654.523	60.25
654.853	60.33
655.183	60.38
655.513	60.28
655.843	60.21
656.172	60.25
656.502	60.36
656.832	60.36
657.162	60.44
657.491	60.45
657.821	60.54
658.15	60.51
658.48	60.63
658.809	60.53
659.139	60.64
659.468	60.65
659.798	60.66
660.127	60.7
660.456	60.58
660.785	60.57
661.115	60.59
