Data from BU26847_Reflection_00015.txt Node
Date: Mon Nov 18 16:41:13 EST 2019
User: vgr7
Spectrometer: USB2G7710
Scans to average: 3
Trigger mode: 4
Integration Time (sec): 2.000000E-2
Electric dark correction enabled: true
Boxcar width: 10
XAxis mode: Wavelengths
Number of Pixels in Spectrum: 2048
>>>>>Begin Spectral Data<<<<<
177.721	26.28
178.105	-120.34
178.488	-2958.82
178.871	-278.38
179.254	611.63
179.636	-91.78
180.019	287.19
180.402	65.79
180.785	1026.83
181.168	1193.75
181.55	2645.45
181.933	209.09
182.316	105.33
182.698	155.73
183.081	107.48
183.463	261.14
183.846	200.29
184.228	234.72
184.611	572.73
184.993	8100
185.376	199.29
185.758	-13900
186.14	1169.77
186.522	1036.17
186.904	-361.54
187.287	-855.22
187.669	-107.85
188.051	-242.01
188.433	-121.61
188.815	-55.6
189.197	-8.56
189.579	18.58
189.961	-3.99
190.342	-4.63
190.724	12.65
191.106	16.59
191.488	43.12
191.869	41.79
192.251	19.06
192.633	16.23
193.014	2.97
193.396	-2.17
193.777	13.6
194.159	-8.18
194.54	-4.89
194.922	-19.13
195.303	-13.06
195.684	2.76
196.065	87.86
196.447	72.77
196.828	77.65
197.209	77.65
197.59	43.79
197.971	47.54
198.352	36.92
198.733	30.75
199.114	50.37
199.495	35.73
199.876	39.96
200.257	40.03
200.638	50.36
201.018	31.33
201.399	48.58
201.78	61.38
202.16	47.64
202.541	30.07
202.922	548.98
203.302	789.66
203.683	10.83
204.063	118.93
204.444	35.94
204.824	4.76
205.204	37.78
205.585	-115.77
205.965	-193.88
206.345	-105.66
206.725	-69.07
207.106	-21.78
207.486	-5.08
207.866	10.95
208.246	16.4
208.626	50.92
209.006	-110.17
209.386	-29.23
209.766	199.45
210.145	110.93
210.525	190.09
210.905	-269.43
211.285	-159.46
211.664	-20.1
212.044	-25.3
212.424	-1.55
212.803	-20.1
213.183	-17.88
213.562	-18
213.942	-17.79
214.321	-28.47
214.701	-30.23
215.08	-21.74
215.459	-22.36
215.838	3.75
216.218	-9.83
216.597	6.21
216.976	-16.95
217.355	-11
217.734	12.17
218.113	5.51
218.492	27.99
218.871	32.58
219.25	29.02
219.629	16.44
220.008	25.78
220.387	5.37
220.766	11.04
221.144	-7.83
221.523	-29.38
221.902	-25.54
222.28	-21.16
222.659	-0.07
223.037	14.35
223.416	17.14
223.794	4.91
224.173	4.94
224.551	0.39
224.929	3.65
225.308	13.59
225.686	17.06
226.064	21.33
226.442	16.04
226.821	21.54
227.199	18.62
227.577	18.09
227.955	14.73
228.333	10.13
228.711	9.01
229.089	16.02
229.467	15
229.845	12.53
230.222	10.34
230.6	7.98
230.978	7.7
231.356	9.79
231.733	10.23
232.111	11.68
232.488	10.73
232.866	9.73
233.243	8.44
233.621	7.49
233.998	8.73
234.376	6.35
234.753	3.58
235.13	3.89
235.508	3.89
235.885	4.04
236.262	4.49
236.639	4.72
237.016	3.39
237.393	4.3
237.77	4.81
238.147	4.72
238.524	4.59
238.901	4.49
239.278	3.43
239.655	3.55
240.032	3.42
240.409	3.66
240.785	3.49
241.162	4
241.539	4.4
241.915	4.26
242.292	4.44
242.668	4.31
243.045	4.32
243.421	4.66
243.798	4.64
244.174	4.51
244.551	4.58
244.927	4.46
245.303	4.26
245.679	4.29
246.056	4.29
246.432	4.36
246.808	4.36
247.184	4.39
247.56	4.37
247.936	4.33
248.312	3.95
248.688	4.25
249.064	4.16
249.44	3.88
249.815	3.66
250.191	4
250.567	4.17
250.943	4.05
251.318	3.93
251.694	3.93
252.069	4.16
252.445	4.05
252.82	3.91
253.196	4.03
253.571	4.2
253.947	4.1
254.322	4.24
254.697	4.22
255.073	4.1
255.448	4.16
255.823	4.34
256.198	4.69
256.573	4.24
256.948	4.22
257.323	4.57
257.698	4.67
258.073	4.45
258.448	4.27
258.823	4.29
259.198	4.23
259.573	4.22
259.948	4.02
260.322	4.13
260.697	4.13
261.072	4.08
261.446	4.1
261.821	4.23
262.195	4.26
262.57	4.3
262.944	4.42
263.319	4.38
263.693	4.17
264.067	4.32
264.442	4.55
264.816	4.59
265.19	4.45
265.564	4.36
265.938	4.4
266.313	4.54
266.687	4.64
267.061	4.64
267.435	4.66
267.809	4.69
268.183	4.54
268.556	4.57
268.93	4.59
269.304	4.55
269.678	4.61
270.051	4.44
270.425	4.4
270.799	4.41
271.172	4.52
271.546	4.5
271.919	4.42
272.293	4.3
272.666	4.27
273.04	4.39
273.413	4.35
273.787	4.34
274.16	4.32
274.533	4.17
274.906	3.99
275.279	3.85
275.653	3.81
276.026	3.8
276.399	3.78
276.772	3.83
277.145	3.65
277.518	3.69
277.891	3.72
278.263	3.72
278.636	3.8
279.009	3.56
279.382	3.82
279.755	3.74
280.127	3.94
280.5	3.84
280.872	3.87
281.245	3.89
281.617	3.91
281.99	3.92
282.362	3.99
282.735	4
283.107	4.11
283.479	4.29
283.852	4.32
284.224	4.28
284.596	4.26
284.968	4.44
285.34	4.32
285.713	4.34
286.085	4.31
286.457	4.36
286.829	4.57
287.201	4.51
287.572	4.46
287.944	4.37
288.316	4.48
288.688	4.24
289.06	4.38
289.431	4.46
289.803	4.54
290.175	4.54
290.546	4.72
290.918	4.82
291.289	4.84
291.661	4.87
292.032	4.98
292.403	5.09
292.775	5.11
293.146	5.17
293.517	5.12
293.889	5.17
294.26	5.13
294.631	5.04
295.002	5.09
295.373	5.14
295.744	5.16
296.115	5.1
296.486	5.27
296.857	5.16
297.228	5.21
297.599	5.08
297.97	5.19
298.34	5.23
298.711	5.29
299.082	5.2
299.452	5.22
299.823	5.3
300.194	5.33
300.564	5.19
300.935	5.31
301.305	5.36
301.676	5.34
302.046	5.41
302.416	5.57
302.787	5.53
303.157	5.71
303.527	5.75
303.897	5.79
304.267	5.88
304.637	6.05
305.008	5.95
305.378	6.09
305.748	6.13
306.117	6.03
306.487	5.87
306.857	6.04
307.227	6.27
307.597	6.23
307.967	6.17
308.336	6.41
308.706	6.33
309.076	6.44
309.445	6.56
309.815	6.55
310.184	6.43
310.554	6.38
310.923	6.42
311.293	6.41
311.662	6.5
312.031	6.56
312.401	6.7
312.77	6.83
313.139	6.99
313.508	7.01
313.877	7.13
314.246	7.34
314.616	7.44
314.985	7.31
315.353	7.36
315.722	7.45
316.091	7.35
316.46	7.34
316.829	7.38
317.198	7.33
317.567	7.34
317.935	7.55
318.304	7.85
318.672	7.83
319.041	8.09
319.41	8.26
319.778	8.12
320.147	8.01
320.515	8.05
320.883	7.91
321.252	7.88
321.62	7.9
321.988	7.89
322.357	7.9
322.725	7.94
323.093	8.08
323.461	8.19
323.829	8.35
324.197	8.57
324.565	8.7
324.933	8.79
325.301	8.81
325.669	8.8
326.037	8.83
326.405	8.88
326.772	8.92
327.14	8.98
327.508	9.07
327.875	8.96
328.243	9.01
328.61	9.12
328.978	9.19
329.346	9.36
329.713	9.37
330.08	9.41
330.448	9.44
330.815	9.44
331.182	9.39
331.55	9.42
331.917	9.58
332.284	9.63
332.651	9.6
333.018	9.66
333.385	9.68
333.752	9.79
334.119	9.81
334.486	9.72
334.853	9.71
335.22	9.71
335.587	9.91
335.954	9.96
336.32	9.93
336.687	10.14
337.054	10.07
337.42	10.11
337.787	10.18
338.153	10.23
338.52	10.3
338.886	10.24
339.253	10.25
339.619	10.14
339.986	10.1
340.352	10.28
340.718	10.4
341.084	10.38
341.451	10.39
341.817	10.47
342.183	10.56
342.549	10.58
342.915	10.82
343.281	10.72
343.647	10.69
344.013	10.71
344.379	10.54
344.745	10.57
345.11	10.62
345.476	10.6
345.842	10.68
346.208	10.72
346.573	10.82
346.939	10.8
347.304	10.79
347.67	10.88
348.035	10.86
348.401	10.79
348.766	10.89
349.132	10.89
349.497	10.83
349.862	10.87
350.228	10.84
350.593	10.61
350.958	10.69
351.323	10.76
351.688	10.88
352.053	11.02
352.418	11.08
352.783	11.05
353.148	10.98
353.513	10.9
353.878	10.81
354.243	10.92
354.608	10.96
354.972	10.96
355.337	10.93
355.702	10.96
356.066	10.98
356.431	10.96
356.795	10.92
357.16	10.88
357.524	10.83
357.889	10.76
358.253	10.84
358.618	10.91
358.982	10.87
359.346	10.76
359.71	10.67
360.075	10.59
360.439	10.64
360.803	10.69
361.167	10.65
361.531	10.66
361.895	10.6
362.259	10.55
362.623	10.56
362.987	10.58
363.351	10.52
363.714	10.5
364.078	10.44
364.442	10.4
364.806	10.42
365.169	10.39
365.533	10.34
365.896	10.24
366.26	10.16
366.623	10.1
366.987	10.07
367.35	9.98
367.714	10.04
368.077	9.92
368.44	9.87
368.803	9.88
369.167	9.81
369.53	9.74
369.893	9.76
370.256	9.71
370.619	9.56
370.982	9.45
371.345	9.39
371.708	9.41
372.071	9.28
372.434	9.15
372.797	9.02
373.159	9.05
373.522	9.1
373.885	9.09
374.247	9.08
374.61	9.06
374.973	9.06
375.335	8.96
375.698	8.95
376.06	8.83
376.423	8.8
376.785	8.83
377.147	8.8
377.51	8.72
377.872	8.67
378.234	8.61
378.596	8.61
378.958	8.54
379.321	8.49
379.683	8.52
380.045	8.5
380.407	8.46
380.769	8.36
381.13	8.26
381.492	8.15
381.854	8.06
382.216	7.98
382.578	7.93
382.939	7.84
383.301	7.8
383.663	7.84
384.024	7.71
384.386	7.63
384.747	7.56
385.109	7.52
385.47	7.42
385.832	7.42
386.193	7.4
386.554	7.38
386.916	7.28
387.277	7.26
387.638	7.24
387.999	7.25
388.36	7.24
388.721	7.2
389.082	7.19
389.443	7.16
389.804	7.13
390.165	7.08
390.526	7.1
390.887	7.02
391.248	6.96
391.609	6.96
391.969	6.96
392.33	6.96
392.691	6.9
393.051	6.9
393.412	6.86
393.772	6.76
394.133	6.74
394.493	6.71
394.854	6.66
395.214	6.6
395.574	6.57
395.935	6.54
396.295	6.5
396.655	6.46
397.015	6.42
397.376	6.32
397.736	6.3
398.096	6.25
398.456	6.24
398.816	6.17
399.176	6.13
399.535	6.04
399.895	5.97
400.255	5.94
400.615	5.9
400.975	5.83
401.334	5.83
401.694	5.79
402.054	5.75
402.413	5.71
402.773	5.68
403.132	5.65
403.492	5.59
403.851	5.56
404.211	5.54
404.57	5.51
404.929	5.55
405.288	5.51
405.648	5.49
406.007	5.46
406.366	5.48
406.725	5.48
407.084	5.49
407.443	5.48
407.802	5.49
408.161	5.48
408.52	5.48
408.879	5.46
409.238	5.43
409.596	5.4
409.955	5.39
410.314	5.39
410.673	5.36
411.031	5.38
411.39	5.38
411.748	5.34
412.107	5.34
412.465	5.31
412.824	5.3
413.182	5.26
413.54	5.26
413.899	5.2
414.257	5.2
414.615	5.14
414.974	5.11
415.332	5.07
415.69	5.04
416.048	5.01
416.406	5.01
416.764	4.96
417.122	4.97
417.48	4.92
417.838	4.91
418.195	4.89
418.553	4.85
418.911	4.83
419.269	4.81
419.626	4.79
419.984	4.78
420.342	4.77
420.699	4.75
421.057	4.74
421.414	4.73
421.772	4.7
422.129	4.7
422.486	4.67
422.844	4.66
423.201	4.64
423.558	4.64
423.915	4.62
424.273	4.63
424.63	4.61
424.987	4.61
425.344	4.58
425.701	4.57
426.058	4.56
426.415	4.56
426.772	4.57
427.128	4.55
427.485	4.55
427.842	4.54
428.199	4.54
428.555	4.51
428.912	4.51
429.269	4.5
429.625	4.48
429.982	4.48
430.338	4.46
430.695	4.46
431.051	4.46
431.407	4.48
431.764	4.5
432.12	4.5
432.476	4.5
432.832	4.51
433.189	4.52
433.545	4.5
433.901	4.48
434.257	4.45
434.613	4.46
434.969	4.44
435.325	4.43
435.681	4.41
436.036	4.42
436.392	4.41
436.748	4.4
437.104	4.39
437.459	4.41
437.815	4.42
438.171	4.42
438.526	4.4
438.882	4.37
439.237	4.36
439.593	4.36
439.948	4.35
440.304	4.34
440.659	4.33
441.014	4.36
441.369	4.36
441.725	4.37
442.08	4.35
442.435	4.35
442.79	4.36
443.145	4.38
443.5	4.36
443.855	4.37
444.21	4.37
444.565	4.38
444.92	4.37
445.275	4.36
445.629	4.37
445.984	4.37
446.339	4.35
446.693	4.32
447.048	4.3
447.403	4.27
447.757	4.27
448.112	4.26
448.466	4.23
448.82	4.22
449.175	4.2
449.529	4.21
449.883	4.21
450.238	4.2
450.592	4.19
450.946	4.19
451.3	4.17
451.654	4.15
452.008	4.17
452.362	4.14
452.716	4.15
453.07	4.14
453.424	4.14
453.778	4.15
454.132	4.16
454.486	4.16
454.839	4.18
455.193	4.17
455.547	4.17
455.9	4.18
456.254	4.18
456.607	4.18
456.961	4.17
457.314	4.16
457.668	4.15
458.021	4.15
458.375	4.14
458.728	4.15
459.081	4.17
459.434	4.17
459.787	4.17
460.141	4.18
460.494	4.16
460.847	4.18
461.2	4.18
461.553	4.21
461.906	4.21
462.259	4.24
462.611	4.25
462.964	4.28
463.317	4.3
463.67	4.33
464.022	4.34
464.375	4.35
464.728	4.37
465.08	4.41
465.433	4.42
465.785	4.43
466.138	4.43
466.49	4.43
466.843	4.44
467.195	4.46
467.547	4.44
467.899	4.47
468.252	4.46
468.604	4.48
468.956	4.47
469.308	4.49
469.66	4.47
470.012	4.48
470.364	4.48
470.716	4.47
471.068	4.48
471.42	4.47
471.772	4.51
472.123	4.51
472.475	4.52
472.827	4.52
473.178	4.57
473.53	4.59
473.882	4.61
474.233	4.62
474.585	4.6
474.936	4.62
475.288	4.62
475.639	4.63
475.99	4.63
476.342	4.65
476.693	4.66
477.044	4.68
477.395	4.66
477.746	4.65
478.097	4.67
478.448	4.67
478.8	4.66
479.15	4.66
479.501	4.65
479.852	4.63
480.203	4.62
480.554	4.59
480.905	4.58
481.255	4.59
481.606	4.59
481.957	4.59
482.307	4.59
482.658	4.59
483.009	4.59
483.359	4.59
483.709	4.58
484.06	4.57
484.41	4.57
484.761	4.58
485.111	4.58
485.461	4.57
485.811	4.57
486.162	4.56
486.512	4.57
486.862	4.57
487.212	4.57
487.562	4.59
487.912	4.59
488.262	4.59
488.612	4.58
488.961	4.58
489.311	4.58
489.661	4.58
490.011	4.59
490.36	4.58
490.71	4.58
491.06	4.6
491.409	4.62
491.759	4.62
492.108	4.62
492.458	4.63
492.807	4.65
493.157	4.66
493.506	4.69
493.855	4.71
494.204	4.71
494.554	4.74
494.903	4.74
495.252	4.76
495.601	4.79
495.95	4.81
496.299	4.84
496.648	4.87
496.997	4.91
497.346	4.93
497.695	4.97
498.043	5
498.392	5.02
498.741	5.05
499.09	5.08
499.438	5.12
499.787	5.16
500.135	5.2
500.484	5.24
500.832	5.29
501.181	5.32
501.529	5.39
501.878	5.44
502.226	5.49
502.574	5.54
502.923	5.6
503.271	5.68
503.619	5.72
503.967	5.8
504.315	5.84
504.663	5.89
505.011	5.97
505.359	6.02
505.707	6.08
506.055	6.16
506.403	6.23
506.751	6.3
507.098	6.37
507.446	6.45
507.794	6.52
508.141	6.6
508.489	6.67
508.837	6.74
509.184	6.81
509.531	6.9
509.879	6.99
510.226	7.1
510.574	7.15
510.921	7.27
511.268	7.34
511.616	7.44
511.963	7.55
512.31	7.65
512.657	7.77
513.004	7.89
513.351	8.03
513.698	8.17
514.045	8.3
514.392	8.44
514.739	8.55
515.086	8.7
515.432	8.82
515.779	8.96
516.126	9.09
516.473	9.18
516.819	9.3
517.166	9.43
517.512	9.51
517.859	9.63
518.205	9.74
518.552	9.86
518.898	9.96
519.245	10.08
519.591	10.18
519.937	10.29
520.283	10.43
520.629	10.53
520.976	10.66
521.322	10.78
521.668	10.9
522.014	11.06
522.36	11.18
522.706	11.35
523.052	11.51
523.398	11.69
523.743	11.9
524.089	12.09
524.435	12.26
524.781	12.44
525.126	12.59
525.472	12.71
525.817	12.83
526.163	12.95
526.509	13.06
526.854	13.19
527.199	13.28
527.545	13.37
527.89	13.47
528.235	13.56
528.581	13.66
528.926	13.76
529.271	13.87
529.616	13.97
529.961	14.05
530.306	14.16
530.651	14.27
530.996	14.37
531.341	14.47
531.686	14.58
532.031	14.69
532.376	14.82
532.721	14.96
533.065	15.09
533.41	15.25
533.755	15.38
534.099	15.51
534.444	15.66
534.788	15.81
535.133	15.95
535.477	16.11
535.822	16.25
536.166	16.43
536.51	16.59
536.855	16.79
537.199	16.99
537.543	17.18
537.887	17.39
538.231	17.6
538.576	17.8
538.92	18.02
539.264	18.18
539.608	18.37
539.951	18.57
540.295	18.75
540.639	18.92
540.983	19.09
541.327	19.25
541.671	19.41
542.014	19.57
542.358	19.74
542.701	19.88
543.045	20.08
543.389	20.24
543.732	20.42
544.075	20.61
544.419	20.78
544.762	20.99
545.105	21.18
545.449	21.36
545.792	21.57
546.135	21.78
546.478	22.03
546.821	22.3
547.165	22.54
547.508	22.77
547.851	23.01
548.194	23.27
548.536	23.53
548.879	23.83
549.222	24.11
549.565	24.41
549.908	24.73
550.25	24.99
550.593	25.26
550.936	25.54
551.278	25.81
551.621	26.12
551.963	26.41
552.306	26.7
552.648	27.02
552.991	27.36
553.333	27.65
553.675	27.93
554.017	28.2
554.36	28.51
554.702	28.83
555.044	29.1
555.386	29.4
555.728	29.72
556.07	30.01
556.412	30.35
556.754	30.62
557.096	30.9
557.438	31.27
557.78	31.6
558.121	31.9
558.463	32.23
558.805	32.53
559.147	32.83
559.488	33.18
559.83	33.46
560.171	33.75
560.513	34.04
560.854	34.39
561.196	34.69
561.537	34.98
561.878	35.29
562.22	35.64
562.561	35.93
562.902	36.21
563.243	36.52
563.584	36.78
563.925	37.08
564.266	37.31
564.607	37.55
564.948	37.79
565.289	38.09
565.63	38.36
565.971	38.59
566.312	38.85
566.653	39.1
566.993	39.35
567.334	39.6
567.675	39.87
568.015	40.08
568.356	40.32
568.696	40.58
569.037	40.82
569.377	41.05
569.718	41.27
570.058	41.48
570.398	41.75
570.739	41.98
571.079	42.23
571.419	42.48
571.759	42.77
572.099	42.97
572.439	43.14
572.779	43.42
573.119	43.66
573.459	43.82
573.799	44.05
574.139	44.25
574.479	44.44
574.819	44.58
575.158	44.8
575.498	45.02
575.838	45.26
576.177	45.43
576.517	45.62
576.856	45.85
577.196	46.1
577.535	46.3
577.875	46.54
578.214	46.74
578.553	46.97
578.893	47.1
579.232	47.31
579.571	47.6
579.91	47.69
580.25	47.91
580.589	48.13
580.928	48.32
581.267	48.49
581.606	48.69
581.945	48.98
582.283	49.25
582.622	49.44
582.961	49.57
583.3	49.71
583.639	49.83
583.977	49.96
584.316	50.07
584.654	50.09
584.993	50.2
585.332	50.34
585.67	50.51
586.008	50.62
586.347	50.83
586.685	50.94
587.024	51.15
587.362	51.27
587.7	51.46
588.038	51.56
588.376	51.72
588.715	51.92
589.053	52.05
589.391	52.09
589.729	52.23
590.067	52.36
590.404	52.52
590.742	52.68
591.08	52.86
591.418	53.03
591.756	53.17
592.093	53.3
592.431	53.46
592.769	53.57
593.106	53.73
593.444	53.81
593.781	53.84
594.119	53.9
594.456	54.03
594.793	54.14
595.131	54.17
595.468	54.24
595.805	54.29
596.143	54.29
596.48	54.41
596.817	54.45
597.154	54.49
597.491	54.58
597.828	54.7
598.165	54.77
598.502	54.82
598.839	54.87
599.176	54.89
599.512	54.96
599.849	55.08
600.186	55.2
600.523	55.35
600.859	55.49
601.196	55.59
601.532	55.69
601.869	55.74
602.205	55.9
602.542	55.96
602.878	55.96
603.215	56.12
603.551	56.2
603.887	56.28
604.223	56.38
604.56	56.46
604.896	56.52
605.232	56.6
605.568	56.68
605.904	56.79
606.24	56.91
606.576	56.9
606.912	56.95
607.248	56.99
607.583	57
607.919	57.08
608.255	57.09
608.591	57.04
608.926	57.14
609.262	57.19
609.597	57.25
609.933	57.38
610.268	57.37
610.604	57.36
610.939	57.46
611.275	57.53
611.61	57.52
611.945	57.62
612.281	57.64
612.616	57.69
612.951	57.8
613.286	57.73
613.621	57.9
613.956	57.94
614.291	57.95
614.626	58.02
614.961	58.11
615.296	58.2
615.631	58.35
615.966	58.37
616.3	58.45
616.635	58.48
616.97	58.52
617.304	58.62
617.639	58.6
617.973	58.51
618.308	58.42
618.642	58.54
618.977	58.47
619.311	58.43
619.646	58.44
619.98	58.46
620.314	58.65
620.648	58.62
620.983	58.6
621.317	58.63
621.651	58.58
621.985	58.53
622.319	58.6
622.653	58.57
622.987	58.64
623.321	58.67
623.655	58.73
623.988	58.82
624.322	58.84
624.656	58.86
624.99	58.89
625.323	58.97
625.657	59.01
625.99	59.05
626.324	59.09
626.657	59.13
626.991	59.14
627.324	59.1
627.658	59.15
627.991	59.24
628.324	59.36
628.657	59.47
628.991	59.43
629.324	59.41
629.657	59.51
629.99	59.57
630.323	59.55
630.656	59.52
630.989	59.48
631.322	59.51
631.655	59.61
631.987	59.77
632.32	59.87
632.653	59.79
632.986	59.8
633.318	59.93
633.651	59.89
633.984	59.88
634.316	59.94
634.649	59.97
634.981	59.97
635.313	59.93
635.646	60.06
635.978	60.23
636.31	60.24
636.643	60.22
636.975	60.27
637.307	60.4
637.639	60.42
637.971	60.51
638.303	60.57
638.635	60.63
638.967	60.47
639.299	60.59
639.631	60.66
639.963	60.73
640.295	60.72
640.626	60.85
640.958	60.86
641.29	60.82
641.621	60.79
641.953	60.72
642.285	60.65
642.616	60.69
642.948	60.62
643.279	60.73
643.61	60.76
643.942	60.71
644.273	60.62
644.604	60.75
644.936	60.68
645.267	60.65
645.598	60.66
645.929	60.83
646.26	60.67
646.591	60.84
646.922	60.78
647.253	60.7
647.584	60.74
647.915	60.73
648.245	60.75
648.576	60.78
648.907	60.9
649.238	60.98
649.568	60.91
649.899	60.88
650.229	60.71
650.56	60.72
650.89	60.7
651.221	60.7
651.551	60.69
651.882	60.71
652.212	60.68
652.542	60.59
652.872	60.56
653.203	60.67
653.533	60.58
653.863	60.7
654.193	60.78
654.523	60.71
654.853	60.73
655.183	60.84
655.513	60.87
655.843	60.92
656.172	60.9
656.502	60.9
656.832	60.97
657.162	61.24
657.491	61.28
657.821	61.37
658.15	61.41
658.48	61.43
658.809	61.44
659.139	61.46
659.468	61.51
659.798	61.4
660.127	61.44
660.456	61.43
660.785	61.36
661.115	61.38
661.444	61.36
661.773	61.43
662.102	61.37
662.431	61.43
662.76	61.42
663.089	61.49
663.418	61.43
663.747	61.42
664.076	61.35
664.404	61.43
664.733	61.38
665.062	61.36
665.39	61.43
665.719	61.46
666.048	61.48
666.376	61.53
