Data from BU26938_Reflection_00012.txt Node
Date: Tue Nov 19 10:42:30 EST 2019
User: vgr7
Spectrometer: USB2G7710
Scans to average: 3
Trigger mode: 4
Integration Time (sec): 2.000000E-2
Electric dark correction enabled: true
Boxcar width: 10
XAxis mode: Wavelengths
Number of Pixels in Spectrum: 2048
>>>>>Begin Spectral Data<<<<<
177.721	229.55
178.105	-1092.31
178.488	840.6
178.871	3050
179.254	103.23
179.636	273.3
180.019	142.66
180.402	33.33
180.785	610.53
181.168	332.82
181.55	457.14
181.933	181.15
182.316	924.68
182.698	-2529.03
183.081	318.63
183.463	-492.02
183.846	-1039.34
184.228	-1121.52
184.611	-2911.63
184.993	-1847.06
185.376	-24828.57
185.758	650.47
186.14	760.66
186.522	511.06
186.904	1009.3
187.287	371.29
187.669	372.66
188.051	334.24
188.433	710.54
188.815	632.42
189.197	473.89
189.579	564.06
189.961	1373.4
190.342	325.86
190.724	636.12
191.106	748.25
191.488	371.32
191.869	258.65
192.251	201.04
192.633	228.59
193.014	187.95
193.396	166.07
193.777	136.48
194.159	107.79
194.54	120.02
194.922	121.37
195.303	110.51
195.684	98.67
196.065	102.31
196.447	62.54
196.828	52.04
197.209	43.44
197.59	35.64
197.971	21.19
198.352	16.06
198.733	6.64
199.114	2.26
199.495	5.98
199.876	-5.22
200.257	-8.93
200.638	-4.56
201.018	-2.59
201.399	-2.76
201.78	11.62
202.16	19.83
202.541	7.67
202.922	3.01
203.302	10.76
203.683	19.22
204.063	14.5
204.444	24.51
204.824	41.42
205.204	55.51
205.585	79.44
205.965	167.3
206.345	131.68
206.725	138.69
207.106	112.57
207.486	118.11
207.866	138.24
208.246	167.62
208.626	208.14
209.006	260.52
209.386	333.25
209.766	296.13
210.145	270.51
210.525	693.67
210.905	704.44
211.285	383.96
211.664	317.59
212.044	468.76
212.424	324.24
212.803	397.99
213.183	391.08
213.562	293.84
213.942	185.37
214.321	236.87
214.701	246.67
215.08	266.28
215.459	208.15
215.838	192.52
216.218	157.57
216.597	163.23
216.976	113.24
217.355	98.26
217.734	96.1
218.113	108.44
218.492	82.86
218.871	83.12
219.25	77.31
219.629	68.31
220.008	66.38
220.387	71.3
220.766	52.39
221.144	66.33
221.523	68.1
221.902	61.68
222.28	47.09
222.659	60.62
223.037	51.47
223.416	50.3
223.794	55.82
224.173	54.12
224.551	38.76
224.929	44.48
225.308	28.09
225.686	26.76
226.064	22.64
226.442	21.91
226.821	20.29
227.199	22.11
227.577	26.03
227.955	23.72
228.333	24.29
228.711	31.28
229.089	27.36
229.467	25.69
229.845	25.6
230.222	27.52
230.6	22.01
230.978	23
231.356	23.7
231.733	23.67
232.111	20.52
232.488	20.31
232.866	22.5
233.243	26.57
233.621	24.24
233.998	24.1
234.376	22.86
234.753	21.54
235.13	22.77
235.508	21.43
235.885	19.03
236.262	17.54
236.639	16.58
237.016	16.06
237.393	13.92
237.77	14.03
238.147	12.8
238.524	12.65
238.901	12.5
239.278	10.15
239.655	9.8
240.032	10.17
240.409	10.3
240.785	9.17
241.162	8.91
241.539	8.94
241.915	8.27
242.292	8.78
242.668	8.54
243.045	7.87
243.421	7.82
243.798	7.6
244.174	7.23
244.551	7.01
244.927	6.84
245.303	6.69
245.679	6.52
246.056	6.4
246.432	6.11
246.808	6.01
247.184	6.18
247.56	5.78
247.936	5.63
248.312	5.35
248.688	5.35
249.064	5.15
249.44	4.98
249.815	5.08
250.191	4.91
250.567	5.01
250.943	5.25
251.318	5.12
251.694	5.15
252.069	5.05
252.445	5.01
252.82	4.88
253.196	5.06
253.571	4.99
253.947	4.72
254.322	4.85
254.697	4.87
255.073	4.7
255.448	4.8
255.823	4.64
256.198	4.73
256.573	4.65
256.948	4.47
257.323	4.64
257.698	4.54
258.073	4.34
258.448	4.24
258.823	3.96
259.198	3.93
259.573	3.96
259.948	4.17
260.322	3.93
260.697	3.92
261.072	3.82
261.446	3.85
261.821	3.92
262.195	4.04
262.57	3.92
262.944	4.11
263.319	4.19
263.693	4.29
264.067	4.29
264.442	4.53
264.816	4.63
265.19	4.56
265.564	4.62
265.938	4.75
266.313	4.57
266.687	4.82
267.061	4.99
267.435	5.14
267.809	4.95
268.183	5.07
268.556	5.23
268.93	5.47
269.304	5.59
269.678	5.51
270.051	5.48
270.425	5.56
270.799	5.39
271.172	5.35
271.546	5.47
271.919	5.51
272.293	5.52
272.666	5.6
273.04	5.69
273.413	5.54
273.787	5.46
274.16	5.53
274.533	5.52
274.906	5.53
275.279	5.46
275.653	5.64
276.026	5.75
276.399	5.62
276.772	5.4
277.145	5.32
277.518	5.49
277.891	5.5
278.263	5.59
278.636	5.78
279.009	5.56
279.382	5.37
279.755	5.35
280.127	5.15
280.5	5.05
280.872	5.07
281.245	5.04
281.617	5.15
281.99	5.15
282.362	5.15
282.735	4.88
283.107	4.9
283.479	4.81
283.852	4.74
284.224	4.83
284.596	4.89
284.968	4.87
285.34	4.8
285.713	4.71
286.085	4.56
286.457	4.47
286.829	4.57
287.201	4.6
287.572	4.6
287.944	4.58
288.316	4.62
288.688	4.6
289.06	4.8
289.431	4.82
289.803	4.95
290.175	4.73
290.546	4.91
290.918	4.8
291.289	4.72
291.661	4.65
292.032	4.6
292.403	4.54
292.775	4.51
293.146	4.59
293.517	4.54
293.889	4.65
294.26	4.68
294.631	4.87
295.002	4.84
295.373	4.76
295.744	4.74
296.115	4.75
296.486	4.74
296.857	4.69
297.228	4.58
297.599	4.38
297.97	4.56
298.34	4.55
298.711	4.71
299.082	4.74
299.452	4.8
299.823	4.8
300.194	4.86
300.564	4.84
300.935	4.82
301.305	4.78
301.676	4.64
302.046	4.55
302.416	4.41
302.787	4.39
303.157	4.5
303.527	4.69
303.897	4.72
304.267	4.63
304.637	4.73
305.008	4.83
305.378	4.88
305.748	4.7
306.117	4.55
306.487	4.49
306.857	4.55
307.227	4.65
307.597	4.68
307.967	4.75
308.336	4.83
308.706	4.89
309.076	5.11
309.445	5.3
309.815	5.38
310.184	5.36
310.554	5.44
310.923	5.42
311.293	5.35
311.662	5.47
312.031	5.6
312.401	5.45
312.77	5.47
313.139	5.59
313.508	5.6
313.877	5.72
314.246	5.71
314.616	5.73
314.985	5.55
315.353	5.65
315.722	5.68
316.091	5.65
316.46	5.73
316.829	5.79
317.198	5.87
317.567	5.97
317.935	6.1
318.304	6.08
318.672	6.23
319.041	6.35
319.41	6.18
319.778	6.17
320.147	6.26
320.515	6.39
320.883	6.39
321.252	6.56
321.62	6.69
321.988	6.81
322.357	6.8
322.725	7.17
323.093	6.99
323.461	7
323.829	7.08
324.197	6.97
324.565	6.91
324.933	6.73
325.301	6.65
325.669	6.64
326.037	6.71
326.405	6.62
326.772	6.55
327.14	6.53
327.508	6.59
327.875	6.67
328.243	6.69
328.61	6.77
328.978	6.78
329.346	6.63
329.713	6.66
330.08	6.75
330.448	6.75
330.815	6.9
331.182	7.07
331.55	7.1
331.917	7.1
332.284	7.14
332.651	7.32
333.018	7.35
333.385	7.36
333.752	7.3
334.119	7.27
334.486	7.35
334.853	7.41
335.22	7.38
335.587	7.31
335.954	7.32
336.32	7.34
336.687	7.38
337.054	7.48
337.42	7.41
337.787	7.44
338.153	7.4
338.52	7.4
338.886	7.24
339.253	7.09
339.619	7.05
339.986	6.97
340.352	6.93
340.718	7.02
341.084	7.02
341.451	7.07
341.817	7.2
342.183	7.24
342.549	7.36
342.915	7.37
343.281	7.37
343.647	7.33
344.013	7.3
344.379	7.32
344.745	7.35
345.11	7.37
345.476	7.37
345.842	7.33
346.208	7.44
346.573	7.47
346.939	7.61
347.304	7.7
347.67	7.8
348.035	7.87
348.401	7.88
348.766	7.89
349.132	7.84
349.497	7.8
349.862	7.83
350.228	7.73
350.593	7.81
350.958	7.88
351.323	7.85
351.688	7.84
352.053	7.93
352.418	7.84
352.783	7.87
353.148	7.84
353.513	7.74
353.878	7.64
354.243	7.68
354.608	7.63
354.972	7.59
355.337	7.49
355.702	7.46
356.066	7.42
356.431	7.48
356.795	7.53
357.16	7.49
357.524	7.41
357.889	7.46
358.253	7.42
358.618	7.36
358.982	7.37
359.346	7.37
359.71	7.29
360.075	7.36
360.439	7.33
360.803	7.31
361.167	7.39
361.531	7.39
361.895	7.37
362.259	7.41
362.623	7.46
362.987	7.52
363.351	7.44
363.714	7.45
364.078	7.39
364.442	7.35
364.806	7.39
365.169	7.38
365.533	7.28
365.896	7.24
366.26	7.19
366.623	7.15
366.987	7.1
367.35	7.08
367.714	7.03
368.077	7.02
368.44	7.02
368.803	6.98
369.167	6.89
369.53	6.88
369.893	6.83
370.256	6.78
370.619	6.7
370.982	6.65
371.345	6.55
371.708	6.55
372.071	6.5
372.434	6.44
372.797	6.43
373.159	6.39
373.522	6.38
373.885	6.38
374.247	6.32
374.61	6.31
374.973	6.28
375.335	6.24
375.698	6.17
376.06	6.09
376.423	6.09
376.785	6.12
377.147	6.07
377.51	6.07
377.872	6.03
378.234	5.99
378.596	5.99
378.958	5.98
379.321	5.89
379.683	5.89
380.045	5.81
380.407	5.78
380.769	5.76
381.13	5.68
381.492	5.68
381.854	5.65
382.216	5.62
382.578	5.58
382.939	5.54
383.301	5.57
383.663	5.59
384.024	5.5
384.386	5.48
384.747	5.39
385.109	5.34
385.47	5.29
385.832	5.28
386.193	5.25
386.554	5.16
386.916	5.17
387.277	5.12
387.638	5.16
387.999	5.12
388.36	5.1
388.721	5.04
389.082	5.01
389.443	5.07
389.804	5
390.165	4.89
390.526	4.89
390.887	4.8
391.248	4.78
391.609	4.79
391.969	4.77
392.33	4.78
392.691	4.75
393.051	4.7
393.412	4.71
393.772	4.73
394.133	4.75
394.493	4.7
394.854	4.69
395.214	4.65
395.574	4.62
395.935	4.61
396.295	4.61
396.655	4.59
397.015	4.53
397.376	4.56
397.736	4.61
398.096	4.56
398.456	4.59
398.816	4.53
399.176	4.46
399.535	4.41
399.895	4.39
400.255	4.41
400.615	4.39
400.975	4.36
401.334	4.3
401.694	4.28
402.054	4.3
402.413	4.3
402.773	4.27
403.132	4.24
403.492	4.22
403.851	4.21
404.211	4.21
404.57	4.19
404.929	4.14
405.288	4.13
405.648	4.12
406.007	4.06
406.366	4.08
406.725	4.08
407.084	4.06
407.443	4.06
407.802	4
408.161	4.02
408.52	4.01
408.879	4.01
409.238	4.04
409.596	4
409.955	3.94
410.314	3.92
410.673	3.94
411.031	3.9
411.39	3.89
411.748	3.89
412.107	3.89
412.465	3.88
412.824	3.88
413.182	3.89
413.54	3.92
413.899	3.9
414.257	3.9
414.615	3.89
414.974	3.88
415.332	3.88
415.69	3.85
416.048	3.84
416.406	3.82
416.764	3.8
417.122	3.82
417.48	3.82
417.838	3.82
418.195	3.81
418.553	3.82
418.911	3.79
419.269	3.77
419.626	3.74
419.984	3.74
420.342	3.72
420.699	3.7
421.057	3.69
421.414	3.68
421.772	3.68
422.129	3.68
422.486	3.67
422.844	3.66
423.201	3.66
423.558	3.65
423.915	3.64
424.273	3.64
424.63	3.63
424.987	3.63
425.344	3.63
425.701	3.61
426.058	3.61
426.415	3.61
426.772	3.62
427.128	3.64
427.485	3.64
427.842	3.63
428.199	3.64
428.555	3.64
428.912	3.62
429.269	3.62
429.625	3.62
429.982	3.6
430.338	3.58
430.695	3.55
431.051	3.54
431.407	3.54
431.764	3.5
432.12	3.5
432.476	3.49
432.832	3.48
433.189	3.48
433.545	3.49
433.901	3.5
434.257	3.49
434.613	3.47
434.969	3.45
435.325	3.45
435.681	3.44
436.036	3.45
436.392	3.43
436.748	3.42
437.104	3.42
437.459	3.42
437.815	3.46
438.171	3.47
438.526	3.48
438.882	3.49
439.237	3.49
439.593	3.5
439.948	3.51
440.304	3.48
440.659	3.5
441.014	3.49
441.369	3.49
441.725	3.48
442.08	3.47
442.435	3.48
442.79	3.49
443.145	3.5
443.5	3.48
443.855	3.5
444.21	3.49
444.565	3.48
444.92	3.49
445.275	3.48
445.629	3.48
445.984	3.48
446.339	3.46
446.693	3.46
447.048	3.45
447.403	3.44
447.757	3.46
448.112	3.45
448.466	3.44
448.82	3.44
449.175	3.45
449.529	3.46
449.883	3.44
450.238	3.43
450.592	3.4
450.946	3.42
451.3	3.42
451.654	3.43
452.008	3.43
452.362	3.42
452.716	3.43
453.07	3.42
453.424	3.4
453.778	3.42
454.132	3.4
454.486	3.42
454.839	3.42
455.193	3.41
455.547	3.41
455.9	3.4
456.254	3.39
456.607	3.39
456.961	3.38
457.314	3.4
457.668	3.39
458.021	3.41
458.375	3.41
458.728	3.41
459.081	3.39
459.434	3.39
459.787	3.39
460.141	3.38
460.494	3.39
460.847	3.39
461.2	3.4
461.553	3.41
461.906	3.4
462.259	3.38
462.611	3.39
462.964	3.41
463.317	3.42
463.67	3.42
464.022	3.43
464.375	3.45
464.728	3.46
465.08	3.48
465.433	3.48
465.785	3.5
466.138	3.5
466.49	3.53
466.843	3.54
467.195	3.57
467.547	3.59
467.899	3.6
468.252	3.61
468.604	3.61
468.956	3.61
469.308	3.65
469.66	3.68
470.012	3.69
470.364	3.68
470.716	3.68
471.068	3.71
471.42	3.71
471.772	3.7
472.123	3.69
472.475	3.68
472.827	3.69
473.178	3.7
473.53	3.71
473.882	3.69
474.233	3.68
474.585	3.67
474.936	3.67
475.288	3.67
475.639	3.69
475.99	3.67
476.342	3.69
476.693	3.67
477.044	3.66
477.395	3.66
477.746	3.66
478.097	3.67
478.448	3.65
478.8	3.63
479.15	3.64
479.501	3.64
479.852	3.63
480.203	3.64
480.554	3.64
480.905	3.64
481.255	3.65
481.606	3.66
481.957	3.67
482.307	3.67
482.658	3.66
483.009	3.65
483.359	3.65
483.709	3.65
484.06	3.65
484.41	3.65
484.761	3.65
485.111	3.64
485.461	3.64
485.811	3.64
486.162	3.64
486.512	3.64
486.862	3.65
487.212	3.66
487.562	3.65
487.912	3.65
488.262	3.64
488.612	3.64
488.961	3.63
489.311	3.63
489.661	3.63
490.011	3.63
490.36	3.64
490.71	3.64
491.06	3.63
491.409	3.63
491.759	3.64
492.108	3.64
492.458	3.65
492.807	3.64
493.157	3.65
493.506	3.66
493.855	3.67
494.204	3.66
494.554	3.65
494.903	3.67
495.252	3.67
495.601	3.69
495.95	3.72
496.299	3.74
496.648	3.74
496.997	3.75
497.346	3.76
497.695	3.77
498.043	3.8
498.392	3.84
498.741	3.88
499.09	3.9
499.438	3.92
499.787	3.97
500.135	3.98
500.484	4.02
500.832	4.03
501.181	4.07
501.529	4.13
501.878	4.16
502.226	4.2
502.574	4.24
502.923	4.27
503.271	4.29
503.619	4.32
503.967	4.35
504.315	4.39
504.663	4.44
505.011	4.49
505.359	4.53
505.707	4.57
506.055	4.6
506.403	4.67
506.751	4.74
507.098	4.78
507.446	4.85
507.794	4.9
508.141	4.99
508.489	5.07
508.837	5.14
509.184	5.21
509.531	5.28
509.879	5.36
510.226	5.43
510.574	5.51
510.921	5.61
511.268	5.7
511.616	5.8
511.963	5.89
512.31	6.01
512.657	6.13
513.004	6.23
513.351	6.36
513.698	6.47
514.045	6.6
514.392	6.74
514.739	6.88
515.086	7.01
515.432	7.16
515.779	7.27
516.126	7.42
516.473	7.58
516.819	7.7
517.166	7.83
517.512	7.97
517.859	8.12
518.205	8.22
518.552	8.36
518.898	8.5
519.245	8.64
519.591	8.75
519.937	8.89
520.283	9.03
520.629	9.2
520.976	9.35
521.322	9.52
521.668	9.69
522.014	9.89
522.36	10.11
522.706	10.3
523.052	10.53
523.398	10.77
523.743	10.99
524.089	11.24
524.435	11.46
524.781	11.69
525.126	11.89
525.472	12.1
525.817	12.3
526.163	12.44
526.509	12.59
526.854	12.76
527.199	12.9
527.545	13.05
527.89	13.16
528.235	13.3
528.581	13.43
528.926	13.56
529.271	13.68
529.616	13.81
529.961	13.95
530.306	14.08
530.651	14.19
530.996	14.34
531.341	14.48
531.686	14.64
532.031	14.78
532.376	14.95
532.721	15.11
533.065	15.27
533.41	15.45
533.755	15.65
534.099	15.82
534.444	15.99
534.788	16.16
535.133	16.35
535.477	16.57
535.822	16.78
536.166	16.99
536.51	17.25
536.855	17.49
537.199	17.74
537.543	17.99
537.887	18.28
538.231	18.51
538.576	18.76
538.92	19.01
539.264	19.29
539.608	19.49
539.951	19.68
540.295	19.87
540.639	20.07
540.983	20.24
541.327	20.41
541.671	20.62
542.014	20.82
542.358	21
542.701	21.14
543.045	21.3
543.389	21.49
543.732	21.63
544.075	21.8
544.419	22.02
544.762	22.22
545.105	22.42
545.449	22.64
545.792	22.9
546.135	23.16
546.478	23.36
546.821	23.59
547.165	23.85
547.508	24.14
547.851	24.42
548.194	24.7
548.536	24.99
548.879	25.26
549.222	25.52
549.565	25.81
549.908	26.09
550.25	26.35
550.593	26.61
550.936	26.97
551.278	27.25
551.621	27.46
551.963	27.74
552.306	28.02
552.648	28.27
552.991	28.5
553.333	28.71
553.675	28.98
554.017	29.24
554.36	29.53
554.702	29.74
555.044	30.01
555.386	30.24
555.728	30.48
556.07	30.67
556.412	30.92
556.754	31.16
557.096	31.37
557.438	31.7
557.78	31.91
558.121	32.16
558.463	32.41
558.805	32.69
559.147	32.93
559.488	33.12
559.83	33.38
560.171	33.62
560.513	33.9
560.854	34.1
561.196	34.34
561.537	34.58
561.878	34.85
562.22	35.07
562.561	35.33
562.902	35.56
563.243	35.87
563.584	36.14
563.925	36.36
564.266	36.57
564.607	36.77
564.948	37.03
565.289	37.2
565.63	37.43
565.971	37.61
566.312	37.82
566.653	38.06
566.993	38.23
567.334	38.41
567.675	38.6
568.015	38.84
568.356	39.01
568.696	39.15
569.037	39.34
569.377	39.49
569.718	39.71
570.058	39.94
570.398	40.09
570.739	40.25
571.079	40.45
571.419	40.65
571.759	40.82
572.099	40.94
572.439	41.1
572.779	41.24
573.119	41.41
573.459	41.58
573.799	41.69
574.139	41.86
574.479	41.97
574.819	42.11
575.158	42.2
575.498	42.41
575.838	42.64
576.177	42.8
576.517	43.01
576.856	43.09
577.196	43.17
577.535	43.28
577.875	43.42
578.214	43.53
578.553	43.72
578.893	43.85
579.232	44.02
579.571	44.17
579.91	44.34
580.25	44.46
580.589	44.56
580.928	44.68
581.267	44.81
581.606	44.98
581.945	45.13
582.283	45.38
582.622	45.54
582.961	45.66
583.3	45.76
583.639	45.88
583.977	46.01
584.316	46.15
584.654	46.26
584.993	46.37
585.332	46.52
585.67	46.56
586.008	46.6
586.347	46.7
586.685	46.78
587.024	46.87
587.362	46.98
587.7	47.16
588.038	47.34
588.376	47.41
588.715	47.59
589.053	47.72
589.391	47.78
589.729	47.81
590.067	47.78
590.404	47.91
590.742	47.97
591.08	48.09
591.418	48.18
591.756	48.34
592.093	48.41
592.431	48.51
592.769	48.63
593.106	48.76
593.444	48.85
593.781	48.97
594.119	49.11
594.456	49.15
594.793	49.19
595.131	49.22
595.468	49.29
595.805	49.28
596.143	49.29
596.48	49.34
596.817	49.34
597.154	49.48
597.491	49.58
597.828	49.65
598.165	49.67
598.502	49.74
598.839	49.79
599.176	49.89
599.512	49.97
599.849	50.11
600.186	50.34
600.523	50.45
600.859	50.54
601.196	50.5
601.532	50.65
601.869	50.67
602.205	50.75
602.542	50.86
602.878	51.02
603.215	51.13
603.551	51.18
603.887	51.36
604.223	51.39
604.56	51.45
604.896	51.52
605.232	51.67
605.568	51.77
605.904	51.82
606.24	51.83
606.576	51.85
606.912	51.82
607.248	51.79
607.583	51.85
607.919	51.88
608.255	51.98
608.591	52.01
608.926	52.18
609.262	52.27
609.597	52.23
609.933	52.26
610.268	52.33
610.604	52.44
610.939	52.45
611.275	52.56
611.61	52.58
611.945	52.55
612.281	52.53
612.616	52.54
612.951	52.63
613.286	52.8
613.621	52.9
613.956	53.05
614.291	53.01
614.626	52.99
614.961	53.04
615.296	53.17
615.631	53.2
615.966	53.13
616.3	53.12
616.635	53.21
616.97	53.16
617.304	53.12
617.639	53.1
617.973	53.17
618.308	53.16
618.642	53.26
618.977	53.4
619.311	53.44
619.646	53.48
619.98	53.47
620.314	53.36
620.648	53.22
620.983	53.24
621.317	53.36
621.651	53.44
621.985	53.51
622.319	53.5
622.653	53.57
622.987	53.63
623.321	53.71
623.655	53.82
623.988	53.92
624.322	53.92
624.656	53.89
624.99	53.9
625.323	53.99
625.657	53.98
625.99	53.98
626.324	54.06
626.657	54
626.991	54.04
627.324	54.05
627.658	54.25
627.991	54.25
628.324	54.35
628.657	54.35
628.991	54.31
629.324	54.33
629.657	54.33
629.99	54.39
630.323	54.44
630.656	54.47
630.989	54.49
631.322	54.57
631.655	54.63
631.987	54.64
632.32	54.6
632.653	54.53
632.986	54.62
633.318	54.59
633.651	54.63
633.984	54.67
634.316	54.73
634.649	54.73
634.981	54.8
635.313	54.76
635.646	54.75
635.978	54.89
636.31	54.89
636.643	54.93
636.975	54.91
637.307	54.93
637.639	54.98
637.971	54.98
638.303	54.9
638.635	54.94
638.967	55.01
639.299	55.04
639.631	55.16
639.963	55.1
640.295	55.15
640.626	55.32
640.958	55.33
641.29	55.41
641.621	55.46
641.953	55.42
642.285	55.5
642.616	55.67
642.948	55.63
643.279	55.62
643.61	55.68
643.942	55.78
644.273	55.75
644.604	55.66
644.936	55.65
645.267	55.76
645.598	55.89
645.929	55.85
646.26	55.91
646.591	56.04
646.922	56.06
647.253	56.07
647.584	56.01
647.915	56.09
648.245	56.15
648.576	56.08
648.907	56.19
649.238	56.17
649.568	56.08
649.899	56.19
650.229	56.38
650.56	56.35
650.89	56.35
651.221	56.41
651.551	56.48
651.882	56.56
652.212	56.68
652.542	56.66
652.872	56.73
653.203	56.76
653.533	56.66
653.863	56.68
654.193	56.64
654.523	56.68
654.853	56.71
655.183	56.72
655.513	56.81
655.843	56.94
656.172	56.99
656.502	57.06
656.832	57.02
657.162	56.98
657.491	56.98
657.821	56.97
658.15	56.92
658.48	56.93
658.809	56.93
659.139	56.93
659.468	56.91
659.798	57.01
660.127	57.06
660.456	57.05
660.785	57.07
661.115	57.14
661.444	57.17
661.773	57.14
662.102	57.14
662.431	57.13
662.76	57
663.089	57
663.418	56.93
663.747	56.95
664.076	56.96
664.404	57.11
664.733	57.19
665.062	57.18
665.39	57.26
665.719	57.31
666.048	57.27
666.376	57.28
666.705	57.17
667.033	57.12
667.362	57.22
667.69	57.2
