Data from BU26932_Reflection_00005.txt Node
Date: Tue Nov 19 10:44:24 EST 2019
User: vgr7
Spectrometer: USB2G7710
Scans to average: 3
Trigger mode: 4
Integration Time (sec): 2.000000E-2
Electric dark correction enabled: true
Boxcar width: 10
XAxis mode: Wavelengths
Number of Pixels in Spectrum: 2048
>>>>>Begin Spectral Data<<<<<
177.721	95.86
178.105	11.76
178.488	24.48
178.871	100
179.254	-1400
179.636	-922.73
180.019	348.47
180.402	100
180.785	345.45
181.168	100
181.55	162.21
181.933	419.67
182.316	106.91
182.698	-18.34
183.081	-35.57
183.463	-37.78
183.846	-7.01
184.228	-19.58
184.611	-3.15
184.993	2.31
185.376	9.07
185.758	3.89
186.14	-14.99
186.522	-22.1
186.904	-27.26
187.287	-29.18
187.669	-30.71
188.051	-30.75
188.433	-36.63
188.815	-44.13
189.197	-62.04
189.579	-56.97
189.961	-61.89
190.342	-59.23
190.724	-54.76
191.106	-50.49
191.488	-47.96
191.869	-42.45
192.251	-32.22
192.633	-28.04
193.014	-25.22
193.396	-28.97
193.777	-24.09
194.159	-17.89
194.54	-13.84
194.922	-6.11
195.303	-9.28
195.684	1.21
196.065	-2.93
196.447	5.53
196.828	11.88
197.209	11.97
197.59	0.24
197.971	5.15
198.352	-2.51
198.733	-18.85
199.114	-26.94
199.495	-32.33
199.876	-49.48
200.257	-48.27
200.638	-53.72
201.018	-66.32
201.399	-71.99
201.78	-66.84
202.16	-91.47
202.541	-86.64
202.922	-87.61
203.302	-66.83
203.683	-93.04
204.063	-91.07
204.444	-77.77
204.824	-67.53
205.204	-65.65
205.585	-60.33
205.965	-65.19
206.345	-68.42
206.725	-50.56
207.106	-41.78
207.486	-39.93
207.866	-30.18
208.246	-30.75
208.626	-41.18
209.006	-45.33
209.386	-37.74
209.766	-49.69
210.145	-33.24
210.525	-30.99
210.905	-25.83
211.285	-22.74
211.664	-19.65
212.044	-17.89
212.424	-14.81
212.803	-13.75
213.183	-11.26
213.562	-6.6
213.942	-7.18
214.321	2.24
214.701	-12.05
215.08	-18.53
215.459	-18.09
215.838	-32.53
216.218	-32.94
216.597	-24.58
216.976	-28.73
217.355	-35.65
217.734	-40.18
218.113	-39.56
218.492	-45.24
218.871	-43.98
219.25	-51.36
219.629	-50.89
220.008	-46.81
220.387	-48.55
220.766	-46.74
221.144	-45.72
221.523	-48.02
221.902	-41.91
222.28	-36.66
222.659	-18.93
223.037	-11.87
223.416	-8.65
223.794	1.67
224.173	-1.74
224.551	-5.06
224.929	-0.2
225.308	-1.25
225.686	1.82
226.064	-6.99
226.442	0.72
226.821	-1.83
227.199	2.96
227.577	7.95
227.955	8.53
228.333	10.93
228.711	11.45
229.089	10.71
229.467	6.62
229.845	5.3
230.222	6.71
230.6	3.87
230.978	0.54
231.356	0.15
231.733	-1.27
232.111	0.33
232.488	-0.77
232.866	-0.49
233.243	0.36
233.621	2.5
233.998	3.36
234.376	2.07
234.753	3.78
235.13	1.49
235.508	-0.79
235.885	-0.53
236.262	-1.52
236.639	-1.77
237.016	-2.02
237.393	-0.06
237.77	2.26
238.147	1.93
238.524	2.34
238.901	2.54
239.278	1.94
239.655	2.38
240.032	2.57
240.409	3.49
240.785	3.35
241.162	4.06
241.539	3.98
241.915	4.01
242.292	3.71
242.668	3.27
243.045	3.62
243.421	3.72
243.798	3.85
244.174	3.62
244.551	3.34
244.927	3.52
245.303	3.32
245.679	2.9
246.056	2.84
246.432	2.79
246.808	2.88
247.184	3.07
247.56	3.06
247.936	2.92
248.312	3.06
248.688	2.99
249.064	2.73
249.44	2.71
249.815	2.74
250.191	3.07
250.567	3.22
250.943	3.12
251.318	3.16
251.694	2.83
252.069	3.02
252.445	3.02
252.82	2.98
253.196	2.97
253.571	3.06
253.947	2.96
254.322	2.84
254.697	2.88
255.073	3.06
255.448	2.71
255.823	2.69
256.198	2.5
256.573	2.71
256.948	2.85
257.323	2.8
257.698	2.75
258.073	2.64
258.448	2.6
258.823	2.58
259.198	2.56
259.573	2.61
259.948	2.53
260.322	2.5
260.697	2.57
261.072	2.68
261.446	2.68
261.821	2.66
262.195	2.64
262.57	2.7
262.944	2.53
263.319	2.73
263.693	2.59
264.067	2.72
264.442	2.67
264.816	2.5
265.19	2.45
265.564	2.3
265.938	2.16
266.313	2.19
266.687	2.17
267.061	2.35
267.435	2.35
267.809	2.43
268.183	2.6
268.556	2.39
268.93	2.39
269.304	2.26
269.678	2.39
270.051	2.52
270.425	2.42
270.799	2.37
271.172	2.33
271.546	2.52
271.919	2.46
272.293	2.46
272.666	2.52
273.04	2.59
273.413	2.66
273.787	2.77
274.16	2.78
274.533	2.81
274.906	2.77
275.279	2.9
275.653	2.82
276.026	2.76
276.399	2.87
276.772	2.86
277.145	2.89
277.518	2.79
277.891	2.77
278.263	2.94
278.636	3.13
279.009	3.22
279.382	3.18
279.755	3.12
280.127	3.23
280.5	3.22
280.872	3.14
281.245	3.14
281.617	3.14
281.99	3.13
282.362	3.24
282.735	3.17
283.107	3.14
283.479	3.3
283.852	3.32
284.224	3.27
284.596	3.26
284.968	3.27
285.34	3.31
285.713	3.24
286.085	3.12
286.457	3.14
286.829	2.98
287.201	2.99
287.572	3.09
287.944	3.07
288.316	3.15
288.688	3.23
289.06	3.2
289.431	3.28
289.803	3.25
290.175	3.2
290.546	3.33
290.918	3.26
291.289	3.17
291.661	3.18
292.032	3.23
292.403	3.13
292.775	3.26
293.146	3.31
293.517	3.36
293.889	3.47
294.26	3.31
294.631	3.48
295.002	3.51
295.373	3.39
295.744	3.29
296.115	3.22
296.486	3.17
296.857	3.32
297.228	3.21
297.599	3.13
297.97	3.14
298.34	3.01
298.711	3.13
299.082	3.11
299.452	3.14
299.823	3.1
300.194	3.26
300.564	3.1
300.935	3.07
301.305	3.02
301.676	2.89
302.046	2.94
302.416	2.83
302.787	2.77
303.157	2.84
303.527	2.98
303.897	3
304.267	3.15
304.637	3.01
305.008	3.1
305.378	3.17
305.748	3.24
306.117	3.31
306.487	3.23
306.857	3.32
307.227	3.34
307.597	3.35
307.967	3.18
308.336	3.25
308.706	3.2
309.076	3.43
309.445	3.5
309.815	3.61
310.184	3.62
310.554	3.66
310.923	3.56
311.293	3.5
311.662	3.48
312.031	3.34
312.401	3.47
312.77	3.4
313.139	3.45
313.508	3.31
313.877	3.27
314.246	3.25
314.616	3.27
314.985	3.23
315.353	3.19
315.722	3.34
316.091	3.39
316.46	3.43
316.829	3.35
317.198	3.39
317.567	3.38
317.935	3.38
318.304	3.57
318.672	3.8
319.041	3.76
319.41	3.88
319.778	3.99
320.147	3.8
320.515	3.89
320.883	3.83
321.252	3.93
321.62	3.95
321.988	4.03
322.357	3.84
322.725	3.89
323.093	3.87
323.461	3.79
323.829	3.81
324.197	3.84
324.565	3.76
324.933	3.65
325.301	3.52
325.669	3.66
326.037	3.57
326.405	3.57
326.772	3.54
327.14	3.49
327.508	3.37
327.875	3.38
328.243	3.37
328.61	3.38
328.978	3.34
329.346	3.34
329.713	3.24
330.08	3.41
330.448	3.46
330.815	3.46
331.182	3.41
331.55	3.3
331.917	3.15
332.284	3.18
332.651	3.2
333.018	3.22
333.385	3.03
333.752	3.08
334.119	3
334.486	3.01
334.853	2.96
335.22	3.08
335.587	3.02
335.954	2.9
336.32	2.89
336.687	2.91
337.054	2.97
337.42	2.93
337.787	2.87
338.153	2.86
338.52	2.97
338.886	3
339.253	2.93
339.619	2.99
339.986	2.87
340.352	2.83
340.718	2.89
341.084	3
341.451	2.96
341.817	2.93
342.183	3.02
342.549	3.03
342.915	3.04
343.281	3.22
343.647	3.23
344.013	3.23
344.379	3.27
344.745	3.18
345.11	3.24
345.476	3.29
345.842	3.24
346.208	3.23
346.573	3.22
346.939	3.36
347.304	3.44
347.67	3.42
348.035	3.52
348.401	3.49
348.766	3.49
349.132	3.48
349.497	3.52
349.862	3.52
350.228	3.53
350.593	3.49
350.958	3.52
351.323	3.58
351.688	3.61
352.053	3.6
352.418	3.67
352.783	3.66
353.148	3.64
353.513	3.65
353.878	3.58
354.243	3.59
354.608	3.57
354.972	3.44
355.337	3.47
355.702	3.44
356.066	3.47
356.431	3.47
356.795	3.45
357.16	3.45
357.524	3.43
357.889	3.4
358.253	3.42
358.618	3.38
358.982	3.36
359.346	3.32
359.71	3.29
360.075	3.31
360.439	3.36
360.803	3.36
361.167	3.35
361.531	3.37
361.895	3.4
362.259	3.36
362.623	3.43
362.987	3.47
363.351	3.43
363.714	3.42
364.078	3.41
364.442	3.41
364.806	3.38
365.169	3.33
365.533	3.36
365.896	3.33
366.26	3.29
366.623	3.27
366.987	3.28
367.35	3.27
367.714	3.21
368.077	3.17
368.44	3.23
368.803	3.2
369.167	3.2
369.53	3.19
369.893	3.25
370.256	3.18
370.619	3.15
370.982	3.16
371.345	3.15
371.708	3.11
372.071	3.03
372.434	3.08
372.797	3.13
373.159	3.14
373.522	3.19
373.885	3.21
374.247	3.22
374.61	3.27
374.973	3.27
375.335	3.33
375.698	3.31
376.06	3.29
376.423	3.31
376.785	3.33
377.147	3.33
377.51	3.31
377.872	3.32
378.234	3.36
378.596	3.36
378.958	3.45
379.321	3.41
379.683	3.45
380.045	3.44
380.407	3.4
380.769	3.36
381.13	3.33
381.492	3.32
381.854	3.29
382.216	3.29
382.578	3.32
382.939	3.27
383.301	3.27
383.663	3.22
384.024	3.2
384.386	3.15
384.747	3.11
385.109	3.11
385.47	3.1
385.832	3.08
386.193	3.1
386.554	3.02
386.916	3.12
387.277	3.14
387.638	3.12
387.999	3.13
388.36	3.14
388.721	3.17
389.082	3.18
389.443	3.25
389.804	3.24
390.165	3.19
390.526	3.18
390.887	3.16
391.248	3.18
391.609	3.22
391.969	3.26
392.33	3.24
392.691	3.25
393.051	3.25
393.412	3.27
393.772	3.28
394.133	3.28
394.493	3.21
394.854	3.18
395.214	3.18
395.574	3.18
395.935	3.18
396.295	3.17
396.655	3.15
397.015	3.11
397.376	3.09
397.736	3.1
398.096	3.1
398.456	3.11
398.816	3.1
399.176	3.1
399.535	3.06
399.895	3.07
400.255	3.04
400.615	3.07
400.975	3.05
401.334	3.01
401.694	3
402.054	3.05
402.413	3.06
402.773	3.04
403.132	3.07
403.492	3.09
403.851	3.09
404.211	3.11
404.57	3.12
404.929	3.13
405.288	3.14
405.648	3.16
406.007	3.14
406.366	3.14
406.725	3.11
407.084	3.13
407.443	3.17
407.802	3.17
408.161	3.18
408.52	3.16
408.879	3.19
409.238	3.2
409.596	3.18
409.955	3.17
410.314	3.19
410.673	3.16
411.031	3.18
411.39	3.16
411.748	3.15
412.107	3.15
412.465	3.14
412.824	3.14
413.182	3.13
413.54	3.15
413.899	3.12
414.257	3.14
414.615	3.14
414.974	3.1
415.332	3.11
415.69	3.1
416.048	3.13
416.406	3.14
416.764	3.15
417.122	3.14
417.48	3.14
417.838	3.15
418.195	3.15
418.553	3.13
418.911	3.11
419.269	3.13
419.626	3.13
419.984	3.13
420.342	3.12
420.699	3.12
421.057	3.13
421.414	3.15
421.772	3.16
422.129	3.16
422.486	3.16
422.844	3.16
423.201	3.16
423.558	3.15
423.915	3.13
424.273	3.14
424.63	3.15
424.987	3.15
425.344	3.15
425.701	3.15
426.058	3.16
426.415	3.17
426.772	3.14
427.128	3.15
427.485	3.17
427.842	3.16
428.199	3.16
428.555	3.15
428.912	3.13
429.269	3.13
429.625	3.13
429.982	3.13
430.338	3.13
430.695	3.11
431.051	3.13
431.407	3.14
431.764	3.12
432.12	3.13
432.476	3.14
432.832	3.13
433.189	3.14
433.545	3.14
433.901	3.15
434.257	3.16
434.613	3.14
434.969	3.11
435.325	3.14
435.681	3.15
436.036	3.16
436.392	3.16
436.748	3.15
437.104	3.17
437.459	3.19
437.815	3.2
438.171	3.2
438.526	3.22
438.882	3.23
439.237	3.22
439.593	3.22
439.948	3.23
440.304	3.23
440.659	3.22
441.014	3.23
441.369	3.21
441.725	3.22
442.08	3.23
442.435	3.25
442.79	3.25
443.145	3.24
443.5	3.24
443.855	3.24
444.21	3.26
444.565	3.24
444.92	3.22
445.275	3.23
445.629	3.25
445.984	3.24
446.339	3.23
446.693	3.24
447.048	3.22
447.403	3.21
447.757	3.21
448.112	3.22
448.466	3.2
448.82	3.2
449.175	3.19
449.529	3.2
449.883	3.18
450.238	3.18
450.592	3.18
450.946	3.17
451.3	3.18
451.654	3.15
452.008	3.15
452.362	3.15
452.716	3.12
453.07	3.11
453.424	3.11
453.778	3.12
454.132	3.1
454.486	3.12
454.839	3.13
455.193	3.11
455.547	3.11
455.9	3.14
456.254	3.17
456.607	3.18
456.961	3.17
457.314	3.19
457.668	3.19
458.021	3.18
458.375	3.2
458.728	3.19
459.081	3.19
459.434	3.18
459.787	3.18
460.141	3.19
460.494	3.18
460.847	3.19
461.2	3.18
461.553	3.19
461.906	3.19
462.259	3.18
462.611	3.2
462.964	3.2
463.317	3.18
463.67	3.16
464.022	3.15
464.375	3.15
464.728	3.16
465.08	3.18
465.433	3.22
465.785	3.22
466.138	3.23
466.49	3.25
466.843	3.29
467.195	3.31
467.547	3.31
467.899	3.34
468.252	3.35
468.604	3.36
468.956	3.38
469.308	3.35
469.66	3.36
470.012	3.36
470.364	3.37
470.716	3.4
471.068	3.42
471.42	3.43
471.772	3.45
472.123	3.42
472.475	3.41
472.827	3.41
473.178	3.4
473.53	3.38
473.882	3.39
474.233	3.38
474.585	3.38
474.936	3.39
475.288	3.37
475.639	3.35
475.99	3.35
476.342	3.35
476.693	3.35
477.044	3.35
477.395	3.35
477.746	3.33
478.097	3.32
478.448	3.31
478.8	3.3
479.15	3.29
479.501	3.3
479.852	3.3
480.203	3.29
480.554	3.3
480.905	3.31
481.255	3.31
481.606	3.32
481.957	3.33
482.307	3.33
482.658	3.35
483.009	3.36
483.359	3.37
483.709	3.37
484.06	3.38
484.41	3.38
484.761	3.38
485.111	3.39
485.461	3.39
485.811	3.4
486.162	3.41
486.512	3.41
486.862	3.41
487.212	3.42
487.562	3.41
487.912	3.41
488.262	3.41
488.612	3.41
488.961	3.39
489.311	3.39
489.661	3.39
490.011	3.37
490.36	3.35
490.71	3.35
491.06	3.35
491.409	3.35
491.759	3.35
492.108	3.35
492.458	3.34
492.807	3.34
493.157	3.34
493.506	3.35
493.855	3.34
494.204	3.35
494.554	3.35
494.903	3.36
495.252	3.36
495.601	3.37
495.95	3.38
496.299	3.39
496.648	3.4
496.997	3.4
497.346	3.44
497.695	3.49
498.043	3.5
498.392	3.47
498.741	3.49
499.09	3.51
499.438	3.51
499.787	3.53
500.135	3.54
500.484	3.53
500.832	3.54
501.181	3.55
501.529	3.57
501.878	3.58
502.226	3.59
502.574	3.6
502.923	3.6
503.271	3.62
503.619	3.64
503.967	3.64
504.315	3.65
504.663	3.62
505.011	3.6
505.359	3.58
505.707	3.61
506.055	3.62
506.403	3.63
506.751	3.66
507.098	3.66
507.446	3.67
507.794	3.7
508.141	3.7
508.489	3.73
508.837	3.72
509.184	3.75
509.531	3.74
509.879	3.75
510.226	3.76
510.574	3.77
510.921	3.78
511.268	3.8
511.616	3.81
511.963	3.84
512.31	3.87
512.657	3.88
513.004	3.89
513.351	3.89
513.698	3.89
514.045	3.89
514.392	3.9
514.739	3.93
515.086	3.94
515.432	3.96
515.779	3.95
516.126	3.99
516.473	3.98
516.819	3.99
517.166	4.03
517.512	4.04
517.859	4.04
518.205	4.02
518.552	4.01
518.898	4.03
519.245	4.04
519.591	4.05
519.937	4.08
520.283	4.11
520.629	4.12
520.976	4.13
521.322	4.16
521.668	4.18
522.014	4.16
522.36	4.16
522.706	4.17
523.052	4.19
523.398	4.19
523.743	4.21
524.089	4.25
524.435	4.23
524.781	4.24
525.126	4.26
525.472	4.28
525.817	4.3
526.163	4.33
526.509	4.34
526.854	4.34
527.199	4.35
527.545	4.35
527.89	4.36
528.235	4.36
528.581	4.36
528.926	4.36
529.271	4.38
529.616	4.39
529.961	4.4
530.306	4.41
530.651	4.41
530.996	4.42
531.341	4.42
531.686	4.44
532.031	4.45
532.376	4.45
532.721	4.46
533.065	4.46
533.41	4.45
533.755	4.45
534.099	4.44
534.444	4.44
534.788	4.43
535.133	4.45
535.477	4.46
535.822	4.47
536.166	4.47
536.51	4.48
536.855	4.47
537.199	4.48
537.543	4.48
537.887	4.48
538.231	4.48
538.576	4.5
538.92	4.51
539.264	4.53
539.608	4.54
539.951	4.53
540.295	4.55
540.639	4.57
540.983	4.59
541.327	4.61
541.671	4.62
542.014	4.62
542.358	4.62
542.701	4.63
543.045	4.64
543.389	4.64
543.732	4.64
544.075	4.64
544.419	4.65
544.762	4.65
545.105	4.67
545.449	4.67
545.792	4.67
546.135	4.68
546.478	4.68
546.821	4.7
547.165	4.72
547.508	4.71
547.851	4.7
548.194	4.69
548.536	4.7
548.879	4.71
549.222	4.72
549.565	4.74
549.908	4.73
550.25	4.73
550.593	4.75
550.936	4.76
551.278	4.8
551.621	4.79
551.963	4.83
552.306	4.83
552.648	4.82
552.991	4.8
553.333	4.78
553.675	4.76
554.017	4.75
554.36	4.74
554.702	4.72
555.044	4.72
555.386	4.74
555.728	4.75
556.07	4.72
556.412	4.72
556.754	4.71
557.096	4.72
557.438	4.73
557.78	4.72
558.121	4.73
558.463	4.71
558.805	4.73
559.147	4.69
559.488	4.7
559.83	4.7
560.171	4.73
560.513	4.73
560.854	4.76
561.196	4.75
561.537	4.78
561.878	4.81
562.22	4.84
562.561	4.88
562.902	4.86
563.243	4.87
563.584	4.88
563.925	4.91
564.266	4.91
564.607	4.92
564.948	4.93
565.289	4.92
565.63	4.95
565.971	4.95
566.312	4.97
566.653	4.97
566.993	4.98
567.334	4.99
567.675	4.99
568.015	5.01
568.356	5.01
568.696	5.01
569.037	5.01
569.377	5.01
569.718	4.97
570.058	4.98
570.398	5.03
570.739	5.02
571.079	5.01
571.419	5.03
571.759	5.02
572.099	5.03
572.439	5.02
572.779	5.01
573.119	5.01
573.459	5
573.799	4.99
574.139	4.97
574.479	4.99
574.819	5
575.158	5
575.498	5
575.838	4.99
576.177	4.99
576.517	4.96
576.856	4.99
577.196	4.97
577.535	4.96
577.875	4.97
578.214	4.97
578.553	4.96
578.893	4.95
579.232	4.97
579.571	4.99
579.91	5
580.25	5.01
580.589	5.02
580.928	5.03
581.267	5.07
581.606	5.04
581.945	5.01
582.283	5
582.622	5
582.961	5.05
583.3	5.02
583.639	5.1
583.977	5.08
584.316	5.11
584.654	5.07
584.993	5.1
585.332	5.12
585.67	5.11
586.008	5.12
586.347	5.1
586.685	5.06
587.024	5.07
587.362	5.05
587.7	5.08
588.038	5.11
588.376	5.09
588.715	5.1
589.053	5.09
589.391	5.14
589.729	5.13
590.067	5.1
590.404	5.12
590.742	5.08
591.08	5.07
591.418	5.08
591.756	5.1
592.093	5.08
592.431	5.05
592.769	5.01
593.106	5.04
593.444	5.04
593.781	5.08
594.119	5.05
594.456	5.04
594.793	5
595.131	4.98
595.468	5.01
595.805	5.02
596.143	5.04
596.48	5.04
596.817	5.07
597.154	5.11
597.491	5.11
597.828	5.08
598.165	5.1
598.502	5.08
598.839	5.07
599.176	5.07
599.512	5.08
599.849	5.12
600.186	5.11
600.523	5.1
600.859	5.09
601.196	5.11
601.532	5.13
601.869	5.16
602.205	5.19
602.542	5.14
602.878	5.17
603.215	5.18
603.551	5.14
603.887	5.13
604.223	5.1
604.56	5.08
604.896	5.1
605.232	5.09
605.568	5.09
605.904	5.08
606.24	5.09
606.576	5.13
606.912	5.13
607.248	5.13
607.583	5.13
607.919	5.13
608.255	5.14
608.591	5.14
608.926	5.15
609.262	5.16
609.597	5.19
609.933	5.15
610.268	5.16
610.604	5.17
610.939	5.18
611.275	5.22
611.61	5.25
611.945	5.27
612.281	5.33
612.616	5.33
612.951	5.35
613.286	5.32
613.621	5.28
613.956	5.28
614.291	5.31
614.626	5.32
614.961	5.33
615.296	5.33
615.631	5.32
615.966	5.3
616.3	5.3
616.635	5.3
616.97	5.32
617.304	5.28
617.639	5.28
617.973	5.26
618.308	5.23
618.642	5.21
618.977	5.21
619.311	5.14
619.646	5.15
619.98	5.16
620.314	5.2
620.648	5.19
620.983	5.15
621.317	5.16
621.651	5.23
621.985	5.22
622.319	5.22
622.653	5.24
622.987	5.2
623.321	5.18
623.655	5.2
623.988	5.19
624.322	5.25
624.656	5.31
624.99	5.33
625.323	5.3
625.657	5.31
625.99	5.3
626.324	5.35
626.657	5.36
626.991	5.37
627.324	5.37
627.658	5.37
627.991	5.41
628.324	5.37
628.657	5.33
628.991	5.32
629.324	5.3
629.657	5.34
629.99	5.38
630.323	5.37
630.656	5.4
630.989	5.42
631.322	5.41
631.655	5.38
631.987	5.33
632.32	5.37
632.653	5.4
632.986	5.35
633.318	5.33
633.651	5.36
633.984	5.32
634.316	5.29
634.649	5.34
634.981	5.34
635.313	5.39
635.646	5.43
635.978	5.44
636.31	5.48
636.643	5.47
636.975	5.48
637.307	5.53
637.639	5.48
637.971	5.46
638.303	5.45
638.635	5.41
638.967	5.41
639.299	5.41
639.631	5.37
639.963	5.4
640.295	5.38
640.626	5.38
640.958	5.43
641.29	5.46
641.621	5.43
641.953	5.41
642.285	5.36
642.616	5.36
642.948	5.38
643.279	5.36
643.61	5.28
643.942	5.27
644.273	5.21
644.604	5.23
644.936	5.19
645.267	5.16
645.598	5.22
645.929	5.23
646.26	5.17
646.591	5.24
646.922	5.3
647.253	5.24
647.584	5.22
647.915	5.23
648.245	5.23
648.576	5.25
648.907	5.24
649.238	5.31
649.568	5.24
649.899	5.22
650.229	5.24
650.56	5.3
650.89	5.36
651.221	5.36
651.551	5.34
651.882	5.4
652.212	5.47
652.542	5.49
652.872	5.51
653.203	5.58
653.533	5.61
653.863	5.57
654.193	5.6
654.523	5.59
654.853	5.6
655.183	5.62
655.513	5.62
655.843	5.69
656.172	5.74
656.502	5.71
656.832	5.73
657.162	5.72
657.491	5.74
657.821	5.67
658.15	5.67
658.48	5.67
658.809	5.65
659.139	5.6
659.468	5.54
659.798	5.55
660.127	5.51
660.456	5.47
660.785	5.49
661.115	5.57
661.444	5.6
661.773	5.57
662.102	5.52
662.431	5.53
662.76	5.48
663.089	5.41
663.418	5.52
663.747	5.55
664.076	5.56
664.404	5.56
664.733	5.6
665.062	5.68
665.39	5.71
665.719	5.69
666.048	5.76
666.376	5.8
666.705	5.82
667.033	5.95
667.362	5.92
667.69	5.95
668.018	5.9
668.347	5.86
668.675	5.87
669.003	5.94
669.331	5.93
669.659	5.93
669.987	5.97
670.315	5.93
670.643	5.91
670.971	5.96
671.299	5.95
671.627	5.95
671.955	5.88
672.283	5.91
672.61	5.95
672.938	5.93
673.266	5.98
673.593	6.01
673.921	5.86
674.249	5.88
674.576	5.88
674.904	5.92
675.231	5.97
675.558	5.94
675.886	5.92
676.213	5.89
676.54	5.88
676.867	5.87
677.195	5.86
677.522	5.88
677.849	5.78
678.176	5.79
678.503	5.71
