Data from BU26850_Reflection_00005.txt Node
Date: Mon Nov 18 16:45:31 EST 2019
User: vgr7
Spectrometer: USB2G7710
Scans to average: 3
Trigger mode: 4
Integration Time (sec): 2.000000E-2
Electric dark correction enabled: true
Boxcar width: 10
XAxis mode: Wavelengths
Number of Pixels in Spectrum: 2048
>>>>>Begin Spectral Data<<<<<
177.721	-93.45
178.105	-69.61
178.488	-87.63
178.871	5.49
179.254	89.27
179.636	-59.9
180.019	-44.71
180.402	138.46
180.785	-39.4
181.168	58.2
181.55	136.81
181.933	188.42
182.316	201.41
182.698	121.47
183.081	85.54
183.463	22.08
183.846	41.89
184.228	148.52
184.611	48.94
184.993	-431.65
185.376	-17.94
185.758	-201
186.14	-129.54
186.522	-82.36
186.904	-132.16
187.287	-225.9
187.669	-92.57
188.051	-97.84
188.433	-59.97
188.815	-32.29
189.197	-21.9
189.579	-35.4
189.961	-60.22
190.342	-81.49
190.724	-73.26
191.106	-72.93
191.488	-60.87
191.869	-64.38
192.251	-69.97
192.633	-49.14
193.014	-58.05
193.396	-75.4
193.777	-69.83
194.159	-83.75
194.54	-71.96
194.922	-59.78
195.303	-46.77
195.684	-50.49
196.065	-38.37
196.447	-46.25
196.828	-56.5
197.209	-64.43
197.59	-59.12
197.971	-57.42
198.352	-48.07
198.733	-46.53
199.114	-47.77
199.495	-42.75
199.876	-36.51
200.257	-37.04
200.638	-28.74
201.018	-30.37
201.399	-16.75
201.78	-23.33
202.16	-20.76
202.541	-28.49
202.922	-32.08
203.302	-45.13
203.683	-41.31
204.063	-59.06
204.444	-58.81
204.824	-48.64
205.204	-23.5
205.585	-32.57
205.965	-11.54
206.345	-12.17
206.725	-17.32
207.106	-0.98
207.486	-9.02
207.866	-19.88
208.246	-6
208.626	-0.84
209.006	4
209.386	-48.27
209.766	-18.51
210.145	-7.96
210.525	-13.96
210.905	-23.99
211.285	-7.99
211.664	-15.3
212.044	-10.85
212.424	-12.95
212.803	-18.87
213.183	-10.25
213.562	-2.35
213.942	-1.76
214.321	1.22
214.701	7.15
215.08	-9.68
215.459	-16.57
215.838	-7.6
216.218	-14.76
216.597	-15.88
216.976	-11.23
217.355	3.61
217.734	-2.09
218.113	0.23
218.492	6.04
218.871	7.39
219.25	7.23
219.629	5.29
220.008	-3.03
220.387	4.06
220.766	8.15
221.144	-1.83
221.523	-13.32
221.902	-23.62
222.28	-25.32
222.659	-35.8
223.037	-27.82
223.416	-18.28
223.794	-19.55
224.173	-12.49
224.551	-9.73
224.929	-0.67
225.308	-0.74
225.686	-5.05
226.064	-4.66
226.442	-3.35
226.821	0.74
227.199	0.57
227.577	0.73
227.955	5.08
228.333	2.81
228.711	2.27
229.089	5.95
229.467	6.69
229.845	5.53
230.222	5.75
230.6	7.39
230.978	7.42
231.356	5.56
231.733	6.29
232.111	4.86
232.488	4.61
232.866	4
233.243	3.8
233.621	5.32
233.998	6.94
234.376	6.96
234.753	6.13
235.13	6.39
235.508	8.21
235.885	6.46
236.262	6.03
236.639	4.26
237.016	2.9
237.393	3.95
237.77	4.92
238.147	5.03
238.524	4.8
238.901	5.43
239.278	6.31
239.655	6.1
240.032	6.89
240.409	6.56
240.785	6.07
241.162	6.1
241.539	5.9
241.915	5.8
242.292	5.41
242.668	5.74
243.045	6.04
243.421	5.58
243.798	5.97
244.174	6.05
244.551	6.35
244.927	6.35
245.303	6.3
245.679	6.19
246.056	6.11
246.432	5.83
246.808	5.57
247.184	5.26
247.56	5.08
247.936	4.73
248.312	4.64
248.688	4.75
249.064	4.92
249.44	4.75
249.815	4.64
250.191	4.67
250.567	4.56
250.943	4.17
251.318	4.2
251.694	4.01
252.069	4.12
252.445	4.04
252.82	4.14
253.196	3.93
253.571	4.12
253.947	4.09
254.322	4.41
254.697	4.36
255.073	4.26
255.448	4.13
255.823	3.96
256.198	4.11
256.573	3.86
256.948	3.77
257.323	4.11
257.698	3.88
258.073	3.87
258.448	3.77
258.823	3.6
259.198	3.44
259.573	3.54
259.948	3.45
260.322	3.44
260.697	3.28
261.072	3.2
261.446	2.96
261.821	2.95
262.195	3.02
262.57	2.98
262.944	3.06
263.319	3.13
263.693	3.17
264.067	3.27
264.442	3.48
264.816	3.39
265.19	3.14
265.564	3.26
265.938	3.27
266.313	3.24
266.687	3.45
267.061	3.88
267.435	3.79
267.809	3.67
268.183	3.69
268.556	3.59
268.93	3.69
269.304	3.96
269.678	4
270.051	3.79
270.425	3.93
270.799	4.01
271.172	4.09
271.546	4.12
271.919	3.81
272.293	3.77
272.666	3.73
273.04	3.73
273.413	3.65
273.787	3.79
274.16	3.81
274.533	3.73
274.906	3.53
275.279	3.59
275.653	3.54
276.026	3.45
276.399	3.65
276.772	3.66
277.145	3.43
277.518	3.38
277.891	3.54
278.263	3.36
278.636	3.28
279.009	3.3
279.382	3.42
279.755	3.64
280.127	3.66
280.5	3.81
280.872	3.94
281.245	3.91
281.617	3.85
281.99	4.02
282.362	4.09
282.735	4.01
283.107	3.9
283.479	4.07
283.852	4.21
284.224	4.13
284.596	4.09
284.968	4.28
285.34	4.39
285.713	4.3
286.085	4.38
286.457	4.4
286.829	4.5
287.201	4.35
287.572	4.18
287.944	3.99
288.316	3.99
288.688	3.81
289.06	3.9
289.431	3.83
289.803	3.65
290.175	3.62
290.546	3.76
290.918	3.76
291.289	3.7
291.661	3.48
292.032	3.61
292.403	3.63
292.775	3.46
293.146	3.31
293.517	3.27
293.889	3.35
294.26	3.36
294.631	3.31
295.002	3.32
295.373	3.37
295.744	3.53
296.115	3.38
296.486	3.37
296.857	3.2
297.228	3.27
297.599	3.17
297.97	3.3
298.34	3.2
298.711	3.25
299.082	3.25
299.452	3.41
299.823	3.49
300.194	3.51
300.564	3.56
300.935	3.73
301.305	3.81
301.676	3.7
302.046	3.62
302.416	3.54
302.787	3.56
303.157	3.46
303.527	3.4
303.897	3.56
304.267	3.65
304.637	3.86
305.008	3.74
305.378	3.91
305.748	3.93
306.117	3.91
306.487	3.91
306.857	3.86
307.227	3.77
307.597	3.7
307.967	3.7
308.336	3.63
308.706	3.48
309.076	3.43
309.445	3.39
309.815	3.38
310.184	3.34
310.554	3.37
310.923	3.46
311.293	3.44
311.662	3.39
312.031	3.34
312.401	3.3
312.77	3.46
313.139	3.5
313.508	3.39
313.877	3.3
314.246	3.22
314.616	3.19
314.985	3.19
315.353	3.13
315.722	3.04
316.091	3.02
316.46	2.85
316.829	2.99
317.198	3.1
317.567	3.03
317.935	3.05
318.304	2.97
318.672	2.99
319.041	3.06
319.41	2.89
319.778	3.02
320.147	2.91
320.515	2.9
320.883	2.79
321.252	2.95
321.62	3.12
321.988	3.15
322.357	3.07
322.725	2.99
323.093	2.96
323.461	3.07
323.829	3.13
324.197	3.26
324.565	3.18
324.933	3.07
325.301	3.14
325.669	3.23
326.037	3.24
326.405	3.31
326.772	3.35
327.14	3.5
327.508	3.43
327.875	3.42
328.243	3.43
328.61	3.49
328.978	3.4
329.346	3.4
329.713	3.34
330.08	3.37
330.448	3.29
330.815	3.16
331.182	3.15
331.55	3.11
331.917	3.12
332.284	3.16
332.651	3.15
333.018	3.14
333.385	2.93
333.752	3.07
334.119	3.02
334.486	2.89
334.853	2.86
335.22	2.84
335.587	2.96
335.954	2.76
336.32	2.72
336.687	2.58
337.054	2.58
337.42	2.71
337.787	2.81
338.153	2.95
338.52	3.02
338.886	2.92
339.253	2.95
339.619	2.94
339.986	2.86
340.352	2.91
340.718	2.92
341.084	3.02
341.451	3.03
341.817	3.03
342.183	3.04
342.549	3.02
342.915	3.11
343.281	3.08
343.647	3.15
344.013	3.16
344.379	3.15
344.745	3.13
345.11	3.09
345.476	3.03
345.842	2.92
346.208	2.97
346.573	3.09
346.939	3.13
347.304	3.1
347.67	3.09
348.035	3.19
348.401	3.24
348.766	3.23
349.132	3.13
349.497	3.15
349.862	3.28
350.228	3.28
350.593	3.19
350.958	3.17
351.323	3.19
351.688	3.12
352.053	3.22
352.418	3.18
352.783	3.24
353.148	3.28
353.513	3.34
353.878	3.22
354.243	3.23
354.608	3.21
354.972	3.19
355.337	3.26
355.702	3.25
356.066	3.23
356.431	3.15
356.795	3.21
357.16	3.26
357.524	3.21
357.889	3.16
358.253	3.23
358.618	3.26
358.982	3.27
359.346	3.22
359.71	3.14
360.075	3.2
360.439	3.12
360.803	3.14
361.167	3.18
361.531	3.24
361.895	3.18
362.259	3.17
362.623	3.22
362.987	3.25
363.351	3.23
363.714	3.2
364.078	3.26
364.442	3.22
364.806	3.16
365.169	3.12
365.533	3.2
365.896	3.2
366.26	3.25
366.623	3.21
366.987	3.27
367.35	3.35
367.714	3.34
368.077	3.36
368.44	3.3
368.803	3.24
369.167	3.21
369.53	3.22
369.893	3.23
370.256	3.28
370.619	3.21
370.982	3.16
371.345	3.15
371.708	3.15
372.071	3.15
372.434	3.07
372.797	3.05
373.159	3
373.522	3.01
373.885	3.01
374.247	3.07
374.61	3.08
374.973	3.09
375.335	3.09
375.698	3.04
376.06	3.02
376.423	3.01
376.785	3.02
377.147	3.01
377.51	2.99
377.872	3.01
378.234	3.02
378.596	3.07
378.958	3.09
379.321	3.1
379.683	3.18
380.045	3.23
380.407	3.26
380.769	3.31
381.13	3.26
381.492	3.22
381.854	3.18
382.216	3.15
382.578	3.14
382.939	3.13
383.301	3.11
383.663	3.12
384.024	3.14
384.386	3.19
384.747	3.21
385.109	3.24
385.47	3.16
385.832	3.17
386.193	3.14
386.554	3.14
386.916	3.12
387.277	3.09
387.638	3.09
387.999	3.09
388.36	3.09
388.721	3.1
389.082	3.07
389.443	3.06
389.804	3.08
390.165	3.07
390.526	3.08
390.887	3.08
391.248	3.13
391.609	3.13
391.969	3.12
392.33	3.13
392.691	3.1
393.051	3.16
393.412	3.17
393.772	3.15
394.133	3.16
394.493	3.18
394.854	3.15
395.214	3.14
395.574	3.12
395.935	3.08
396.295	3.12
396.655	3.11
397.015	3.11
397.376	3.1
397.736	3.09
398.096	3.08
398.456	3.14
398.816	3.12
399.176	3.12
399.535	3.12
399.895	3.11
400.255	3.13
400.615	3.08
400.975	3.06
401.334	3.06
401.694	3.03
402.054	3
402.413	3.04
402.773	3.05
403.132	3.03
403.492	3.06
403.851	3.05
404.211	3.05
404.57	3.03
404.929	3.05
405.288	3.04
405.648	3.02
406.007	3.01
406.366	3
406.725	3.02
407.084	3
407.443	3
407.802	3
408.161	3.03
408.52	3.02
408.879	3.03
409.238	3.03
409.596	3.07
409.955	3.05
410.314	3.05
410.673	3.07
411.031	3.09
411.39	3.06
411.748	3.08
412.107	3.12
412.465	3.12
412.824	3.17
413.182	3.18
413.54	3.17
413.899	3.19
414.257	3.17
414.615	3.19
414.974	3.18
415.332	3.14
415.69	3.13
416.048	3.1
416.406	3.11
416.764	3.11
417.122	3.11
417.48	3.1
417.838	3.09
418.195	3.09
418.553	3.07
418.911	3.07
419.269	3.06
419.626	3.04
419.984	3.02
420.342	3.01
420.699	3.02
421.057	3.02
421.414	3.01
421.772	3.02
422.129	3.01
422.486	3
422.844	3.02
423.201	3.02
423.558	3.03
423.915	3.03
424.273	3.03
424.63	3.01
424.987	3.01
425.344	3.03
425.701	3.01
426.058	3.01
426.415	3.02
426.772	3.02
427.128	3.03
427.485	3.04
427.842	3.02
428.199	3.01
428.555	3.01
428.912	3.02
429.269	3.01
429.625	3
429.982	3
430.338	2.98
430.695	2.99
431.051	3
431.407	3
431.764	3.01
432.12	3.01
432.476	3.02
432.832	3.01
433.189	3.04
433.545	3.03
433.901	3.03
434.257	3.04
434.613	3.07
434.969	3.08
435.325	3.1
435.681	3.12
436.036	3.11
436.392	3.11
436.748	3.12
437.104	3.12
437.459	3.13
437.815	3.14
438.171	3.15
438.526	3.17
438.882	3.18
439.237	3.18
439.593	3.19
439.948	3.18
440.304	3.18
440.659	3.18
441.014	3.18
441.369	3.17
441.725	3.17
442.08	3.15
442.435	3.16
442.79	3.15
443.145	3.13
443.5	3.14
443.855	3.15
444.21	3.13
444.565	3.15
444.92	3.16
445.275	3.16
445.629	3.16
445.984	3.14
446.339	3.14
446.693	3.12
447.048	3.11
447.403	3.1
447.757	3.09
448.112	3.08
448.466	3.08
448.82	3.1
449.175	3.1
449.529	3.1
449.883	3.09
450.238	3.08
450.592	3.09
450.946	3.07
451.3	3.07
451.654	3.08
452.008	3.09
452.362	3.07
452.716	3.08
453.07	3.06
453.424	3.08
453.778	3.07
454.132	3.1
454.486	3.1
454.839	3.11
455.193	3.12
455.547	3.12
455.9	3.11
456.254	3.11
456.607	3.11
456.961	3.1
457.314	3.09
457.668	3.11
458.021	3.1
458.375	3.11
458.728	3.12
459.081	3.13
459.434	3.11
459.787	3.11
460.141	3.11
460.494	3.1
460.847	3.09
461.2	3.08
461.553	3.08
461.906	3.09
462.259	3.09
462.611	3.09
462.964	3.11
463.317	3.11
463.67	3.09
464.022	3.09
464.375	3.09
464.728	3.1
465.08	3.09
465.433	3.11
465.785	3.1
466.138	3.09
466.49	3.08
466.843	3.1
467.195	3.09
467.547	3.09
467.899	3.11
468.252	3.11
468.604	3.14
468.956	3.12
469.308	3.1
469.66	3.09
470.012	3.09
470.364	3.07
470.716	3.07
471.068	3.07
471.42	3.07
471.772	3.1
472.123	3.1
472.475	3.09
472.827	3.1
473.178	3.11
473.53	3.09
473.882	3.09
474.233	3.09
474.585	3.09
474.936	3.09
475.288	3.09
475.639	3.1
475.99	3.09
476.342	3.1
476.693	3.12
477.044	3.13
477.395	3.12
477.746	3.14
478.097	3.15
478.448	3.15
478.8	3.16
479.15	3.13
479.501	3.12
479.852	3.13
480.203	3.14
480.554	3.14
480.905	3.14
481.255	3.14
481.606	3.14
481.957	3.14
482.307	3.14
482.658	3.14
483.009	3.13
483.359	3.12
483.709	3.13
484.06	3.12
484.41	3.13
484.761	3.13
485.111	3.13
485.461	3.12
485.811	3.13
486.162	3.12
486.512	3.13
486.862	3.14
487.212	3.13
487.562	3.13
487.912	3.12
488.262	3.13
488.612	3.14
488.961	3.14
489.311	3.15
489.661	3.15
490.011	3.15
490.36	3.15
490.71	3.17
491.06	3.17
491.409	3.17
491.759	3.16
492.108	3.16
492.458	3.16
492.807	3.16
493.157	3.17
493.506	3.18
493.855	3.19
494.204	3.18
494.554	3.18
494.903	3.18
495.252	3.18
495.601	3.21
495.95	3.19
496.299	3.18
496.648	3.17
496.997	3.18
497.346	3.19
497.695	3.19
498.043	3.17
498.392	3.17
498.741	3.18
499.09	3.2
499.438	3.23
499.787	3.25
500.135	3.28
500.484	3.26
500.832	3.27
501.181	3.25
501.529	3.28
501.878	3.29
502.226	3.29
502.574	3.31
502.923	3.3
503.271	3.3
503.619	3.3
503.967	3.3
504.315	3.31
504.663	3.31
505.011	3.32
505.359	3.33
505.707	3.33
506.055	3.33
506.403	3.34
506.751	3.32
507.098	3.31
507.446	3.31
507.794	3.31
508.141	3.32
508.489	3.33
508.837	3.31
509.184	3.32
509.531	3.33
509.879	3.32
510.226	3.33
510.574	3.32
510.921	3.33
511.268	3.35
511.616	3.36
511.963	3.37
512.31	3.35
512.657	3.38
513.004	3.38
513.351	3.38
513.698	3.38
514.045	3.39
514.392	3.41
514.739	3.41
515.086	3.42
515.432	3.44
515.779	3.44
516.126	3.45
516.473	3.46
516.819	3.48
517.166	3.49
517.512	3.48
517.859	3.47
518.205	3.48
518.552	3.48
518.898	3.47
519.245	3.47
519.591	3.49
519.937	3.48
520.283	3.5
520.629	3.49
520.976	3.5
521.322	3.5
521.668	3.49
522.014	3.5
522.36	3.51
522.706	3.51
523.052	3.52
523.398	3.53
523.743	3.51
524.089	3.49
524.435	3.47
524.781	3.49
525.126	3.5
525.472	3.5
525.817	3.5
526.163	3.5
526.509	3.51
526.854	3.51
527.199	3.51
527.545	3.5
527.89	3.51
528.235	3.51
528.581	3.53
528.926	3.53
529.271	3.53
529.616	3.53
529.961	3.53
530.306	3.53
530.651	3.51
530.996	3.52
531.341	3.53
531.686	3.53
532.031	3.54
532.376	3.55
532.721	3.56
533.065	3.56
533.41	3.56
533.755	3.55
534.099	3.55
534.444	3.56
534.788	3.58
535.133	3.57
535.477	3.56
535.822	3.55
536.166	3.54
536.51	3.54
536.855	3.53
537.199	3.53
537.543	3.54
537.887	3.57
538.231	3.57
538.576	3.58
538.92	3.59
539.264	3.59
539.608	3.59
539.951	3.58
540.295	3.57
540.639	3.57
540.983	3.57
541.327	3.58
541.671	3.57
542.014	3.57
542.358	3.58
542.701	3.59
543.045	3.6
543.389	3.61
543.732	3.62
544.075	3.63
544.419	3.62
544.762	3.62
545.105	3.61
545.449	3.62
545.792	3.6
546.135	3.61
546.478	3.59
546.821	3.6
547.165	3.62
547.508	3.63
547.851	3.63
548.194	3.64
548.536	3.63
548.879	3.65
549.222	3.63
549.565	3.63
549.908	3.63
550.25	3.63
550.593	3.64
550.936	3.6
551.278	3.6
551.621	3.62
551.963	3.65
552.306	3.64
552.648	3.64
552.991	3.65
553.333	3.65
553.675	3.68
554.017	3.68
554.36	3.69
554.702	3.7
555.044	3.71
555.386	3.71
555.728	3.7
556.07	3.7
556.412	3.68
556.754	3.7
557.096	3.7
557.438	3.69
557.78	3.69
558.121	3.73
558.463	3.71
558.805	3.71
559.147	3.66
559.488	3.67
559.83	3.66
560.171	3.66
560.513	3.68
560.854	3.66
561.196	3.66
561.537	3.65
561.878	3.62
562.22	3.63
562.561	3.63
562.902	3.66
563.243	3.67
563.584	3.71
563.925	3.71
564.266	3.67
564.607	3.66
564.948	3.67
565.289	3.65
565.63	3.65
565.971	3.65
566.312	3.65
566.653	3.64
566.993	3.6
567.334	3.6
567.675	3.6
568.015	3.62
568.356	3.6
568.696	3.6
569.037	3.61
569.377	3.6
569.718	3.61
570.058	3.61
570.398	3.59
570.739	3.57
571.079	3.58
571.419	3.59
571.759	3.62
572.099	3.61
572.439	3.62
572.779	3.62
573.119	3.62
573.459	3.65
573.799	3.67
574.139	3.7
574.479	3.7
574.819	3.69
575.158	3.67
575.498	3.68
575.838	3.67
576.177	3.67
576.517	3.64
576.856	3.62
577.196	3.62
577.535	3.64
577.875	3.62
578.214	3.61
578.553	3.62
578.893	3.6
579.232	3.6
579.571	3.59
579.91	3.59
580.25	3.62
580.589	3.59
580.928	3.63
581.267	3.65
581.606	3.62
581.945	3.63
582.283	3.63
582.622	3.64
582.961	3.64
583.3	3.64
583.639	3.71
583.977	3.73
584.316	3.72
584.654	3.69
584.993	3.69
585.332	3.69
585.67	3.65
586.008	3.65
586.347	3.66
586.685	3.65
587.024	3.66
587.362	3.64
587.7	3.66
588.038	3.65
588.376	3.62
588.715	3.66
589.053	3.68
589.391	3.71
589.729	3.72
590.067	3.71
590.404	3.71
590.742	3.7
591.08	3.7
591.418	3.73
591.756	3.76
592.093	3.77
592.431	3.79
592.769	3.83
593.106	3.86
593.444	3.87
593.781	3.87
594.119	3.89
594.456	3.89
594.793	3.87
595.131	3.82
595.468	3.83
595.805	3.83
596.143	3.82
596.48	3.8
596.817	3.79
597.154	3.81
597.491	3.81
597.828	3.82
598.165	3.81
598.502	3.78
598.839	3.77
599.176	3.74
599.512	3.74
599.849	3.75
600.186	3.7
600.523	3.7
600.859	3.72
601.196	3.73
601.532	3.7
601.869	3.68
602.205	3.73
602.542	3.75
602.878	3.7
603.215	3.69
603.551	3.71
603.887	3.69
604.223	3.67
604.56	3.69
604.896	3.69
605.232	3.71
605.568	3.72
605.904	3.73
606.24	3.75
606.576	3.74
606.912	3.75
607.248	3.76
607.583	3.78
607.919	3.75
608.255	3.75
608.591	3.78
608.926	3.81
609.262	3.82
609.597	3.81
609.933	3.87
610.268	3.9
610.604	3.87
610.939	3.89
611.275	3.87
611.61	3.83
611.945	3.84
612.281	3.84
612.616	3.87
612.951	3.83
613.286	3.84
613.621	3.89
613.956	3.82
614.291	3.84
614.626	3.82
614.961	3.82
615.296	3.81
615.631	3.82
615.966	3.83
616.3	3.79
616.635	3.8
616.97	3.77
617.304	3.75
617.639	3.76
617.973	3.76
618.308	3.76
618.642	3.78
618.977	3.77
619.311	3.79
619.646	3.76
619.98	3.79
620.314	3.83
620.648	3.83
620.983	3.84
621.317	3.75
621.651	3.77
621.985	3.81
622.319	3.81
622.653	3.82
622.987	3.83
623.321	3.81
623.655	3.81
623.988	3.86
624.322	3.87
624.656	3.93
624.99	3.92
625.323	3.94
625.657	3.96
625.99	3.92
626.324	3.86
626.657	3.85
626.991	3.88
627.324	3.84
627.658	3.83
627.991	3.88
628.324	3.95
628.657	3.96
628.991	3.92
629.324	3.91
629.657	3.84
629.99	3.83
630.323	3.85
630.656	3.87
630.989	3.87
631.322	3.87
631.655	3.8
631.987	3.8
632.32	3.81
632.653	3.81
632.986	3.85
633.318	3.89
633.651	3.93
633.984	3.85
634.316	3.87
634.649	3.86
634.981	3.85
635.313	3.85
635.646	3.82
635.978	3.86
636.31	3.87
636.643	3.91
636.975	3.87
637.307	3.9
637.639	3.89
637.971	3.84
638.303	3.82
638.635	3.89
638.967	3.86
639.299	3.92
639.631	3.88
639.963	3.84
640.295	3.84
640.626	3.81
640.958	3.83
641.29	3.86
641.621	3.88
641.953	3.85
642.285	3.89
642.616	3.9
642.948	3.94
643.279	4
643.61	4.02
643.942	4.09
644.273	4.12
644.604	4.07
644.936	4.06
645.267	4.1
645.598	4.09
645.929	4.15
646.26	4.09
646.591	4.13
646.922	4.2
647.253	4.22
647.584	4.2
647.915	4.25
648.245	4.17
648.576	4.1
648.907	4.14
649.238	4.05
649.568	4.11
649.899	4.01
650.229	4
650.56	3.98
650.89	3.95
651.221	3.9
651.551	3.86
651.882	3.85
652.212	3.85
652.542	3.83
652.872	3.81
653.203	3.82
653.533	3.85
653.863	3.84
654.193	3.8
654.523	3.87
654.853	3.85
655.183	3.86
655.513	3.9
655.843	3.9
656.172	3.91
656.502	3.93
656.832	4
657.162	3.97
657.491	3.97
657.821	3.99
658.15	3.95
658.48	4.07
658.809	4.04
659.139	4.03
659.468	3.96
659.798	3.96
660.127	3.94
660.456	3.95
660.785	3.94
661.115	3.98
661.444	4
661.773	4.02
662.102	4.08
662.431	4.08
662.76	4.08
663.089	4.08
663.418	4.01
663.747	3.99
664.076	3.99
664.404	3.96
664.733	4
665.062	4.08
665.39	4.01
665.719	4.06
666.048	4.09
666.376	4.21
666.705	4.17
667.033	4.16
667.362	4.15
667.69	4.17
668.018	4.1
668.347	4.02
668.675	4.05
669.003	4.01
669.331	4.15
669.659	4.17
669.987	4.15
670.315	4.24
670.643	4.24
670.971	4.26
671.299	4.37
671.627	4.3
671.955	4.25
672.283	4.29
672.61	4.28
672.938	4.31
673.266	4.31
673.593	4.46
673.921	4.46
674.249	4.46
674.576	4.39
674.904	4.45
675.231	4.47
675.558	4.45
675.886	4.48
676.213	4.42
676.54	4.45
676.867	4.54
677.195	4.41
677.522	4.42
677.849	4.42
678.176	4.33
678.503	4.35
678.83	4.4
679.157	4.35
679.484	4.31
