Data from BU26939_Reflection_00013.txt Node
Date: Tue Nov 19 10:57:00 EST 2019
User: vgr7
Spectrometer: USB2G7710
Scans to average: 3
Trigger mode: 4
Integration Time (sec): 2.000000E-2
Electric dark correction enabled: true
Boxcar width: 10
XAxis mode: Wavelengths
Number of Pixels in Spectrum: 2048
>>>>>Begin Spectral Data<<<<<
177.721	-32.2
178.105	-4.61
178.488	-8.23
178.871	-56.06
179.254	-74.07
179.636	139.8
180.019	-346.24
180.402	58.82
180.785	25.16
181.168	-45.44
181.55	-214.81
181.933	64.65
182.316	-134.46
182.698	204.94
183.081	-130.16
183.463	-480.46
183.846	-314.73
184.228	-223.36
184.611	-137.21
184.993	-58.45
185.376	-53.8
185.758	-69.71
186.14	-71.36
186.522	-108.78
186.904	-102.56
187.287	-109.71
187.669	-66.67
188.051	-98.31
188.433	-100.64
188.815	-150.27
189.197	-135.78
189.579	-112.26
189.961	-130.01
190.342	-151.18
190.724	-154.08
191.106	-141.22
191.488	-137.29
191.869	-113.96
192.251	-102.87
192.633	-80.97
193.014	-76.41
193.396	-82.94
193.777	-69.76
194.159	-64.93
194.54	-53.68
194.922	-67.4
195.303	-64.14
195.684	-76.29
196.065	-85.55
196.447	-86.92
196.828	-84.58
197.209	-86.1
197.59	-83.02
197.971	-74.55
198.352	-72.42
198.733	-77.07
199.114	-90.39
199.495	-75.9
199.876	-79.18
200.257	-78.31
200.638	-91.52
201.018	-110.46
201.399	-104.12
201.78	-113.17
202.16	-133.33
202.541	-151.5
202.922	-144.29
203.302	-166.81
203.683	-149.44
204.063	-147.46
204.444	-119.63
204.824	-113.63
205.204	-89.5
205.585	-85.31
205.965	-95.25
206.345	-87.78
206.725	-79.34
207.106	-69.17
207.486	-61.98
207.866	-58.56
208.246	-50.43
208.626	-66.67
209.006	-73.92
209.386	-73.97
209.766	-61.82
210.145	-50.18
210.525	-45.73
210.905	-38.81
211.285	-34.22
211.664	-27.66
212.044	-23.23
212.424	-33.41
212.803	-39.14
213.183	-41.03
213.562	-39.02
213.942	-44.84
214.321	-53.75
214.701	-55.09
215.08	-47.49
215.459	-54.57
215.838	-64.47
216.218	-69.84
216.597	-53.46
216.976	-62.82
217.355	-62.93
217.734	-88.29
218.113	-82.66
218.492	-81.16
218.871	-81.84
219.25	-85.75
219.629	-123.63
220.008	-140.28
220.387	-135.58
220.766	-91.57
221.144	-88.96
221.523	-109.53
221.902	-83.67
222.28	-76.96
222.659	-48.01
223.037	-47.68
223.416	-49.09
223.794	-40.45
224.173	-42.06
224.551	-39.15
224.929	-36.29
225.308	-34.57
225.686	-29.61
226.064	-29.11
226.442	-27.33
226.821	-22.93
227.199	-21.28
227.577	-19.07
227.955	-16.34
228.333	-16.83
228.711	-15.26
229.089	-14.59
229.467	-10.66
229.845	-9.89
230.222	-4.48
230.6	-7.66
230.978	-5.75
231.356	-4.81
231.733	-4.78
232.111	-4.36
232.488	-4.96
232.866	-0.81
233.243	0.22
233.621	-0.57
233.998	-0.82
234.376	-2.11
234.753	-3.23
235.13	-3.37
235.508	-3.52
235.885	-3.86
236.262	-3.92
236.639	-3.64
237.016	-4.09
237.393	-2.22
237.77	-1.35
238.147	-1.61
238.524	-1.35
238.901	-2.11
239.278	-2.36
239.655	-1.73
240.032	-1.64
240.409	-1.62
240.785	-1.67
241.162	-1.17
241.539	-0.89
241.915	-0.61
242.292	0.06
242.668	0.39
243.045	0.94
243.421	1.36
243.798	1.85
244.174	2.13
244.551	2.1
244.927	2.18
245.303	1.74
245.679	1.64
246.056	1.78
246.432	2.1
246.808	2.23
247.184	2.37
247.56	2.25
247.936	2.39
248.312	2.68
248.688	2.54
249.064	2.46
249.44	2.62
249.815	2.56
250.191	2.57
250.567	2.57
250.943	2.41
251.318	2.17
251.694	1.72
252.069	1.66
252.445	1.5
252.82	1.6
253.196	1.56
253.571	1.52
253.947	1.37
254.322	0.66
254.697	0.82
255.073	1.03
255.448	0.91
255.823	1.04
256.198	1.1
256.573	1.23
256.948	1.54
257.323	1.71
257.698	2.08
258.073	1.97
258.448	1.97
258.823	2.03
259.198	2.11
259.573	2.23
259.948	2.29
260.322	2.42
260.697	2.4
261.072	2.43
261.446	2.49
261.821	2.46
262.195	2.7
262.57	2.58
262.944	2.54
263.319	2.68
263.693	2.59
264.067	2.57
264.442	2.69
264.816	2.44
265.19	2.32
265.564	2.05
265.938	1.96
266.313	1.83
266.687	1.77
267.061	1.86
267.435	2.05
267.809	2.03
268.183	1.91
268.556	1.75
268.93	1.88
269.304	1.9
269.678	1.91
270.051	1.92
270.425	1.97
270.799	1.82
271.172	2.03
271.546	2.15
271.919	2.24
272.293	2.27
272.666	2.29
273.04	2.37
273.413	2.27
273.787	2.4
274.16	2.43
274.533	2.42
274.906	2.41
275.279	2.22
275.653	2.32
276.026	2.31
276.399	2.49
276.772	2.46
277.145	2.34
277.518	2.28
277.891	2.28
278.263	2.48
278.636	2.65
279.009	2.58
279.382	2.55
279.755	2.5
280.127	2.45
280.5	2.45
280.872	2.5
281.245	2.63
281.617	2.69
281.99	2.66
282.362	2.61
282.735	2.62
283.107	2.77
283.479	2.75
283.852	2.81
284.224	2.8
284.596	2.81
284.968	2.88
285.34	2.95
285.713	2.92
286.085	2.68
286.457	2.75
286.829	2.67
287.201	2.6
287.572	2.5
287.944	2.63
288.316	2.67
288.688	2.61
289.06	2.7
289.431	2.69
289.803	2.81
290.175	2.9
290.546	2.79
290.918	2.71
291.289	2.64
291.661	2.63
292.032	2.56
292.403	2.61
292.775	2.65
293.146	2.63
293.517	2.76
293.889	2.78
294.26	2.83
294.631	2.85
295.002	3
295.373	3.16
295.744	3.1
296.115	3.15
296.486	3.18
296.857	3.24
297.228	3.24
297.599	3.17
297.97	3.24
298.34	3.26
298.711	3.34
299.082	3.38
299.452	3.41
299.823	3.49
300.194	3.51
300.564	3.49
300.935	3.46
301.305	3.42
301.676	3.49
302.046	3.42
302.416	3.4
302.787	3.29
303.157	3.29
303.527	3.25
303.897	3.16
304.267	3.14
304.637	3.06
305.008	3.12
305.378	3.26
305.748	3.2
306.117	3.35
306.487	3.46
306.857	3.64
307.227	3.73
307.597	3.8
307.967	3.9
308.336	3.9
308.706	4.05
309.076	4.12
309.445	4.31
309.815	4.44
310.184	4.51
310.554	4.55
310.923	4.49
311.293	4.65
311.662	4.77
312.031	4.78
312.401	4.82
312.77	4.9
313.139	4.91
313.508	5.04
313.877	5.01
314.246	5.08
314.616	4.96
314.985	4.93
315.353	4.91
315.722	4.96
316.091	5.02
316.46	5.15
316.829	5.22
317.198	5.21
317.567	5.26
317.935	5.44
318.304	5.62
318.672	5.77
319.041	5.75
319.41	5.79
319.778	5.98
320.147	6.03
320.515	5.95
320.883	5.95
321.252	5.93
321.62	6.15
321.988	6.15
322.357	6.37
322.725	6.47
323.093	6.41
323.461	6.54
323.829	6.57
324.197	6.6
324.565	6.69
324.933	6.67
325.301	6.67
325.669	6.47
326.037	6.46
326.405	6.5
326.772	6.49
327.14	6.5
327.508	6.41
327.875	6.44
328.243	6.47
328.61	6.7
328.978	6.81
329.346	6.79
329.713	7
330.08	7.12
330.448	7.16
330.815	7.27
331.182	7.13
331.55	7.16
331.917	7.14
332.284	7.12
332.651	7.15
333.018	7.2
333.385	7.41
333.752	7.54
334.119	7.53
334.486	7.61
334.853	7.75
335.22	7.86
335.587	7.86
335.954	7.86
336.32	7.78
336.687	7.78
337.054	7.74
337.42	7.63
337.787	7.54
338.153	7.59
338.52	7.72
338.886	7.82
339.253	7.9
339.619	7.81
339.986	7.91
340.352	8.02
340.718	7.93
341.084	7.86
341.451	7.78
341.817	7.81
342.183	7.79
342.549	7.76
342.915	7.78
343.281	7.77
343.647	7.89
344.013	7.95
344.379	7.93
344.745	7.98
345.11	7.95
345.476	7.99
345.842	7.9
346.208	7.9
346.573	7.94
346.939	7.98
347.304	8.13
347.67	7.93
348.035	7.87
348.401	7.94
348.766	8
349.132	8.08
349.497	8.08
349.862	8.06
350.228	8
350.593	8.01
350.958	8.16
351.323	8.16
351.688	8.08
352.053	8.2
352.418	8.24
352.783	8.18
353.148	8.17
353.513	8.25
353.878	8.26
354.243	8.18
354.608	8.17
354.972	8.14
355.337	8.18
355.702	8.14
356.066	8.09
356.431	8.14
356.795	8.11
357.16	8.13
357.524	8.18
357.889	8.19
358.253	8.12
358.618	8.06
358.982	8.07
359.346	8.08
359.71	7.96
360.075	7.95
360.439	8.04
360.803	8.01
361.167	7.96
361.531	7.95
361.895	8.01
362.259	7.96
362.623	7.9
362.987	7.98
363.351	8.03
363.714	8.08
364.078	8.04
364.442	8
364.806	8
365.169	7.98
365.533	8.02
365.896	8.05
366.26	8.05
366.623	7.96
366.987	7.95
367.35	8
367.714	7.96
368.077	7.94
368.44	7.93
368.803	7.93
369.167	7.84
369.53	7.73
369.893	7.77
370.256	7.76
370.619	7.67
370.982	7.57
371.345	7.49
371.708	7.49
372.071	7.44
372.434	7.34
372.797	7.26
373.159	7.16
373.522	7.06
373.885	6.98
374.247	6.97
374.61	6.93
374.973	6.87
375.335	6.79
375.698	6.69
376.06	6.62
376.423	6.58
376.785	6.57
377.147	6.5
377.51	6.41
377.872	6.33
378.234	6.27
378.596	6.26
378.958	6.26
379.321	6.12
379.683	6.15
380.045	6.12
380.407	6.07
380.769	6.03
381.13	6.01
381.492	5.97
381.854	5.95
382.216	5.93
382.578	5.87
382.939	5.86
383.301	5.82
383.663	5.8
384.024	5.77
384.386	5.7
384.747	5.69
385.109	5.63
385.47	5.64
385.832	5.6
386.193	5.57
386.554	5.47
386.916	5.52
387.277	5.45
387.638	5.45
387.999	5.44
388.36	5.42
388.721	5.42
389.082	5.38
389.443	5.29
389.804	5.23
390.165	5.19
390.526	5.17
390.887	5.12
391.248	5.13
391.609	5.09
391.969	5.08
392.33	5.02
392.691	5.01
393.051	4.94
393.412	4.89
393.772	4.86
394.133	4.88
394.493	4.8
394.854	4.79
395.214	4.74
395.574	4.7
395.935	4.64
396.295	4.61
396.655	4.57
397.015	4.58
397.376	4.56
397.736	4.49
398.096	4.42
398.456	4.4
398.816	4.32
399.176	4.27
399.535	4.22
399.895	4.24
400.255	4.21
400.615	4.22
400.975	4.21
401.334	4.17
401.694	4.14
402.054	4.09
402.413	4.08
402.773	4.07
403.132	4.03
403.492	4.03
403.851	4
404.211	4
404.57	4.01
404.929	3.98
405.288	3.98
405.648	3.97
406.007	3.94
406.366	3.93
406.725	3.91
407.084	3.94
407.443	3.93
407.802	3.93
408.161	3.9
408.52	3.9
408.879	3.89
409.238	3.88
409.596	3.9
409.955	3.83
410.314	3.81
410.673	3.84
411.031	3.83
411.39	3.81
411.748	3.79
412.107	3.75
412.465	3.76
412.824	3.75
413.182	3.75
413.54	3.76
413.899	3.75
414.257	3.77
414.615	3.74
414.974	3.7
415.332	3.69
415.69	3.67
416.048	3.67
416.406	3.63
416.764	3.63
417.122	3.61
417.48	3.62
417.838	3.6
418.195	3.57
418.553	3.55
418.911	3.52
419.269	3.53
419.626	3.51
419.984	3.49
420.342	3.48
420.699	3.47
421.057	3.46
421.414	3.45
421.772	3.43
422.129	3.41
422.486	3.4
422.844	3.38
423.201	3.38
423.558	3.36
423.915	3.37
424.273	3.36
424.63	3.36
424.987	3.34
425.344	3.33
425.701	3.31
426.058	3.3
426.415	3.3
426.772	3.27
427.128	3.27
427.485	3.27
427.842	3.26
428.199	3.25
428.555	3.24
428.912	3.23
429.269	3.22
429.625	3.23
429.982	3.23
430.338	3.23
430.695	3.22
431.051	3.21
431.407	3.2
431.764	3.19
432.12	3.19
432.476	3.19
432.832	3.2
433.189	3.19
433.545	3.21
433.901	3.2
434.257	3.2
434.613	3.19
434.969	3.18
435.325	3.19
435.681	3.2
436.036	3.21
436.392	3.21
436.748	3.22
437.104	3.21
437.459	3.2
437.815	3.21
438.171	3.22
438.526	3.21
438.882	3.23
439.237	3.23
439.593	3.24
439.948	3.24
440.304	3.23
440.659	3.26
441.014	3.26
441.369	3.28
441.725	3.3
442.08	3.3
442.435	3.3
442.79	3.27
443.145	3.27
443.5	3.26
443.855	3.25
444.21	3.26
444.565	3.26
444.92	3.27
445.275	3.25
445.629	3.24
445.984	3.24
446.339	3.23
446.693	3.21
447.048	3.2
447.403	3.19
447.757	3.18
448.112	3.16
448.466	3.15
448.82	3.12
449.175	3.1
449.529	3.11
449.883	3.09
450.238	3.1
450.592	3.09
450.946	3.06
451.3	3.07
451.654	3.05
452.008	3.04
452.362	3.04
452.716	3.05
453.07	3.05
453.424	3.03
453.778	3.01
454.132	3
454.486	3
454.839	3
455.193	2.99
455.547	2.98
455.9	3
456.254	3
456.607	3
456.961	2.98
457.314	3
457.668	3.02
458.021	3.02
458.375	3.05
458.728	3.01
459.081	3.01
459.434	3.01
459.787	3.01
460.141	3.01
460.494	3.02
460.847	3.05
461.2	3.06
461.553	3.08
461.906	3.08
462.259	3.08
462.611	3.11
462.964	3.13
463.317	3.14
463.67	3.15
464.022	3.16
464.375	3.19
464.728	3.19
465.08	3.19
465.433	3.22
465.785	3.21
466.138	3.26
466.49	3.27
466.843	3.29
467.195	3.3
467.547	3.31
467.899	3.33
468.252	3.32
468.604	3.32
468.956	3.33
469.308	3.34
469.66	3.37
470.012	3.36
470.364	3.37
470.716	3.39
471.068	3.42
471.42	3.43
471.772	3.44
472.123	3.46
472.475	3.46
472.827	3.45
473.178	3.48
473.53	3.48
473.882	3.49
474.233	3.5
474.585	3.52
474.936	3.52
475.288	3.5
475.639	3.5
475.99	3.52
476.342	3.52
476.693	3.5
477.044	3.49
477.395	3.5
477.746	3.48
478.097	3.46
478.448	3.44
478.8	3.42
479.15	3.42
479.501	3.4
479.852	3.4
480.203	3.39
480.554	3.39
480.905	3.39
481.255	3.4
481.606	3.39
481.957	3.39
482.307	3.39
482.658	3.39
483.009	3.39
483.359	3.39
483.709	3.39
484.06	3.4
484.41	3.39
484.761	3.38
485.111	3.38
485.461	3.38
485.811	3.38
486.162	3.38
486.512	3.38
486.862	3.38
487.212	3.39
487.562	3.39
487.912	3.38
488.262	3.37
488.612	3.36
488.961	3.35
489.311	3.34
489.661	3.34
490.011	3.34
490.36	3.34
490.71	3.35
491.06	3.34
491.409	3.35
491.759	3.37
492.108	3.37
492.458	3.39
492.807	3.4
493.157	3.41
493.506	3.42
493.855	3.44
494.204	3.46
494.554	3.47
494.903	3.5
495.252	3.53
495.601	3.58
495.95	3.61
496.299	3.64
496.648	3.68
496.997	3.71
497.346	3.75
497.695	3.8
498.043	3.83
498.392	3.88
498.741	3.92
499.09	3.97
499.438	4.04
499.787	4.08
500.135	4.13
500.484	4.19
500.832	4.27
501.181	4.32
501.529	4.38
501.878	4.43
502.226	4.5
502.574	4.57
502.923	4.65
503.271	4.74
503.619	4.86
503.967	4.93
504.315	5.02
504.663	5.13
505.011	5.23
505.359	5.32
505.707	5.43
506.055	5.53
506.403	5.63
506.751	5.73
507.098	5.86
507.446	5.98
507.794	6.08
508.141	6.19
508.489	6.35
508.837	6.45
509.184	6.6
509.531	6.74
509.879	6.87
510.226	6.98
510.574	7.12
510.921	7.25
511.268	7.39
511.616	7.54
511.963	7.68
512.31	7.83
512.657	8.01
513.004	8.19
513.351	8.35
513.698	8.57
514.045	8.79
514.392	8.98
514.739	9.18
515.086	9.41
515.432	9.64
515.779	9.82
516.126	10.06
516.473	10.25
516.819	10.42
517.166	10.61
517.512	10.8
517.859	10.99
518.205	11.16
518.552	11.35
518.898	11.53
519.245	11.74
519.591	11.91
519.937	12.09
520.283	12.3
520.629	12.5
520.976	12.71
521.322	12.91
521.668	13.1
522.014	13.33
522.36	13.56
522.706	13.78
523.052	14.02
523.398	14.3
523.743	14.58
524.089	14.87
524.435	15.13
524.781	15.42
525.126	15.67
525.472	15.89
525.817	16.1
526.163	16.29
526.509	16.45
526.854	16.64
527.199	16.8
527.545	16.94
527.89	17.1
528.235	17.26
528.581	17.42
528.926	17.6
529.271	17.77
529.616	17.93
529.961	18.09
530.306	18.28
530.651	18.44
530.996	18.6
531.341	18.78
531.686	18.98
532.031	19.15
532.376	19.33
532.721	19.53
533.065	19.74
533.41	19.93
533.755	20.15
534.099	20.34
534.444	20.56
534.788	20.78
535.133	21
535.477	21.21
535.822	21.41
536.166	21.64
536.51	21.87
536.855	22.13
537.199	22.4
537.543	22.64
537.887	22.92
538.231	23.22
538.576	23.51
538.92	23.8
539.264	24.06
539.608	24.32
539.951	24.55
540.295	24.74
540.639	24.97
540.983	25.18
541.327	25.4
541.671	25.61
542.014	25.8
542.358	25.97
542.701	26.17
543.045	26.38
543.389	26.56
543.732	26.77
544.075	26.98
544.419	27.2
544.762	27.44
545.105	27.67
545.449	27.87
545.792	28.08
546.135	28.28
546.478	28.51
546.821	28.78
547.165	29.06
547.508	29.37
547.851	29.65
548.194	29.94
548.536	30.21
548.879	30.47
549.222	30.73
549.565	31.03
549.908	31.25
550.25	31.51
550.593	31.77
550.936	32
551.278	32.25
551.621	32.51
551.963	32.75
552.306	32.95
552.648	33.23
552.991	33.46
553.333	33.69
553.675	33.98
554.017	34.13
554.36	34.29
554.702	34.47
555.044	34.68
555.386	34.86
555.728	35.05
556.07	35.29
556.412	35.54
556.754	35.72
557.096	35.96
557.438	36.22
557.78	36.49
558.121	36.73
558.463	36.89
558.805	37.08
559.147	37.23
559.488	37.46
559.83	37.67
560.171	37.87
560.513	38.1
560.854	38.29
561.196	38.49
561.537	38.73
561.878	38.91
562.22	39.08
562.561	39.23
562.902	39.39
563.243	39.52
563.584	39.65
563.925	39.83
564.266	40
564.607	40.13
564.948	40.29
565.289	40.43
565.63	40.58
565.971	40.73
566.312	40.93
566.653	41.06
566.993	41.23
567.334	41.36
567.675	41.49
568.015	41.62
568.356	41.79
568.696	41.91
569.037	42.07
569.377	42.17
569.718	42.31
570.058	42.51
570.398	42.67
570.739	42.84
571.079	43
571.419	43.12
571.759	43.25
572.099	43.35
572.439	43.5
572.779	43.72
573.119	43.85
573.459	43.93
573.799	44.07
574.139	44.16
574.479	44.26
574.819	44.33
575.158	44.41
575.498	44.51
575.838	44.61
576.177	44.72
576.517	44.89
576.856	44.99
577.196	45.03
577.535	45.12
577.875	45.23
578.214	45.28
578.553	45.43
578.893	45.56
579.232	45.72
579.571	45.83
579.91	45.87
580.25	46.01
580.589	46.11
580.928	46.23
581.267	46.39
581.606	46.46
581.945	46.63
582.283	46.75
582.622	46.85
582.961	46.99
583.3	47.12
583.639	47.18
583.977	47.29
584.316	47.45
584.654	47.57
584.993	47.58
585.332	47.69
585.67	47.73
586.008	47.68
586.347	47.73
586.685	47.78
587.024	47.81
587.362	47.83
587.7	47.91
588.038	47.99
588.376	47.98
588.715	48.12
589.053	48.19
589.391	48.23
589.729	48.27
590.067	48.29
590.404	48.35
590.742	48.44
591.08	48.59
591.418	48.6
591.756	48.65
592.093	48.74
592.431	48.83
592.769	48.9
593.106	49.06
593.444	49.14
593.781	49.19
594.119	49.23
594.456	49.37
594.793	49.41
595.131	49.42
595.468	49.51
595.805	49.58
596.143	49.59
596.48	49.65
596.817	49.74
597.154	49.77
597.491	49.78
597.828	49.8
598.165	49.78
598.502	49.82
598.839	49.86
599.176	49.96
599.512	50.06
599.849	50.15
600.186	50.2
600.523	50.24
600.859	50.2
601.196	50.26
601.532	50.25
601.869	50.34
602.205	50.38
602.542	50.39
602.878	50.42
603.215	50.47
603.551	50.52
603.887	50.6
604.223	50.64
604.56	50.7
604.896	50.73
605.232	50.76
605.568	50.87
605.904	50.91
606.24	50.91
606.576	50.93
606.912	50.93
607.248	50.95
607.583	50.98
607.919	51.06
608.255	51.12
608.591	51.21
608.926	51.19
609.262	51.27
609.597	51.31
609.933	51.32
610.268	51.34
610.604	51.31
610.939	51.31
611.275	51.41
611.61	51.53
611.945	51.58
612.281	51.58
612.616	51.53
612.951	51.58
613.286	51.57
613.621	51.52
613.956	51.58
614.291	51.6
614.626	51.62
614.961	51.76
615.296	51.83
615.631	51.83
615.966	51.89
616.3	51.93
616.635	51.93
616.97	51.92
617.304	51.92
617.639	52.08
617.973	52.12
618.308	52.09
618.642	52.01
618.977	52.07
619.311	52.18
619.646	52.22
619.98	52.22
620.314	52.29
620.648	52.29
620.983	52.28
621.317	52.36
621.651	52.4
621.985	52.37
622.319	52.34
622.653	52.28
622.987	52.3
623.321	52.28
623.655	52.26
623.988	52.36
624.322	52.41
624.656	52.37
624.99	52.39
625.323	52.45
625.657	52.45
625.99	52.39
626.324	52.43
626.657	52.48
626.991	52.48
627.324	52.54
627.658	52.62
627.991	52.63
628.324	52.58
628.657	52.61
628.991	52.73
629.324	52.75
629.657	52.76
629.99	52.81
630.323	52.89
630.656	53.02
630.989	53.01
631.322	53.04
631.655	53.08
631.987	53.05
632.32	53.13
632.653	53.18
632.986	53.15
633.318	53.15
633.651	53.19
633.984	53.29
634.316	53.26
634.649	53.24
634.981	53.31
635.313	53.4
635.646	53.43
635.978	53.36
636.31	53.4
636.643	53.45
636.975	53.44
637.307	53.47
637.639	53.44
637.971	53.53
638.303	53.53
638.635	53.56
638.967	53.61
639.299	53.5
639.631	53.53
639.963	53.71
640.295	53.67
640.626	53.64
640.958	53.61
641.29	53.68
641.621	53.69
641.953	53.61
642.285	53.61
642.616	53.56
642.948	53.53
643.279	53.57
643.61	53.75
643.942	53.84
644.273	53.79
644.604	53.8
644.936	53.69
645.267	53.72
645.598	53.74
645.929	53.73
646.26	53.69
646.591	53.76
646.922	53.81
647.253	53.88
647.584	53.96
647.915	54.02
648.245	54.06
648.576	54.09
648.907	54.19
649.238	54.24
649.568	54.33
649.899	54.4
650.229	54.41
650.56	54.34
650.89	54.34
651.221	54.34
651.551	54.42
651.882	54.5
652.212	54.58
652.542	54.54
652.872	54.51
653.203	54.75
653.533	54.73
653.863	54.77
654.193	54.77
654.523	54.76
654.853	54.68
655.183	54.69
655.513	54.74
655.843	54.69
656.172	54.68
656.502	54.58
656.832	54.58
657.162	54.68
657.491	54.62
657.821	54.65
658.15	54.73
658.48	54.77
658.809	54.77
659.139	54.77
659.468	54.78
659.798	54.86
660.127	54.83
660.456	54.81
660.785	54.73
661.115	54.67
661.444	54.67
661.773	54.7
662.102	54.74
662.431	54.75
662.76	54.73
663.089	54.81
663.418	54.9
663.747	54.86
664.076	54.81
664.404	54.94
664.733	54.93
665.062	54.92
665.39	54.81
665.719	54.85
