Data from BU26941_Reflection_00010.txt Node
Date: Tue Nov 19 11:03:40 EST 2019
User: vgr7
Spectrometer: USB2G7710
Scans to average: 3
Trigger mode: 4
Integration Time (sec): 2.000000E-2
Electric dark correction enabled: true
Boxcar width: 10
XAxis mode: Wavelengths
Number of Pixels in Spectrum: 2048
>>>>>Begin Spectral Data<<<<<
177.721	131.08
178.105	130.46
178.488	136.59
178.871	144.59
179.254	114.75
179.636	133.76
180.019	56.92
180.402	820
180.785	-7.55
181.168	5350
181.55	-166.5
181.933	-681.69
182.316	607.52
182.698	360.33
183.081	383.78
183.463	-88.62
183.846	-89.08
184.228	681.63
184.611	-93.38
184.993	-83.58
185.376	39.31
185.758	66.83
186.14	88.61
186.522	64.9
186.904	61.65
187.287	23.8
187.669	3.48
188.051	-67.98
188.433	-188.3
188.815	-88.47
189.197	-26.13
189.579	-4.97
189.961	-6.23
190.342	89.98
190.724	-84.07
191.106	-25.34
191.488	-50.39
191.869	-50.26
192.251	-26.57
192.633	-23.34
193.014	-23.23
193.396	-142.21
193.777	-125.16
194.159	-181.9
194.54	-163.21
194.922	-395.22
195.303	-427.03
195.684	-345.39
196.065	-273.82
196.447	-93.47
196.828	-98.03
197.209	-191.76
197.59	-106.54
197.971	-89.46
198.352	-103.14
198.733	-83.83
199.114	-128.76
199.495	-128.67
199.876	-152.12
200.257	-141.6
200.638	-148.59
201.018	-123.82
201.399	-115.8
201.78	-75.13
202.16	-60.07
202.541	-81.6
202.922	-50.14
203.302	-25.11
203.683	-18.72
204.063	-43.22
204.444	-37.91
204.824	-58.27
205.204	-32.15
205.585	-30.8
205.965	-59.57
206.345	-115.95
206.725	30.29
207.106	15.78
207.486	29.57
207.866	76.61
208.246	85.27
208.626	46.09
209.006	133.67
209.386	151.93
209.766	338.78
210.145	198.06
210.525	229.85
210.905	85.09
211.285	103.92
211.664	194.03
212.044	164.15
212.424	139.38
212.803	135.81
213.183	109.89
213.562	158.21
213.942	96.02
214.321	180.74
214.701	264.23
215.08	858.43
215.459	288.1
215.838	368.06
216.218	402.96
216.597	993.26
216.976	-520.3
217.355	-94400
217.734	222.01
218.113	619.8
218.492	1234.15
218.871	216.33
219.25	167.94
219.629	96.66
220.008	150.15
220.387	135.78
220.766	92.08
221.144	93.99
221.523	43.54
221.902	61.95
222.28	35.93
222.659	46.75
223.037	43.48
223.416	48.34
223.794	49.39
224.173	46.61
224.551	39.39
224.929	25.88
225.308	11.76
225.686	13.9
226.064	8.52
226.442	6.48
226.821	8.01
227.199	5
227.577	-3.07
227.955	2.11
228.333	-0.67
228.711	1.46
229.089	2.74
229.467	3.68
229.845	0.8
230.222	2.93
230.6	5.49
230.978	4.01
231.356	3.43
231.733	-0.15
232.111	-1.13
232.488	1.03
232.866	1.96
233.243	4.18
233.621	5.44
233.998	5.49
234.376	7.01
234.753	6.92
235.13	6.82
235.508	10.23
235.885	7.86
236.262	7.42
236.639	6.19
237.016	5.92
237.393	6.16
237.77	6.87
238.147	6.34
238.524	5.49
238.901	4.76
239.278	4.27
239.655	3.64
240.032	3.67
240.409	3.97
240.785	3.57
241.162	3.5
241.539	3.02
241.915	2.8
242.292	3.41
242.668	3.64
243.045	3.92
243.421	4
243.798	4.33
244.174	4.55
244.551	4.24
244.927	4.04
245.303	3.81
245.679	3.47
246.056	3.47
246.432	3.35
246.808	3.57
247.184	3.8
247.56	3.94
247.936	4.22
248.312	4.04
248.688	4.27
249.064	4.03
249.44	3.95
249.815	4.1
250.191	3.78
250.567	3.67
250.943	3.78
251.318	3.64
251.694	3.63
252.069	3.57
252.445	3.78
252.82	4.23
253.196	4.45
253.571	4.79
253.947	4.86
254.322	4.98
254.697	4.75
255.073	4.41
255.448	4.13
255.823	3.79
256.198	3.68
256.573	3.7
256.948	3.97
257.323	4.17
257.698	4.17
258.073	4.22
258.448	4.09
258.823	4
259.198	4.17
259.573	3.93
259.948	3.88
260.322	3.87
260.697	3.66
261.072	3.67
261.446	3.55
261.821	3.56
262.195	3.42
262.57	3.56
262.944	3.6
263.319	3.66
263.693	3.6
264.067	3.58
264.442	3.5
264.816	3.2
265.19	3.01
265.564	2.91
265.938	2.67
266.313	2.42
266.687	2.28
267.061	2.14
267.435	2.24
267.809	2.37
268.183	2.1
268.556	2.2
268.93	2.21
269.304	2.22
269.678	2.34
270.051	2.43
270.425	2.36
270.799	2.25
271.172	2.33
271.546	2.57
271.919	2.64
272.293	2.71
272.666	2.9
273.04	2.9
273.413	3.01
273.787	2.97
274.16	3.02
274.533	3.15
274.906	3.13
275.279	3.25
275.653	3.14
276.026	3.22
276.399	3.29
276.772	3.3
277.145	3.36
277.518	3.21
277.891	3.35
278.263	3.49
278.636	3.71
279.009	3.66
279.382	3.46
279.755	3.36
280.127	3.16
280.5	3.12
280.872	3.15
281.245	3
281.617	3.13
281.99	3.28
282.362	3.27
282.735	3.14
283.107	3
283.479	3
283.852	3.02
284.224	2.93
284.596	2.86
284.968	2.82
285.34	2.82
285.713	2.77
286.085	2.59
286.457	2.59
286.829	2.64
287.201	2.61
287.572	2.74
287.944	2.87
288.316	2.91
288.688	3.05
289.06	3.26
289.431	3.31
289.803	3.36
290.175	3.28
290.546	3.28
290.918	3.3
291.289	3.13
291.661	3.14
292.032	3.14
292.403	3.14
292.775	3.28
293.146	3.39
293.517	3.37
293.889	3.49
294.26	3.51
294.631	3.44
295.002	3.42
295.373	3.39
295.744	3.31
296.115	3.4
296.486	3.37
296.857	3.25
297.228	3.17
297.599	3.14
297.97	3.21
298.34	3.31
298.711	3.47
299.082	3.58
299.452	3.6
299.823	3.67
300.194	3.77
300.564	3.6
300.935	3.61
301.305	3.71
301.676	3.6
302.046	3.61
302.416	3.61
302.787	3.78
303.157	3.86
303.527	3.94
303.897	3.82
304.267	3.83
304.637	3.8
305.008	4.06
305.378	4.15
305.748	4.15
306.117	3.97
306.487	4.05
306.857	4.27
307.227	4.34
307.597	4.31
307.967	4.41
308.336	4.47
308.706	4.36
309.076	4.42
309.445	4.59
309.815	4.58
310.184	4.7
310.554	4.77
310.923	4.69
311.293	4.69
311.662	4.76
312.031	4.76
312.401	4.69
312.77	4.6
313.139	4.59
313.508	4.61
313.877	4.8
314.246	4.75
314.616	4.76
314.985	4.88
315.353	4.86
315.722	4.9
316.091	5.06
316.46	5.27
316.829	5.23
317.198	5.31
317.567	5.4
317.935	5.47
318.304	5.6
318.672	5.7
319.041	5.84
319.41	5.9
319.778	6.03
320.147	6.25
320.515	6.31
320.883	6.21
321.252	6.29
321.62	6.4
321.988	6.35
322.357	6.22
322.725	6.2
323.093	6.29
323.461	6.35
323.829	6.34
324.197	6.35
324.565	6.38
324.933	6.34
325.301	6.27
325.669	6.36
326.037	6.21
326.405	6.27
326.772	6.2
327.14	6.29
327.508	6.27
327.875	6.21
328.243	6.15
328.61	6.32
328.978	6.42
329.346	6.42
329.713	6.5
330.08	6.67
330.448	6.69
330.815	6.69
331.182	6.59
331.55	6.61
331.917	6.58
332.284	6.64
332.651	6.65
333.018	6.76
333.385	6.61
333.752	6.67
334.119	6.73
334.486	6.85
334.853	6.71
335.22	6.86
335.587	6.92
335.954	7.04
336.32	7.02
336.687	7.02
337.054	7.01
337.42	7.01
337.787	7
338.153	7.03
338.52	7.02
338.886	6.94
339.253	6.99
339.619	7.03
339.986	7.06
340.352	7.08
340.718	7.16
341.084	7.37
341.451	7.49
341.817	7.45
342.183	7.34
342.549	7.56
342.915	7.58
343.281	7.65
343.647	7.58
344.013	7.65
344.379	7.51
344.745	7.56
345.11	7.49
345.476	7.48
345.842	7.48
346.208	7.51
346.573	7.64
346.939	7.65
347.304	7.67
347.67	7.6
348.035	7.52
348.401	7.4
348.766	7.32
349.132	7.27
349.497	7.28
349.862	7.28
350.228	7.26
350.593	7.06
350.958	7.04
351.323	7.07
351.688	7.06
352.053	7.15
352.418	7.18
352.783	7.27
353.148	7.31
353.513	7.27
353.878	7.34
354.243	7.21
354.608	7.21
354.972	7.12
355.337	7.18
355.702	7.26
356.066	7.26
356.431	7.27
356.795	7.26
357.16	7.24
357.524	7.29
357.889	7.21
358.253	7.26
358.618	7.22
358.982	7.21
359.346	7.19
359.71	7.14
360.075	7.1
360.439	7.05
360.803	7
361.167	6.95
361.531	6.93
361.895	7.01
362.259	6.97
362.623	6.99
362.987	6.93
363.351	6.84
363.714	6.84
364.078	6.77
364.442	6.63
364.806	6.63
365.169	6.62
365.533	6.57
365.896	6.55
366.26	6.47
366.623	6.43
366.987	6.41
367.35	6.38
367.714	6.33
368.077	6.31
368.44	6.29
368.803	6.29
369.167	6.19
369.53	6.15
369.893	6.11
370.256	6.07
370.619	6.02
370.982	5.99
371.345	5.94
371.708	5.9
372.071	5.92
372.434	5.82
372.797	5.76
373.159	5.73
373.522	5.71
373.885	5.77
374.247	5.71
374.61	5.63
374.973	5.61
375.335	5.56
375.698	5.48
376.06	5.43
376.423	5.42
376.785	5.38
377.147	5.33
377.51	5.26
377.872	5.21
378.234	5.17
378.596	5.13
378.958	5.13
379.321	5.14
379.683	5.11
380.045	5.11
380.407	5.05
380.769	4.97
381.13	4.93
381.492	4.82
381.854	4.78
382.216	4.76
382.578	4.74
382.939	4.71
383.301	4.67
383.663	4.62
384.024	4.57
384.386	4.56
384.747	4.51
385.109	4.5
385.47	4.45
385.832	4.46
386.193	4.44
386.554	4.36
386.916	4.36
387.277	4.34
387.638	4.29
387.999	4.29
388.36	4.27
388.721	4.22
389.082	4.23
389.443	4.22
389.804	4.21
390.165	4.15
390.526	4.1
390.887	4.11
391.248	4.07
391.609	4.04
391.969	4.01
392.33	3.97
392.691	3.95
393.051	3.94
393.412	3.91
393.772	3.91
394.133	3.89
394.493	3.84
394.854	3.79
395.214	3.78
395.574	3.77
395.935	3.76
396.295	3.76
396.655	3.7
397.015	3.67
397.376	3.65
397.736	3.63
398.096	3.62
398.456	3.58
398.816	3.57
399.176	3.51
399.535	3.48
399.895	3.51
400.255	3.48
400.615	3.46
400.975	3.45
401.334	3.43
401.694	3.43
402.054	3.42
402.413	3.45
402.773	3.42
403.132	3.37
403.492	3.35
403.851	3.3
404.211	3.33
404.57	3.32
404.929	3.3
405.288	3.27
405.648	3.24
406.007	3.22
406.366	3.2
406.725	3.21
407.084	3.25
407.443	3.23
407.802	3.21
408.161	3.22
408.52	3.2
408.879	3.18
409.238	3.17
409.596	3.15
409.955	3.12
410.314	3.13
410.673	3.15
411.031	3.17
411.39	3.17
411.748	3.16
412.107	3.15
412.465	3.12
412.824	3.14
413.182	3.16
413.54	3.17
413.899	3.18
414.257	3.17
414.615	3.12
414.974	3.1
415.332	3.11
415.69	3.08
416.048	3.06
416.406	3.04
416.764	3.02
417.122	2.99
417.48	2.97
417.838	2.96
418.195	2.95
418.553	2.92
418.911	2.91
419.269	2.9
419.626	2.88
419.984	2.88
420.342	2.87
420.699	2.86
421.057	2.85
421.414	2.85
421.772	2.84
422.129	2.84
422.486	2.84
422.844	2.83
423.201	2.82
423.558	2.83
423.915	2.84
424.273	2.84
424.63	2.86
424.987	2.86
425.344	2.85
425.701	2.85
426.058	2.84
426.415	2.83
426.772	2.83
427.128	2.83
427.485	2.83
427.842	2.83
428.199	2.82
428.555	2.83
428.912	2.81
429.269	2.82
429.625	2.81
429.982	2.82
430.338	2.81
430.695	2.8
431.051	2.79
431.407	2.76
431.764	2.74
432.12	2.74
432.476	2.73
432.832	2.74
433.189	2.73
433.545	2.72
433.901	2.73
434.257	2.72
434.613	2.72
434.969	2.72
435.325	2.73
435.681	2.7
436.036	2.7
436.392	2.71
436.748	2.71
437.104	2.71
437.459	2.71
437.815	2.72
438.171	2.72
438.526	2.73
438.882	2.73
439.237	2.74
439.593	2.75
439.948	2.75
440.304	2.75
440.659	2.77
441.014	2.76
441.369	2.77
441.725	2.76
442.08	2.76
442.435	2.75
442.79	2.74
443.145	2.75
443.5	2.75
443.855	2.74
444.21	2.72
444.565	2.73
444.92	2.71
445.275	2.71
445.629	2.7
445.984	2.68
446.339	2.7
446.693	2.69
447.048	2.67
447.403	2.67
447.757	2.65
448.112	2.64
448.466	2.63
448.82	2.62
449.175	2.62
449.529	2.62
449.883	2.61
450.238	2.62
450.592	2.61
450.946	2.59
451.3	2.6
451.654	2.59
452.008	2.58
452.362	2.58
452.716	2.57
453.07	2.58
453.424	2.57
453.778	2.55
454.132	2.55
454.486	2.57
454.839	2.57
455.193	2.58
455.547	2.58
455.9	2.6
456.254	2.61
456.607	2.6
456.961	2.61
457.314	2.62
457.668	2.63
458.021	2.64
458.375	2.66
458.728	2.64
459.081	2.65
459.434	2.67
459.787	2.67
460.141	2.67
460.494	2.67
460.847	2.69
461.2	2.7
461.553	2.7
461.906	2.71
462.259	2.71
462.611	2.72
462.964	2.71
463.317	2.72
463.67	2.72
464.022	2.73
464.375	2.73
464.728	2.73
465.08	2.72
465.433	2.72
465.785	2.74
466.138	2.75
466.49	2.77
466.843	2.78
467.195	2.79
467.547	2.8
467.899	2.81
468.252	2.81
468.604	2.8
468.956	2.81
469.308	2.79
469.66	2.78
470.012	2.79
470.364	2.82
470.716	2.82
471.068	2.84
471.42	2.85
471.772	2.87
472.123	2.87
472.475	2.88
472.827	2.9
473.178	2.9
473.53	2.9
473.882	2.88
474.233	2.86
474.585	2.86
474.936	2.84
475.288	2.84
475.639	2.86
475.99	2.87
476.342	2.88
476.693	2.88
477.044	2.88
477.395	2.87
477.746	2.85
478.097	2.85
478.448	2.83
478.8	2.82
479.15	2.8
479.501	2.79
479.852	2.79
480.203	2.79
480.554	2.78
480.905	2.78
481.255	2.78
481.606	2.79
481.957	2.79
482.307	2.79
482.658	2.8
483.009	2.79
483.359	2.78
483.709	2.77
484.06	2.78
484.41	2.78
484.761	2.79
485.111	2.79
485.461	2.8
485.811	2.79
486.162	2.8
486.512	2.81
486.862	2.81
487.212	2.81
487.562	2.81
487.912	2.81
488.262	2.82
488.612	2.82
488.961	2.82
489.311	2.84
489.661	2.84
490.011	2.84
490.36	2.85
490.71	2.87
491.06	2.87
491.409	2.88
491.759	2.88
492.108	2.88
492.458	2.89
492.807	2.89
493.157	2.91
493.506	2.92
493.855	2.94
494.204	2.94
494.554	2.95
494.903	2.97
495.252	2.98
495.601	2.99
495.95	3.02
496.299	3.04
496.648	3.06
496.997	3.09
497.346	3.13
497.695	3.15
498.043	3.17
498.392	3.2
498.741	3.23
499.09	3.28
499.438	3.31
499.787	3.33
500.135	3.38
500.484	3.4
500.832	3.44
501.181	3.49
501.529	3.56
501.878	3.61
502.226	3.68
502.574	3.72
502.923	3.77
503.271	3.84
503.619	3.89
503.967	3.93
504.315	3.98
504.663	4.03
505.011	4.1
505.359	4.14
505.707	4.24
506.055	4.3
506.403	4.37
506.751	4.45
507.098	4.57
507.446	4.64
507.794	4.73
508.141	4.81
508.489	4.94
508.837	5.01
509.184	5.11
509.531	5.18
509.879	5.29
510.226	5.39
510.574	5.47
510.921	5.57
511.268	5.68
511.616	5.81
511.963	5.92
512.31	6.03
512.657	6.17
513.004	6.27
513.351	6.41
513.698	6.54
514.045	6.7
514.392	6.82
514.739	6.96
515.086	7.11
515.432	7.26
515.779	7.37
516.126	7.53
516.473	7.67
516.819	7.83
517.166	7.97
517.512	8.11
517.859	8.23
518.205	8.35
518.552	8.49
518.898	8.61
519.245	8.73
519.591	8.87
519.937	9.01
520.283	9.15
520.629	9.29
520.976	9.43
521.322	9.58
521.668	9.77
522.014	9.95
522.36	10.11
522.706	10.28
523.052	10.51
523.398	10.71
523.743	10.91
524.089	11.12
524.435	11.33
524.781	11.55
525.126	11.74
525.472	11.94
525.817	12.1
526.163	12.26
526.509	12.41
526.854	12.58
527.199	12.71
527.545	12.87
527.89	13.03
528.235	13.18
528.581	13.33
528.926	13.46
529.271	13.61
529.616	13.76
529.961	13.91
530.306	14.05
530.651	14.21
530.996	14.38
531.341	14.56
531.686	14.76
532.031	14.93
532.376	15.13
532.721	15.34
533.065	15.56
533.41	15.77
533.755	16.01
534.099	16.22
534.444	16.45
534.788	16.66
535.133	16.86
535.477	17.08
535.822	17.31
536.166	17.59
536.51	17.86
536.855	18.15
537.199	18.44
537.543	18.76
537.887	19.09
538.231	19.41
538.576	19.75
538.92	20.03
539.264	20.33
539.608	20.61
539.951	20.84
540.295	21.06
540.639	21.32
540.983	21.56
541.327	21.82
541.671	22.07
542.014	22.31
542.358	22.57
542.701	22.79
543.045	23.03
543.389	23.27
543.732	23.49
544.075	23.71
544.419	23.98
544.762	24.24
545.105	24.49
545.449	24.74
545.792	24.99
546.135	25.28
546.478	25.57
546.821	25.88
547.165	26.23
547.508	26.58
547.851	26.9
548.194	27.2
548.536	27.5
548.879	27.77
549.222	28.05
549.565	28.37
549.908	28.66
550.25	28.96
550.593	29.25
550.936	29.53
551.278	29.88
551.621	30.16
551.963	30.42
552.306	30.72
552.648	31.01
552.991	31.29
553.333	31.59
553.675	31.89
554.017	32.14
554.36	32.38
554.702	32.6
555.044	32.83
555.386	33.08
555.728	33.29
556.07	33.51
556.412	33.77
556.754	34
557.096	34.28
557.438	34.55
557.78	34.76
558.121	35.05
558.463	35.31
558.805	35.55
559.147	35.85
559.488	36.05
559.83	36.25
560.171	36.51
560.513	36.72
560.854	36.91
561.196	37.22
561.537	37.45
561.878	37.67
562.22	37.86
562.561	38.07
562.902	38.32
563.243	38.57
563.584	38.76
563.925	39
564.266	39.15
564.607	39.26
564.948	39.44
565.289	39.64
565.63	39.81
565.971	40.01
566.312	40.13
566.653	40.35
566.993	40.49
567.334	40.59
567.675	40.78
568.015	40.92
568.356	41.04
568.696	41.19
569.037	41.35
569.377	41.51
569.718	41.68
570.058	41.8
570.398	41.96
570.739	42.11
571.079	42.19
571.419	42.37
571.759	42.53
572.099	42.64
572.439	42.69
572.779	42.78
573.119	42.87
573.459	42.97
573.799	43.11
574.139	43.31
574.479	43.46
574.819	43.59
575.158	43.71
575.498	43.79
575.838	43.88
576.177	44.02
576.517	44.15
576.856	44.24
577.196	44.33
577.535	44.4
577.875	44.56
578.214	44.71
578.553	44.84
578.893	44.99
579.232	45.15
579.571	45.32
579.91	45.48
580.25	45.6
580.589	45.7
580.928	45.74
581.267	45.8
581.606	45.87
581.945	45.9
582.283	45.97
582.622	46.13
582.961	46.24
583.3	46.3
583.639	46.37
583.977	46.45
584.316	46.61
584.654	46.72
584.993	46.71
585.332	46.74
585.67	46.81
586.008	46.9
586.347	46.92
586.685	47.04
587.024	47.11
587.362	47.18
587.7	47.29
588.038	47.38
588.376	47.46
588.715	47.54
589.053	47.62
589.391	47.74
589.729	47.82
590.067	47.9
590.404	47.98
590.742	48.09
591.08	48.18
591.418	48.27
591.756	48.32
592.093	48.4
592.431	48.56
592.769	48.6
593.106	48.69
593.444	48.87
593.781	48.97
594.119	49.09
594.456	49.17
594.793	49.22
595.131	49.34
595.468	49.42
595.805	49.48
596.143	49.59
596.48	49.64
596.817	49.67
597.154	49.68
597.491	49.73
597.828	49.75
598.165	49.75
598.502	49.77
598.839	49.9
599.176	50.03
599.512	50.04
599.849	50.14
600.186	50.16
600.523	50.14
600.859	50.11
601.196	50.12
601.532	50.14
601.869	50.18
602.205	50.17
602.542	50.22
602.878	50.27
603.215	50.28
603.551	50.31
603.887	50.4
604.223	50.5
604.56	50.58
604.896	50.66
605.232	50.77
605.568	50.82
605.904	50.88
606.24	50.92
606.576	50.99
606.912	51.01
607.248	51.07
607.583	51.13
607.919	51.19
608.255	51.24
608.591	51.31
608.926	51.42
609.262	51.47
609.597	51.53
609.933	51.55
610.268	51.59
610.604	51.68
610.939	51.68
611.275	51.67
611.61	51.68
611.945	51.69
612.281	51.75
612.616	51.84
612.951	51.85
613.286	51.9
613.621	51.94
613.956	51.9
614.291	51.92
614.626	51.94
614.961	51.98
615.296	52.05
615.631	52.1
615.966	52.14
616.3	52.17
616.635	52.11
616.97	52.22
617.304	52.26
617.639	52.25
617.973	52.33
618.308	52.4
618.642	52.45
618.977	52.46
619.311	52.54
619.646	52.45
619.98	52.48
620.314	52.45
620.648	52.52
620.983	52.63
621.317	52.73
621.651	52.78
621.985	52.84
622.319	52.79
622.653	52.82
622.987	52.9
623.321	52.95
623.655	53.06
623.988	53.18
624.322	53.22
624.656	53.29
624.99	53.29
625.323	53.26
625.657	53.23
625.99	53.34
626.324	53.29
626.657	53.32
626.991	53.34
627.324	53.36
627.658	53.27
627.991	53.29
628.324	53.18
628.657	53.24
628.991	53.26
629.324	53.34
629.657	53.41
629.99	53.35
630.323	53.39
630.656	53.28
630.989	53.15
631.322	53.14
631.655	53.11
631.987	53.11
632.32	53.21
632.653	53.28
632.986	53.19
633.318	53.19
633.651	53.23
633.984	53.22
634.316	53.29
634.649	53.38
634.981	53.37
635.313	53.56
635.646	53.54
635.978	53.6
636.31	53.59
636.643	53.54
636.975	53.64
637.307	53.65
637.639	53.81
637.971	53.81
638.303	53.89
638.635	53.88
638.967	53.91
639.299	53.9
639.631	53.91
639.963	54
640.295	54.15
640.626	54.22
640.958	54.24
641.29	54.32
641.621	54.3
641.953	54.36
642.285	54.26
642.616	54.35
642.948	54.3
643.279	54.4
643.61	54.49
643.942	54.39
644.273	54.37
644.604	54.37
644.936	54.58
645.267	54.58
645.598	54.65
645.929	54.71
646.26	54.8
646.591	54.83
646.922	54.86
647.253	54.77
647.584	54.8
647.915	54.86
648.245	54.69
648.576	54.83
648.907	54.82
649.238	54.87
649.568	55.01
649.899	55.09
650.229	55.11
650.56	55.03
650.89	55.05
651.221	55.17
651.551	55.2
651.882	55.14
652.212	55.14
652.542	55.16
652.872	55.14
653.203	55.2
653.533	55.14
653.863	55.17
654.193	55.11
654.523	55.1
654.853	55.13
655.183	55.35
655.513	55.42
655.843	55.49
656.172	55.57
656.502	55.4
656.832	55.33
657.162	55.35
657.491	55.51
657.821	55.63
658.15	55.58
658.48	55.59
658.809	55.6
659.139	55.58
659.468	55.53
659.798	55.55
660.127	55.39
660.456	55.42
660.785	55.35
661.115	55.39
661.444	55.41
661.773	55.29
662.102	55.19
662.431	55.01
662.76	55.05
663.089	55.06
663.418	55.09
663.747	55.17
664.076	55.19
664.404	55.06
664.733	55.01
665.062	55.08
665.39	54.95
665.719	54.95
666.048	55.03
666.376	55.18
666.705	55.17
667.033	55.41
667.362	55.56
667.69	55.6
