Data from BU26932_Reflection_00004.txt Node
Date: Tue Nov 19 10:44:22 EST 2019
User: vgr7
Spectrometer: USB2G7710
Scans to average: 3
Trigger mode: 4
Integration Time (sec): 2.000000E-2
Electric dark correction enabled: true
Boxcar width: 10
XAxis mode: Wavelengths
Number of Pixels in Spectrum: 2048
>>>>>Begin Spectral Data<<<<<
177.721	54
178.105	-31.02
178.488	-25.37
178.871	-12.9
179.254	-1300
179.636	-263.64
180.019	474.23
180.402	457.14
180.785	1372.73
181.168	-24.17
181.55	104.61
181.933	362.3
182.316	146.08
182.698	89.34
183.081	32.94
183.463	60.14
183.846	26.16
184.228	-1.92
184.611	16.32
184.993	-1.44
185.376	8.81
185.758	2.23
186.14	-20.34
186.522	-14.72
186.904	-14.78
187.287	-16.96
187.669	-18.23
188.051	-2.24
188.433	-12.95
188.815	-18.08
189.197	-8.36
189.579	-13.5
189.961	-14.91
190.342	-8.67
190.724	-10.1
191.106	-9.38
191.488	-13.63
191.869	-7.13
192.251	-1.39
192.633	-1.47
193.014	6.04
193.396	5.1
193.777	6.6
194.159	15.61
194.54	8.22
194.922	-3.81
195.303	5.8
195.684	2.28
196.065	-8.33
196.447	-12.42
196.828	-29.12
197.209	-15
197.59	-26.55
197.971	-16.01
198.352	-24.55
198.733	-23.93
199.114	-29.82
199.495	-33.9
199.876	-37.83
200.257	-47.01
200.638	-46.93
201.018	-49.56
201.399	-46.61
201.78	-28.79
202.16	-67.24
202.541	-47.47
202.922	-5.55
203.302	-9.29
203.683	-23.12
204.063	-37.75
204.444	-15.98
204.824	-6.49
205.204	-9.67
205.585	-5.74
205.965	-20.61
206.345	-22.42
206.725	-25.78
207.106	-9.97
207.486	-6.35
207.866	-10.49
208.246	-11.07
208.626	-36.1
209.006	-37.66
209.386	-33.28
209.766	-36.46
210.145	-25.43
210.525	-36.02
210.905	-40.07
211.285	-46.87
211.664	-26.92
212.044	-16.99
212.424	-25.67
212.803	-36.35
213.183	-39.42
213.562	-40.58
213.942	-26.86
214.321	-36.14
214.701	-38.05
215.08	-37.41
215.459	-28.16
215.838	-35.95
216.218	-29.23
216.597	-14.68
216.976	-14.6
217.355	-17.48
217.734	-23.05
218.113	-17.3
218.492	-16.24
218.871	-20.83
219.25	-17.68
219.629	-26.38
220.008	-17.82
220.387	-18.07
220.766	-5.44
221.144	-6.95
221.523	-2.98
221.902	2.01
222.28	5.88
222.659	14.93
223.037	2.22
223.416	-2.84
223.794	1.55
224.173	0.26
224.551	-2.24
224.929	-14.59
225.308	-14.72
225.686	-10.94
226.064	-16.08
226.442	-13.44
226.821	-8.42
227.199	-7.53
227.577	-4.2
227.955	-7.57
228.333	-7.14
228.711	-9.99
229.089	-10.61
229.467	-13.43
229.845	-16.98
230.222	-13.77
230.6	-16.2
230.978	-13.77
231.356	-12.64
231.733	-9.94
232.111	-9.89
232.488	-7.16
232.866	-4.2
233.243	-2.15
233.621	-2.05
233.998	-0.16
234.376	-1.18
234.753	-1.08
235.13	-1.05
235.508	-1.18
235.885	-0.39
236.262	-2.04
236.639	-1.34
237.016	0.25
237.393	0.56
237.77	2.13
238.147	2.01
238.524	2.13
238.901	1.72
239.278	1.11
239.655	1.23
240.032	1.78
240.409	2.09
240.785	2.59
241.162	2.12
241.539	2.43
241.915	2.7
242.292	3.22
242.668	3.48
243.045	3.9
243.421	3.82
243.798	3.78
244.174	4.06
244.551	4
244.927	3.6
245.303	3.67
245.679	3.59
246.056	3.58
246.432	3.8
246.808	4.08
247.184	4.21
247.56	3.96
247.936	3.91
248.312	3.84
248.688	3.67
249.064	3.67
249.44	3.45
249.815	3.48
250.191	3.13
250.567	2.67
250.943	2.34
251.318	2.45
251.694	2.42
252.069	2.61
252.445	2.43
252.82	2.46
253.196	2.61
253.571	2.8
253.947	2.75
254.322	2.37
254.697	2.33
255.073	2.47
255.448	2.47
255.823	2.71
256.198	2.64
256.573	2.91
256.948	2.91
257.323	3.16
257.698	3.22
258.073	3.34
258.448	3.66
258.823	3.81
259.198	3.71
259.573	3.56
259.948	3.5
260.322	3.47
260.697	3.54
261.072	3.5
261.446	3.26
261.821	3.13
262.195	3.11
262.57	3.07
262.944	3.06
263.319	3.26
263.693	2.94
264.067	2.9
264.442	2.76
264.816	2.77
265.19	2.68
265.564	2.63
265.938	2.84
266.313	2.7
266.687	2.44
267.061	2.43
267.435	2.58
267.809	2.5
268.183	2.53
268.556	2.54
268.93	2.5
269.304	2.54
269.678	2.54
270.051	2.66
270.425	2.7
270.799	2.55
271.172	2.34
271.546	2.4
271.919	2.44
272.293	2.53
272.666	2.4
273.04	2.35
273.413	2.23
273.787	2.14
274.16	2.07
274.533	2.19
274.906	2.09
275.279	2.07
275.653	2.13
276.026	2.18
276.399	2.25
276.772	2.39
277.145	2.32
277.518	2.35
277.891	2.38
278.263	2.41
278.636	2.48
279.009	2.55
279.382	2.77
279.755	2.69
280.127	2.56
280.5	2.72
280.872	2.63
281.245	2.65
281.617	2.74
281.99	2.73
282.362	2.69
282.735	2.66
283.107	2.76
283.479	2.76
283.852	2.81
284.224	2.74
284.596	2.6
284.968	2.66
285.34	2.76
285.713	2.71
286.085	2.67
286.457	2.74
286.829	2.85
287.201	2.87
287.572	2.96
287.944	2.97
288.316	2.99
288.688	3.17
289.06	3.18
289.431	3.11
289.803	3.22
290.175	3.11
290.546	3.23
290.918	3.12
291.289	3.03
291.661	2.97
292.032	2.95
292.403	2.93
292.775	3.07
293.146	3.1
293.517	3.1
293.889	3.09
294.26	3.1
294.631	3.07
295.002	3.1
295.373	3.03
295.744	2.99
296.115	3.01
296.486	2.93
296.857	3
297.228	2.97
297.599	2.85
297.97	3.07
298.34	3.06
298.711	3.19
299.082	3.15
299.452	3.23
299.823	3.24
300.194	3.39
300.564	3.33
300.935	3.32
301.305	3.29
301.676	3.29
302.046	3.18
302.416	3.08
302.787	3
303.157	3.17
303.527	3.27
303.897	3.08
304.267	3.2
304.637	3.09
305.008	3.1
305.378	3.3
305.748	3.12
306.117	3.08
306.487	2.94
306.857	3.02
307.227	3
307.597	2.97
307.967	2.73
308.336	2.54
308.706	2.53
309.076	2.7
309.445	2.75
309.815	2.91
310.184	2.83
310.554	2.8
310.923	2.7
311.293	2.74
311.662	3
312.031	2.9
312.401	2.89
312.77	2.86
313.139	2.8
313.508	2.86
313.877	2.76
314.246	2.8
314.616	2.81
314.985	2.81
315.353	2.85
315.722	3.13
316.091	3.34
316.46	3.42
316.829	3.27
317.198	3.27
317.567	3.21
317.935	3.39
318.304	3.46
318.672	3.56
319.041	3.47
319.41	3.15
319.778	3.29
320.147	3.33
320.515	3.4
320.883	3.27
321.252	3.31
321.62	3.55
321.988	3.5
322.357	3.59
322.725	3.49
323.093	3.37
323.461	3.14
323.829	3.06
324.197	3.01
324.565	3.11
324.933	3.1
325.301	2.99
325.669	2.91
326.037	2.93
326.405	2.92
326.772	2.97
327.14	3
327.508	2.88
327.875	2.83
328.243	2.81
328.61	2.76
328.978	2.69
329.346	2.6
329.713	2.61
330.08	2.61
330.448	2.63
330.815	2.87
331.182	2.94
331.55	2.93
331.917	2.87
332.284	2.87
332.651	3.01
333.018	3.02
333.385	3.1
333.752	3.02
334.119	2.93
334.486	2.91
334.853	3
335.22	3.06
335.587	2.99
335.954	2.99
336.32	3.11
336.687	3.19
337.054	3.28
337.42	3.3
337.787	3.22
338.153	3.3
338.52	3.23
338.886	3.3
339.253	3.32
339.619	3.35
339.986	3.12
340.352	3.06
340.718	3.13
341.084	3.1
341.451	3.09
341.817	3.12
342.183	2.99
342.549	2.97
342.915	2.89
343.281	3.04
343.647	2.99
344.013	3.01
344.379	2.94
344.745	2.91
345.11	2.87
345.476	2.89
345.842	2.83
346.208	2.75
346.573	2.73
346.939	2.75
347.304	2.78
347.67	2.84
348.035	2.75
348.401	2.76
348.766	2.78
349.132	2.9
349.497	2.78
349.862	2.83
350.228	2.84
350.593	2.9
350.958	2.94
351.323	2.96
351.688	3.05
352.053	3.07
352.418	3.13
352.783	3.14
353.148	3.08
353.513	3.04
353.878	3.11
354.243	3.09
354.608	3.11
354.972	3.14
355.337	3.16
355.702	3.23
356.066	3.2
356.431	3.17
356.795	3.04
357.16	3.13
357.524	3.16
357.889	3.15
358.253	3.16
358.618	3.05
358.982	3.01
359.346	2.96
359.71	2.91
360.075	2.86
360.439	2.86
360.803	2.93
361.167	2.92
361.531	2.91
361.895	2.88
362.259	2.87
362.623	2.77
362.987	2.72
363.351	2.67
363.714	2.69
364.078	2.71
364.442	2.73
364.806	2.77
365.169	2.77
365.533	2.78
365.896	2.8
366.26	2.82
366.623	2.8
366.987	2.79
367.35	2.85
367.714	2.83
368.077	2.85
368.44	2.8
368.803	2.77
369.167	2.73
369.53	2.75
369.893	2.75
370.256	2.83
370.619	2.87
370.982	2.9
371.345	2.93
371.708	2.94
372.071	2.9
372.434	2.89
372.797	2.86
373.159	2.79
373.522	2.8
373.885	2.83
374.247	2.84
374.61	2.85
374.973	2.84
375.335	2.91
375.698	2.87
376.06	2.83
376.423	2.88
376.785	2.94
377.147	2.91
377.51	2.88
377.872	2.88
378.234	2.9
378.596	2.9
378.958	2.82
379.321	2.83
379.683	2.89
380.045	2.87
380.407	2.92
380.769	2.99
381.13	2.95
381.492	2.94
381.854	2.97
382.216	2.97
382.578	2.97
382.939	2.9
383.301	2.95
383.663	2.95
384.024	2.96
384.386	2.9
384.747	2.89
385.109	2.9
385.47	2.95
385.832	2.93
386.193	2.93
386.554	2.91
386.916	2.89
387.277	2.92
387.638	2.94
387.999	2.93
388.36	2.9
388.721	2.95
389.082	2.98
389.443	2.97
389.804	2.95
390.165	2.96
390.526	3
390.887	2.98
391.248	3
391.609	3.02
391.969	3.05
392.33	3.07
392.691	3.07
393.051	3.04
393.412	3.06
393.772	3.06
394.133	3.09
394.493	3.06
394.854	3.04
395.214	3.01
395.574	2.96
395.935	2.99
396.295	2.96
396.655	2.93
397.015	2.9
397.376	2.91
397.736	2.92
398.096	2.91
398.456	2.91
398.816	2.88
399.176	2.86
399.535	2.9
399.895	2.89
400.255	2.93
400.615	2.93
400.975	2.94
401.334	2.97
401.694	3.01
402.054	3.04
402.413	3.03
402.773	3.06
403.132	3.09
403.492	3.06
403.851	3.06
404.211	3.08
404.57	3.14
404.929	3.14
405.288	3.14
405.648	3.14
406.007	3.14
406.366	3.19
406.725	3.2
407.084	3.17
407.443	3.14
407.802	3.13
408.161	3.11
408.52	3.1
408.879	3.08
409.238	3.05
409.596	3.03
409.955	3.04
410.314	3.03
410.673	3.04
411.031	3.03
411.39	3.01
411.748	3
412.107	2.98
412.465	2.97
412.824	2.96
413.182	2.97
413.54	2.95
413.899	2.94
414.257	2.94
414.615	2.95
414.974	3
415.332	2.99
415.69	3
416.048	3
416.406	2.99
416.764	3
417.122	3
417.48	3.01
417.838	3.03
418.195	3.04
418.553	3.03
418.911	3.03
419.269	3.03
419.626	3.03
419.984	3.04
420.342	3.02
420.699	3.02
421.057	3.02
421.414	3.01
421.772	3.01
422.129	3
422.486	3
422.844	3
423.201	3
423.558	3
423.915	3.01
424.273	3.01
424.63	3.01
424.987	3.01
425.344	2.99
425.701	2.99
426.058	3.01
426.415	3.01
426.772	3.01
427.128	3.01
427.485	3
427.842	3.01
428.199	3.02
428.555	3.05
428.912	3.05
429.269	3.04
429.625	3.03
429.982	3.04
430.338	3.04
430.695	3.04
431.051	3.05
431.407	3.03
431.764	3.03
432.12	3.04
432.476	3.03
432.832	3.03
433.189	3.05
433.545	3.03
433.901	3.02
434.257	2.99
434.613	2.98
434.969	2.98
435.325	2.97
435.681	2.97
436.036	2.97
436.392	2.98
436.748	2.99
437.104	3
437.459	2.99
437.815	3.01
438.171	3.02
438.526	3.01
438.882	3.01
439.237	3
439.593	3
439.948	3
440.304	2.99
440.659	2.97
441.014	2.97
441.369	2.99
441.725	3.02
442.08	3.03
442.435	3.04
442.79	3.06
443.145	3.06
443.5	3.05
443.855	3.06
444.21	3.06
444.565	3.07
444.92	3.09
445.275	3.07
445.629	3.07
445.984	3.06
446.339	3.07
446.693	3.09
447.048	3.08
447.403	3.1
447.757	3.1
448.112	3.11
448.466	3.12
448.82	3.11
449.175	3.11
449.529	3.12
449.883	3.11
450.238	3.11
450.592	3.11
450.946	3.11
451.3	3.1
451.654	3.1
452.008	3.09
452.362	3.09
452.716	3.09
453.07	3.07
453.424	3.06
453.778	3.07
454.132	3.06
454.486	3.06
454.839	3.04
455.193	3.05
455.547	3.04
455.9	3.05
456.254	3.03
456.607	3.03
456.961	3.03
457.314	3.05
457.668	3.04
458.021	3.03
458.375	3.04
458.728	3.05
459.081	3.05
459.434	3.05
459.787	3.05
460.141	3.04
460.494	3.05
460.847	3.08
461.2	3.07
461.553	3.08
461.906	3.1
462.259	3.1
462.611	3.12
462.964	3.12
463.317	3.11
463.67	3.12
464.022	3.13
464.375	3.11
464.728	3.1
465.08	3.1
465.433	3.11
465.785	3.11
466.138	3.1
466.49	3.1
466.843	3.13
467.195	3.12
467.547	3.11
467.899	3.12
468.252	3.11
468.604	3.13
468.956	3.14
469.308	3.13
469.66	3.14
470.012	3.12
470.364	3.14
470.716	3.15
471.068	3.19
471.42	3.21
471.772	3.22
472.123	3.23
472.475	3.24
472.827	3.23
473.178	3.24
473.53	3.24
473.882	3.24
474.233	3.23
474.585	3.23
474.936	3.26
475.288	3.25
475.639	3.27
475.99	3.26
476.342	3.26
476.693	3.26
477.044	3.25
477.395	3.25
477.746	3.23
478.097	3.24
478.448	3.19
478.8	3.18
479.15	3.16
479.501	3.17
479.852	3.17
480.203	3.17
480.554	3.18
480.905	3.2
481.255	3.21
481.606	3.21
481.957	3.21
482.307	3.2
482.658	3.21
483.009	3.2
483.359	3.21
483.709	3.21
484.06	3.21
484.41	3.22
484.761	3.22
485.111	3.22
485.461	3.22
485.811	3.23
486.162	3.23
486.512	3.24
486.862	3.24
487.212	3.25
487.562	3.25
487.912	3.24
488.262	3.24
488.612	3.22
488.961	3.22
489.311	3.22
489.661	3.24
490.011	3.24
490.36	3.24
490.71	3.24
491.06	3.24
491.409	3.23
491.759	3.23
492.108	3.23
492.458	3.22
492.807	3.22
493.157	3.22
493.506	3.21
493.855	3.2
494.204	3.2
494.554	3.2
494.903	3.19
495.252	3.2
495.601	3.2
495.95	3.22
496.299	3.22
496.648	3.22
496.997	3.21
497.346	3.22
497.695	3.22
498.043	3.23
498.392	3.24
498.741	3.24
499.09	3.25
499.438	3.29
499.787	3.3
500.135	3.32
500.484	3.34
500.832	3.37
501.181	3.39
501.529	3.39
501.878	3.39
502.226	3.4
502.574	3.43
502.923	3.44
503.271	3.45
503.619	3.47
503.967	3.45
504.315	3.46
504.663	3.45
505.011	3.45
505.359	3.42
505.707	3.43
506.055	3.43
506.403	3.44
506.751	3.41
507.098	3.42
507.446	3.42
507.794	3.44
508.141	3.43
508.489	3.44
508.837	3.44
509.184	3.47
509.531	3.46
509.879	3.45
510.226	3.43
510.574	3.43
510.921	3.43
511.268	3.44
511.616	3.46
511.963	3.47
512.31	3.48
512.657	3.51
513.004	3.49
513.351	3.51
513.698	3.51
514.045	3.53
514.392	3.52
514.739	3.53
515.086	3.53
515.432	3.54
515.779	3.56
516.126	3.57
516.473	3.57
516.819	3.58
517.166	3.59
517.512	3.61
517.859	3.62
518.205	3.6
518.552	3.62
518.898	3.62
519.245	3.64
519.591	3.66
519.937	3.66
520.283	3.68
520.629	3.68
520.976	3.7
521.322	3.7
521.668	3.72
522.014	3.72
522.36	3.72
522.706	3.73
523.052	3.74
523.398	3.74
523.743	3.74
524.089	3.74
524.435	3.76
524.781	3.77
525.126	3.77
525.472	3.8
525.817	3.81
526.163	3.81
526.509	3.8
526.854	3.81
527.199	3.82
527.545	3.83
527.89	3.84
528.235	3.84
528.581	3.83
528.926	3.83
529.271	3.83
529.616	3.85
529.961	3.85
530.306	3.85
530.651	3.84
530.996	3.84
531.341	3.85
531.686	3.85
532.031	3.85
532.376	3.86
532.721	3.85
533.065	3.86
533.41	3.88
533.755	3.88
534.099	3.87
534.444	3.87
534.788	3.86
535.133	3.87
535.477	3.87
535.822	3.88
536.166	3.89
536.51	3.89
536.855	3.86
537.199	3.86
537.543	3.86
537.887	3.88
538.231	3.89
538.576	3.9
538.92	3.9
539.264	3.91
539.608	3.91
539.951	3.91
540.295	3.9
540.639	3.89
540.983	3.89
541.327	3.9
541.671	3.91
542.014	3.92
542.358	3.94
542.701	3.94
543.045	3.94
543.389	3.94
543.732	3.95
544.075	3.97
544.419	3.97
544.762	3.97
545.105	3.97
545.449	3.99
545.792	4
546.135	3.99
546.478	3.97
546.821	3.96
547.165	3.97
547.508	3.97
547.851	3.97
548.194	3.96
548.536	3.95
548.879	3.94
549.222	3.95
549.565	3.92
549.908	3.91
550.25	3.89
550.593	3.9
550.936	3.92
551.278	3.93
551.621	3.94
551.963	3.96
552.306	3.95
552.648	3.94
552.991	3.91
553.333	3.92
553.675	3.94
554.017	3.93
554.36	3.91
554.702	3.9
555.044	3.9
555.386	3.92
555.728	3.91
556.07	3.9
556.412	3.9
556.754	3.91
557.096	3.93
557.438	3.94
557.78	3.93
558.121	3.92
558.463	3.91
558.805	3.92
559.147	3.91
559.488	3.93
559.83	3.94
560.171	3.94
560.513	3.94
560.854	3.93
561.196	3.98
561.537	3.99
561.878	4.03
562.22	4.07
562.561	4.05
562.902	4.06
563.243	4.06
563.584	4.06
563.925	4.1
564.266	4.08
564.607	4.08
564.948	4.09
565.289	4.08
565.63	4.08
565.971	4.09
566.312	4.08
566.653	4.04
566.993	4.02
567.334	4.04
567.675	4.05
568.015	4.04
568.356	4.04
568.696	4.06
569.037	4.04
569.377	4.02
569.718	4.03
570.058	4.01
570.398	3.99
570.739	4
571.079	3.97
571.419	3.97
571.759	3.98
572.099	3.98
572.439	3.98
572.779	3.98
573.119	3.97
573.459	3.99
573.799	4
574.139	4
574.479	4
574.819	4.03
575.158	4.06
575.498	4.06
575.838	4.02
576.177	4.01
576.517	4.03
576.856	4.02
577.196	4.02
577.535	4.04
577.875	3.99
578.214	3.98
578.553	3.98
578.893	3.99
579.232	4
579.571	4.02
579.91	4.02
580.25	4.01
580.589	4
580.928	4
581.267	4.01
581.606	4
581.945	3.99
582.283	3.97
582.622	3.92
582.961	3.95
583.3	3.99
583.639	3.97
583.977	4
584.316	4.01
584.654	4.02
584.993	4.05
585.332	4.07
585.67	4.04
586.008	4.07
586.347	4.09
586.685	4.05
587.024	4.07
587.362	4.08
587.7	4.09
588.038	4.13
588.376	4.11
588.715	4.1
589.053	4.1
589.391	4.14
589.729	4.16
590.067	4.14
590.404	4.13
590.742	4.14
591.08	4.14
591.418	4.14
591.756	4.13
592.093	4.12
592.431	4.12
592.769	4.16
593.106	4.11
593.444	4.12
593.781	4.14
594.119	4.12
594.456	4.11
594.793	4.09
595.131	4.05
595.468	4.09
595.805	4.1
596.143	4.08
596.48	4.08
596.817	4.07
597.154	4.13
597.491	4.1
597.828	4.12
598.165	4.11
598.502	4.11
598.839	4.11
599.176	4.13
599.512	4.12
599.849	4.13
600.186	4.12
600.523	4.14
600.859	4.13
601.196	4.12
601.532	4.11
601.869	4.13
602.205	4.16
602.542	4.14
602.878	4.13
603.215	4.11
603.551	4.09
603.887	4.1
604.223	4.08
604.56	4.1
604.896	4.09
605.232	4.07
605.568	4.11
605.904	4.11
606.24	4.12
606.576	4.13
606.912	4.1
607.248	4.15
607.583	4.12
607.919	4.09
608.255	4.1
608.591	4.14
608.926	4.09
609.262	4.07
609.597	4.09
609.933	4.09
610.268	4.17
610.604	4.17
610.939	4.19
611.275	4.21
611.61	4.2
611.945	4.21
612.281	4.21
612.616	4.19
612.951	4.21
613.286	4.21
613.621	4.19
613.956	4.18
614.291	4.13
614.626	4.12
614.961	4.18
615.296	4.17
615.631	4.17
615.966	4.18
616.3	4.23
616.635	4.2
616.97	4.23
617.304	4.14
617.639	4.15
617.973	4.15
618.308	4.14
618.642	4.16
618.977	4.12
619.311	4.16
619.646	4.16
619.98	4.22
620.314	4.27
620.648	4.26
620.983	4.28
621.317	4.32
621.651	4.33
621.985	4.28
622.319	4.28
622.653	4.3
622.987	4.34
623.321	4.31
623.655	4.37
623.988	4.38
624.322	4.42
624.656	4.4
624.99	4.35
625.323	4.34
625.657	4.31
625.99	4.32
626.324	4.31
626.657	4.32
626.991	4.23
627.324	4.18
627.658	4.19
627.991	4.23
628.324	4.2
628.657	4.18
628.991	4.21
629.324	4.25
629.657	4.23
629.99	4.25
630.323	4.25
630.656	4.21
630.989	4.17
631.322	4.16
631.655	4.21
631.987	4.27
632.32	4.24
632.653	4.27
632.986	4.3
633.318	4.32
633.651	4.31
633.984	4.41
634.316	4.4
634.649	4.44
634.981	4.42
635.313	4.47
635.646	4.53
635.978	4.55
636.31	4.5
636.643	4.51
636.975	4.51
637.307	4.56
637.639	4.57
637.971	4.59
638.303	4.57
638.635	4.53
638.967	4.5
639.299	4.53
639.631	4.51
639.963	4.45
640.295	4.44
640.626	4.45
640.958	4.36
641.29	4.39
641.621	4.33
641.953	4.37
642.285	4.32
642.616	4.33
642.948	4.29
643.279	4.24
643.61	4.26
643.942	4.25
644.273	4.2
644.604	4.23
644.936	4.29
645.267	4.26
645.598	4.29
645.929	4.29
646.26	4.29
646.591	4.4
646.922	4.43
647.253	4.4
647.584	4.33
647.915	4.38
648.245	4.38
648.576	4.45
648.907	4.42
649.238	4.45
649.568	4.41
649.899	4.41
650.229	4.56
650.56	4.55
650.89	4.59
651.221	4.59
651.551	4.58
651.882	4.53
652.212	4.54
652.542	4.55
652.872	4.57
653.203	4.58
653.533	4.52
653.863	4.53
654.193	4.54
654.523	4.54
654.853	4.54
655.183	4.51
655.513	4.44
655.843	4.45
656.172	4.49
656.502	4.48
656.832	4.47
657.162	4.43
657.491	4.46
657.821	4.44
658.15	4.41
658.48	4.43
658.809	4.44
659.139	4.48
659.468	4.45
659.798	4.44
660.127	4.4
660.456	4.41
660.785	4.4
661.115	4.39
661.444	4.46
661.773	4.49
662.102	4.48
662.431	4.52
662.76	4.47
663.089	4.47
663.418	4.5
663.747	4.52
664.076	4.52
664.404	4.49
664.733	4.51
665.062	4.55
665.39	4.53
665.719	4.54
666.048	4.54
666.376	4.56
666.705	4.57
667.033	4.61
667.362	4.64
667.69	4.7
668.018	4.78
668.347	4.73
668.675	4.67
669.003	4.68
669.331	4.7
669.659	4.74
669.987	4.76
670.315	4.78
670.643	4.82
670.971	4.8
671.299	4.77
671.627	4.69
671.955	4.7
672.283	4.7
672.61	4.7
672.938	4.67
673.266	4.79
673.593	4.78
673.921	4.77
674.249	4.73
674.576	4.77
674.904	4.74
675.231	4.73
675.558	4.79
675.886	4.78
676.213	4.8
676.54	4.78
676.867	4.72
677.195	4.75
677.522	4.75
677.849	4.71
678.176	4.74
678.503	4.77
678.83	4.81
679.157	4.79
679.484	4.77
679.81	4.74
680.137	4.69
