Data from BU26848_Reflection_00008.txt Node
Date: Mon Nov 18 16:25:41 EST 2019
User: vgr7
Spectrometer: USB2G7710
Scans to average: 3
Trigger mode: 4
Integration Time (sec): 2.000000E-2
Electric dark correction enabled: true
Boxcar width: 10
XAxis mode: Wavelengths
Number of Pixels in Spectrum: 2048
>>>>>Begin Spectral Data<<<<<
177.721	196.9
178.105	163.83
178.488	19.82
178.871	-48.03
179.254	171.01
179.636	100
180.019	-11.87
180.402	208.33
180.785	-1155.81
181.168	-43.62
181.55	-804.11
181.933	58.62
182.316	61.37
182.698	27.84
183.081	25.12
183.463	30.11
183.846	19.76
184.228	38.31
184.611	-13.3
184.993	-40.44
185.376	53.31
185.758	-228.27
186.14	-678.63
186.522	324.07
186.904	292.51
187.287	448.28
187.669	-570.39
188.051	280.45
188.433	25.4
188.815	32.14
189.197	43.86
189.579	37.87
189.961	41.89
190.342	47.21
190.724	36.82
191.106	21.35
191.488	20.79
191.869	14.48
192.251	5.09
192.633	-2.42
193.014	-1.52
193.396	-27.35
193.777	2.47
194.159	-15.82
194.54	-15.35
194.922	-26.13
195.303	0.96
195.684	-5.4
196.065	-15.66
196.447	-21.36
196.828	-19.51
197.209	-61.05
197.59	-68.9
197.971	-170.2
198.352	-43.32
198.733	-85.35
199.114	-56.6
199.495	-38.6
199.876	-30.81
200.257	-17.35
200.638	-4.97
201.018	-25.27
201.399	-2.55
201.78	3.71
202.16	-3.15
202.541	-37.9
202.922	-27.78
203.302	-48.46
203.683	-84.22
204.063	-120.46
204.444	-167.82
204.824	-126.61
205.204	-58.79
205.585	-57.1
205.965	-31.02
206.345	-65.14
206.725	-74.6
207.106	-175.23
207.486	-452.46
207.866	-138.5
208.246	-270.94
208.626	-252.53
209.006	-202.16
209.386	-458.9
209.766	-449.2
210.145	-189.07
210.525	-58.01
210.905	-41.42
211.285	-21.45
211.664	-10.15
212.044	13.6
212.424	15.76
212.803	-4.62
213.183	-6.46
213.562	-5.71
213.942	-9.04
214.321	7.69
214.701	10.92
215.08	27.78
215.459	38.4
215.838	35.93
216.218	28.64
216.597	33.2
216.976	38.77
217.355	37.95
217.734	33.74
218.113	35.91
218.492	37.38
218.871	34.14
219.25	41.17
219.629	35.81
220.008	30.44
220.387	21.98
220.766	27.3
221.144	10.68
221.523	2.54
221.902	-5.42
222.28	-16.67
222.659	-17.8
223.037	-21.55
223.416	-33.9
223.794	-26.37
224.173	-18.59
224.551	-18.95
224.929	-20.59
225.308	-19.46
225.686	-13.1
226.064	-9.08
226.442	-13.7
226.821	-6.28
227.199	-11.58
227.577	-9.43
227.955	-9.56
228.333	-4.46
228.711	-4.38
229.089	1.24
229.467	-2.2
229.845	-4.18
230.222	-3.58
230.6	-6.81
230.978	-6.17
231.356	-3.23
231.733	-4.41
232.111	-4.61
232.488	-4.19
232.866	-4.15
233.243	-3.71
233.621	-4.48
233.998	-2.87
234.376	-2.08
234.753	-1.91
235.13	-0.81
235.508	-0.65
235.885	-1.01
236.262	-3.79
236.639	-4.33
237.016	-4.51
237.393	-1.89
237.77	-0.4
238.147	0.51
238.524	2.2
238.901	2.48
239.278	2.26
239.655	3.95
240.032	3.88
240.409	3.33
240.785	4.11
241.162	4
241.539	4.47
241.915	4.26
242.292	3.81
242.668	3.59
243.045	3.98
243.421	4.09
243.798	3.96
244.174	4.29
244.551	4.12
244.927	3.96
245.303	4.02
245.679	4.15
246.056	3.96
246.432	3.88
246.808	3.81
247.184	3.74
247.56	3.21
247.936	3.21
248.312	3.39
248.688	2.91
249.064	2.87
249.44	2.89
249.815	2.72
250.191	2.9
250.567	2.98
250.943	2.85
251.318	2.93
251.694	3.05
252.069	2.84
252.445	3.02
252.82	3.32
253.196	3.05
253.571	3.28
253.947	3.55
254.322	3.66
254.697	3.64
255.073	3.45
255.448	3.33
255.823	3.54
256.198	3.52
256.573	3.71
256.948	3.78
257.323	3.79
257.698	3.7
258.073	3.84
258.448	3.81
258.823	3.68
259.198	3.49
259.573	3.53
259.948	3.59
260.322	3.64
260.697	3.51
261.072	3.55
261.446	3.39
261.821	3.34
262.195	3.36
262.57	3.39
262.944	3.45
263.319	3.51
263.693	3.33
264.067	3.37
264.442	3.42
264.816	3.31
265.19	3.06
265.564	3.12
265.938	2.86
266.313	2.89
266.687	3.04
267.061	3.21
267.435	3.16
267.809	3.25
268.183	3.21
268.556	3.08
268.93	3.05
269.304	3.34
269.678	3.39
270.051	3.4
270.425	3.41
270.799	3.46
271.172	3.51
271.546	3.51
271.919	3.32
272.293	3.42
272.666	3.46
273.04	3.61
273.413	3.52
273.787	3.68
274.16	3.73
274.533	3.69
274.906	3.72
275.279	3.79
275.653	3.57
276.026	3.58
276.399	3.53
276.772	3.61
277.145	3.31
277.518	3.24
277.891	3.18
278.263	3.12
278.636	3.11
279.009	3.01
279.382	3.12
279.755	3.27
280.127	3.29
280.5	3.46
280.872	3.43
281.245	3.5
281.617	3.32
281.99	3.25
282.362	3.13
282.735	2.92
283.107	2.87
283.479	3.05
283.852	3.05
284.224	3.22
284.596	3.19
284.968	3.27
285.34	3.25
285.713	3.24
286.085	3.37
286.457	3.43
286.829	3.5
287.201	3.51
287.572	3.41
287.944	3.29
288.316	3.18
288.688	3.12
289.06	3.14
289.431	3.2
289.803	3.21
290.175	3.37
290.546	3.55
290.918	3.5
291.289	3.46
291.661	3.5
292.032	3.37
292.403	3.35
292.775	3.39
293.146	3.44
293.517	3.43
293.889	3.4
294.26	3.32
294.631	3.54
295.002	3.5
295.373	3.51
295.744	3.54
296.115	3.49
296.486	3.48
296.857	3.57
297.228	3.68
297.599	3.6
297.97	3.51
298.34	3.56
298.711	3.7
299.082	3.75
299.452	3.62
299.823	3.83
300.194	3.85
300.564	3.7
300.935	3.85
301.305	3.83
301.676	3.92
302.046	4.03
302.416	3.99
302.787	3.99
303.157	3.97
303.527	4.08
303.897	4.24
304.267	4.43
304.637	4.3
305.008	4.28
305.378	4.49
305.748	4.66
306.117	4.5
306.487	4.46
306.857	4.51
307.227	4.69
307.597	4.57
307.967	4.64
308.336	4.68
308.706	4.69
309.076	4.82
309.445	4.65
309.815	4.57
310.184	4.47
310.554	4.59
310.923	4.79
311.293	4.74
311.662	4.82
312.031	4.82
312.401	4.9
312.77	5.05
313.139	5.09
313.508	5.07
313.877	5.24
314.246	5.34
314.616	5.32
314.985	5.37
315.353	5.42
315.722	5.53
316.091	5.62
316.46	5.52
316.829	5.5
317.198	5.8
317.567	6.01
317.935	6.11
318.304	6.31
318.672	6.24
319.041	6.33
319.41	6.22
319.778	6.16
320.147	6.29
320.515	6.23
320.883	6.36
321.252	6.47
321.62	6.46
321.988	6.5
322.357	6.59
322.725	6.68
323.093	6.86
323.461	6.85
323.829	6.97
324.197	7.01
324.565	7.03
324.933	6.93
325.301	6.88
325.669	6.94
326.037	6.77
326.405	6.99
326.772	7.05
327.14	7.19
327.508	7.28
327.875	7.2
328.243	7.17
328.61	7.02
328.978	7.06
329.346	7.05
329.713	7.01
330.08	7.06
330.448	6.91
330.815	6.7
331.182	6.82
331.55	6.85
331.917	6.96
332.284	7.2
332.651	7.25
333.018	7.27
333.385	7.28
333.752	7.42
334.119	7.24
334.486	7.18
334.853	7.23
335.22	7.21
335.587	7.37
335.954	7.35
336.32	7.39
336.687	7.33
337.054	7.42
337.42	7.54
337.787	7.54
338.153	7.69
338.52	7.88
338.886	7.72
339.253	7.79
339.619	7.87
339.986	7.79
340.352	7.85
340.718	7.89
341.084	7.76
341.451	7.69
341.817	7.83
342.183	7.73
342.549	7.76
342.915	7.81
343.281	7.75
343.647	7.88
344.013	7.95
344.379	8
344.745	7.97
345.11	7.98
345.476	7.87
345.842	7.87
346.208	7.77
346.573	7.91
346.939	7.99
347.304	7.86
347.67	7.84
348.035	7.76
348.401	7.78
348.766	7.91
349.132	7.93
349.497	7.82
349.862	7.99
350.228	7.91
350.593	7.85
350.958	7.87
351.323	7.78
351.688	7.71
352.053	7.69
352.418	7.73
352.783	7.72
353.148	7.85
353.513	7.85
353.878	7.87
354.243	7.95
354.608	7.85
354.972	7.93
355.337	7.94
355.702	7.98
356.066	8
356.431	8.04
356.795	8.03
357.16	7.99
357.524	7.94
357.889	7.95
358.253	7.97
358.618	7.89
358.982	7.85
359.346	7.8
359.71	7.75
360.075	7.73
360.439	7.73
360.803	7.66
361.167	7.64
361.531	7.68
361.895	7.56
362.259	7.54
362.623	7.52
362.987	7.51
363.351	7.49
363.714	7.46
364.078	7.43
364.442	7.45
364.806	7.5
365.169	7.47
365.533	7.46
365.896	7.4
366.26	7.43
366.623	7.47
366.987	7.48
367.35	7.5
367.714	7.41
368.077	7.31
368.44	7.32
368.803	7.25
369.167	7.14
369.53	7
369.893	7.02
370.256	6.98
370.619	6.96
370.982	6.91
371.345	6.82
371.708	6.7
372.071	6.62
372.434	6.57
372.797	6.56
373.159	6.51
373.522	6.55
373.885	6.48
374.247	6.42
374.61	6.4
374.973	6.3
375.335	6.32
375.698	6.3
376.06	6.21
376.423	6.21
376.785	6.22
377.147	6.27
377.51	6.16
377.872	6.15
378.234	6.05
378.596	6.01
378.958	5.98
379.321	5.95
379.683	5.92
380.045	5.86
380.407	5.82
380.769	5.73
381.13	5.63
381.492	5.54
381.854	5.48
382.216	5.4
382.578	5.41
382.939	5.33
383.301	5.28
383.663	5.25
384.024	5.17
384.386	5.15
384.747	5.14
385.109	5.1
385.47	5.02
385.832	4.99
386.193	4.99
386.554	5
386.916	4.95
387.277	4.91
387.638	4.9
387.999	4.85
388.36	4.85
388.721	4.87
389.082	4.89
389.443	4.84
389.804	4.83
390.165	4.75
390.526	4.76
390.887	4.73
391.248	4.72
391.609	4.69
391.969	4.62
392.33	4.6
392.691	4.57
393.051	4.57
393.412	4.57
393.772	4.49
394.133	4.45
394.493	4.45
394.854	4.38
395.214	4.35
395.574	4.33
395.935	4.33
396.295	4.32
396.655	4.28
397.015	4.27
397.376	4.24
397.736	4.25
398.096	4.2
398.456	4.17
398.816	4.13
399.176	4.12
399.535	4.08
399.895	4.03
400.255	3.99
400.615	3.97
400.975	3.91
401.334	3.9
401.694	3.83
402.054	3.79
402.413	3.79
402.773	3.73
403.132	3.68
403.492	3.64
403.851	3.6
404.211	3.56
404.57	3.54
404.929	3.54
405.288	3.48
405.648	3.44
406.007	3.43
406.366	3.41
406.725	3.39
407.084	3.39
407.443	3.37
407.802	3.38
408.161	3.34
408.52	3.32
408.879	3.31
409.238	3.33
409.596	3.3
409.955	3.29
410.314	3.32
410.673	3.32
411.031	3.34
411.39	3.31
411.748	3.32
412.107	3.32
412.465	3.29
412.824	3.32
413.182	3.33
413.54	3.31
413.899	3.34
414.257	3.34
414.615	3.35
414.974	3.34
415.332	3.31
415.69	3.27
416.048	3.27
416.406	3.24
416.764	3.23
417.122	3.25
417.48	3.21
417.838	3.21
418.195	3.21
418.553	3.18
418.911	3.16
419.269	3.15
419.626	3.14
419.984	3.15
420.342	3.12
420.699	3.1
421.057	3.1
421.414	3.08
421.772	3.07
422.129	3.05
422.486	3.02
422.844	3.01
423.201	3
423.558	3
423.915	3
424.273	3
424.63	2.98
424.987	2.99
425.344	2.98
425.701	2.97
426.058	2.95
426.415	2.94
426.772	2.94
427.128	2.93
427.485	2.89
427.842	2.9
428.199	2.91
428.555	2.9
428.912	2.9
429.269	2.89
429.625	2.85
429.982	2.86
430.338	2.87
430.695	2.89
431.051	2.86
431.407	2.84
431.764	2.82
432.12	2.82
432.476	2.81
432.832	2.79
433.189	2.79
433.545	2.79
433.901	2.79
434.257	2.81
434.613	2.83
434.969	2.83
435.325	2.83
435.681	2.82
436.036	2.83
436.392	2.82
436.748	2.82
437.104	2.82
437.459	2.82
437.815	2.83
438.171	2.83
438.526	2.85
438.882	2.87
439.237	2.88
439.593	2.88
439.948	2.87
440.304	2.89
440.659	2.88
441.014	2.88
441.369	2.88
441.725	2.86
442.08	2.84
442.435	2.84
442.79	2.82
443.145	2.82
443.5	2.8
443.855	2.79
444.21	2.78
444.565	2.81
444.92	2.82
445.275	2.81
445.629	2.79
445.984	2.79
446.339	2.78
446.693	2.76
447.048	2.75
447.403	2.74
447.757	2.73
448.112	2.72
448.466	2.7
448.82	2.7
449.175	2.7
449.529	2.69
449.883	2.68
450.238	2.68
450.592	2.69
450.946	2.69
451.3	2.71
451.654	2.71
452.008	2.71
452.362	2.69
452.716	2.7
453.07	2.71
453.424	2.71
453.778	2.69
454.132	2.68
454.486	2.7
454.839	2.69
455.193	2.66
455.547	2.68
455.9	2.68
456.254	2.68
456.607	2.66
456.961	2.65
457.314	2.66
457.668	2.67
458.021	2.65
458.375	2.65
458.728	2.65
459.081	2.65
459.434	2.63
459.787	2.63
460.141	2.61
460.494	2.61
460.847	2.62
461.2	2.64
461.553	2.65
461.906	2.65
462.259	2.68
462.611	2.7
462.964	2.73
463.317	2.74
463.67	2.76
464.022	2.78
464.375	2.8
464.728	2.81
465.08	2.82
465.433	2.86
465.785	2.87
466.138	2.88
466.49	2.89
466.843	2.89
467.195	2.92
467.547	2.94
467.899	2.94
468.252	2.94
468.604	2.96
468.956	2.96
469.308	2.97
469.66	2.94
470.012	2.95
470.364	2.96
470.716	2.97
471.068	2.97
471.42	2.97
471.772	2.98
472.123	3.02
472.475	3.03
472.827	3.02
473.178	3.02
473.53	3.02
473.882	3.04
474.233	3.05
474.585	3.03
474.936	3.03
475.288	3.04
475.639	3.04
475.99	3.03
476.342	3.04
476.693	3.05
477.044	3.07
477.395	3.08
477.746	3.05
478.097	3.04
478.448	3.03
478.8	3.03
479.15	3
479.501	2.98
479.852	2.96
480.203	2.95
480.554	2.95
480.905	2.94
481.255	2.94
481.606	2.94
481.957	2.94
482.307	2.93
482.658	2.93
483.009	2.92
483.359	2.91
483.709	2.91
484.06	2.9
484.41	2.89
484.761	2.89
485.111	2.89
485.461	2.89
485.811	2.89
486.162	2.89
486.512	2.9
486.862	2.9
487.212	2.91
487.562	2.9
487.912	2.89
488.262	2.88
488.612	2.88
488.961	2.89
489.311	2.88
489.661	2.88
490.011	2.89
490.36	2.89
490.71	2.9
491.06	2.9
491.409	2.91
491.759	2.91
492.108	2.92
492.458	2.93
492.807	2.94
493.157	2.95
493.506	2.96
493.855	2.98
494.204	2.98
494.554	2.99
494.903	3
495.252	3.04
495.601	3.09
495.95	3.13
496.299	3.13
496.648	3.17
496.997	3.22
497.346	3.24
497.695	3.29
498.043	3.32
498.392	3.36
498.741	3.38
499.09	3.41
499.438	3.45
499.787	3.49
500.135	3.53
500.484	3.59
500.832	3.64
501.181	3.69
501.529	3.78
501.878	3.86
502.226	3.96
502.574	4.02
502.923	4.09
503.271	4.13
503.619	4.25
503.967	4.34
504.315	4.42
504.663	4.53
505.011	4.63
505.359	4.75
505.707	4.88
506.055	5.02
506.403	5.16
506.751	5.29
507.098	5.44
507.446	5.59
507.794	5.73
508.141	5.89
508.489	6.04
508.837	6.2
509.184	6.35
509.531	6.5
509.879	6.68
510.226	6.87
510.574	7.04
510.921	7.22
511.268	7.41
511.616	7.62
511.963	7.8
512.31	8.03
512.657	8.26
513.004	8.46
513.351	8.7
513.698	8.97
514.045	9.24
514.392	9.53
514.739	9.8
515.086	10.09
515.432	10.35
515.779	10.63
516.126	10.89
516.473	11.16
516.819	11.42
517.166	11.68
517.512	11.91
517.859	12.17
518.205	12.42
518.552	12.65
518.898	12.88
519.245	13.1
519.591	13.3
519.937	13.53
520.283	13.81
520.629	14.08
520.976	14.34
521.322	14.57
521.668	14.8
522.014	15.06
522.36	15.34
522.706	15.64
523.052	15.95
523.398	16.27
523.743	16.59
524.089	16.94
524.435	17.26
524.781	17.59
525.126	17.87
525.472	18.12
525.817	18.38
526.163	18.62
526.509	18.84
526.854	19.06
527.199	19.25
527.545	19.41
527.89	19.61
528.235	19.8
528.581	20.01
528.926	20.22
529.271	20.42
529.616	20.61
529.961	20.8
530.306	20.98
530.651	21.18
530.996	21.38
531.341	21.59
531.686	21.83
532.031	22.04
532.376	22.28
532.721	22.53
533.065	22.75
533.41	22.99
533.755	23.26
534.099	23.53
534.444	23.8
534.788	24.04
535.133	24.28
535.477	24.53
535.822	24.74
536.166	25
536.51	25.26
536.855	25.59
537.199	25.91
537.543	26.24
537.887	26.54
538.231	26.9
538.576	27.22
538.92	27.49
539.264	27.78
539.608	28.05
539.951	28.28
540.295	28.53
540.639	28.76
540.983	28.98
541.327	29.17
541.671	29.39
542.014	29.62
542.358	29.83
542.701	30.03
543.045	30.27
543.389	30.49
543.732	30.75
544.075	30.93
544.419	31.15
544.762	31.38
545.105	31.65
545.449	31.87
545.792	32.09
546.135	32.36
546.478	32.63
546.821	32.9
547.165	33.19
547.508	33.49
547.851	33.76
548.194	34.06
548.536	34.37
548.879	34.65
549.222	34.92
549.565	35.19
549.908	35.47
550.25	35.74
550.593	35.98
550.936	36.23
551.278	36.5
551.621	36.78
551.963	37.02
552.306	37.26
552.648	37.46
552.991	37.75
553.333	37.98
553.675	38.2
554.017	38.41
554.36	38.61
554.702	38.79
555.044	39.01
555.386	39.15
555.728	39.35
556.07	39.54
556.412	39.77
556.754	39.96
557.096	40.09
557.438	40.31
557.78	40.52
558.121	40.73
558.463	40.95
558.805	41.13
559.147	41.32
559.488	41.48
559.83	41.7
560.171	41.85
560.513	41.99
560.854	42.16
561.196	42.35
561.537	42.49
561.878	42.67
562.22	42.83
562.561	42.99
562.902	43.18
563.243	43.25
563.584	43.37
563.925	43.55
564.266	43.73
564.607	43.8
564.948	43.94
565.289	44.03
565.63	44.14
565.971	44.23
566.312	44.35
566.653	44.37
566.993	44.46
567.334	44.57
567.675	44.68
568.015	44.82
568.356	44.94
568.696	45.05
569.037	45.12
569.377	45.22
569.718	45.32
570.058	45.36
570.398	45.54
570.739	45.6
571.079	45.68
571.419	45.74
571.759	45.88
572.099	45.94
572.439	46.05
572.779	46.13
573.119	46.19
573.459	46.33
573.799	46.5
574.139	46.63
574.479	46.74
574.819	46.86
575.158	46.88
575.498	46.94
575.838	47.1
576.177	47.2
576.517	47.27
576.856	47.42
577.196	47.49
577.535	47.6
577.875	47.72
578.214	47.8
578.553	47.97
578.893	48.06
579.232	48.19
579.571	48.32
579.91	48.45
580.25	48.59
580.589	48.61
580.928	48.65
581.267	48.75
581.606	48.84
581.945	48.87
582.283	49
582.622	49.11
582.961	49.12
583.3	49.16
583.639	49.27
583.977	49.41
584.316	49.52
584.654	49.5
584.993	49.6
585.332	49.74
585.67	49.85
586.008	49.94
586.347	50.05
586.685	50.06
587.024	50.06
587.362	50.11
587.7	50.22
588.038	50.31
588.376	50.39
588.715	50.44
589.053	50.51
589.391	50.6
589.729	50.73
590.067	50.73
590.404	50.77
590.742	50.9
591.08	50.92
591.418	50.96
591.756	51
592.093	51.08
592.431	51.09
592.769	51.12
593.106	51.14
593.444	51.12
593.781	51.19
594.119	51.27
594.456	51.33
594.793	51.38
595.131	51.37
595.468	51.33
595.805	51.33
596.143	51.45
596.48	51.43
596.817	51.38
597.154	51.56
597.491	51.67
597.828	51.67
598.165	51.76
598.502	51.81
598.839	51.89
599.176	51.93
599.512	51.95
599.849	51.98
600.186	52.05
600.523	52.12
600.859	52.17
601.196	52.19
601.532	52.21
601.869	52.2
602.205	52.31
602.542	52.4
602.878	52.46
603.215	52.38
603.551	52.4
603.887	52.45
604.223	52.42
604.56	52.44
604.896	52.48
605.232	52.48
605.568	52.54
605.904	52.61
606.24	52.67
606.576	52.73
606.912	52.78
607.248	52.76
607.583	52.82
607.919	52.9
608.255	52.98
608.591	53.14
608.926	53.25
609.262	53.33
609.597	53.38
609.933	53.43
610.268	53.59
610.604	53.69
610.939	53.74
611.275	53.73
611.61	53.74
611.945	53.81
612.281	53.93
612.616	54.03
612.951	54.06
613.286	54.07
613.621	54.11
613.956	54.19
614.291	54.34
614.626	54.38
614.961	54.31
615.296	54.39
615.631	54.38
615.966	54.4
616.3	54.45
616.635	54.51
616.97	54.51
617.304	54.48
617.639	54.54
617.973	54.51
618.308	54.64
618.642	54.69
618.977	54.68
619.311	54.61
619.646	54.67
619.98	54.74
620.314	54.73
620.648	54.79
620.983	54.76
621.317	54.84
621.651	54.93
621.985	55.01
622.319	54.99
622.653	54.99
622.987	55.02
623.321	55.05
623.655	54.97
623.988	55.07
624.322	55.12
624.656	55.17
624.99	55.25
625.323	55.22
625.657	55.22
625.99	55.26
626.324	55.28
626.657	55.25
626.991	55.17
627.324	55.16
627.658	55.21
627.991	55.21
628.324	55.11
628.657	55.08
628.991	55.14
629.324	55.17
629.657	55.19
629.99	55.2
630.323	55.16
630.656	55.25
630.989	55.25
631.322	55.28
631.655	55.16
631.987	55.17
632.32	55.22
632.653	55.37
632.986	55.37
633.318	55.32
633.651	55.32
633.984	55.37
634.316	55.45
634.649	55.48
634.981	55.58
635.313	55.73
635.646	55.8
635.978	55.87
636.31	55.88
636.643	55.96
636.975	55.94
637.307	56.03
637.639	55.99
637.971	55.95
638.303	55.95
638.635	56.07
638.967	56.11
639.299	56.14
639.631	56.08
639.963	56.06
640.295	56.2
640.626	56.16
640.958	56.28
641.29	56.39
641.621	56.37
641.953	56.43
642.285	56.25
642.616	56.14
642.948	56.12
643.279	56.07
643.61	56.03
643.942	56.07
644.273	56.04
644.604	56.19
644.936	56.25
645.267	56.24
645.598	56.18
645.929	56.18
646.26	56.18
646.591	56.18
646.922	56.26
647.253	56.26
647.584	56.37
647.915	56.32
648.245	56.29
648.576	56.31
648.907	56.19
649.238	56.42
649.568	56.52
649.899	56.55
650.229	56.6
650.56	56.71
650.89	56.83
651.221	56.87
651.551	56.76
651.882	56.7
652.212	56.74
652.542	56.77
652.872	56.86
653.203	56.75
653.533	56.68
653.863	56.55
654.193	56.52
654.523	56.58
654.853	56.66
655.183	56.79
655.513	56.87
655.843	56.9
656.172	56.84
656.502	56.82
656.832	56.81
657.162	56.74
657.491	56.75
657.821	56.66
658.15	56.58
658.48	56.69
658.809	56.71
659.139	56.64
659.468	56.65
659.798	56.56
660.127	56.74
660.456	56.8
660.785	56.97
661.115	57.16
661.444	57.16
661.773	57.07
662.102	57
662.431	57.02
662.76	57.13
663.089	57.21
663.418	57.3
663.747	57.27
664.076	57.38
664.404	57.42
664.733	57.52
665.062	57.51
665.39	57.46
665.719	57.56
666.048	57.61
666.376	57.74
666.705	57.72
667.033	57.81
667.362	57.83
667.69	57.79
