Data from BU26847_Reflection_00007.txt Node
Date: Mon Nov 18 16:40:55 EST 2019
User: vgr7
Spectrometer: USB2G7710
Scans to average: 3
Trigger mode: 4
Integration Time (sec): 2.000000E-2
Electric dark correction enabled: true
Boxcar width: 10
XAxis mode: Wavelengths
Number of Pixels in Spectrum: 2048
>>>>>Begin Spectral Data<<<<<
177.721	65.52
178.105	133.9
178.488	394.12
178.871	-116.22
179.254	-202.33
179.636	82.88
180.019	6.4
180.402	76.32
180.785	1539.02
181.168	1568.75
181.55	5100
181.933	256.36
182.316	204
182.698	251.7
183.081	176.64
183.463	408.06
183.846	309.44
184.228	540.41
184.611	1718.18
184.993	27766.67
185.376	603.55
185.758	-27566.67
186.14	2030.23
186.522	2248.94
186.904	-1405.49
187.287	-1885.07
187.669	-290.3
188.051	-543.12
188.433	-384.76
188.815	-201.71
189.197	-202.71
189.579	-156.64
189.961	-182.5
190.342	-185.5
190.724	-122.84
191.106	-109.43
191.488	-121.84
191.869	-85.1
192.251	-127.66
192.633	-156.54
193.014	-195.77
193.396	-164.37
193.777	-137.61
194.159	-150.31
194.54	-130.04
194.922	-86.71
195.303	-100.54
195.684	-109.08
196.065	-89.68
196.447	-89.11
196.828	-121.6
197.209	-147.67
197.59	-117.8
197.971	-204.92
198.352	-79.96
198.733	-101.63
199.114	-110.92
199.495	-68.24
199.876	-123.26
200.257	-83.83
200.638	-79.56
201.018	-67.38
201.399	-50.2
201.78	-58.62
202.16	-55.32
202.541	-102.8
202.922	-1267.35
203.302	-2141.38
203.683	526.75
204.063	323.97
204.444	430.96
204.824	506.59
205.204	548.89
205.585	593.78
205.965	495.92
206.345	344.22
206.725	291.75
207.106	331.85
207.486	269.88
207.866	246.57
208.246	418.33
208.626	952.76
209.006	415.25
209.386	447.69
209.766	879.01
210.145	881.42
210.525	1370.27
210.905	-1014.65
211.285	-748.65
211.664	-315.14
212.044	-239.76
212.424	-198.01
212.803	-231.59
213.183	-165.23
213.562	-125.42
213.942	-91.99
214.321	-85.4
214.701	-87.6
215.08	-120.87
215.459	-90.21
215.838	-95.38
216.218	-151.6
216.597	-93.92
216.976	-93.26
217.355	-61.72
217.734	-86.95
218.113	-81.1
218.492	-77.7
218.871	-70.58
219.25	-74.8
219.629	-66.22
220.008	-77.93
220.387	-70.15
220.766	-56.47
221.144	-71.02
221.523	-84.19
221.902	-89.19
222.28	-116.86
222.659	-72.66
223.037	-70.59
223.416	-66.53
223.794	-63.77
224.173	-41.96
224.551	-51.08
224.929	-49.81
225.308	-38.53
225.686	-29.54
226.064	-28.24
226.442	-25.66
226.821	-23.77
227.199	-22.31
227.577	-25.03
227.955	-22.34
228.333	-21.94
228.711	-17.25
229.089	-12.55
229.467	-13.08
229.845	-15.37
230.222	-10.45
230.6	-13.68
230.978	-12.03
231.356	-10.73
231.733	-9.55
232.111	-9.05
232.488	-5.51
232.866	-4.75
233.243	-6.89
233.621	-5.99
233.998	-4.74
234.376	-5.81
234.753	-4.5
235.13	-4.15
235.508	-1.9
235.885	-0.83
236.262	-1.52
236.639	-2.74
237.016	-2.59
237.393	-0.79
237.77	0.12
238.147	0.75
238.524	1.31
238.901	1.7
239.278	1.91
239.655	2.84
240.032	3.45
240.409	2.07
240.785	2.35
241.162	3.39
241.539	3.39
241.915	3.56
242.292	3.79
242.668	3.17
243.045	3.38
243.421	3
243.798	2.8
244.174	3.12
244.551	3.43
244.927	3.47
245.303	3.76
245.679	4.2
246.056	4.22
246.432	4.08
246.808	3.94
247.184	3.71
247.56	3.62
247.936	3.45
248.312	3.76
248.688	3.85
249.064	3.67
249.44	3.62
249.815	3.65
250.191	3.74
250.567	3.93
250.943	3.81
251.318	3.99
251.694	4.13
252.069	4.12
252.445	3.86
252.82	3.79
253.196	3.62
253.571	3.19
253.947	2.98
254.322	3.53
254.697	3.37
255.073	3.38
255.448	3.36
255.823	3.31
256.198	3.44
256.573	3.44
256.948	3.82
257.323	3.92
257.698	3.89
258.073	3.86
258.448	4.06
258.823	4.12
259.198	4.03
259.573	3.99
259.948	4
260.322	4.08
260.697	4.06
261.072	4.07
261.446	4
261.821	4.04
262.195	3.97
262.57	4.23
262.944	4.24
263.319	4.23
263.693	4.2
264.067	4.18
264.442	4.28
264.816	4.04
265.19	4.01
265.564	4.1
265.938	4.03
266.313	3.81
266.687	3.81
267.061	3.97
267.435	3.95
267.809	3.98
268.183	4.02
268.556	4.01
268.93	3.94
269.304	4.04
269.678	4.05
270.051	4.06
270.425	3.96
270.799	3.99
271.172	3.95
271.546	3.88
271.919	3.86
272.293	3.64
272.666	3.69
273.04	3.76
273.413	3.72
273.787	3.73
274.16	3.86
274.533	3.77
274.906	3.62
275.279	3.6
275.653	3.49
276.026	3.65
276.399	3.49
276.772	3.54
277.145	3.5
277.518	3.47
277.891	3.31
278.263	3.29
278.636	3.34
279.009	3.28
279.382	3.54
279.755	3.37
280.127	3.74
280.5	3.88
280.872	3.86
281.245	3.83
281.617	3.95
281.99	3.94
282.362	3.96
282.735	3.85
283.107	3.87
283.479	3.99
283.852	3.77
284.224	3.92
284.596	3.92
284.968	3.97
285.34	4.05
285.713	4.09
286.085	4.04
286.457	4.24
286.829	4.33
287.201	4.27
287.572	4.29
287.944	4.07
288.316	3.98
288.688	3.91
289.06	3.85
289.431	3.83
289.803	3.84
290.175	4.01
290.546	4.28
290.918	4.29
291.289	4.16
291.661	4.26
292.032	4.4
292.403	4.38
292.775	4.64
293.146	4.67
293.517	4.67
293.889	4.77
294.26	4.55
294.631	4.56
295.002	4.7
295.373	4.76
295.744	4.86
296.115	4.9
296.486	4.91
296.857	4.91
297.228	5.01
297.599	5.05
297.97	4.96
298.34	5
298.711	5.08
299.082	5.22
299.452	5.22
299.823	5.22
300.194	5.34
300.564	5.16
300.935	5.21
301.305	5.31
301.676	5.42
302.046	5.59
302.416	5.81
302.787	5.7
303.157	5.88
303.527	5.99
303.897	6.02
304.267	6.18
304.637	6.49
305.008	6.47
305.378	6.71
305.748	6.81
306.117	6.71
306.487	6.79
306.857	6.82
307.227	6.9
307.597	6.98
307.967	7.05
308.336	7.12
308.706	7.14
309.076	7.18
309.445	7.13
309.815	7.1
310.184	7.01
310.554	7.16
310.923	7.24
311.293	7.24
311.662	7.3
312.031	7.41
312.401	7.31
312.77	7.24
313.139	7.18
313.508	7.4
313.877	7.6
314.246	7.67
314.616	7.89
314.985	8.18
315.353	8.16
315.722	8.22
316.091	8.35
316.46	8.41
316.829	8.46
317.198	8.73
317.567	8.86
317.935	8.9
318.304	9.11
318.672	8.93
319.041	9.25
319.41	9.33
319.778	9.38
320.147	9.5
320.515	9.61
320.883	9.58
321.252	9.54
321.62	9.53
321.988	9.61
322.357	9.48
322.725	9.35
323.093	9.42
323.461	9.53
323.829	9.59
324.197	9.68
324.565	9.72
324.933	9.67
325.301	9.7
325.669	9.82
326.037	9.76
326.405	10.02
326.772	9.93
327.14	10.12
327.508	10.25
327.875	10.33
328.243	10.5
328.61	10.6
328.978	10.64
329.346	10.68
329.713	10.64
330.08	10.62
330.448	10.52
330.815	10.57
331.182	10.49
331.55	10.64
331.917	10.75
332.284	10.93
332.651	10.97
333.018	11.03
333.385	11.03
333.752	11.16
334.119	11.31
334.486	11.29
334.853	11.24
335.22	11.09
335.587	11.15
335.954	11.21
336.32	11.24
336.687	11.36
337.054	11.36
337.42	11.46
337.787	11.65
338.153	11.77
338.52	11.81
338.886	11.77
339.253	11.78
339.619	11.76
339.986	11.76
340.352	11.81
340.718	11.87
341.084	11.91
341.451	11.92
341.817	11.89
342.183	11.9
342.549	11.99
342.915	12.08
343.281	11.97
343.647	11.94
344.013	11.92
344.379	11.87
344.745	12.02
345.11	12.04
345.476	12.07
345.842	12.14
346.208	12.15
346.573	12.3
346.939	12.3
347.304	12.3
347.67	12.28
348.035	12.33
348.401	12.42
348.766	12.51
349.132	12.46
349.497	12.32
349.862	12.39
350.228	12.38
350.593	12.36
350.958	12.43
351.323	12.48
351.688	12.55
352.053	12.57
352.418	12.51
352.783	12.48
353.148	12.48
353.513	12.54
353.878	12.53
354.243	12.62
354.608	12.52
354.972	12.52
355.337	12.55
355.702	12.55
356.066	12.51
356.431	12.53
356.795	12.56
357.16	12.68
357.524	12.62
357.889	12.5
358.253	12.55
358.618	12.64
358.982	12.61
359.346	12.57
359.71	12.57
360.075	12.5
360.439	12.52
360.803	12.51
361.167	12.45
361.531	12.4
361.895	12.3
362.259	12.27
362.623	12.25
362.987	12.15
363.351	12.12
363.714	12.11
364.078	11.98
364.442	11.88
364.806	11.77
365.169	11.72
365.533	11.81
365.896	11.72
366.26	11.63
366.623	11.65
366.987	11.62
367.35	11.57
367.714	11.62
368.077	11.6
368.44	11.49
368.803	11.54
369.167	11.58
369.53	11.51
369.893	11.52
370.256	11.52
370.619	11.52
370.982	11.44
371.345	11.4
371.708	11.37
372.071	11.31
372.434	11.28
372.797	11.29
373.159	11.12
373.522	11.06
373.885	11.02
374.247	10.89
374.61	10.85
374.973	10.75
375.335	10.66
375.698	10.59
376.06	10.57
376.423	10.42
376.785	10.33
377.147	10.32
377.51	10.24
377.872	10.18
378.234	10.16
378.596	10.11
378.958	10.01
379.321	9.95
379.683	9.97
380.045	9.89
380.407	9.84
380.769	9.81
381.13	9.77
381.492	9.71
381.854	9.66
382.216	9.65
382.578	9.66
382.939	9.55
383.301	9.49
383.663	9.43
384.024	9.41
384.386	9.42
384.747	9.37
385.109	9.35
385.47	9.27
385.832	9.22
386.193	9.19
386.554	9.16
386.916	9.12
387.277	9.04
387.638	9.03
387.999	8.98
388.36	8.97
388.721	8.9
389.082	8.85
389.443	8.83
389.804	8.72
390.165	8.66
390.526	8.68
390.887	8.58
391.248	8.57
391.609	8.5
391.969	8.43
392.33	8.37
392.691	8.31
393.051	8.28
393.412	8.22
393.772	8.18
394.133	8.14
394.493	8.11
394.854	8.08
395.214	8.07
395.574	8.02
395.935	7.96
396.295	7.92
396.655	7.9
397.015	7.85
397.376	7.8
397.736	7.75
398.096	7.68
398.456	7.66
398.816	7.6
399.176	7.53
399.535	7.47
399.895	7.41
400.255	7.38
400.615	7.41
400.975	7.36
401.334	7.34
401.694	7.3
402.054	7.23
402.413	7.18
402.773	7.11
403.132	7.05
403.492	7.01
403.851	6.97
404.211	6.89
404.57	6.82
404.929	6.84
405.288	6.79
405.648	6.74
406.007	6.74
406.366	6.7
406.725	6.72
407.084	6.69
407.443	6.68
407.802	6.65
408.161	6.57
408.52	6.51
408.879	6.48
409.238	6.47
409.596	6.45
409.955	6.41
410.314	6.41
410.673	6.35
411.031	6.35
411.39	6.34
411.748	6.37
412.107	6.39
412.465	6.32
412.824	6.3
413.182	6.29
413.54	6.26
413.899	6.28
414.257	6.25
414.615	6.24
414.974	6.21
415.332	6.21
415.69	6.18
416.048	6.18
416.406	6.16
416.764	6.14
417.122	6.14
417.48	6.13
417.838	6.09
418.195	6.08
418.553	6.04
418.911	6.02
419.269	6
419.626	5.95
419.984	5.93
420.342	5.9
420.699	5.88
421.057	5.87
421.414	5.81
421.772	5.79
422.129	5.77
422.486	5.75
422.844	5.72
423.201	5.69
423.558	5.68
423.915	5.65
424.273	5.63
424.63	5.6
424.987	5.6
425.344	5.58
425.701	5.57
426.058	5.56
426.415	5.52
426.772	5.5
427.128	5.5
427.485	5.5
427.842	5.5
428.199	5.49
428.555	5.47
428.912	5.47
429.269	5.46
429.625	5.45
429.982	5.43
430.338	5.41
430.695	5.43
431.051	5.39
431.407	5.38
431.764	5.39
432.12	5.36
432.476	5.35
432.832	5.34
433.189	5.36
433.545	5.36
433.901	5.37
434.257	5.35
434.613	5.36
434.969	5.36
435.325	5.37
435.681	5.39
436.036	5.38
436.392	5.39
436.748	5.39
437.104	5.35
437.459	5.35
437.815	5.38
438.171	5.35
438.526	5.37
438.882	5.37
439.237	5.36
439.593	5.35
439.948	5.34
440.304	5.34
440.659	5.32
441.014	5.34
441.369	5.34
441.725	5.34
442.08	5.33
442.435	5.32
442.79	5.29
443.145	5.28
443.5	5.28
443.855	5.26
444.21	5.25
444.565	5.26
444.92	5.26
445.275	5.26
445.629	5.26
445.984	5.26
446.339	5.24
446.693	5.21
447.048	5.2
447.403	5.19
447.757	5.19
448.112	5.18
448.466	5.17
448.82	5.17
449.175	5.16
449.529	5.16
449.883	5.13
450.238	5.14
450.592	5.13
450.946	5.11
451.3	5.11
451.654	5.1
452.008	5.1
452.362	5.09
452.716	5.07
453.07	5.04
453.424	5.02
453.778	5.04
454.132	5.06
454.486	5.06
454.839	5.04
455.193	5.02
455.547	5.02
455.9	5
456.254	5.02
456.607	5.01
456.961	4.99
457.314	5
457.668	5.01
458.021	5
458.375	5.01
458.728	5
459.081	5.02
459.434	5.02
459.787	5.02
460.141	5.02
460.494	5.05
460.847	5.07
461.2	5.06
461.553	5.07
461.906	5.08
462.259	5.11
462.611	5.13
462.964	5.15
463.317	5.18
463.67	5.15
464.022	5.17
464.375	5.2
464.728	5.19
465.08	5.22
465.433	5.24
465.785	5.26
466.138	5.28
466.49	5.29
466.843	5.31
467.195	5.32
467.547	5.34
467.899	5.32
468.252	5.31
468.604	5.34
468.956	5.35
469.308	5.37
469.66	5.4
470.012	5.43
470.364	5.42
470.716	5.42
471.068	5.47
471.42	5.47
471.772	5.5
472.123	5.53
472.475	5.53
472.827	5.53
473.178	5.55
473.53	5.53
473.882	5.55
474.233	5.53
474.585	5.53
474.936	5.55
475.288	5.59
475.639	5.63
475.99	5.62
476.342	5.64
476.693	5.64
477.044	5.64
477.395	5.64
477.746	5.64
478.097	5.62
478.448	5.62
478.8	5.65
479.15	5.61
479.501	5.6
479.852	5.6
480.203	5.61
480.554	5.61
480.905	5.63
481.255	5.64
481.606	5.64
481.957	5.65
482.307	5.63
482.658	5.63
483.009	5.63
483.359	5.63
483.709	5.63
484.06	5.62
484.41	5.62
484.761	5.61
485.111	5.61
485.461	5.63
485.811	5.62
486.162	5.61
486.512	5.61
486.862	5.61
487.212	5.61
487.562	5.6
487.912	5.59
488.262	5.59
488.612	5.58
488.961	5.58
489.311	5.59
489.661	5.6
490.011	5.6
490.36	5.6
490.71	5.6
491.06	5.6
491.409	5.6
491.759	5.6
492.108	5.61
492.458	5.62
492.807	5.61
493.157	5.62
493.506	5.64
493.855	5.67
494.204	5.7
494.554	5.73
494.903	5.76
495.252	5.79
495.601	5.82
495.95	5.87
496.299	5.92
496.648	5.94
496.997	5.98
497.346	6.01
497.695	6.05
498.043	6.09
498.392	6.12
498.741	6.17
499.09	6.23
499.438	6.31
499.787	6.39
500.135	6.46
500.484	6.54
500.832	6.61
501.181	6.7
501.529	6.74
501.878	6.8
502.226	6.88
502.574	6.95
502.923	7.04
503.271	7.09
503.619	7.18
503.967	7.27
504.315	7.35
504.663	7.46
505.011	7.54
505.359	7.63
505.707	7.74
506.055	7.83
506.403	7.93
506.751	7.98
507.098	8.03
507.446	8.14
507.794	8.22
508.141	8.32
508.489	8.43
508.837	8.57
509.184	8.69
509.531	8.79
509.879	8.89
510.226	9
510.574	9.13
510.921	9.24
511.268	9.36
511.616	9.47
511.963	9.59
512.31	9.72
512.657	9.85
513.004	9.98
513.351	10.13
513.698	10.28
514.045	10.45
514.392	10.62
514.739	10.77
515.086	10.92
515.432	11.07
515.779	11.21
516.126	11.34
516.473	11.49
516.819	11.63
517.166	11.8
517.512	11.91
517.859	12.04
518.205	12.14
518.552	12.27
518.898	12.4
519.245	12.49
519.591	12.63
519.937	12.76
520.283	12.9
520.629	13.06
520.976	13.19
521.322	13.36
521.668	13.54
522.014	13.69
522.36	13.86
522.706	14.03
523.052	14.22
523.398	14.42
523.743	14.62
524.089	14.85
524.435	15.02
524.781	15.23
525.126	15.41
525.472	15.58
525.817	15.7
526.163	15.83
526.509	15.99
526.854	16.11
527.199	16.24
527.545	16.35
527.89	16.46
528.235	16.56
528.581	16.66
528.926	16.77
529.271	16.9
529.616	17.01
529.961	17.13
530.306	17.23
530.651	17.34
530.996	17.46
531.341	17.56
531.686	17.69
532.031	17.8
532.376	17.92
532.721	18.06
533.065	18.21
533.41	18.37
533.755	18.5
534.099	18.64
534.444	18.8
534.788	18.95
535.133	19.11
535.477	19.28
535.822	19.44
536.166	19.61
536.51	19.77
536.855	19.97
537.199	20.17
537.543	20.38
537.887	20.59
538.231	20.81
538.576	21.03
538.92	21.22
539.264	21.42
539.608	21.6
539.951	21.79
540.295	21.98
540.639	22.15
540.983	22.33
541.327	22.5
541.671	22.62
542.014	22.78
542.358	22.94
542.701	23.08
543.045	23.25
543.389	23.43
543.732	23.62
544.075	23.78
544.419	23.94
544.762	24.12
545.105	24.31
545.449	24.51
545.792	24.71
546.135	24.95
546.478	25.2
546.821	25.47
547.165	25.69
547.508	25.92
547.851	26.17
548.194	26.43
548.536	26.71
548.879	27.02
549.222	27.3
549.565	27.56
549.908	27.84
550.25	28.1
550.593	28.36
550.936	28.65
551.278	28.92
551.621	29.21
551.963	29.51
552.306	29.78
552.648	30.04
552.991	30.42
553.333	30.67
553.675	30.92
554.017	31.16
554.36	31.43
554.702	31.73
555.044	31.99
555.386	32.25
555.728	32.53
556.07	32.83
556.412	33.11
556.754	33.38
557.096	33.7
557.438	34.03
557.78	34.31
558.121	34.52
558.463	34.84
558.805	35.19
559.147	35.49
559.488	35.81
559.83	36.11
560.171	36.3
560.513	36.61
560.854	36.93
561.196	37.19
561.537	37.51
561.878	37.77
562.22	38.03
562.561	38.26
562.902	38.52
563.243	38.73
563.584	38.97
563.925	39.24
564.266	39.45
564.607	39.65
564.948	39.89
565.289	40.14
565.63	40.42
565.971	40.64
566.312	40.84
566.653	41.03
566.993	41.31
567.334	41.55
567.675	41.76
568.015	41.98
568.356	42.19
568.696	42.45
569.037	42.66
569.377	42.89
569.718	43.11
570.058	43.31
570.398	43.54
570.739	43.8
571.079	44
571.419	44.23
571.759	44.48
572.099	44.69
572.439	44.92
572.779	45.17
573.119	45.35
573.459	45.56
573.799	45.78
574.139	45.94
574.479	46.09
574.819	46.26
575.158	46.38
575.498	46.62
575.838	46.77
576.177	46.97
576.517	47.18
576.856	47.39
577.196	47.63
577.535	47.83
577.875	48
578.214	48.19
578.553	48.41
578.893	48.66
579.232	48.86
579.571	49.1
579.91	49.18
580.25	49.41
580.589	49.56
580.928	49.74
581.267	49.88
581.606	50.06
581.945	50.24
582.283	50.54
582.622	50.69
582.961	50.85
583.3	51
583.639	51.19
583.977	51.38
584.316	51.48
584.654	51.64
584.993	51.81
585.332	51.97
585.67	52.1
586.008	52.2
586.347	52.39
586.685	52.53
587.024	52.71
587.362	52.82
587.7	52.96
588.038	53.06
588.376	53.26
588.715	53.43
589.053	53.56
589.391	53.55
589.729	53.7
590.067	53.89
590.404	54.03
590.742	54.13
591.08	54.23
591.418	54.33
591.756	54.46
592.093	54.5
592.431	54.66
592.769	54.74
593.106	54.84
593.444	54.89
593.781	54.91
594.119	54.95
594.456	55.05
594.793	55.14
595.131	55.21
595.468	55.24
595.805	55.33
596.143	55.51
596.48	55.69
596.817	55.76
597.154	55.81
597.491	55.9
597.828	55.98
598.165	56.01
598.502	56.12
598.839	56.13
599.176	56.27
599.512	56.31
599.849	56.41
600.186	56.5
600.523	56.61
600.859	56.74
601.196	56.94
601.532	56.98
601.869	57.09
602.205	57.2
602.542	57.24
602.878	57.31
603.215	57.29
603.551	57.36
603.887	57.39
604.223	57.41
604.56	57.51
604.896	57.54
605.232	57.64
605.568	57.71
605.904	57.83
606.24	57.88
606.576	57.92
606.912	58
607.248	58.1
607.583	58.22
607.919	58.22
608.255	58.17
608.591	58.27
608.926	58.31
609.262	58.41
609.597	58.53
609.933	58.53
610.268	58.55
610.604	58.57
610.939	58.65
611.275	58.65
611.61	58.6
611.945	58.7
612.281	58.73
612.616	58.75
612.951	58.8
613.286	58.85
613.621	58.91
613.956	58.98
614.291	58.91
614.626	58.9
614.961	59.07
615.296	59.18
615.631	59.31
615.966	59.39
616.3	59.43
616.635	59.45
616.97	59.64
617.304	59.79
617.639	59.79
617.973	59.77
618.308	59.87
618.642	60.05
618.977	60
619.311	60.09
619.646	60.06
619.98	60.14
620.314	60.29
620.648	60.34
620.983	60.31
621.317	60.34
621.651	60.28
621.985	60.3
622.319	60.23
622.653	60.15
622.987	60.22
623.321	60.28
623.655	60.26
623.988	60.21
624.322	60.21
624.656	60.29
624.99	60.34
625.323	60.4
625.657	60.36
625.99	60.5
626.324	60.46
626.657	60.55
626.991	60.56
627.324	60.45
627.658	60.51
627.991	60.55
628.324	60.57
628.657	60.66
628.991	60.63
629.324	60.69
629.657	60.71
629.99	60.67
630.323	60.63
630.656	60.63
630.989	60.72
631.322	60.83
631.655	60.92
631.987	60.88
632.32	60.86
632.653	60.84
632.986	60.75
633.318	60.71
633.651	60.64
633.984	60.6
634.316	60.63
634.649	60.65
634.981	60.65
635.313	60.66
635.646	60.69
635.978	60.75
636.31	60.83
636.643	61
636.975	61.12
637.307	61.17
637.639	61.26
637.971	61.26
638.303	61.14
638.635	61.17
638.967	61.26
639.299	61.27
639.631	61.34
639.963	61.48
640.295	61.65
640.626	61.73
640.958	61.7
641.29	61.77
641.621	61.74
641.953	61.84
642.285	61.87
642.616	61.84
642.948	61.85
643.279	61.76
643.61	61.71
643.942	61.69
644.273	61.63
644.604	61.68
644.936	61.7
645.267	61.75
645.598	61.59
645.929	61.65
646.26	61.78
646.591	61.79
646.922	61.71
647.253	61.85
647.584	61.87
647.915	61.89
648.245	61.9
648.576	61.99
648.907	62
649.238	62.08
649.568	62.15
649.899	62.1
650.229	62.03
650.56	62.04
650.89	61.96
651.221	62.04
651.551	62.02
651.882	62.03
652.212	61.93
652.542	61.96
652.872	62
653.203	61.93
653.533	61.95
653.863	62.08
654.193	62
654.523	61.95
654.853	62.02
655.183	62.07
655.513	62.1
655.843	62.08
656.172	62.13
656.502	62.23
656.832	62.21
657.162	62.42
657.491	62.42
657.821	62.46
658.15	62.41
658.48	62.44
658.809	62.38
659.139	62.47
659.468	62.59
659.798	62.56
660.127	62.59
660.456	62.73
660.785	62.6
661.115	62.66
661.444	62.74
661.773	62.83
662.102	62.77
