Data from BU26842_Reflection_00004.txt Node
Date: Mon Nov 18 16:38:31 EST 2019
User: vgr7
Spectrometer: USB2G7710
Scans to average: 3
Trigger mode: 4
Integration Time (sec): 2.000000E-2
Electric dark correction enabled: true
Boxcar width: 10
XAxis mode: Wavelengths
Number of Pixels in Spectrum: 2048
>>>>>Begin Spectral Data<<<<<
177.721	-77.29
178.105	-44.47
178.488	-36.19
178.871	-2.99
179.254	10.08
179.636	-150.68
180.019	-124.34
180.402	81.4
180.785	-9.28
181.168	-57.58
181.55	13.34
181.933	325.45
182.316	-658.62
182.698	-759.5
183.081	-386.15
183.463	-43.53
183.846	-47.44
184.228	-30.92
184.611	-48.97
184.993	-76.91
185.376	-188.87
185.758	-541.28
186.14	1388.7
186.522	1013.18
186.904	1724.37
187.287	12996.55
187.669	-263.15
188.051	-217.5
188.433	-164.22
188.815	-155.3
189.197	-193.07
189.579	-148.16
189.961	-169.18
190.342	-151.86
190.724	-126.56
191.106	-134.56
191.488	-143.85
191.869	-103.61
192.251	-115.31
192.633	-105.02
193.014	-68.56
193.396	-66.92
193.777	-58.97
194.159	-37
194.54	-46.07
194.922	-43.19
195.303	-43.2
195.684	-39.47
196.065	-33.18
196.447	-30.98
196.828	-38.46
197.209	-43.43
197.59	-68.88
197.971	-63.27
198.352	-59.92
198.733	-73.11
199.114	-54.11
199.495	-56.78
199.876	-72.93
200.257	-59.5
200.638	-72.03
201.018	-132.7
201.399	-102
201.78	-84.28
202.16	-130.57
202.541	-144.82
202.922	-207.61
203.302	-256.07
203.683	-347.46
204.063	-445.74
204.444	-410.95
204.824	-300.8
205.204	-212.16
205.585	-171.69
205.965	-163.36
206.345	-211.96
206.725	-204.79
207.106	-314.15
207.486	-387.34
207.866	-440.65
208.246	-369.42
208.626	-261.25
209.006	-175.89
209.386	-242.61
209.766	-248.36
210.145	-200.62
210.525	-162.91
210.905	-120.46
211.285	-94.26
211.664	-75.61
212.044	-70.96
212.424	-66.18
212.803	-55.23
213.183	-56.07
213.562	-49.31
213.942	-36.29
214.321	-21.22
214.701	-20.04
215.08	-19.63
215.459	-4.3
215.838	5.83
216.218	1.14
216.597	6.78
216.976	-0.77
217.355	0.09
217.734	-2.34
218.113	2.36
218.492	3.95
218.871	-6.61
219.25	-6.65
219.629	-18.63
220.008	-18.01
220.387	-14.02
220.766	-21.22
221.144	-29.02
221.523	-19.02
221.902	-27.65
222.28	-49.59
222.659	-46.25
223.037	-42.29
223.416	-48.7
223.794	-61.37
224.173	-48.89
224.551	-50.83
224.929	-51.06
225.308	-42.49
225.686	-50.13
226.064	-37.7
226.442	-33.46
226.821	-27.51
227.199	-26.98
227.577	-19.7
227.955	-20.41
228.333	-19.45
228.711	-16.88
229.089	-13.54
229.467	-16.16
229.845	-14.66
230.222	-14.64
230.6	-14.46
230.978	-13.33
231.356	-13.13
231.733	-11.23
232.111	-11.34
232.488	-13.01
232.866	-11.6
233.243	-9.7
233.621	-6.14
233.998	-4.73
234.376	-7.27
234.753	-7.54
235.13	-5.54
235.508	-4.95
235.885	-3.73
236.262	-5.54
236.639	-5.99
237.016	-5.42
237.393	-3.8
237.77	-3.47
238.147	-0.98
238.524	0.13
238.901	1.99
239.278	2.94
239.655	3.49
240.032	3.32
240.409	3.98
240.785	3.81
241.162	3.68
241.539	3.67
241.915	3.19
242.292	3.32
242.668	3.74
243.045	3.75
243.421	3.54
243.798	3.27
244.174	3.78
244.551	3.53
244.927	3.41
245.303	3.64
245.679	3.96
246.056	3.87
246.432	3.67
246.808	3.4
247.184	3.01
247.56	2.87
247.936	3
248.312	3.06
248.688	3.34
249.064	3.05
249.44	2.97
249.815	2.98
250.191	3.21
250.567	3.14
250.943	2.83
251.318	2.77
251.694	2.8
252.069	2.65
252.445	2.64
252.82	2.55
253.196	2.12
253.571	1.88
253.947	1.97
254.322	2.13
254.697	2.38
255.073	2.68
255.448	2.46
255.823	2.34
256.198	2.22
256.573	2.17
256.948	2.58
257.323	2.81
257.698	2.96
258.073	2.85
258.448	2.91
258.823	3.09
259.198	3.14
259.573	3.24
259.948	3.02
260.322	3.18
260.697	3.22
261.072	3.28
261.446	3.26
261.821	3.1
262.195	3.05
262.57	2.86
262.944	2.8
263.319	2.8
263.693	2.87
264.067	2.85
264.442	2.95
264.816	2.79
265.19	2.47
265.564	2.35
265.938	2.23
266.313	2.09
266.687	1.88
267.061	1.94
267.435	1.89
267.809	2.01
268.183	1.9
268.556	1.8
268.93	1.76
269.304	1.95
269.678	2.14
270.051	2.02
270.425	1.89
270.799	2.04
271.172	2.26
271.546	2.14
271.919	2.2
272.293	1.97
272.666	2.04
273.04	2.2
273.413	2.13
273.787	2.14
274.16	2.07
274.533	2.25
274.906	2.09
275.279	2.05
275.653	2.03
276.026	2.17
276.399	2.4
276.772	2.43
277.145	2.23
277.518	2.18
277.891	2.35
278.263	2.47
278.636	2.32
279.009	2.32
279.382	2.52
279.755	2.46
280.127	2.62
280.5	2.75
280.872	2.77
281.245	2.88
281.617	3.03
281.99	3.23
282.362	3.23
282.735	3.23
283.107	3.27
283.479	3.42
283.852	3.33
284.224	3.14
284.596	3.22
284.968	3.23
285.34	3.18
285.713	3.08
286.085	3.14
286.457	3.14
286.829	3.17
287.201	3.17
287.572	3.12
287.944	3.09
288.316	3.07
288.688	2.97
289.06	2.96
289.431	2.96
289.803	2.77
290.175	2.52
290.546	2.63
290.918	2.59
291.289	2.43
291.661	2.46
292.032	2.57
292.403	2.54
292.775	2.65
293.146	2.6
293.517	2.58
293.889	2.63
294.26	2.68
294.631	2.59
295.002	2.5
295.373	2.59
295.744	2.65
296.115	2.54
296.486	2.51
296.857	2.58
297.228	2.56
297.599	2.66
297.97	2.86
298.34	2.87
298.711	2.96
299.082	3.05
299.452	3.07
299.823	3.14
300.194	3.16
300.564	3.07
300.935	3.21
301.305	3.25
301.676	3.24
302.046	3.17
302.416	3.25
302.787	3.28
303.157	3.36
303.527	3.1
303.897	3.21
304.267	3.49
304.637	3.44
305.008	3.42
305.378	3.37
305.748	3.43
306.117	3.5
306.487	3.4
306.857	3.38
307.227	3.35
307.597	3.29
307.967	3.29
308.336	3.32
308.706	3.29
309.076	3.41
309.445	3.22
309.815	3.29
310.184	3.28
310.554	3.27
310.923	3.23
311.293	3.38
311.662	3.21
312.031	3
312.401	2.88
312.77	2.95
313.139	3.08
313.508	3.02
313.877	2.89
314.246	2.89
314.616	2.93
314.985	2.88
315.353	2.76
315.722	2.72
316.091	2.65
316.46	2.55
316.829	2.43
317.198	2.54
317.567	2.5
317.935	2.44
318.304	2.43
318.672	2.45
319.041	2.46
319.41	2.56
319.778	2.53
320.147	2.67
320.515	2.54
320.883	2.28
321.252	2.22
321.62	2.22
321.988	2.28
322.357	2.32
322.725	2.38
323.093	2.48
323.461	2.53
323.829	2.61
324.197	2.65
324.565	2.68
324.933	2.77
325.301	2.82
325.669	2.78
326.037	2.74
326.405	2.64
326.772	2.78
327.14	2.87
327.508	2.91
327.875	2.74
328.243	2.77
328.61	2.95
328.978	2.95
329.346	3.02
329.713	2.97
330.08	2.96
330.448	2.9
330.815	2.77
331.182	2.74
331.55	2.81
331.917	2.82
332.284	2.81
332.651	2.67
333.018	2.6
333.385	2.63
333.752	2.71
334.119	2.87
334.486	2.7
334.853	2.61
335.22	2.65
335.587	2.62
335.954	2.63
336.32	2.6
336.687	2.67
337.054	2.66
337.42	2.7
337.787	2.57
338.153	2.63
338.52	2.72
338.886	2.65
339.253	2.54
339.619	2.62
339.986	2.63
340.352	2.69
340.718	2.69
341.084	2.82
341.451	2.83
341.817	2.84
342.183	2.82
342.549	2.81
342.915	2.85
343.281	2.97
343.647	2.92
344.013	2.91
344.379	2.83
344.745	2.95
345.11	2.95
345.476	3.07
345.842	3.1
346.208	3.15
346.573	3.27
346.939	3.34
347.304	3.23
347.67	3.17
348.035	3.23
348.401	3.14
348.766	3.09
349.132	3.11
349.497	2.99
349.862	3.12
350.228	3.15
350.593	3.12
350.958	3.12
351.323	3.23
351.688	3.23
352.053	3.27
352.418	3.19
352.783	3.2
353.148	3.16
353.513	3.09
353.878	3.02
354.243	2.99
354.608	2.89
354.972	2.9
355.337	2.91
355.702	2.88
356.066	2.96
356.431	2.91
356.795	2.86
357.16	2.93
357.524	2.85
357.889	2.8
358.253	2.86
358.618	2.92
358.982	2.85
359.346	2.81
359.71	2.77
360.075	2.78
360.439	2.81
360.803	2.79
361.167	2.81
361.531	2.82
361.895	2.8
362.259	2.82
362.623	2.83
362.987	2.85
363.351	2.9
363.714	2.94
364.078	2.91
364.442	2.92
364.806	2.93
365.169	2.94
365.533	3.03
365.896	3.03
366.26	2.97
366.623	3.01
366.987	3.05
367.35	3.06
367.714	3.02
368.077	2.99
368.44	3.1
368.803	3.08
369.167	3.03
369.53	3.05
369.893	3.1
370.256	3.14
370.619	3.16
370.982	3.02
371.345	3.01
371.708	3.08
372.071	3.1
372.434	3.03
372.797	3.01
373.159	2.95
373.522	2.95
373.885	2.94
374.247	2.9
374.61	2.94
374.973	2.97
375.335	2.95
375.698	2.92
376.06	2.85
376.423	2.87
376.785	2.95
377.147	2.95
377.51	2.96
377.872	2.97
378.234	3
378.596	3.07
378.958	3.02
379.321	3.04
379.683	3.04
380.045	3.05
380.407	3.07
380.769	3.07
381.13	3.03
381.492	3.03
381.854	3.05
382.216	3.01
382.578	2.98
382.939	2.98
383.301	3
383.663	3
384.024	3.02
384.386	3.07
384.747	3.07
385.109	3.08
385.47	3.08
385.832	3.08
386.193	3.1
386.554	3.12
386.916	3.07
387.277	3.1
387.638	3.14
387.999	3.11
388.36	3.17
388.721	3.17
389.082	3.19
389.443	3.18
389.804	3.2
390.165	3.2
390.526	3.22
390.887	3.2
391.248	3.22
391.609	3.2
391.969	3.14
392.33	3.15
392.691	3.14
393.051	3.12
393.412	3.13
393.772	3.09
394.133	3.12
394.493	3.11
394.854	3.07
395.214	3.04
395.574	3.07
395.935	3.01
396.295	3.02
396.655	3
397.015	3
397.376	2.97
397.736	3
398.096	3.04
398.456	3.06
398.816	3.06
399.176	3.02
399.535	3.02
399.895	2.99
400.255	3
400.615	3.02
400.975	3
401.334	3.04
401.694	3.03
402.054	3.07
402.413	3.08
402.773	3.1
403.132	3.08
403.492	3.1
403.851	3.12
404.211	3.11
404.57	3.11
404.929	3.17
405.288	3.18
405.648	3.13
406.007	3.11
406.366	3.09
406.725	3.14
407.084	3.15
407.443	3.15
407.802	3.15
408.161	3.16
408.52	3.15
408.879	3.13
409.238	3.12
409.596	3.11
409.955	3.08
410.314	3.09
410.673	3.09
411.031	3.11
411.39	3.11
411.748	3.1
412.107	3.12
412.465	3.08
412.824	3.08
413.182	3.09
413.54	3.1
413.899	3.15
414.257	3.16
414.615	3.15
414.974	3.15
415.332	3.12
415.69	3.11
416.048	3.1
416.406	3.1
416.764	3.08
417.122	3.08
417.48	3.08
417.838	3.08
418.195	3.09
418.553	3.07
418.911	3.07
419.269	3.09
419.626	3.09
419.984	3.09
420.342	3.08
420.699	3.09
421.057	3.09
421.414	3.06
421.772	3.04
422.129	3.04
422.486	3.03
422.844	3.02
423.201	3.01
423.558	3.01
423.915	3.02
424.273	3.03
424.63	3.02
424.987	3.03
425.344	3.02
425.701	3.01
426.058	3.01
426.415	3
426.772	2.98
427.128	2.97
427.485	2.96
427.842	2.95
428.199	2.94
428.555	2.92
428.912	2.92
429.269	2.95
429.625	2.95
429.982	2.96
430.338	2.98
430.695	2.98
431.051	2.96
431.407	2.98
431.764	2.97
432.12	2.97
432.476	2.96
432.832	2.95
433.189	2.96
433.545	2.96
433.901	2.95
434.257	2.97
434.613	2.99
434.969	3.01
435.325	3.02
435.681	3.02
436.036	3.03
436.392	3.03
436.748	3.01
437.104	3
437.459	3
437.815	2.99
438.171	3
438.526	3.02
438.882	3.01
439.237	3.02
439.593	3.03
439.948	3.04
440.304	3.06
440.659	3.06
441.014	3.06
441.369	3.05
441.725	3.04
442.08	3.02
442.435	3.01
442.79	3
443.145	3
443.5	2.98
443.855	2.98
444.21	2.98
444.565	2.99
444.92	2.99
445.275	2.98
445.629	2.98
445.984	2.98
446.339	2.98
446.693	2.96
447.048	2.95
447.403	2.93
447.757	2.93
448.112	2.92
448.466	2.9
448.82	2.92
449.175	2.93
449.529	2.94
449.883	2.94
450.238	2.94
450.592	2.94
450.946	2.95
451.3	2.95
451.654	2.96
452.008	2.95
452.362	2.94
452.716	2.97
453.07	2.97
453.424	2.97
453.778	2.95
454.132	2.97
454.486	2.97
454.839	2.99
455.193	2.97
455.547	2.95
455.9	2.98
456.254	2.97
456.607	2.97
456.961	2.98
457.314	2.99
457.668	3
458.021	3.01
458.375	3
458.728	2.99
459.081	2.99
459.434	2.98
459.787	3.02
460.141	3.02
460.494	3
460.847	2.99
461.2	2.99
461.553	2.99
461.906	2.99
462.259	2.99
462.611	3.01
462.964	3.03
463.317	3.03
463.67	3.03
464.022	3.03
464.375	3.01
464.728	3
465.08	2.99
465.433	2.96
465.785	2.98
466.138	3
466.49	3
466.843	3.01
467.195	2.96
467.547	2.96
467.899	2.97
468.252	2.98
468.604	2.97
468.956	2.96
469.308	2.97
469.66	2.95
470.012	2.97
470.364	2.97
470.716	2.97
471.068	2.95
471.42	2.96
471.772	2.99
472.123	3
472.475	3.02
472.827	3.06
473.178	3.05
473.53	3.04
473.882	3.05
474.233	3.06
474.585	3.07
474.936	3.07
475.288	3.08
475.639	3.09
475.99	3.11
476.342	3.11
476.693	3.12
477.044	3.15
477.395	3.15
477.746	3.15
478.097	3.14
478.448	3.16
478.8	3.15
479.15	3.11
479.501	3.12
479.852	3.11
480.203	3.1
480.554	3.12
480.905	3.13
481.255	3.13
481.606	3.15
481.957	3.15
482.307	3.15
482.658	3.14
483.009	3.15
483.359	3.15
483.709	3.17
484.06	3.16
484.41	3.16
484.761	3.15
485.111	3.15
485.461	3.16
485.811	3.16
486.162	3.15
486.512	3.16
486.862	3.15
487.212	3.16
487.562	3.17
487.912	3.16
488.262	3.15
488.612	3.15
488.961	3.14
489.311	3.14
489.661	3.14
490.011	3.14
490.36	3.14
490.71	3.14
491.06	3.12
491.409	3.11
491.759	3.12
492.108	3.12
492.458	3.13
492.807	3.12
493.157	3.13
493.506	3.14
493.855	3.14
494.204	3.15
494.554	3.15
494.903	3.14
495.252	3.15
495.601	3.16
495.95	3.17
496.299	3.17
496.648	3.17
496.997	3.18
497.346	3.19
497.695	3.21
498.043	3.21
498.392	3.22
498.741	3.23
499.09	3.21
499.438	3.23
499.787	3.22
500.135	3.22
500.484	3.22
500.832	3.25
501.181	3.25
501.529	3.25
501.878	3.26
502.226	3.27
502.574	3.27
502.923	3.27
503.271	3.24
503.619	3.26
503.967	3.26
504.315	3.27
504.663	3.27
505.011	3.28
505.359	3.28
505.707	3.27
506.055	3.29
506.403	3.32
506.751	3.31
507.098	3.32
507.446	3.35
507.794	3.35
508.141	3.34
508.489	3.34
508.837	3.33
509.184	3.32
509.531	3.32
509.879	3.35
510.226	3.38
510.574	3.4
510.921	3.4
511.268	3.41
511.616	3.42
511.963	3.41
512.31	3.4
512.657	3.41
513.004	3.45
513.351	3.46
513.698	3.47
514.045	3.46
514.392	3.47
514.739	3.46
515.086	3.46
515.432	3.47
515.779	3.47
516.126	3.5
516.473	3.51
516.819	3.5
517.166	3.5
517.512	3.47
517.859	3.49
518.205	3.47
518.552	3.48
518.898	3.49
519.245	3.5
519.591	3.49
519.937	3.48
520.283	3.47
520.629	3.48
520.976	3.48
521.322	3.5
521.668	3.5
522.014	3.51
522.36	3.51
522.706	3.51
523.052	3.52
523.398	3.53
523.743	3.54
524.089	3.55
524.435	3.54
524.781	3.57
525.126	3.57
525.472	3.58
525.817	3.58
526.163	3.57
526.509	3.59
526.854	3.6
527.199	3.61
527.545	3.61
527.89	3.62
528.235	3.62
528.581	3.63
528.926	3.62
529.271	3.62
529.616	3.63
529.961	3.63
530.306	3.62
530.651	3.62
530.996	3.62
531.341	3.62
531.686	3.63
532.031	3.62
532.376	3.62
532.721	3.62
533.065	3.63
533.41	3.64
533.755	3.63
534.099	3.63
534.444	3.61
534.788	3.62
535.133	3.62
535.477	3.61
535.822	3.61
536.166	3.62
536.51	3.63
536.855	3.62
537.199	3.62
537.543	3.64
537.887	3.64
538.231	3.63
538.576	3.64
538.92	3.64
539.264	3.65
539.608	3.65
539.951	3.63
540.295	3.62
540.639	3.63
540.983	3.63
541.327	3.62
541.671	3.63
542.014	3.62
542.358	3.62
542.701	3.64
543.045	3.63
543.389	3.64
543.732	3.64
544.075	3.66
544.419	3.66
544.762	3.64
545.105	3.66
545.449	3.68
545.792	3.69
546.135	3.69
546.478	3.68
546.821	3.67
547.165	3.69
547.508	3.69
547.851	3.69
548.194	3.68
548.536	3.73
548.879	3.73
549.222	3.75
549.565	3.71
549.908	3.7
550.25	3.69
550.593	3.66
550.936	3.65
551.278	3.63
551.621	3.64
551.963	3.67
552.306	3.61
552.648	3.59
552.991	3.59
553.333	3.59
553.675	3.58
554.017	3.58
554.36	3.63
554.702	3.66
555.044	3.65
555.386	3.68
555.728	3.65
556.07	3.66
556.412	3.63
556.754	3.64
557.096	3.63
557.438	3.63
557.78	3.65
558.121	3.67
558.463	3.69
558.805	3.69
559.147	3.67
559.488	3.71
559.83	3.72
560.171	3.71
560.513	3.75
560.854	3.72
561.196	3.76
561.537	3.74
561.878	3.69
562.22	3.7
562.561	3.68
562.902	3.71
563.243	3.68
563.584	3.7
563.925	3.72
564.266	3.76
564.607	3.81
564.948	3.83
565.289	3.81
565.63	3.81
565.971	3.8
566.312	3.82
566.653	3.81
566.993	3.79
567.334	3.77
567.675	3.77
568.015	3.81
568.356	3.8
568.696	3.8
569.037	3.81
569.377	3.81
569.718	3.81
570.058	3.81
570.398	3.82
570.739	3.83
571.079	3.82
571.419	3.79
571.759	3.77
572.099	3.74
572.439	3.73
572.779	3.74
573.119	3.74
573.459	3.74
573.799	3.76
574.139	3.76
574.479	3.76
574.819	3.73
575.158	3.73
575.498	3.73
575.838	3.73
576.177	3.72
576.517	3.73
576.856	3.77
577.196	3.76
577.535	3.76
577.875	3.78
578.214	3.76
578.553	3.78
578.893	3.77
579.232	3.8
579.571	3.85
579.91	3.8
580.25	3.84
580.589	3.79
580.928	3.8
581.267	3.82
581.606	3.81
581.945	3.8
582.283	3.78
582.622	3.77
582.961	3.79
583.3	3.8
583.639	3.76
583.977	3.71
584.316	3.71
584.654	3.72
584.993	3.69
585.332	3.71
585.67	3.69
586.008	3.7
586.347	3.68
586.685	3.64
587.024	3.66
587.362	3.66
587.7	3.68
588.038	3.69
588.376	3.67
588.715	3.65
589.053	3.68
589.391	3.69
589.729	3.7
590.067	3.68
590.404	3.7
590.742	3.72
591.08	3.7
591.418	3.73
591.756	3.7
592.093	3.73
592.431	3.73
592.769	3.75
593.106	3.71
593.444	3.73
593.781	3.73
594.119	3.78
594.456	3.77
594.793	3.78
595.131	3.74
595.468	3.75
595.805	3.79
596.143	3.82
596.48	3.8
596.817	3.8
597.154	3.82
597.491	3.81
597.828	3.8
598.165	3.82
598.502	3.76
598.839	3.78
599.176	3.75
599.512	3.78
599.849	3.78
600.186	3.79
600.523	3.8
600.859	3.79
601.196	3.75
601.532	3.72
601.869	3.72
602.205	3.77
602.542	3.76
602.878	3.74
603.215	3.72
603.551	3.76
603.887	3.76
604.223	3.74
604.56	3.8
604.896	3.79
605.232	3.8
605.568	3.83
605.904	3.81
606.24	3.83
606.576	3.81
606.912	3.81
607.248	3.83
607.583	3.83
607.919	3.85
608.255	3.86
608.591	3.89
608.926	3.88
609.262	3.87
609.597	3.85
609.933	3.86
610.268	3.86
610.604	3.87
610.939	3.83
611.275	3.83
611.61	3.82
611.945	3.84
612.281	3.83
612.616	3.84
612.951	3.89
613.286	3.93
613.621	3.92
613.956	3.9
614.291	3.9
614.626	3.84
614.961	3.85
615.296	3.82
615.631	3.8
615.966	3.77
616.3	3.73
616.635	3.77
616.97	3.78
617.304	3.72
617.639	3.66
617.973	3.66
618.308	3.71
618.642	3.68
618.977	3.64
619.311	3.63
619.646	3.66
619.98	3.64
620.314	3.58
620.648	3.63
620.983	3.65
621.317	3.64
621.651	3.67
621.985	3.7
622.319	3.74
622.653	3.76
622.987	3.77
623.321	3.78
623.655	3.79
623.988	3.86
624.322	3.86
624.656	3.92
624.99	3.97
625.323	3.94
625.657	3.96
625.99	3.98
626.324	4
626.657	4.01
626.991	3.99
627.324	3.99
627.658	3.93
627.991	3.96
628.324	3.96
628.657	3.97
628.991	3.92
629.324	3.9
629.657	3.92
629.99	3.98
630.323	4
630.656	4
630.989	3.98
631.322	3.99
631.655	3.97
631.987	3.92
632.32	3.93
632.653	3.87
632.986	3.89
633.318	3.84
633.651	3.82
633.984	3.84
634.316	3.83
634.649	3.84
634.981	3.8
635.313	3.78
635.646	3.77
635.978	3.79
636.31	3.79
636.643	3.79
636.975	3.74
637.307	3.76
637.639	3.75
637.971	3.69
638.303	3.7
638.635	3.73
638.967	3.79
639.299	3.76
639.631	3.79
639.963	3.72
640.295	3.73
640.626	3.74
640.958	3.85
641.29	3.87
641.621	3.83
641.953	3.82
642.285	3.8
642.616	3.89
642.948	3.83
643.279	3.81
643.61	3.78
643.942	3.81
644.273	3.8
644.604	3.81
644.936	3.82
645.267	3.78
645.598	3.75
645.929	3.78
646.26	3.84
646.591	3.86
646.922	3.89
647.253	3.91
647.584	3.85
647.915	3.7
648.245	3.7
648.576	3.77
648.907	3.78
649.238	3.84
649.568	3.81
649.899	3.83
650.229	3.91
650.56	3.94
650.89	3.88
651.221	3.83
651.551	3.79
651.882	3.83
652.212	3.9
652.542	3.92
652.872	3.78
653.203	3.77
653.533	3.74
653.863	3.75
654.193	3.8
654.523	3.8
654.853	3.92
655.183	3.89
655.513	3.89
655.843	3.94
656.172	3.9
656.502	3.94
656.832	4.01
657.162	3.98
657.491	3.95
657.821	4.01
658.15	4.04
658.48	4.08
658.809	4.05
659.139	4.03
659.468	4.07
659.798	4.13
660.127	4.13
660.456	4.17
660.785	4.24
661.115	4.24
661.444	4.29
661.773	4.23
662.102	4.29
662.431	4.3
662.76	4.33
663.089	4.35
663.418	4.29
663.747	4.25
664.076	4.24
664.404	4.21
664.733	4.26
665.062	4.23
665.39	4.19
665.719	4.19
666.048	4.17
666.376	4.12
666.705	4.13
667.033	4.13
667.362	4.17
667.69	4.06
668.018	3.97
668.347	3.92
668.675	3.98
669.003	4.04
669.331	4.03
669.659	4.01
669.987	3.96
670.315	4.01
670.643	4.04
670.971	4.11
671.299	4.25
671.627	4.26
671.955	4.34
672.283	4.43
672.61	4.38
672.938	4.43
673.266	4.51
673.593	4.59
673.921	4.55
674.249	4.48
674.576	4.48
674.904	4.55
675.231	4.49
675.558	4.42
675.886	4.42
676.213	4.47
676.54	4.56
