Data from BU26939_Reflection_00002.txt Node
Date: Tue Nov 19 10:56:34 EST 2019
User: vgr7
Spectrometer: USB2G7710
Scans to average: 3
Trigger mode: 4
Integration Time (sec): 2.000000E-2
Electric dark correction enabled: true
Boxcar width: 10
XAxis mode: Wavelengths
Number of Pixels in Spectrum: 2048
>>>>>Begin Spectral Data<<<<<
177.721	88.96
178.105	96.45
178.488	171.05
178.871	162.12
179.254	214.81
179.636	274.13
180.019	137.63
180.402	64.71
180.785	127.04
181.168	50.11
181.55	-325.93
181.933	731.31
182.316	-405.65
182.698	760.49
183.081	-1034.92
183.463	-445.98
183.846	-268.22
184.228	-9.69
184.611	-4.94
184.993	23.74
185.376	49.09
185.758	60.99
186.14	55.4
186.522	42.84
186.904	45.13
187.287	19.42
187.669	18.26
188.051	-16.63
188.433	-29.02
188.815	-59.07
189.197	-28.17
189.579	0.49
189.961	31.22
190.342	33.4
190.724	10.31
191.106	22.47
191.488	23.22
191.869	26.56
192.251	38.18
192.633	31.07
193.014	25.9
193.396	22.49
193.777	29.11
194.159	30.16
194.54	32.23
194.922	27.89
195.303	37.48
195.684	50.24
196.065	63.33
196.447	62.54
196.828	53.15
197.209	62.19
197.59	68.49
197.971	52.91
198.352	61.98
198.733	63.4
199.114	59.19
199.495	48.73
199.876	49.08
200.257	31.3
200.638	51.19
201.018	48.09
201.399	50.25
201.78	55.65
202.16	53.76
202.541	57.35
202.922	63.99
203.302	63.96
203.683	50.56
204.063	47.24
204.444	44.05
204.824	48.64
205.204	38
205.585	30.26
205.965	40.35
206.345	28.67
206.725	32.59
207.106	47.66
207.486	49.37
207.866	63.11
208.246	69.61
208.626	44.57
209.006	54.25
209.386	41.37
209.766	26.44
210.145	19.06
210.525	23.83
210.905	18.41
211.285	20.04
211.664	16.32
212.044	22.26
212.424	19.68
212.803	11.73
213.183	7.84
213.562	14.44
213.942	11.29
214.321	13.52
214.701	-0.95
215.08	-6.26
215.459	-5.48
215.838	-17.27
216.218	-31.79
216.597	-25.85
216.976	-30.72
217.355	-28.06
217.734	-37
218.113	-15.19
218.492	-27.19
218.871	-33.06
219.25	-44.6
219.629	-54.35
220.008	-68.32
220.387	-56.93
220.766	-37.24
221.144	-25.34
221.523	-46.93
221.902	-34.21
222.28	-25.95
222.659	-8.49
223.037	-21.39
223.416	-20.23
223.794	-14.5
224.173	-4.77
224.551	2.49
224.929	-4.42
225.308	-5.63
225.686	-6.85
226.064	-9.47
226.442	-2.63
226.821	-3.34
227.199	-0.45
227.577	1.93
227.955	4.2
228.333	2.2
228.711	4.51
229.089	5.1
229.467	5.12
229.845	3.6
230.222	6.77
230.6	6.57
230.978	9.94
231.356	6.66
231.733	8.49
232.111	5.11
232.488	1.75
232.866	4.34
233.243	5.28
233.621	7.03
233.998	5.96
234.376	3.46
234.753	4.7
235.13	3.77
235.508	1.81
235.885	1.34
236.262	3.31
236.639	3.14
237.016	2.6
237.393	3.87
237.77	3.28
238.147	2.43
238.524	1.94
238.901	1.72
239.278	2.21
239.655	1.09
240.032	2.03
240.409	1.73
240.785	1.68
241.162	2.29
241.539	1.57
241.915	1.96
242.292	2.55
242.668	2.26
243.045	2.61
243.421	3.01
243.798	3.34
244.174	3.24
244.551	3.35
244.927	3.39
245.303	3.32
245.679	3.48
246.056	3.41
246.432	3.51
246.808	3.43
247.184	3.5
247.56	3.53
247.936	3.62
248.312	4.08
248.688	3.89
249.064	3.67
249.44	4.02
249.815	4.07
250.191	4.04
250.567	4.18
250.943	4.01
251.318	3.88
251.694	3.48
252.069	3.4
252.445	3.35
252.82	3.42
253.196	3.32
253.571	3.42
253.947	3.47
254.322	3.65
254.697	3.84
255.073	3.65
255.448	3.67
255.823	3.45
256.198	3.64
256.573	3.74
256.948	3.57
257.323	3.29
257.698	3.21
258.073	3.16
258.448	3.26
258.823	3.18
259.198	3.18
259.573	3.15
259.948	3.11
260.322	2.96
260.697	3.13
261.072	3.29
261.446	3.23
261.821	3.24
262.195	3.23
262.57	3.15
262.944	3.27
263.319	3.29
263.693	3.21
264.067	3.02
264.442	3.08
264.816	3.18
265.19	3.27
265.564	3.17
265.938	3.17
266.313	3.05
266.687	3.22
267.061	3.45
267.435	3.67
267.809	3.57
268.183	3.64
268.556	3.3
268.93	3.23
269.304	3.16
269.678	3.09
270.051	2.99
270.425	2.96
270.799	2.8
271.172	2.81
271.546	2.98
271.919	3.01
272.293	3.09
272.666	2.97
273.04	2.94
273.413	2.98
273.787	3
274.16	2.85
274.533	2.9
274.906	2.91
275.279	2.85
275.653	2.82
276.026	2.74
276.399	2.91
276.772	2.98
277.145	2.97
277.518	2.88
277.891	2.92
278.263	3.09
278.636	3.16
279.009	3.05
279.382	2.76
279.755	2.69
280.127	2.57
280.5	2.57
280.872	2.64
281.245	2.72
281.617	2.75
281.99	2.76
282.362	2.67
282.735	2.42
283.107	2.27
283.479	2.36
283.852	2.49
284.224	2.45
284.596	2.4
284.968	2.4
285.34	2.57
285.713	2.65
286.085	2.44
286.457	2.38
286.829	2.41
287.201	2.56
287.572	2.53
287.944	2.64
288.316	2.76
288.688	2.77
289.06	2.85
289.431	2.83
289.803	2.87
290.175	2.93
290.546	3.06
290.918	3.18
291.289	3.06
291.661	3.02
292.032	3
292.403	2.94
292.775	2.98
293.146	2.96
293.517	2.86
293.889	2.84
294.26	2.94
294.631	3.07
295.002	3.12
295.373	3.07
295.744	3.05
296.115	2.99
296.486	2.98
296.857	2.82
297.228	2.72
297.599	2.76
297.97	2.81
298.34	2.79
298.711	2.75
299.082	2.88
299.452	2.96
299.823	3.06
300.194	3.13
300.564	3.09
300.935	3.02
301.305	3.03
301.676	3.12
302.046	3.07
302.416	3.03
302.787	3.04
303.157	3.1
303.527	3.11
303.897	3.1
304.267	2.97
304.637	3.09
305.008	3.22
305.378	3.37
305.748	3.39
306.117	3.44
306.487	3.6
306.857	3.62
307.227	3.6
307.597	3.53
307.967	3.48
308.336	3.46
308.706	3.42
309.076	3.46
309.445	3.55
309.815	3.52
310.184	3.49
310.554	3.35
310.923	3.38
311.293	3.31
311.662	3.37
312.031	3.48
312.401	3.41
312.77	3.44
313.139	3.34
313.508	3.18
313.877	3.16
314.246	3.04
314.616	3.18
314.985	3.14
315.353	3.14
315.722	3.21
316.091	3.35
316.46	3.47
316.829	3.49
317.198	3.41
317.567	3.51
317.935	3.54
318.304	3.79
318.672	3.81
319.041	3.81
319.41	3.78
319.778	3.74
320.147	3.73
320.515	3.71
320.883	3.68
321.252	3.81
321.62	3.82
321.988	3.89
322.357	3.74
322.725	3.66
323.093	3.51
323.461	3.52
323.829	3.44
324.197	3.49
324.565	3.61
324.933	3.6
325.301	3.57
325.669	3.47
326.037	3.34
326.405	3.38
326.772	3.41
327.14	3.24
327.508	3.27
327.875	3.38
328.243	3.32
328.61	3.29
328.978	3.19
329.346	3.16
329.713	3.09
330.08	3.17
330.448	3.27
330.815	3.43
331.182	3.32
331.55	3.39
331.917	3.29
332.284	3.21
332.651	3.21
333.018	3.18
333.385	3.27
333.752	3.27
334.119	3.32
334.486	3.39
334.853	3.58
335.22	3.61
335.587	3.55
335.954	3.53
336.32	3.48
336.687	3.58
337.054	3.53
337.42	3.49
337.787	3.32
338.153	3.26
338.52	3.25
338.886	3.24
339.253	3.19
339.619	3.18
339.986	3.12
340.352	3.09
340.718	3.06
341.084	3.03
341.451	3.02
341.817	2.96
342.183	2.91
342.549	2.87
342.915	2.85
343.281	2.83
343.647	2.81
344.013	2.84
344.379	2.74
344.745	2.76
345.11	2.74
345.476	2.83
345.842	2.82
346.208	2.77
346.573	2.81
346.939	2.75
347.304	2.79
347.67	2.8
348.035	2.86
348.401	2.9
348.766	2.85
349.132	3.04
349.497	3.03
349.862	2.91
350.228	2.96
350.593	2.92
350.958	2.95
351.323	2.99
351.688	3.08
352.053	3.06
352.418	3.13
352.783	3.21
353.148	3.18
353.513	3.22
353.878	3.18
354.243	3.13
354.608	3.2
354.972	3.14
355.337	3.14
355.702	3.13
356.066	3.13
356.431	3.13
356.795	3.06
357.16	3.03
357.524	3.12
357.889	3.05
358.253	3.06
358.618	3.05
358.982	3.02
359.346	2.99
359.71	3.04
360.075	3
360.439	2.98
360.803	2.98
361.167	2.98
361.531	3.04
361.895	3.07
362.259	3.1
362.623	3.1
362.987	3.09
363.351	2.99
363.714	2.98
364.078	3.02
364.442	2.98
364.806	3.03
365.169	3.05
365.533	3.06
365.896	3.1
366.26	3.09
366.623	3.12
366.987	3.12
367.35	3.13
367.714	3.1
368.077	3.17
368.44	3.22
368.803	3.21
369.167	3.13
369.53	3.11
369.893	3.08
370.256	3.06
370.619	3.01
370.982	3.05
371.345	3.12
371.708	3.11
372.071	3.1
372.434	3.04
372.797	3.05
373.159	3.07
373.522	3.01
373.885	3.03
374.247	2.97
374.61	2.95
374.973	2.96
375.335	3.05
375.698	2.97
376.06	2.97
376.423	2.97
376.785	2.98
377.147	2.99
377.51	2.98
377.872	3.02
378.234	3.1
378.596	3.17
378.958	3.13
379.321	3.11
379.683	3.14
380.045	3.15
380.407	3.12
380.769	3.1
381.13	3.13
381.492	3.15
381.854	3.23
382.216	3.24
382.578	3.24
382.939	3.21
383.301	3.24
383.663	3.19
384.024	3.2
384.386	3.23
384.747	3.25
385.109	3.23
385.47	3.27
385.832	3.2
386.193	3.26
386.554	3.22
386.916	3.23
387.277	3.23
387.638	3.27
387.999	3.28
388.36	3.29
388.721	3.28
389.082	3.28
389.443	3.25
389.804	3.24
390.165	3.23
390.526	3.24
390.887	3.21
391.248	3.21
391.609	3.2
391.969	3.2
392.33	3.19
392.691	3.2
393.051	3.15
393.412	3.22
393.772	3.2
394.133	3.22
394.493	3.2
394.854	3.18
395.214	3.16
395.574	3.16
395.935	3.18
396.295	3.22
396.655	3.2
397.015	3.21
397.376	3.25
397.736	3.24
398.096	3.21
398.456	3.24
398.816	3.27
399.176	3.27
399.535	3.25
399.895	3.25
400.255	3.26
400.615	3.27
400.975	3.24
401.334	3.21
401.694	3.25
402.054	3.27
402.413	3.27
402.773	3.28
403.132	3.27
403.492	3.25
403.851	3.24
404.211	3.24
404.57	3.21
404.929	3.2
405.288	3.21
405.648	3.23
406.007	3.23
406.366	3.22
406.725	3.22
407.084	3.25
407.443	3.24
407.802	3.25
408.161	3.24
408.52	3.24
408.879	3.26
409.238	3.25
409.596	3.27
409.955	3.26
410.314	3.26
410.673	3.27
411.031	3.28
411.39	3.3
411.748	3.3
412.107	3.33
412.465	3.33
412.824	3.35
413.182	3.34
413.54	3.33
413.899	3.33
414.257	3.34
414.615	3.32
414.974	3.33
415.332	3.31
415.69	3.31
416.048	3.31
416.406	3.32
416.764	3.32
417.122	3.32
417.48	3.33
417.838	3.33
418.195	3.33
418.553	3.34
418.911	3.32
419.269	3.33
419.626	3.33
419.984	3.32
420.342	3.3
420.699	3.31
421.057	3.3
421.414	3.32
421.772	3.33
422.129	3.33
422.486	3.31
422.844	3.33
423.201	3.34
423.558	3.34
423.915	3.34
424.273	3.34
424.63	3.35
424.987	3.35
425.344	3.35
425.701	3.35
426.058	3.36
426.415	3.36
426.772	3.34
427.128	3.34
427.485	3.35
427.842	3.37
428.199	3.37
428.555	3.38
428.912	3.35
429.269	3.33
429.625	3.35
429.982	3.36
430.338	3.37
430.695	3.36
431.051	3.37
431.407	3.35
431.764	3.34
432.12	3.34
432.476	3.34
432.832	3.35
433.189	3.34
433.545	3.31
433.901	3.31
434.257	3.33
434.613	3.31
434.969	3.31
435.325	3.3
435.681	3.29
436.036	3.32
436.392	3.34
436.748	3.37
437.104	3.36
437.459	3.37
437.815	3.37
438.171	3.38
438.526	3.37
438.882	3.37
439.237	3.37
439.593	3.36
439.948	3.37
440.304	3.36
440.659	3.37
441.014	3.39
441.369	3.38
441.725	3.38
442.08	3.39
442.435	3.41
442.79	3.41
443.145	3.41
443.5	3.41
443.855	3.41
444.21	3.41
444.565	3.42
444.92	3.44
445.275	3.42
445.629	3.41
445.984	3.43
446.339	3.43
446.693	3.44
447.048	3.44
447.403	3.43
447.757	3.44
448.112	3.44
448.466	3.43
448.82	3.44
449.175	3.46
449.529	3.48
449.883	3.47
450.238	3.47
450.592	3.48
450.946	3.48
451.3	3.49
451.654	3.48
452.008	3.48
452.362	3.48
452.716	3.51
453.07	3.51
453.424	3.5
453.778	3.51
454.132	3.5
454.486	3.53
454.839	3.54
455.193	3.54
455.547	3.55
455.9	3.57
456.254	3.57
456.607	3.54
456.961	3.54
457.314	3.53
457.668	3.55
458.021	3.55
458.375	3.54
458.728	3.52
459.081	3.5
459.434	3.49
459.787	3.5
460.141	3.49
460.494	3.5
460.847	3.51
461.2	3.5
461.553	3.51
461.906	3.5
462.259	3.5
462.611	3.52
462.964	3.52
463.317	3.52
463.67	3.54
464.022	3.55
464.375	3.55
464.728	3.56
465.08	3.56
465.433	3.57
465.785	3.58
466.138	3.6
466.49	3.64
466.843	3.65
467.195	3.62
467.547	3.63
467.899	3.61
468.252	3.62
468.604	3.63
468.956	3.64
469.308	3.62
469.66	3.63
470.012	3.59
470.364	3.6
470.716	3.59
471.068	3.58
471.42	3.59
471.772	3.6
472.123	3.6
472.475	3.59
472.827	3.58
473.178	3.58
473.53	3.57
473.882	3.55
474.233	3.54
474.585	3.56
474.936	3.57
475.288	3.58
475.639	3.58
475.99	3.55
476.342	3.55
476.693	3.56
477.044	3.57
477.395	3.58
477.746	3.58
478.097	3.57
478.448	3.58
478.8	3.59
479.15	3.6
479.501	3.61
479.852	3.61
480.203	3.63
480.554	3.63
480.905	3.64
481.255	3.64
481.606	3.66
481.957	3.67
482.307	3.68
482.658	3.69
483.009	3.7
483.359	3.71
483.709	3.72
484.06	3.72
484.41	3.72
484.761	3.73
485.111	3.73
485.461	3.74
485.811	3.74
486.162	3.74
486.512	3.74
486.862	3.74
487.212	3.74
487.562	3.74
487.912	3.75
488.262	3.75
488.612	3.75
488.961	3.75
489.311	3.75
489.661	3.76
490.011	3.75
490.36	3.75
490.71	3.74
491.06	3.74
491.409	3.75
491.759	3.75
492.108	3.75
492.458	3.75
492.807	3.75
493.157	3.75
493.506	3.75
493.855	3.73
494.204	3.74
494.554	3.75
494.903	3.73
495.252	3.74
495.601	3.73
495.95	3.75
496.299	3.76
496.648	3.76
496.997	3.73
497.346	3.72
497.695	3.74
498.043	3.76
498.392	3.76
498.741	3.75
499.09	3.77
499.438	3.78
499.787	3.79
500.135	3.78
500.484	3.79
500.832	3.8
501.181	3.84
501.529	3.83
501.878	3.84
502.226	3.87
502.574	3.86
502.923	3.87
503.271	3.86
503.619	3.84
503.967	3.84
504.315	3.86
504.663	3.84
505.011	3.83
505.359	3.8
505.707	3.78
506.055	3.79
506.403	3.77
506.751	3.75
507.098	3.76
507.446	3.78
507.794	3.78
508.141	3.79
508.489	3.79
508.837	3.76
509.184	3.76
509.531	3.75
509.879	3.75
510.226	3.76
510.574	3.77
510.921	3.8
511.268	3.79
511.616	3.8
511.963	3.82
512.31	3.82
512.657	3.82
513.004	3.81
513.351	3.8
513.698	3.82
514.045	3.82
514.392	3.81
514.739	3.8
515.086	3.8
515.432	3.8
515.779	3.79
516.126	3.84
516.473	3.83
516.819	3.84
517.166	3.86
517.512	3.84
517.859	3.83
518.205	3.83
518.552	3.83
518.898	3.83
519.245	3.84
519.591	3.85
519.937	3.86
520.283	3.9
520.629	3.93
520.976	3.91
521.322	3.92
521.668	3.92
522.014	3.93
522.36	3.94
522.706	3.94
523.052	3.95
523.398	3.95
523.743	3.97
524.089	3.97
524.435	3.97
524.781	3.99
525.126	3.98
525.472	3.99
525.817	4
526.163	4
526.509	3.99
526.854	3.99
527.199	4
527.545	3.99
527.89	3.97
528.235	3.99
528.581	3.99
528.926	4
529.271	4
529.616	4
529.961	4.01
530.306	4
530.651	4
530.996	4
531.341	4
531.686	4
532.031	3.99
532.376	4.01
532.721	4
533.065	4.01
533.41	4.01
533.755	4.01
534.099	4.01
534.444	4.01
534.788	4.02
535.133	4.03
535.477	4.02
535.822	4.03
536.166	4.01
536.51	4.02
536.855	4.02
537.199	4.02
537.543	4.04
537.887	4.03
538.231	4.03
538.576	4.02
538.92	4.03
539.264	4.03
539.608	4.03
539.951	4.03
540.295	4.03
540.639	4.04
540.983	4.04
541.327	4.05
541.671	4.07
542.014	4.08
542.358	4.09
542.701	4.1
543.045	4.1
543.389	4.12
543.732	4.12
544.075	4.13
544.419	4.16
544.762	4.14
545.105	4.16
545.449	4.18
545.792	4.19
546.135	4.2
546.478	4.21
546.821	4.22
547.165	4.25
547.508	4.27
547.851	4.27
548.194	4.26
548.536	4.26
548.879	4.25
549.222	4.24
549.565	4.24
549.908	4.23
550.25	4.22
550.593	4.21
550.936	4.21
551.278	4.2
551.621	4.15
551.963	4.18
552.306	4.19
552.648	4.18
552.991	4.19
553.333	4.19
553.675	4.2
554.017	4.17
554.36	4.14
554.702	4.14
555.044	4.15
555.386	4.14
555.728	4.16
556.07	4.17
556.412	4.17
556.754	4.16
557.096	4.2
557.438	4.2
557.78	4.21
558.121	4.21
558.463	4.21
558.805	4.25
559.147	4.24
559.488	4.21
559.83	4.24
560.171	4.25
560.513	4.23
560.854	4.23
561.196	4.26
561.537	4.28
561.878	4.27
562.22	4.26
562.561	4.29
562.902	4.27
563.243	4.26
563.584	4.28
563.925	4.32
564.266	4.28
564.607	4.3
564.948	4.3
565.289	4.32
565.63	4.3
565.971	4.3
566.312	4.29
566.653	4.3
566.993	4.28
567.334	4.3
567.675	4.3
568.015	4.29
568.356	4.32
568.696	4.3
569.037	4.32
569.377	4.3
569.718	4.3
570.058	4.32
570.398	4.32
570.739	4.3
571.079	4.27
571.419	4.33
571.759	4.31
572.099	4.32
572.439	4.32
572.779	4.34
573.119	4.34
573.459	4.35
573.799	4.35
574.139	4.37
574.479	4.35
574.819	4.37
575.158	4.4
575.498	4.4
575.838	4.43
576.177	4.42
576.517	4.46
576.856	4.47
577.196	4.46
577.535	4.44
577.875	4.42
578.214	4.44
578.553	4.41
578.893	4.42
579.232	4.44
579.571	4.46
579.91	4.47
580.25	4.47
580.589	4.45
580.928	4.46
581.267	4.46
581.606	4.48
581.945	4.46
582.283	4.45
582.622	4.43
582.961	4.4
583.3	4.4
583.639	4.41
583.977	4.4
584.316	4.43
584.654	4.45
584.993	4.46
585.332	4.42
585.67	4.42
586.008	4.45
586.347	4.46
586.685	4.42
587.024	4.43
587.362	4.47
587.7	4.51
588.038	4.53
588.376	4.54
588.715	4.57
589.053	4.57
589.391	4.58
589.729	4.56
590.067	4.57
590.404	4.59
590.742	4.59
591.08	4.64
591.418	4.63
591.756	4.66
592.093	4.71
592.431	4.72
592.769	4.72
593.106	4.69
593.444	4.69
593.781	4.71
594.119	4.71
594.456	4.68
594.793	4.69
595.131	4.65
595.468	4.64
595.805	4.63
596.143	4.66
596.48	4.66
596.817	4.68
597.154	4.68
597.491	4.65
597.828	4.66
598.165	4.63
598.502	4.62
598.839	4.59
599.176	4.59
599.512	4.61
599.849	4.63
600.186	4.63
600.523	4.64
600.859	4.63
601.196	4.6
601.532	4.63
601.869	4.61
602.205	4.64
602.542	4.64
602.878	4.62
603.215	4.63
603.551	4.6
603.887	4.61
604.223	4.6
604.56	4.63
604.896	4.66
605.232	4.65
605.568	4.68
605.904	4.68
606.24	4.67
606.576	4.68
606.912	4.67
607.248	4.69
607.583	4.69
607.919	4.71
608.255	4.75
608.591	4.78
608.926	4.79
609.262	4.77
609.597	4.77
609.933	4.79
610.268	4.74
610.604	4.76
610.939	4.81
611.275	4.82
611.61	4.83
611.945	4.79
612.281	4.84
612.616	4.83
612.951	4.92
613.286	4.89
613.621	4.88
613.956	4.91
614.291	4.88
614.626	4.84
614.961	4.83
615.296	4.85
615.631	4.83
615.966	4.83
616.3	4.87
616.635	4.89
616.97	4.86
617.304	4.87
617.639	4.9
617.973	4.78
618.308	4.81
618.642	4.8
618.977	4.78
619.311	4.8
619.646	4.81
619.98	4.75
620.314	4.78
620.648	4.82
620.983	4.8
621.317	4.89
621.651	4.91
621.985	4.94
622.319	4.89
622.653	4.89
622.987	4.92
623.321	4.92
623.655	4.89
623.988	4.93
624.322	4.91
624.656	4.91
624.99	4.97
625.323	4.93
625.657	4.99
625.99	5.03
626.324	4.97
626.657	4.91
626.991	4.88
627.324	4.85
627.658	4.86
627.991	4.9
628.324	4.86
628.657	4.83
628.991	4.8
629.324	4.83
629.657	4.83
629.99	4.8
630.323	4.79
630.656	4.82
630.989	4.79
631.322	4.84
631.655	4.83
631.987	4.82
632.32	4.86
632.653	4.8
632.986	4.8
633.318	4.86
633.651	4.95
633.984	4.99
634.316	5.03
634.649	5.03
634.981	4.99
635.313	4.99
635.646	5.05
635.978	5.09
636.31	5.08
636.643	5.06
636.975	5.09
637.307	5.13
637.639	5.07
637.971	5.14
638.303	5.12
638.635	5.14
638.967	5.15
639.299	5.17
639.631	5.16
639.963	5.14
640.295	5.11
640.626	5.1
640.958	5.12
641.29	5.12
641.621	5.07
641.953	5.02
642.285	5.06
642.616	5.04
642.948	4.99
643.279	4.99
643.61	4.99
643.942	5.01
644.273	5
644.604	5.03
644.936	5
645.267	4.95
645.598	4.94
645.929	4.93
646.26	4.95
646.591	4.99
646.922	4.98
647.253	4.95
647.584	4.9
647.915	4.95
648.245	4.92
648.576	4.98
648.907	5.02
649.238	4.98
649.568	5
649.899	5.04
650.229	5.06
650.56	5.1
650.89	5.1
651.221	5.07
651.551	5.15
651.882	5.16
652.212	5.22
652.542	5.24
652.872	5.22
653.203	5.25
653.533	5.26
653.863	5.3
654.193	5.31
654.523	5.3
654.853	5.28
655.183	5.3
655.513	5.33
655.843	5.35
656.172	5.36
656.502	5.34
656.832	5.35
657.162	5.36
657.491	5.34
657.821	5.26
658.15	5.39
658.48	5.33
658.809	5.37
659.139	5.39
659.468	5.38
659.798	5.46
660.127	5.37
660.456	5.35
660.785	5.33
661.115	5.37
661.444	5.44
661.773	5.45
662.102	5.42
662.431	5.37
662.76	5.39
663.089	5.45
663.418	5.48
663.747	5.43
664.076	5.35
664.404	5.36
664.733	5.46
665.062	5.35
665.39	5.41
665.719	5.41
666.048	5.34
666.376	5.4
666.705	5.36
667.033	5.46
667.362	5.46
667.69	5.52
668.018	5.52
668.347	5.46
668.675	5.49
669.003	5.53
669.331	5.56
669.659	5.49
669.987	5.41
670.315	5.46
670.643	5.49
670.971	5.51
671.299	5.56
671.627	5.47
671.955	5.44
672.283	5.4
672.61	5.37
672.938	5.45
673.266	5.41
673.593	5.4
673.921	5.29
674.249	5.34
674.576	5.33
674.904	5.28
675.231	5.27
675.558	5.3
675.886	5.31
676.213	5.34
676.54	5.43
676.867	5.42
677.195	5.42
677.522	5.42
677.849	5.48
678.176	5.44
678.503	5.48
678.83	5.51
679.157	5.53
679.484	5.54
679.81	5.55
680.137	5.59
