Data from BU26938_Reflection_00014.txt Node
Date: Tue Nov 19 10:42:34 EST 2019
User: vgr7
Spectrometer: USB2G7710
Scans to average: 3
Trigger mode: 4
Integration Time (sec): 2.000000E-2
Electric dark correction enabled: true
Boxcar width: 10
XAxis mode: Wavelengths
Number of Pixels in Spectrum: 2048
>>>>>Begin Spectral Data<<<<<
177.721	13.28
178.105	-361.54
178.488	201.5
178.871	550
179.254	32.26
179.636	125.57
180.019	-38.23
180.402	-128.57
180.785	-800
181.168	-380.92
181.55	-854.55
181.933	-300.52
182.316	-464.94
182.698	1503.23
183.081	-122.43
183.463	53.99
183.846	419.67
184.228	726.58
184.611	1460.47
184.993	788.24
185.376	11885.71
185.758	-434.7
186.14	-495.08
186.522	-280.69
186.904	-562.79
187.287	-218.03
187.669	-122.3
188.051	-154.02
188.433	-374.29
188.815	-247.88
189.197	-185.08
189.579	-156.87
189.961	-424.63
190.342	-144.93
190.724	-330.02
191.106	-445.82
191.488	-257.85
191.869	-152.52
192.251	-98.9
192.633	-115.49
193.014	-98.11
193.396	-91.29
193.777	-63.74
194.159	-45.4
194.54	-64.98
194.922	-79.66
195.303	-85.57
195.684	-119.07
196.065	-126.43
196.447	-67.47
196.828	-64.88
197.209	-59.05
197.59	-55.43
197.971	-58.45
198.352	-59.62
198.733	-46.9
199.114	-57.38
199.495	-54.33
199.876	-60.63
200.257	-77.04
200.638	-61.39
201.018	-70.22
201.399	-62.51
201.78	-76.51
202.16	-126.53
202.541	-99.35
202.922	-95.16
203.302	-97.39
203.683	-111.17
204.063	-97.65
204.444	-134.35
204.824	-142.78
205.204	-158.56
205.585	-192.09
205.965	-248.72
206.345	-175.46
206.725	-171.6
207.106	-116.26
207.486	-112.16
207.866	-118.23
208.246	-106.49
208.626	-135.83
209.006	-157.52
209.386	-194.36
209.766	-176.8
210.145	-109.34
210.525	-222.78
210.905	-178.07
211.285	-111.51
211.664	-43.22
212.044	-77.6
212.424	-51.62
212.803	-44.92
213.183	-85.35
213.562	-69.19
213.942	-41.4
214.321	-66.4
214.701	-89.78
215.08	-115.77
215.459	-55.67
215.838	-79.77
216.218	-97.19
216.597	-50.12
216.976	-57.84
217.355	-67.82
217.734	-84.17
218.113	-85.35
218.492	-80.42
218.871	-73.77
219.25	-72.36
219.629	-95.13
220.008	-52.5
220.387	-54.98
220.766	-60.98
221.144	-61.42
221.523	-67.72
221.902	-68.3
222.28	-48.75
222.659	-24.73
223.037	-18.64
223.416	-27.72
223.794	-18.11
224.173	-30.13
224.551	-42.13
224.929	-40.7
225.308	-30.97
225.686	-21.03
226.064	-26.63
226.442	-19.93
226.821	-14.55
227.199	-16.18
227.577	-10.83
227.955	-12.88
228.333	-16.54
228.711	-16.68
229.089	-13.9
229.467	-10.32
229.845	-12.37
230.222	-8.47
230.6	-6.41
230.978	-6.06
231.356	-3.66
231.733	-3.61
232.111	0.73
232.488	4.92
232.866	6.26
233.243	6.2
233.621	6.48
233.998	9.07
234.376	7.54
234.753	7.72
235.13	8.26
235.508	6.89
235.885	6.4
236.262	8.45
236.639	7.89
237.016	8.08
237.393	9.31
237.77	10.54
238.147	9.79
238.524	9.5
238.901	9.59
239.278	7.44
239.655	7.14
240.032	7.27
240.409	5.7
240.785	6.1
241.162	6.29
241.539	6.06
241.915	5.41
242.292	5.94
242.668	5.8
243.045	6.26
243.421	6.26
243.798	6.2
244.174	6.17
244.551	6.2
244.927	6.09
245.303	5.67
245.679	5.7
246.056	5.54
246.432	5.52
246.808	5.46
247.184	5.95
247.56	5.57
247.936	5.33
248.312	5.52
248.688	5.17
249.064	5.14
249.44	5.2
249.815	5.47
250.191	5.46
250.567	5.38
250.943	5.12
251.318	5.01
251.694	4.91
252.069	4.9
252.445	5.02
252.82	5
253.196	5.01
253.571	5.06
253.947	4.99
254.322	4.77
254.697	4.79
255.073	4.71
255.448	5.08
255.823	5.51
256.198	5.59
256.573	5.92
256.948	6.06
257.323	6.21
257.698	6.05
258.073	5.86
258.448	5.97
258.823	5.73
259.198	5.78
259.573	5.66
259.948	5.51
260.322	5.45
260.697	5.66
261.072	5.66
261.446	5.45
261.821	5.53
262.195	5.34
262.57	5.36
262.944	5.27
263.319	5.35
263.693	5.28
264.067	5.34
264.442	5.47
264.816	5.48
265.19	5.32
265.564	5.3
265.938	5.42
266.313	5.48
266.687	5.62
267.061	5.73
267.435	6.06
267.809	5.96
268.183	5.9
268.556	5.69
268.93	5.76
269.304	5.65
269.678	5.64
270.051	5.82
270.425	5.76
270.799	5.65
271.172	5.42
271.546	5.26
271.919	5.18
272.293	5.01
272.666	4.86
273.04	4.8
273.413	4.72
273.787	4.63
274.16	4.51
274.533	4.62
274.906	4.69
275.279	4.52
275.653	4.66
276.026	4.76
276.399	4.78
276.772	4.74
277.145	4.96
277.518	4.83
277.891	4.65
278.263	4.7
278.636	4.77
279.009	4.95
279.382	5
279.755	4.94
280.127	4.84
280.5	4.83
280.872	4.85
281.245	4.94
281.617	4.99
281.99	5.01
282.362	5.03
282.735	4.82
283.107	4.81
283.479	4.71
283.852	4.64
284.224	4.72
284.596	4.62
284.968	4.51
285.34	4.53
285.713	4.65
286.085	4.57
286.457	4.58
286.829	4.62
287.201	4.68
287.572	4.69
287.944	4.8
288.316	4.82
288.688	4.92
289.06	5
289.431	4.95
289.803	5.09
290.175	5.1
290.546	5.28
290.918	5.29
291.289	5.38
291.661	5.53
292.032	5.44
292.403	5.55
292.775	5.67
293.146	5.74
293.517	5.83
293.889	5.8
294.26	5.91
294.631	6.03
295.002	6.1
295.373	6.15
295.744	6.26
296.115	6.33
296.486	6.42
296.857	6.43
297.228	6.52
297.599	6.56
297.97	6.7
298.34	6.69
298.711	6.78
299.082	6.74
299.452	6.65
299.823	6.84
300.194	6.94
300.564	7.01
300.935	7.19
301.305	7.24
301.676	7.3
302.046	7.37
302.416	7.4
302.787	7.5
303.157	7.68
303.527	7.78
303.897	7.84
304.267	7.86
304.637	8.03
305.008	8.07
305.378	8.06
305.748	7.99
306.117	8.28
306.487	8.49
306.857	8.74
307.227	9.03
307.597	8.99
307.967	9.08
308.336	9.15
308.706	9.27
309.076	9.46
309.445	9.66
309.815	9.77
310.184	9.88
310.554	9.96
310.923	9.92
311.293	9.94
311.662	10.07
312.031	10.14
312.401	10.16
312.77	10.37
313.139	10.52
313.508	10.67
313.877	10.66
314.246	10.64
314.616	10.69
314.985	10.78
315.353	10.81
315.722	10.93
316.091	10.96
316.46	10.85
316.829	10.97
317.198	11.14
317.567	11.26
317.935	11.21
318.304	11.43
318.672	11.5
319.041	11.63
319.41	11.71
319.778	11.88
320.147	11.87
320.515	11.85
320.883	11.9
321.252	11.98
321.62	12.14
321.988	12.32
322.357	12.52
322.725	12.55
323.093	12.71
323.461	12.7
323.829	12.89
324.197	13.09
324.565	13.04
324.933	12.92
325.301	12.78
325.669	12.9
326.037	12.88
326.405	13.12
326.772	13.11
327.14	13.18
327.508	13.16
327.875	13.31
328.243	13.45
328.61	13.45
328.978	13.55
329.346	13.55
329.713	13.55
330.08	13.58
330.448	13.7
330.815	13.81
331.182	13.92
331.55	13.97
331.917	13.86
332.284	13.95
332.651	14.15
333.018	14.31
333.385	14.36
333.752	14.27
334.119	14.14
334.486	14.22
334.853	14.24
335.22	14.18
335.587	14.2
335.954	14.08
336.32	14.13
336.687	14.09
337.054	14.1
337.42	14.12
337.787	14.07
338.153	14.05
338.52	14.1
338.886	14.14
339.253	14.15
339.619	14.31
339.986	14.38
340.352	14.42
340.718	14.47
341.084	14.42
341.451	14.59
341.817	14.7
342.183	14.71
342.549	14.76
342.915	14.93
343.281	14.98
343.647	15.07
344.013	15.17
344.379	15.25
344.745	15.19
345.11	15.19
345.476	15.31
345.842	15.28
346.208	15.36
346.573	15.34
346.939	15.26
347.304	15.29
347.67	15.22
348.035	15.21
348.401	15.2
348.766	15.25
349.132	15.26
349.497	15.29
349.862	15.22
350.228	15.25
350.593	15.16
350.958	15.17
351.323	15.13
351.688	15.06
352.053	15.01
352.418	15.03
352.783	15.1
353.148	15.08
353.513	15.15
353.878	15.09
354.243	15.05
354.608	15.15
354.972	15.05
355.337	15.05
355.702	14.94
356.066	14.95
356.431	15.02
356.795	14.96
357.16	14.97
357.524	15.03
357.889	15.01
358.253	15.07
358.618	15.05
358.982	15.07
359.346	15.07
359.71	15.02
360.075	15.05
360.439	15.08
360.803	15.09
361.167	14.99
361.531	14.99
361.895	15
362.259	15.01
362.623	15.01
362.987	14.97
363.351	14.98
363.714	14.94
364.078	14.89
364.442	14.87
364.806	14.83
365.169	14.81
365.533	14.74
365.896	14.69
366.26	14.58
366.623	14.44
366.987	14.31
367.35	14.32
367.714	14.23
368.077	14.03
368.44	13.91
368.803	13.91
369.167	13.78
369.53	13.7
369.893	13.6
370.256	13.55
370.619	13.53
370.982	13.47
371.345	13.39
371.708	13.28
372.071	13.18
372.434	13.05
372.797	12.93
373.159	12.89
373.522	12.83
373.885	12.82
374.247	12.81
374.61	12.76
374.973	12.67
375.335	12.61
375.698	12.5
376.06	12.42
376.423	12.36
376.785	12.3
377.147	12.25
377.51	12.12
377.872	12.03
378.234	11.93
378.596	11.88
378.958	11.88
379.321	11.81
379.683	11.73
380.045	11.63
380.407	11.51
380.769	11.37
381.13	11.24
381.492	11.11
381.854	11.07
382.216	10.98
382.578	10.9
382.939	10.81
383.301	10.79
383.663	10.66
384.024	10.54
384.386	10.51
384.747	10.43
385.109	10.36
385.47	10.28
385.832	10.19
386.193	10.13
386.554	9.99
386.916	9.95
387.277	9.88
387.638	9.84
387.999	9.83
388.36	9.81
388.721	9.74
389.082	9.72
389.443	9.62
389.804	9.64
390.165	9.58
390.526	9.51
390.887	9.46
391.248	9.42
391.609	9.37
391.969	9.28
392.33	9.2
392.691	9.15
393.051	9.1
393.412	9.05
393.772	8.98
394.133	8.88
394.493	8.75
394.854	8.67
395.214	8.57
395.574	8.51
395.935	8.43
396.295	8.35
396.655	8.26
397.015	8.22
397.376	8.09
397.736	8.01
398.096	7.92
398.456	7.88
398.816	7.84
399.176	7.76
399.535	7.69
399.895	7.64
400.255	7.6
400.615	7.53
400.975	7.44
401.334	7.36
401.694	7.35
402.054	7.33
402.413	7.29
402.773	7.23
403.132	7.18
403.492	7.13
403.851	7.13
404.211	7.04
404.57	6.99
404.929	6.96
405.288	6.93
405.648	6.92
406.007	6.86
406.366	6.79
406.725	6.75
407.084	6.7
407.443	6.65
407.802	6.61
408.161	6.6
408.52	6.6
408.879	6.6
409.238	6.55
409.596	6.52
409.955	6.48
410.314	6.47
410.673	6.43
411.031	6.42
411.39	6.36
411.748	6.38
412.107	6.35
412.465	6.33
412.824	6.3
413.182	6.24
413.54	6.22
413.899	6.22
414.257	6.21
414.615	6.16
414.974	6.15
415.332	6.11
415.69	6.08
416.048	6.03
416.406	5.98
416.764	5.94
417.122	5.89
417.48	5.87
417.838	5.82
418.195	5.77
418.553	5.74
418.911	5.71
419.269	5.69
419.626	5.67
419.984	5.64
420.342	5.6
420.699	5.59
421.057	5.56
421.414	5.51
421.772	5.49
422.129	5.47
422.486	5.45
422.844	5.42
423.201	5.39
423.558	5.36
423.915	5.35
424.273	5.32
424.63	5.32
424.987	5.3
425.344	5.29
425.701	5.28
426.058	5.25
426.415	5.22
426.772	5.18
427.128	5.15
427.485	5.13
427.842	5.11
428.199	5.08
428.555	5.05
428.912	5.05
429.269	5.02
429.625	4.99
429.982	4.97
430.338	4.96
430.695	4.96
431.051	4.96
431.407	4.93
431.764	4.92
432.12	4.93
432.476	4.93
432.832	4.95
433.189	4.94
433.545	4.96
433.901	4.94
434.257	4.93
434.613	4.94
434.969	4.92
435.325	4.93
435.681	4.93
436.036	4.94
436.392	4.93
436.748	4.96
437.104	4.96
437.459	4.95
437.815	4.96
438.171	4.94
438.526	4.94
438.882	4.94
439.237	4.94
439.593	4.92
439.948	4.91
440.304	4.89
440.659	4.89
441.014	4.87
441.369	4.89
441.725	4.89
442.08	4.87
442.435	4.87
442.79	4.85
443.145	4.86
443.5	4.84
443.855	4.83
444.21	4.8
444.565	4.8
444.92	4.8
445.275	4.78
445.629	4.78
445.984	4.76
446.339	4.74
446.693	4.75
447.048	4.74
447.403	4.72
447.757	4.71
448.112	4.7
448.466	4.7
448.82	4.68
449.175	4.68
449.529	4.68
449.883	4.66
450.238	4.65
450.592	4.61
450.946	4.61
451.3	4.61
451.654	4.6
452.008	4.56
452.362	4.54
452.716	4.52
453.07	4.52
453.424	4.49
453.778	4.49
454.132	4.47
454.486	4.45
454.839	4.46
455.193	4.45
455.547	4.44
455.9	4.43
456.254	4.42
456.607	4.42
456.961	4.42
457.314	4.42
457.668	4.42
458.021	4.42
458.375	4.4
458.728	4.38
459.081	4.38
459.434	4.38
459.787	4.4
460.141	4.42
460.494	4.42
460.847	4.42
461.2	4.43
461.553	4.43
461.906	4.45
462.259	4.44
462.611	4.46
462.964	4.48
463.317	4.51
463.67	4.53
464.022	4.53
464.375	4.54
464.728	4.56
465.08	4.58
465.433	4.62
465.785	4.65
466.138	4.7
466.49	4.73
466.843	4.79
467.195	4.81
467.547	4.82
467.899	4.84
468.252	4.9
468.604	4.94
468.956	4.96
469.308	4.98
469.66	5.03
470.012	5.05
470.364	5.03
470.716	5.03
471.068	5.06
471.42	5.08
471.772	5.12
472.123	5.16
472.475	5.18
472.827	5.19
473.178	5.2
473.53	5.24
473.882	5.24
474.233	5.23
474.585	5.26
474.936	5.28
475.288	5.28
475.639	5.28
475.99	5.27
476.342	5.28
476.693	5.29
477.044	5.29
477.395	5.27
477.746	5.31
478.097	5.32
478.448	5.31
478.8	5.32
479.15	5.28
479.501	5.26
479.852	5.25
480.203	5.25
480.554	5.24
480.905	5.22
481.255	5.21
481.606	5.21
481.957	5.2
482.307	5.17
482.658	5.17
483.009	5.16
483.359	5.16
483.709	5.15
484.06	5.14
484.41	5.14
484.761	5.14
485.111	5.14
485.461	5.14
485.811	5.14
486.162	5.13
486.512	5.14
486.862	5.14
487.212	5.14
487.562	5.12
487.912	5.11
488.262	5.11
488.612	5.13
488.961	5.13
489.311	5.12
489.661	5.12
490.011	5.12
490.36	5.11
490.71	5.11
491.06	5.11
491.409	5.13
491.759	5.13
492.108	5.13
492.458	5.15
492.807	5.17
493.157	5.18
493.506	5.21
493.855	5.24
494.204	5.25
494.554	5.27
494.903	5.3
495.252	5.35
495.601	5.4
495.95	5.44
496.299	5.46
496.648	5.51
496.997	5.57
497.346	5.66
497.695	5.75
498.043	5.82
498.392	5.89
498.741	5.94
499.09	6.02
499.438	6.09
499.787	6.15
500.135	6.23
500.484	6.3
500.832	6.39
501.181	6.49
501.529	6.62
501.878	6.76
502.226	6.88
502.574	7.01
502.923	7.11
503.271	7.25
503.619	7.41
503.967	7.57
504.315	7.73
504.663	7.88
505.011	8.03
505.359	8.2
505.707	8.36
506.055	8.54
506.403	8.72
506.751	8.92
507.098	9.11
507.446	9.27
507.794	9.47
508.141	9.66
508.489	9.85
508.837	10.05
509.184	10.23
509.531	10.44
509.879	10.65
510.226	10.86
510.574	11.08
510.921	11.29
511.268	11.49
511.616	11.75
511.963	11.99
512.31	12.22
512.657	12.48
513.004	12.74
513.351	13.01
513.698	13.31
514.045	13.61
514.392	13.91
514.739	14.25
515.086	14.56
515.432	14.89
515.779	15.19
516.126	15.49
516.473	15.79
516.819	16.08
517.166	16.36
517.512	16.62
517.859	16.86
518.205	17.09
518.552	17.36
518.898	17.57
519.245	17.81
519.591	18.04
519.937	18.31
520.283	18.59
520.629	18.85
520.976	19.13
521.322	19.41
521.668	19.72
522.014	20
522.36	20.34
522.706	20.65
523.052	20.99
523.398	21.38
523.743	21.79
524.089	22.18
524.435	22.53
524.781	22.91
525.126	23.21
525.472	23.55
525.817	23.84
526.163	24.05
526.509	24.28
526.854	24.51
527.199	24.71
527.545	24.89
527.89	25.07
528.235	25.25
528.581	25.46
528.926	25.63
529.271	25.82
529.616	26
529.961	26.19
530.306	26.39
530.651	26.55
530.996	26.73
531.341	26.93
531.686	27.14
532.031	27.33
532.376	27.55
532.721	27.74
533.065	27.94
533.41	28.21
533.755	28.45
534.099	28.69
534.444	28.93
534.788	29.17
535.133	29.45
535.477	29.69
535.822	29.93
536.166	30.21
536.51	30.48
536.855	30.77
537.199	31.02
537.543	31.34
537.887	31.69
538.231	31.98
538.576	32.28
538.92	32.54
539.264	32.82
539.608	33.11
539.951	33.37
540.295	33.6
540.639	33.81
540.983	34.03
541.327	34.25
541.671	34.43
542.014	34.62
542.358	34.79
542.701	34.97
543.045	35.14
543.389	35.32
543.732	35.5
544.075	35.71
544.419	35.94
544.762	36.13
545.105	36.3
545.449	36.52
545.792	36.72
546.135	36.96
546.478	37.17
546.821	37.38
547.165	37.61
547.508	37.88
547.851	38.15
548.194	38.42
548.536	38.66
548.879	38.93
549.222	39.21
549.565	39.48
549.908	39.75
550.25	40.02
550.593	40.26
550.936	40.57
551.278	40.76
551.621	41.03
551.963	41.26
552.306	41.51
552.648	41.75
552.991	41.98
553.333	42.12
553.675	42.38
554.017	42.54
554.36	42.81
554.702	42.98
555.044	43.19
555.386	43.39
555.728	43.6
556.07	43.77
556.412	43.94
556.754	44.1
557.096	44.29
557.438	44.5
557.78	44.68
558.121	44.83
558.463	45
558.805	45.2
559.147	45.36
559.488	45.53
559.83	45.72
560.171	45.92
560.513	46.17
560.854	46.31
561.196	46.51
561.537	46.7
561.878	46.94
562.22	47.11
562.561	47.24
562.902	47.37
563.243	47.68
563.584	47.89
563.925	48.1
564.266	48.24
564.607	48.3
564.948	48.45
565.289	48.64
565.63	48.75
565.971	48.82
566.312	48.98
566.653	49.13
566.993	49.25
567.334	49.36
567.675	49.47
568.015	49.62
568.356	49.76
568.696	49.89
569.037	49.96
569.377	50.11
569.718	50.23
570.058	50.35
570.398	50.4
570.739	50.54
571.079	50.6
571.419	50.74
571.759	50.88
572.099	51.03
572.439	51.14
572.779	51.28
573.119	51.42
573.459	51.55
573.799	51.63
574.139	51.71
574.479	51.8
574.819	51.89
575.158	51.97
575.498	52.1
575.838	52.17
576.177	52.27
576.517	52.32
576.856	52.45
577.196	52.56
577.535	52.57
577.875	52.66
578.214	52.74
578.553	52.82
578.893	52.96
579.232	52.99
579.571	53.09
579.91	53.17
580.25	53.25
580.589	53.26
580.928	53.35
581.267	53.35
581.606	53.44
581.945	53.61
582.283	53.73
582.622	53.79
582.961	53.98
583.3	54.08
583.639	54.13
583.977	54.11
584.316	54.17
584.654	54.28
584.993	54.24
585.332	54.37
585.67	54.44
586.008	54.49
586.347	54.59
586.685	54.56
587.024	54.68
587.362	54.81
587.7	54.94
588.038	55.08
588.376	55.22
588.715	55.28
589.053	55.28
589.391	55.31
589.729	55.32
590.067	55.22
590.404	55.32
590.742	55.37
591.08	55.51
591.418	55.65
591.756	55.76
592.093	55.89
592.431	55.96
592.769	56
593.106	56.07
593.444	56.14
593.781	56.28
594.119	56.39
594.456	56.38
594.793	56.4
595.131	56.42
595.468	56.45
595.805	56.51
596.143	56.54
596.48	56.66
596.817	56.74
597.154	56.76
597.491	56.79
597.828	56.84
598.165	56.8
598.502	56.8
598.839	56.81
599.176	56.92
599.512	57
599.849	57.16
600.186	57.21
600.523	57.3
600.859	57.31
601.196	57.23
601.532	57.31
601.869	57.37
602.205	57.47
602.542	57.56
602.878	57.61
603.215	57.63
603.551	57.65
603.887	57.7
604.223	57.78
604.56	57.83
604.896	57.82
605.232	57.92
605.568	57.93
605.904	57.94
606.24	57.88
606.576	57.88
606.912	57.81
607.248	57.89
607.583	57.87
607.919	57.88
608.255	57.94
608.591	58
608.926	58.04
609.262	57.94
609.597	57.92
609.933	57.93
610.268	57.95
610.604	57.92
610.939	57.97
611.275	58.01
611.61	58.04
611.945	58.13
612.281	58.12
612.616	58.19
612.951	58.35
613.286	58.43
613.621	58.57
613.956	58.68
614.291	58.59
614.626	58.6
614.961	58.63
615.296	58.78
615.631	58.69
615.966	58.65
616.3	58.82
616.635	58.86
616.97	58.85
617.304	58.94
617.639	58.98
617.973	58.97
618.308	58.99
618.642	59.02
618.977	59.01
619.311	59.02
619.646	58.98
619.98	58.93
620.314	58.95
620.648	58.82
620.983	58.89
621.317	58.96
621.651	58.99
621.985	59.07
622.319	59.02
622.653	59.08
622.987	59.16
623.321	59.12
623.655	59.24
623.988	59.41
624.322	59.4
624.656	59.46
624.99	59.5
625.323	59.46
625.657	59.46
625.99	59.53
626.324	59.6
626.657	59.6
626.991	59.64
627.324	59.62
627.658	59.62
627.991	59.53
628.324	59.61
628.657	59.69
628.991	59.62
629.324	59.72
629.657	59.72
629.99	59.71
630.323	59.79
630.656	59.71
630.989	59.63
631.322	59.69
631.655	59.75
631.987	59.76
632.32	59.79
632.653	59.81
632.986	59.82
633.318	59.78
633.651	59.85
633.984	59.81
634.316	59.81
634.649	59.89
634.981	60.01
635.313	60
635.646	60
635.978	60.07
636.31	60.05
636.643	60.12
636.975	60.14
637.307	60.08
637.639	60.12
637.971	60.18
638.303	60.06
638.635	59.98
638.967	60
639.299	60.08
639.631	60.11
639.963	60.05
640.295	60.26
640.626	60.2
640.958	60.21
641.29	60.32
641.621	60.34
641.953	60.22
642.285	60.26
642.616	60.3
642.948	60.3
643.279	60.25
643.61	60.21
643.942	60.32
644.273	60.39
644.604	60.42
644.936	60.45
645.267	60.64
645.598	60.78
645.929	60.84
646.26	60.73
646.591	60.67
646.922	60.73
647.253	60.56
647.584	60.68
647.915	60.74
648.245	60.73
648.576	60.7
648.907	60.78
649.238	60.76
649.568	60.67
649.899	60.69
650.229	60.83
650.56	60.85
650.89	60.8
651.221	60.76
651.551	60.71
651.882	60.69
652.212	60.65
652.542	60.58
652.872	60.45
653.203	60.53
653.533	60.57
653.863	60.68
654.193	60.72
654.523	60.72
654.853	60.73
655.183	60.69
655.513	60.71
655.843	60.79
656.172	61
656.502	61.16
656.832	61.31
657.162	61.23
657.491	61.29
657.821	61.25
658.15	61.21
658.48	61.38
658.809	61.43
659.139	61.37
659.468	61.37
659.798	61.45
660.127	61.48
660.456	61.42
