Data from BU26945_Reflection_00010.txt Node
Date: Tue Nov 19 10:49:37 EST 2019
User: vgr7
Spectrometer: USB2G7710
Scans to average: 3
Trigger mode: 4
Integration Time (sec): 2.000000E-2
Electric dark correction enabled: true
Boxcar width: 10
XAxis mode: Wavelengths
Number of Pixels in Spectrum: 2048
>>>>>Begin Spectral Data<<<<<
177.721	132.9
178.105	155.92
178.488	467.49
178.871	337.5
179.254	36
179.636	-61.49
180.019	-18.88
180.402	-30
180.785	129.95
181.168	80.7
181.55	97.39
181.933	61.25
182.316	23.08
182.698	7.94
183.081	7.6
183.463	9.61
183.846	4.79
184.228	-23.62
184.611	-8.71
184.993	-7.42
185.376	2.77
185.758	14.57
186.14	8.41
186.522	3.92
186.904	-1.44
187.287	-6.04
187.669	-10.73
188.051	-14
188.433	-17.16
188.815	-28.2
189.197	-34.35
189.579	-67.97
189.961	-68.75
190.342	-55.11
190.724	-76.16
191.106	-80.86
191.488	-61.84
191.869	-57.15
192.251	-37.52
192.633	-45.36
193.014	-60.42
193.396	-52.58
193.777	-44.65
194.159	-45.7
194.54	-22.55
194.922	-36.54
195.303	-74.59
195.684	-68.58
196.065	-56.62
196.447	-56.8
196.828	-84.19
197.209	-70.81
197.59	-39.59
197.971	-36.45
198.352	-36.44
198.733	-30.58
199.114	-28.8
199.495	-43.42
199.876	-46.99
200.257	-51.38
200.638	-47.71
201.018	-41.19
201.399	-53.28
201.78	-61.38
202.16	-67.55
202.541	-93.99
202.922	-95.05
203.302	-100.75
203.683	-116.63
204.063	-103.23
204.444	-94.53
204.824	-94.37
205.204	-97.54
205.585	-85.74
205.965	-83.44
206.345	-115.51
206.725	-92.66
207.106	-85.49
207.486	-75.9
207.866	-76.86
208.246	-72.14
208.626	-106.05
209.006	-120.12
209.386	-98.14
209.766	-102.46
210.145	-119.12
210.525	-109.33
210.905	-95.5
211.285	-60.06
211.664	-32.12
212.044	-44.63
212.424	-43.06
212.803	-36.61
213.183	-52.85
213.562	-65.78
213.942	-61.16
214.321	-49.2
214.701	-76.61
215.08	-80.62
215.459	-56.82
215.838	-72.35
216.218	-92.37
216.597	-86.16
216.976	-108.84
217.355	-137.49
217.734	-161.88
218.113	-96.2
218.492	-97.7
218.871	-107.38
219.25	-127.3
219.629	-160.37
220.008	-134.99
220.387	-143.77
220.766	-121.69
221.144	-116.82
221.523	-109.03
221.902	-101.93
222.28	-82.79
222.659	-43.29
223.037	-38.75
223.416	-29.07
223.794	-15.6
224.173	-3.7
224.551	0.25
224.929	-0.08
225.308	-3.38
225.686	-12.28
226.064	-15.79
226.442	-14.85
226.821	-9.94
227.199	-6.61
227.577	-6.72
227.955	-4.42
228.333	-5.59
228.711	-9.18
229.089	-9.11
229.467	-10.46
229.845	-11.09
230.222	-10.28
230.6	-10.76
230.978	-9.55
231.356	-9.4
231.733	-9.9
232.111	-10.22
232.488	-9.92
232.866	-7.32
233.243	-5.65
233.621	-3.17
233.998	-1.76
234.376	-1.85
234.753	-2.95
235.13	-3.29
235.508	-2.77
235.885	-3.65
236.262	-4.01
236.639	-3.12
237.016	-0.67
237.393	0.73
237.77	2.64
238.147	2.65
238.524	3.18
238.901	2.49
239.278	1.92
239.655	2.06
240.032	2.86
240.409	3.92
240.785	3.95
241.162	4.04
241.539	3.87
241.915	3.42
242.292	3.52
242.668	3.53
243.045	4.14
243.421	4.21
243.798	4.63
244.174	4.72
244.551	4.91
244.927	4.59
245.303	4.49
245.679	4.41
246.056	4.42
246.432	4.29
246.808	4.4
247.184	4.36
247.56	4.32
247.936	4.36
248.312	4.14
248.688	3.97
249.064	3.69
249.44	3.68
249.815	3.81
250.191	4.12
250.567	4.26
250.943	4.24
251.318	4.16
251.694	3.94
252.069	3.99
252.445	3.83
252.82	4.14
253.196	4.13
253.571	3.86
253.947	3.72
254.322	3.81
254.697	3.95
255.073	4.14
255.448	3.85
255.823	3.91
256.198	4.06
256.573	4.39
256.948	4.84
257.323	4.91
257.698	4.73
258.073	4.42
258.448	4.39
258.823	4.07
259.198	3.98
259.573	3.82
259.948	3.93
260.322	3.97
260.697	3.73
261.072	3.6
261.446	3.7
261.821	3.59
262.195	3.52
262.57	3.47
262.944	3.25
263.319	3.43
263.693	3.31
264.067	3.27
264.442	3.12
264.816	2.84
265.19	2.81
265.564	2.88
265.938	2.86
266.313	2.74
266.687	2.8
267.061	2.85
267.435	3.06
267.809	2.87
268.183	2.89
268.556	2.87
268.93	3.27
269.304	3.16
269.678	3.36
270.051	3.61
270.425	3.54
270.799	3.67
271.172	3.8
271.546	3.87
271.919	3.8
272.293	3.97
272.666	3.94
273.04	3.88
273.413	3.88
273.787	3.93
274.16	3.84
274.533	3.94
274.906	3.94
275.279	3.91
275.653	4.13
276.026	4.14
276.399	4.06
276.772	3.88
277.145	3.87
277.518	3.9
277.891	3.57
278.263	3.73
278.636	3.82
279.009	3.6
279.382	3.68
279.755	3.67
280.127	3.58
280.5	3.57
280.872	3.61
281.245	3.57
281.617	3.48
281.99	3.65
282.362	3.48
282.735	3.53
283.107	3.58
283.479	3.41
283.852	3.5
284.224	3.61
284.596	3.61
284.968	3.69
285.34	3.66
285.713	3.72
286.085	3.59
286.457	3.59
286.829	3.6
287.201	3.35
287.572	3.53
287.944	3.49
288.316	3.67
288.688	3.71
289.06	3.85
289.431	3.94
289.803	3.89
290.175	4
290.546	3.9
290.918	3.94
291.289	3.97
291.661	3.91
292.032	3.97
292.403	3.92
292.775	4.03
293.146	4.16
293.517	4.18
293.889	4.29
294.26	4.29
294.631	4.46
295.002	4.65
295.373	4.51
295.744	4.61
296.115	4.71
296.486	4.89
296.857	4.74
297.228	4.67
297.599	4.76
297.97	4.7
298.34	4.84
298.711	4.76
299.082	4.77
299.452	4.84
299.823	4.76
300.194	4.82
300.564	4.74
300.935	4.65
301.305	4.66
301.676	4.7
302.046	4.71
302.416	4.74
302.787	4.88
303.157	4.89
303.527	4.87
303.897	4.57
304.267	4.39
304.637	4.59
305.008	4.74
305.378	4.67
305.748	4.85
306.117	4.9
306.487	4.9
306.857	4.88
307.227	4.98
307.597	5.07
307.967	5.05
308.336	5.17
308.706	5.17
309.076	5.33
309.445	5.44
309.815	5.37
310.184	5.29
310.554	5.12
310.923	5.16
311.293	5.28
311.662	5.42
312.031	5.45
312.401	5.31
312.77	5.44
313.139	5.48
313.508	5.39
313.877	5.36
314.246	5.49
314.616	5.61
314.985	5.63
315.353	5.67
315.722	5.82
316.091	5.65
316.46	5.65
316.829	5.49
317.198	5.39
317.567	5.59
317.935	5.54
318.304	5.61
318.672	5.73
319.041	5.48
319.41	5.53
319.778	5.49
320.147	5.65
320.515	5.43
320.883	5.37
321.252	5.68
321.62	5.67
321.988	5.71
322.357	5.69
322.725	5.71
323.093	5.72
323.461	5.75
323.829	5.99
324.197	5.99
324.565	6.17
324.933	6.14
325.301	6.05
325.669	6.22
326.037	6.29
326.405	6.26
326.772	6.42
327.14	6.44
327.508	6.52
327.875	6.51
328.243	6.49
328.61	6.79
328.978	6.72
329.346	6.78
329.713	6.83
330.08	6.78
330.448	6.7
330.815	6.64
331.182	6.61
331.55	6.48
331.917	6.5
332.284	6.53
332.651	6.57
333.018	6.68
333.385	6.69
333.752	6.71
334.119	6.69
334.486	6.81
334.853	6.81
335.22	6.77
335.587	6.85
335.954	7.06
336.32	7.05
336.687	6.96
337.054	7.02
337.42	7.02
337.787	7.01
338.153	7.07
338.52	7.2
338.886	7.23
339.253	7.25
339.619	7.37
339.986	7.4
340.352	7.46
340.718	7.45
341.084	7.54
341.451	7.53
341.817	7.63
342.183	7.51
342.549	7.54
342.915	7.62
343.281	7.65
343.647	7.57
344.013	7.48
344.379	7.55
344.745	7.5
345.11	7.39
345.476	7.48
345.842	7.43
346.208	7.45
346.573	7.47
346.939	7.63
347.304	7.73
347.67	7.58
348.035	7.47
348.401	7.47
348.766	7.35
349.132	7.42
349.497	7.37
349.862	7.49
350.228	7.51
350.593	7.38
350.958	7.4
351.323	7.52
351.688	7.62
352.053	7.55
352.418	7.51
352.783	7.63
353.148	7.65
353.513	7.75
353.878	7.71
354.243	7.63
354.608	7.53
354.972	7.48
355.337	7.6
355.702	7.73
356.066	7.77
356.431	7.83
356.795	7.8
357.16	7.9
357.524	7.87
357.889	7.82
358.253	7.85
358.618	7.86
358.982	7.82
359.346	7.82
359.71	7.85
360.075	7.96
360.439	8.01
360.803	8.04
361.167	7.94
361.531	7.94
361.895	8
362.259	8.04
362.623	8.04
362.987	7.98
363.351	7.94
363.714	7.98
364.078	7.92
364.442	7.91
364.806	7.83
365.169	7.83
365.533	7.9
365.896	8.06
366.26	8.01
366.623	7.98
366.987	7.96
367.35	8.03
367.714	7.92
368.077	7.89
368.44	7.87
368.803	7.96
369.167	8.05
369.53	8.06
369.893	8.03
370.256	7.95
370.619	7.92
370.982	7.85
371.345	7.8
371.708	7.8
372.071	7.81
372.434	7.78
372.797	7.74
373.159	7.64
373.522	7.51
373.885	7.5
374.247	7.47
374.61	7.41
374.973	7.39
375.335	7.37
375.698	7.31
376.06	7.28
376.423	7.22
376.785	7.14
377.147	7.11
377.51	7.15
377.872	7.21
378.234	7.18
378.596	7.25
378.958	7.19
379.321	7.2
379.683	7.19
380.045	7.16
380.407	7.17
380.769	7.18
381.13	7.11
381.492	7.09
381.854	7.11
382.216	7.11
382.578	7.07
382.939	7.1
383.301	7.12
383.663	7.06
384.024	7.01
384.386	6.96
384.747	6.92
385.109	6.83
385.47	6.82
385.832	6.81
386.193	6.75
386.554	6.7
386.916	6.66
387.277	6.64
387.638	6.65
387.999	6.6
388.36	6.59
388.721	6.62
389.082	6.62
389.443	6.63
389.804	6.57
390.165	6.54
390.526	6.49
390.887	6.43
391.248	6.39
391.609	6.44
391.969	6.44
392.33	6.4
392.691	6.41
393.051	6.35
393.412	6.37
393.772	6.34
394.133	6.37
394.493	6.34
394.854	6.28
395.214	6.21
395.574	6.19
395.935	6.17
396.295	6.12
396.655	6.06
397.015	6.02
397.376	6.02
397.736	5.96
398.096	5.96
398.456	5.95
398.816	5.97
399.176	5.88
399.535	5.83
399.895	5.77
400.255	5.71
400.615	5.7
400.975	5.64
401.334	5.6
401.694	5.6
402.054	5.6
402.413	5.59
402.773	5.62
403.132	5.61
403.492	5.59
403.851	5.59
404.211	5.61
404.57	5.6
404.929	5.54
405.288	5.58
405.648	5.51
406.007	5.49
406.366	5.45
406.725	5.45
407.084	5.45
407.443	5.45
407.802	5.44
408.161	5.39
408.52	5.39
408.879	5.41
409.238	5.39
409.596	5.39
409.955	5.36
410.314	5.33
410.673	5.34
411.031	5.31
411.39	5.28
411.748	5.24
412.107	5.22
412.465	5.24
412.824	5.23
413.182	5.24
413.54	5.26
413.899	5.26
414.257	5.25
414.615	5.23
414.974	5.24
415.332	5.23
415.69	5.21
416.048	5.18
416.406	5.14
416.764	5.12
417.122	5.09
417.48	5.08
417.838	5.08
418.195	5.04
418.553	5.04
418.911	5.04
419.269	5.01
419.626	4.96
419.984	4.93
420.342	4.9
420.699	4.89
421.057	4.85
421.414	4.83
421.772	4.84
422.129	4.81
422.486	4.8
422.844	4.78
423.201	4.79
423.558	4.79
423.915	4.78
424.273	4.76
424.63	4.75
424.987	4.75
425.344	4.73
425.701	4.73
426.058	4.7
426.415	4.68
426.772	4.66
427.128	4.67
427.485	4.67
427.842	4.66
428.199	4.64
428.555	4.63
428.912	4.61
429.269	4.6
429.625	4.61
429.982	4.61
430.338	4.6
430.695	4.57
431.051	4.57
431.407	4.57
431.764	4.59
432.12	4.57
432.476	4.56
432.832	4.56
433.189	4.55
433.545	4.55
433.901	4.55
434.257	4.56
434.613	4.55
434.969	4.56
435.325	4.57
435.681	4.58
436.036	4.59
436.392	4.61
436.748	4.61
437.104	4.6
437.459	4.58
437.815	4.58
438.171	4.61
438.526	4.6
438.882	4.63
439.237	4.63
439.593	4.63
439.948	4.63
440.304	4.62
440.659	4.64
441.014	4.62
441.369	4.63
441.725	4.64
442.08	4.65
442.435	4.63
442.79	4.63
443.145	4.64
443.5	4.63
443.855	4.62
444.21	4.62
444.565	4.62
444.92	4.64
445.275	4.63
445.629	4.6
445.984	4.59
446.339	4.57
446.693	4.56
447.048	4.55
447.403	4.53
447.757	4.53
448.112	4.52
448.466	4.53
448.82	4.52
449.175	4.52
449.529	4.5
449.883	4.51
450.238	4.5
450.592	4.47
450.946	4.46
451.3	4.44
451.654	4.41
452.008	4.41
452.362	4.38
452.716	4.38
453.07	4.39
453.424	4.38
453.778	4.36
454.132	4.33
454.486	4.33
454.839	4.32
455.193	4.33
455.547	4.34
455.9	4.31
456.254	4.3
456.607	4.29
456.961	4.28
457.314	4.26
457.668	4.25
458.021	4.26
458.375	4.27
458.728	4.28
459.081	4.28
459.434	4.28
459.787	4.32
460.141	4.33
460.494	4.35
460.847	4.37
461.2	4.38
461.553	4.42
461.906	4.44
462.259	4.44
462.611	4.43
462.964	4.44
463.317	4.46
463.67	4.48
464.022	4.5
464.375	4.54
464.728	4.57
465.08	4.59
465.433	4.62
465.785	4.64
466.138	4.65
466.49	4.7
466.843	4.72
467.195	4.71
467.547	4.73
467.899	4.75
468.252	4.78
468.604	4.81
468.956	4.8
469.308	4.82
469.66	4.87
470.012	4.9
470.364	4.92
470.716	4.95
471.068	4.96
471.42	4.98
471.772	4.98
472.123	5.02
472.475	5.05
472.827	5.05
473.178	5.05
473.53	5.09
473.882	5.07
474.233	5.08
474.585	5.09
474.936	5.09
475.288	5.08
475.639	5.1
475.99	5.08
476.342	5.1
476.693	5.1
477.044	5.09
477.395	5.08
477.746	5.07
478.097	5.05
478.448	5.04
478.8	5.03
479.15	5.02
479.501	4.97
479.852	4.95
480.203	4.95
480.554	4.97
480.905	4.95
481.255	4.95
481.606	4.95
481.957	4.94
482.307	4.92
482.658	4.91
483.009	4.89
483.359	4.9
483.709	4.88
484.06	4.87
484.41	4.87
484.761	4.86
485.111	4.85
485.461	4.85
485.811	4.85
486.162	4.84
486.512	4.84
486.862	4.85
487.212	4.85
487.562	4.84
487.912	4.83
488.262	4.82
488.612	4.82
488.961	4.81
489.311	4.81
489.661	4.81
490.011	4.82
490.36	4.83
490.71	4.83
491.06	4.84
491.409	4.85
491.759	4.85
492.108	4.85
492.458	4.87
492.807	4.89
493.157	4.9
493.506	4.94
493.855	4.96
494.204	4.97
494.554	5.01
494.903	5.04
495.252	5.08
495.601	5.13
495.95	5.16
496.299	5.22
496.648	5.27
496.997	5.33
497.346	5.38
497.695	5.43
498.043	5.5
498.392	5.55
498.741	5.61
499.09	5.69
499.438	5.78
499.787	5.85
500.135	5.9
500.484	6.01
500.832	6.06
501.181	6.13
501.529	6.22
501.878	6.3
502.226	6.41
502.574	6.5
502.923	6.59
503.271	6.68
503.619	6.79
503.967	6.91
504.315	7
504.663	7.13
505.011	7.23
505.359	7.34
505.707	7.45
506.055	7.59
506.403	7.71
506.751	7.83
507.098	7.98
507.446	8.16
507.794	8.3
508.141	8.46
508.489	8.64
508.837	8.81
509.184	8.97
509.531	9.11
509.879	9.25
510.226	9.4
510.574	9.56
510.921	9.7
511.268	9.82
511.616	10.02
511.963	10.2
512.31	10.38
512.657	10.55
513.004	10.75
513.351	10.92
513.698	11.14
514.045	11.36
514.392	11.57
514.739	11.77
515.086	11.99
515.432	12.19
515.779	12.38
516.126	12.57
516.473	12.77
516.819	12.99
517.166	13.17
517.512	13.38
517.859	13.57
518.205	13.74
518.552	13.95
518.898	14.12
519.245	14.28
519.591	14.47
519.937	14.68
520.283	14.86
520.629	15.07
520.976	15.29
521.322	15.47
521.668	15.67
522.014	15.87
522.36	16.08
522.706	16.32
523.052	16.55
523.398	16.79
523.743	17.02
524.089	17.26
524.435	17.51
524.781	17.73
525.126	17.95
525.472	18.18
525.817	18.37
526.163	18.57
526.509	18.72
526.854	18.85
527.199	18.97
527.545	19.11
527.89	19.25
528.235	19.37
528.581	19.52
528.926	19.67
529.271	19.83
529.616	19.99
529.961	20.14
530.306	20.3
530.651	20.45
530.996	20.66
531.341	20.84
531.686	21.02
532.031	21.19
532.376	21.38
532.721	21.57
533.065	21.74
533.41	21.95
533.755	22.16
534.099	22.38
534.444	22.63
534.788	22.85
535.133	23.04
535.477	23.25
535.822	23.49
536.166	23.71
536.51	23.98
536.855	24.21
537.199	24.45
537.543	24.69
537.887	24.96
538.231	25.19
538.576	25.42
538.92	25.66
539.264	25.9
539.608	26.08
539.951	26.26
540.295	26.47
540.639	26.64
540.983	26.83
541.327	27.03
541.671	27.19
542.014	27.37
542.358	27.57
542.701	27.72
543.045	27.9
543.389	28.06
543.732	28.2
544.075	28.35
544.419	28.55
544.762	28.7
545.105	28.88
545.449	29.1
545.792	29.32
546.135	29.55
546.478	29.78
546.821	30.04
547.165	30.31
547.508	30.54
547.851	30.76
548.194	30.98
548.536	31.21
548.879	31.37
549.222	31.57
549.565	31.77
549.908	32.01
550.25	32.19
550.593	32.41
550.936	32.64
551.278	32.89
551.621	33.09
551.963	33.38
552.306	33.61
552.648	33.77
552.991	33.92
553.333	34.11
553.675	34.28
554.017	34.46
554.36	34.64
554.702	34.77
555.044	34.93
555.386	35.13
555.728	35.27
556.07	35.52
556.412	35.66
556.754	35.84
557.096	36.05
557.438	36.26
557.78	36.5
558.121	36.61
558.463	36.81
558.805	36.92
559.147	37.06
559.488	37.19
559.83	37.32
560.171	37.42
560.513	37.61
560.854	37.76
561.196	37.88
561.537	38.07
561.878	38.22
562.22	38.29
562.561	38.37
562.902	38.56
563.243	38.7
563.584	38.86
563.925	38.98
564.266	39.09
564.607	39.12
564.948	39.22
565.289	39.39
565.63	39.46
565.971	39.6
566.312	39.72
566.653	39.89
566.993	40.04
567.334	40.21
567.675	40.3
568.015	40.44
568.356	40.58
568.696	40.66
569.037	40.78
569.377	40.95
569.718	41.09
570.058	41.19
570.398	41.27
570.739	41.46
571.079	41.56
571.419	41.63
571.759	41.75
572.099	41.87
572.439	42.02
572.779	42.13
573.119	42.23
573.459	42.32
573.799	42.36
574.139	42.48
574.479	42.58
574.819	42.71
575.158	42.74
575.498	42.84
575.838	42.92
576.177	43.08
576.517	43.18
576.856	43.31
577.196	43.38
577.535	43.49
577.875	43.46
578.214	43.58
578.553	43.74
578.893	43.9
579.232	43.97
579.571	44.02
579.91	44.11
580.25	44.25
580.589	44.34
580.928	44.48
581.267	44.59
581.606	44.67
581.945	44.71
582.283	44.79
582.622	44.86
582.961	45.01
583.3	44.98
583.639	45.04
583.977	45.12
584.316	45.26
584.654	45.35
584.993	45.47
585.332	45.5
585.67	45.55
586.008	45.58
586.347	45.66
586.685	45.64
587.024	45.73
587.362	45.78
587.7	45.77
588.038	45.81
588.376	45.84
588.715	45.94
589.053	46.05
589.391	46.19
589.729	46.21
590.067	46.23
590.404	46.28
590.742	46.35
591.08	46.37
591.418	46.45
591.756	46.53
592.093	46.58
592.431	46.69
592.769	46.78
593.106	46.93
593.444	46.89
593.781	47
594.119	47.05
594.456	47.16
594.793	47.34
595.131	47.43
595.468	47.51
595.805	47.57
596.143	47.6
596.48	47.65
596.817	47.73
597.154	47.79
597.491	47.9
597.828	48.02
598.165	48.08
598.502	48.06
598.839	48.1
599.176	48.13
599.512	48.23
599.849	48.28
600.186	48.36
600.523	48.46
600.859	48.51
601.196	48.56
601.532	48.59
601.869	48.63
602.205	48.67
602.542	48.68
602.878	48.67
603.215	48.7
603.551	48.76
603.887	48.86
604.223	48.91
604.56	48.9
604.896	48.89
605.232	48.94
605.568	49.01
605.904	49.08
606.24	49.15
606.576	49.08
606.912	49.19
607.248	49.13
607.583	49.2
607.919	49.28
608.255	49.37
608.591	49.37
608.926	49.39
609.262	49.4
609.597	49.49
609.933	49.6
610.268	49.64
610.604	49.64
610.939	49.65
611.275	49.66
611.61	49.75
611.945	49.81
612.281	49.81
612.616	49.93
612.951	49.97
613.286	50.1
613.621	50.16
613.956	50.11
614.291	50.21
614.626	50.24
614.961	50.28
615.296	50.25
615.631	50.29
615.966	50.42
616.3	50.48
616.635	50.56
616.97	50.54
617.304	50.6
617.639	50.68
617.973	50.69
618.308	50.8
618.642	50.82
618.977	50.88
619.311	50.98
619.646	51
619.98	50.99
620.314	50.95
620.648	51.01
620.983	51.07
621.317	51.17
621.651	51.3
621.985	51.39
622.319	51.49
622.653	51.55
622.987	51.53
623.321	51.55
623.655	51.58
623.988	51.68
624.322	51.76
624.656	51.78
624.99	51.81
625.323	51.75
625.657	51.81
625.99	51.87
626.324	51.95
626.657	51.92
626.991	51.94
627.324	51.94
627.658	51.98
627.991	52.05
628.324	52.02
628.657	51.97
628.991	51.91
629.324	51.92
629.657	51.93
629.99	51.92
630.323	52.01
630.656	51.93
630.989	51.91
631.322	51.77
631.655	51.79
631.987	51.82
632.32	51.82
632.653	51.76
632.986	51.67
633.318	51.63
633.651	51.7
633.984	51.74
634.316	51.72
634.649	51.72
634.981	51.76
635.313	51.78
635.646	51.76
635.978	51.89
636.31	51.92
636.643	51.97
636.975	52.05
637.307	52.04
637.639	52.12
637.971	52.19
638.303	52.31
638.635	52.31
638.967	52.33
639.299	52.4
639.631	52.57
639.963	52.58
640.295	52.75
640.626	52.69
640.958	52.65
641.29	52.82
641.621	52.89
641.953	52.81
642.285	52.82
642.616	52.88
642.948	52.84
643.279	52.81
643.61	52.93
643.942	52.88
644.273	52.81
644.604	52.85
644.936	52.74
645.267	52.82
645.598	52.84
645.929	52.82
646.26	52.82
646.591	52.85
646.922	52.9
647.253	52.79
647.584	52.77
647.915	52.8
648.245	52.8
648.576	52.85
648.907	52.82
649.238	52.93
649.568	52.9
649.899	52.84
650.229	52.91
650.56	52.85
650.89	53
651.221	53.05
651.551	53.06
651.882	53.2
652.212	53.2
652.542	53.4
652.872	53.55
653.203	53.57
653.533	53.45
653.863	53.48
654.193	53.39
654.523	53.55
654.853	53.63
655.183	53.62
655.513	53.68
655.843	53.86
656.172	53.9
656.502	54.1
656.832	54.18
657.162	54.14
657.491	54.14
657.821	54.12
658.15	54.2
658.48	54.29
658.809	54.21
659.139	54.33
659.468	54.3
659.798	54.28
660.127	54.39
660.456	54.5
660.785	54.45
661.115	54.59
661.444	54.51
661.773	54.49
662.102	54.53
662.431	54.47
662.76	54.32
663.089	54.34
663.418	54.21
663.747	54.26
664.076	54.32
664.404	54.33
664.733	54.24
665.062	54.23
665.39	54.18
665.719	54.35
666.048	54.33
