Data from BU26850_Reflection_00015.txt Node
Date: Mon Nov 18 16:45:53 EST 2019
User: vgr7
Spectrometer: USB2G7710
Scans to average: 3
Trigger mode: 4
Integration Time (sec): 2.000000E-2
Electric dark correction enabled: true
Boxcar width: 10
XAxis mode: Wavelengths
Number of Pixels in Spectrum: 2048
>>>>>Begin Spectral Data<<<<<
177.721	-42.16
178.105	-37.81
178.488	-23
178.871	-50.24
179.254	8.77
179.636	-136.04
180.019	10.23
180.402	57.69
180.785	149.37
181.168	206.81
181.55	560.12
181.933	207.37
182.316	395.77
182.698	223.43
183.081	266.27
183.463	-250.65
183.846	34.62
184.228	188.95
184.611	-244.68
184.993	-849.37
185.376	18.92
185.758	-231.1
186.14	-75.35
186.522	-84.58
186.904	-52.19
187.287	-118.23
187.669	-49.15
188.051	-76.92
188.433	-32.51
188.815	-4.2
189.197	2.3
189.579	9.45
189.961	-5.79
190.342	-6.95
190.724	-16.53
191.106	-26.31
191.488	-33
191.869	-31.65
192.251	-52.67
192.633	-36.71
193.014	-29.15
193.396	-35.54
193.777	-31.65
194.159	-33.42
194.54	-15.36
194.922	-17.63
195.303	-11.43
195.684	-8
196.065	2.49
196.447	-5.51
196.828	-16.87
197.209	-15.19
197.59	-17.11
197.971	-16.42
198.352	-13.05
198.733	-7.77
199.114	-2.27
199.495	12.61
199.876	20.84
200.257	25.12
200.638	27.46
201.018	18.76
201.399	27.84
201.78	31.13
202.16	21.19
202.541	8
202.922	9.35
203.302	13.92
203.683	11.88
204.063	-4.13
204.444	9.64
204.824	27.43
205.204	37.22
205.585	34.72
205.965	18.14
206.345	25.53
206.725	-6
207.106	-9.56
207.486	-42.49
207.866	-52.31
208.246	-79.98
208.626	-95.05
209.006	-73.76
209.386	-110.54
209.766	-83.8
210.145	-93.12
210.525	-47.42
210.905	-46.61
211.285	-41.06
211.664	-38.23
212.044	-24.38
212.424	-27.24
212.803	-32.64
213.183	-32.17
213.562	-34.06
213.942	-24.89
214.321	-19.55
214.701	-11.07
215.08	-5.11
215.459	-4.66
215.838	4.01
216.218	1.56
216.597	6.44
216.976	20.11
217.355	26.16
217.734	12.81
218.113	23.96
218.492	24.92
218.871	25.49
219.25	20.92
219.629	13.54
220.008	10.79
220.387	12.13
220.766	11.4
221.144	9.76
221.523	13.86
221.902	20.63
222.28	-2.05
222.659	-7.24
223.037	3.6
223.416	8.18
223.794	2.3
224.173	9.92
224.551	21.3
224.929	10.05
225.308	10.14
225.686	8.45
226.064	3.2
226.442	3.64
226.821	2.61
227.199	7.12
227.577	12.97
227.955	13.48
228.333	10.46
228.711	12.53
229.089	15.93
229.467	13.61
229.845	11.1
230.222	13.99
230.6	16.45
230.978	12.72
231.356	14.03
231.733	14.65
232.111	14.61
232.488	10.41
232.866	9.62
233.243	11.15
233.621	11.76
233.998	10.71
234.376	11.12
234.753	12.62
235.13	12.15
235.508	12.52
235.885	10.41
236.262	10.66
236.639	9.07
237.016	7.96
237.393	10.04
237.77	9.63
238.147	9.1
238.524	8.21
238.901	8.98
239.278	9.14
239.655	9.14
240.032	8.35
240.409	7.93
240.785	8.55
241.162	7.65
241.539	7.42
241.915	7.8
242.292	7.04
242.668	6.49
243.045	6.61
243.421	6.14
243.798	6.17
244.174	6.1
244.551	6.15
244.927	5.99
245.303	5.99
245.679	5.89
246.056	5.59
246.432	5.53
246.808	5.39
247.184	4.98
247.56	4.78
247.936	4.93
248.312	5.05
248.688	5.17
249.064	4.95
249.44	5.21
249.815	5.19
250.191	5.24
250.567	5.51
250.943	5.34
251.318	5.13
251.694	5.14
252.069	5.02
252.445	5.16
252.82	5.31
253.196	5.29
253.571	5.29
253.947	5.56
254.322	5.93
254.697	5.45
255.073	5.31
255.448	5.33
255.823	5.18
256.198	4.9
256.573	4.56
256.948	4.9
257.323	4.88
257.698	4.86
258.073	4.93
258.448	4.93
258.823	5
259.198	5.05
259.573	5.03
259.948	5.11
260.322	5.13
260.697	4.92
261.072	4.76
261.446	4.86
261.821	4.84
262.195	4.87
262.57	4.87
262.944	4.96
263.319	4.89
263.693	4.92
264.067	5.02
264.442	5.22
264.816	5.31
265.19	5.21
265.564	5.22
265.938	4.99
266.313	4.72
266.687	4.57
267.061	4.81
267.435	4.81
267.809	4.52
268.183	4.3
268.556	4.32
268.93	4.33
269.304	4.3
269.678	4.49
270.051	4.4
270.425	4.56
270.799	4.62
271.172	4.65
271.546	4.56
271.919	4.55
272.293	4.28
272.666	4.09
273.04	4.15
273.413	4.17
273.787	4.35
274.16	4.29
274.533	4.39
274.906	4.21
275.279	4.27
275.653	4.55
276.026	4.62
276.399	4.88
276.772	4.98
277.145	4.99
277.518	4.93
277.891	4.96
278.263	4.92
278.636	4.83
279.009	4.95
279.382	5.08
279.755	4.96
280.127	5.28
280.5	5.29
280.872	5.33
281.245	5.22
281.617	5.37
281.99	5.59
282.362	5.42
282.735	5.26
283.107	5.19
283.479	5.22
283.852	5.27
284.224	5.19
284.596	5.19
284.968	5.16
285.34	5.21
285.713	5.13
286.085	5.18
286.457	5.34
286.829	5.21
287.201	5.12
287.572	5.24
287.944	5.16
288.316	5.24
288.688	5.22
289.06	5.23
289.431	5.21
289.803	5.27
290.175	5.37
290.546	5.65
290.918	5.7
291.289	5.68
291.661	5.85
292.032	5.94
292.403	5.89
292.775	6.12
293.146	6
293.517	5.95
293.889	6.03
294.26	6.04
294.631	6.18
295.002	6.34
295.373	6.44
295.744	6.4
296.115	6.46
296.486	6.5
296.857	6.7
297.228	6.82
297.599	6.91
297.97	7.02
298.34	6.92
298.711	7.06
299.082	7.03
299.452	7.02
299.823	7.14
300.194	7.33
300.564	7.22
300.935	7.39
301.305	7.52
301.676	7.69
302.046	7.74
302.416	7.88
302.787	7.91
303.157	7.91
303.527	8.12
303.897	8.34
304.267	8.5
304.637	8.31
305.008	8.37
305.378	8.43
305.748	8.46
306.117	8.66
306.487	8.64
306.857	8.71
307.227	8.72
307.597	8.72
307.967	8.79
308.336	8.83
308.706	8.86
309.076	9.1
309.445	9.16
309.815	9.23
310.184	9.23
310.554	9.38
310.923	9.54
311.293	9.67
311.662	9.52
312.031	9.46
312.401	9.67
312.77	9.75
313.139	9.75
313.508	9.89
313.877	9.83
314.246	10
314.616	10.14
314.985	10.28
315.353	10.28
315.722	10.17
316.091	10.35
316.46	10.36
316.829	10.42
317.198	10.46
317.567	10.49
317.935	10.61
318.304	10.76
318.672	10.84
319.041	10.75
319.41	11.1
319.778	11.23
320.147	11.3
320.515	11.36
320.883	11.42
321.252	11.51
321.62	11.83
321.988	11.85
322.357	11.92
322.725	11.95
323.093	12.25
323.461	12.52
323.829	12.67
324.197	12.98
324.565	12.97
324.933	13
325.301	13.21
325.669	13.35
326.037	13.36
326.405	13.43
326.772	13.63
327.14	13.59
327.508	13.66
327.875	13.84
328.243	13.94
328.61	14.11
328.978	14.16
329.346	14.19
329.713	14.34
330.08	14.44
330.448	14.49
330.815	14.38
331.182	14.3
331.55	14.35
331.917	14.35
332.284	14.41
332.651	14.38
333.018	14.39
333.385	14.3
333.752	14.34
334.119	14.39
334.486	14.41
334.853	14.41
335.22	14.47
335.587	14.44
335.954	14.45
336.32	14.34
336.687	14.38
337.054	14.54
337.42	14.44
337.787	14.57
338.153	14.69
338.52	14.82
338.886	14.81
339.253	14.73
339.619	14.66
339.986	14.64
340.352	14.79
340.718	14.86
341.084	15.09
341.451	15.11
341.817	15.12
342.183	15.22
342.549	15.37
342.915	15.48
343.281	15.57
343.647	15.56
344.013	15.72
344.379	15.68
344.745	15.54
345.11	15.68
345.476	15.61
345.842	15.57
346.208	15.59
346.573	15.65
346.939	15.83
347.304	15.91
347.67	16.07
348.035	16.08
348.401	16.08
348.766	15.99
349.132	16.01
349.497	16.07
349.862	16.06
350.228	15.92
350.593	15.8
350.958	15.76
351.323	15.71
351.688	15.7
352.053	15.83
352.418	15.87
352.783	15.93
353.148	15.98
353.513	16
353.878	16.05
354.243	16.18
354.608	16.21
354.972	16.22
355.337	16.22
355.702	16.22
356.066	16.21
356.431	16.2
356.795	16.25
357.16	16.2
357.524	16.2
357.889	16.19
358.253	16.23
358.618	16.2
358.982	16.25
359.346	16.17
359.71	16.11
360.075	16.13
360.439	16.08
360.803	16.03
361.167	16.02
361.531	15.93
361.895	15.86
362.259	15.76
362.623	15.76
362.987	15.69
363.351	15.67
363.714	15.65
364.078	15.55
364.442	15.42
364.806	15.35
365.169	15.25
365.533	15.24
365.896	15.16
366.26	15.12
366.623	15.03
366.987	15.02
367.35	15.01
367.714	14.87
368.077	14.73
368.44	14.71
368.803	14.65
369.167	14.62
369.53	14.52
369.893	14.45
370.256	14.28
370.619	14.08
370.982	13.92
371.345	13.86
371.708	13.9
372.071	13.87
372.434	13.8
372.797	13.81
373.159	13.75
373.522	13.71
373.885	13.63
374.247	13.56
374.61	13.45
374.973	13.32
375.335	13.27
375.698	13.23
376.06	13.11
376.423	13.03
376.785	12.91
377.147	12.87
377.51	12.75
377.872	12.73
378.234	12.75
378.596	12.69
378.958	12.59
379.321	12.49
379.683	12.42
380.045	12.33
380.407	12.17
380.769	12.1
381.13	11.99
381.492	11.86
381.854	11.79
382.216	11.78
382.578	11.74
382.939	11.6
383.301	11.51
383.663	11.46
384.024	11.39
384.386	11.37
384.747	11.33
385.109	11.33
385.47	11.26
385.832	11.18
386.193	11.12
386.554	11.04
386.916	10.94
387.277	10.85
387.638	10.83
387.999	10.76
388.36	10.67
388.721	10.64
389.082	10.58
389.443	10.48
389.804	10.37
390.165	10.27
390.526	10.23
390.887	10.14
391.248	10.04
391.609	9.98
391.969	9.9
392.33	9.76
392.691	9.7
393.051	9.58
393.412	9.56
393.772	9.47
394.133	9.42
394.493	9.35
394.854	9.29
395.214	9.2
395.574	9.14
395.935	9.08
396.295	9.04
396.655	8.98
397.015	8.89
397.376	8.86
397.736	8.78
398.096	8.72
398.456	8.7
398.816	8.65
399.176	8.56
399.535	8.46
399.895	8.41
400.255	8.31
400.615	8.27
400.975	8.17
401.334	8.1
401.694	8.03
402.054	7.95
402.413	7.89
402.773	7.83
403.132	7.77
403.492	7.7
403.851	7.62
404.211	7.57
404.57	7.54
404.929	7.49
405.288	7.46
405.648	7.39
406.007	7.32
406.366	7.27
406.725	7.25
407.084	7.25
407.443	7.24
407.802	7.22
408.161	7.2
408.52	7.14
408.879	7.17
409.238	7.15
409.596	7.15
409.955	7.14
410.314	7.11
410.673	7.11
411.031	7.12
411.39	7.08
411.748	7.08
412.107	7.08
412.465	7.01
412.824	6.95
413.182	6.97
413.54	6.96
413.899	6.94
414.257	6.88
414.615	6.84
414.974	6.8
415.332	6.77
415.69	6.75
416.048	6.73
416.406	6.67
416.764	6.61
417.122	6.58
417.48	6.5
417.838	6.46
418.195	6.42
418.553	6.38
418.911	6.34
419.269	6.29
419.626	6.26
419.984	6.23
420.342	6.21
420.699	6.17
421.057	6.14
421.414	6.11
421.772	6.09
422.129	6.06
422.486	6.03
422.844	6.01
423.201	5.96
423.558	5.93
423.915	5.89
424.273	5.89
424.63	5.85
424.987	5.87
425.344	5.85
425.701	5.81
426.058	5.77
426.415	5.77
426.772	5.76
427.128	5.72
427.485	5.7
427.842	5.68
428.199	5.66
428.555	5.62
428.912	5.6
429.269	5.57
429.625	5.54
429.982	5.51
430.338	5.48
430.695	5.48
431.051	5.47
431.407	5.46
431.764	5.4
432.12	5.37
432.476	5.36
432.832	5.33
433.189	5.34
433.545	5.34
433.901	5.32
434.257	5.27
434.613	5.28
434.969	5.27
435.325	5.26
435.681	5.26
436.036	5.28
436.392	5.27
436.748	5.29
437.104	5.28
437.459	5.29
437.815	5.3
438.171	5.28
438.526	5.3
438.882	5.33
439.237	5.34
439.593	5.37
439.948	5.37
440.304	5.39
440.659	5.36
441.014	5.37
441.369	5.35
441.725	5.36
442.08	5.37
442.435	5.38
442.79	5.37
443.145	5.38
443.5	5.36
443.855	5.35
444.21	5.33
444.565	5.33
444.92	5.33
445.275	5.3
445.629	5.3
445.984	5.29
446.339	5.25
446.693	5.23
447.048	5.21
447.403	5.2
447.757	5.19
448.112	5.17
448.466	5.14
448.82	5.13
449.175	5.13
449.529	5.09
449.883	5.08
450.238	5.04
450.592	5.01
450.946	4.99
451.3	4.97
451.654	4.96
452.008	4.93
452.362	4.91
452.716	4.91
453.07	4.91
453.424	4.9
453.778	4.9
454.132	4.88
454.486	4.86
454.839	4.85
455.193	4.83
455.547	4.85
455.9	4.85
456.254	4.87
456.607	4.87
456.961	4.89
457.314	4.89
457.668	4.91
458.021	4.91
458.375	4.9
458.728	4.92
459.081	4.92
459.434	4.93
459.787	4.94
460.141	4.94
460.494	4.93
460.847	4.93
461.2	4.94
461.553	4.97
461.906	4.99
462.259	5.01
462.611	5.03
462.964	5.05
463.317	5.07
463.67	5.08
464.022	5.1
464.375	5.13
464.728	5.16
465.08	5.19
465.433	5.23
465.785	5.27
466.138	5.3
466.49	5.34
466.843	5.35
467.195	5.38
467.547	5.42
467.899	5.46
468.252	5.48
468.604	5.53
468.956	5.54
469.308	5.57
469.66	5.58
470.012	5.61
470.364	5.63
470.716	5.67
471.068	5.68
471.42	5.69
471.772	5.73
472.123	5.73
472.475	5.76
472.827	5.78
473.178	5.79
473.53	5.77
473.882	5.8
474.233	5.84
474.585	5.82
474.936	5.81
475.288	5.82
475.639	5.83
475.99	5.83
476.342	5.84
476.693	5.85
477.044	5.88
477.395	5.89
477.746	5.87
478.097	5.86
478.448	5.84
478.8	5.83
479.15	5.79
479.501	5.77
479.852	5.75
480.203	5.73
480.554	5.72
480.905	5.71
481.255	5.7
481.606	5.68
481.957	5.69
482.307	5.68
482.658	5.67
483.009	5.65
483.359	5.63
483.709	5.63
484.06	5.61
484.41	5.59
484.761	5.58
485.111	5.57
485.461	5.56
485.811	5.57
486.162	5.57
486.512	5.57
486.862	5.57
487.212	5.56
487.562	5.56
487.912	5.56
488.262	5.57
488.612	5.57
488.961	5.56
489.311	5.55
489.661	5.55
490.011	5.55
490.36	5.57
490.71	5.59
491.06	5.6
491.409	5.62
491.759	5.64
492.108	5.66
492.458	5.69
492.807	5.71
493.157	5.72
493.506	5.75
493.855	5.79
494.204	5.82
494.554	5.86
494.903	5.9
495.252	5.94
495.601	6
495.95	6.05
496.299	6.11
496.648	6.18
496.997	6.25
497.346	6.35
497.695	6.41
498.043	6.47
498.392	6.55
498.741	6.63
499.09	6.71
499.438	6.79
499.787	6.88
500.135	6.99
500.484	7.1
500.832	7.22
501.181	7.34
501.529	7.46
501.878	7.61
502.226	7.74
502.574	7.88
502.923	8.01
503.271	8.16
503.619	8.33
503.967	8.5
504.315	8.66
504.663	8.82
505.011	9
505.359	9.19
505.707	9.38
506.055	9.55
506.403	9.74
506.751	9.94
507.098	10.14
507.446	10.35
507.794	10.57
508.141	10.76
508.489	10.99
508.837	11.2
509.184	11.41
509.531	11.62
509.879	11.81
510.226	12.04
510.574	12.27
510.921	12.47
511.268	12.69
511.616	12.92
511.963	13.15
512.31	13.4
512.657	13.65
513.004	13.92
513.351	14.21
513.698	14.47
514.045	14.75
514.392	15.05
514.739	15.34
515.086	15.62
515.432	15.9
515.779	16.16
516.126	16.44
516.473	16.69
516.819	16.96
517.166	17.24
517.512	17.47
517.859	17.72
518.205	17.95
518.552	18.18
518.898	18.39
519.245	18.6
519.591	18.81
519.937	19.03
520.283	19.28
520.629	19.5
520.976	19.77
521.322	20.04
521.668	20.29
522.014	20.56
522.36	20.81
522.706	21.1
523.052	21.41
523.398	21.73
523.743	22.04
524.089	22.34
524.435	22.62
524.781	22.91
525.126	23.17
525.472	23.41
525.817	23.64
526.163	23.86
526.509	24.06
526.854	24.23
527.199	24.37
527.545	24.51
527.89	24.68
528.235	24.84
528.581	24.99
528.926	25.14
529.271	25.31
529.616	25.48
529.961	25.63
530.306	25.79
530.651	25.95
530.996	26.13
531.341	26.31
531.686	26.51
532.031	26.69
532.376	26.89
532.721	27.09
533.065	27.31
533.41	27.51
533.755	27.72
534.099	27.94
534.444	28.21
534.788	28.43
535.133	28.63
535.477	28.88
535.822	29.12
536.166	29.37
536.51	29.62
536.855	29.89
537.199	30.21
537.543	30.5
537.887	30.81
538.231	31.12
538.576	31.43
538.92	31.7
539.264	31.99
539.608	32.25
539.951	32.51
540.295	32.72
540.639	32.95
540.983	33.19
541.327	33.44
541.671	33.65
542.014	33.89
542.358	34.12
542.701	34.3
543.045	34.49
543.389	34.7
543.732	34.94
544.075	35.16
544.419	35.38
544.762	35.61
545.105	35.84
545.449	36.08
545.792	36.33
546.135	36.61
546.478	36.89
546.821	37.2
547.165	37.46
547.508	37.77
547.851	38.08
548.194	38.35
548.536	38.59
548.879	38.91
549.222	39.19
549.565	39.51
549.908	39.8
550.25	40.09
550.593	40.4
550.936	40.67
551.278	40.94
551.621	41.23
551.963	41.51
552.306	41.83
552.648	42.11
552.991	42.45
553.333	42.73
553.675	42.98
554.017	43.17
554.36	43.41
554.702	43.72
555.044	43.94
555.386	44.2
555.728	44.49
556.07	44.75
556.412	44.96
556.754	45.24
557.096	45.44
557.438	45.72
557.78	45.91
558.121	46.19
558.463	46.47
558.805	46.66
559.147	46.89
559.488	47.05
559.83	47.25
560.171	47.41
560.513	47.67
560.854	47.93
561.196	48.2
561.537	48.39
561.878	48.54
562.22	48.71
562.561	48.94
562.902	49.11
563.243	49.26
563.584	49.47
563.925	49.62
564.266	49.84
564.607	50.01
564.948	50.18
565.289	50.33
565.63	50.44
565.971	50.58
566.312	50.74
566.653	50.91
566.993	51.09
567.334	51.19
567.675	51.3
568.015	51.42
568.356	51.49
568.696	51.66
569.037	51.75
569.377	51.94
569.718	51.99
570.058	52.18
570.398	52.29
570.739	52.35
571.079	52.46
571.419	52.53
571.759	52.64
572.099	52.87
572.439	52.95
572.779	53.1
573.119	53.26
573.459	53.35
573.799	53.5
574.139	53.59
574.479	53.69
574.819	53.74
575.158	53.81
575.498	53.91
575.838	54
576.177	54.18
576.517	54.26
576.856	54.39
577.196	54.46
577.535	54.56
577.875	54.76
578.214	54.84
578.553	54.99
578.893	55.15
579.232	55.21
579.571	55.34
579.91	55.4
580.25	55.5
580.589	55.59
580.928	55.63
581.267	55.68
581.606	55.8
581.945	55.95
582.283	56.1
582.622	56.23
582.961	56.38
583.3	56.49
583.639	56.62
583.977	56.83
584.316	56.89
584.654	56.94
584.993	57.01
585.332	57.06
585.67	57.18
586.008	57.24
586.347	57.25
586.685	57.21
587.024	57.25
587.362	57.37
587.7	57.46
588.038	57.5
588.376	57.59
588.715	57.72
589.053	57.77
589.391	57.71
589.729	57.71
590.067	57.71
590.404	57.64
590.742	57.68
591.08	57.65
591.418	57.66
591.756	57.77
592.093	57.72
592.431	57.76
592.769	57.78
593.106	57.82
593.444	57.87
593.781	58.03
594.119	58.11
594.456	58.08
594.793	58.03
595.131	58.09
595.468	58.12
595.805	58.04
596.143	58.07
596.48	58.22
596.817	58.3
597.154	58.35
597.491	58.48
597.828	58.51
598.165	58.53
598.502	58.51
598.839	58.51
599.176	58.61
599.512	58.72
599.849	58.81
600.186	58.82
600.523	58.8
600.859	58.87
601.196	58.91
601.532	58.94
601.869	59.07
602.205	59.08
602.542	59.08
602.878	59.13
603.215	59.1
603.551	59.09
603.887	59.17
604.223	59.27
604.56	59.27
604.896	59.27
605.232	59.27
605.568	59.36
605.904	59.32
606.24	59.34
606.576	59.37
606.912	59.37
607.248	59.43
607.583	59.54
607.919	59.53
608.255	59.56
608.591	59.6
608.926	59.62
609.262	59.71
609.597	59.81
609.933	59.9
610.268	60.03
610.604	60.06
610.939	60
611.275	59.93
611.61	59.98
611.945	60.07
612.281	60.23
612.616	60.32
612.951	60.45
613.286	60.55
613.621	60.59
613.956	60.71
614.291	60.77
614.626	60.78
614.961	60.84
615.296	60.84
615.631	60.94
615.966	60.97
616.3	60.96
616.635	60.99
616.97	61.01
617.304	60.95
617.639	60.96
617.973	61.02
618.308	61.03
618.642	61.06
618.977	61.05
619.311	61.02
619.646	61.01
619.98	61.08
620.314	61.13
620.648	61.06
620.983	60.97
621.317	60.92
621.651	60.95
621.985	60.84
622.319	60.9
622.653	60.86
622.987	60.88
623.321	60.85
623.655	60.75
623.988	60.82
624.322	60.93
624.656	60.92
624.99	60.85
625.323	60.88
625.657	60.87
625.99	60.84
626.324	60.82
626.657	60.85
626.991	60.73
627.324	60.64
627.658	60.71
627.991	60.78
628.324	60.77
628.657	60.78
628.991	60.84
629.324	60.89
629.657	60.92
629.99	60.98
630.323	61.08
630.656	61.23
630.989	61.11
631.322	61.14
631.655	61.25
631.987	61.37
632.32	61.45
632.653	61.43
632.986	61.4
633.318	61.45
633.651	61.46
633.984	61.54
634.316	61.58
634.649	61.55
634.981	61.56
635.313	61.59
635.646	61.58
635.978	61.59
636.31	61.54
636.643	61.47
636.975	61.5
637.307	61.31
637.639	61.31
637.971	61.48
638.303	61.43
638.635	61.4
638.967	61.33
639.299	61.27
639.631	61.23
639.963	61.34
640.295	61.31
640.626	61.18
640.958	61.21
641.29	61.18
641.621	61.25
641.953	61.22
642.285	61.32
642.616	61.39
642.948	61.4
643.279	61.4
643.61	61.46
643.942	61.43
644.273	61.5
644.604	61.46
644.936	61.42
645.267	61.35
645.598	61.31
645.929	61.32
646.26	61.23
646.591	61.34
646.922	61.37
647.253	61.46
647.584	61.53
647.915	61.56
648.245	61.65
648.576	61.53
648.907	61.56
649.238	61.52
649.568	61.47
649.899	61.51
650.229	61.56
650.56	61.45
650.89	61.41
651.221	61.57
651.551	61.56
651.882	61.5
652.212	61.55
652.542	61.55
652.872	61.62
653.203	61.81
653.533	61.7
653.863	61.65
654.193	61.72
654.523	61.71
654.853	61.58
655.183	61.54
655.513	61.64
655.843	61.58
656.172	61.72
656.502	61.69
656.832	61.72
657.162	61.83
657.491	62.09
657.821	62.1
658.15	62.19
658.48	62.25
658.809	62.22
659.139	62.19
659.468	62.35
659.798	62.35
660.127	62.31
660.456	62.53
660.785	62.46
661.115	62.33
661.444	62.42
661.773	62.59
662.102	62.65
662.431	62.75
662.76	62.84
