Data from BU26945_Reflection_00008.txt Node
Date: Tue Nov 19 10:49:33 EST 2019
User: vgr7
Spectrometer: USB2G7710
Scans to average: 3
Trigger mode: 4
Integration Time (sec): 2.000000E-2
Electric dark correction enabled: true
Boxcar width: 10
XAxis mode: Wavelengths
Number of Pixels in Spectrum: 2048
>>>>>Begin Spectral Data<<<<<
177.721	14.31
178.105	4.61
178.488	-23.67
178.871	-100
179.254	-100
179.636	280.12
180.019	51.05
180.402	-280
180.785	34.76
181.168	15.44
181.55	-3
181.933	-8.79
182.316	0.91
182.698	2.19
183.081	-21.01
183.463	-16.68
183.846	-7.02
184.228	22.95
184.611	14.06
184.993	28.09
185.376	24.33
185.758	25.1
186.14	21.12
186.522	22.29
186.904	28.64
187.287	31.21
187.669	47.43
188.051	41.57
188.433	44.63
188.815	56.82
189.197	54.75
189.579	66.16
189.961	68.05
190.342	64.53
190.724	91.29
191.106	116.19
191.488	78.13
191.869	66.14
192.251	63.58
192.633	60.14
193.014	56.15
193.396	58.59
193.777	56.37
194.159	57.86
194.54	61.47
194.922	48.02
195.303	22.65
195.684	-1.5
196.065	-6.5
196.447	-15.93
196.828	-39.96
197.209	-21.72
197.59	-1.95
197.971	13.49
198.352	19.25
198.733	17.62
199.114	11.51
199.495	7.17
199.876	8.59
200.257	-2.12
200.638	-3.76
201.018	0.82
201.399	3.17
201.78	14.37
202.16	20.49
202.541	13.57
202.922	13.09
203.302	14.3
203.683	7.09
204.063	8.08
204.444	0.04
204.824	2.81
205.204	2.07
205.585	-20.34
205.965	-48.9
206.345	-53.05
206.725	-45.09
207.106	-34
207.486	-11.81
207.866	0.96
208.246	9.09
208.626	-10.75
209.006	-1.96
209.386	-5.17
209.766	-28
210.145	-43.06
210.525	-33.53
210.905	-29.12
211.285	-16.58
211.664	9.34
212.044	5.57
212.424	2.37
212.803	-9.87
213.183	-0.25
213.562	8.43
213.942	32.38
214.321	12.23
214.701	21.25
215.08	37.07
215.459	19.93
215.838	0.81
216.218	-8.73
216.597	8.41
216.976	-12.41
217.355	-30.75
217.734	-28.44
218.113	-5.46
218.492	0.07
218.871	4.06
219.25	2.49
219.629	-17.98
220.008	-3.04
220.387	-0.38
220.766	21.07
221.144	12.26
221.523	9.69
221.902	22.81
222.28	35.31
222.659	29.11
223.037	5.33
223.416	16.27
223.794	19.47
224.173	20.65
224.551	18.18
224.929	12.93
225.308	6.93
225.686	-1.14
226.064	-9.13
226.442	-8.19
226.821	-6.39
227.199	-5.07
227.577	-4.08
227.955	-4.29
228.333	-2.62
228.711	-4.94
229.089	-5.76
229.467	-6.59
229.845	-13.09
230.222	-8.78
230.6	-9.59
230.978	-6.8
231.356	-7.5
231.733	-7.82
232.111	-6.69
232.488	-5.6
232.866	-2
233.243	1.35
233.621	3.62
233.998	6.17
234.376	4.24
234.753	3.02
235.13	2.36
235.508	2.72
235.885	2.59
236.262	3.65
236.639	4.34
237.016	3.49
237.393	4.03
237.77	6.96
238.147	6.25
238.524	6.01
238.901	5.05
239.278	3.98
239.655	4.57
240.032	4.21
240.409	3.71
240.785	3.29
241.162	3.5
241.539	3.96
241.915	3.76
242.292	4.94
242.668	5.65
243.045	5.5
243.421	5.87
243.798	5.7
244.174	5.77
244.551	5.97
244.927	6.21
245.303	6.12
245.679	5.94
246.056	5.98
246.432	5.8
246.808	6.12
247.184	6.27
247.56	6.04
247.936	5.89
248.312	6.16
248.688	6.23
249.064	6.08
249.44	5.98
249.815	5.9
250.191	5.95
250.567	5.64
250.943	5.93
251.318	5.56
251.694	5.8
252.069	5.78
252.445	5.62
252.82	5.96
253.196	5.92
253.571	6.19
253.947	6.19
254.322	6.62
254.697	6.51
255.073	6.53
255.448	6.33
255.823	6.27
256.198	6.02
256.573	5.77
256.948	5.95
257.323	5.81
257.698	5.7
258.073	5.42
258.448	5.63
258.823	5.32
259.198	5.32
259.573	5.15
259.948	5.08
260.322	4.87
260.697	4.99
261.072	5.04
261.446	4.86
261.821	4.71
262.195	4.58
262.57	4.39
262.944	4.38
263.319	4.57
263.693	4.63
264.067	4.51
264.442	4.43
264.816	4.34
265.19	4.41
265.564	4.42
265.938	4.28
266.313	4
266.687	3.85
267.061	4.12
267.435	4.19
267.809	4.01
268.183	4.36
268.556	3.9
268.93	3.92
269.304	3.87
269.678	3.9
270.051	3.9
270.425	4.13
270.799	3.93
271.172	3.86
271.546	3.91
271.919	4
272.293	4.22
272.666	4.24
273.04	4.23
273.413	4.37
273.787	4.62
274.16	4.68
274.533	4.81
274.906	4.73
275.279	4.57
275.653	4.84
276.026	4.85
276.399	4.78
276.772	4.93
277.145	5.19
277.518	5.19
277.891	5.16
278.263	5.27
278.636	5.48
279.009	5.55
279.382	5.52
279.755	5.7
280.127	5.6
280.5	5.42
280.872	5.43
281.245	5.25
281.617	5.16
281.99	5.1
282.362	5.29
282.735	5.13
283.107	5.33
283.479	5.25
283.852	5.06
284.224	5.11
284.596	5.06
284.968	4.95
285.34	5.09
285.713	5.15
286.085	4.89
286.457	4.96
286.829	4.93
287.201	4.93
287.572	4.95
287.944	5.03
288.316	5.17
288.688	5.31
289.06	5.43
289.431	5.36
289.803	5.52
290.175	5.51
290.546	5.54
290.918	5.45
291.289	5.35
291.661	5.57
292.032	5.75
292.403	5.58
292.775	5.56
293.146	5.43
293.517	5.58
293.889	5.7
294.26	5.73
294.631	5.79
295.002	5.82
295.373	5.69
295.744	5.72
296.115	5.88
296.486	5.93
296.857	6.06
297.228	6.02
297.599	5.88
297.97	5.83
298.34	5.89
298.711	5.98
299.082	6.14
299.452	6.09
299.823	6.1
300.194	6.28
300.564	6.26
300.935	6.28
301.305	6.19
301.676	6.22
302.046	6.14
302.416	6.17
302.787	6.19
303.157	6.23
303.527	6.41
303.897	6.27
304.267	6.19
304.637	5.96
305.008	6.09
305.378	6.44
305.748	6.51
306.117	6.5
306.487	6.49
306.857	6.56
307.227	6.8
307.597	6.74
307.967	6.68
308.336	6.8
308.706	6.83
309.076	6.94
309.445	7.1
309.815	7.25
310.184	7.22
310.554	7.35
310.923	7.53
311.293	7.39
311.662	7.49
312.031	7.51
312.401	7.54
312.77	7.61
313.139	7.46
313.508	7.49
313.877	7.67
314.246	7.86
314.616	8.01
314.985	7.93
315.353	8.03
315.722	8.39
316.091	8.45
316.46	8.8
316.829	8.97
317.198	8.93
317.567	9.17
317.935	9.41
318.304	9.51
318.672	9.72
319.041	9.86
319.41	10.07
319.778	10.18
320.147	10.39
320.515	10.43
320.883	10.6
321.252	10.69
321.62	10.69
321.988	10.8
322.357	10.65
322.725	10.53
323.093	10.55
323.461	10.34
323.829	10.49
324.197	10.31
324.565	10.35
324.933	10.36
325.301	10.13
325.669	10.06
326.037	9.96
326.405	9.82
326.772	10.02
327.14	9.83
327.508	9.66
327.875	9.73
328.243	9.84
328.61	9.95
328.978	9.99
329.346	9.98
329.713	9.92
330.08	10.03
330.448	10.16
330.815	10.31
331.182	10.53
331.55	10.34
331.917	10.47
332.284	10.38
332.651	10.48
333.018	10.62
333.385	10.78
333.752	10.79
334.119	10.84
334.486	10.74
334.853	10.79
335.22	11.06
335.587	11.06
335.954	10.99
336.32	10.93
336.687	11.07
337.054	11.23
337.42	11.22
337.787	11.29
338.153	11.35
338.52	11.45
338.886	11.37
339.253	11.51
339.619	11.56
339.986	11.61
340.352	11.65
340.718	11.74
341.084	11.84
341.451	12.03
341.817	12.05
342.183	12.02
342.549	12.09
342.915	12.06
343.281	12.03
343.647	12.11
344.013	12.21
344.379	12.12
344.745	12.19
345.11	12.25
345.476	12.3
345.842	12.29
346.208	12.22
346.573	12.14
346.939	12.17
347.304	12.19
347.67	12.23
348.035	12.28
348.401	12.26
348.766	12.04
349.132	12.01
349.497	12.02
349.862	12.04
350.228	12.04
350.593	12.05
350.958	12.2
351.323	12.25
351.688	12.13
352.053	12.23
352.418	12.23
352.783	12.24
353.148	12.12
353.513	12.15
353.878	12.08
354.243	12.15
354.608	12.16
354.972	12.19
355.337	12.24
355.702	12.18
356.066	12.18
356.431	12.23
356.795	12.29
357.16	12.35
357.524	12.33
357.889	12.37
358.253	12.4
358.618	12.33
358.982	12.38
359.346	12.4
359.71	12.41
360.075	12.3
360.439	12.33
360.803	12.31
361.167	12.31
361.531	12.38
361.895	12.44
362.259	12.44
362.623	12.33
362.987	12.31
363.351	12.28
363.714	12.25
364.078	12.16
364.442	12.05
364.806	12
365.169	11.99
365.533	11.94
365.896	11.94
366.26	11.94
366.623	11.81
366.987	11.76
367.35	11.68
367.714	11.75
368.077	11.58
368.44	11.59
368.803	11.5
369.167	11.4
369.53	11.37
369.893	11.37
370.256	11.42
370.619	11.37
370.982	11.34
371.345	11.33
371.708	11.42
372.071	11.42
372.434	11.38
372.797	11.34
373.159	11.24
373.522	11.07
373.885	11.04
374.247	11.01
374.61	10.96
374.973	10.93
375.335	10.84
375.698	10.85
376.06	10.85
376.423	10.85
376.785	10.82
377.147	10.69
377.51	10.61
377.872	10.47
378.234	10.48
378.596	10.46
378.958	10.4
379.321	10.35
379.683	10.3
380.045	10.26
380.407	10.25
380.769	10.24
381.13	10.24
381.492	10.17
381.854	10.13
382.216	10.12
382.578	10.05
382.939	9.98
383.301	9.94
383.663	9.83
384.024	9.8
384.386	9.78
384.747	9.75
385.109	9.73
385.47	9.71
385.832	9.57
386.193	9.49
386.554	9.4
386.916	9.34
387.277	9.3
387.638	9.21
387.999	9.17
388.36	9.13
388.721	9.14
389.082	9.12
389.443	9.07
389.804	9.05
390.165	9.04
390.526	8.97
390.887	8.94
391.248	8.95
391.609	8.9
391.969	8.81
392.33	8.79
392.691	8.72
393.051	8.66
393.412	8.67
393.772	8.68
394.133	8.63
394.493	8.55
394.854	8.48
395.214	8.44
395.574	8.38
395.935	8.34
396.295	8.27
396.655	8.21
397.015	8.14
397.376	8.08
397.736	7.98
398.096	7.95
398.456	7.89
398.816	7.78
399.176	7.72
399.535	7.66
399.895	7.59
400.255	7.54
400.615	7.55
400.975	7.47
401.334	7.4
401.694	7.39
402.054	7.38
402.413	7.39
402.773	7.35
403.132	7.29
403.492	7.26
403.851	7.17
404.211	7.12
404.57	7.14
404.929	7.1
405.288	7.12
405.648	7.1
406.007	7.03
406.366	7.03
406.725	7.03
407.084	7.04
407.443	7.05
407.802	7.01
408.161	6.98
408.52	6.97
408.879	6.94
409.238	6.9
409.596	6.86
409.955	6.79
410.314	6.77
410.673	6.75
411.031	6.73
411.39	6.77
411.748	6.77
412.107	6.72
412.465	6.7
412.824	6.66
413.182	6.65
413.54	6.67
413.899	6.63
414.257	6.59
414.615	6.55
414.974	6.51
415.332	6.5
415.69	6.46
416.048	6.42
416.406	6.39
416.764	6.36
417.122	6.33
417.48	6.33
417.838	6.3
418.195	6.28
418.553	6.26
418.911	6.23
419.269	6.2
419.626	6.18
419.984	6.16
420.342	6.12
420.699	6.07
421.057	6.03
421.414	6.01
421.772	5.97
422.129	5.94
422.486	5.91
422.844	5.89
423.201	5.86
423.558	5.85
423.915	5.83
424.273	5.82
424.63	5.81
424.987	5.78
425.344	5.76
425.701	5.73
426.058	5.7
426.415	5.66
426.772	5.61
427.128	5.58
427.485	5.55
427.842	5.55
428.199	5.55
428.555	5.53
428.912	5.51
429.269	5.52
429.625	5.53
429.982	5.53
430.338	5.52
430.695	5.5
431.051	5.5
431.407	5.49
431.764	5.47
432.12	5.48
432.476	5.48
432.832	5.51
433.189	5.51
433.545	5.51
433.901	5.54
434.257	5.56
434.613	5.55
434.969	5.54
435.325	5.54
435.681	5.53
436.036	5.52
436.392	5.51
436.748	5.52
437.104	5.52
437.459	5.53
437.815	5.53
438.171	5.53
438.526	5.52
438.882	5.55
439.237	5.56
439.593	5.56
439.948	5.55
440.304	5.52
440.659	5.54
441.014	5.53
441.369	5.51
441.725	5.51
442.08	5.52
442.435	5.52
442.79	5.51
443.145	5.5
443.5	5.51
443.855	5.51
444.21	5.52
444.565	5.5
444.92	5.49
445.275	5.47
445.629	5.48
445.984	5.46
446.339	5.44
446.693	5.42
447.048	5.4
447.403	5.38
447.757	5.36
448.112	5.35
448.466	5.34
448.82	5.32
449.175	5.3
449.529	5.29
449.883	5.28
450.238	5.27
450.592	5.25
450.946	5.21
451.3	5.2
451.654	5.16
452.008	5.13
452.362	5.11
452.716	5.09
453.07	5.07
453.424	5.07
453.778	5.04
454.132	5.03
454.486	5.02
454.839	5.01
455.193	5.02
455.547	5.02
455.9	5.01
456.254	5.02
456.607	5.03
456.961	5.03
457.314	5.04
457.668	5.05
458.021	5.04
458.375	5.06
458.728	5.07
459.081	5.06
459.434	5.09
459.787	5.11
460.141	5.13
460.494	5.13
460.847	5.13
461.2	5.14
461.553	5.17
461.906	5.17
462.259	5.17
462.611	5.19
462.964	5.2
463.317	5.24
463.67	5.28
464.022	5.29
464.375	5.31
464.728	5.33
465.08	5.35
465.433	5.42
465.785	5.43
466.138	5.46
466.49	5.52
466.843	5.55
467.195	5.57
467.547	5.57
467.899	5.6
468.252	5.64
468.604	5.7
468.956	5.71
469.308	5.77
469.66	5.82
470.012	5.84
470.364	5.88
470.716	5.93
471.068	5.93
471.42	5.95
471.772	5.97
472.123	5.99
472.475	6.02
472.827	6.01
473.178	6.04
473.53	6.03
473.882	6.02
474.233	6.02
474.585	6.04
474.936	6.06
475.288	6.07
475.639	6.07
475.99	6.07
476.342	6.06
476.693	6.04
477.044	6.05
477.395	6.05
477.746	6
478.097	5.97
478.448	5.97
478.8	5.95
479.15	5.93
479.501	5.91
479.852	5.89
480.203	5.87
480.554	5.85
480.905	5.83
481.255	5.82
481.606	5.81
481.957	5.8
482.307	5.79
482.658	5.79
483.009	5.78
483.359	5.76
483.709	5.76
484.06	5.75
484.41	5.75
484.761	5.75
485.111	5.75
485.461	5.74
485.811	5.74
486.162	5.74
486.512	5.73
486.862	5.73
487.212	5.73
487.562	5.73
487.912	5.74
488.262	5.75
488.612	5.75
488.961	5.75
489.311	5.74
489.661	5.74
490.011	5.75
490.36	5.76
490.71	5.77
491.06	5.78
491.409	5.8
491.759	5.83
492.108	5.83
492.458	5.86
492.807	5.89
493.157	5.91
493.506	5.95
493.855	5.99
494.204	6.01
494.554	6.04
494.903	6.08
495.252	6.13
495.601	6.19
495.95	6.24
496.299	6.31
496.648	6.39
496.997	6.47
497.346	6.55
497.695	6.62
498.043	6.73
498.392	6.82
498.741	6.89
499.09	6.96
499.438	7.04
499.787	7.13
500.135	7.24
500.484	7.36
500.832	7.46
501.181	7.59
501.529	7.73
501.878	7.84
502.226	7.97
502.574	8.13
502.923	8.25
503.271	8.41
503.619	8.56
503.967	8.69
504.315	8.84
504.663	8.98
505.011	9.15
505.359	9.3
505.707	9.45
506.055	9.64
506.403	9.85
506.751	10.05
507.098	10.26
507.446	10.43
507.794	10.6
508.141	10.81
508.489	11
508.837	11.22
509.184	11.45
509.531	11.67
509.879	11.87
510.226	12.08
510.574	12.28
510.921	12.51
511.268	12.76
511.616	12.99
511.963	13.22
512.31	13.43
512.657	13.68
513.004	13.92
513.351	14.18
513.698	14.43
514.045	14.7
514.392	14.98
514.739	15.28
515.086	15.55
515.432	15.82
515.779	16.09
516.126	16.37
516.473	16.61
516.819	16.84
517.166	17.1
517.512	17.35
517.859	17.6
518.205	17.78
518.552	17.99
518.898	18.23
519.245	18.47
519.591	18.73
519.937	18.94
520.283	19.19
520.629	19.42
520.976	19.66
521.322	19.94
521.668	20.19
522.014	20.44
522.36	20.71
522.706	21
523.052	21.29
523.398	21.61
523.743	21.94
524.089	22.26
524.435	22.57
524.781	22.86
525.126	23.13
525.472	23.41
525.817	23.67
526.163	23.89
526.509	24.1
526.854	24.28
527.199	24.47
527.545	24.63
527.89	24.82
528.235	25.03
528.581	25.22
528.926	25.42
529.271	25.62
529.616	25.82
529.961	26.01
530.306	26.21
530.651	26.42
530.996	26.65
531.341	26.88
531.686	27.07
532.031	27.29
532.376	27.55
532.721	27.81
533.065	28.04
533.41	28.31
533.755	28.58
534.099	28.85
534.444	29.15
534.788	29.44
535.133	29.72
535.477	29.97
535.822	30.23
536.166	30.5
536.51	30.83
536.855	31.14
537.199	31.43
537.543	31.75
537.887	32.02
538.231	32.31
538.576	32.62
538.92	32.97
539.264	33.25
539.608	33.5
539.951	33.74
540.295	33.98
540.639	34.22
540.983	34.42
541.327	34.68
541.671	34.9
542.014	35.11
542.358	35.34
542.701	35.53
543.045	35.76
543.389	35.95
543.732	36.12
544.075	36.33
544.419	36.57
544.762	36.81
545.105	37.1
545.449	37.38
545.792	37.66
546.135	37.92
546.478	38.23
546.821	38.52
547.165	38.81
547.508	39.17
547.851	39.44
548.194	39.73
548.536	40
548.879	40.26
549.222	40.54
549.565	40.78
549.908	41.03
550.25	41.25
550.593	41.56
550.936	41.88
551.278	42.17
551.621	42.43
551.963	42.7
552.306	42.98
552.648	43.14
552.991	43.41
553.333	43.61
553.675	43.81
554.017	44
554.36	44.19
554.702	44.36
555.044	44.54
555.386	44.79
555.728	44.97
556.07	45.21
556.412	45.36
556.754	45.54
557.096	45.75
557.438	46.01
557.78	46.25
558.121	46.41
558.463	46.57
558.805	46.74
559.147	46.94
559.488	47.07
559.83	47.32
560.171	47.39
560.513	47.59
560.854	47.79
561.196	47.98
561.537	48.17
561.878	48.31
562.22	48.49
562.561	48.61
562.902	48.76
563.243	48.88
563.584	49.08
563.925	49.25
564.266	49.47
564.607	49.58
564.948	49.71
565.289	49.86
565.63	50.06
565.971	50.21
566.312	50.35
566.653	50.49
566.993	50.6
567.334	50.78
567.675	50.93
568.015	51.09
568.356	51.27
568.696	51.36
569.037	51.51
569.377	51.64
569.718	51.77
570.058	51.88
570.398	52.04
570.739	52.27
571.079	52.35
571.419	52.44
571.759	52.51
572.099	52.65
572.439	52.79
572.779	52.92
573.119	53.01
573.459	53.13
573.799	53.23
574.139	53.36
574.479	53.52
574.819	53.62
575.158	53.67
575.498	53.76
575.838	53.86
576.177	53.98
576.517	54.09
576.856	54.24
577.196	54.29
577.535	54.36
577.875	54.33
578.214	54.49
578.553	54.61
578.893	54.82
579.232	54.97
579.571	55.02
579.91	55.04
580.25	55.24
580.589	55.33
580.928	55.43
581.267	55.54
581.606	55.55
581.945	55.61
582.283	55.63
582.622	55.72
582.961	55.85
583.3	55.91
583.639	55.99
583.977	56.07
584.316	56.19
584.654	56.27
584.993	56.41
585.332	56.47
585.67	56.53
586.008	56.61
586.347	56.54
586.685	56.58
587.024	56.62
587.362	56.63
587.7	56.72
588.038	56.78
588.376	56.86
588.715	56.91
589.053	56.97
589.391	57.12
589.729	57.2
590.067	57.22
590.404	57.25
590.742	57.29
591.08	57.33
591.418	57.46
591.756	57.59
592.093	57.62
592.431	57.7
592.769	57.77
593.106	57.79
593.444	57.9
593.781	58.05
594.119	58.12
594.456	58.23
594.793	58.29
595.131	58.36
595.468	58.38
595.805	58.49
596.143	58.56
596.48	58.6
596.817	58.6
597.154	58.69
597.491	58.72
597.828	58.82
598.165	58.89
598.502	58.95
598.839	58.95
599.176	58.96
599.512	59.04
599.849	59.1
600.186	59.21
600.523	59.31
600.859	59.32
601.196	59.35
601.532	59.38
601.869	59.45
602.205	59.51
602.542	59.57
602.878	59.54
603.215	59.59
603.551	59.6
603.887	59.67
604.223	59.68
604.56	59.78
604.896	59.73
605.232	59.81
605.568	59.74
605.904	59.74
606.24	59.82
606.576	59.81
606.912	59.82
607.248	59.88
607.583	59.84
607.919	59.84
608.255	59.88
608.591	59.9
608.926	59.92
609.262	59.87
609.597	59.9
609.933	60.01
610.268	60.09
610.604	60.16
610.939	60.22
611.275	60.27
611.61	60.34
611.945	60.47
612.281	60.39
612.616	60.46
612.951	60.56
613.286	60.62
613.621	60.69
613.956	60.77
614.291	60.72
614.626	60.85
614.961	60.93
615.296	61.02
615.631	61.02
615.966	61.06
616.3	61.27
616.635	61.31
616.97	61.32
617.304	61.31
617.639	61.4
617.973	61.33
618.308	61.42
618.642	61.41
618.977	61.43
619.311	61.58
619.646	61.69
619.98	61.73
620.314	61.72
620.648	61.81
620.983	61.79
621.317	61.91
621.651	61.89
621.985	61.95
622.319	61.99
622.653	62.01
622.987	62
623.321	61.95
623.655	61.99
623.988	62.04
624.322	62.16
624.656	62.09
624.99	62.22
625.323	62.18
625.657	62.19
625.99	62.28
626.324	62.25
626.657	62.22
626.991	62.18
627.324	62.28
627.658	62.21
627.991	62.22
628.324	62.16
628.657	62.14
628.991	62.14
629.324	62.14
629.657	62.14
629.99	62.2
630.323	62.19
630.656	62.1
630.989	62.16
631.322	62.16
631.655	62.15
631.987	62.06
632.32	62.06
632.653	62.02
632.986	61.88
633.318	61.87
633.651	61.86
633.984	61.98
634.316	61.93
634.649	62.01
634.981	62.08
635.313	62.06
635.646	62.12
635.978	62.22
636.31	62.33
636.643	62.39
636.975	62.36
637.307	62.42
637.639	62.57
637.971	62.54
638.303	62.52
638.635	62.68
638.967	62.79
639.299	62.9
639.631	63
639.963	63.14
640.295	63.28
640.626	63.23
640.958	63.23
641.29	63.32
641.621	63.32
641.953	63.25
642.285	63.25
642.616	63.3
642.948	63.28
643.279	63.19
643.61	63.25
643.942	63.38
644.273	63.33
644.604	63.26
644.936	63.37
645.267	63.35
645.598	63.28
645.929	63.28
646.26	63.23
646.591	63.27
646.922	63.21
647.253	63.13
647.584	63.17
647.915	63.18
648.245	63.12
648.576	63.13
648.907	63.1
649.238	63.25
649.568	63.19
649.899	63.13
650.229	63.26
650.56	63.34
650.89	63.38
651.221	63.42
651.551	63.49
651.882	63.3
652.212	63.31
652.542	63.38
652.872	63.34
653.203	63.37
653.533	63.3
653.863	63.49
654.193	63.58
654.523	63.65
654.853	63.65
655.183	63.62
655.513	63.62
655.843	63.69
656.172	63.72
656.502	63.8
656.832	63.92
657.162	63.87
657.491	63.75
657.821	63.67
658.15	63.64
658.48	63.58
658.809	63.67
659.139	63.81
659.468	63.79
659.798	63.89
660.127	63.93
660.456	63.92
660.785	63.85
661.115	63.89
661.444	63.86
661.773	63.83
662.102	63.99
662.431	64.04
662.76	64.08
663.089	64.09
663.418	64.04
663.747	63.94
664.076	64.01
664.404	64.03
664.733	64.08
665.062	64.09
