Data from BU26941_Reflection_00012.txt Node
Date: Tue Nov 19 11:03:44 EST 2019
User: vgr7
Spectrometer: USB2G7710
Scans to average: 3
Trigger mode: 4
Integration Time (sec): 2.000000E-2
Electric dark correction enabled: true
Boxcar width: 10
XAxis mode: Wavelengths
Number of Pixels in Spectrum: 2048
>>>>>Begin Spectral Data<<<<<
177.721	47.66
178.105	-37.06
178.488	17.29
178.871	35.14
179.254	31.15
179.636	177.17
180.019	115.67
180.402	-240
180.785	-24.53
181.168	4225
181.55	-97.97
181.933	-914.08
182.316	686.47
182.698	670.25
183.081	2289.19
183.463	-438.92
183.846	-857.98
184.228	2365.31
184.611	-244.95
184.993	-177.61
185.376	-350.87
185.758	-194.84
186.14	-287.34
186.522	-124.65
186.904	-116.54
187.287	-100.29
187.669	-77.39
188.051	-147.54
188.433	-267.69
188.815	-194.32
189.197	-109.57
189.579	-204.74
189.961	-171.95
190.342	-87.08
190.724	-189.82
191.106	-207.28
191.488	-177.63
191.869	-63.44
192.251	-2.33
192.633	-59.15
193.014	-95.47
193.396	-52.97
193.777	-20.51
194.159	-53.13
194.54	-45.88
194.922	-359.33
195.303	-418.92
195.684	-299.32
196.065	-325.87
196.447	-145.83
196.828	-127.62
197.209	-222.65
197.59	-125.31
197.971	-119
198.352	-114.52
198.733	-97.73
199.114	-108.8
199.495	-112.85
199.876	-201.09
200.257	-216.34
200.638	-224.69
201.018	-200.28
201.399	-215.09
201.78	-174.11
202.16	-175.62
202.541	-260.34
202.922	-189.45
203.302	-178.01
203.683	-185.96
204.063	-249.75
204.444	-284.79
204.824	-372.44
205.204	-359.04
205.585	-389.8
205.965	-684.19
206.345	-962.26
206.725	-354.39
207.106	-277.85
207.486	-296.52
207.866	-347.66
208.246	-271.32
208.626	-293.23
209.006	-326.43
209.386	-260.49
209.766	-573.47
210.145	-255.93
210.525	-294.03
210.905	-174.35
211.285	-236.81
211.664	-231.34
212.044	-28.31
212.424	-0.24
212.803	-67.11
213.183	-45.05
213.562	-141.79
213.942	-114.85
214.321	-61.47
214.701	-644.53
215.08	-1012.36
215.459	-276.21
215.838	-344.87
216.218	-609.36
216.597	-1282.02
216.976	889.47
217.355	87100
217.734	-373.68
218.113	-761.39
218.492	-2021.95
218.871	-475.51
219.25	-412.2
219.629	-294.21
220.008	-529.18
220.387	-356.88
220.766	-200.95
221.144	-268.49
221.523	-196.03
221.902	-137.51
222.28	-113.56
222.659	-70.8
223.037	-79.74
223.416	-75.83
223.794	-51.1
224.173	-30.18
224.551	-24.75
224.929	-25.28
225.308	-34
225.686	-31.53
226.064	-32.62
226.442	-20.67
226.821	-13.8
227.199	-16.71
227.577	-13.66
227.955	-4.9
228.333	-0.45
228.711	0.83
229.089	1.77
229.467	0.14
229.845	-1.15
230.222	-2.98
230.6	-5.04
230.978	-2.79
231.356	-3.94
231.733	-6.92
232.111	-7.75
232.488	-8.43
232.866	-6.89
233.243	-2.41
233.621	-1.23
233.998	-1.46
234.376	-3.84
234.753	-4.9
235.13	-3.51
235.508	-2.97
235.885	-3.39
236.262	-4.84
236.639	-5.15
237.016	-5.28
237.393	-3.11
237.77	-3.43
238.147	-1.73
238.524	-2.07
238.901	-2.35
239.278	-2.49
239.655	-1.71
240.032	-1.53
240.409	-1.09
240.785	-1.31
241.162	-1.62
241.539	-1.12
241.915	-0.77
242.292	-0.22
242.668	0.28
243.045	0.74
243.421	0.96
243.798	0.88
244.174	1.05
244.551	1.31
244.927	1.56
245.303	1.7
245.679	1.92
246.056	1.85
246.432	2.33
246.808	2.5
247.184	2.79
247.56	2.6
247.936	2.71
248.312	3.11
248.688	3.38
249.064	3.53
249.44	3.43
249.815	3.36
250.191	3.26
250.567	3.06
250.943	3.16
251.318	3.08
251.694	3.18
252.069	3.25
252.445	3.45
252.82	3.34
253.196	3.19
253.571	3.72
253.947	3.68
254.322	3.66
254.697	3.77
255.073	3.72
255.448	4.11
255.823	3.96
256.198	3.65
256.573	3.5
256.948	3.45
257.323	3.47
257.698	3.52
258.073	3.6
258.448	3.84
258.823	3.46
259.198	3.55
259.573	3.52
259.948	3.68
260.322	3.38
260.697	3.48
261.072	3.52
261.446	3.31
261.821	3.41
262.195	3.23
262.57	3.32
262.944	3.4
263.319	3.27
263.693	3.25
264.067	3.27
264.442	3.27
264.816	3.16
265.19	3.15
265.564	2.94
265.938	3
266.313	2.8
266.687	3.09
267.061	3.04
267.435	3.28
267.809	2.99
268.183	3.21
268.556	3.22
268.93	3.35
269.304	3.43
269.678	3.51
270.051	3.45
270.425	3.18
270.799	3.09
271.172	3.16
271.546	3.11
271.919	3.1
272.293	3.1
272.666	3.09
273.04	3.01
273.413	3.09
273.787	2.94
274.16	3
274.533	3.02
274.906	3.08
275.279	2.8
275.653	2.87
276.026	2.81
276.399	2.67
276.772	2.5
277.145	2.46
277.518	2.2
277.891	2.25
278.263	2.46
278.636	2.43
279.009	2.52
279.382	2.51
279.755	2.44
280.127	2.48
280.5	2.47
280.872	2.52
281.245	2.56
281.617	2.67
281.99	2.77
282.362	2.76
282.735	2.71
283.107	2.85
283.479	2.82
283.852	2.79
284.224	2.9
284.596	2.94
284.968	2.94
285.34	3
285.713	3.14
286.085	3.03
286.457	3.1
286.829	3.1
287.201	3.18
287.572	3.29
287.944	3.35
288.316	3.44
288.688	3.45
289.06	3.42
289.431	3.44
289.803	3.46
290.175	3.51
290.546	3.56
290.918	3.6
291.289	3.55
291.661	3.59
292.032	3.6
292.403	3.58
292.775	3.58
293.146	3.56
293.517	3.47
293.889	3.59
294.26	3.44
294.631	3.47
295.002	3.38
295.373	3.35
295.744	3.35
296.115	3.26
296.486	3.36
296.857	3.54
297.228	3.51
297.599	3.35
297.97	3.3
298.34	3.37
298.711	3.5
299.082	3.6
299.452	3.64
299.823	3.7
300.194	3.73
300.564	3.76
300.935	3.91
301.305	3.88
301.676	3.82
302.046	3.89
302.416	3.94
302.787	4.09
303.157	4.14
303.527	4.2
303.897	4.15
304.267	4.16
304.637	4.08
305.008	4.16
305.378	4.35
305.748	4.37
306.117	4.3
306.487	4.21
306.857	4.39
307.227	4.46
307.597	4.36
307.967	4.48
308.336	4.4
308.706	4.4
309.076	4.64
309.445	4.76
309.815	4.9
310.184	4.86
310.554	4.79
310.923	4.76
311.293	4.77
311.662	4.96
312.031	4.97
312.401	4.95
312.77	5.09
313.139	5.09
313.508	5.17
313.877	5.23
314.246	5.16
314.616	4.95
314.985	4.99
315.353	5.09
315.722	5.03
316.091	5.33
316.46	5.38
316.829	5.38
317.198	5.39
317.567	5.48
317.935	5.54
318.304	5.87
318.672	5.9
319.041	6.06
319.41	5.94
319.778	6.05
320.147	6.31
320.515	6.34
320.883	6.33
321.252	6.41
321.62	6.43
321.988	6.47
322.357	6.79
322.725	6.99
323.093	7.02
323.461	7.12
323.829	6.93
324.197	7
324.565	7.03
324.933	6.98
325.301	6.76
325.669	6.77
326.037	6.61
326.405	6.69
326.772	6.53
327.14	6.57
327.508	6.47
327.875	6.37
328.243	6.32
328.61	6.5
328.978	6.58
329.346	6.62
329.713	6.86
330.08	6.74
330.448	6.54
330.815	6.62
331.182	6.58
331.55	6.56
331.917	6.54
332.284	6.48
332.651	6.57
333.018	6.69
333.385	6.75
333.752	6.98
334.119	7.03
334.486	7.19
334.853	7.25
335.22	7.32
335.587	7.27
335.954	7.18
336.32	7.16
336.687	7.2
337.054	7.32
337.42	7.26
337.787	7.33
338.153	7.51
338.52	7.5
338.886	7.56
339.253	7.72
339.619	7.71
339.986	7.75
340.352	7.7
340.718	7.82
341.084	7.77
341.451	7.71
341.817	7.82
342.183	7.78
342.549	7.92
342.915	7.91
343.281	8.11
343.647	8.21
344.013	8.13
344.379	8.16
344.745	8.13
345.11	8.17
345.476	8.26
345.842	8.12
346.208	8.11
346.573	8.18
346.939	8.12
347.304	8.17
347.67	8.09
348.035	8.07
348.401	8.03
348.766	8.1
349.132	8.01
349.497	7.92
349.862	7.92
350.228	7.93
350.593	8
350.958	7.93
351.323	7.91
351.688	8
352.053	8
352.418	7.95
352.783	7.9
353.148	7.81
353.513	7.85
353.878	7.79
354.243	7.67
354.608	7.68
354.972	7.66
355.337	7.7
355.702	7.74
356.066	7.78
356.431	7.78
356.795	7.8
357.16	7.76
357.524	7.78
357.889	7.75
358.253	7.7
358.618	7.61
358.982	7.61
359.346	7.57
359.71	7.48
360.075	7.52
360.439	7.57
360.803	7.54
361.167	7.51
361.531	7.48
361.895	7.5
362.259	7.49
362.623	7.48
362.987	7.45
363.351	7.44
363.714	7.42
364.078	7.37
364.442	7.31
364.806	7.29
365.169	7.25
365.533	7.17
365.896	7.21
366.26	7.23
366.623	7.15
366.987	7.04
367.35	7.01
367.714	6.9
368.077	6.79
368.44	6.81
368.803	6.8
369.167	6.8
369.53	6.77
369.893	6.78
370.256	6.72
370.619	6.69
370.982	6.62
371.345	6.54
371.708	6.51
372.071	6.5
372.434	6.45
372.797	6.38
373.159	6.31
373.522	6.17
373.885	6.1
374.247	6.1
374.61	6.04
374.973	6.04
375.335	5.98
375.698	5.95
376.06	5.89
376.423	5.85
376.785	5.89
377.147	5.81
377.51	5.7
377.872	5.67
378.234	5.61
378.596	5.56
378.958	5.53
379.321	5.43
379.683	5.37
380.045	5.4
380.407	5.42
380.769	5.39
381.13	5.38
381.492	5.36
381.854	5.35
382.216	5.36
382.578	5.29
382.939	5.26
383.301	5.22
383.663	5.16
384.024	5.09
384.386	4.98
384.747	4.94
385.109	4.91
385.47	4.87
385.832	4.83
386.193	4.8
386.554	4.74
386.916	4.76
387.277	4.72
387.638	4.65
387.999	4.58
388.36	4.57
388.721	4.51
389.082	4.52
389.443	4.44
389.804	4.43
390.165	4.42
390.526	4.4
390.887	4.37
391.248	4.35
391.609	4.33
391.969	4.32
392.33	4.32
392.691	4.3
393.051	4.24
393.412	4.21
393.772	4.23
394.133	4.21
394.493	4.17
394.854	4.15
395.214	4.13
395.574	4.08
395.935	4.07
396.295	4.07
396.655	4.03
397.015	4.03
397.376	4.02
397.736	3.97
398.096	3.94
398.456	3.91
398.816	3.89
399.176	3.81
399.535	3.79
399.895	3.78
400.255	3.76
400.615	3.76
400.975	3.74
401.334	3.67
401.694	3.66
402.054	3.64
402.413	3.65
402.773	3.61
403.132	3.62
403.492	3.58
403.851	3.54
404.211	3.51
404.57	3.49
404.929	3.44
405.288	3.46
405.648	3.43
406.007	3.42
406.366	3.39
406.725	3.4
407.084	3.35
407.443	3.33
407.802	3.32
408.161	3.33
408.52	3.32
408.879	3.31
409.238	3.3
409.596	3.29
409.955	3.25
410.314	3.24
410.673	3.21
411.031	3.17
411.39	3.19
411.748	3.19
412.107	3.18
412.465	3.19
412.824	3.17
413.182	3.17
413.54	3.19
413.899	3.2
414.257	3.21
414.615	3.23
414.974	3.22
415.332	3.21
415.69	3.18
416.048	3.21
416.406	3.19
416.764	3.18
417.122	3.17
417.48	3.18
417.838	3.19
418.195	3.18
418.553	3.19
418.911	3.16
419.269	3.16
419.626	3.15
419.984	3.14
420.342	3.13
420.699	3.13
421.057	3.1
421.414	3.1
421.772	3.08
422.129	3.08
422.486	3.06
422.844	3.04
423.201	3.03
423.558	3.02
423.915	3.02
424.273	3.01
424.63	3.02
424.987	3.02
425.344	3
425.701	3
426.058	2.99
426.415	3.01
426.772	3
427.128	2.99
427.485	2.97
427.842	2.96
428.199	2.95
428.555	2.94
428.912	2.93
429.269	2.93
429.625	2.93
429.982	2.93
430.338	2.93
430.695	2.93
431.051	2.94
431.407	2.92
431.764	2.9
432.12	2.9
432.476	2.89
432.832	2.9
433.189	2.88
433.545	2.89
433.901	2.88
434.257	2.86
434.613	2.86
434.969	2.88
435.325	2.88
435.681	2.87
436.036	2.87
436.392	2.87
436.748	2.87
437.104	2.87
437.459	2.87
437.815	2.87
438.171	2.87
438.526	2.87
438.882	2.89
439.237	2.9
439.593	2.9
439.948	2.89
440.304	2.88
440.659	2.89
441.014	2.87
441.369	2.88
441.725	2.89
442.08	2.88
442.435	2.87
442.79	2.86
443.145	2.86
443.5	2.85
443.855	2.84
444.21	2.83
444.565	2.83
444.92	2.83
445.275	2.84
445.629	2.83
445.984	2.81
446.339	2.8
446.693	2.8
447.048	2.78
447.403	2.78
447.757	2.77
448.112	2.77
448.466	2.79
448.82	2.77
449.175	2.76
449.529	2.79
449.883	2.78
450.238	2.78
450.592	2.78
450.946	2.79
451.3	2.8
451.654	2.78
452.008	2.77
452.362	2.76
452.716	2.75
453.07	2.74
453.424	2.75
453.778	2.75
454.132	2.75
454.486	2.75
454.839	2.76
455.193	2.78
455.547	2.76
455.9	2.76
456.254	2.78
456.607	2.76
456.961	2.74
457.314	2.75
457.668	2.75
458.021	2.74
458.375	2.74
458.728	2.74
459.081	2.75
459.434	2.76
459.787	2.78
460.141	2.79
460.494	2.81
460.847	2.81
461.2	2.81
461.553	2.83
461.906	2.83
462.259	2.82
462.611	2.83
462.964	2.84
463.317	2.84
463.67	2.83
464.022	2.84
464.375	2.84
464.728	2.84
465.08	2.85
465.433	2.87
465.785	2.9
466.138	2.91
466.49	2.92
466.843	2.93
467.195	2.94
467.547	2.94
467.899	2.96
468.252	2.97
468.604	2.96
468.956	2.98
469.308	2.99
469.66	3.01
470.012	2.99
470.364	3
470.716	3.01
471.068	3.03
471.42	3.05
471.772	3.07
472.123	3.1
472.475	3.08
472.827	3.07
473.178	3.06
473.53	3.07
473.882	3.07
474.233	3.07
474.585	3.05
474.936	3.05
475.288	3.04
475.639	3.04
475.99	3.03
476.342	3.01
476.693	3.02
477.044	3.02
477.395	3.04
477.746	3.02
478.097	3
478.448	3.01
478.8	3
479.15	2.98
479.501	2.97
479.852	2.98
480.203	2.98
480.554	2.99
480.905	2.98
481.255	2.98
481.606	2.99
481.957	3
482.307	3.01
482.658	3.01
483.009	2.99
483.359	2.99
483.709	2.99
484.06	2.99
484.41	2.98
484.761	2.99
485.111	3
485.461	3
485.811	2.99
486.162	3
486.512	3
486.862	3.01
487.212	3.02
487.562	3.02
487.912	3.02
488.262	3.03
488.612	3.03
488.961	3.03
489.311	3.03
489.661	3.02
490.011	3.01
490.36	3.03
490.71	3.04
491.06	3.05
491.409	3.04
491.759	3.06
492.108	3.04
492.458	3.04
492.807	3.06
493.157	3.08
493.506	3.1
493.855	3.11
494.204	3.1
494.554	3.1
494.903	3.12
495.252	3.14
495.601	3.16
495.95	3.17
496.299	3.21
496.648	3.25
496.997	3.28
497.346	3.31
497.695	3.35
498.043	3.39
498.392	3.45
498.741	3.49
499.09	3.54
499.438	3.6
499.787	3.65
500.135	3.69
500.484	3.7
500.832	3.75
501.181	3.8
501.529	3.89
501.878	3.96
502.226	4.01
502.574	4.08
502.923	4.15
503.271	4.23
503.619	4.29
503.967	4.35
504.315	4.4
504.663	4.49
505.011	4.56
505.359	4.63
505.707	4.7
506.055	4.78
506.403	4.86
506.751	4.95
507.098	5.07
507.446	5.17
507.794	5.28
508.141	5.39
508.489	5.49
508.837	5.56
509.184	5.65
509.531	5.76
509.879	5.87
510.226	5.95
510.574	6.07
510.921	6.18
511.268	6.3
511.616	6.45
511.963	6.57
512.31	6.69
512.657	6.81
513.004	6.94
513.351	7.08
513.698	7.22
514.045	7.38
514.392	7.5
514.739	7.65
515.086	7.82
515.432	7.95
515.779	8.12
516.126	8.29
516.473	8.45
516.819	8.62
517.166	8.75
517.512	8.9
517.859	9.04
518.205	9.17
518.552	9.3
518.898	9.42
519.245	9.54
519.591	9.7
519.937	9.82
520.283	9.96
520.629	10.13
520.976	10.3
521.322	10.48
521.668	10.67
522.014	10.86
522.36	11.04
522.706	11.25
523.052	11.48
523.398	11.7
523.743	11.91
524.089	12.15
524.435	12.39
524.781	12.61
525.126	12.81
525.472	13.02
525.817	13.2
526.163	13.36
526.509	13.52
526.854	13.67
527.199	13.81
527.545	13.94
527.89	14.09
528.235	14.22
528.581	14.35
528.926	14.5
529.271	14.65
529.616	14.79
529.961	14.95
530.306	15.1
530.651	15.26
530.996	15.44
531.341	15.62
531.686	15.81
532.031	16
532.376	16.18
532.721	16.38
533.065	16.6
533.41	16.83
533.755	17.06
534.099	17.29
534.444	17.54
534.788	17.78
535.133	17.99
535.477	18.24
535.822	18.5
536.166	18.78
536.51	19.08
536.855	19.38
537.199	19.69
537.543	20.02
537.887	20.35
538.231	20.67
538.576	21.01
538.92	21.32
539.264	21.63
539.608	21.93
539.951	22.18
540.295	22.42
540.639	22.67
540.983	22.9
541.327	23.13
541.671	23.39
542.014	23.64
542.358	23.91
542.701	24.14
543.045	24.36
543.389	24.59
543.732	24.84
544.075	25.07
544.419	25.29
544.762	25.54
545.105	25.78
545.449	26.06
545.792	26.33
546.135	26.6
546.478	26.88
546.821	27.19
547.165	27.5
547.508	27.84
547.851	28.18
548.194	28.54
548.536	28.85
548.879	29.17
549.222	29.46
549.565	29.75
549.908	30.09
550.25	30.43
550.593	30.72
550.936	31.03
551.278	31.36
551.621	31.63
551.963	31.9
552.306	32.2
552.648	32.5
552.991	32.74
553.333	33.03
553.675	33.31
554.017	33.55
554.36	33.8
554.702	34.04
555.044	34.23
555.386	34.5
555.728	34.76
556.07	34.96
556.412	35.26
556.754	35.46
557.096	35.7
557.438	35.94
557.78	36.18
558.121	36.37
558.463	36.58
558.805	36.88
559.147	37.18
559.488	37.42
559.83	37.61
560.171	37.84
560.513	38.03
560.854	38.24
561.196	38.53
561.537	38.75
561.878	38.95
562.22	39.21
562.561	39.4
562.902	39.6
563.243	39.78
563.584	39.97
563.925	40.18
564.266	40.35
564.607	40.51
564.948	40.73
565.289	40.99
565.63	41.17
565.971	41.34
566.312	41.5
566.653	41.67
566.993	41.85
567.334	42.05
567.675	42.28
568.015	42.44
568.356	42.57
568.696	42.74
569.037	42.9
569.377	43.01
569.718	43.18
570.058	43.34
570.398	43.51
570.739	43.65
571.079	43.76
571.419	43.89
571.759	44.06
572.099	44.2
572.439	44.28
572.779	44.41
573.119	44.52
573.459	44.61
573.799	44.7
574.139	44.85
574.479	44.96
574.819	45.04
575.158	45.22
575.498	45.3
575.838	45.42
576.177	45.55
576.517	45.7
576.856	45.79
577.196	45.93
577.535	46.07
577.875	46.2
578.214	46.35
578.553	46.49
578.893	46.61
579.232	46.73
579.571	46.87
579.91	46.98
580.25	47.12
580.589	47.18
580.928	47.3
581.267	47.39
581.606	47.48
581.945	47.56
582.283	47.61
582.622	47.78
582.961	47.92
583.3	47.93
583.639	48.04
583.977	48.11
584.316	48.18
584.654	48.3
584.993	48.37
585.332	48.41
585.67	48.52
586.008	48.62
586.347	48.62
586.685	48.67
587.024	48.8
587.362	48.94
587.7	49.1
588.038	49.2
588.376	49.28
588.715	49.36
589.053	49.45
589.391	49.57
589.729	49.58
590.067	49.59
590.404	49.78
590.742	49.82
591.08	49.93
591.418	50
591.756	49.99
592.093	50.11
592.431	50.26
592.769	50.31
593.106	50.39
593.444	50.47
593.781	50.56
594.119	50.62
594.456	50.64
594.793	50.65
595.131	50.74
595.468	50.83
595.805	50.85
596.143	50.9
596.48	50.92
596.817	51.02
597.154	51.04
597.491	51.05
597.828	51.17
598.165	51.2
598.502	51.26
598.839	51.37
599.176	51.39
599.512	51.43
599.849	51.43
600.186	51.47
600.523	51.52
600.859	51.58
601.196	51.67
601.532	51.76
601.869	51.85
602.205	51.85
602.542	51.8
602.878	51.91
603.215	51.98
603.551	51.99
603.887	52.11
604.223	52.22
604.56	52.29
604.896	52.3
605.232	52.41
605.568	52.46
605.904	52.54
606.24	52.59
606.576	52.64
606.912	52.76
607.248	52.78
607.583	52.82
607.919	52.87
608.255	52.87
608.591	52.9
608.926	52.97
609.262	53.03
609.597	53.2
609.933	53.19
610.268	53.22
610.604	53.25
610.939	53.22
611.275	53.23
611.61	53.23
611.945	53.29
612.281	53.26
612.616	53.29
612.951	53.24
613.286	53.27
613.621	53.32
613.956	53.3
614.291	53.29
614.626	53.38
614.961	53.4
615.296	53.48
615.631	53.58
615.966	53.62
616.3	53.64
616.635	53.53
616.97	53.59
617.304	53.65
617.639	53.77
617.973	53.8
618.308	53.85
618.642	53.91
618.977	53.91
619.311	53.92
619.646	53.95
619.98	54.05
620.314	54.1
620.648	54.12
620.983	54.21
621.317	54.36
621.651	54.31
621.985	54.41
622.319	54.41
622.653	54.33
622.987	54.32
623.321	54.41
623.655	54.45
623.988	54.55
624.322	54.53
624.656	54.45
624.99	54.49
625.323	54.51
625.657	54.52
625.99	54.54
626.324	54.51
626.657	54.46
626.991	54.46
627.324	54.52
627.658	54.52
627.991	54.59
628.324	54.58
628.657	54.69
628.991	54.72
629.324	54.71
629.657	54.79
629.99	54.83
630.323	54.82
630.656	54.86
630.989	54.83
631.322	54.86
631.655	54.97
631.987	54.89
632.32	54.88
632.653	54.91
632.986	54.95
633.318	55.13
633.651	55.15
633.984	55.15
634.316	55.2
634.649	55.27
634.981	55.27
635.313	55.32
635.646	55.27
635.978	55.25
636.31	55.32
636.643	55.29
636.975	55.37
637.307	55.31
637.639	55.4
637.971	55.35
638.303	55.36
638.635	55.35
638.967	55.35
639.299	55.37
639.631	55.29
639.963	55.33
640.295	55.27
640.626	55.35
640.958	55.34
641.29	55.34
641.621	55.33
641.953	55.24
642.285	55.27
642.616	55.35
642.948	55.31
643.279	55.33
643.61	55.36
643.942	55.26
644.273	55.25
644.604	55.25
644.936	55.37
645.267	55.41
645.598	55.43
645.929	55.53
646.26	55.61
646.591	55.76
646.922	55.73
647.253	55.74
647.584	55.72
647.915	55.81
648.245	55.64
648.576	55.65
648.907	55.65
649.238	55.58
649.568	55.64
649.899	55.67
650.229	55.66
650.56	55.66
650.89	55.69
651.221	55.84
651.551	55.88
651.882	55.86
652.212	55.81
652.542	55.87
652.872	55.91
653.203	55.95
653.533	56
653.863	56.06
654.193	56
654.523	56.07
654.853	56.02
655.183	56.14
655.513	56.19
655.843	56.32
656.172	56.43
656.502	56.36
656.832	56.43
657.162	56.51
657.491	56.61
657.821	56.6
658.15	56.57
658.48	56.54
658.809	56.52
659.139	56.73
659.468	56.75
659.798	56.81
660.127	56.79
660.456	56.76
660.785	56.76
661.115	56.86
661.444	56.97
661.773	56.97
662.102	56.94
662.431	56.97
662.76	57
663.089	56.97
663.418	57.07
663.747	56.99
664.076	56.95
664.404	56.89
664.733	56.97
665.062	57.12
665.39	57.11
665.719	57.08
