Data from BU26941_Reflection_00003.txt Node
Date: Tue Nov 19 11:03:22 EST 2019
User: vgr7
Spectrometer: USB2G7710
Scans to average: 3
Trigger mode: 4
Integration Time (sec): 2.000000E-2
Electric dark correction enabled: true
Boxcar width: 10
XAxis mode: Wavelengths
Number of Pixels in Spectrum: 2048
>>>>>Begin Spectral Data<<<<<
177.721	136.53
178.105	110.15
178.488	118.56
178.871	82.43
179.254	62.3
179.636	169.13
180.019	203.13
180.402	440
180.785	-320.75
181.168	-12025
181.55	178.68
181.933	-61.97
182.316	118.8
182.698	71.07
183.081	-562.16
183.463	-94.61
183.846	-97.48
184.228	-461.22
184.611	91.29
184.993	226.87
185.376	467.05
185.758	115.97
186.14	146.84
186.522	96.1
186.904	91.73
187.287	65.89
187.669	158.26
188.051	189.39
188.433	168.25
188.815	-7.57
189.197	-19.66
189.579	-41.08
189.961	-17.56
190.342	61.02
190.724	69.97
191.106	12.4
191.488	70.44
191.869	27.07
192.251	68.58
192.633	61.54
193.014	-26.06
193.396	-51.56
193.777	5.92
194.159	-65.89
194.54	-139.96
194.922	-400
195.303	-432.43
195.684	-400
196.065	-352.68
196.447	-186.04
196.828	-135.96
197.209	-228.38
197.59	-128.79
197.971	-94.09
198.352	-126.98
198.733	-128.12
199.114	-117.5
199.495	-95.11
199.876	-142.44
200.257	-194.9
200.638	-190.3
201.018	-152.55
201.399	-143.16
201.78	-91.08
202.16	-98.94
202.541	-91.13
202.922	-115.96
203.302	-104.3
203.683	-121.7
204.063	-182.91
204.444	-154.82
204.824	-253.54
205.204	-182.07
205.585	-244.16
205.965	-445.59
206.345	-481.71
206.725	-121.17
207.106	-90.44
207.486	-113.04
207.866	-99.33
208.246	12.57
208.626	31.29
209.006	63.84
209.386	82.69
209.766	-20.41
210.145	123
210.525	128.36
210.905	130.82
211.285	226.63
211.664	370.15
212.044	314.87
212.424	265.87
212.803	340.05
213.183	259.34
213.562	504.48
213.942	451.46
214.321	381.87
214.701	738.69
215.08	1352.81
215.459	362.06
215.838	444.11
216.218	383.25
216.597	813.48
216.976	-106.77
217.355	-24400
217.734	217.22
218.113	431.68
218.492	990.24
218.871	175.51
219.25	39.02
219.629	7.57
220.008	-7.9
220.387	-36.7
220.766	2.32
221.144	-31.51
221.523	-85.66
221.902	-61.03
222.28	-27.8
222.659	-38.31
223.037	-59.05
223.416	-59.21
223.794	-52.32
224.173	-59.19
224.551	-45.74
224.929	-24.16
225.308	-24.41
225.686	-29.65
226.064	-30.09
226.442	-27.26
226.821	-21.29
227.199	-16.61
227.577	-13.05
227.955	-9.34
228.333	-6.06
228.711	-6.7
229.089	-5.15
229.467	0.94
229.845	0.33
230.222	0.45
230.6	2.24
230.978	4.51
231.356	4.48
231.733	8.05
232.111	7.1
232.488	8.25
232.866	10.6
233.243	8.26
233.621	11.92
233.998	11.42
234.376	11.78
234.753	10.15
235.13	7.74
235.508	6.94
235.885	5.38
236.262	4.72
236.639	4.29
237.016	4.59
237.393	2.81
237.77	2.84
238.147	1.93
238.524	2.19
238.901	1.84
239.278	1.07
239.655	0.38
240.032	0.87
240.409	0.43
240.785	-1.03
241.162	-0.1
241.539	-0.64
241.915	-0.81
242.292	-0.52
242.668	0.05
243.045	1.1
243.421	1.29
243.798	1.51
244.174	1.84
244.551	2.17
244.927	2.07
245.303	1.9
245.679	2.28
246.056	2.61
246.432	2.51
246.808	2.8
247.184	3.09
247.56	2.89
247.936	2.95
248.312	3.11
248.688	3.61
249.064	3.58
249.44	3.68
249.815	3.75
250.191	3.98
250.567	4
250.943	4.01
251.318	4.01
251.694	3.92
252.069	4.27
252.445	4.24
252.82	4.69
253.196	5.12
253.571	5.13
253.947	4.97
254.322	5.18
254.697	4.86
255.073	4.81
255.448	4.95
255.823	5.11
256.198	4.7
256.573	4.48
256.948	4.41
257.323	4.59
257.698	4.69
258.073	4.38
258.448	4.46
258.823	4.2
259.198	4.3
259.573	4.27
259.948	3.96
260.322	3.75
260.697	3.65
261.072	3.59
261.446	3.56
261.821	3.42
262.195	3.24
262.57	3.29
262.944	3.32
263.319	3.17
263.693	3.04
264.067	3.03
264.442	2.98
264.816	2.9
265.19	2.66
265.564	2.34
265.938	2.58
266.313	2.19
266.687	2.29
267.061	2.17
267.435	2.38
267.809	2.36
268.183	2.45
268.556	2.42
268.93	2.56
269.304	2.48
269.678	2.71
270.051	2.82
270.425	2.88
270.799	2.81
271.172	3.04
271.546	2.99
271.919	2.92
272.293	3.1
272.666	3.08
273.04	3.18
273.413	3.37
273.787	3.26
274.16	3.41
274.533	3.57
274.906	3.48
275.279	3.54
275.653	3.72
276.026	3.78
276.399	3.87
276.772	3.8
277.145	3.94
277.518	3.87
277.891	3.88
278.263	3.74
278.636	3.65
279.009	3.62
279.382	3.68
279.755	3.87
280.127	3.63
280.5	3.7
280.872	3.62
281.245	3.59
281.617	3.45
281.99	3.42
282.362	3.42
282.735	3.45
283.107	3.33
283.479	3.29
283.852	3.28
284.224	3.26
284.596	3.2
284.968	3.09
285.34	3.03
285.713	3.09
286.085	2.97
286.457	3.06
286.829	3.08
287.201	3.13
287.572	3.24
287.944	3.38
288.316	3.39
288.688	3.49
289.06	3.6
289.431	3.7
289.803	3.85
290.175	3.75
290.546	3.76
290.918	3.78
291.289	3.77
291.661	3.87
292.032	3.7
292.403	3.69
292.775	3.86
293.146	3.98
293.517	3.84
293.889	3.89
294.26	3.88
294.631	4
295.002	3.94
295.373	3.81
295.744	3.73
296.115	3.87
296.486	3.8
296.857	3.6
297.228	3.59
297.599	3.48
297.97	3.51
298.34	3.51
298.711	3.5
299.082	3.53
299.452	3.45
299.823	3.56
300.194	3.69
300.564	3.47
300.935	3.44
301.305	3.47
301.676	3.46
302.046	3.62
302.416	3.38
302.787	3.26
303.157	3.31
303.527	3.31
303.897	3.12
304.267	3.1
304.637	3.31
305.008	3.32
305.378	3.29
305.748	3.37
306.117	3.45
306.487	3.5
306.857	3.53
307.227	3.6
307.597	3.54
307.967	3.51
308.336	3.51
308.706	3.51
309.076	3.59
309.445	3.75
309.815	3.62
310.184	3.74
310.554	3.73
310.923	3.61
311.293	3.69
311.662	3.76
312.031	3.79
312.401	3.64
312.77	3.5
313.139	3.43
313.508	3.19
313.877	3.16
314.246	3.05
314.616	2.96
314.985	2.83
315.353	2.83
315.722	2.79
316.091	2.91
316.46	2.94
316.829	2.97
317.198	2.87
317.567	2.85
317.935	2.76
318.304	2.96
318.672	3.13
319.041	3.17
319.41	3.07
319.778	3.19
320.147	3.29
320.515	3.39
320.883	3.41
321.252	3.62
321.62	3.61
321.988	3.54
322.357	3.5
322.725	3.49
323.093	3.36
323.461	3.38
323.829	3.3
324.197	3.21
324.565	3.08
324.933	3.01
325.301	3.05
325.669	3.12
326.037	3.07
326.405	3.05
326.772	3.03
327.14	2.98
327.508	2.79
327.875	2.77
328.243	2.75
328.61	2.76
328.978	2.59
329.346	2.56
329.713	2.82
330.08	2.89
330.448	2.94
330.815	3.14
331.182	3.05
331.55	3.1
331.917	3.07
332.284	3.25
332.651	3.3
333.018	3.29
333.385	3.3
333.752	3.26
334.119	3.27
334.486	3.12
334.853	3.11
335.22	3.21
335.587	3.12
335.954	3.07
336.32	3.11
336.687	3.18
337.054	3.17
337.42	2.98
337.787	2.95
338.153	3
338.52	2.92
338.886	2.92
339.253	2.78
339.619	2.89
339.986	2.68
340.352	2.71
340.718	2.63
341.084	2.6
341.451	2.66
341.817	2.63
342.183	2.7
342.549	2.82
342.915	2.73
343.281	2.9
343.647	2.97
344.013	2.95
344.379	3.01
344.745	2.99
345.11	3.09
345.476	3.18
345.842	3.11
346.208	3.1
346.573	3.13
346.939	3.24
347.304	3.19
347.67	3.26
348.035	3.22
348.401	3.38
348.766	3.34
349.132	3.32
349.497	3.36
349.862	3.31
350.228	3.34
350.593	3.38
350.958	3.38
351.323	3.36
351.688	3.41
352.053	3.39
352.418	3.48
352.783	3.44
353.148	3.39
353.513	3.4
353.878	3.37
354.243	3.31
354.608	3.27
354.972	3.25
355.337	3.25
355.702	3.28
356.066	3.19
356.431	3.15
356.795	3.12
357.16	3.09
357.524	3.2
357.889	3.14
358.253	3.11
358.618	3.04
358.982	3.03
359.346	3.04
359.71	3
360.075	3.05
360.439	3.05
360.803	3.1
361.167	3.1
361.531	3.16
361.895	3.24
362.259	3.27
362.623	3.31
362.987	3.35
363.351	3.31
363.714	3.31
364.078	3.35
364.442	3.36
364.806	3.38
365.169	3.33
365.533	3.37
365.896	3.41
366.26	3.36
366.623	3.36
366.987	3.29
367.35	3.36
367.714	3.2
368.077	3.23
368.44	3.13
368.803	3.18
369.167	3.15
369.53	3.18
369.893	3.21
370.256	3.2
370.619	3.14
370.982	3.18
371.345	3.18
371.708	3.19
372.071	3.2
372.434	3.16
372.797	3.13
373.159	3.06
373.522	3.03
373.885	3.1
374.247	3.14
374.61	3.2
374.973	3.19
375.335	3.24
375.698	3.19
376.06	3.19
376.423	3.11
376.785	3.13
377.147	3.04
377.51	2.99
377.872	2.98
378.234	3.05
378.596	3.05
378.958	3.07
379.321	3.02
379.683	3.06
380.045	3.04
380.407	3.03
380.769	3.05
381.13	3.01
381.492	3.02
381.854	2.98
382.216	3
382.578	3
382.939	2.99
383.301	3.03
383.663	3.06
384.024	3.06
384.386	3.05
384.747	3.06
385.109	3.08
385.47	3.14
385.832	3.11
386.193	3.08
386.554	3.01
386.916	3.04
387.277	3.01
387.638	3.01
387.999	3.04
388.36	3.08
388.721	3.12
389.082	3.11
389.443	3.12
389.804	3.08
390.165	3.08
390.526	3.08
390.887	3.09
391.248	3.09
391.609	3.13
391.969	3.13
392.33	3.14
392.691	3.14
393.051	3.07
393.412	3.07
393.772	3.07
394.133	3.09
394.493	3.06
394.854	3.07
395.214	3.09
395.574	3.07
395.935	3.05
396.295	3.06
396.655	3.07
397.015	3.07
397.376	3.09
397.736	3.09
398.096	3.1
398.456	3.1
398.816	3.1
399.176	3.09
399.535	3.1
399.895	3.14
400.255	3.15
400.615	3.19
400.975	3.18
401.334	3.2
401.694	3.23
402.054	3.24
402.413	3.24
402.773	3.22
403.132	3.23
403.492	3.24
403.851	3.21
404.211	3.18
404.57	3.17
404.929	3.14
405.288	3.13
405.648	3.1
406.007	3.09
406.366	3.08
406.725	3.07
407.084	3.06
407.443	3.03
407.802	3.01
408.161	3
408.52	3
408.879	3.02
409.238	3.01
409.596	3
409.955	3
410.314	3.02
410.673	3.02
411.031	3.02
411.39	3.04
411.748	3.04
412.107	3.04
412.465	3.08
412.824	3.08
413.182	3.09
413.54	3.09
413.899	3.09
414.257	3.11
414.615	3.11
414.974	3.1
415.332	3.1
415.69	3.1
416.048	3.11
416.406	3.07
416.764	3.07
417.122	3.08
417.48	3.07
417.838	3.07
418.195	3.09
418.553	3.09
418.911	3.09
419.269	3.1
419.626	3.08
419.984	3.09
420.342	3.09
420.699	3.08
421.057	3.08
421.414	3.09
421.772	3.07
422.129	3.07
422.486	3.08
422.844	3.09
423.201	3.08
423.558	3.09
423.915	3.1
424.273	3.11
424.63	3.12
424.987	3.12
425.344	3.13
425.701	3.12
426.058	3.1
426.415	3.1
426.772	3.09
427.128	3.09
427.485	3.08
427.842	3.07
428.199	3.07
428.555	3.08
428.912	3.08
429.269	3.07
429.625	3.07
429.982	3.06
430.338	3.06
430.695	3.07
431.051	3.06
431.407	3.04
431.764	3.04
432.12	3.04
432.476	3.06
432.832	3.04
433.189	3.03
433.545	3.05
433.901	3.06
434.257	3.08
434.613	3.08
434.969	3.08
435.325	3.1
435.681	3.09
436.036	3.1
436.392	3.09
436.748	3.11
437.104	3.1
437.459	3.1
437.815	3.09
438.171	3.1
438.526	3.09
438.882	3.11
439.237	3.11
439.593	3.12
439.948	3.09
440.304	3.08
440.659	3.09
441.014	3.09
441.369	3.11
441.725	3.1
442.08	3.1
442.435	3.11
442.79	3.1
443.145	3.12
443.5	3.11
443.855	3.12
444.21	3.12
444.565	3.14
444.92	3.14
445.275	3.15
445.629	3.14
445.984	3.13
446.339	3.14
446.693	3.14
447.048	3.13
447.403	3.14
447.757	3.14
448.112	3.14
448.466	3.14
448.82	3.11
449.175	3.12
449.529	3.14
449.883	3.14
450.238	3.13
450.592	3.13
450.946	3.13
451.3	3.12
451.654	3.1
452.008	3.09
452.362	3.1
452.716	3.08
453.07	3.09
453.424	3.1
453.778	3.09
454.132	3.08
454.486	3.11
454.839	3.11
455.193	3.12
455.547	3.12
455.9	3.09
456.254	3.09
456.607	3.08
456.961	3.07
457.314	3.06
457.668	3.05
458.021	3.04
458.375	3.05
458.728	3.05
459.081	3.07
459.434	3.07
459.787	3.07
460.141	3.08
460.494	3.08
460.847	3.07
461.2	3.07
461.553	3.08
461.906	3.05
462.259	3.04
462.611	3.06
462.964	3.05
463.317	3.06
463.67	3.07
464.022	3.07
464.375	3.07
464.728	3.09
465.08	3.11
465.433	3.13
465.785	3.13
466.138	3.15
466.49	3.13
466.843	3.14
467.195	3.14
467.547	3.14
467.899	3.15
468.252	3.15
468.604	3.14
468.956	3.15
469.308	3.16
469.66	3.19
470.012	3.17
470.364	3.2
470.716	3.21
471.068	3.21
471.42	3.21
471.772	3.21
472.123	3.19
472.475	3.2
472.827	3.17
473.178	3.17
473.53	3.16
473.882	3.16
474.233	3.16
474.585	3.16
474.936	3.16
475.288	3.15
475.639	3.18
475.99	3.18
476.342	3.19
476.693	3.18
477.044	3.17
477.395	3.18
477.746	3.19
478.097	3.18
478.448	3.18
478.8	3.18
479.15	3.18
479.501	3.2
479.852	3.21
480.203	3.23
480.554	3.24
480.905	3.26
481.255	3.27
481.606	3.28
481.957	3.28
482.307	3.29
482.658	3.29
483.009	3.28
483.359	3.29
483.709	3.29
484.06	3.31
484.41	3.31
484.761	3.31
485.111	3.31
485.461	3.31
485.811	3.31
486.162	3.31
486.512	3.31
486.862	3.31
487.212	3.31
487.562	3.31
487.912	3.31
488.262	3.31
488.612	3.3
488.961	3.3
489.311	3.3
489.661	3.29
490.011	3.28
490.36	3.29
490.71	3.29
491.06	3.28
491.409	3.27
491.759	3.27
492.108	3.28
492.458	3.27
492.807	3.28
493.157	3.29
493.506	3.31
493.855	3.31
494.204	3.29
494.554	3.29
494.903	3.28
495.252	3.29
495.601	3.29
495.95	3.29
496.299	3.29
496.648	3.31
496.997	3.31
497.346	3.34
497.695	3.32
498.043	3.33
498.392	3.32
498.741	3.34
499.09	3.34
499.438	3.33
499.787	3.33
500.135	3.32
500.484	3.32
500.832	3.32
501.181	3.33
501.529	3.36
501.878	3.38
502.226	3.38
502.574	3.39
502.923	3.39
503.271	3.38
503.619	3.41
503.967	3.38
504.315	3.39
504.663	3.37
505.011	3.41
505.359	3.38
505.707	3.4
506.055	3.4
506.403	3.4
506.751	3.42
507.098	3.45
507.446	3.45
507.794	3.46
508.141	3.48
508.489	3.48
508.837	3.5
509.184	3.5
509.531	3.51
509.879	3.5
510.226	3.5
510.574	3.52
510.921	3.51
511.268	3.53
511.616	3.54
511.963	3.55
512.31	3.56
512.657	3.58
513.004	3.58
513.351	3.57
513.698	3.56
514.045	3.57
514.392	3.57
514.739	3.58
515.086	3.58
515.432	3.59
515.779	3.59
516.126	3.58
516.473	3.56
516.819	3.56
517.166	3.57
517.512	3.57
517.859	3.58
518.205	3.58
518.552	3.58
518.898	3.57
519.245	3.58
519.591	3.56
519.937	3.57
520.283	3.57
520.629	3.58
520.976	3.59
521.322	3.58
521.668	3.59
522.014	3.61
522.36	3.61
522.706	3.6
523.052	3.61
523.398	3.61
523.743	3.63
524.089	3.63
524.435	3.64
524.781	3.65
525.126	3.65
525.472	3.66
525.817	3.67
526.163	3.68
526.509	3.69
526.854	3.69
527.199	3.69
527.545	3.7
527.89	3.69
528.235	3.71
528.581	3.7
528.926	3.69
529.271	3.68
529.616	3.69
529.961	3.68
530.306	3.68
530.651	3.68
530.996	3.68
531.341	3.69
531.686	3.69
532.031	3.69
532.376	3.69
532.721	3.69
533.065	3.69
533.41	3.68
533.755	3.67
534.099	3.67
534.444	3.66
534.788	3.66
535.133	3.66
535.477	3.66
535.822	3.66
536.166	3.67
536.51	3.68
536.855	3.66
537.199	3.67
537.543	3.68
537.887	3.7
538.231	3.69
538.576	3.69
538.92	3.68
539.264	3.7
539.608	3.7
539.951	3.7
540.295	3.7
540.639	3.71
540.983	3.71
541.327	3.72
541.671	3.73
542.014	3.74
542.358	3.75
542.701	3.76
543.045	3.77
543.389	3.79
543.732	3.78
544.075	3.79
544.419	3.8
544.762	3.8
545.105	3.8
545.449	3.82
545.792	3.84
546.135	3.85
546.478	3.85
546.821	3.85
547.165	3.86
547.508	3.87
547.851	3.88
548.194	3.87
548.536	3.88
548.879	3.87
549.222	3.86
549.565	3.85
549.908	3.83
550.25	3.84
550.593	3.83
550.936	3.85
551.278	3.86
551.621	3.84
551.963	3.84
552.306	3.87
552.648	3.86
552.991	3.83
553.333	3.82
553.675	3.84
554.017	3.85
554.36	3.84
554.702	3.82
555.044	3.81
555.386	3.83
555.728	3.86
556.07	3.84
556.412	3.86
556.754	3.86
557.096	3.88
557.438	3.88
557.78	3.84
558.121	3.84
558.463	3.82
558.805	3.84
559.147	3.85
559.488	3.81
559.83	3.79
560.171	3.8
560.513	3.78
560.854	3.75
561.196	3.75
561.537	3.79
561.878	3.79
562.22	3.79
562.561	3.81
562.902	3.8
563.243	3.81
563.584	3.81
563.925	3.85
564.266	3.8
564.607	3.82
564.948	3.85
565.289	3.82
565.63	3.83
565.971	3.81
566.312	3.8
566.653	3.81
566.993	3.83
567.334	3.83
567.675	3.84
568.015	3.82
568.356	3.81
568.696	3.8
569.037	3.8
569.377	3.8
569.718	3.79
570.058	3.79
570.398	3.79
570.739	3.77
571.079	3.75
571.419	3.79
571.759	3.72
572.099	3.71
572.439	3.72
572.779	3.74
573.119	3.73
573.459	3.73
573.799	3.72
574.139	3.71
574.479	3.7
574.819	3.71
575.158	3.72
575.498	3.75
575.838	3.75
576.177	3.75
576.517	3.77
576.856	3.76
577.196	3.74
577.535	3.76
577.875	3.74
578.214	3.73
578.553	3.73
578.893	3.78
579.232	3.83
579.571	3.85
579.91	3.85
580.25	3.87
580.589	3.91
580.928	3.94
581.267	3.95
581.606	3.95
581.945	3.91
582.283	3.95
582.622	3.89
582.961	3.92
583.3	3.92
583.639	3.9
583.977	3.9
584.316	3.91
584.654	3.9
584.993	3.91
585.332	3.93
585.67	3.91
586.008	3.92
586.347	3.86
586.685	3.82
587.024	3.81
587.362	3.78
587.7	3.74
588.038	3.77
588.376	3.76
588.715	3.79
589.053	3.82
589.391	3.82
589.729	3.84
590.067	3.82
590.404	3.83
590.742	3.83
591.08	3.85
591.418	3.83
591.756	3.87
592.093	3.87
592.431	3.89
592.769	3.91
593.106	3.88
593.444	3.92
593.781	3.92
594.119	3.91
594.456	3.92
594.793	3.93
595.131	3.9
595.468	3.92
595.805	3.91
596.143	3.92
596.48	3.94
596.817	3.94
597.154	3.94
597.491	3.93
597.828	3.93
598.165	3.93
598.502	3.96
598.839	3.93
599.176	3.92
599.512	3.89
599.849	3.92
600.186	3.95
600.523	3.92
600.859	3.97
601.196	3.99
601.532	4
601.869	4
602.205	3.99
602.542	3.99
602.878	3.98
603.215	3.98
603.551	3.96
603.887	3.97
604.223	3.96
604.56	3.96
604.896	4
605.232	3.99
605.568	3.97
605.904	3.96
606.24	4.01
606.576	4.03
606.912	4.02
607.248	4.03
607.583	4.07
607.919	4.04
608.255	4.03
608.591	4.05
608.926	4.07
609.262	4.06
609.597	4.06
609.933	4.07
610.268	4.1
610.604	4.08
610.939	4.1
611.275	4.12
611.61	4.13
611.945	4.09
612.281	4.08
612.616	4.13
612.951	4.18
613.286	4.11
613.621	4.08
613.956	4.12
614.291	4.06
614.626	4.02
614.961	4.02
615.296	4.09
615.631	4.1
615.966	4.08
616.3	4.13
616.635	4.1
616.97	4.11
617.304	4.1
617.639	4.16
617.973	4.1
618.308	4.12
618.642	4.12
618.977	4.09
619.311	4.1
619.646	4.05
619.98	4.04
620.314	4.1
620.648	4.1
620.983	4.1
621.317	4.14
621.651	4.14
621.985	4.18
622.319	4.15
622.653	4.1
622.987	4.11
623.321	4.04
623.655	4.06
623.988	4.04
624.322	4.06
624.656	4.04
624.99	4.06
625.323	4.04
625.657	4.06
625.99	4.11
626.324	4.11
626.657	4.09
626.991	4.07
627.324	4.07
627.658	4.09
627.991	4.06
628.324	4.05
628.657	4.06
628.991	4.07
629.324	4.01
629.657	4
629.99	4.02
630.323	4.05
630.656	4.03
630.989	4.01
631.322	3.99
631.655	3.94
631.987	3.97
632.32	3.97
632.653	3.92
632.986	3.91
633.318	3.96
633.651	4.03
633.984	4.01
634.316	4.02
634.649	4.05
634.981	4.08
635.313	4.1
635.646	4.1
635.978	4.08
636.31	4.12
636.643	4.16
636.975	4.13
637.307	4.13
637.639	4.13
637.971	4.12
638.303	4.16
638.635	4.19
638.967	4.14
639.299	4.13
639.631	4.13
639.963	4.18
640.295	4.17
640.626	4.1
640.958	4.12
641.29	4.07
641.621	4.01
641.953	3.96
642.285	3.99
642.616	4
642.948	3.99
643.279	4.02
643.61	4.03
643.942	4.05
644.273	4.09
644.604	4.18
644.936	4.21
645.267	4.22
645.598	4.21
645.929	4.22
646.26	4.24
646.591	4.28
646.922	4.22
647.253	4.18
647.584	4.19
647.915	4.22
648.245	4.25
648.576	4.28
648.907	4.35
649.238	4.32
649.568	4.27
649.899	4.29
650.229	4.31
650.56	4.34
650.89	4.33
651.221	4.27
651.551	4.24
651.882	4.23
652.212	4.21
652.542	4.22
652.872	4.27
653.203	4.32
653.533	4.38
653.863	4.34
654.193	4.36
654.523	4.33
654.853	4.36
655.183	4.36
655.513	4.41
655.843	4.37
656.172	4.41
656.502	4.45
656.832	4.39
657.162	4.34
657.491	4.36
657.821	4.33
658.15	4.4
658.48	4.43
658.809	4.45
659.139	4.47
659.468	4.49
659.798	4.47
660.127	4.42
660.456	4.35
660.785	4.39
661.115	4.43
661.444	4.51
661.773	4.45
662.102	4.46
662.431	4.41
662.76	4.39
663.089	4.41
663.418	4.43
663.747	4.5
664.076	4.51
664.404	4.42
664.733	4.45
665.062	4.41
665.39	4.39
665.719	4.39
666.048	4.37
666.376	4.32
666.705	4.31
667.033	4.3
667.362	4.28
667.69	4.29
668.018	4.31
668.347	4.3
668.675	4.36
669.003	4.32
669.331	4.38
669.659	4.33
669.987	4.28
670.315	4.25
670.643	4.25
670.971	4.28
671.299	4.29
671.627	4.3
671.955	4.26
672.283	4.21
672.61	4.24
672.938	4.32
673.266	4.33
673.593	4.34
673.921	4.34
674.249	4.3
674.576	4.27
674.904	4.19
675.231	4.14
675.558	4.11
675.886	4.15
676.213	4.09
676.54	4.22
676.867	4.16
677.195	4.22
677.522	4.17
677.849	4.2
