Data from BU26845_Reflection_00013.txt Node
Date: Mon Nov 18 16:28:16 EST 2019
User: vgr7
Spectrometer: USB2G7710
Scans to average: 3
Trigger mode: 4
Integration Time (sec): 2.000000E-2
Electric dark correction enabled: true
Boxcar width: 10
XAxis mode: Wavelengths
Number of Pixels in Spectrum: 2048
>>>>>Begin Spectral Data<<<<<
177.721	29.62
178.105	56.66
178.488	88.62
178.871	126.02
179.254	115.59
179.636	-329.2
180.019	143.48
180.402	152
180.785	652.45
181.168	-150
181.55	-4.48
181.933	100.66
182.316	176.68
182.698	179.88
183.081	183.87
183.463	212.98
183.846	122.17
184.228	74.42
184.611	21.16
184.993	25.45
185.376	48.08
185.758	15.25
186.14	-4.19
186.522	9.22
186.904	0.12
187.287	13
187.669	6.45
188.051	8.87
188.433	20.76
188.815	25.96
189.197	16.88
189.579	8.85
189.961	10.46
190.342	13.96
190.724	8.22
191.106	4.05
191.488	-2.21
191.869	1.92
192.251	-4.67
192.633	-0.69
193.014	-1.44
193.396	-8.51
193.777	-15.21
194.159	-10.92
194.54	-7.9
194.922	5.77
195.303	-5.07
195.684	-4.22
196.065	7.71
196.447	18.45
196.828	18.26
197.209	30.64
197.59	46.64
197.971	58.4
198.352	55.55
198.733	50.57
199.114	59.24
199.495	72.55
199.876	76.68
200.257	69.42
200.638	64.75
201.018	53.47
201.399	68.33
201.78	58.12
202.16	50.6
202.541	32.27
202.922	14.64
203.302	14.64
203.683	7.77
204.063	-26.27
204.444	-55.11
204.824	-52.28
205.204	-42.3
205.585	-41.42
205.965	-59.78
206.345	-60.48
206.725	-47.32
207.106	-79.99
207.486	-69.44
207.866	-57.87
208.246	-69.44
208.626	-49.16
209.006	-44.07
209.386	-54.38
209.766	-60.94
210.145	-58.48
210.525	-39.76
210.905	-28.65
211.285	-29.74
211.664	-18.53
212.044	-9.4
212.424	6.26
212.803	-0.4
213.183	-10.46
213.562	-7.18
213.942	-3.64
214.321	-1.09
214.701	1.68
215.08	14.72
215.459	14.09
215.838	13.55
216.218	20.08
216.597	21.35
216.976	28.2
217.355	39.21
217.734	47.58
218.113	56.9
218.492	69.49
218.871	67.6
219.25	59.42
219.629	57.21
220.008	60.25
220.387	58.09
220.766	69.84
221.144	68.94
221.523	72.92
221.902	79.17
222.28	74.71
222.659	83.26
223.037	88
223.416	78.33
223.794	72.26
224.173	62.57
224.551	48.89
224.929	40.25
225.308	26.79
225.686	21.6
226.064	20.25
226.442	10.06
226.821	10.51
227.199	5.98
227.577	7.18
227.955	7.08
228.333	3.93
228.711	4.01
229.089	4.25
229.467	-1.08
229.845	-1.09
230.222	-0.39
230.6	0.04
230.978	-3.01
231.356	0.75
231.733	3.52
232.111	4.5
232.488	5.62
232.866	4.8
233.243	5.04
233.621	4.83
233.998	7.92
234.376	8.89
234.753	9.22
235.13	10.81
235.508	10.55
235.885	9.46
236.262	8.56
236.639	7.46
237.016	8.32
237.393	9.91
237.77	10.52
238.147	10.52
238.524	9.17
238.901	9.58
239.278	8.17
239.655	7.55
240.032	7.64
240.409	6.74
240.785	6.5
241.162	6.42
241.539	6.67
241.915	5.34
242.292	4.68
242.668	4.8
243.045	4.63
243.421	3.97
243.798	4.16
244.174	4.2
244.551	4.15
244.927	4.04
245.303	3.99
245.679	3.86
246.056	3.59
246.432	3.56
246.808	3.54
247.184	3.61
247.56	3.43
247.936	3.08
248.312	3.17
248.688	3.28
249.064	2.94
249.44	2.82
249.815	2.88
250.191	3.11
250.567	3.13
250.943	2.92
251.318	3.24
251.694	3.12
252.069	3.25
252.445	3.35
252.82	3.44
253.196	3.13
253.571	3.03
253.947	3.24
254.322	3.16
254.697	3.19
255.073	3.01
255.448	3.19
255.823	3.2
256.198	3.19
256.573	3.23
256.948	3.77
257.323	3.86
257.698	4.09
258.073	3.99
258.448	3.75
258.823	3.95
259.198	3.93
259.573	3.85
259.948	3.65
260.322	3.66
260.697	3.54
261.072	3.63
261.446	3.65
261.821	3.59
262.195	3.66
262.57	3.51
262.944	3.51
263.319	3.44
263.693	3.42
264.067	3.57
264.442	3.63
264.816	3.49
265.19	3.41
265.564	3.28
265.938	3.19
266.313	3.2
266.687	3.2
267.061	3.24
267.435	3.25
267.809	3.31
268.183	3.17
268.556	2.95
268.93	3.1
269.304	3.12
269.678	3.14
270.051	3.17
270.425	3.27
270.799	3.26
271.172	3.3
271.546	3.26
271.919	3.15
272.293	3.11
272.666	3.16
273.04	3.17
273.413	3.22
273.787	3.34
274.16	3.32
274.533	3.17
274.906	3.07
275.279	3.36
275.653	3.45
276.026	3.52
276.399	3.87
276.772	3.82
277.145	3.84
277.518	3.88
277.891	3.93
278.263	3.88
278.636	3.99
279.009	3.94
279.382	4.19
279.755	4.22
280.127	4.21
280.5	4.18
280.872	4.21
281.245	3.97
281.617	3.97
281.99	4
282.362	3.96
282.735	3.69
283.107	3.45
283.479	3.44
283.852	3.44
284.224	3.38
284.596	3.33
284.968	3.36
285.34	3.38
285.713	3.25
286.085	3.29
286.457	3.36
286.829	3.34
287.201	3.34
287.572	3.25
287.944	3.15
288.316	3.2
288.688	3.1
289.06	3.17
289.431	3.17
289.803	3.2
290.175	3.3
290.546	3.6
290.918	3.63
291.289	3.65
291.661	3.72
292.032	3.69
292.403	3.74
292.775	3.7
293.146	3.67
293.517	3.81
293.889	3.83
294.26	3.86
294.631	3.96
295.002	3.92
295.373	4
295.744	4.21
296.115	4.16
296.486	4.12
296.857	4.32
297.228	4.41
297.599	4.41
297.97	4.39
298.34	4.41
298.711	4.51
299.082	4.49
299.452	4.53
299.823	4.62
300.194	4.71
300.564	4.75
300.935	4.84
301.305	4.86
301.676	4.81
302.046	4.79
302.416	4.76
302.787	4.85
303.157	4.88
303.527	4.8
303.897	4.82
304.267	5.19
304.637	5.09
305.008	5.03
305.378	5.13
305.748	5.31
306.117	5.3
306.487	5.32
306.857	5.47
307.227	5.48
307.597	5.39
307.967	5.39
308.336	5.5
308.706	5.48
309.076	5.52
309.445	5.63
309.815	5.72
310.184	5.85
310.554	5.88
310.923	5.95
311.293	5.98
311.662	5.97
312.031	5.84
312.401	5.91
312.77	6.02
313.139	6.07
313.508	6.07
313.877	6
314.246	6.06
314.616	6.15
314.985	6.14
315.353	6.31
315.722	6.57
316.091	6.49
316.46	6.65
316.829	6.7
317.198	6.69
317.567	6.73
317.935	6.75
318.304	6.83
318.672	6.87
319.041	7.09
319.41	7.21
319.778	7.28
320.147	7.34
320.515	7.46
320.883	7.44
321.252	7.57
321.62	7.74
321.988	7.75
322.357	7.73
322.725	7.79
323.093	7.81
323.461	7.6
323.829	7.74
324.197	7.79
324.565	7.88
324.933	8.12
325.301	8.09
325.669	8.15
326.037	8.19
326.405	8.24
326.772	8.22
327.14	8.27
327.508	8.38
327.875	8.38
328.243	8.37
328.61	8.49
328.978	8.36
329.346	8.53
329.713	8.6
330.08	8.67
330.448	8.71
330.815	8.62
331.182	8.73
331.55	8.77
331.917	8.86
332.284	8.92
332.651	8.91
333.018	9.01
333.385	9.07
333.752	9.05
334.119	9.24
334.486	9.18
334.853	9.19
335.22	9.15
335.587	9.26
335.954	9.42
336.32	9.43
336.687	9.67
337.054	9.61
337.42	9.54
337.787	9.47
338.153	9.53
338.52	9.78
338.886	9.79
339.253	9.85
339.619	9.77
339.986	9.76
340.352	9.77
340.718	9.76
341.084	9.73
341.451	9.85
341.817	9.76
342.183	9.89
342.549	9.93
342.915	9.96
343.281	9.9
343.647	9.74
344.013	9.8
344.379	9.7
344.745	9.72
345.11	9.79
345.476	9.95
345.842	10.02
346.208	9.91
346.573	10.07
346.939	10.11
347.304	10.16
347.67	10.15
348.035	10.1
348.401	10.05
348.766	10.09
349.132	10.09
349.497	10.07
349.862	10.11
350.228	10.03
350.593	10.01
350.958	10.09
351.323	10.14
351.688	10.09
352.053	10.21
352.418	10.28
352.783	10.35
353.148	10.23
353.513	10.24
353.878	10.24
354.243	10.12
354.608	9.99
354.972	9.97
355.337	10.04
355.702	10.13
356.066	10.2
356.431	10.19
356.795	10.14
357.16	10.1
357.524	10.03
357.889	10.05
358.253	10.09
358.618	10.11
358.982	10
359.346	9.92
359.71	9.84
360.075	9.8
360.439	9.73
360.803	9.77
361.167	9.68
361.531	9.62
361.895	9.62
362.259	9.62
362.623	9.59
362.987	9.52
363.351	9.51
363.714	9.53
364.078	9.47
364.442	9.43
364.806	9.43
365.169	9.41
365.533	9.4
365.896	9.36
366.26	9.24
366.623	9.26
366.987	9.32
367.35	9.25
367.714	9.21
368.077	9.16
368.44	9.03
368.803	8.98
369.167	8.98
369.53	8.87
369.893	8.88
370.256	8.84
370.619	8.84
370.982	8.76
371.345	8.64
371.708	8.63
372.071	8.58
372.434	8.55
372.797	8.49
373.159	8.42
373.522	8.36
373.885	8.33
374.247	8.27
374.61	8.12
374.973	8.05
375.335	7.99
375.698	7.96
376.06	7.94
376.423	7.91
376.785	7.88
377.147	7.83
377.51	7.79
377.872	7.75
378.234	7.66
378.596	7.59
378.958	7.53
379.321	7.44
379.683	7.38
380.045	7.31
380.407	7.25
380.769	7.23
381.13	7.19
381.492	7.11
381.854	7.09
382.216	7.05
382.578	7
382.939	6.92
383.301	6.88
383.663	6.83
384.024	6.77
384.386	6.72
384.747	6.73
385.109	6.69
385.47	6.61
385.832	6.59
386.193	6.55
386.554	6.48
386.916	6.43
387.277	6.43
387.638	6.42
387.999	6.36
388.36	6.31
388.721	6.28
389.082	6.31
389.443	6.27
389.804	6.24
390.165	6.23
390.526	6.21
390.887	6.17
391.248	6.17
391.609	6.13
391.969	6.14
392.33	6.06
392.691	5.99
393.051	5.97
393.412	5.92
393.772	5.86
394.133	5.88
394.493	5.87
394.854	5.79
395.214	5.71
395.574	5.69
395.935	5.64
396.295	5.59
396.655	5.47
397.015	5.43
397.376	5.4
397.736	5.32
398.096	5.27
398.456	5.24
398.816	5.15
399.176	5.1
399.535	5.01
399.895	4.97
400.255	4.96
400.615	4.89
400.975	4.82
401.334	4.81
401.694	4.76
402.054	4.73
402.413	4.71
402.773	4.67
403.132	4.66
403.492	4.63
403.851	4.63
404.211	4.64
404.57	4.57
404.929	4.56
405.288	4.56
405.648	4.54
406.007	4.51
406.366	4.5
406.725	4.52
407.084	4.52
407.443	4.52
407.802	4.52
408.161	4.54
408.52	4.55
408.879	4.53
409.238	4.52
409.596	4.47
409.955	4.44
410.314	4.47
410.673	4.44
411.031	4.4
411.39	4.38
411.748	4.37
412.107	4.41
412.465	4.39
412.824	4.36
413.182	4.33
413.54	4.32
413.899	4.33
414.257	4.31
414.615	4.25
414.974	4.24
415.332	4.2
415.69	4.18
416.048	4.15
416.406	4.14
416.764	4.11
417.122	4.13
417.48	4.11
417.838	4.09
418.195	4.07
418.553	4.07
418.911	4.04
419.269	4.03
419.626	4
419.984	3.99
420.342	4
420.699	3.99
421.057	3.97
421.414	3.95
421.772	3.93
422.129	3.94
422.486	3.92
422.844	3.9
423.201	3.87
423.558	3.86
423.915	3.85
424.273	3.85
424.63	3.84
424.987	3.82
425.344	3.82
425.701	3.82
426.058	3.81
426.415	3.81
426.772	3.79
427.128	3.78
427.485	3.77
427.842	3.74
428.199	3.74
428.555	3.72
428.912	3.73
429.269	3.72
429.625	3.69
429.982	3.69
430.338	3.7
430.695	3.71
431.051	3.71
431.407	3.7
431.764	3.69
432.12	3.7
432.476	3.7
432.832	3.69
433.189	3.69
433.545	3.7
433.901	3.68
434.257	3.68
434.613	3.69
434.969	3.7
435.325	3.7
435.681	3.69
436.036	3.71
436.392	3.7
436.748	3.7
437.104	3.69
437.459	3.69
437.815	3.7
438.171	3.69
438.526	3.7
438.882	3.71
439.237	3.72
439.593	3.71
439.948	3.72
440.304	3.73
440.659	3.73
441.014	3.71
441.369	3.7
441.725	3.69
442.08	3.67
442.435	3.66
442.79	3.65
443.145	3.64
443.5	3.64
443.855	3.62
444.21	3.61
444.565	3.62
444.92	3.62
445.275	3.59
445.629	3.59
445.984	3.56
446.339	3.54
446.693	3.52
447.048	3.49
447.403	3.47
447.757	3.47
448.112	3.45
448.466	3.46
448.82	3.46
449.175	3.46
449.529	3.45
449.883	3.44
450.238	3.41
450.592	3.41
450.946	3.41
451.3	3.41
451.654	3.4
452.008	3.41
452.362	3.4
452.716	3.41
453.07	3.44
453.424	3.44
453.778	3.44
454.132	3.45
454.486	3.48
454.839	3.47
455.193	3.46
455.547	3.48
455.9	3.48
456.254	3.48
456.607	3.46
456.961	3.47
457.314	3.48
457.668	3.51
458.021	3.5
458.375	3.52
458.728	3.51
459.081	3.52
459.434	3.5
459.787	3.5
460.141	3.51
460.494	3.49
460.847	3.5
461.2	3.51
461.553	3.51
461.906	3.52
462.259	3.55
462.611	3.56
462.964	3.57
463.317	3.59
463.67	3.62
464.022	3.64
464.375	3.65
464.728	3.68
465.08	3.7
465.433	3.73
465.785	3.73
466.138	3.77
466.49	3.78
466.843	3.81
467.195	3.84
467.547	3.85
467.899	3.86
468.252	3.88
468.604	3.89
468.956	3.89
469.308	3.91
469.66	3.9
470.012	3.92
470.364	3.96
470.716	3.95
471.068	3.98
471.42	4
471.772	4.03
472.123	4.05
472.475	4.05
472.827	4.05
473.178	4.05
473.53	4.06
473.882	4.07
474.233	4.07
474.585	4.06
474.936	4.06
475.288	4.09
475.639	4.06
475.99	4.06
476.342	4.1
476.693	4.08
477.044	4.08
477.395	4.07
477.746	4.03
478.097	4.02
478.448	3.99
478.8	3.97
479.15	3.94
479.501	3.91
479.852	3.9
480.203	3.88
480.554	3.87
480.905	3.86
481.255	3.85
481.606	3.87
481.957	3.85
482.307	3.85
482.658	3.83
483.009	3.83
483.359	3.82
483.709	3.82
484.06	3.81
484.41	3.81
484.761	3.81
485.111	3.81
485.461	3.81
485.811	3.82
486.162	3.82
486.512	3.83
486.862	3.85
487.212	3.85
487.562	3.85
487.912	3.87
488.262	3.87
488.612	3.88
488.961	3.88
489.311	3.89
489.661	3.89
490.011	3.9
490.36	3.91
490.71	3.92
491.06	3.94
491.409	3.96
491.759	3.96
492.108	3.97
492.458	3.99
492.807	4.01
493.157	4.03
493.506	4.05
493.855	4.08
494.204	4.09
494.554	4.12
494.903	4.15
495.252	4.18
495.601	4.23
495.95	4.27
496.299	4.33
496.648	4.37
496.997	4.43
497.346	4.52
497.695	4.58
498.043	4.67
498.392	4.71
498.741	4.78
499.09	4.84
499.438	4.93
499.787	5.01
500.135	5.1
500.484	5.19
500.832	5.3
501.181	5.38
501.529	5.48
501.878	5.61
502.226	5.75
502.574	5.88
502.923	6
503.271	6.13
503.619	6.27
503.967	6.43
504.315	6.58
504.663	6.75
505.011	6.93
505.359	7.08
505.707	7.28
506.055	7.45
506.403	7.66
506.751	7.85
507.098	8.02
507.446	8.22
507.794	8.43
508.141	8.6
508.489	8.81
508.837	9.04
509.184	9.25
509.531	9.46
509.879	9.68
510.226	9.92
510.574	10.15
510.921	10.38
511.268	10.62
511.616	10.86
511.963	11.11
512.31	11.39
512.657	11.64
513.004	11.95
513.351	12.26
513.698	12.58
514.045	12.87
514.392	13.2
514.739	13.53
515.086	13.88
515.432	14.23
515.779	14.56
516.126	14.89
516.473	15.22
516.819	15.53
517.166	15.84
517.512	16.12
517.859	16.42
518.205	16.7
518.552	16.97
518.898	17.25
519.245	17.53
519.591	17.75
519.937	18.04
520.283	18.3
520.629	18.59
520.976	18.89
521.322	19.25
521.668	19.58
522.014	19.93
522.36	20.24
522.706	20.59
523.052	20.94
523.398	21.29
523.743	21.67
524.089	22.06
524.435	22.43
524.781	22.77
525.126	23.09
525.472	23.39
525.817	23.69
526.163	23.91
526.509	24.14
526.854	24.36
527.199	24.59
527.545	24.78
527.89	24.96
528.235	25.13
528.581	25.34
528.926	25.53
529.271	25.71
529.616	25.9
529.961	26.1
530.306	26.33
530.651	26.55
530.996	26.75
531.341	26.96
531.686	27.15
532.031	27.37
532.376	27.59
532.721	27.79
533.065	27.97
533.41	28.21
533.755	28.44
534.099	28.68
534.444	28.89
534.788	29.15
535.133	29.37
535.477	29.61
535.822	29.78
536.166	30.02
536.51	30.27
536.855	30.53
537.199	30.76
537.543	31.01
537.887	31.26
538.231	31.55
538.576	31.83
538.92	32.05
539.264	32.27
539.608	32.47
539.951	32.67
540.295	32.88
540.639	33.09
540.983	33.25
541.327	33.42
541.671	33.6
542.014	33.73
542.358	33.88
542.701	34.06
543.045	34.2
543.389	34.31
543.732	34.46
544.075	34.63
544.419	34.81
544.762	34.93
545.105	35.09
545.449	35.19
545.792	35.35
546.135	35.54
546.478	35.75
546.821	35.94
547.165	36.15
547.508	36.36
547.851	36.53
548.194	36.72
548.536	36.93
548.879	37.09
549.222	37.28
549.565	37.48
549.908	37.67
550.25	37.91
550.593	38.18
550.936	38.35
551.278	38.51
551.621	38.67
551.963	38.85
552.306	39.03
552.648	39.24
552.991	39.36
553.333	39.55
553.675	39.68
554.017	39.82
554.36	39.94
554.702	40.09
555.044	40.21
555.386	40.38
555.728	40.48
556.07	40.65
556.412	40.77
556.754	40.91
557.096	41.03
557.438	41.09
557.78	41.15
558.121	41.33
558.463	41.5
558.805	41.6
559.147	41.78
559.488	41.86
559.83	41.92
560.171	42.04
560.513	42.16
560.854	42.27
561.196	42.4
561.537	42.52
561.878	42.55
562.22	42.7
562.561	42.82
562.902	42.97
563.243	43.01
563.584	43.1
563.925	43.15
564.266	43.23
564.607	43.39
564.948	43.49
565.289	43.51
565.63	43.54
565.971	43.6
566.312	43.69
566.653	43.76
566.993	43.81
567.334	43.87
567.675	43.94
568.015	44.01
568.356	44.08
568.696	44.12
569.037	44.25
569.377	44.32
569.718	44.37
570.058	44.4
570.398	44.51
570.739	44.61
571.079	44.68
571.419	44.72
571.759	44.76
572.099	44.83
572.439	44.95
572.779	45.03
573.119	45.1
573.459	45.1
573.799	45.21
574.139	45.3
574.479	45.41
574.819	45.45
575.158	45.47
575.498	45.54
575.838	45.66
576.177	45.68
576.517	45.7
576.856	45.75
577.196	45.85
577.535	45.87
577.875	45.99
578.214	46.09
578.553	46.18
578.893	46.28
579.232	46.42
579.571	46.42
579.91	46.42
580.25	46.51
580.589	46.6
580.928	46.62
581.267	46.69
581.606	46.74
581.945	46.78
582.283	46.94
582.622	46.94
582.961	46.99
583.3	47.04
583.639	47.14
583.977	47.18
584.316	47.26
584.654	47.37
584.993	47.34
585.332	47.34
585.67	47.41
586.008	47.41
586.347	47.34
586.685	47.43
587.024	47.51
587.362	47.6
587.7	47.62
588.038	47.62
588.376	47.61
588.715	47.61
589.053	47.69
589.391	47.66
589.729	47.83
590.067	47.85
590.404	47.96
590.742	48.04
591.08	48.06
591.418	48.09
591.756	48.06
592.093	48.02
592.431	48.07
592.769	48.07
593.106	48.12
593.444	48.22
593.781	48.24
594.119	48.28
594.456	48.27
594.793	48.27
595.131	48.39
595.468	48.5
595.805	48.55
596.143	48.55
596.48	48.67
596.817	48.62
597.154	48.62
597.491	48.54
597.828	48.47
598.165	48.54
598.502	48.52
598.839	48.63
599.176	48.71
599.512	48.76
599.849	48.78
600.186	48.78
600.523	48.8
600.859	48.81
601.196	48.82
601.532	48.83
601.869	48.9
602.205	48.8
602.542	48.75
602.878	48.73
603.215	48.71
603.551	48.63
603.887	48.63
604.223	48.73
604.56	48.76
604.896	48.79
605.232	48.83
605.568	48.86
605.904	48.9
606.24	48.96
606.576	49.01
606.912	49.07
607.248	49.08
607.583	49.15
607.919	49.19
608.255	49.27
608.591	49.29
608.926	49.32
609.262	49.47
609.597	49.5
609.933	49.61
610.268	49.72
610.604	49.85
610.939	49.89
611.275	49.87
611.61	49.93
611.945	50.01
612.281	50.04
612.616	50.03
612.951	50.08
613.286	50.09
613.621	50.05
613.956	50.09
614.291	50.27
614.626	50.32
614.961	50.35
615.296	50.34
615.631	50.45
615.966	50.44
616.3	50.43
616.635	50.56
616.97	50.57
617.304	50.54
617.639	50.46
617.973	50.49
618.308	50.52
618.642	50.57
618.977	50.59
619.311	50.54
619.646	50.53
619.98	50.49
620.314	50.52
620.648	50.59
620.983	50.69
621.317	50.61
621.651	50.5
621.985	50.46
622.319	50.52
622.653	50.49
622.987	50.61
623.321	50.62
623.655	50.62
623.988	50.61
624.322	50.65
624.656	50.68
624.99	50.7
625.323	50.72
625.657	50.66
625.99	50.66
626.324	50.75
626.657	50.77
626.991	50.84
627.324	50.91
627.658	50.94
627.991	50.87
628.324	50.9
628.657	50.95
628.991	51.03
629.324	51
629.657	50.97
629.99	50.93
630.323	50.92
630.656	50.93
630.989	50.9
631.322	50.9
631.655	50.96
631.987	50.91
632.32	50.8
632.653	50.81
632.986	50.86
633.318	50.81
633.651	50.95
633.984	50.94
634.316	50.9
634.649	50.88
634.981	50.8
635.313	50.85
635.646	50.9
635.978	50.93
636.31	50.98
636.643	51.12
636.975	51.06
637.307	51.16
637.639	51.06
637.971	51.17
638.303	51.15
638.635	51.15
638.967	51.19
639.299	51.36
639.631	51.45
639.963	51.4
640.295	51.48
640.626	51.39
640.958	51.29
641.29	51.33
641.621	51.24
641.953	51.31
642.285	51.33
642.616	51.32
642.948	51.35
643.279	51.34
643.61	51.18
643.942	51.3
644.273	51.15
644.604	51.22
644.936	51.25
645.267	51.32
645.598	51.37
645.929	51.5
646.26	51.45
646.591	51.48
646.922	51.49
647.253	51.45
647.584	51.36
647.915	51.43
648.245	51.48
648.576	51.63
648.907	51.55
649.238	51.61
649.568	51.62
649.899	51.58
650.229	51.6
650.56	51.79
650.89	51.7
651.221	51.8
651.551	51.8
651.882	51.82
652.212	51.79
652.542	51.69
652.872	51.54
653.203	51.55
653.533	51.55
653.863	51.56
654.193	51.48
654.523	51.45
654.853	51.4
655.183	51.24
655.513	51.13
655.843	51.21
656.172	51.16
656.502	51.15
656.832	51.16
657.162	51.11
657.491	51.09
657.821	51.18
658.15	51.22
658.48	51.24
658.809	51.24
659.139	51.25
659.468	51.33
659.798	51.42
660.127	51.45
660.456	51.55
660.785	51.63
661.115	51.78
661.444	51.99
661.773	52.07
662.102	52.02
662.431	52.17
662.76	52.2
663.089	52.23
663.418	52.22
663.747	52.3
664.076	52.39
664.404	52.32
664.733	52.26
665.062	52.27
665.39	52.25
665.719	52.22
666.048	52.21
666.376	52.17
666.705	52.22
667.033	52.24
667.362	52.08
667.69	51.94
668.018	51.89
