Data from BU26945_Reflection_00001.txt Node
Date: Tue Nov 19 10:49:16 EST 2019
User: vgr7
Spectrometer: USB2G7710
Scans to average: 3
Trigger mode: 4
Integration Time (sec): 2.000000E-2
Electric dark correction enabled: true
Boxcar width: 10
XAxis mode: Wavelengths
Number of Pixels in Spectrum: 2048
>>>>>Begin Spectral Data<<<<<
177.721	27.7
178.105	30.92
178.488	147.7
178.871	128.13
179.254	184
179.636	295.65
180.019	509.09
180.402	-440
180.785	-29.95
181.168	-32.8
181.55	-31.03
181.933	-58.72
182.316	-89.7
182.698	-81.24
183.081	-63.12
183.463	-68.86
183.846	-46.98
184.228	-43.52
184.611	-37.45
184.993	-19.33
185.376	-16.81
185.758	-8.96
186.14	-11.59
186.522	-10.74
186.904	-12.8
187.287	-11.29
187.669	-8.71
188.051	-13.85
188.433	-29.86
188.815	-36
189.197	-41.49
189.579	-44.24
189.961	-41.54
190.342	-29.43
190.724	-49.7
191.106	-50.95
191.488	-58.28
191.869	-58.41
192.251	-66.03
192.633	-49.49
193.014	-63.59
193.396	-72.72
193.777	-67.66
194.159	-70.68
194.54	-65.82
194.922	-92.01
195.303	-130.39
195.684	-102.56
196.065	-86.77
196.447	-63.89
196.828	-46.85
197.209	-34.16
197.59	-32.21
197.971	-36.26
198.352	-36.27
198.733	-37.25
199.114	-42.98
199.495	-36.6
199.876	-39.87
200.257	-43.02
200.638	-47.49
201.018	-52.66
201.399	-53.06
201.78	-64.88
202.16	-57.61
202.541	-58.53
202.922	-46.29
203.302	-44.62
203.683	-41.56
204.063	-33.72
204.444	-35.14
204.824	-34.27
205.204	-33.46
205.585	-36.36
205.965	-20.61
206.345	-43.1
206.725	-32.75
207.106	-27.27
207.486	-27.95
207.866	-23.55
208.246	-15.38
208.626	-47.78
209.006	-42.81
209.386	-36.84
209.766	-11.69
210.145	-30.84
210.525	-28.57
210.905	-24.67
211.285	-22.55
211.664	-25.06
212.044	-22.29
212.424	-19.62
212.803	-14.49
213.183	-12.41
213.562	-10.6
213.942	-15.15
214.321	-12.73
214.701	-6.83
215.08	-6.67
215.459	1.44
215.838	-6.94
216.218	-8.99
216.597	18.62
216.976	24.08
217.355	42.96
217.734	33.69
218.113	40.22
218.492	16.97
218.871	14.76
219.25	8.2
219.629	-6.18
220.008	-21.2
220.387	-32.45
220.766	-36.93
221.144	-59.9
221.523	-82.45
221.902	-78.84
222.28	-57.57
222.659	-49.03
223.037	-32.81
223.416	-35.47
223.794	-30.61
224.173	-30.19
224.551	-35.75
224.929	-37.38
225.308	-36.36
225.686	-29.53
226.064	-33.08
226.442	-25.56
226.821	-24.9
227.199	-24.56
227.577	-23.77
227.955	-23.19
228.333	-26.17
228.711	-28.02
229.089	-23.64
229.467	-17.32
229.845	-16.45
230.222	-13.61
230.6	-12.61
230.978	-11.37
231.356	-9.61
231.733	-9.36
232.111	-10.18
232.488	-10.11
232.866	-10.47
233.243	-10.6
233.621	-9.64
233.998	-8.14
234.376	-7.21
234.753	-8.42
235.13	-6.64
235.508	-5.25
235.885	-3.81
236.262	-1.51
236.639	0.34
237.016	0.22
237.393	-1.73
237.77	-1.05
238.147	-1.81
238.524	-1.15
238.901	-0.56
239.278	-0.7
239.655	-0.11
240.032	0.5
240.409	0.51
240.785	1.45
241.162	1.84
241.539	1.45
241.915	1.3
242.292	1.24
242.668	1.75
243.045	1.71
243.421	2.34
243.798	2.75
244.174	3.41
244.551	3.3
244.927	3.19
245.303	3.31
245.679	3.07
246.056	3.22
246.432	3.07
246.808	3.2
247.184	3.37
247.56	3.21
247.936	3.32
248.312	3.62
248.688	3.4
249.064	3.56
249.44	3.56
249.815	3.48
250.191	3.69
250.567	3.77
250.943	3.72
251.318	3.65
251.694	3.34
252.069	3.28
252.445	3.21
252.82	3.43
253.196	3.66
253.571	4.03
253.947	4.16
254.322	4.22
254.697	4.16
255.073	4.08
255.448	4.3
255.823	4.3
256.198	4.04
256.573	4.28
256.948	4.24
257.323	4.22
257.698	4.2
258.073	4.12
258.448	4.16
258.823	4.13
259.198	4
259.573	3.91
259.948	3.68
260.322	3.69
260.697	3.68
261.072	3.62
261.446	3.5
261.821	3.21
262.195	3.17
262.57	3.13
262.944	3.08
263.319	3.12
263.693	2.97
264.067	2.97
264.442	2.9
264.816	2.59
265.19	2.64
265.564	2.68
265.938	2.63
266.313	2.5
266.687	2.59
267.061	2.72
267.435	2.76
267.809	2.66
268.183	2.47
268.556	2.44
268.93	2.58
269.304	2.66
269.678	2.93
270.051	3.04
270.425	2.87
270.799	2.61
271.172	2.53
271.546	2.74
271.919	2.82
272.293	2.82
272.666	3.15
273.04	3.12
273.413	3.07
273.787	2.95
274.16	2.84
274.533	2.8
274.906	2.73
275.279	2.79
275.653	2.85
276.026	2.99
276.399	3.16
276.772	3.07
277.145	3.18
277.518	3.04
277.891	3.04
278.263	3.22
278.636	3.68
279.009	3.66
279.382	3.53
279.755	3.47
280.127	3.53
280.5	3.28
280.872	3.31
281.245	3.27
281.617	3.43
281.99	3.52
282.362	3.72
282.735	3.52
283.107	3.41
283.479	3.41
283.852	3.53
284.224	3.28
284.596	3.21
284.968	3.04
285.34	3.17
285.713	3.26
286.085	3.07
286.457	2.81
286.829	2.77
287.201	2.79
287.572	2.94
287.944	2.86
288.316	2.98
288.688	3.08
289.06	3.18
289.431	3.16
289.803	3.15
290.175	3.02
290.546	3.24
290.918	3.26
291.289	3.14
291.661	3.14
292.032	3.19
292.403	3.24
292.775	3.26
293.146	3.34
293.517	3.26
293.889	3.36
294.26	3.49
294.631	3.66
295.002	3.58
295.373	3.48
295.744	3.48
296.115	3.35
296.486	3.18
296.857	3.21
297.228	3.2
297.599	3.1
297.97	3.23
298.34	3.18
298.711	3.28
299.082	3.5
299.452	3.43
299.823	3.5
300.194	3.43
300.564	3.33
300.935	3.24
301.305	3.18
301.676	3.06
302.046	3.07
302.416	3
302.787	2.93
303.157	2.91
303.527	2.99
303.897	3.08
304.267	3.04
304.637	2.96
305.008	2.88
305.378	3.09
305.748	2.91
306.117	2.81
306.487	2.83
306.857	2.79
307.227	2.82
307.597	2.72
307.967	2.84
308.336	3.01
308.706	3.02
309.076	3.09
309.445	3.21
309.815	3.24
310.184	3.34
310.554	3.39
310.923	3.27
311.293	3.14
311.662	3.19
312.031	3.15
312.401	3.23
312.77	3.28
313.139	3.3
313.508	3.36
313.877	3.42
314.246	3.59
314.616	3.53
314.985	3.41
315.353	3.36
315.722	3.28
316.091	3.29
316.46	3.27
316.829	3.2
317.198	3.34
317.567	3.32
317.935	3.14
318.304	3.21
318.672	3.5
319.041	3.58
319.41	3.62
319.778	3.83
320.147	3.65
320.515	3.53
320.883	3.27
321.252	3.38
321.62	3.27
321.988	3.1
322.357	3.1
322.725	3.22
323.093	3.19
323.461	3.33
323.829	3.35
324.197	3.36
324.565	3.43
324.933	3.27
325.301	3.16
325.669	3.17
326.037	3.18
326.405	2.92
326.772	2.72
327.14	2.65
327.508	2.53
327.875	2.57
328.243	2.49
328.61	2.67
328.978	2.47
329.346	2.52
329.713	2.47
330.08	2.53
330.448	2.58
330.815	2.68
331.182	2.45
331.55	2.27
331.917	2.3
332.284	2.19
332.651	2.15
333.018	2.29
333.385	2.32
333.752	2.36
334.119	2.49
334.486	2.61
334.853	2.48
335.22	2.54
335.587	2.61
335.954	2.7
336.32	2.63
336.687	2.68
337.054	2.72
337.42	2.63
337.787	2.52
338.153	2.5
338.52	2.62
338.886	2.68
339.253	2.67
339.619	2.7
339.986	2.64
340.352	2.67
340.718	2.62
341.084	2.58
341.451	2.47
341.817	2.48
342.183	2.55
342.549	2.58
342.915	2.64
343.281	2.61
343.647	2.68
344.013	2.64
344.379	2.67
344.745	2.61
345.11	2.75
345.476	2.85
345.842	2.78
346.208	2.78
346.573	2.81
346.939	2.8
347.304	2.72
347.67	2.78
348.035	2.75
348.401	2.74
348.766	2.77
349.132	2.94
349.497	2.99
349.862	2.92
350.228	3.01
350.593	3.04
350.958	3.04
351.323	2.97
351.688	3.01
352.053	2.93
352.418	3
352.783	2.93
353.148	2.94
353.513	2.95
353.878	2.87
354.243	2.91
354.608	3.01
354.972	3.05
355.337	3.05
355.702	3.1
356.066	3.09
356.431	3.03
356.795	2.96
357.16	2.92
357.524	2.96
357.889	2.91
358.253	2.86
358.618	2.83
358.982	2.87
359.346	2.93
359.71	2.98
360.075	2.97
360.439	3.01
360.803	3.06
361.167	3.1
361.531	3.08
361.895	3.08
362.259	3.12
362.623	3.15
362.987	3.16
363.351	3.15
363.714	3.18
364.078	3.19
364.442	3.19
364.806	3.21
365.169	3.2
365.533	3.24
365.896	3.24
366.26	3.25
366.623	3.25
366.987	3.26
367.35	3.32
367.714	3.33
368.077	3.26
368.44	3.26
368.803	3.17
369.167	3.11
369.53	3.1
369.893	3.03
370.256	3.02
370.619	2.98
370.982	2.95
371.345	2.91
371.708	2.96
372.071	2.94
372.434	2.86
372.797	2.91
373.159	2.83
373.522	2.85
373.885	2.84
374.247	2.82
374.61	2.78
374.973	2.72
375.335	2.74
375.698	2.78
376.06	2.68
376.423	2.78
376.785	2.84
377.147	2.87
377.51	2.89
377.872	2.86
378.234	2.95
378.596	3.01
378.958	3
379.321	2.98
379.683	3.03
380.045	3.02
380.407	3
380.769	3.06
381.13	3
381.492	3.02
381.854	3.03
382.216	3.03
382.578	3.01
382.939	3
383.301	3.01
383.663	3.05
384.024	3.03
384.386	3.08
384.747	3.05
385.109	3.06
385.47	3.07
385.832	3.02
386.193	3
386.554	2.99
386.916	2.95
387.277	2.91
387.638	2.92
387.999	2.88
388.36	2.88
388.721	2.97
389.082	2.99
389.443	3.04
389.804	3.1
390.165	3.13
390.526	3.11
390.887	3.12
391.248	3.08
391.609	3.09
391.969	3.07
392.33	3.07
392.691	3.1
393.051	3.13
393.412	3.14
393.772	3.13
394.133	3.11
394.493	3.14
394.854	3.13
395.214	3.17
395.574	3.24
395.935	3.27
396.295	3.25
396.655	3.21
397.015	3.16
397.376	3.1
397.736	3.11
398.096	3.11
398.456	3.08
398.816	3.12
399.176	3.11
399.535	3.1
399.895	3.11
400.255	3.08
400.615	3
400.975	3.03
401.334	3.04
401.694	3.04
402.054	3.07
402.413	3.09
402.773	3.08
403.132	3.05
403.492	3.03
403.851	3.01
404.211	3.03
404.57	3.06
404.929	3.07
405.288	3.1
405.648	3.13
406.007	3.12
406.366	3.16
406.725	3.16
407.084	3.16
407.443	3.15
407.802	3.16
408.161	3.21
408.52	3.22
408.879	3.22
409.238	3.28
409.596	3.31
409.955	3.28
410.314	3.29
410.673	3.28
411.031	3.26
411.39	3.25
411.748	3.25
412.107	3.22
412.465	3.22
412.824	3.17
413.182	3.14
413.54	3.15
413.899	3.12
414.257	3.15
414.615	3.16
414.974	3.14
415.332	3.12
415.69	3.11
416.048	3.09
416.406	3.06
416.764	3.03
417.122	3
417.48	3.02
417.838	3.02
418.195	3.02
418.553	3.05
418.911	3.05
419.269	3.05
419.626	3.06
419.984	3.06
420.342	3.08
420.699	3.1
421.057	3.11
421.414	3.12
421.772	3.09
422.129	3.07
422.486	3.08
422.844	3.07
423.201	3.06
423.558	3.06
423.915	3.09
424.273	3.09
424.63	3.11
424.987	3.1
425.344	3.1
425.701	3.12
426.058	3.12
426.415	3.11
426.772	3.11
427.128	3.12
427.485	3.11
427.842	3.09
428.199	3.08
428.555	3.08
428.912	3.06
429.269	3.09
429.625	3.1
429.982	3.1
430.338	3.11
430.695	3.13
431.051	3.13
431.407	3.11
431.764	3.12
432.12	3.12
432.476	3.14
432.832	3.14
433.189	3.15
433.545	3.13
433.901	3.15
434.257	3.14
434.613	3.14
434.969	3.15
435.325	3.18
435.681	3.19
436.036	3.18
436.392	3.2
436.748	3.18
437.104	3.2
437.459	3.2
437.815	3.22
438.171	3.21
438.526	3.21
438.882	3.23
439.237	3.23
439.593	3.24
439.948	3.22
440.304	3.21
440.659	3.19
441.014	3.2
441.369	3.2
441.725	3.21
442.08	3.2
442.435	3.21
442.79	3.19
443.145	3.2
443.5	3.2
443.855	3.18
444.21	3.19
444.565	3.18
444.92	3.19
445.275	3.18
445.629	3.2
445.984	3.2
446.339	3.19
446.693	3.19
447.048	3.16
447.403	3.18
447.757	3.18
448.112	3.2
448.466	3.19
448.82	3.19
449.175	3.2
449.529	3.22
449.883	3.22
450.238	3.21
450.592	3.2
450.946	3.2
451.3	3.21
451.654	3.23
452.008	3.25
452.362	3.23
452.716	3.23
453.07	3.2
453.424	3.19
453.778	3.21
454.132	3.2
454.486	3.21
454.839	3.22
455.193	3.22
455.547	3.23
455.9	3.24
456.254	3.24
456.607	3.23
456.961	3.22
457.314	3.21
457.668	3.21
458.021	3.21
458.375	3.22
458.728	3.24
459.081	3.24
459.434	3.22
459.787	3.23
460.141	3.24
460.494	3.27
460.847	3.28
461.2	3.27
461.553	3.29
461.906	3.29
462.259	3.26
462.611	3.26
462.964	3.26
463.317	3.25
463.67	3.27
464.022	3.27
464.375	3.25
464.728	3.26
465.08	3.26
465.433	3.27
465.785	3.25
466.138	3.26
466.49	3.23
466.843	3.24
467.195	3.24
467.547	3.21
467.899	3.19
468.252	3.18
468.604	3.16
468.956	3.16
469.308	3.17
469.66	3.22
470.012	3.23
470.364	3.24
470.716	3.25
471.068	3.22
471.42	3.25
471.772	3.27
472.123	3.25
472.475	3.26
472.827	3.26
473.178	3.27
473.53	3.29
473.882	3.28
474.233	3.3
474.585	3.31
474.936	3.34
475.288	3.36
475.639	3.38
475.99	3.39
476.342	3.4
476.693	3.4
477.044	3.37
477.395	3.39
477.746	3.41
478.097	3.39
478.448	3.4
478.8	3.37
479.15	3.37
479.501	3.38
479.852	3.38
480.203	3.38
480.554	3.37
480.905	3.36
481.255	3.38
481.606	3.38
481.957	3.38
482.307	3.37
482.658	3.37
483.009	3.36
483.359	3.36
483.709	3.36
484.06	3.35
484.41	3.35
484.761	3.35
485.111	3.35
485.461	3.35
485.811	3.35
486.162	3.37
486.512	3.36
486.862	3.37
487.212	3.37
487.562	3.36
487.912	3.37
488.262	3.37
488.612	3.37
488.961	3.38
489.311	3.38
489.661	3.39
490.011	3.39
490.36	3.39
490.71	3.41
491.06	3.42
491.409	3.42
491.759	3.43
492.108	3.43
492.458	3.43
492.807	3.43
493.157	3.42
493.506	3.4
493.855	3.4
494.204	3.39
494.554	3.4
494.903	3.41
495.252	3.42
495.601	3.41
495.95	3.41
496.299	3.41
496.648	3.41
496.997	3.41
497.346	3.43
497.695	3.46
498.043	3.46
498.392	3.47
498.741	3.49
499.09	3.5
499.438	3.5
499.787	3.5
500.135	3.51
500.484	3.53
500.832	3.56
501.181	3.58
501.529	3.61
501.878	3.61
502.226	3.62
502.574	3.61
502.923	3.6
503.271	3.57
503.619	3.57
503.967	3.56
504.315	3.55
504.663	3.54
505.011	3.52
505.359	3.5
505.707	3.5
506.055	3.48
506.403	3.49
506.751	3.47
507.098	3.49
507.446	3.49
507.794	3.5
508.141	3.5
508.489	3.5
508.837	3.48
509.184	3.47
509.531	3.48
509.879	3.48
510.226	3.5
510.574	3.5
510.921	3.5
511.268	3.49
511.616	3.51
511.963	3.5
512.31	3.51
512.657	3.5
513.004	3.48
513.351	3.5
513.698	3.5
514.045	3.5
514.392	3.5
514.739	3.51
515.086	3.51
515.432	3.49
515.779	3.49
516.126	3.51
516.473	3.5
516.819	3.5
517.166	3.52
517.512	3.51
517.859	3.52
518.205	3.52
518.552	3.53
518.898	3.52
519.245	3.53
519.591	3.53
519.937	3.54
520.283	3.54
520.629	3.53
520.976	3.53
521.322	3.55
521.668	3.53
522.014	3.52
522.36	3.53
522.706	3.56
523.052	3.57
523.398	3.57
523.743	3.58
524.089	3.57
524.435	3.57
524.781	3.6
525.126	3.61
525.472	3.62
525.817	3.6
526.163	3.61
526.509	3.59
526.854	3.61
527.199	3.62
527.545	3.62
527.89	3.64
528.235	3.65
528.581	3.65
528.926	3.68
529.271	3.68
529.616	3.68
529.961	3.68
530.306	3.68
530.651	3.68
530.996	3.69
531.341	3.7
531.686	3.71
532.031	3.7
532.376	3.7
532.721	3.71
533.065	3.72
533.41	3.73
533.755	3.76
534.099	3.75
534.444	3.75
534.788	3.75
535.133	3.73
535.477	3.72
535.822	3.71
536.166	3.7
536.51	3.7
536.855	3.71
537.199	3.69
537.543	3.68
537.887	3.69
538.231	3.7
538.576	3.69
538.92	3.69
539.264	3.68
539.608	3.68
539.951	3.67
540.295	3.68
540.639	3.68
540.983	3.68
541.327	3.67
541.671	3.68
542.014	3.7
542.358	3.72
542.701	3.71
543.045	3.71
543.389	3.72
543.732	3.71
544.075	3.71
544.419	3.73
544.762	3.72
545.105	3.73
545.449	3.73
545.792	3.72
546.135	3.72
546.478	3.73
546.821	3.74
547.165	3.76
547.508	3.77
547.851	3.79
548.194	3.76
548.536	3.76
548.879	3.75
549.222	3.74
549.565	3.72
549.908	3.7
550.25	3.71
550.593	3.69
550.936	3.71
551.278	3.68
551.621	3.68
551.963	3.72
552.306	3.7
552.648	3.68
552.991	3.69
553.333	3.7
553.675	3.7
554.017	3.69
554.36	3.68
554.702	3.65
555.044	3.62
555.386	3.63
555.728	3.66
556.07	3.66
556.412	3.68
556.754	3.68
557.096	3.69
557.438	3.67
557.78	3.7
558.121	3.68
558.463	3.7
558.805	3.72
559.147	3.73
559.488	3.71
559.83	3.73
560.171	3.73
560.513	3.73
560.854	3.74
561.196	3.73
561.537	3.74
561.878	3.77
562.22	3.8
562.561	3.82
562.902	3.8
563.243	3.79
563.584	3.76
563.925	3.78
564.266	3.82
564.607	3.84
564.948	3.81
565.289	3.84
565.63	3.83
565.971	3.8
566.312	3.78
566.653	3.79
566.993	3.79
567.334	3.8
567.675	3.78
568.015	3.78
568.356	3.83
568.696	3.83
569.037	3.83
569.377	3.84
569.718	3.83
570.058	3.84
570.398	3.84
570.739	3.85
571.079	3.85
571.419	3.81
571.759	3.79
572.099	3.78
572.439	3.77
572.779	3.76
573.119	3.77
573.459	3.75
573.799	3.74
574.139	3.74
574.479	3.74
574.819	3.77
575.158	3.77
575.498	3.74
575.838	3.72
576.177	3.69
576.517	3.69
576.856	3.67
577.196	3.64
577.535	3.66
577.875	3.63
578.214	3.67
578.553	3.66
578.893	3.71
579.232	3.74
579.571	3.76
579.91	3.77
580.25	3.77
580.589	3.77
580.928	3.8
581.267	3.82
581.606	3.79
581.945	3.73
582.283	3.76
582.622	3.73
582.961	3.78
583.3	3.83
583.639	3.8
583.977	3.81
584.316	3.86
584.654	3.85
584.993	3.87
585.332	3.87
585.67	3.89
586.008	3.86
586.347	3.83
586.685	3.82
587.024	3.86
587.362	3.86
587.7	3.88
588.038	3.89
588.376	3.87
588.715	3.89
589.053	3.97
589.391	3.95
589.729	3.94
590.067	3.91
590.404	3.86
590.742	3.89
591.08	3.94
591.418	3.92
591.756	3.9
592.093	3.89
592.431	3.87
592.769	3.89
593.106	3.9
593.444	3.93
593.781	3.93
594.119	3.88
594.456	3.89
594.793	3.87
595.131	3.85
595.468	3.87
595.805	3.88
596.143	3.85
596.48	3.87
596.817	3.91
597.154	3.93
597.491	3.97
597.828	3.94
598.165	3.91
598.502	3.91
598.839	3.91
599.176	3.95
599.512	3.95
599.849	3.91
600.186	3.89
600.523	3.89
600.859	3.9
601.196	3.92
601.532	3.93
601.869	3.98
602.205	3.98
602.542	3.98
602.878	3.96
603.215	3.94
603.551	3.9
603.887	3.9
604.223	3.87
604.56	3.88
604.896	3.91
605.232	3.9
605.568	3.91
605.904	3.92
606.24	3.91
606.576	3.93
606.912	3.98
607.248	3.99
607.583	4.04
607.919	4.03
608.255	4.02
608.591	4.05
608.926	4.03
609.262	4.02
609.597	4.03
609.933	4.04
610.268	4.05
610.604	4.06
610.939	4.08
611.275	4.08
611.61	4.06
611.945	4
612.281	4.05
612.616	4.09
612.951	4.11
613.286	4.1
613.621	4.11
613.956	4.09
614.291	4.11
614.626	4.02
614.961	4
615.296	3.97
615.631	3.94
615.966	3.94
616.3	3.97
616.635	3.95
616.97	3.96
617.304	3.97
617.639	3.99
617.973	3.95
618.308	4.01
618.642	4.01
618.977	4.02
619.311	4.03
619.646	4.02
619.98	4.02
620.314	3.97
620.648	3.96
620.983	3.95
621.317	3.96
621.651	4
621.985	4.05
622.319	4.08
622.653	4.13
622.987	4.15
623.321	4.13
623.655	4.16
623.988	4.16
624.322	4.18
624.656	4.14
624.99	4.14
625.323	4.01
625.657	4.08
625.99	4.13
626.324	4.07
626.657	4.07
626.991	4.08
627.324	4.1
627.658	4.08
627.991	4.1
628.324	4.09
628.657	4.11
628.991	4.06
629.324	4.09
629.657	4.05
629.99	4.07
630.323	4.07
630.656	4.05
630.989	4.01
631.322	4
631.655	4.03
631.987	4.03
632.32	4.09
632.653	4.07
632.986	4.01
633.318	4.05
633.651	4.07
633.984	4.12
634.316	4.13
634.649	4.11
634.981	4.1
635.313	4.1
635.646	4.08
635.978	4.12
636.31	4.06
636.643	4.04
636.975	4
637.307	4.03
637.639	4.02
637.971	4.06
638.303	4.07
638.635	4.05
638.967	4.04
639.299	4.04
639.631	4.01
639.963	4.05
640.295	4.07
640.626	4.02
640.958	3.92
641.29	3.94
641.621	3.96
641.953	3.91
642.285	3.92
642.616	3.92
642.948	3.96
643.279	3.96
643.61	3.98
643.942	4.02
644.273	4.02
644.604	4.04
644.936	4.04
645.267	3.99
645.598	3.99
645.929	3.99
646.26	4
646.591	4.03
646.922	4.06
647.253	4.01
647.584	3.95
647.915	4.02
648.245	4.01
648.576	3.94
648.907	3.98
649.238	3.96
649.568	3.95
649.899	3.89
650.229	3.96
650.56	3.9
650.89	3.9
651.221	3.89
651.551	3.9
651.882	3.89
652.212	3.91
652.542	3.99
652.872	4.04
653.203	4.08
653.533	4.03
653.863	4
654.193	4
654.523	3.99
654.853	4.03
655.183	4.13
655.513	4.2
655.843	4.18
656.172	4.25
656.502	4.29
656.832	4.31
657.162	4.27
657.491	4.42
657.821	4.39
658.15	4.37
658.48	4.38
658.809	4.38
659.139	4.37
659.468	4.32
659.798	4.33
660.127	4.31
660.456	4.3
660.785	4.33
661.115	4.38
661.444	4.48
661.773	4.46
662.102	4.39
662.431	4.36
662.76	4.4
663.089	4.37
663.418	4.34
663.747	4.35
664.076	4.33
664.404	4.29
664.733	4.39
665.062	4.35
665.39	4.34
665.719	4.39
666.048	4.43
666.376	4.41
666.705	4.38
667.033	4.44
667.362	4.46
667.69	4.46
668.018	4.49
668.347	4.42
668.675	4.4
669.003	4.38
669.331	4.52
669.659	4.48
669.987	4.53
670.315	4.53
670.643	4.53
670.971	4.53
671.299	4.49
671.627	4.4
671.955	4.42
672.283	4.47
672.61	4.44
672.938	4.44
673.266	4.4
673.593	4.42
673.921	4.36
674.249	4.36
674.576	4.35
674.904	4.26
675.231	4.31
675.558	4.37
675.886	4.41
676.213	4.31
676.54	4.41
676.867	4.3
677.195	4.36
677.522	4.39
677.849	4.48
