Data from BU26842_Reflection_00006.txt Node
Date: Mon Nov 18 16:38:35 EST 2019
User: vgr7
Spectrometer: USB2G7710
Scans to average: 3
Trigger mode: 4
Integration Time (sec): 2.000000E-2
Electric dark correction enabled: true
Boxcar width: 10
XAxis mode: Wavelengths
Number of Pixels in Spectrum: 2048
>>>>>Begin Spectral Data<<<<<
177.721	5.61
178.105	20.99
178.488	-16
178.871	-9.32
179.254	9.35
179.636	-78.47
180.019	-40.81
180.402	44.19
180.785	-76.62
181.168	-18.4
181.55	-5.72
181.933	387.27
182.316	-651.72
182.698	-949.59
183.081	-290.77
183.463	-46.92
183.846	-98.61
184.228	-47.87
184.611	-30.79
184.993	-14.3
185.376	-72.03
185.758	-190.58
186.14	430.54
186.522	141.8
186.904	196.45
187.287	2824.14
187.669	-28.43
188.051	-91.93
188.433	-37.48
188.815	-30.25
189.197	-41.39
189.579	-35.79
189.961	-37.22
190.342	-48.22
190.724	-15.37
191.106	-34.87
191.488	-20.89
191.869	-22.45
192.251	-37.58
192.633	-35.96
193.014	-43.33
193.396	-44.92
193.777	-37.99
194.159	-37.98
194.54	-41.18
194.922	-33.42
195.303	-35.26
195.684	-30.59
196.065	-8.78
196.447	-28.75
196.828	-33.51
197.209	-35.63
197.59	-44.58
197.971	-44.3
198.352	-44.77
198.733	-62.5
199.114	-27.65
199.495	-9.63
199.876	1.23
200.257	7.43
200.638	-3.16
201.018	13.8
201.399	3.54
201.78	-1.24
202.16	-0.78
202.541	-24.76
202.922	-53.81
203.302	-78.03
203.683	-145.18
204.063	-154.1
204.444	-107.7
204.824	-88.46
205.204	-72.41
205.585	-53.31
205.965	-52.02
206.345	-66.61
206.725	-87.64
207.106	-160.12
207.486	-244.96
207.866	-265.5
208.246	-225.57
208.626	-134.55
209.006	-116.86
209.386	-147.11
209.766	-148.22
210.145	-95.94
210.525	-56.16
210.905	-40.22
211.285	-22.64
211.664	-13.57
212.044	-23.79
212.424	-15.17
212.803	-9.42
213.183	8.88
213.562	19.73
213.942	30.5
214.321	25.17
214.701	26
215.08	25.02
215.459	28.49
215.838	26.18
216.218	31.45
216.597	28.56
216.976	37.87
217.355	47.42
217.734	46.31
218.113	40.83
218.492	36.7
218.871	33.95
219.25	39.25
219.629	40.1
220.008	36.38
220.387	42.41
220.766	54.18
221.144	26.14
221.523	13.42
221.902	6.48
222.28	7.16
222.659	5.55
223.037	3.14
223.416	6.84
223.794	4.89
224.173	-4.17
224.551	-6.78
224.929	-12.48
225.308	-13.13
225.686	-10.73
226.064	-6.11
226.442	-6.71
226.821	-4.36
227.199	-6.19
227.577	-6.35
227.955	-2.8
228.333	-6.14
228.711	-8.69
229.089	-3.28
229.467	-4.25
229.845	-2.04
230.222	-2.6
230.6	-2.1
230.978	-1.72
231.356	-0.93
231.733	-1.95
232.111	0.82
232.488	1.29
232.866	2.4
233.243	2.65
233.621	4.6
233.998	3.77
234.376	2.75
234.753	3.72
235.13	3.8
235.508	5.55
235.885	3.75
236.262	2.74
236.639	3.83
237.016	2.91
237.393	4.75
237.77	4.05
238.147	5.07
238.524	4.42
238.901	4.54
239.278	4.52
239.655	5.53
240.032	5.22
240.409	4.52
240.785	4.55
241.162	4.66
241.539	3.74
241.915	3.85
242.292	3.61
242.668	3.22
243.045	3.72
243.421	3.51
243.798	3.55
244.174	3.82
244.551	3.77
244.927	3.84
245.303	4.05
245.679	4.15
246.056	4.04
246.432	4.03
246.808	4.09
247.184	4.02
247.56	3.57
247.936	3.54
248.312	3.59
248.688	3.57
249.064	3.5
249.44	3.65
249.815	3.64
250.191	4
250.567	4.09
250.943	3.8
251.318	3.95
251.694	4.28
252.069	4.19
252.445	4.23
252.82	4.42
253.196	3.98
253.571	3.66
253.947	3.38
254.322	3.77
254.697	3.47
255.073	3.35
255.448	3.62
255.823	3.65
256.198	3.79
256.573	3.75
256.948	3.72
257.323	3.8
257.698	4.02
258.073	3.69
258.448	3.73
258.823	3.88
259.198	3.65
259.573	3.46
259.948	3.59
260.322	3.51
260.697	3.34
261.072	3.28
261.446	3.4
261.821	3.5
262.195	3.36
262.57	3.37
262.944	3.47
263.319	3.49
263.693	3.43
264.067	3.43
264.442	3.39
264.816	3.33
265.19	3.2
265.564	2.94
265.938	2.98
266.313	2.99
266.687	2.7
267.061	2.93
267.435	3.07
267.809	2.84
268.183	2.98
268.556	3.08
268.93	3.26
269.304	3.24
269.678	3.36
270.051	3.34
270.425	3.67
270.799	3.6
271.172	3.57
271.546	3.67
271.919	3.52
272.293	3.57
272.666	3.66
273.04	3.66
273.413	3.7
273.787	3.65
274.16	3.55
274.533	3.7
274.906	3.46
275.279	3.4
275.653	3.64
276.026	3.56
276.399	3.63
276.772	3.54
277.145	3.48
277.518	3.5
277.891	3.78
278.263	3.5
278.636	3.49
279.009	3.58
279.382	3.57
279.755	3.68
280.127	3.73
280.5	3.78
280.872	3.91
281.245	3.98
281.617	4.04
281.99	4.06
282.362	4.05
282.735	4.03
283.107	4.03
283.479	3.94
283.852	3.92
284.224	3.83
284.596	3.99
284.968	4.17
285.34	4.11
285.713	3.87
286.085	3.92
286.457	3.92
286.829	3.92
287.201	3.87
287.572	3.8
287.944	3.79
288.316	3.71
288.688	3.64
289.06	3.58
289.431	3.63
289.803	3.59
290.175	3.67
290.546	3.85
290.918	3.82
291.289	3.86
291.661	3.94
292.032	3.98
292.403	3.88
292.775	3.76
293.146	3.77
293.517	3.68
293.889	3.64
294.26	3.67
294.631	3.65
295.002	3.78
295.373	3.86
295.744	3.82
296.115	3.9
296.486	3.74
296.857	3.8
297.228	3.89
297.599	3.94
297.97	3.79
298.34	3.85
298.711	3.93
299.082	3.87
299.452	3.75
299.823	3.77
300.194	3.79
300.564	3.81
300.935	3.81
301.305	3.92
301.676	3.99
302.046	4.13
302.416	4.25
302.787	4.25
303.157	4.21
303.527	4.14
303.897	4.14
304.267	4.26
304.637	4.38
305.008	4.46
305.378	4.48
305.748	4.69
306.117	4.45
306.487	4.4
306.857	4.37
307.227	4.53
307.597	4.4
307.967	4.3
308.336	4.29
308.706	4.29
309.076	4.34
309.445	4.26
309.815	4.03
310.184	3.79
310.554	3.76
310.923	3.75
311.293	3.85
311.662	3.85
312.031	3.87
312.401	3.8
312.77	3.68
313.139	3.72
313.508	3.59
313.877	3.64
314.246	3.46
314.616	3.46
314.985	3.39
315.353	3.38
315.722	3.46
316.091	3.4
316.46	3.32
316.829	3.3
317.198	3.24
317.567	3.28
317.935	3.32
318.304	3.12
318.672	2.98
319.041	2.96
319.41	2.92
319.778	2.89
320.147	2.88
320.515	2.66
320.883	2.5
321.252	2.58
321.62	2.56
321.988	2.81
322.357	2.74
322.725	2.72
323.093	2.92
323.461	2.79
323.829	2.9
324.197	2.93
324.565	2.91
324.933	2.92
325.301	2.93
325.669	3.09
326.037	3.28
326.405	3.37
326.772	3.42
327.14	3.48
327.508	3.56
327.875	3.45
328.243	3.63
328.61	3.77
328.978	3.74
329.346	3.88
329.713	3.76
330.08	3.96
330.448	3.9
330.815	3.81
331.182	4.02
331.55	3.9
331.917	4
332.284	4.07
332.651	4.11
333.018	4.1
333.385	4.01
333.752	4.01
334.119	4.09
334.486	4.04
334.853	3.87
335.22	3.81
335.587	3.77
335.954	3.7
336.32	3.58
336.687	3.67
337.054	3.68
337.42	3.78
337.787	3.74
338.153	3.79
338.52	3.89
338.886	3.65
339.253	3.68
339.619	3.62
339.986	3.59
340.352	3.67
340.718	3.63
341.084	3.6
341.451	3.61
341.817	3.53
342.183	3.47
342.549	3.42
342.915	3.45
343.281	3.52
343.647	3.53
344.013	3.62
344.379	3.52
344.745	3.43
345.11	3.37
345.476	3.32
345.842	3.29
346.208	3.26
346.573	3.27
346.939	3.3
347.304	3.29
347.67	3.18
348.035	3.05
348.401	3.12
348.766	3.1
349.132	3.12
349.497	3.16
349.862	3.33
350.228	3.39
350.593	3.36
350.958	3.42
351.323	3.44
351.688	3.36
352.053	3.42
352.418	3.51
352.783	3.59
353.148	3.59
353.513	3.54
353.878	3.51
354.243	3.66
354.608	3.64
354.972	3.66
355.337	3.78
355.702	4
356.066	4
356.431	4.06
356.795	3.98
357.16	3.98
357.524	3.87
357.889	3.9
358.253	3.96
358.618	3.89
358.982	3.88
359.346	3.92
359.71	3.87
360.075	3.84
360.439	3.8
360.803	3.79
361.167	3.84
361.531	3.77
361.895	3.77
362.259	3.8
362.623	3.77
362.987	3.76
363.351	3.66
363.714	3.67
364.078	3.62
364.442	3.65
364.806	3.69
365.169	3.66
365.533	3.65
365.896	3.62
366.26	3.57
366.623	3.59
366.987	3.52
367.35	3.55
367.714	3.52
368.077	3.55
368.44	3.49
368.803	3.52
369.167	3.54
369.53	3.45
369.893	3.46
370.256	3.5
370.619	3.48
370.982	3.41
371.345	3.41
371.708	3.42
372.071	3.39
372.434	3.29
372.797	3.31
373.159	3.29
373.522	3.29
373.885	3.39
374.247	3.44
374.61	3.55
374.973	3.5
375.335	3.51
375.698	3.5
376.06	3.57
376.423	3.59
376.785	3.66
377.147	3.76
377.51	3.74
377.872	3.75
378.234	3.74
378.596	3.79
378.958	3.74
379.321	3.74
379.683	3.78
380.045	3.78
380.407	3.82
380.769	3.81
381.13	3.83
381.492	3.79
381.854	3.72
382.216	3.63
382.578	3.66
382.939	3.62
383.301	3.59
383.663	3.59
384.024	3.57
384.386	3.58
384.747	3.59
385.109	3.63
385.47	3.57
385.832	3.6
386.193	3.59
386.554	3.62
386.916	3.62
387.277	3.56
387.638	3.61
387.999	3.61
388.36	3.6
388.721	3.56
389.082	3.53
389.443	3.54
389.804	3.56
390.165	3.56
390.526	3.61
390.887	3.62
391.248	3.63
391.609	3.65
391.969	3.6
392.33	3.57
392.691	3.52
393.051	3.53
393.412	3.52
393.772	3.5
394.133	3.54
394.493	3.56
394.854	3.57
395.214	3.55
395.574	3.51
395.935	3.48
396.295	3.51
396.655	3.54
397.015	3.53
397.376	3.54
397.736	3.56
398.096	3.56
398.456	3.56
398.816	3.6
399.176	3.55
399.535	3.56
399.895	3.53
400.255	3.56
400.615	3.58
400.975	3.55
401.334	3.55
401.694	3.46
402.054	3.41
402.413	3.44
402.773	3.42
403.132	3.41
403.492	3.44
403.851	3.47
404.211	3.48
404.57	3.48
404.929	3.51
405.288	3.5
405.648	3.46
406.007	3.48
406.366	3.46
406.725	3.51
407.084	3.54
407.443	3.59
407.802	3.57
408.161	3.55
408.52	3.57
408.879	3.6
409.238	3.64
409.596	3.69
409.955	3.67
410.314	3.7
410.673	3.72
411.031	3.72
411.39	3.69
411.748	3.7
412.107	3.72
412.465	3.7
412.824	3.71
413.182	3.71
413.54	3.73
413.899	3.75
414.257	3.73
414.615	3.69
414.974	3.66
415.332	3.68
415.69	3.66
416.048	3.64
416.406	3.63
416.764	3.63
417.122	3.61
417.48	3.6
417.838	3.62
418.195	3.63
418.553	3.63
418.911	3.62
419.269	3.62
419.626	3.61
419.984	3.6
420.342	3.59
420.699	3.58
421.057	3.56
421.414	3.56
421.772	3.56
422.129	3.56
422.486	3.56
422.844	3.55
423.201	3.57
423.558	3.58
423.915	3.59
424.273	3.58
424.63	3.58
424.987	3.59
425.344	3.58
425.701	3.58
426.058	3.59
426.415	3.6
426.772	3.59
427.128	3.6
427.485	3.6
427.842	3.61
428.199	3.64
428.555	3.65
428.912	3.64
429.269	3.64
429.625	3.64
429.982	3.63
430.338	3.64
430.695	3.65
431.051	3.64
431.407	3.65
431.764	3.64
432.12	3.63
432.476	3.63
432.832	3.61
433.189	3.63
433.545	3.63
433.901	3.62
434.257	3.62
434.613	3.61
434.969	3.63
435.325	3.62
435.681	3.6
436.036	3.59
436.392	3.6
436.748	3.6
437.104	3.59
437.459	3.6
437.815	3.6
438.171	3.6
438.526	3.59
438.882	3.59
439.237	3.59
439.593	3.61
439.948	3.6
440.304	3.61
440.659	3.6
441.014	3.6
441.369	3.59
441.725	3.58
442.08	3.58
442.435	3.58
442.79	3.58
443.145	3.59
443.5	3.58
443.855	3.56
444.21	3.57
444.565	3.57
444.92	3.57
445.275	3.56
445.629	3.56
445.984	3.55
446.339	3.54
446.693	3.53
447.048	3.52
447.403	3.52
447.757	3.51
448.112	3.49
448.466	3.48
448.82	3.48
449.175	3.48
449.529	3.49
449.883	3.49
450.238	3.47
450.592	3.49
450.946	3.48
451.3	3.48
451.654	3.46
452.008	3.47
452.362	3.46
452.716	3.49
453.07	3.46
453.424	3.46
453.778	3.49
454.132	3.48
454.486	3.5
454.839	3.49
455.193	3.47
455.547	3.47
455.9	3.47
456.254	3.47
456.607	3.47
456.961	3.46
457.314	3.45
457.668	3.47
458.021	3.43
458.375	3.43
458.728	3.45
459.081	3.46
459.434	3.46
459.787	3.47
460.141	3.46
460.494	3.47
460.847	3.48
461.2	3.47
461.553	3.49
461.906	3.49
462.259	3.49
462.611	3.51
462.964	3.53
463.317	3.53
463.67	3.53
464.022	3.53
464.375	3.52
464.728	3.52
465.08	3.52
465.433	3.53
465.785	3.54
466.138	3.53
466.49	3.56
466.843	3.53
467.195	3.53
467.547	3.54
467.899	3.58
468.252	3.58
468.604	3.58
468.956	3.55
469.308	3.54
469.66	3.54
470.012	3.54
470.364	3.53
470.716	3.54
471.068	3.55
471.42	3.54
471.772	3.59
472.123	3.59
472.475	3.6
472.827	3.61
473.178	3.6
473.53	3.6
473.882	3.59
474.233	3.61
474.585	3.59
474.936	3.59
475.288	3.58
475.639	3.59
475.99	3.57
476.342	3.6
476.693	3.59
477.044	3.62
477.395	3.62
477.746	3.64
478.097	3.62
478.448	3.63
478.8	3.63
479.15	3.6
479.501	3.61
479.852	3.62
480.203	3.63
480.554	3.63
480.905	3.64
481.255	3.65
481.606	3.65
481.957	3.65
482.307	3.65
482.658	3.65
483.009	3.64
483.359	3.64
483.709	3.64
484.06	3.65
484.41	3.65
484.761	3.66
485.111	3.66
485.461	3.66
485.811	3.66
486.162	3.66
486.512	3.67
486.862	3.67
487.212	3.67
487.562	3.66
487.912	3.65
488.262	3.64
488.612	3.63
488.961	3.63
489.311	3.63
489.661	3.64
490.011	3.63
490.36	3.64
490.71	3.65
491.06	3.66
491.409	3.66
491.759	3.66
492.108	3.66
492.458	3.67
492.807	3.67
493.157	3.67
493.506	3.68
493.855	3.66
494.204	3.66
494.554	3.65
494.903	3.66
495.252	3.67
495.601	3.69
495.95	3.71
496.299	3.73
496.648	3.74
496.997	3.74
497.346	3.76
497.695	3.77
498.043	3.77
498.392	3.77
498.741	3.76
499.09	3.76
499.438	3.76
499.787	3.75
500.135	3.75
500.484	3.74
500.832	3.76
501.181	3.78
501.529	3.78
501.878	3.83
502.226	3.86
502.574	3.88
502.923	3.86
503.271	3.86
503.619	3.85
503.967	3.85
504.315	3.84
504.663	3.82
505.011	3.84
505.359	3.85
505.707	3.86
506.055	3.87
506.403	3.88
506.751	3.9
507.098	3.9
507.446	3.91
507.794	3.91
508.141	3.91
508.489	3.92
508.837	3.94
509.184	3.92
509.531	3.92
509.879	3.94
510.226	3.97
510.574	3.99
510.921	3.99
511.268	4
511.616	4.02
511.963	4.04
512.31	4.04
512.657	4.07
513.004	4.08
513.351	4.08
513.698	4.08
514.045	4.07
514.392	4.08
514.739	4.07
515.086	4.1
515.432	4.1
515.779	4.08
516.126	4.09
516.473	4.13
516.819	4.13
517.166	4.1
517.512	4.1
517.859	4.09
518.205	4.1
518.552	4.11
518.898	4.1
519.245	4.11
519.591	4.11
519.937	4.09
520.283	4.08
520.629	4.08
520.976	4.1
521.322	4.12
521.668	4.11
522.014	4.14
522.36	4.14
522.706	4.15
523.052	4.16
523.398	4.14
523.743	4.12
524.089	4.14
524.435	4.15
524.781	4.15
525.126	4.16
525.472	4.17
525.817	4.17
526.163	4.17
526.509	4.18
526.854	4.17
527.199	4.19
527.545	4.18
527.89	4.18
528.235	4.18
528.581	4.19
528.926	4.19
529.271	4.17
529.616	4.16
529.961	4.16
530.306	4.16
530.651	4.17
530.996	4.17
531.341	4.17
531.686	4.19
532.031	4.18
532.376	4.18
532.721	4.18
533.065	4.17
533.41	4.17
533.755	4.18
534.099	4.19
534.444	4.17
534.788	4.19
535.133	4.19
535.477	4.2
535.822	4.21
536.166	4.21
536.51	4.23
536.855	4.25
537.199	4.24
537.543	4.26
537.887	4.27
538.231	4.27
538.576	4.28
538.92	4.26
539.264	4.25
539.608	4.26
539.951	4.25
540.295	4.25
540.639	4.28
540.983	4.26
541.327	4.25
541.671	4.26
542.014	4.24
542.358	4.24
542.701	4.24
543.045	4.22
543.389	4.23
543.732	4.23
544.075	4.23
544.419	4.24
544.762	4.22
545.105	4.22
545.449	4.23
545.792	4.22
546.135	4.23
546.478	4.24
546.821	4.25
547.165	4.23
547.508	4.24
547.851	4.22
548.194	4.23
548.536	4.24
548.879	4.25
549.222	4.27
549.565	4.27
549.908	4.28
550.25	4.28
550.593	4.27
550.936	4.27
551.278	4.27
551.621	4.26
551.963	4.29
552.306	4.31
552.648	4.28
552.991	4.33
553.333	4.32
553.675	4.3
554.017	4.3
554.36	4.3
554.702	4.29
555.044	4.29
555.386	4.3
555.728	4.31
556.07	4.3
556.412	4.3
556.754	4.3
557.096	4.3
557.438	4.3
557.78	4.31
558.121	4.29
558.463	4.29
558.805	4.3
559.147	4.3
559.488	4.28
559.83	4.29
560.171	4.26
560.513	4.27
560.854	4.3
561.196	4.3
561.537	4.34
561.878	4.34
562.22	4.33
562.561	4.32
562.902	4.31
563.243	4.31
563.584	4.34
563.925	4.34
564.266	4.34
564.607	4.35
564.948	4.35
565.289	4.36
565.63	4.38
565.971	4.34
566.312	4.33
566.653	4.33
566.993	4.32
567.334	4.32
567.675	4.35
568.015	4.36
568.356	4.33
568.696	4.33
569.037	4.35
569.377	4.37
569.718	4.39
570.058	4.37
570.398	4.35
570.739	4.34
571.079	4.36
571.419	4.31
571.759	4.32
572.099	4.31
572.439	4.31
572.779	4.29
573.119	4.32
573.459	4.34
573.799	4.37
574.139	4.39
574.479	4.38
574.819	4.34
575.158	4.31
575.498	4.34
575.838	4.32
576.177	4.3
576.517	4.28
576.856	4.31
577.196	4.33
577.535	4.34
577.875	4.32
578.214	4.3
578.553	4.35
578.893	4.33
579.232	4.34
579.571	4.36
579.91	4.33
580.25	4.32
580.589	4.32
580.928	4.33
581.267	4.27
581.606	4.24
581.945	4.22
582.283	4.21
582.622	4.19
582.961	4.21
583.3	4.24
583.639	4.25
583.977	4.23
584.316	4.18
584.654	4.19
584.993	4.23
585.332	4.25
585.67	4.26
586.008	4.27
586.347	4.25
586.685	4.24
587.024	4.28
587.362	4.31
587.7	4.31
588.038	4.34
588.376	4.36
588.715	4.36
589.053	4.43
589.391	4.47
589.729	4.52
590.067	4.51
590.404	4.49
590.742	4.49
591.08	4.47
591.418	4.49
591.756	4.51
592.093	4.47
592.431	4.45
592.769	4.46
593.106	4.44
593.444	4.45
593.781	4.43
594.119	4.47
594.456	4.46
594.793	4.43
595.131	4.36
595.468	4.4
595.805	4.4
596.143	4.41
596.48	4.43
596.817	4.37
597.154	4.38
597.491	4.38
597.828	4.36
598.165	4.39
598.502	4.38
598.839	4.39
599.176	4.42
599.512	4.45
599.849	4.45
600.186	4.44
600.523	4.48
600.859	4.57
601.196	4.54
601.532	4.53
601.869	4.53
602.205	4.54
602.542	4.52
602.878	4.49
603.215	4.49
603.551	4.46
603.887	4.45
604.223	4.45
604.56	4.5
604.896	4.55
605.232	4.57
605.568	4.57
605.904	4.57
606.24	4.56
606.576	4.56
606.912	4.55
607.248	4.56
607.583	4.56
607.919	4.49
608.255	4.46
608.591	4.52
608.926	4.53
609.262	4.57
609.597	4.57
609.933	4.61
610.268	4.57
610.604	4.62
610.939	4.64
611.275	4.64
611.61	4.58
611.945	4.57
612.281	4.55
612.616	4.52
612.951	4.52
613.286	4.52
613.621	4.52
613.956	4.57
614.291	4.58
614.626	4.55
614.961	4.56
615.296	4.55
615.631	4.51
615.966	4.53
616.3	4.48
616.635	4.52
616.97	4.48
617.304	4.54
617.639	4.5
617.973	4.52
618.308	4.53
618.642	4.52
618.977	4.43
619.311	4.41
619.646	4.43
619.98	4.39
620.314	4.45
620.648	4.45
620.983	4.37
621.317	4.39
621.651	4.4
621.985	4.45
622.319	4.48
622.653	4.46
622.987	4.47
623.321	4.51
623.655	4.52
623.988	4.58
624.322	4.56
624.656	4.59
624.99	4.56
625.323	4.56
625.657	4.61
625.99	4.68
626.324	4.72
626.657	4.75
626.991	4.77
627.324	4.77
627.658	4.76
627.991	4.82
628.324	4.82
628.657	4.85
628.991	4.82
629.324	4.89
629.657	4.9
629.99	4.88
630.323	4.91
630.656	4.89
630.989	4.89
631.322	4.9
631.655	4.88
631.987	4.94
632.32	5
632.653	4.94
632.986	4.93
633.318	4.89
633.651	4.85
633.984	4.83
634.316	4.81
634.649	4.81
634.981	4.76
635.313	4.74
635.646	4.72
635.978	4.75
636.31	4.7
636.643	4.71
636.975	4.71
637.307	4.64
637.639	4.67
637.971	4.68
638.303	4.66
638.635	4.65
638.967	4.64
639.299	4.6
639.631	4.59
639.963	4.57
640.295	4.59
640.626	4.6
640.958	4.6
641.29	4.58
641.621	4.57
641.953	4.54
642.285	4.61
642.616	4.62
642.948	4.62
643.279	4.61
643.61	4.62
643.942	4.62
644.273	4.69
644.604	4.63
644.936	4.53
645.267	4.47
645.598	4.48
645.929	4.51
646.26	4.5
646.591	4.56
646.922	4.6
647.253	4.65
647.584	4.7
647.915	4.68
648.245	4.66
648.576	4.67
648.907	4.73
649.238	4.69
649.568	4.65
649.899	4.68
650.229	4.68
650.56	4.72
650.89	4.74
651.221	4.72
651.551	4.72
651.882	4.83
652.212	4.91
652.542	4.88
652.872	4.82
653.203	4.79
653.533	4.81
653.863	4.83
654.193	4.83
654.523	4.8
654.853	4.88
655.183	4.85
655.513	4.82
655.843	4.77
656.172	4.79
656.502	4.81
656.832	4.82
657.162	4.84
657.491	4.75
657.821	4.78
658.15	4.76
658.48	4.78
658.809	4.72
659.139	4.71
659.468	4.74
659.798	4.76
660.127	4.8
660.456	4.72
660.785	4.68
661.115	4.65
661.444	4.67
661.773	4.69
662.102	4.71
662.431	4.74
662.76	4.71
663.089	4.74
663.418	4.73
663.747	4.61
664.076	4.6
664.404	4.64
664.733	4.68
665.062	4.67
665.39	4.73
665.719	4.78
666.048	4.75
666.376	4.74
666.705	4.78
667.033	4.76
667.362	4.82
667.69	4.86
668.018	4.89
668.347	4.91
668.675	4.85
669.003	4.9
669.331	5.03
669.659	5.13
669.987	5.14
670.315	5.17
670.643	5.22
670.971	5.25
671.299	5.29
671.627	5.22
671.955	5.21
672.283	5.13
672.61	5.13
672.938	5.19
673.266	5.23
673.593	5.32
673.921	5.31
674.249	5.32
674.576	5.25
674.904	5.22
675.231	5.21
675.558	5.29
675.886	5.33
676.213	5.25
676.54	5.19
676.867	5.14
677.195	5.05
677.522	5.08
677.849	5.09
678.176	5.06
