Data from BU26850_Reflection_00009.txt Node
Date: Mon Nov 18 16:45:40 EST 2019
User: vgr7
Spectrometer: USB2G7710
Scans to average: 3
Trigger mode: 4
Integration Time (sec): 2.000000E-2
Electric dark correction enabled: true
Boxcar width: 10
XAxis mode: Wavelengths
Number of Pixels in Spectrum: 2048
>>>>>Begin Spectral Data<<<<<
177.721	61.41
178.105	11.66
178.488	8.96
178.871	-32.47
179.254	-41.32
179.636	-268.02
180.019	-53.19
180.402	88.46
180.785	-110.07
181.168	-235.91
181.55	-495.09
181.933	-3.16
182.316	29.58
182.698	-73.52
183.081	-191.57
183.463	502.6
183.846	44.31
184.228	-10.51
184.611	121.28
184.993	-672.15
185.376	117.2
185.758	-77.26
186.14	-20.09
186.522	-50.48
186.904	-28.12
187.287	-61.98
187.669	-5.1
188.051	-21.12
188.433	-30.92
188.815	-35.61
189.197	-61.04
189.579	-55.43
189.961	-70.15
190.342	-91.93
190.724	-89.41
191.106	-54
191.488	-47.86
191.869	-32.11
192.251	-35.12
192.633	-35.92
193.014	-35.44
193.396	-49.07
193.777	-41.52
194.159	-29.16
194.54	2.79
194.922	-7.99
195.303	-11.8
195.684	-15.51
196.065	-6.59
196.447	-12.71
196.828	-23.22
197.209	-27.24
197.59	-33.26
197.971	-34.64
198.352	-25.76
198.733	-32.76
199.114	-47.62
199.495	-43.51
199.876	-41.1
200.257	-43.25
200.638	-44.92
201.018	-54.53
201.399	-38.65
201.78	-37.58
202.16	-50.1
202.541	-74.58
202.922	-83.51
203.302	-77.61
203.683	-93.44
204.063	-99.78
204.444	-98.66
204.824	-83.33
205.204	-72.56
205.585	-76.43
205.965	-81.41
206.345	-96.44
206.725	-80.79
207.106	-90.22
207.486	-108.16
207.866	-139.44
208.246	-124.88
208.626	-162.27
209.006	-93.6
209.386	-101.32
209.766	-100.54
210.145	-117.91
210.525	-67.92
210.905	-53.87
211.285	-52.31
211.664	-44.25
212.044	-59.61
212.424	-64.44
212.803	-59.22
213.183	-52.53
213.562	-35.55
213.942	-26.26
214.321	-23.29
214.701	-34.97
215.08	-34.28
215.459	-28.89
215.838	-15.96
216.218	-28.27
216.597	-21.42
216.976	-29.62
217.355	-29.85
217.734	-29.05
218.113	-17.34
218.492	-21.91
218.871	-21.93
219.25	-15.59
219.629	-18.9
220.008	-10.43
220.387	-4.29
220.766	-5.61
221.144	-18.8
221.523	-38.56
221.902	-30.41
222.28	-32.29
222.659	-16.22
223.037	-14.86
223.416	-9.8
223.794	-6.02
224.173	2.59
224.551	3.91
224.929	9.74
225.308	3.43
225.686	3.83
226.064	-1.13
226.442	-0.21
226.821	2.43
227.199	-6.62
227.577	-8.43
227.955	-9.38
228.333	-11.6
228.711	-10.72
229.089	-4.14
229.467	-3.23
229.845	-6.45
230.222	-6.92
230.6	-11.53
230.978	-8.31
231.356	-6.9
231.733	-7.23
232.111	-5.67
232.488	-3.45
232.866	-0.84
233.243	1.36
233.621	1
233.998	2.33
234.376	0.42
234.753	0.94
235.13	0.95
235.508	2.96
235.885	3.64
236.262	3.78
236.639	2.76
237.016	2.49
237.393	6.38
237.77	7.14
238.147	7.62
238.524	8.28
238.901	7.48
239.278	7.76
239.655	8.19
240.032	7.97
240.409	6.91
240.785	6.08
241.162	5.46
241.539	5.52
241.915	5.55
242.292	5.42
242.668	5.34
243.045	6.01
243.421	5.93
243.798	5.19
244.174	5.46
244.551	5.46
244.927	5.55
245.303	5.18
245.679	5.36
246.056	5.36
246.432	5.35
246.808	5.26
247.184	5.12
247.56	5.01
247.936	4.78
248.312	4.99
248.688	5.03
249.064	4.97
249.44	5.07
249.815	5.12
250.191	5.3
250.567	5.39
250.943	5.15
251.318	5.22
251.694	5.57
252.069	5.21
252.445	5.47
252.82	5.32
253.196	5.5
253.571	5.1
253.947	5.03
254.322	5.39
254.697	5.19
255.073	5.03
255.448	4.84
255.823	4.71
256.198	4.62
256.573	4.38
256.948	4.33
257.323	4.2
257.698	4.23
258.073	4.29
258.448	4.1
258.823	4.03
259.198	3.97
259.573	4.09
259.948	4.24
260.322	4.2
260.697	4.37
261.072	4.27
261.446	4.41
261.821	4.34
262.195	4.15
262.57	4.11
262.944	4.11
263.319	4.01
263.693	3.9
264.067	4
264.442	3.91
264.816	3.92
265.19	3.85
265.564	3.75
265.938	3.65
266.313	3.52
266.687	3.7
267.061	3.68
267.435	3.61
267.809	3.69
268.183	3.68
268.556	3.37
268.93	3.31
269.304	3.29
269.678	3.28
270.051	3.3
270.425	3.48
270.799	3.45
271.172	3.6
271.546	3.6
271.919	3.51
272.293	3.69
272.666	3.75
273.04	3.81
273.413	3.74
273.787	3.83
274.16	3.89
274.533	3.76
274.906	3.79
275.279	3.77
275.653	3.63
276.026	3.6
276.399	3.69
276.772	3.89
277.145	3.88
277.518	4.07
277.891	4.01
278.263	3.9
278.636	3.86
279.009	3.75
279.382	3.96
279.755	4.1
280.127	4.25
280.5	4.24
280.872	4.19
281.245	4.2
281.617	4.23
281.99	4.3
282.362	4.48
282.735	4.34
283.107	4.21
283.479	4.29
283.852	4.21
284.224	4.13
284.596	4.11
284.968	4.12
285.34	4.23
285.713	4.23
286.085	4.31
286.457	4.56
286.829	4.52
287.201	4.64
287.572	4.49
287.944	4.37
288.316	4.41
288.688	4.35
289.06	4.43
289.431	4.32
289.803	4.36
290.175	4.25
290.546	4.37
290.918	4.4
291.289	4.36
291.661	4.5
292.032	4.5
292.403	4.5
292.775	4.53
293.146	4.4
293.517	4.52
293.889	4.59
294.26	4.47
294.631	4.6
295.002	4.56
295.373	4.68
295.744	4.68
296.115	4.69
296.486	4.73
296.857	4.63
297.228	4.73
297.599	4.73
297.97	4.85
298.34	4.99
298.711	5.15
299.082	5.3
299.452	5.37
299.823	5.59
300.194	5.58
300.564	5.63
300.935	5.72
301.305	5.64
301.676	5.58
302.046	5.59
302.416	5.64
302.787	5.61
303.157	5.54
303.527	5.74
303.897	5.81
304.267	6.03
304.637	6.28
305.008	6.46
305.378	6.55
305.748	6.7
306.117	6.6
306.487	6.71
306.857	6.82
307.227	6.91
307.597	6.98
307.967	7.08
308.336	7.29
308.706	7.39
309.076	7.55
309.445	7.69
309.815	7.79
310.184	7.91
310.554	8
310.923	8.2
311.293	8.32
311.662	8.31
312.031	8.32
312.401	8.37
312.77	8.43
313.139	8.47
313.508	8.49
313.877	8.48
314.246	8.52
314.616	8.57
314.985	8.62
315.353	8.6
315.722	8.71
316.091	8.73
316.46	8.88
316.829	8.83
317.198	8.85
317.567	8.95
317.935	8.99
318.304	9.21
318.672	9.24
319.041	9.28
319.41	9.4
319.778	9.46
320.147	9.62
320.515	9.56
320.883	9.6
321.252	9.58
321.62	9.65
321.988	9.7
322.357	9.72
322.725	9.67
323.093	9.9
323.461	9.93
323.829	9.92
324.197	9.83
324.565	9.9
324.933	10.04
325.301	10.18
325.669	10.25
326.037	10.22
326.405	10.31
326.772	10.4
327.14	10.63
327.508	10.67
327.875	10.65
328.243	10.78
328.61	10.93
328.978	11.03
329.346	11.1
329.713	11.11
330.08	11.09
330.448	11.29
330.815	11.21
331.182	11.23
331.55	11.4
331.917	11.53
332.284	11.76
332.651	11.69
333.018	11.66
333.385	11.63
333.752	11.61
334.119	11.57
334.486	11.46
334.853	11.33
335.22	11.44
335.587	11.44
335.954	11.4
336.32	11.38
336.687	11.43
337.054	11.51
337.42	11.52
337.787	11.6
338.153	11.53
338.52	11.64
338.886	11.65
339.253	11.61
339.619	11.62
339.986	11.49
340.352	11.6
340.718	11.62
341.084	11.62
341.451	11.74
341.817	11.83
342.183	11.81
342.549	11.88
342.915	11.87
343.281	11.92
343.647	11.99
344.013	12.07
344.379	11.93
344.745	12
345.11	12.15
345.476	12.19
345.842	12.27
346.208	12.33
346.573	12.4
346.939	12.38
347.304	12.28
347.67	12.35
348.035	12.32
348.401	12.34
348.766	12.4
349.132	12.42
349.497	12.4
349.862	12.48
350.228	12.43
350.593	12.44
350.958	12.4
351.323	12.37
351.688	12.3
352.053	12.49
352.418	12.5
352.783	12.42
353.148	12.33
353.513	12.3
353.878	12.2
354.243	12.11
354.608	12.13
354.972	12.21
355.337	12.25
355.702	12.32
356.066	12.29
356.431	12.31
356.795	12.25
357.16	12.22
357.524	12.16
357.889	12.15
358.253	12.14
358.618	12.19
358.982	12.22
359.346	12.17
359.71	12.14
360.075	12.14
360.439	12.1
360.803	12.08
361.167	12.04
361.531	12.03
361.895	12.04
362.259	12
362.623	12.02
362.987	11.97
363.351	11.89
363.714	11.86
364.078	11.82
364.442	11.75
364.806	11.66
365.169	11.65
365.533	11.58
365.896	11.47
366.26	11.33
366.623	11.19
366.987	11.14
367.35	11.08
367.714	11.02
368.077	10.97
368.44	10.96
368.803	10.92
369.167	10.79
369.53	10.67
369.893	10.69
370.256	10.58
370.619	10.5
370.982	10.4
371.345	10.35
371.708	10.29
372.071	10.26
372.434	10.24
372.797	10.22
373.159	10.17
373.522	10.18
373.885	10.13
374.247	10.08
374.61	10.07
374.973	9.96
375.335	9.86
375.698	9.77
376.06	9.63
376.423	9.51
376.785	9.47
377.147	9.49
377.51	9.33
377.872	9.28
378.234	9.21
378.596	9.14
378.958	9.03
379.321	8.95
379.683	8.9
380.045	8.83
380.407	8.7
380.769	8.65
381.13	8.52
381.492	8.45
381.854	8.42
382.216	8.29
382.578	8.23
382.939	8.16
383.301	8.09
383.663	8.05
384.024	7.98
384.386	7.97
384.747	7.86
385.109	7.84
385.47	7.77
385.832	7.69
386.193	7.69
386.554	7.63
386.916	7.56
387.277	7.51
387.638	7.52
387.999	7.48
388.36	7.39
388.721	7.39
389.082	7.35
389.443	7.27
389.804	7.21
390.165	7.14
390.526	7.13
390.887	7.11
391.248	7.07
391.609	7.08
391.969	7.02
392.33	7.01
392.691	6.95
393.051	6.86
393.412	6.85
393.772	6.76
394.133	6.72
394.493	6.64
394.854	6.59
395.214	6.47
395.574	6.41
395.935	6.37
396.295	6.28
396.655	6.2
397.015	6.19
397.376	6.15
397.736	6.12
398.096	6.06
398.456	6.01
398.816	5.96
399.176	5.85
399.535	5.73
399.895	5.67
400.255	5.64
400.615	5.58
400.975	5.52
401.334	5.52
401.694	5.47
402.054	5.46
402.413	5.4
402.773	5.36
403.132	5.29
403.492	5.28
403.851	5.25
404.211	5.22
404.57	5.14
404.929	5.13
405.288	5.08
405.648	5.01
406.007	4.97
406.366	4.92
406.725	4.96
407.084	4.99
407.443	4.97
407.802	4.96
408.161	4.94
408.52	4.93
408.879	4.9
409.238	4.93
409.596	4.92
409.955	4.94
410.314	4.96
410.673	4.98
411.031	4.95
411.39	4.94
411.748	4.96
412.107	4.99
412.465	4.99
412.824	4.96
413.182	4.95
413.54	4.93
413.899	4.94
414.257	4.88
414.615	4.83
414.974	4.83
415.332	4.79
415.69	4.78
416.048	4.73
416.406	4.69
416.764	4.61
417.122	4.59
417.48	4.57
417.838	4.54
418.195	4.5
418.553	4.46
418.911	4.45
419.269	4.42
419.626	4.38
419.984	4.35
420.342	4.34
420.699	4.3
421.057	4.28
421.414	4.26
421.772	4.25
422.129	4.23
422.486	4.2
422.844	4.19
423.201	4.16
423.558	4.16
423.915	4.16
424.273	4.17
424.63	4.13
424.987	4.09
425.344	4.07
425.701	4.06
426.058	4.06
426.415	4.05
426.772	4.02
427.128	4.02
427.485	3.99
427.842	3.98
428.199	3.99
428.555	3.99
428.912	3.97
429.269	3.99
429.625	3.97
429.982	3.93
430.338	3.9
430.695	3.9
431.051	3.88
431.407	3.87
431.764	3.84
432.12	3.84
432.476	3.84
432.832	3.83
433.189	3.82
433.545	3.81
433.901	3.8
434.257	3.8
434.613	3.8
434.969	3.81
435.325	3.8
435.681	3.81
436.036	3.81
436.392	3.8
436.748	3.78
437.104	3.78
437.459	3.79
437.815	3.8
438.171	3.78
438.526	3.8
438.882	3.8
439.237	3.82
439.593	3.82
439.948	3.82
440.304	3.82
440.659	3.83
441.014	3.83
441.369	3.83
441.725	3.82
442.08	3.81
442.435	3.82
442.79	3.81
443.145	3.81
443.5	3.79
443.855	3.78
444.21	3.77
444.565	3.77
444.92	3.78
445.275	3.78
445.629	3.79
445.984	3.77
446.339	3.76
446.693	3.73
447.048	3.72
447.403	3.72
447.757	3.71
448.112	3.7
448.466	3.68
448.82	3.67
449.175	3.67
449.529	3.67
449.883	3.64
450.238	3.64
450.592	3.61
450.946	3.6
451.3	3.59
451.654	3.59
452.008	3.58
452.362	3.55
452.716	3.54
453.07	3.53
453.424	3.52
453.778	3.52
454.132	3.52
454.486	3.5
454.839	3.51
455.193	3.5
455.547	3.51
455.9	3.52
456.254	3.52
456.607	3.53
456.961	3.53
457.314	3.53
457.668	3.52
458.021	3.52
458.375	3.54
458.728	3.54
459.081	3.54
459.434	3.55
459.787	3.57
460.141	3.58
460.494	3.58
460.847	3.59
461.2	3.59
461.553	3.61
461.906	3.63
462.259	3.63
462.611	3.65
462.964	3.66
463.317	3.67
463.67	3.67
464.022	3.66
464.375	3.67
464.728	3.69
465.08	3.71
465.433	3.74
465.785	3.76
466.138	3.79
466.49	3.81
466.843	3.82
467.195	3.84
467.547	3.86
467.899	3.86
468.252	3.89
468.604	3.92
468.956	3.92
469.308	3.94
469.66	3.96
470.012	3.96
470.364	4
470.716	3.99
471.068	4.03
471.42	4.04
471.772	4.09
472.123	4.12
472.475	4.13
472.827	4.15
473.178	4.16
473.53	4.15
473.882	4.16
474.233	4.15
474.585	4.14
474.936	4.13
475.288	4.15
475.639	4.14
475.99	4.12
476.342	4.12
476.693	4.11
477.044	4.11
477.395	4.1
477.746	4.07
478.097	4.07
478.448	4.06
478.8	4.05
479.15	4.01
479.501	3.99
479.852	3.99
480.203	3.97
480.554	3.98
480.905	3.99
481.255	3.99
481.606	3.98
481.957	3.96
482.307	3.97
482.658	3.95
483.009	3.93
483.359	3.93
483.709	3.94
484.06	3.94
484.41	3.95
484.761	3.94
485.111	3.94
485.461	3.94
485.811	3.94
486.162	3.94
486.512	3.95
486.862	3.94
487.212	3.94
487.562	3.95
487.912	3.94
488.262	3.93
488.612	3.93
488.961	3.93
489.311	3.94
489.661	3.94
490.011	3.96
490.36	3.98
490.71	3.98
491.06	3.99
491.409	4
491.759	4
492.108	4.01
492.458	4.03
492.807	4.04
493.157	4.07
493.506	4.1
493.855	4.11
494.204	4.13
494.554	4.15
494.903	4.16
495.252	4.18
495.601	4.22
495.95	4.25
496.299	4.3
496.648	4.33
496.997	4.35
497.346	4.4
497.695	4.44
498.043	4.49
498.392	4.54
498.741	4.58
499.09	4.63
499.438	4.69
499.787	4.77
500.135	4.84
500.484	4.9
500.832	4.96
501.181	5.03
501.529	5.11
501.878	5.19
502.226	5.3
502.574	5.41
502.923	5.5
503.271	5.59
503.619	5.69
503.967	5.8
504.315	5.9
504.663	6.02
505.011	6.15
505.359	6.29
505.707	6.43
506.055	6.56
506.403	6.7
506.751	6.86
507.098	6.98
507.446	7.13
507.794	7.27
508.141	7.43
508.489	7.57
508.837	7.72
509.184	7.88
509.531	8.04
509.879	8.22
510.226	8.38
510.574	8.54
510.921	8.72
511.268	8.91
511.616	9.09
511.963	9.28
512.31	9.46
512.657	9.64
513.004	9.83
513.351	10.05
513.698	10.24
514.045	10.44
514.392	10.66
514.739	10.88
515.086	11.11
515.432	11.34
515.779	11.58
516.126	11.82
516.473	12.04
516.819	12.23
517.166	12.41
517.512	12.62
517.859	12.81
518.205	13.01
518.552	13.2
518.898	13.38
519.245	13.54
519.591	13.72
519.937	13.92
520.283	14.13
520.629	14.34
520.976	14.55
521.322	14.78
521.668	15.02
522.014	15.27
522.36	15.53
522.706	15.78
523.052	16.04
523.398	16.29
523.743	16.56
524.089	16.85
524.435	17.11
524.781	17.37
525.126	17.62
525.472	17.85
525.817	18.06
526.163	18.27
526.509	18.45
526.854	18.61
527.199	18.76
527.545	18.89
527.89	19.03
528.235	19.19
528.581	19.36
528.926	19.51
529.271	19.65
529.616	19.81
529.961	19.96
530.306	20.14
530.651	20.3
530.996	20.49
531.341	20.68
531.686	20.86
532.031	21.04
532.376	21.24
532.721	21.44
533.065	21.63
533.41	21.82
533.755	22.05
534.099	22.28
534.444	22.51
534.788	22.77
535.133	23.03
535.477	23.27
535.822	23.49
536.166	23.74
536.51	24.04
536.855	24.31
537.199	24.59
537.543	24.86
537.887	25.18
538.231	25.48
538.576	25.8
538.92	26.12
539.264	26.41
539.608	26.65
539.951	26.88
540.295	27.13
540.639	27.37
540.983	27.6
541.327	27.86
541.671	28.1
542.014	28.29
542.358	28.53
542.701	28.73
543.045	28.91
543.389	29.12
543.732	29.34
544.075	29.56
544.419	29.8
544.762	30.04
545.105	30.29
545.449	30.56
545.792	30.81
546.135	31.08
546.478	31.38
546.821	31.74
547.165	32.05
547.508	32.34
547.851	32.64
548.194	32.93
548.536	33.19
548.879	33.53
549.222	33.84
549.565	34.11
549.908	34.41
550.25	34.75
550.593	35.03
550.936	35.3
551.278	35.61
551.621	35.94
551.963	36.25
552.306	36.57
552.648	36.85
552.991	37.16
553.333	37.44
553.675	37.73
554.017	37.95
554.36	38.21
554.702	38.54
555.044	38.82
555.386	39.09
555.728	39.41
556.07	39.66
556.412	39.92
556.754	40.18
557.096	40.46
557.438	40.78
557.78	41.08
558.121	41.39
558.463	41.62
558.805	41.86
559.147	42.1
559.488	42.28
559.83	42.56
560.171	42.79
560.513	42.97
560.854	43.13
561.196	43.36
561.537	43.6
561.878	43.81
562.22	44.01
562.561	44.27
562.902	44.46
563.243	44.58
563.584	44.72
563.925	44.96
564.266	45.18
564.607	45.34
564.948	45.53
565.289	45.69
565.63	45.9
565.971	46.03
566.312	46.21
566.653	46.41
566.993	46.54
567.334	46.71
567.675	46.9
568.015	47.12
568.356	47.27
568.696	47.47
569.037	47.59
569.377	47.77
569.718	47.83
570.058	48
570.398	48.18
570.739	48.37
571.079	48.47
571.419	48.57
571.759	48.78
572.099	48.95
572.439	49.1
572.779	49.24
573.119	49.41
573.459	49.51
573.799	49.65
574.139	49.76
574.479	49.79
574.819	49.88
575.158	49.98
575.498	50.06
575.838	50.14
576.177	50.24
576.517	50.38
576.856	50.59
577.196	50.72
577.535	50.82
577.875	50.96
578.214	51.05
578.553	51.16
578.893	51.18
579.232	51.23
579.571	51.3
579.91	51.43
580.25	51.57
580.589	51.64
580.928	51.73
581.267	51.84
581.606	52
581.945	52.17
582.283	52.22
582.622	52.37
582.961	52.54
583.3	52.67
583.639	52.67
583.977	52.76
584.316	52.82
584.654	52.87
584.993	53.06
585.332	53.21
585.67	53.33
586.008	53.41
586.347	53.5
586.685	53.6
587.024	53.59
587.362	53.64
587.7	53.8
588.038	53.92
588.376	53.93
588.715	54.09
589.053	54.12
589.391	54.25
589.729	54.33
590.067	54.34
590.404	54.34
590.742	54.44
591.08	54.41
591.418	54.41
591.756	54.48
592.093	54.41
592.431	54.39
592.769	54.39
593.106	54.48
593.444	54.46
593.781	54.51
594.119	54.67
594.456	54.75
594.793	54.7
595.131	54.68
595.468	54.74
595.805	54.67
596.143	54.72
596.48	54.77
596.817	54.85
597.154	54.85
597.491	54.93
597.828	55.01
598.165	55.05
598.502	55.05
598.839	55.09
599.176	55.14
599.512	55.24
599.849	55.3
600.186	55.34
600.523	55.41
600.859	55.48
601.196	55.52
601.532	55.5
601.869	55.68
602.205	55.78
602.542	55.81
602.878	55.85
603.215	55.83
603.551	55.85
603.887	55.83
604.223	55.93
604.56	55.97
604.896	56.08
605.232	56.12
605.568	56.27
605.904	56.35
606.24	56.42
606.576	56.39
606.912	56.44
607.248	56.43
607.583	56.53
607.919	56.58
608.255	56.56
608.591	56.61
608.926	56.57
609.262	56.53
609.597	56.62
609.933	56.75
610.268	56.88
610.604	56.94
610.939	56.92
611.275	56.84
611.61	56.88
611.945	56.81
612.281	56.96
612.616	56.99
612.951	57.05
613.286	57.13
613.621	57.27
613.956	57.41
614.291	57.49
614.626	57.54
614.961	57.56
615.296	57.58
615.631	57.61
615.966	57.68
616.3	57.8
616.635	57.9
616.97	57.83
617.304	57.79
617.639	57.77
617.973	57.81
618.308	57.97
618.642	58.06
618.977	58.05
619.311	58
619.646	57.89
619.98	57.89
620.314	57.86
620.648	57.95
620.983	57.84
621.317	57.86
621.651	57.89
621.985	57.89
622.319	58
622.653	58.01
622.987	58.06
623.321	58.01
623.655	57.87
623.988	57.84
624.322	57.85
624.656	57.93
624.99	58.02
625.323	57.95
625.657	57.92
625.99	58.04
626.324	58.02
626.657	58.08
626.991	58
627.324	58
627.658	57.93
627.991	58.04
628.324	58.01
628.657	57.97
628.991	58.05
629.324	58.03
629.657	58.01
629.99	57.99
630.323	58.08
630.656	58.13
630.989	58.25
631.322	58.29
631.655	58.23
631.987	58.28
632.32	58.31
632.653	58.22
632.986	58.12
633.318	58.15
633.651	58.25
633.984	58.36
634.316	58.38
634.649	58.42
634.981	58.36
635.313	58.43
635.646	58.45
635.978	58.49
636.31	58.51
636.643	58.54
636.975	58.66
637.307	58.53
637.639	58.57
637.971	58.58
638.303	58.58
638.635	58.54
638.967	58.46
639.299	58.41
639.631	58.47
639.963	58.5
640.295	58.59
640.626	58.48
640.958	58.42
641.29	58.37
641.621	58.3
641.953	58.26
642.285	58.27
642.616	58.35
642.948	58.2
643.279	58.15
643.61	58.22
643.942	58.21
644.273	58.22
644.604	58.29
644.936	58.28
645.267	58.25
645.598	58.32
645.929	58.3
646.26	58.45
646.591	58.49
646.922	58.46
647.253	58.51
647.584	58.63
647.915	58.73
648.245	58.84
648.576	58.82
648.907	58.82
649.238	58.78
649.568	58.7
649.899	58.69
650.229	58.74
650.56	58.65
650.89	58.59
651.221	58.71
651.551	58.62
651.882	58.6
652.212	58.63
652.542	58.66
652.872	58.75
653.203	58.72
653.533	58.71
653.863	58.7
654.193	58.64
654.523	58.51
654.853	58.39
655.183	58.25
655.513	58.32
655.843	58.29
656.172	58.37
656.502	58.48
656.832	58.57
657.162	58.57
657.491	58.69
657.821	58.7
658.15	58.85
658.48	58.91
658.809	58.84
659.139	58.83
659.468	58.9
659.798	58.93
660.127	58.9
660.456	59
660.785	59.04
661.115	59.01
661.444	59.08
661.773	59.14
662.102	59.18
662.431	59.26
662.76	59.39
663.089	59.35
663.418	59.31
663.747	59.27
664.076	59.24
