Data from BU26842_Reflection_00011.txt Node
Date: Mon Nov 18 16:38:46 EST 2019
User: vgr7
Spectrometer: USB2G7710
Scans to average: 3
Trigger mode: 4
Integration Time (sec): 2.000000E-2
Electric dark correction enabled: true
Boxcar width: 10
XAxis mode: Wavelengths
Number of Pixels in Spectrum: 2048
>>>>>Begin Spectral Data<<<<<
177.721	17.59
178.105	9.71
178.488	28.89
178.871	33.26
179.254	31.83
179.636	-15.8
180.019	176.37
180.402	55.81
180.785	59.34
181.168	-19.25
181.55	-121.84
181.933	587.27
182.316	-1486.21
182.698	-1949.59
183.081	-773.85
183.463	-112.59
183.846	-156.72
184.228	-87.03
184.611	-101.76
184.993	-87.25
185.376	-122.63
185.758	-264.73
186.14	334.31
186.522	434.41
186.904	719.29
187.287	6582.76
187.669	-135.61
188.051	-108.2
188.433	-70.17
188.815	-98.18
189.197	-134.69
189.579	-83.08
189.961	-124.46
190.342	-102.58
190.724	-82.64
191.106	-97.31
191.488	-118.91
191.869	-124.26
192.251	-148.75
192.633	-147.75
193.014	-138.43
193.396	-171.77
193.777	-144.88
194.159	-139.45
194.54	-135.36
194.922	-122.06
195.303	-122.92
195.684	-113.37
196.065	-98.16
196.447	-99.9
196.828	-112.26
197.209	-109.24
197.59	-126.01
197.971	-86.31
198.352	-95.68
198.733	-138.8
199.114	-116.92
199.495	-115.79
199.876	-110.79
200.257	-81.71
200.638	-75.64
201.018	-116.47
201.399	-78.41
201.78	-67.72
202.16	-70.32
202.541	-76.77
202.922	-88.04
203.302	-122.09
203.683	-145.89
204.063	-201.8
204.444	-160.12
204.824	-124.76
205.204	-85.84
205.585	-68.56
205.965	-80.44
206.345	-113.34
206.725	-123.18
207.106	-182.92
207.486	-238.77
207.866	-262.19
208.246	-271.58
208.626	-198.11
209.006	-133.39
209.386	-178.37
209.766	-180.02
210.145	-148.46
210.525	-132.5
210.905	-106.61
211.285	-82.78
211.664	-85.91
212.044	-84.55
212.424	-104.95
212.803	-87.64
213.183	-111.15
213.562	-119.52
213.942	-108.29
214.321	-78.08
214.701	-60.3
215.08	-69.17
215.459	-57.3
215.838	-61.76
216.218	-74.16
216.597	-67.72
216.976	-68.06
217.355	-71.18
217.734	-78.08
218.113	-76.3
218.492	-68.34
218.871	-77.79
219.25	-75.2
219.629	-73.66
220.008	-76.82
220.387	-58.79
220.766	-68.07
221.144	-67.61
221.523	-72.01
221.902	-82.19
222.28	-90.5
222.659	-88.89
223.037	-79.32
223.416	-82.13
223.794	-67.88
224.173	-55.5
224.551	-57.1
224.929	-49.55
225.308	-34.52
225.686	-25.34
226.064	-19.32
226.442	-14.85
226.821	-11.82
227.199	-14.3
227.577	-13.06
227.955	-12.73
228.333	-15.03
228.711	-9.99
229.089	-6.54
229.467	-6.84
229.845	-8.65
230.222	-8.9
230.6	-9.93
230.978	-6.1
231.356	-5.93
231.733	-7.05
232.111	-4.96
232.488	-3.5
232.866	-3.81
233.243	-4.03
233.621	-5.95
233.998	-4.54
234.376	-8
234.753	-8.26
235.13	-7.6
235.508	-7.99
235.885	-6.54
236.262	-7.76
236.639	-8.13
237.016	-7.9
237.393	-5.4
237.77	-2.75
238.147	-1.42
238.524	-0.37
238.901	0.08
239.278	1.04
239.655	2.06
240.032	2.48
240.409	2.29
240.785	2.59
241.162	2.48
241.539	2.92
241.915	2.03
242.292	2.51
242.668	2.64
243.045	2.85
243.421	2.67
243.798	2.64
244.174	3.23
244.551	3.53
244.927	3.52
245.303	3.59
245.679	3.66
246.056	3.57
246.432	3.38
246.808	3.26
247.184	3.17
247.56	3.06
247.936	2.96
248.312	2.9
248.688	3.02
249.064	3.18
249.44	3.17
249.815	3.32
250.191	3.3
250.567	3.14
250.943	3.1
251.318	3.52
251.694	3.55
252.069	3.43
252.445	3.21
252.82	3.04
253.196	3.02
253.571	2.84
253.947	2.87
254.322	3.31
254.697	3.49
255.073	3.29
255.448	3.22
255.823	3.22
256.198	3.56
256.573	3.41
256.948	3.37
257.323	3.37
257.698	3.49
258.073	3.32
258.448	3.41
258.823	3.4
259.198	3.12
259.573	3
259.948	2.89
260.322	2.86
260.697	2.87
261.072	2.82
261.446	2.83
261.821	2.82
262.195	2.89
262.57	2.78
262.944	2.69
263.319	2.61
263.693	2.52
264.067	2.34
264.442	2.37
264.816	2.12
265.19	1.9
265.564	1.67
265.938	1.71
266.313	1.74
266.687	1.84
267.061	2.23
267.435	2.21
267.809	2.44
268.183	2.28
268.556	2.41
268.93	2.5
269.304	2.57
269.678	2.54
270.051	2.43
270.425	2.55
270.799	2.76
271.172	2.96
271.546	2.91
271.919	2.9
272.293	2.84
272.666	2.99
273.04	3.16
273.413	3.26
273.787	3.33
274.16	3.28
274.533	3.09
274.906	2.9
275.279	2.83
275.653	2.63
276.026	2.87
276.399	2.89
276.772	2.87
277.145	2.73
277.518	2.87
277.891	2.77
278.263	2.72
278.636	2.6
279.009	2.58
279.382	2.8
279.755	2.83
280.127	2.91
280.5	2.92
280.872	2.98
281.245	3.07
281.617	3.18
281.99	3.32
282.362	3.39
282.735	3.19
283.107	3.26
283.479	3.52
283.852	3.4
284.224	3.36
284.596	3.41
284.968	3.43
285.34	3.49
285.713	3.61
286.085	3.65
286.457	3.74
286.829	3.75
287.201	3.61
287.572	3.57
287.944	3.59
288.316	3.6
288.688	3.47
289.06	3.41
289.431	3.36
289.803	3.35
290.175	3.29
290.546	3.45
290.918	3.47
291.289	3.34
291.661	3.47
292.032	3.68
292.403	3.63
292.775	3.76
293.146	3.48
293.517	3.38
293.889	3.35
294.26	3.37
294.631	3.41
295.002	3.39
295.373	3.52
295.744	3.5
296.115	3.45
296.486	3.45
296.857	3.4
297.228	3.41
297.599	3.35
297.97	3.35
298.34	3.51
298.711	3.57
299.082	3.62
299.452	3.56
299.823	3.62
300.194	3.61
300.564	3.46
300.935	3.72
301.305	3.71
301.676	3.87
302.046	3.83
302.416	3.67
302.787	3.76
303.157	3.78
303.527	3.7
303.897	3.9
304.267	3.99
304.637	4.18
305.008	4.25
305.378	4.38
305.748	4.66
306.117	4.6
306.487	4.68
306.857	4.7
307.227	4.82
307.597	4.54
307.967	4.64
308.336	4.78
308.706	4.78
309.076	4.95
309.445	4.81
309.815	4.93
310.184	5.03
310.554	5.09
310.923	4.95
311.293	5.06
311.662	4.89
312.031	4.99
312.401	4.98
312.77	5.12
313.139	5.1
313.508	5
313.877	5.05
314.246	5.11
314.616	5.01
314.985	5
315.353	5.16
315.722	5.16
316.091	5.2
316.46	5.3
316.829	5.17
317.198	5.32
317.567	5.32
317.935	5.4
318.304	5.49
318.672	5.72
319.041	5.88
319.41	6.08
319.778	6.03
320.147	6.05
320.515	5.95
320.883	5.95
321.252	5.95
321.62	5.9
321.988	5.91
322.357	6
322.725	6.03
323.093	6
323.461	6.14
323.829	6.16
324.197	6.26
324.565	6.35
324.933	6.4
325.301	6.35
325.669	6.41
326.037	6.42
326.405	6.35
326.772	6.38
327.14	6.45
327.508	6.62
327.875	6.62
328.243	6.71
328.61	6.89
328.978	6.83
329.346	6.88
329.713	6.75
330.08	6.96
330.448	7.13
330.815	7.15
331.182	7.18
331.55	7.3
331.917	7.3
332.284	7.4
332.651	7.31
333.018	7.45
333.385	7.5
333.752	7.57
334.119	7.7
334.486	7.59
334.853	7.55
335.22	7.51
335.587	7.61
335.954	7.63
336.32	7.52
336.687	7.68
337.054	7.77
337.42	7.99
337.787	7.93
338.153	7.89
338.52	8.03
338.886	7.9
339.253	7.75
339.619	7.75
339.986	7.7
340.352	7.9
340.718	7.89
341.084	7.88
341.451	7.84
341.817	7.96
342.183	8.01
342.549	7.97
342.915	7.99
343.281	7.98
343.647	8.01
344.013	8.06
344.379	8
344.745	7.98
345.11	7.93
345.476	7.88
345.842	7.89
346.208	7.83
346.573	7.86
346.939	7.89
347.304	7.81
347.67	7.86
348.035	7.82
348.401	7.84
348.766	7.84
349.132	7.87
349.497	7.73
349.862	7.8
350.228	7.83
350.593	7.79
350.958	7.78
351.323	7.73
351.688	7.76
352.053	7.89
352.418	7.86
352.783	7.85
353.148	7.87
353.513	7.88
353.878	7.9
354.243	7.92
354.608	7.97
354.972	8.02
355.337	8.07
355.702	8.08
356.066	8.1
356.431	8.02
356.795	8.03
357.16	8.03
357.524	7.93
357.889	7.92
358.253	7.93
358.618	7.95
358.982	7.94
359.346	7.86
359.71	7.8
360.075	7.76
360.439	7.79
360.803	7.75
361.167	7.74
361.531	7.72
361.895	7.75
362.259	7.74
362.623	7.73
362.987	7.7
363.351	7.66
363.714	7.63
364.078	7.65
364.442	7.55
364.806	7.5
365.169	7.53
365.533	7.47
365.896	7.42
366.26	7.31
366.623	7.26
366.987	7.25
367.35	7.22
367.714	7.23
368.077	7.14
368.44	7.12
368.803	7.01
369.167	6.93
369.53	6.8
369.893	6.73
370.256	6.69
370.619	6.55
370.982	6.49
371.345	6.4
371.708	6.47
372.071	6.44
372.434	6.41
372.797	6.32
373.159	6.36
373.522	6.35
373.885	6.4
374.247	6.34
374.61	6.34
374.973	6.25
375.335	6.19
375.698	6.19
376.06	6.18
376.423	6.22
376.785	6.2
377.147	6.23
377.51	6.25
377.872	6.25
378.234	6.26
378.596	6.23
378.958	6.16
379.321	6.01
379.683	6.01
380.045	5.94
380.407	5.9
380.769	5.8
381.13	5.73
381.492	5.71
381.854	5.68
382.216	5.6
382.578	5.61
382.939	5.58
383.301	5.52
383.663	5.4
384.024	5.31
384.386	5.3
384.747	5.28
385.109	5.21
385.47	5.11
385.832	5.06
386.193	5.05
386.554	5.04
386.916	4.98
387.277	5
387.638	5.03
387.999	5.05
388.36	5.06
388.721	5.06
389.082	4.98
389.443	4.92
389.804	4.91
390.165	4.86
390.526	4.83
390.887	4.81
391.248	4.84
391.609	4.84
391.969	4.75
392.33	4.69
392.691	4.7
393.051	4.67
393.412	4.66
393.772	4.61
394.133	4.63
394.493	4.64
394.854	4.57
395.214	4.51
395.574	4.41
395.935	4.37
396.295	4.32
396.655	4.26
397.015	4.29
397.376	4.24
397.736	4.22
398.096	4.21
398.456	4.17
398.816	4.14
399.176	4.06
399.535	4.09
399.895	4.05
400.255	4.01
400.615	4.02
400.975	3.97
401.334	3.97
401.694	3.91
402.054	3.89
402.413	3.87
402.773	3.87
403.132	3.86
403.492	3.81
403.851	3.79
404.211	3.8
404.57	3.77
404.929	3.79
405.288	3.75
405.648	3.73
406.007	3.72
406.366	3.72
406.725	3.75
407.084	3.71
407.443	3.71
407.802	3.71
408.161	3.65
408.52	3.65
408.879	3.61
409.238	3.61
409.596	3.59
409.955	3.57
410.314	3.55
410.673	3.53
411.031	3.56
411.39	3.56
411.748	3.53
412.107	3.52
412.465	3.46
412.824	3.51
413.182	3.49
413.54	3.46
413.899	3.46
414.257	3.43
414.615	3.43
414.974	3.42
415.332	3.4
415.69	3.41
416.048	3.41
416.406	3.39
416.764	3.38
417.122	3.38
417.48	3.36
417.838	3.37
418.195	3.38
418.553	3.38
418.911	3.39
419.269	3.41
419.626	3.4
419.984	3.39
420.342	3.38
420.699	3.37
421.057	3.36
421.414	3.35
421.772	3.34
422.129	3.33
422.486	3.34
422.844	3.34
423.201	3.31
423.558	3.31
423.915	3.31
424.273	3.3
424.63	3.3
424.987	3.3
425.344	3.29
425.701	3.26
426.058	3.25
426.415	3.23
426.772	3.19
427.128	3.19
427.485	3.21
427.842	3.19
428.199	3.19
428.555	3.21
428.912	3.2
429.269	3.2
429.625	3.2
429.982	3.17
430.338	3.16
430.695	3.18
431.051	3.17
431.407	3.18
431.764	3.17
432.12	3.16
432.476	3.14
432.832	3.13
433.189	3.15
433.545	3.15
433.901	3.15
434.257	3.16
434.613	3.16
434.969	3.15
435.325	3.15
435.681	3.15
436.036	3.13
436.392	3.13
436.748	3.13
437.104	3.12
437.459	3.13
437.815	3.12
438.171	3.13
438.526	3.14
438.882	3.14
439.237	3.15
439.593	3.17
439.948	3.19
440.304	3.19
440.659	3.19
441.014	3.2
441.369	3.19
441.725	3.19
442.08	3.18
442.435	3.18
442.79	3.18
443.145	3.18
443.5	3.18
443.855	3.16
444.21	3.16
444.565	3.15
444.92	3.16
445.275	3.15
445.629	3.15
445.984	3.15
446.339	3.13
446.693	3.12
447.048	3.1
447.403	3.09
447.757	3.1
448.112	3.09
448.466	3.08
448.82	3.07
449.175	3.05
449.529	3.05
449.883	3.02
450.238	3.01
450.592	3.02
450.946	3
451.3	3.01
451.654	3.01
452.008	2.99
452.362	2.97
452.716	2.97
453.07	2.95
453.424	2.94
453.778	2.95
454.132	2.95
454.486	2.94
454.839	2.93
455.193	2.93
455.547	2.95
455.9	2.94
456.254	2.97
456.607	2.97
456.961	2.97
457.314	2.98
457.668	2.99
458.021	2.98
458.375	2.99
458.728	3
459.081	3
459.434	3.02
459.787	3.01
460.141	3.02
460.494	3.04
460.847	3.05
461.2	3.04
461.553	3.04
461.906	3.06
462.259	3.07
462.611	3.1
462.964	3.1
463.317	3.12
463.67	3.11
464.022	3.11
464.375	3.11
464.728	3.11
465.08	3.14
465.433	3.14
465.785	3.13
466.138	3.14
466.49	3.15
466.843	3.13
467.195	3.16
467.547	3.19
467.899	3.18
468.252	3.16
468.604	3.16
468.956	3.18
469.308	3.19
469.66	3.18
470.012	3.17
470.364	3.17
470.716	3.17
471.068	3.17
471.42	3.2
471.772	3.24
472.123	3.28
472.475	3.28
472.827	3.3
473.178	3.3
473.53	3.3
473.882	3.28
474.233	3.34
474.585	3.32
474.936	3.29
475.288	3.29
475.639	3.3
475.99	3.33
476.342	3.31
476.693	3.3
477.044	3.29
477.395	3.29
477.746	3.26
478.097	3.26
478.448	3.25
478.8	3.24
479.15	3.2
479.501	3.18
479.852	3.17
480.203	3.17
480.554	3.18
480.905	3.18
481.255	3.19
481.606	3.17
481.957	3.17
482.307	3.19
482.658	3.2
483.009	3.2
483.359	3.2
483.709	3.21
484.06	3.21
484.41	3.21
484.761	3.21
485.111	3.22
485.461	3.21
485.811	3.22
486.162	3.21
486.512	3.22
486.862	3.22
487.212	3.22
487.562	3.22
487.912	3.22
488.262	3.23
488.612	3.24
488.961	3.24
489.311	3.25
489.661	3.25
490.011	3.25
490.36	3.25
490.71	3.26
491.06	3.26
491.409	3.26
491.759	3.27
492.108	3.28
492.458	3.29
492.807	3.3
493.157	3.32
493.506	3.34
493.855	3.35
494.204	3.35
494.554	3.37
494.903	3.38
495.252	3.4
495.601	3.4
495.95	3.42
496.299	3.43
496.648	3.44
496.997	3.48
497.346	3.51
497.695	3.55
498.043	3.56
498.392	3.59
498.741	3.62
499.09	3.64
499.438	3.68
499.787	3.69
500.135	3.74
500.484	3.77
500.832	3.8
501.181	3.84
501.529	3.9
501.878	3.96
502.226	4.01
502.574	4.07
502.923	4.13
503.271	4.19
503.619	4.29
503.967	4.37
504.315	4.41
504.663	4.49
505.011	4.55
505.359	4.62
505.707	4.71
506.055	4.77
506.403	4.86
506.751	4.93
507.098	5.03
507.446	5.12
507.794	5.19
508.141	5.28
508.489	5.37
508.837	5.48
509.184	5.55
509.531	5.65
509.879	5.74
510.226	5.84
510.574	5.93
510.921	5.99
511.268	6.04
511.616	6.15
511.963	6.22
512.31	6.33
512.657	6.44
513.004	6.53
513.351	6.65
513.698	6.75
514.045	6.86
514.392	6.96
514.739	7.06
515.086	7.17
515.432	7.3
515.779	7.39
516.126	7.49
516.473	7.6
516.819	7.66
517.166	7.76
517.512	7.85
517.859	7.95
518.205	8.06
518.552	8.19
518.898	8.26
519.245	8.35
519.591	8.42
519.937	8.5
520.283	8.61
520.629	8.72
520.976	8.83
521.322	8.93
521.668	9.04
522.014	9.16
522.36	9.29
522.706	9.42
523.052	9.59
523.398	9.77
523.743	9.94
524.089	10.14
524.435	10.27
524.781	10.41
525.126	10.54
525.472	10.69
525.817	10.79
526.163	10.92
526.509	11.03
526.854	11.12
527.199	11.22
527.545	11.34
527.89	11.44
528.235	11.55
528.581	11.67
528.926	11.78
529.271	11.9
529.616	12.02
529.961	12.12
530.306	12.22
530.651	12.33
530.996	12.45
531.341	12.59
531.686	12.73
532.031	12.88
532.376	13.04
532.721	13.18
533.065	13.36
533.41	13.5
533.755	13.7
534.099	13.91
534.444	14.11
534.788	14.28
535.133	14.48
535.477	14.68
535.822	14.89
536.166	15.12
536.51	15.34
536.855	15.59
537.199	15.9
537.543	16.15
537.887	16.4
538.231	16.68
538.576	16.94
538.92	17.19
539.264	17.46
539.608	17.72
539.951	17.96
540.295	18.18
540.639	18.42
540.983	18.66
541.327	18.87
541.671	19.06
542.014	19.27
542.358	19.5
542.701	19.7
543.045	19.92
543.389	20.13
543.732	20.37
544.075	20.61
544.419	20.8
544.762	21.09
545.105	21.35
545.449	21.64
545.792	21.92
546.135	22.26
546.478	22.56
546.821	22.85
547.165	23.2
547.508	23.55
547.851	23.9
548.194	24.19
548.536	24.55
548.879	24.92
549.222	25.27
549.565	25.61
549.908	25.94
550.25	26.29
550.593	26.64
550.936	26.96
551.278	27.29
551.621	27.67
551.963	27.99
552.306	28.31
552.648	28.63
552.991	29
553.333	29.28
553.675	29.56
554.017	29.86
554.36	30.14
554.702	30.4
555.044	30.68
555.386	31
555.728	31.27
556.07	31.6
556.412	31.88
556.754	32.2
557.096	32.5
557.438	32.78
557.78	33.12
558.121	33.44
558.463	33.77
558.805	34.06
559.147	34.32
559.488	34.62
559.83	34.87
560.171	35.02
560.513	35.29
560.854	35.57
561.196	35.83
561.537	36.14
561.878	36.39
562.22	36.6
562.561	36.87
562.902	37.09
563.243	37.33
563.584	37.52
563.925	37.73
564.266	37.96
564.607	38.19
564.948	38.38
565.289	38.62
565.63	38.82
565.971	38.96
566.312	39.13
566.653	39.32
566.993	39.49
567.334	39.77
567.675	40
568.015	40.21
568.356	40.46
568.696	40.56
569.037	40.73
569.377	40.95
569.718	41.11
570.058	41.27
570.398	41.4
570.739	41.62
571.079	41.75
571.419	41.92
571.759	42.07
572.099	42.22
572.439	42.36
572.779	42.47
573.119	42.67
573.459	42.88
573.799	43.04
574.139	43.18
574.479	43.29
574.819	43.42
575.158	43.55
575.498	43.65
575.838	43.87
576.177	44.05
576.517	44.2
576.856	44.3
577.196	44.48
577.535	44.64
577.875	44.78
578.214	44.93
578.553	45.04
578.893	45.2
579.232	45.31
579.571	45.42
579.91	45.51
580.25	45.6
580.589	45.69
580.928	45.73
581.267	45.91
581.606	46.06
581.945	46.09
582.283	46.19
582.622	46.24
582.961	46.34
583.3	46.48
583.639	46.65
583.977	46.85
584.316	46.97
584.654	47.08
584.993	47.14
585.332	47.24
585.67	47.38
586.008	47.47
586.347	47.62
586.685	47.73
587.024	47.85
587.362	48
587.7	48.11
588.038	48.3
588.376	48.38
588.715	48.39
589.053	48.52
589.391	48.56
589.729	48.64
590.067	48.65
590.404	48.74
590.742	48.81
591.08	48.84
591.418	48.86
591.756	48.95
592.093	49.04
592.431	49.16
592.769	49.22
593.106	49.26
593.444	49.27
593.781	49.3
594.119	49.41
594.456	49.42
594.793	49.45
595.131	49.51
595.468	49.55
595.805	49.66
596.143	49.78
596.48	49.85
596.817	49.95
597.154	50.05
597.491	50.02
597.828	50.05
598.165	50.17
598.502	50.24
598.839	50.26
599.176	50.39
599.512	50.43
599.849	50.47
600.186	50.53
600.523	50.56
600.859	50.64
601.196	50.68
601.532	50.72
601.869	50.75
602.205	50.81
602.542	50.89
602.878	50.93
603.215	50.9
603.551	50.96
603.887	50.99
604.223	51.04
604.56	51.13
604.896	51.19
605.232	51.16
605.568	51.2
605.904	51.25
606.24	51.28
606.576	51.31
606.912	51.36
607.248	51.46
607.583	51.55
607.919	51.64
608.255	51.61
608.591	51.7
608.926	51.79
609.262	51.77
609.597	51.76
609.933	51.74
610.268	51.84
610.604	51.87
610.939	51.94
611.275	52.03
611.61	52.02
611.945	52.01
612.281	52.05
612.616	52.09
612.951	52.2
613.286	52.19
613.621	52.25
613.956	52.27
614.291	52.2
614.626	52.24
614.961	52.27
615.296	52.34
615.631	52.35
615.966	52.36
616.3	52.4
616.635	52.38
616.97	52.42
617.304	52.39
617.639	52.38
617.973	52.37
618.308	52.34
618.642	52.36
618.977	52.33
619.311	52.34
619.646	52.32
619.98	52.27
620.314	52.3
620.648	52.31
620.983	52.44
621.317	52.58
621.651	52.55
621.985	52.62
622.319	52.55
622.653	52.59
622.987	52.68
623.321	52.74
623.655	52.82
623.988	52.8
624.322	52.81
624.656	52.91
624.99	52.96
625.323	53
625.657	52.97
625.99	53.01
626.324	53.09
626.657	53.16
626.991	53.17
627.324	53.18
627.658	53.21
627.991	53.18
628.324	53.19
628.657	53.29
628.991	53.23
629.324	53.4
629.657	53.44
629.99	53.49
630.323	53.56
630.656	53.59
630.989	53.72
631.322	53.85
631.655	53.89
631.987	53.85
632.32	53.82
632.653	53.92
632.986	54
633.318	53.98
633.651	54
633.984	54.04
634.316	54
634.649	53.98
634.981	53.91
635.313	53.82
635.646	53.76
635.978	53.82
636.31	53.72
636.643	53.67
636.975	53.56
637.307	53.48
637.639	53.51
637.971	53.4
638.303	53.38
638.635	53.35
638.967	53.37
639.299	53.47
639.631	53.41
639.963	53.45
640.295	53.44
640.626	53.5
640.958	53.49
641.29	53.58
641.621	53.66
641.953	53.67
642.285	53.82
642.616	53.93
642.948	53.96
643.279	53.97
643.61	53.99
643.942	53.96
644.273	54
644.604	53.99
644.936	54.09
645.267	54.02
645.598	54.02
645.929	54
646.26	53.95
646.591	54.03
646.922	53.96
647.253	54.01
647.584	53.91
647.915	53.91
648.245	53.9
648.576	53.84
648.907	53.93
649.238	53.89
649.568	53.82
649.899	53.84
650.229	53.8
650.56	53.96
650.89	53.99
651.221	53.94
651.551	54
651.882	54
652.212	54.05
652.542	54.17
652.872	54.28
653.203	54.17
653.533	54.18
653.863	54.24
654.193	54.24
654.523	54.35
654.853	54.4
655.183	54.32
655.513	54.36
655.843	54.32
656.172	54.37
656.502	54.47
656.832	54.55
657.162	54.65
657.491	54.43
657.821	54.66
658.15	54.7
658.48	54.69
658.809	54.6
659.139	54.6
659.468	54.43
659.798	54.4
660.127	54.66
660.456	54.69
660.785	54.68
661.115	54.75
661.444	54.72
661.773	54.71
662.102	54.8
662.431	54.81
662.76	54.73
663.089	54.64
663.418	54.52
663.747	54.41
664.076	54.44
664.404	54.54
664.733	54.38
665.062	54.37
665.39	54.28
665.719	54.36
666.048	54.39
666.376	54.62
666.705	54.64
