Data from BU26845_Reflection_00014.txt Node
Date: Mon Nov 18 16:28:19 EST 2019
User: vgr7
Spectrometer: USB2G7710
Scans to average: 3
Trigger mode: 4
Integration Time (sec): 2.000000E-2
Electric dark correction enabled: true
Boxcar width: 10
XAxis mode: Wavelengths
Number of Pixels in Spectrum: 2048
>>>>>Begin Spectral Data<<<<<
177.721	25.84
178.105	69.04
178.488	79.03
178.871	140.89
179.254	57.68
179.636	11.5
180.019	1.92
180.402	180
180.785	932.17
181.168	-1478.13
181.55	-511.94
181.933	135.22
182.316	227.27
182.698	311.32
183.081	270.51
183.463	422.09
183.846	336.87
184.228	299.11
184.611	163.9
184.993	467.61
185.376	436.34
185.758	-323.73
186.14	-285.61
186.522	-195.21
186.904	-132.51
187.287	-126.21
187.669	-83.21
188.051	-78.54
188.433	-65.38
188.815	-50.92
189.197	-56.32
189.579	-48.44
189.961	-36.23
190.342	-30.54
190.724	-24.72
191.106	-31.37
191.488	-34.78
191.869	-34.65
192.251	-39.51
192.633	-39.34
193.014	-49.45
193.396	-51.92
193.777	-60.01
194.159	-45.13
194.54	-32.65
194.922	-18.49
195.303	-17.5
195.684	-13.08
196.065	-5.4
196.447	0.98
196.828	-0.35
197.209	-0.34
197.59	-6.1
197.971	-3.89
198.352	-8.63
198.733	-5.98
199.114	11.91
199.495	23.71
199.876	32.44
200.257	31.87
200.638	27.63
201.018	24.04
201.399	44.52
201.78	39.7
202.16	35.03
202.541	8.84
202.922	-25.72
203.302	-27.35
203.683	-45.17
204.063	-53.16
204.444	-56.36
204.824	-67.61
205.204	-53.32
205.585	-54.85
205.965	-65.53
206.345	-77.06
206.725	-63.25
207.106	-83.18
207.486	-79.02
207.866	-55.81
208.246	-51.96
208.626	-61.11
209.006	-42.19
209.386	-49.58
209.766	-63.65
210.145	-55.12
210.525	-30.94
210.905	-9.65
211.285	-3.43
211.664	6.02
212.044	-5.36
212.424	-10.35
212.803	-2.3
213.183	7.58
213.562	16.28
213.942	21.85
214.321	30.53
214.701	27.02
215.08	24.98
215.459	20.78
215.838	9.18
216.218	3.87
216.597	17.62
216.976	7.35
217.355	-6.66
217.734	2.7
218.113	7.73
218.492	10.01
218.871	11.45
219.25	7.01
219.629	8.6
220.008	14.56
220.387	20.35
220.766	13.53
221.144	-1.65
221.523	-16.46
221.902	-22.62
222.28	-30.8
222.659	-22.31
223.037	-20.2
223.416	-17.19
223.794	-11.16
224.173	-0.24
224.551	4.02
224.929	8.63
225.308	19.93
225.686	17.45
226.064	11.97
226.442	7.08
226.821	8.18
227.199	7.99
227.577	4.82
227.955	6.82
228.333	3.31
228.711	8.22
229.089	13.35
229.467	11.46
229.845	8.13
230.222	10.08
230.6	6.06
230.978	4.21
231.356	4.63
231.733	5.07
232.111	4.17
232.488	3.14
232.866	2.42
233.243	2.31
233.621	-0.02
233.998	0.69
234.376	0.35
234.753	0.29
235.13	0.79
235.508	1.83
235.885	-0.38
236.262	-0.73
236.639	-1.72
237.016	-2.16
237.393	-0.91
237.77	-0.19
238.147	-1
238.524	0.12
238.901	0.9
239.278	1.03
239.655	1.34
240.032	1.52
240.409	1.16
240.785	1.57
241.162	1.37
241.539	1.84
241.915	2.02
242.292	2.39
242.668	2.06
243.045	2.45
243.421	2.56
243.798	2.58
244.174	2.66
244.551	2.6
244.927	2.58
245.303	2.58
245.679	2.81
246.056	2.85
246.432	2.93
246.808	2.91
247.184	2.84
247.56	2.71
247.936	2.73
248.312	2.83
248.688	2.66
249.064	2.54
249.44	2.58
249.815	2.55
250.191	2.59
250.567	2.79
250.943	2.52
251.318	2.36
251.694	2.38
252.069	2.26
252.445	2.53
252.82	2.61
253.196	2.74
253.571	2.52
253.947	2.8
254.322	2.85
254.697	2.48
255.073	2.47
255.448	2.34
255.823	2.12
256.198	2.05
256.573	2.13
256.948	2.38
257.323	2.44
257.698	2.55
258.073	2.61
258.448	2.59
258.823	2.59
259.198	2.47
259.573	2.52
259.948	2.55
260.322	2.48
260.697	2.34
261.072	2.11
261.446	2.25
261.821	2.22
262.195	2.33
262.57	2.41
262.944	2.43
263.319	2.52
263.693	2.75
264.067	2.85
264.442	2.91
264.816	2.73
265.19	2.56
265.564	2.36
265.938	2.07
266.313	1.96
266.687	2.05
267.061	2.32
267.435	2.45
267.809	2.47
268.183	2.5
268.556	2.57
268.93	2.87
269.304	2.76
269.678	2.53
270.051	2.35
270.425	2.57
270.799	2.52
271.172	2.65
271.546	2.42
271.919	2.42
272.293	2.45
272.666	2.62
273.04	2.71
273.413	2.8
273.787	2.9
274.16	2.87
274.533	2.9
274.906	2.79
275.279	2.74
275.653	2.67
276.026	2.53
276.399	2.55
276.772	2.42
277.145	2.21
277.518	2.25
277.891	2.27
278.263	2.03
278.636	2.08
279.009	1.95
279.382	2.09
279.755	2.12
280.127	2.05
280.5	2.08
280.872	2.27
281.245	2.25
281.617	2.44
281.99	2.7
282.362	2.72
282.735	2.56
283.107	2.65
283.479	2.8
283.852	2.81
284.224	2.72
284.596	2.66
284.968	2.86
285.34	3.04
285.713	3.04
286.085	3.18
286.457	3.19
286.829	3.13
287.201	3.09
287.572	3.04
287.944	2.92
288.316	2.81
288.688	2.67
289.06	2.63
289.431	2.55
289.803	2.54
290.175	2.48
290.546	2.69
290.918	2.71
291.289	2.72
291.661	2.81
292.032	2.92
292.403	3.08
292.775	3.21
293.146	3.02
293.517	3.08
293.889	3.05
294.26	3.05
294.631	3.06
295.002	3.05
295.373	3.09
295.744	3.17
296.115	3.18
296.486	3.1
296.857	3.15
297.228	3.11
297.599	2.87
297.97	2.87
298.34	2.93
298.711	2.85
299.082	2.83
299.452	2.83
299.823	2.79
300.194	2.74
300.564	2.72
300.935	2.87
301.305	2.97
301.676	3.01
302.046	3.12
302.416	3.27
302.787	3.38
303.157	3.3
303.527	3.49
303.897	3.58
304.267	3.96
304.637	3.97
305.008	4.03
305.378	4.25
305.748	4.32
306.117	4.24
306.487	4.33
306.857	4.37
307.227	4.43
307.597	4.45
307.967	4.51
308.336	4.46
308.706	4.4
309.076	4.26
309.445	4.26
309.815	4.22
310.184	4.19
310.554	4.13
310.923	4.14
311.293	4.09
311.662	4.07
312.031	3.96
312.401	3.99
312.77	4.08
313.139	4.07
313.508	4.09
313.877	4.17
314.246	4.13
314.616	4.2
314.985	4.1
315.353	4.08
315.722	4
316.091	4.03
316.46	4.03
316.829	4.14
317.198	4.23
317.567	4.25
317.935	4.27
318.304	4.56
318.672	4.63
319.041	4.61
319.41	4.74
319.778	4.68
320.147	4.64
320.515	4.6
320.883	4.61
321.252	4.74
321.62	4.61
321.988	4.72
322.357	4.87
322.725	4.95
323.093	5.03
323.461	5.26
323.829	5.28
324.197	5.42
324.565	5.47
324.933	5.46
325.301	5.47
325.669	5.4
326.037	5.3
326.405	5.33
326.772	5.44
327.14	5.52
327.508	5.63
327.875	5.65
328.243	5.64
328.61	5.71
328.978	5.66
329.346	5.88
329.713	5.74
330.08	5.73
330.448	5.73
330.815	5.79
331.182	5.84
331.55	5.88
331.917	5.9
332.284	6.03
332.651	6.06
333.018	6.12
333.385	6.29
333.752	6.27
334.119	6.32
334.486	6.21
334.853	6.17
335.22	6.09
335.587	6.32
335.954	6.35
336.32	6.31
336.687	6.34
337.054	6.35
337.42	6.54
337.787	6.53
338.153	6.55
338.52	6.65
338.886	6.47
339.253	6.38
339.619	6.43
339.986	6.31
340.352	6.31
340.718	6.39
341.084	6.41
341.451	6.53
341.817	6.64
342.183	6.76
342.549	6.8
342.915	6.95
343.281	6.92
343.647	6.84
344.013	6.92
344.379	6.92
344.745	6.93
345.11	6.83
345.476	6.76
345.842	6.81
346.208	6.76
346.573	6.89
346.939	7.03
347.304	6.99
347.67	7.01
348.035	7.08
348.401	7
348.766	6.96
349.132	6.98
349.497	7
349.862	7.07
350.228	7.02
350.593	6.9
350.958	6.8
351.323	6.92
351.688	6.89
352.053	6.84
352.418	6.86
352.783	6.91
353.148	6.91
353.513	6.83
353.878	6.77
354.243	6.7
354.608	6.57
354.972	6.63
355.337	6.69
355.702	6.65
356.066	6.72
356.431	6.65
356.795	6.64
357.16	6.53
357.524	6.39
357.889	6.38
358.253	6.45
358.618	6.48
358.982	6.49
359.346	6.44
359.71	6.39
360.075	6.36
360.439	6.34
360.803	6.36
361.167	6.42
361.531	6.44
361.895	6.43
362.259	6.49
362.623	6.42
362.987	6.38
363.351	6.34
363.714	6.26
364.078	6.28
364.442	6.16
364.806	6.2
365.169	6.24
365.533	6.21
365.896	6.17
366.26	6.14
366.623	6.1
366.987	6.12
367.35	6.14
367.714	6.14
368.077	6.14
368.44	6.13
368.803	6.03
369.167	5.94
369.53	5.89
369.893	5.87
370.256	5.86
370.619	5.8
370.982	5.76
371.345	5.73
371.708	5.7
372.071	5.74
372.434	5.63
372.797	5.58
373.159	5.5
373.522	5.45
373.885	5.48
374.247	5.4
374.61	5.37
374.973	5.31
375.335	5.26
375.698	5.22
376.06	5.16
376.423	5.23
376.785	5.25
377.147	5.25
377.51	5.19
377.872	5.15
378.234	5.16
378.596	5.15
378.958	5.07
379.321	5.01
379.683	4.95
380.045	4.96
380.407	4.93
380.769	4.97
381.13	4.92
381.492	4.83
381.854	4.81
382.216	4.77
382.578	4.77
382.939	4.72
383.301	4.68
383.663	4.62
384.024	4.53
384.386	4.51
384.747	4.48
385.109	4.48
385.47	4.49
385.832	4.46
386.193	4.41
386.554	4.37
386.916	4.36
387.277	4.39
387.638	4.39
387.999	4.27
388.36	4.23
388.721	4.23
389.082	4.22
389.443	4.19
389.804	4.18
390.165	4.12
390.526	4.08
390.887	4.08
391.248	4.11
391.609	4.09
391.969	4.06
392.33	4.03
392.691	3.99
393.051	3.93
393.412	3.89
393.772	3.89
394.133	3.92
394.493	3.93
394.854	3.85
395.214	3.82
395.574	3.89
395.935	3.87
396.295	3.82
396.655	3.79
397.015	3.78
397.376	3.73
397.736	3.68
398.096	3.7
398.456	3.67
398.816	3.62
399.176	3.58
399.535	3.52
399.895	3.52
400.255	3.53
400.615	3.51
400.975	3.5
401.334	3.47
401.694	3.45
402.054	3.4
402.413	3.39
402.773	3.36
403.132	3.33
403.492	3.32
403.851	3.32
404.211	3.3
404.57	3.24
404.929	3.25
405.288	3.26
405.648	3.23
406.007	3.19
406.366	3.2
406.725	3.23
407.084	3.26
407.443	3.22
407.802	3.18
408.161	3.14
408.52	3.12
408.879	3.12
409.238	3.09
409.596	3.12
409.955	3.09
410.314	3.09
410.673	3.06
411.031	3.05
411.39	3.06
411.748	3.06
412.107	3.11
412.465	3.1
412.824	3.08
413.182	3.07
413.54	3.06
413.899	3.03
414.257	2.99
414.615	2.96
414.974	2.99
415.332	3
415.69	3.01
416.048	2.99
416.406	2.97
416.764	2.95
417.122	2.93
417.48	2.94
417.838	2.93
418.195	2.93
418.553	2.92
418.911	2.9
419.269	2.89
419.626	2.88
419.984	2.88
420.342	2.87
420.699	2.87
421.057	2.87
421.414	2.86
421.772	2.85
422.129	2.86
422.486	2.85
422.844	2.83
423.201	2.82
423.558	2.82
423.915	2.84
424.273	2.84
424.63	2.84
424.987	2.82
425.344	2.81
425.701	2.81
426.058	2.81
426.415	2.81
426.772	2.8
427.128	2.78
427.485	2.78
427.842	2.77
428.199	2.79
428.555	2.79
428.912	2.81
429.269	2.81
429.625	2.78
429.982	2.77
430.338	2.76
430.695	2.78
431.051	2.77
431.407	2.74
431.764	2.74
432.12	2.74
432.476	2.73
432.832	2.73
433.189	2.72
433.545	2.72
433.901	2.7
434.257	2.7
434.613	2.72
434.969	2.72
435.325	2.75
435.681	2.73
436.036	2.72
436.392	2.73
436.748	2.73
437.104	2.73
437.459	2.73
437.815	2.75
438.171	2.74
438.526	2.74
438.882	2.75
439.237	2.73
439.593	2.75
439.948	2.76
440.304	2.76
440.659	2.76
441.014	2.77
441.369	2.79
441.725	2.79
442.08	2.77
442.435	2.78
442.79	2.76
443.145	2.77
443.5	2.77
443.855	2.75
444.21	2.74
444.565	2.74
444.92	2.74
445.275	2.72
445.629	2.72
445.984	2.72
446.339	2.71
446.693	2.7
447.048	2.68
447.403	2.67
447.757	2.66
448.112	2.65
448.466	2.64
448.82	2.63
449.175	2.62
449.529	2.63
449.883	2.61
450.238	2.6
450.592	2.61
450.946	2.6
451.3	2.6
451.654	2.61
452.008	2.61
452.362	2.6
452.716	2.61
453.07	2.6
453.424	2.62
453.778	2.61
454.132	2.62
454.486	2.62
454.839	2.64
455.193	2.65
455.547	2.65
455.9	2.68
456.254	2.69
456.607	2.69
456.961	2.68
457.314	2.69
457.668	2.7
458.021	2.68
458.375	2.67
458.728	2.67
459.081	2.69
459.434	2.69
459.787	2.69
460.141	2.7
460.494	2.72
460.847	2.71
461.2	2.71
461.553	2.72
461.906	2.74
462.259	2.75
462.611	2.77
462.964	2.78
463.317	2.77
463.67	2.77
464.022	2.77
464.375	2.77
464.728	2.79
465.08	2.8
465.433	2.81
465.785	2.85
466.138	2.86
466.49	2.86
466.843	2.86
467.195	2.89
467.547	2.89
467.899	2.89
468.252	2.89
468.604	2.9
468.956	2.89
469.308	2.9
469.66	2.88
470.012	2.88
470.364	2.89
470.716	2.89
471.068	2.9
471.42	2.91
471.772	2.93
472.123	2.96
472.475	2.98
472.827	2.98
473.178	2.98
473.53	2.97
473.882	2.98
474.233	2.99
474.585	2.98
474.936	2.97
475.288	2.97
475.639	3.01
475.99	2.99
476.342	3
476.693	3
477.044	3.01
477.395	3.01
477.746	2.98
478.097	2.97
478.448	2.96
478.8	2.96
479.15	2.92
479.501	2.9
479.852	2.88
480.203	2.86
480.554	2.87
480.905	2.86
481.255	2.84
481.606	2.84
481.957	2.83
482.307	2.82
482.658	2.82
483.009	2.81
483.359	2.82
483.709	2.83
484.06	2.83
484.41	2.83
484.761	2.83
485.111	2.84
485.461	2.85
485.811	2.85
486.162	2.85
486.512	2.87
486.862	2.87
487.212	2.87
487.562	2.88
487.912	2.88
488.262	2.89
488.612	2.9
488.961	2.91
489.311	2.92
489.661	2.94
490.011	2.94
490.36	2.95
490.71	2.96
491.06	2.96
491.409	2.98
491.759	2.98
492.108	2.98
492.458	2.99
492.807	3
493.157	3.03
493.506	3.04
493.855	3.05
494.204	3.07
494.554	3.09
494.903	3.1
495.252	3.14
495.601	3.18
495.95	3.22
496.299	3.25
496.648	3.29
496.997	3.33
497.346	3.37
497.695	3.41
498.043	3.45
498.392	3.49
498.741	3.53
499.09	3.58
499.438	3.64
499.787	3.7
500.135	3.77
500.484	3.83
500.832	3.89
501.181	3.95
501.529	4.01
501.878	4.09
502.226	4.16
502.574	4.22
502.923	4.3
503.271	4.36
503.619	4.46
503.967	4.54
504.315	4.62
504.663	4.71
505.011	4.83
505.359	4.92
505.707	5.06
506.055	5.17
506.403	5.29
506.751	5.4
507.098	5.52
507.446	5.65
507.794	5.75
508.141	5.89
508.489	6.03
508.837	6.19
509.184	6.32
509.531	6.49
509.879	6.65
510.226	6.81
510.574	6.95
510.921	7.13
511.268	7.29
511.616	7.47
511.963	7.66
512.31	7.83
512.657	8.05
513.004	8.23
513.351	8.45
513.698	8.69
514.045	8.93
514.392	9.16
514.739	9.39
515.086	9.66
515.432	9.92
515.779	10.17
516.126	10.42
516.473	10.69
516.819	10.92
517.166	11.16
517.512	11.38
517.859	11.63
518.205	11.86
518.552	12.09
518.898	12.31
519.245	12.56
519.591	12.78
519.937	12.99
520.283	13.24
520.629	13.49
520.976	13.74
521.322	14.02
521.668	14.32
522.014	14.6
522.36	14.93
522.706	15.21
523.052	15.53
523.398	15.83
523.743	16.16
524.089	16.47
524.435	16.76
524.781	17.04
525.126	17.3
525.472	17.53
525.817	17.78
526.163	18.01
526.509	18.18
526.854	18.37
527.199	18.54
527.545	18.72
527.89	18.89
528.235	19.03
528.581	19.19
528.926	19.33
529.271	19.49
529.616	19.64
529.961	19.79
530.306	19.95
530.651	20.12
530.996	20.3
531.341	20.48
531.686	20.67
532.031	20.86
532.376	21.05
532.721	21.23
533.065	21.41
533.41	21.6
533.755	21.8
534.099	22
534.444	22.21
534.788	22.4
535.133	22.57
535.477	22.78
535.822	22.99
536.166	23.23
536.51	23.46
536.855	23.69
537.199	23.92
537.543	24.17
537.887	24.4
538.231	24.61
538.576	24.86
538.92	25.1
539.264	25.32
539.608	25.54
539.951	25.75
540.295	25.93
540.639	26.1
540.983	26.27
541.327	26.41
541.671	26.55
542.014	26.68
542.358	26.86
542.701	27.02
543.045	27.17
543.389	27.27
543.732	27.4
544.075	27.52
544.419	27.68
544.762	27.85
545.105	28.01
545.449	28.16
545.792	28.29
546.135	28.47
546.478	28.65
546.821	28.82
547.165	29.02
547.508	29.19
547.851	29.37
548.194	29.52
548.536	29.72
548.879	29.94
549.222	30.12
549.565	30.28
549.908	30.41
550.25	30.61
550.593	30.84
550.936	31.01
551.278	31.18
551.621	31.33
551.963	31.46
552.306	31.63
552.648	31.82
552.991	32.01
553.333	32.14
553.675	32.3
554.017	32.41
554.36	32.51
554.702	32.65
555.044	32.81
555.386	32.94
555.728	33.14
556.07	33.26
556.412	33.43
556.754	33.54
557.096	33.65
557.438	33.68
557.78	33.75
558.121	33.93
558.463	34.08
558.805	34.22
559.147	34.31
559.488	34.38
559.83	34.46
560.171	34.54
560.513	34.64
560.854	34.7
561.196	34.8
561.537	34.86
561.878	34.94
562.22	35.03
562.561	35.13
562.902	35.19
563.243	35.25
563.584	35.33
563.925	35.43
564.266	35.5
564.607	35.63
564.948	35.72
565.289	35.78
565.63	35.85
565.971	35.89
566.312	35.98
566.653	36.09
566.993	36.11
567.334	36.17
567.675	36.26
568.015	36.3
568.356	36.38
568.696	36.44
569.037	36.52
569.377	36.58
569.718	36.59
570.058	36.65
570.398	36.71
570.739	36.78
571.079	36.86
571.419	36.95
571.759	36.99
572.099	37.09
572.439	37.15
572.779	37.24
573.119	37.3
573.459	37.38
573.799	37.48
574.139	37.61
574.479	37.71
574.819	37.76
575.158	37.82
575.498	37.84
575.838	37.97
576.177	38.02
576.517	38.13
576.856	38.25
577.196	38.32
577.535	38.41
577.875	38.46
578.214	38.54
578.553	38.64
578.893	38.74
579.232	38.76
579.571	38.8
579.91	38.84
580.25	38.92
580.589	39
580.928	39.01
581.267	39.07
581.606	39.16
581.945	39.18
582.283	39.29
582.622	39.37
582.961	39.45
583.3	39.55
583.639	39.58
583.977	39.68
584.316	39.76
584.654	39.82
584.993	39.91
585.332	39.87
585.67	39.97
586.008	39.97
586.347	39.96
586.685	40.06
587.024	40.15
587.362	40.21
587.7	40.23
588.038	40.27
588.376	40.29
588.715	40.26
589.053	40.29
589.391	40.27
589.729	40.33
590.067	40.33
590.404	40.31
590.742	40.33
591.08	40.36
591.418	40.4
591.756	40.39
592.093	40.39
592.431	40.47
592.769	40.41
593.106	40.47
593.444	40.64
593.781	40.65
594.119	40.64
594.456	40.66
594.793	40.64
595.131	40.69
595.468	40.73
595.805	40.78
596.143	40.88
596.48	40.92
596.817	40.94
597.154	40.97
597.491	41.05
597.828	41.04
598.165	41.04
598.502	41.04
598.839	41.09
599.176	41.11
599.512	41.15
599.849	41.21
600.186	41.24
600.523	41.24
600.859	41.25
601.196	41.28
601.532	41.31
601.869	41.36
602.205	41.38
602.542	41.39
602.878	41.41
603.215	41.39
603.551	41.38
603.887	41.43
604.223	41.47
604.56	41.46
604.896	41.53
605.232	41.6
605.568	41.6
605.904	41.63
606.24	41.66
606.576	41.72
606.912	41.69
607.248	41.68
607.583	41.69
607.919	41.76
608.255	41.79
608.591	41.82
608.926	41.82
609.262	41.83
609.597	41.89
609.933	41.96
610.268	42.01
610.604	42.09
610.939	42.1
611.275	42.05
611.61	42.05
611.945	42.06
612.281	42.05
612.616	42.11
612.951	42.15
613.286	42.16
613.621	42.12
613.956	42.25
614.291	42.37
614.626	42.45
614.961	42.46
615.296	42.52
615.631	42.62
615.966	42.66
616.3	42.74
616.635	42.76
616.97	42.74
617.304	42.78
617.639	42.81
617.973	42.83
618.308	42.92
618.642	43.01
618.977	43.02
619.311	42.98
619.646	42.97
619.98	43.01
620.314	43.08
620.648	43.14
620.983	43.17
621.317	43.07
621.651	42.96
621.985	42.95
622.319	42.94
622.653	42.84
622.987	42.9
623.321	42.84
623.655	42.9
623.988	42.85
624.322	42.89
624.656	42.92
624.99	42.94
625.323	42.93
625.657	42.87
625.99	42.89
626.324	42.94
626.657	42.96
626.991	42.97
627.324	43
627.658	43.02
627.991	43.03
628.324	43.11
628.657	43.11
628.991	43.14
629.324	43.12
629.657	43.17
629.99	43.17
630.323	43.2
630.656	43.12
630.989	43.24
631.322	43.22
631.655	43.22
631.987	43.18
632.32	43.11
632.653	43.15
632.986	43.1
633.318	43.02
633.651	43.08
633.984	43.05
634.316	43.11
634.649	43.12
634.981	43.15
635.313	43.12
635.646	43.11
635.978	43.13
636.31	43.2
636.643	43.27
636.975	43.3
637.307	43.31
637.639	43.37
637.971	43.31
638.303	43.33
638.635	43.34
638.967	43.38
639.299	43.51
639.631	43.58
639.963	43.61
640.295	43.77
640.626	43.73
640.958	43.76
641.29	43.73
641.621	43.62
641.953	43.53
642.285	43.63
642.616	43.69
642.948	43.77
643.279	43.78
643.61	43.72
643.942	43.69
644.273	43.72
644.604	43.71
644.936	43.77
645.267	43.76
645.598	43.77
645.929	43.82
646.26	43.69
646.591	43.65
646.922	43.71
647.253	43.57
647.584	43.58
647.915	43.53
648.245	43.49
648.576	43.65
648.907	43.67
649.238	43.74
649.568	43.84
649.899	43.87
650.229	43.86
650.56	43.9
650.89	43.9
651.221	43.99
651.551	43.94
651.882	43.95
652.212	43.91
652.542	43.87
652.872	43.81
653.203	43.87
653.533	43.93
653.863	43.82
654.193	43.95
654.523	43.87
654.853	43.84
655.183	43.85
655.513	43.78
655.843	43.8
656.172	43.71
656.502	43.64
656.832	43.59
657.162	43.54
657.491	43.54
657.821	43.56
658.15	43.5
658.48	43.55
658.809	43.57
659.139	43.61
659.468	43.66
659.798	43.63
660.127	43.61
660.456	43.65
660.785	43.77
661.115	43.76
661.444	43.96
661.773	44.02
662.102	43.98
662.431	44.05
662.76	44.02
663.089	43.96
663.418	43.9
663.747	43.95
664.076	43.95
664.404	43.92
664.733	43.9
665.062	43.92
665.39	43.9
665.719	43.79
666.048	43.82
666.376	43.81
666.705	43.85
667.033	43.93
667.362	43.99
667.69	43.97
