Data from BU26847_Reflection_00005.txt Node
Date: Mon Nov 18 16:40:50 EST 2019
User: vgr7
Spectrometer: USB2G7710
Scans to average: 3
Trigger mode: 4
Integration Time (sec): 2.000000E-2
Electric dark correction enabled: true
Boxcar width: 10
XAxis mode: Wavelengths
Number of Pixels in Spectrum: 2048
>>>>>Begin Spectral Data<<<<<
177.721	107.93
178.105	297.74
178.488	5472.55
178.871	293.69
179.254	-148.06
179.636	68.04
180.019	-31.36
180.402	173.68
180.785	327.64
181.168	16.67
181.55	-324.24
181.933	112.12
182.316	140.89
182.698	184.62
183.081	76.32
183.463	125.28
183.846	39.04
184.228	138
184.611	415.15
184.993	5877.78
185.376	-46.57
185.758	322.22
186.14	317.05
186.522	426.24
186.904	-617.95
187.287	-1054.23
187.669	-101.69
188.051	-217.22
188.433	-136.38
188.815	-88.49
189.197	-111.55
189.579	-111.21
189.961	-103.35
190.342	-93.32
190.724	-49.31
191.106	-40.83
191.488	-81.27
191.869	-80.83
192.251	-97.86
192.633	-118.73
193.014	-136.83
193.396	-139.25
193.777	-138.03
194.159	-138.16
194.54	-118.51
194.922	-82.51
195.303	-98.3
195.684	-151.76
196.065	-108.4
196.447	-95.66
196.828	-122.22
197.209	-118.5
197.59	-151.37
197.971	-238.8
198.352	-91.71
198.733	-114.53
199.114	-156.41
199.495	-102.9
199.876	-101.38
200.257	-63.41
200.638	-50.85
201.018	-56.41
201.399	-66.89
201.78	-67.36
202.16	-83.83
202.541	-140.87
202.922	-1355.78
203.302	-2083.91
203.683	401.49
204.063	261.93
204.444	289.8
204.824	331.99
205.204	408.15
205.585	346.2
205.965	358.5
206.345	262.81
206.725	226.46
207.106	309.21
207.486	210.92
207.866	224.92
208.246	380.81
208.626	844.38
209.006	429.94
209.386	325.64
209.766	516.21
210.145	413.3
210.525	598.5
210.905	-418.05
211.285	-372.07
211.664	-143.69
212.044	-124.9
212.424	-132.52
212.803	-117.58
213.183	-99.08
213.562	-80.53
213.942	-45.27
214.321	-45.01
214.701	-44.7
215.08	-10.14
215.459	-14.94
215.838	-20.63
216.218	-14.09
216.597	-8.15
216.976	-30.16
217.355	-39.07
217.734	-67.29
218.113	-70.23
218.492	-73.44
218.871	-72.97
219.25	-53.8
219.629	-62.96
220.008	-74.44
220.387	-75.92
220.766	-72.62
221.144	-78.04
221.523	-89.88
221.902	-105.17
222.28	-117.15
222.659	-95.44
223.037	-85.11
223.416	-99.3
223.794	-82.14
224.173	-78.44
224.551	-50.16
224.929	-38.34
225.308	-27.1
225.686	-20.86
226.064	-14.27
226.442	-16.24
226.821	-10.69
227.199	-9.61
227.577	-11.23
227.955	-10.49
228.333	-11.13
228.711	-9.76
229.089	-6.92
229.467	-5.02
229.845	-2.45
230.222	-1.8
230.6	-1.89
230.978	-4.08
231.356	0.29
231.733	1.57
232.111	3.09
232.488	4.45
232.866	4.52
233.243	6.27
233.621	4.6
233.998	6.28
234.376	6.6
234.753	5.17
235.13	4.69
235.508	3.95
235.885	5.63
236.262	4.71
236.639	4.93
237.016	5.2
237.393	6.11
237.77	5.95
238.147	6.66
238.524	6.54
238.901	7.35
239.278	6.99
239.655	5.82
240.032	5.44
240.409	4.13
240.785	4.31
241.162	3.96
241.539	4.86
241.915	4.74
242.292	4.61
242.668	5.36
243.045	5.03
243.421	5.21
243.798	5.04
244.174	5.28
244.551	5.23
244.927	5.19
245.303	5.11
245.679	5.18
246.056	4.97
246.432	4.9
246.808	4.87
247.184	4.57
247.56	4.73
247.936	4.62
248.312	4.75
248.688	4.65
249.064	4.26
249.44	4.07
249.815	4.07
250.191	4.57
250.567	4.2
250.943	4.17
251.318	4.13
251.694	4.15
252.069	4.32
252.445	4.32
252.82	4.24
253.196	4.12
253.571	3.83
253.947	3.99
254.322	4.43
254.697	4.23
255.073	4.14
255.448	4.17
255.823	4.24
256.198	4.27
256.573	4.44
256.948	4.58
257.323	4.64
257.698	4.62
258.073	4.34
258.448	4.3
258.823	4.26
259.198	4.3
259.573	4.16
259.948	4.11
260.322	4.06
260.697	4.18
261.072	4.13
261.446	4.36
261.821	4.06
262.195	3.88
262.57	3.87
262.944	3.91
263.319	3.81
263.693	3.77
264.067	3.8
264.442	3.75
264.816	3.82
265.19	3.78
265.564	3.64
265.938	3.54
266.313	3.69
266.687	3.97
267.061	4.3
267.435	4.44
267.809	4.35
268.183	4.49
268.556	4.11
268.93	4.19
269.304	4.27
269.678	4.51
270.051	4.53
270.425	4.39
270.799	4.41
271.172	4.58
271.546	4.7
271.919	4.66
272.293	4.76
272.666	4.82
273.04	4.81
273.413	4.9
273.787	4.86
274.16	4.7
274.533	4.69
274.906	4.51
275.279	4.62
275.653	4.6
276.026	4.36
276.399	4.49
276.772	4.62
277.145	4.38
277.518	4.3
277.891	4.19
278.263	4.37
278.636	4.35
279.009	4.16
279.382	4.19
279.755	4.11
280.127	3.97
280.5	3.94
280.872	3.94
281.245	3.74
281.617	3.83
281.99	3.92
282.362	3.77
282.735	3.68
283.107	3.54
283.479	3.59
283.852	3.6
284.224	3.65
284.596	3.44
284.968	3.61
285.34	3.84
285.713	3.87
286.085	3.95
286.457	4.08
286.829	4.16
287.201	4.12
287.572	4.11
287.944	4.15
288.316	4.1
288.688	4.08
289.06	4.14
289.431	4.15
289.803	4.19
290.175	4.24
290.546	4.45
290.918	4.5
291.289	4.45
291.661	4.53
292.032	4.67
292.403	4.84
292.775	4.78
293.146	4.71
293.517	4.72
293.889	4.72
294.26	4.67
294.631	4.53
295.002	4.5
295.373	4.58
295.744	4.61
296.115	4.51
296.486	4.49
296.857	4.45
297.228	4.46
297.599	4.54
297.97	4.66
298.34	4.5
298.711	4.56
299.082	4.56
299.452	4.64
299.823	4.62
300.194	4.56
300.564	4.58
300.935	4.51
301.305	4.51
301.676	4.5
302.046	4.44
302.416	4.63
302.787	4.71
303.157	4.73
303.527	4.63
303.897	4.63
304.267	4.74
304.637	4.81
305.008	4.85
305.378	4.8
305.748	4.76
306.117	4.69
306.487	4.64
306.857	4.71
307.227	4.78
307.597	4.7
307.967	4.72
308.336	4.61
308.706	4.63
309.076	4.72
309.445	4.72
309.815	4.81
310.184	4.83
310.554	4.77
310.923	4.66
311.293	4.8
311.662	4.86
312.031	4.76
312.401	4.75
312.77	4.79
313.139	4.81
313.508	4.82
313.877	4.84
314.246	4.76
314.616	4.78
314.985	4.72
315.353	4.64
315.722	4.66
316.091	4.75
316.46	4.66
316.829	4.65
317.198	4.58
317.567	4.57
317.935	4.4
318.304	4.54
318.672	4.69
319.041	4.77
319.41	4.86
319.778	5
320.147	5.04
320.515	4.96
320.883	4.87
321.252	4.84
321.62	4.96
321.988	5.01
322.357	4.82
322.725	4.81
323.093	4.88
323.461	4.84
323.829	4.79
324.197	4.92
324.565	4.96
324.933	5.02
325.301	4.99
325.669	5.01
326.037	4.85
326.405	4.89
326.772	4.88
327.14	4.91
327.508	4.82
327.875	4.83
328.243	4.85
328.61	4.88
328.978	4.9
329.346	4.98
329.713	5.03
330.08	5.18
330.448	5.14
330.815	5
331.182	4.98
331.55	5.01
331.917	4.88
332.284	4.86
332.651	4.73
333.018	4.72
333.385	4.76
333.752	4.9
334.119	4.86
334.486	4.71
334.853	4.7
335.22	4.72
335.587	4.76
335.954	4.72
336.32	4.67
336.687	4.55
337.054	4.56
337.42	4.64
337.787	4.68
338.153	4.68
338.52	4.88
338.886	4.84
339.253	4.85
339.619	4.96
339.986	4.97
340.352	5.21
340.718	5.21
341.084	5.18
341.451	5.18
341.817	5.21
342.183	5.21
342.549	5.12
342.915	5.22
343.281	5.32
343.647	5.32
344.013	5.32
344.379	5.26
344.745	5.22
345.11	5.13
345.476	5.06
345.842	5
346.208	4.88
346.573	5.01
346.939	5.06
347.304	5.04
347.67	5.03
348.035	4.85
348.401	4.81
348.766	4.87
349.132	4.82
349.497	4.75
349.862	4.9
350.228	5.02
350.593	4.89
350.958	4.83
351.323	4.81
351.688	4.82
352.053	5
352.418	5.02
352.783	5.1
353.148	5.02
353.513	5.14
353.878	5.14
354.243	5.14
354.608	5.14
354.972	5.15
355.337	5.19
355.702	5.31
356.066	5.44
356.431	5.36
356.795	5.38
357.16	5.4
357.524	5.26
357.889	5.2
358.253	5.29
358.618	5.31
358.982	5.3
359.346	5.27
359.71	5.18
360.075	5.15
360.439	5.06
360.803	5.09
361.167	5.08
361.531	5.08
361.895	4.99
362.259	4.96
362.623	4.88
362.987	4.84
363.351	4.73
363.714	4.67
364.078	4.66
364.442	4.59
364.806	4.57
365.169	4.61
365.533	4.66
365.896	4.63
366.26	4.56
366.623	4.52
366.987	4.5
367.35	4.54
367.714	4.53
368.077	4.51
368.44	4.5
368.803	4.48
369.167	4.46
369.53	4.47
369.893	4.5
370.256	4.66
370.619	4.73
370.982	4.79
371.345	4.79
371.708	4.86
372.071	4.91
372.434	4.95
372.797	4.9
373.159	4.84
373.522	4.78
373.885	4.79
374.247	4.9
374.61	4.94
374.973	4.88
375.335	4.89
375.698	4.95
376.06	4.98
376.423	4.99
376.785	5.05
377.147	5.14
377.51	5.12
377.872	5.05
378.234	5
378.596	5
378.958	4.96
379.321	4.94
379.683	4.97
380.045	4.95
380.407	5.02
380.769	4.99
381.13	4.98
381.492	4.96
381.854	4.94
382.216	4.97
382.578	4.98
382.939	4.94
383.301	4.92
383.663	4.84
384.024	4.86
384.386	4.9
384.747	4.85
385.109	4.84
385.47	4.82
385.832	4.83
386.193	4.82
386.554	4.83
386.916	4.81
387.277	4.78
387.638	4.82
387.999	4.79
388.36	4.79
388.721	4.82
389.082	4.82
389.443	4.74
389.804	4.7
390.165	4.69
390.526	4.76
390.887	4.77
391.248	4.85
391.609	4.83
391.969	4.77
392.33	4.76
392.691	4.72
393.051	4.72
393.412	4.75
393.772	4.73
394.133	4.75
394.493	4.78
394.854	4.77
395.214	4.74
395.574	4.76
395.935	4.78
396.295	4.83
396.655	4.85
397.015	4.9
397.376	4.94
397.736	4.95
398.096	4.96
398.456	4.96
398.816	4.97
399.176	4.98
399.535	4.99
399.895	4.99
400.255	5
400.615	4.99
400.975	4.97
401.334	5.02
401.694	5.01
402.054	4.97
402.413	4.96
402.773	4.92
403.132	4.89
403.492	4.91
403.851	4.85
404.211	4.83
404.57	4.77
404.929	4.76
405.288	4.74
405.648	4.69
406.007	4.67
406.366	4.64
406.725	4.65
407.084	4.64
407.443	4.62
407.802	4.68
408.161	4.68
408.52	4.64
408.879	4.59
409.238	4.58
409.596	4.61
409.955	4.62
410.314	4.67
410.673	4.65
411.031	4.65
411.39	4.66
411.748	4.68
412.107	4.73
412.465	4.72
412.824	4.75
413.182	4.75
413.54	4.76
413.899	4.78
414.257	4.76
414.615	4.75
414.974	4.76
415.332	4.72
415.69	4.72
416.048	4.74
416.406	4.72
416.764	4.71
417.122	4.72
417.48	4.7
417.838	4.7
418.195	4.7
418.553	4.7
418.911	4.7
419.269	4.7
419.626	4.69
419.984	4.68
420.342	4.67
420.699	4.67
421.057	4.69
421.414	4.66
421.772	4.66
422.129	4.66
422.486	4.66
422.844	4.67
423.201	4.66
423.558	4.66
423.915	4.68
424.273	4.68
424.63	4.67
424.987	4.68
425.344	4.67
425.701	4.69
426.058	4.69
426.415	4.69
426.772	4.67
427.128	4.67
427.485	4.67
427.842	4.66
428.199	4.66
428.555	4.65
428.912	4.68
429.269	4.69
429.625	4.68
429.982	4.69
430.338	4.68
430.695	4.69
431.051	4.66
431.407	4.64
431.764	4.64
432.12	4.63
432.476	4.64
432.832	4.63
433.189	4.61
433.545	4.58
433.901	4.58
434.257	4.59
434.613	4.61
434.969	4.64
435.325	4.65
435.681	4.66
436.036	4.65
436.392	4.64
436.748	4.65
437.104	4.65
437.459	4.62
437.815	4.63
438.171	4.65
438.526	4.67
438.882	4.7
439.237	4.71
439.593	4.71
439.948	4.69
440.304	4.7
440.659	4.7
441.014	4.72
441.369	4.71
441.725	4.71
442.08	4.71
442.435	4.69
442.79	4.66
443.145	4.68
443.5	4.67
443.855	4.67
444.21	4.67
444.565	4.68
444.92	4.7
445.275	4.68
445.629	4.68
445.984	4.67
446.339	4.65
446.693	4.62
447.048	4.62
447.403	4.62
447.757	4.59
448.112	4.6
448.466	4.58
448.82	4.6
449.175	4.59
449.529	4.57
449.883	4.59
450.238	4.59
450.592	4.58
450.946	4.57
451.3	4.56
451.654	4.55
452.008	4.53
452.362	4.52
452.716	4.53
453.07	4.51
453.424	4.51
453.778	4.52
454.132	4.55
454.486	4.56
454.839	4.56
455.193	4.57
455.547	4.58
455.9	4.58
456.254	4.57
456.607	4.58
456.961	4.59
457.314	4.55
457.668	4.57
458.021	4.57
458.375	4.57
458.728	4.57
459.081	4.58
459.434	4.61
459.787	4.6
460.141	4.61
460.494	4.61
460.847	4.6
461.2	4.58
461.553	4.56
461.906	4.55
462.259	4.56
462.611	4.58
462.964	4.57
463.317	4.57
463.67	4.57
464.022	4.58
464.375	4.57
464.728	4.59
465.08	4.57
465.433	4.58
465.785	4.57
466.138	4.57
466.49	4.57
466.843	4.55
467.195	4.56
467.547	4.55
467.899	4.56
468.252	4.58
468.604	4.61
468.956	4.63
469.308	4.65
469.66	4.66
470.012	4.68
470.364	4.71
470.716	4.72
471.068	4.73
471.42	4.75
471.772	4.76
472.123	4.75
472.475	4.77
472.827	4.78
473.178	4.8
473.53	4.81
473.882	4.83
474.233	4.81
474.585	4.8
474.936	4.79
475.288	4.8
475.639	4.81
475.99	4.81
476.342	4.81
476.693	4.79
477.044	4.77
477.395	4.75
477.746	4.72
478.097	4.74
478.448	4.75
478.8	4.75
479.15	4.75
479.501	4.76
479.852	4.78
480.203	4.8
480.554	4.8
480.905	4.81
481.255	4.81
481.606	4.82
481.957	4.85
482.307	4.86
482.658	4.85
483.009	4.85
483.359	4.86
483.709	4.86
484.06	4.87
484.41	4.88
484.761	4.89
485.111	4.91
485.461	4.91
485.811	4.91
486.162	4.9
486.512	4.9
486.862	4.91
487.212	4.91
487.562	4.91
487.912	4.9
488.262	4.9
488.612	4.9
488.961	4.91
489.311	4.91
489.661	4.9
490.011	4.91
490.36	4.91
490.71	4.91
491.06	4.92
491.409	4.91
491.759	4.9
492.108	4.89
492.458	4.89
492.807	4.89
493.157	4.88
493.506	4.88
493.855	4.9
494.204	4.89
494.554	4.89
494.903	4.89
495.252	4.9
495.601	4.92
495.95	4.92
496.299	4.92
496.648	4.92
496.997	4.93
497.346	4.94
497.695	4.94
498.043	4.94
498.392	4.94
498.741	4.97
499.09	4.97
499.438	4.98
499.787	4.98
500.135	4.99
500.484	5.02
500.832	5.04
501.181	5.05
501.529	5.07
501.878	5.08
502.226	5.08
502.574	5.09
502.923	5.09
503.271	5.09
503.619	5.08
503.967	5.1
504.315	5.11
504.663	5.13
505.011	5.16
505.359	5.15
505.707	5.17
506.055	5.17
506.403	5.2
506.751	5.21
507.098	5.23
507.446	5.26
507.794	5.27
508.141	5.28
508.489	5.29
508.837	5.31
509.184	5.34
509.531	5.36
509.879	5.38
510.226	5.42
510.574	5.42
510.921	5.43
511.268	5.44
511.616	5.47
511.963	5.49
512.31	5.49
512.657	5.53
513.004	5.55
513.351	5.58
513.698	5.59
514.045	5.6
514.392	5.6
514.739	5.59
515.086	5.59
515.432	5.6
515.779	5.61
516.126	5.61
516.473	5.62
516.819	5.65
517.166	5.65
517.512	5.64
517.859	5.66
518.205	5.66
518.552	5.68
518.898	5.68
519.245	5.68
519.591	5.69
519.937	5.65
520.283	5.67
520.629	5.67
520.976	5.67
521.322	5.68
521.668	5.67
522.014	5.7
522.36	5.69
522.706	5.68
523.052	5.7
523.398	5.72
523.743	5.71
524.089	5.69
524.435	5.7
524.781	5.72
525.126	5.73
525.472	5.74
525.817	5.75
526.163	5.73
526.509	5.75
526.854	5.76
527.199	5.77
527.545	5.76
527.89	5.78
528.235	5.78
528.581	5.79
528.926	5.8
529.271	5.8
529.616	5.81
529.961	5.82
530.306	5.82
530.651	5.82
530.996	5.83
531.341	5.82
531.686	5.83
532.031	5.83
532.376	5.84
532.721	5.85
533.065	5.85
533.41	5.86
533.755	5.85
534.099	5.85
534.444	5.87
534.788	5.87
535.133	5.86
535.477	5.88
535.822	5.89
536.166	5.89
536.51	5.89
536.855	5.89
537.199	5.9
537.543	5.92
537.887	5.92
538.231	5.92
538.576	5.94
538.92	5.95
539.264	5.94
539.608	5.93
539.951	5.92
540.295	5.92
540.639	5.93
540.983	5.96
541.327	5.95
541.671	5.94
542.014	5.96
542.358	5.96
542.701	5.97
543.045	5.98
543.389	5.99
543.732	5.98
544.075	5.99
544.419	5.99
544.762	5.99
545.105	6
545.449	6
545.792	6.01
546.135	6.02
546.478	6.05
546.821	6.07
547.165	6.07
547.508	6.11
547.851	6.1
548.194	6.09
548.536	6.11
548.879	6.13
549.222	6.13
549.565	6.15
549.908	6.14
550.25	6.17
550.593	6.16
550.936	6.19
551.278	6.2
551.621	6.21
551.963	6.22
552.306	6.2
552.648	6.21
552.991	6.18
553.333	6.18
553.675	6.16
554.017	6.19
554.36	6.19
554.702	6.17
555.044	6.18
555.386	6.21
555.728	6.21
556.07	6.23
556.412	6.23
556.754	6.19
557.096	6.16
557.438	6.14
557.78	6.15
558.121	6.16
558.463	6.17
558.805	6.17
559.147	6.14
559.488	6.15
559.83	6.18
560.171	6.23
560.513	6.23
560.854	6.2
561.196	6.2
561.537	6.21
561.878	6.22
562.22	6.19
562.561	6.15
562.902	6.15
563.243	6.15
563.584	6.17
563.925	6.23
564.266	6.24
564.607	6.23
564.948	6.23
565.289	6.22
565.63	6.24
565.971	6.24
566.312	6.24
566.653	6.24
566.993	6.21
567.334	6.19
567.675	6.21
568.015	6.26
568.356	6.25
568.696	6.25
569.037	6.27
569.377	6.3
569.718	6.33
570.058	6.35
570.398	6.33
570.739	6.3
571.079	6.26
571.419	6.31
571.759	6.33
572.099	6.34
572.439	6.37
572.779	6.37
573.119	6.38
573.459	6.41
573.799	6.43
574.139	6.45
574.479	6.45
574.819	6.42
575.158	6.39
575.498	6.39
575.838	6.4
576.177	6.36
576.517	6.34
576.856	6.35
577.196	6.35
577.535	6.37
577.875	6.39
578.214	6.42
578.553	6.42
578.893	6.43
579.232	6.4
579.571	6.37
579.91	6.36
580.25	6.35
580.589	6.34
580.928	6.32
581.267	6.3
581.606	6.29
581.945	6.3
582.283	6.32
582.622	6.32
582.961	6.33
583.3	6.35
583.639	6.39
583.977	6.4
584.316	6.4
584.654	6.37
584.993	6.38
585.332	6.38
585.67	6.34
586.008	6.32
586.347	6.33
586.685	6.35
587.024	6.36
587.362	6.42
587.7	6.41
588.038	6.45
588.376	6.47
588.715	6.47
589.053	6.53
589.391	6.53
589.729	6.52
590.067	6.48
590.404	6.48
590.742	6.45
591.08	6.44
591.418	6.46
591.756	6.5
592.093	6.53
592.431	6.53
592.769	6.6
593.106	6.57
593.444	6.61
593.781	6.62
594.119	6.61
594.456	6.59
594.793	6.53
595.131	6.53
595.468	6.53
595.805	6.53
596.143	6.49
596.48	6.52
596.817	6.55
597.154	6.61
597.491	6.62
597.828	6.64
598.165	6.63
598.502	6.58
598.839	6.59
599.176	6.52
599.512	6.5
599.849	6.47
600.186	6.51
600.523	6.54
600.859	6.56
601.196	6.58
601.532	6.54
601.869	6.63
602.205	6.68
602.542	6.7
602.878	6.7
603.215	6.73
603.551	6.76
603.887	6.75
604.223	6.74
604.56	6.76
604.896	6.76
605.232	6.77
605.568	6.81
605.904	6.78
606.24	6.83
606.576	6.84
606.912	6.84
607.248	6.87
607.583	6.88
607.919	6.85
608.255	6.81
608.591	6.85
608.926	6.83
609.262	6.79
609.597	6.77
609.933	6.82
610.268	6.84
610.604	6.8
610.939	6.8
611.275	6.79
611.61	6.79
611.945	6.8
612.281	6.84
612.616	6.84
612.951	6.85
613.286	6.87
613.621	6.89
613.956	6.89
614.291	6.85
614.626	6.8
614.961	6.79
615.296	6.82
615.631	6.83
615.966	6.85
616.3	6.82
616.635	6.83
616.97	6.81
617.304	6.79
617.639	6.76
617.973	6.75
618.308	6.78
618.642	6.82
618.977	6.75
619.311	6.72
619.646	6.68
619.98	6.64
620.314	6.65
620.648	6.71
620.983	6.69
621.317	6.7
621.651	6.73
621.985	6.74
622.319	6.75
622.653	6.74
622.987	6.77
623.321	6.8
623.655	6.81
623.988	6.82
624.322	6.77
624.656	6.84
624.99	6.84
625.323	6.81
625.657	6.83
625.99	6.91
626.324	6.93
626.657	6.98
626.991	7.02
627.324	6.99
627.658	6.91
627.991	7.01
628.324	7.03
628.657	7
628.991	7.02
629.324	7.05
629.657	7.06
629.99	7.05
630.323	7.08
630.656	7.09
630.989	7.14
631.322	7.25
631.655	7.2
631.987	7.22
632.32	7.25
632.653	7.23
632.986	7.23
633.318	7.22
633.651	7.26
633.984	7.28
634.316	7.24
634.649	7.3
634.981	7.26
635.313	7.26
635.646	7.28
635.978	7.32
636.31	7.27
636.643	7.28
636.975	7.27
637.307	7.26
637.639	7.27
637.971	7.17
638.303	7.12
638.635	7.17
638.967	7.22
639.299	7.26
639.631	7.22
639.963	7.16
640.295	7.16
640.626	7.19
640.958	7.19
641.29	7.31
641.621	7.32
641.953	7.28
642.285	7.21
642.616	7.16
642.948	7.06
643.279	7.15
643.61	7.18
643.942	7.18
644.273	7.17
644.604	7.13
644.936	7.2
645.267	7.2
645.598	7.22
645.929	7.22
646.26	7.27
646.591	7.31
646.922	7.22
647.253	7.29
647.584	7.2
647.915	7.19
648.245	7.17
648.576	7.17
648.907	7.21
649.238	7.22
649.568	7.31
649.899	7.38
650.229	7.36
650.56	7.35
650.89	7.43
651.221	7.38
651.551	7.43
651.882	7.41
652.212	7.47
652.542	7.43
652.872	7.38
653.203	7.3
653.533	7.25
653.863	7.35
654.193	7.33
654.523	7.43
654.853	7.5
655.183	7.46
655.513	7.46
655.843	7.43
656.172	7.48
656.502	7.44
656.832	7.42
657.162	7.43
657.491	7.45
657.821	7.41
658.15	7.49
658.48	7.46
658.809	7.48
659.139	7.44
659.468	7.4
659.798	7.44
660.127	7.42
660.456	7.46
660.785	7.46
661.115	7.42
661.444	7.32
661.773	7.26
662.102	7.29
662.431	7.34
662.76	7.31
663.089	7.29
663.418	7.33
663.747	7.34
664.076	7.3
664.404	7.25
664.733	7.3
665.062	7.28
665.39	7.31
665.719	7.27
666.048	7.29
666.376	7.34
666.705	7.33
667.033	7.28
667.362	7.33
667.69	7.33
668.018	7.39
668.347	7.44
668.675	7.45
669.003	7.45
669.331	7.41
669.659	7.54
669.987	7.59
670.315	7.56
670.643	7.55
670.971	7.63
671.299	7.68
671.627	7.62
671.955	7.63
672.283	7.68
672.61	7.79
672.938	7.75
673.266	7.77
673.593	7.81
673.921	7.87
674.249	7.91
674.576	7.9
674.904	7.92
675.231	7.91
675.558	7.9
675.886	7.82
676.213	7.86
676.54	7.77
