Data from BU26938_Reflection_00010.txt Node
Date: Tue Nov 19 10:42:26 EST 2019
User: vgr7
Spectrometer: USB2G7710
Scans to average: 3
Trigger mode: 4
Integration Time (sec): 2.000000E-2
Electric dark correction enabled: true
Boxcar width: 10
XAxis mode: Wavelengths
Number of Pixels in Spectrum: 2048
>>>>>Begin Spectral Data<<<<<
177.721	144.97
178.105	215.38
178.488	-125.56
178.871	2950
179.254	41.94
179.636	65.91
180.019	-43.34
180.402	-176.19
180.785	700
181.168	363.36
181.55	333.77
181.933	304.19
182.316	801.3
182.698	-1932.26
183.081	248.29
183.463	-286.5
183.846	-244.26
184.228	100
184.611	-806.98
184.993	-535.29
185.376	-11042.86
185.758	260.88
186.14	109.84
186.522	86.98
186.904	253.49
187.287	89.98
187.669	74.1
188.051	48.08
188.433	100
188.815	17.71
189.197	-27.89
189.579	-7.82
189.961	-284.24
190.342	-39.45
190.724	-62.53
191.106	2.96
191.488	11
191.869	23.2
192.251	28.78
192.633	30.62
193.014	19.66
193.396	11.71
193.777	19.36
194.159	27.67
194.54	20.93
194.922	15.45
195.303	-4.16
195.684	-5.15
196.065	-12.72
196.447	-7.3
196.828	2.43
197.209	8.95
197.59	-3.26
197.971	-2.26
198.352	-21.01
198.733	-10.81
199.114	-38.44
199.495	-49.01
199.876	-48.64
200.257	-42.69
200.638	-32.74
201.018	-26.45
201.399	-16.36
201.78	-8.62
202.16	-10.2
202.541	2.94
202.922	5.59
203.302	5.7
203.683	-5.97
204.063	-6.18
204.444	-4.16
204.824	-12.81
205.204	-10.14
205.585	-0.08
205.965	23.25
206.345	42.26
206.725	27.87
207.106	44.59
207.486	55.33
207.866	70.67
208.246	69.07
208.626	59.3
209.006	44.71
209.386	33.02
209.766	-29.28
210.145	-22.77
210.525	-105.06
210.905	-119.32
211.285	-8.67
211.664	51.76
212.044	104.28
212.424	79.39
212.803	103.76
213.183	65.61
213.562	60.19
213.942	38.69
214.321	52.11
214.701	40.96
215.08	34.41
215.459	35.98
215.838	-6.42
216.218	-14.23
216.597	4.58
216.976	-18.11
217.355	-6.32
217.734	2.06
218.113	2.77
218.492	5.87
218.871	28.31
219.25	31.05
219.629	17.95
220.008	16.08
220.387	0.3
220.766	14.14
221.144	22.59
221.523	5.24
221.902	-1.16
222.28	1.94
222.659	11.57
223.037	8.94
223.416	-2.18
223.794	13.49
224.173	16.46
224.551	14.82
224.929	18.46
225.308	14.38
225.686	12.29
226.064	7.32
226.442	7.34
226.821	0.67
227.199	-3.45
227.577	-2.68
227.955	-6.99
228.333	-8.83
228.711	-13.1
229.089	-9.06
229.467	-6.24
229.845	-3.89
230.222	-3.29
230.6	-4.27
230.978	-2.83
231.356	-2.3
231.733	-4.33
232.111	-4.86
232.488	-4.5
232.866	-2.5
233.243	-2.01
233.621	0.57
233.998	0.04
234.376	-0.05
234.753	1.3
235.13	2.95
235.508	2.64
235.885	4.25
236.262	5.9
236.639	6.12
237.016	5.95
237.393	6.76
237.77	7.21
238.147	6.08
238.524	6.79
238.901	5.92
239.278	4.74
239.655	4.74
240.032	4.37
240.409	5.1
240.785	5.28
241.162	4.61
241.539	4.52
241.915	4.3
242.292	4.26
242.668	4.47
243.045	4.31
243.421	4.31
243.798	4.08
244.174	4.17
244.551	4.16
244.927	3.79
245.303	3.59
245.679	3.51
246.056	3.56
246.432	3.5
246.808	3.69
247.184	3.77
247.56	3.52
247.936	3.58
248.312	3.58
248.688	3.48
249.064	3.78
249.44	3.76
249.815	3.95
250.191	4.03
250.567	3.84
250.943	3.86
251.318	3.75
251.694	3.85
252.069	3.58
252.445	3.64
252.82	4.04
253.196	4.13
253.571	4.06
253.947	3.82
254.322	3.41
254.697	3.26
255.073	3.37
255.448	3.56
255.823	3.58
256.198	3.41
256.573	3.53
256.948	3.25
257.323	3.04
257.698	3.08
258.073	3.04
258.448	3.09
258.823	2.92
259.198	2.96
259.573	2.89
259.948	3.14
260.322	3.04
260.697	2.94
261.072	2.86
261.446	2.82
261.821	2.85
262.195	2.92
262.57	2.76
262.944	2.69
263.319	2.68
263.693	2.54
264.067	2.63
264.442	2.36
264.816	2.35
265.19	2.45
265.564	2.37
265.938	2.38
266.313	2.25
266.687	2.22
267.061	2.23
267.435	2.31
267.809	2.13
268.183	2.23
268.556	2.2
268.93	2.43
269.304	2.36
269.678	2.54
270.051	2.53
270.425	2.74
270.799	2.53
271.172	2.59
271.546	2.58
271.919	2.33
272.293	2.6
272.666	2.66
273.04	2.64
273.413	2.69
273.787	2.56
274.16	2.3
274.533	2.33
274.906	2.25
275.279	2.22
275.653	2.37
276.026	2.35
276.399	2.37
276.772	2.29
277.145	2.48
277.518	2.33
277.891	2.43
278.263	2.39
278.636	2.8
279.009	2.83
279.382	2.89
279.755	3.03
280.127	2.98
280.5	2.84
280.872	2.9
281.245	2.87
281.617	2.95
281.99	3.12
282.362	3.28
282.735	3.52
283.107	3.56
283.479	3.45
283.852	3.42
284.224	3.41
284.596	3.32
284.968	3.24
285.34	3.31
285.713	3.4
286.085	3.37
286.457	3.25
286.829	3.17
287.201	3.2
287.572	3.17
287.944	3.14
288.316	3.21
288.688	3.25
289.06	3.29
289.431	3.28
289.803	3.42
290.175	3.47
290.546	3.15
290.918	3.26
291.289	3.24
291.661	3.4
292.032	3.36
292.403	3.45
292.775	3.56
293.146	3.52
293.517	3.39
293.889	3.42
294.26	3.48
294.631	3.58
295.002	3.68
295.373	3.72
295.744	3.68
296.115	3.68
296.486	3.59
296.857	3.59
297.228	3.57
297.599	3.51
297.97	3.44
298.34	3.63
298.711	3.52
299.082	3.56
299.452	3.45
299.823	3.56
300.194	3.55
300.564	3.41
300.935	3.41
301.305	3.44
301.676	3.3
302.046	3.18
302.416	3.25
302.787	3.02
303.157	3
303.527	3.14
303.897	3.14
304.267	3.24
304.637	3.25
305.008	3.38
305.378	3.28
305.748	3.2
306.117	3.26
306.487	3.41
306.857	3.55
307.227	3.66
307.597	3.62
307.967	3.6
308.336	3.64
308.706	3.73
309.076	3.84
309.445	4.09
309.815	4.15
310.184	4.04
310.554	4.34
310.923	4.38
311.293	4.35
311.662	4.37
312.031	4.35
312.401	4.39
312.77	4.38
313.139	4.66
313.508	4.65
313.877	4.63
314.246	4.59
314.616	4.57
314.985	4.48
315.353	4.62
315.722	4.75
316.091	4.84
316.46	4.85
316.829	4.79
317.198	4.71
317.567	4.98
317.935	5.15
318.304	5.14
318.672	5.14
319.041	5.22
319.41	5.23
319.778	5.4
320.147	5.41
320.515	5.45
320.883	5.11
321.252	5.2
321.62	5.18
321.988	5.1
322.357	5.08
322.725	5.24
323.093	5.19
323.461	5.23
323.829	5.23
324.197	5.29
324.565	5.32
324.933	5.26
325.301	5.03
325.669	5.01
326.037	4.89
326.405	4.97
326.772	4.92
327.14	4.89
327.508	4.62
327.875	4.67
328.243	4.63
328.61	4.86
328.978	4.87
329.346	5
329.713	5.11
330.08	5.15
330.448	5.16
330.815	5.27
331.182	5.26
331.55	5.31
331.917	5.23
332.284	5.39
332.651	5.53
333.018	5.6
333.385	5.63
333.752	5.79
334.119	5.81
334.486	5.81
334.853	5.9
335.22	6.13
335.587	6.02
335.954	6.04
336.32	5.98
336.687	6.04
337.054	5.98
337.42	5.94
337.787	5.91
338.153	5.85
338.52	5.89
338.886	5.99
339.253	5.89
339.619	5.95
339.986	5.82
340.352	5.82
340.718	5.87
341.084	5.87
341.451	5.75
341.817	5.66
342.183	5.8
342.549	5.86
342.915	5.85
343.281	5.96
343.647	6.01
344.013	6.07
344.379	6.08
344.745	6.14
345.11	6.17
345.476	6.16
345.842	6.14
346.208	6.2
346.573	6.11
346.939	6.19
347.304	6.31
347.67	6.35
348.035	6.37
348.401	6.36
348.766	6.22
349.132	6.28
349.497	6.38
349.862	6.35
350.228	6.25
350.593	6.2
350.958	6.22
351.323	6.27
351.688	6.21
352.053	6.16
352.418	6.13
352.783	6.12
353.148	6.13
353.513	6.11
353.878	5.91
354.243	5.86
354.608	5.9
354.972	5.78
355.337	5.81
355.702	5.74
356.066	5.73
356.431	5.88
356.795	5.94
357.16	5.94
357.524	5.84
357.889	5.88
358.253	5.88
358.618	5.79
358.982	5.74
359.346	5.76
359.71	5.82
360.075	5.81
360.439	5.79
360.803	5.75
361.167	5.78
361.531	5.84
361.895	5.84
362.259	5.81
362.623	5.83
362.987	5.82
363.351	5.83
363.714	5.84
364.078	5.74
364.442	5.61
364.806	5.58
365.169	5.59
365.533	5.58
365.896	5.59
366.26	5.52
366.623	5.49
366.987	5.48
367.35	5.47
367.714	5.42
368.077	5.43
368.44	5.45
368.803	5.4
369.167	5.28
369.53	5.33
369.893	5.33
370.256	5.33
370.619	5.26
370.982	5.23
371.345	5.23
371.708	5.3
372.071	5.28
372.434	5.19
372.797	5.16
373.159	5.15
373.522	5.1
373.885	5.14
374.247	5.06
374.61	5
374.973	4.93
375.335	4.97
375.698	4.88
376.06	4.83
376.423	4.79
376.785	4.81
377.147	4.69
377.51	4.6
377.872	4.55
378.234	4.51
378.596	4.5
378.958	4.47
379.321	4.4
379.683	4.43
380.045	4.46
380.407	4.38
380.769	4.32
381.13	4.27
381.492	4.25
381.854	4.3
382.216	4.26
382.578	4.24
382.939	4.16
383.301	4.18
383.663	4.14
384.024	4.15
384.386	4.1
384.747	4.08
385.109	4.05
385.47	4.05
385.832	4.07
386.193	4.04
386.554	3.96
386.916	3.96
387.277	3.92
387.638	3.9
387.999	3.96
388.36	3.95
388.721	3.95
389.082	3.93
389.443	3.89
389.804	3.91
390.165	3.89
390.526	3.86
390.887	3.79
391.248	3.8
391.609	3.81
391.969	3.84
392.33	3.85
392.691	3.87
393.051	3.81
393.412	3.8
393.772	3.78
394.133	3.79
394.493	3.77
394.854	3.79
395.214	3.75
395.574	3.68
395.935	3.67
396.295	3.63
396.655	3.63
397.015	3.61
397.376	3.58
397.736	3.56
398.096	3.56
398.456	3.57
398.816	3.54
399.176	3.46
399.535	3.43
399.895	3.44
400.255	3.38
400.615	3.4
400.975	3.35
401.334	3.35
401.694	3.34
402.054	3.31
402.413	3.27
402.773	3.28
403.132	3.31
403.492	3.28
403.851	3.28
404.211	3.27
404.57	3.26
404.929	3.25
405.288	3.24
405.648	3.25
406.007	3.29
406.366	3.3
406.725	3.31
407.084	3.33
407.443	3.31
407.802	3.33
408.161	3.31
408.52	3.31
408.879	3.3
409.238	3.31
409.596	3.32
409.955	3.31
410.314	3.3
410.673	3.27
411.031	3.29
411.39	3.27
411.748	3.26
412.107	3.23
412.465	3.22
412.824	3.2
413.182	3.18
413.54	3.17
413.899	3.15
414.257	3.14
414.615	3.11
414.974	3.12
415.332	3.13
415.69	3.12
416.048	3.12
416.406	3.1
416.764	3.09
417.122	3.08
417.48	3.1
417.838	3.12
418.195	3.11
418.553	3.12
418.911	3.11
419.269	3.13
419.626	3.12
419.984	3.12
420.342	3.11
420.699	3.11
421.057	3.1
421.414	3.11
421.772	3.1
422.129	3.1
422.486	3.09
422.844	3.08
423.201	3.09
423.558	3.08
423.915	3.09
424.273	3.09
424.63	3.09
424.987	3.08
425.344	3.05
425.701	3.05
426.058	3.03
426.415	3.02
426.772	3.01
427.128	3.02
427.485	3.03
427.842	3.02
428.199	3.02
428.555	3
428.912	2.98
429.269	2.99
429.625	2.97
429.982	2.97
430.338	2.99
430.695	2.97
431.051	2.98
431.407	2.99
431.764	2.98
432.12	2.99
432.476	3
432.832	3.02
433.189	3.03
433.545	3.04
433.901	3.04
434.257	3.02
434.613	3.02
434.969	3.01
435.325	3.03
435.681	3.02
436.036	3.02
436.392	3.04
436.748	3.03
437.104	3.04
437.459	3.01
437.815	3
438.171	3
438.526	2.99
438.882	2.98
439.237	2.99
439.593	3
439.948	2.98
440.304	2.98
440.659	2.99
441.014	2.99
441.369	3
441.725	3.02
442.08	3.02
442.435	3.03
442.79	3.03
443.145	3.04
443.5	3.03
443.855	3.01
444.21	3.02
444.565	3.02
444.92	3.04
445.275	3.04
445.629	3.04
445.984	3.03
446.339	3.04
446.693	3.03
447.048	3.01
447.403	3.01
447.757	3
448.112	2.99
448.466	2.99
448.82	2.98
449.175	2.97
449.529	2.97
449.883	2.95
450.238	2.95
450.592	2.95
450.946	2.96
451.3	2.96
451.654	2.96
452.008	2.94
452.362	2.93
452.716	2.94
453.07	2.93
453.424	2.92
453.778	2.92
454.132	2.91
454.486	2.93
454.839	2.94
455.193	2.95
455.547	2.94
455.9	2.91
456.254	2.9
456.607	2.91
456.961	2.91
457.314	2.92
457.668	2.92
458.021	2.92
458.375	2.92
458.728	2.91
459.081	2.92
459.434	2.93
459.787	2.93
460.141	2.93
460.494	2.94
460.847	2.93
461.2	2.93
461.553	2.94
461.906	2.93
462.259	2.92
462.611	2.92
462.964	2.94
463.317	2.96
463.67	2.98
464.022	2.98
464.375	2.98
464.728	2.97
465.08	2.97
465.433	2.96
465.785	2.98
466.138	3.01
466.49	3.01
466.843	3
467.195	3
467.547	3.01
467.899	3.02
468.252	3.03
468.604	3.04
468.956	3.04
469.308	3.05
469.66	3.06
470.012	3.06
470.364	3.05
470.716	3.05
471.068	3.04
471.42	3.06
471.772	3.06
472.123	3.07
472.475	3.09
472.827	3.1
473.178	3.1
473.53	3.1
473.882	3.11
474.233	3.13
474.585	3.15
474.936	3.16
475.288	3.14
475.639	3.16
475.99	3.14
476.342	3.14
476.693	3.13
477.044	3.13
477.395	3.13
477.746	3.14
478.097	3.14
478.448	3.15
478.8	3.13
479.15	3.13
479.501	3.13
479.852	3.1
480.203	3.11
480.554	3.11
480.905	3.12
481.255	3.11
481.606	3.1
481.957	3.1
482.307	3.08
482.658	3.08
483.009	3.08
483.359	3.09
483.709	3.09
484.06	3.1
484.41	3.09
484.761	3.1
485.111	3.09
485.461	3.09
485.811	3.09
486.162	3.1
486.512	3.1
486.862	3.1
487.212	3.11
487.562	3.1
487.912	3.09
488.262	3.08
488.612	3.09
488.961	3.09
489.311	3.09
489.661	3.09
490.011	3.1
490.36	3.1
490.71	3.11
491.06	3.12
491.409	3.1
491.759	3.11
492.108	3.11
492.458	3.13
492.807	3.13
493.157	3.12
493.506	3.12
493.855	3.13
494.204	3.13
494.554	3.13
494.903	3.14
495.252	3.17
495.601	3.18
495.95	3.18
496.299	3.17
496.648	3.2
496.997	3.21
497.346	3.23
497.695	3.23
498.043	3.22
498.392	3.22
498.741	3.26
499.09	3.28
499.438	3.29
499.787	3.31
500.135	3.32
500.484	3.34
500.832	3.36
501.181	3.38
501.529	3.41
501.878	3.43
502.226	3.47
502.574	3.5
502.923	3.52
503.271	3.56
503.619	3.6
503.967	3.61
504.315	3.63
504.663	3.68
505.011	3.72
505.359	3.75
505.707	3.79
506.055	3.81
506.403	3.83
506.751	3.88
507.098	3.91
507.446	3.98
507.794	4.03
508.141	4.08
508.489	4.13
508.837	4.17
509.184	4.21
509.531	4.25
509.879	4.29
510.226	4.32
510.574	4.38
510.921	4.44
511.268	4.51
511.616	4.6
511.963	4.63
512.31	4.7
512.657	4.79
513.004	4.87
513.351	4.98
513.698	5.09
514.045	5.17
514.392	5.29
514.739	5.36
515.086	5.45
515.432	5.55
515.779	5.65
516.126	5.76
516.473	5.88
516.819	5.99
517.166	6.09
517.512	6.21
517.859	6.32
518.205	6.39
518.552	6.5
518.898	6.59
519.245	6.71
519.591	6.82
519.937	6.93
520.283	7.05
520.629	7.17
520.976	7.29
521.322	7.43
521.668	7.56
522.014	7.73
522.36	7.9
522.706	8.06
523.052	8.27
523.398	8.45
523.743	8.67
524.089	8.88
524.435	9.07
524.781	9.26
525.126	9.42
525.472	9.61
525.817	9.76
526.163	9.91
526.509	10.05
526.854	10.17
527.199	10.29
527.545	10.41
527.89	10.52
528.235	10.64
528.581	10.78
528.926	10.91
529.271	11.03
529.616	11.14
529.961	11.27
530.306	11.37
530.651	11.49
530.996	11.62
531.341	11.76
531.686	11.91
532.031	12.07
532.376	12.22
532.721	12.37
533.065	12.53
533.41	12.68
533.755	12.85
534.099	13.03
534.444	13.2
534.788	13.36
535.133	13.56
535.477	13.74
535.822	13.93
536.166	14.11
536.51	14.31
536.855	14.53
537.199	14.77
537.543	15.02
537.887	15.26
538.231	15.49
538.576	15.71
538.92	15.93
539.264	16.12
539.608	16.32
539.951	16.53
540.295	16.72
540.639	16.9
540.983	17.07
541.327	17.24
541.671	17.4
542.014	17.59
542.358	17.76
542.701	17.91
543.045	18.07
543.389	18.24
543.732	18.41
544.075	18.59
544.419	18.75
544.762	18.95
545.105	19.14
545.449	19.35
545.792	19.57
546.135	19.81
546.478	20.04
546.821	20.3
547.165	20.52
547.508	20.79
547.851	21.08
548.194	21.36
548.536	21.65
548.879	21.94
549.222	22.2
549.565	22.45
549.908	22.71
550.25	22.96
550.593	23.26
550.936	23.56
551.278	23.84
551.621	24.11
551.963	24.37
552.306	24.66
552.648	24.9
552.991	25.19
553.333	25.4
553.675	25.69
554.017	25.91
554.36	26.21
554.702	26.37
555.044	26.58
555.386	26.8
555.728	27
556.07	27.25
556.412	27.49
556.754	27.77
557.096	28.04
557.438	28.34
557.78	28.57
558.121	28.8
558.463	29.09
558.805	29.37
559.147	29.65
559.488	29.9
559.83	30.14
560.171	30.37
560.513	30.63
560.854	30.85
561.196	31.13
561.537	31.34
561.878	31.64
562.22	31.88
562.561	32.15
562.902	32.38
563.243	32.65
563.584	32.89
563.925	33.05
564.266	33.27
564.607	33.41
564.948	33.62
565.289	33.82
565.63	34.01
565.971	34.19
566.312	34.34
566.653	34.53
566.993	34.73
567.334	34.92
567.675	35.14
568.015	35.36
568.356	35.53
568.696	35.72
569.037	35.88
569.377	36.1
569.718	36.28
570.058	36.51
570.398	36.69
570.739	36.87
571.079	37.05
571.419	37.23
571.759	37.46
572.099	37.63
572.439	37.78
572.779	37.93
573.119	38.13
573.459	38.33
573.799	38.49
574.139	38.62
574.479	38.8
574.819	38.95
575.158	39.06
575.498	39.23
575.838	39.4
576.177	39.58
576.517	39.71
576.856	39.83
577.196	39.93
577.535	40.04
577.875	40.24
578.214	40.45
578.553	40.58
578.893	40.69
579.232	40.85
579.571	40.99
579.91	41.19
580.25	41.35
580.589	41.44
580.928	41.5
581.267	41.68
581.606	41.75
581.945	41.93
582.283	42.1
582.622	42.3
582.961	42.45
583.3	42.6
583.639	42.71
583.977	42.88
584.316	43.11
584.654	43.24
584.993	43.3
585.332	43.43
585.67	43.57
586.008	43.74
586.347	43.84
586.685	44
587.024	44.1
587.362	44.17
587.7	44.3
588.038	44.57
588.376	44.64
588.715	44.84
589.053	44.94
589.391	45.01
589.729	45.01
590.067	45.1
590.404	45.14
590.742	45.29
591.08	45.44
591.418	45.45
591.756	45.58
592.093	45.77
592.431	45.9
592.769	46.05
593.106	46.14
593.444	46.26
593.781	46.31
594.119	46.48
594.456	46.5
594.793	46.59
595.131	46.63
595.468	46.76
595.805	46.81
596.143	46.8
596.48	46.94
596.817	47
597.154	47.05
597.491	47.19
597.828	47.23
598.165	47.24
598.502	47.33
598.839	47.4
599.176	47.46
599.512	47.53
599.849	47.62
600.186	47.73
600.523	47.89
600.859	47.98
601.196	47.96
601.532	48.06
601.869	48.16
602.205	48.18
602.542	48.31
602.878	48.39
603.215	48.48
603.551	48.5
603.887	48.6
604.223	48.68
604.56	48.78
604.896	48.84
605.232	48.93
605.568	49.02
605.904	49.08
606.24	49.08
606.576	49.09
606.912	49.1
607.248	49.13
607.583	49.15
607.919	49.28
608.255	49.35
608.591	49.47
608.926	49.5
609.262	49.6
609.597	49.54
609.933	49.6
610.268	49.62
610.604	49.68
610.939	49.77
611.275	49.81
611.61	49.85
611.945	49.91
612.281	49.92
612.616	49.95
612.951	50.05
613.286	50.13
613.621	50.22
613.956	50.35
614.291	50.4
614.626	50.36
614.961	50.33
615.296	50.43
615.631	50.48
615.966	50.49
616.3	50.58
616.635	50.6
616.97	50.66
617.304	50.85
617.639	50.83
617.973	50.82
618.308	50.87
618.642	50.87
618.977	50.92
619.311	51
619.646	51.11
619.98	51.08
620.314	51.11
620.648	51.04
620.983	51.04
621.317	51.02
621.651	51.16
621.985	51.22
622.319	51.26
622.653	51.2
622.987	51.3
623.321	51.28
623.655	51.34
623.988	51.39
624.322	51.46
624.656	51.56
624.99	51.63
625.323	51.71
625.657	51.72
625.99	51.75
626.324	51.82
626.657	51.76
626.991	51.74
627.324	51.75
627.658	51.89
627.991	51.87
628.324	52
628.657	51.95
628.991	51.98
629.324	51.98
629.657	52.05
629.99	52.13
630.323	52.13
630.656	52.17
630.989	52.21
631.322	52.09
631.655	52.1
631.987	52.18
632.32	52.06
632.653	52.16
632.986	52.23
633.318	52.2
633.651	52.26
633.984	52.34
634.316	52.32
634.649	52.34
634.981	52.42
635.313	52.41
635.646	52.52
635.978	52.54
636.31	52.53
636.643	52.53
636.975	52.49
637.307	52.58
637.639	52.63
637.971	52.6
638.303	52.61
638.635	52.65
638.967	52.6
639.299	52.62
639.631	52.56
639.963	52.5
640.295	52.55
640.626	52.65
640.958	52.65
641.29	52.66
641.621	52.66
641.953	52.58
642.285	52.61
642.616	52.58
642.948	52.62
643.279	52.65
643.61	52.79
643.942	52.85
644.273	52.86
644.604	52.81
644.936	52.81
645.267	52.89
645.598	52.92
645.929	53.01
646.26	53.09
646.591	53.16
646.922	53.23
647.253	53.29
647.584	53.34
647.915	53.46
648.245	53.55
648.576	53.55
648.907	53.64
649.238	53.6
649.568	53.66
649.899	53.67
650.229	53.81
650.56	53.8
650.89	53.82
651.221	53.91
651.551	54
651.882	54.1
652.212	54.19
652.542	54.22
652.872	54.1
653.203	54.14
653.533	54.09
653.863	54.05
654.193	54.05
654.523	53.94
654.853	53.86
655.183	53.91
655.513	53.95
655.843	54.07
656.172	54.21
656.502	54.15
656.832	54.22
657.162	54.12
657.491	54.08
657.821	54.04
658.15	53.94
658.48	53.91
658.809	53.87
659.139	53.81
659.468	53.86
659.798	54
660.127	54.02
660.456	53.99
660.785	54.05
661.115	53.95
661.444	54.02
661.773	54.13
662.102	54.13
662.431	54.17
662.76	54.21
663.089	54.16
663.418	54.17
663.747	54.18
664.076	54.24
664.404	54.34
664.733	54.53
665.062	54.51
665.39	54.68
665.719	54.76
666.048	54.83
666.376	54.8
666.705	54.85
667.033	54.9
667.362	54.99
667.69	55.01
668.018	55.23
668.347	55.13
668.675	55.06
669.003	55.16
669.331	55.2
669.659	55.11
669.987	55.17
