Data from BU26941_Reflection_00014.txt Node
Date: Tue Nov 19 11:03:49 EST 2019
User: vgr7
Spectrometer: USB2G7710
Scans to average: 3
Trigger mode: 4
Integration Time (sec): 2.000000E-2
Electric dark correction enabled: true
Boxcar width: 10
XAxis mode: Wavelengths
Number of Pixels in Spectrum: 2048
>>>>>Begin Spectral Data<<<<<
177.721	103.82
178.105	41.62
178.488	7.21
178.871	78.38
179.254	91.8
179.636	116.08
180.019	124.8
180.402	360
180.785	-3.77
181.168	10100
181.55	-232.49
181.933	-822.54
182.316	434.59
182.698	442.98
183.081	816.22
183.463	-112.57
183.846	-198.32
184.228	885.71
184.611	-55.05
184.993	-23.88
185.376	33.53
185.758	42.26
186.14	-5.06
186.522	-6.86
186.904	42.11
187.287	78.96
187.669	64.35
188.051	71.51
188.433	67.97
188.815	69.88
189.197	61.84
189.579	94.36
189.961	126.91
190.342	54.34
190.724	46.48
191.106	44.74
191.488	39.59
191.869	58.7
192.251	133.21
192.633	228.65
193.014	228.9
193.396	254.39
193.777	183.51
194.159	289.1
194.54	234.25
194.922	461.24
195.303	443.24
195.684	316.72
196.065	148.9
196.447	41.58
196.828	46.13
197.209	169.79
197.59	146.59
197.971	114.48
198.352	107.04
198.733	85.07
199.114	75.95
199.495	74.59
199.876	64.33
200.257	38.01
200.638	59.98
201.018	55.98
201.399	58.08
201.78	65.55
202.16	36.75
202.541	60.44
202.922	54.46
203.302	72.62
203.683	49.36
204.063	118.59
204.444	168.67
204.824	209.45
205.204	212.06
205.585	256.77
205.965	411.55
206.345	638.91
206.725	255.77
207.106	264.64
207.486	236.52
207.866	314.92
208.246	324.95
208.626	183.51
209.006	228.43
209.386	156.01
209.766	200
210.145	152.06
210.525	164.18
210.905	130.82
211.285	171.8
211.664	370.15
212.044	186.56
212.424	230.07
212.803	292.31
213.183	167.03
213.562	289.55
213.942	228.65
214.321	186.4
214.701	672.99
215.08	712.36
215.459	352.41
215.838	409.89
216.218	486.7
216.597	1487.64
216.976	-760.9
217.355	-117400
217.734	561.72
218.113	966.34
218.492	2819.51
218.871	432.65
219.25	321.25
219.629	141.2
220.008	274.77
220.387	133.94
220.766	72.02
221.144	92.66
221.523	27.26
221.902	12.76
222.28	8.81
222.659	15.94
223.037	22.48
223.416	22.36
223.794	21.03
224.173	13.94
224.551	14.28
224.929	19.83
225.308	13.34
225.686	21.4
226.064	21.84
226.442	23.69
226.821	28.03
227.199	23.98
227.577	18.46
227.955	13.72
228.333	12.72
228.711	9.76
229.089	7.66
229.467	9.14
229.845	12.4
230.222	19.36
230.6	19.54
230.978	18.72
231.356	17.48
231.733	16.61
232.111	16.18
232.488	15.82
232.866	13.02
233.243	11.96
233.621	11.24
233.998	10.99
234.376	9.46
234.753	8.09
235.13	8.53
235.508	10.55
235.885	11.14
236.262	9.48
236.639	10.34
237.016	11.26
237.393	10.99
237.77	11.21
238.147	8.96
238.524	8.17
238.901	7.21
239.278	6.69
239.655	6.27
240.032	5.02
240.409	4.45
240.785	4.08
241.162	4.17
241.539	3.59
241.915	3.12
242.292	2.88
242.668	3.05
243.045	3.07
243.421	3.22
243.798	3.17
244.174	3.75
244.551	3.91
244.927	3.85
245.303	3.82
245.679	3.97
246.056	3.95
246.432	4.22
246.808	4.38
247.184	4.4
247.56	4.43
247.936	4.73
248.312	5.04
248.688	5.05
249.064	5.27
249.44	5.32
249.815	5.7
250.191	5.72
250.567	5.73
250.943	5.78
251.318	5.72
251.694	5.72
252.069	5.52
252.445	5.3
252.82	5.54
253.196	5.48
253.571	5.28
253.947	5.3
254.322	5.06
254.697	5.01
255.073	5.01
255.448	4.95
255.823	5.03
256.198	4.83
256.573	5.09
256.948	4.81
257.323	4.82
257.698	4.59
258.073	4.55
258.448	4.5
258.823	4.4
259.198	4.44
259.573	4.5
259.948	4.61
260.322	4.63
260.697	4.65
261.072	4.68
261.446	4.57
261.821	4.49
262.195	4.43
262.57	4.46
262.944	4.45
263.319	4.58
263.693	4.57
264.067	4.63
264.442	4.61
264.816	4.78
265.19	4.74
265.564	4.69
265.938	4.73
266.313	4.73
266.687	4.81
267.061	4.6
267.435	4.72
267.809	4.63
268.183	4.38
268.556	4.22
268.93	4.27
269.304	4.27
269.678	4.57
270.051	4.63
270.425	4.58
270.799	4.38
271.172	4.3
271.546	4.42
271.919	4.3
272.293	4.26
272.666	4.21
273.04	4.29
273.413	4.37
273.787	4.37
274.16	4.43
274.533	4.36
274.906	4.47
275.279	4.15
275.653	4.3
276.026	4.49
276.399	4.56
276.772	4.44
277.145	4.42
277.518	4.17
277.891	4.01
278.263	4.03
278.636	4.35
279.009	4.47
279.382	4.23
279.755	4.21
280.127	4.13
280.5	4.11
280.872	4.12
281.245	4.24
281.617	4.18
281.99	4.12
282.362	4.12
282.735	4.1
283.107	4.21
283.479	4.14
283.852	4.2
284.224	4.15
284.596	4.28
284.968	4.26
285.34	4.28
285.713	4.42
286.085	4.36
286.457	4.33
286.829	4.13
287.201	4.09
287.572	4.17
287.944	4.37
288.316	4.46
288.688	4.59
289.06	4.37
289.431	4.35
289.803	4.31
290.175	4.26
290.546	4.23
290.918	4.38
291.289	4.4
291.661	4.42
292.032	4.57
292.403	4.56
292.775	4.79
293.146	4.82
293.517	4.94
293.889	5.02
294.26	5.06
294.631	5.24
295.002	5.35
295.373	5.37
295.744	5.36
296.115	5.37
296.486	5.36
296.857	5.62
297.228	5.69
297.599	5.77
297.97	5.99
298.34	6.16
298.711	6.21
299.082	6.24
299.452	6.22
299.823	6.14
300.194	6.21
300.564	6.21
300.935	6.29
301.305	6.27
301.676	6.25
302.046	6.35
302.416	6.43
302.787	6.56
303.157	6.67
303.527	6.59
303.897	6.48
304.267	6.63
304.637	6.75
305.008	6.94
305.378	7.03
305.748	6.97
306.117	6.99
306.487	7.07
306.857	7.14
307.227	7.43
307.597	7.55
307.967	7.7
308.336	7.72
308.706	7.76
309.076	7.81
309.445	8.06
309.815	8.06
310.184	7.98
310.554	7.88
310.923	7.98
311.293	8.23
311.662	8.45
312.031	8.47
312.401	8.45
312.77	8.47
313.139	8.69
313.508	8.79
313.877	8.9
314.246	8.92
314.616	9.09
314.985	9.04
315.353	9.2
315.722	9.33
316.091	9.51
316.46	9.76
316.829	9.9
317.198	9.91
317.567	9.98
317.935	10.18
318.304	10.48
318.672	10.55
319.041	10.58
319.41	10.67
319.778	10.7
320.147	10.78
320.515	10.85
320.883	10.7
321.252	10.79
321.62	10.8
321.988	10.96
322.357	10.84
322.725	10.92
323.093	10.93
323.461	10.89
323.829	10.77
324.197	10.73
324.565	10.76
324.933	10.79
325.301	10.83
325.669	11.09
326.037	11.17
326.405	11.31
326.772	11.35
327.14	11.18
327.508	11.18
327.875	11.17
328.243	11.18
328.61	11.22
328.978	11.23
329.346	11.31
329.713	11.27
330.08	11.38
330.448	11.51
330.815	11.49
331.182	11.55
331.55	11.66
331.917	11.59
332.284	11.58
332.651	11.57
333.018	11.66
333.385	11.53
333.752	11.42
334.119	11.46
334.486	11.49
334.853	11.71
335.22	11.75
335.587	11.85
335.954	11.89
336.32	11.92
336.687	11.95
337.054	11.9
337.42	11.91
337.787	11.9
338.153	11.83
338.52	11.87
338.886	11.91
339.253	11.85
339.619	12.03
339.986	12.14
340.352	12.13
340.718	12.13
341.084	12.19
341.451	12.25
341.817	12.14
342.183	12.16
342.549	12.08
342.915	12.06
343.281	12.06
343.647	12.02
344.013	12.1
344.379	12.13
344.745	12.22
345.11	12.3
345.476	12.4
345.842	12.36
346.208	12.31
346.573	12.29
346.939	12.34
347.304	12.2
347.67	12.18
348.035	12.24
348.401	12.29
348.766	12.3
349.132	12.33
349.497	12.42
349.862	12.36
350.228	12.47
350.593	12.54
350.958	12.6
351.323	12.64
351.688	12.64
352.053	12.68
352.418	12.67
352.783	12.66
353.148	12.65
353.513	12.66
353.878	12.75
354.243	12.63
354.608	12.68
354.972	12.83
355.337	12.84
355.702	12.8
356.066	12.8
356.431	12.78
356.795	12.8
357.16	12.72
357.524	12.69
357.889	12.58
358.253	12.55
358.618	12.53
358.982	12.5
359.346	12.48
359.71	12.41
360.075	12.46
360.439	12.47
360.803	12.47
361.167	12.45
361.531	12.42
361.895	12.47
362.259	12.46
362.623	12.42
362.987	12.4
363.351	12.38
363.714	12.39
364.078	12.33
364.442	12.27
364.806	12.32
365.169	12.32
365.533	12.36
365.896	12.32
366.26	12.25
366.623	12.23
366.987	12.16
367.35	12.16
367.714	12.03
368.077	11.9
368.44	11.84
368.803	11.78
369.167	11.65
369.53	11.63
369.893	11.59
370.256	11.45
370.619	11.3
370.982	11.22
371.345	11.09
371.708	11.09
372.071	10.99
372.434	10.92
372.797	10.89
373.159	10.85
373.522	10.79
373.885	10.76
374.247	10.68
374.61	10.66
374.973	10.58
375.335	10.56
375.698	10.48
376.06	10.41
376.423	10.38
376.785	10.42
377.147	10.33
377.51	10.21
377.872	10.17
378.234	10.24
378.596	10.18
378.958	10.13
379.321	10.05
379.683	10.05
380.045	9.94
380.407	9.9
380.769	9.77
381.13	9.7
381.492	9.63
381.854	9.6
382.216	9.52
382.578	9.45
382.939	9.38
383.301	9.36
383.663	9.28
384.024	9.19
384.386	9.12
384.747	9.05
385.109	9.06
385.47	9.03
385.832	8.9
386.193	8.87
386.554	8.82
386.916	8.79
387.277	8.74
387.638	8.72
387.999	8.66
388.36	8.6
388.721	8.57
389.082	8.51
389.443	8.45
389.804	8.41
390.165	8.35
390.526	8.29
390.887	8.25
391.248	8.21
391.609	8.26
391.969	8.22
392.33	8.18
392.691	8.07
393.051	8
393.412	7.94
393.772	7.94
394.133	7.92
394.493	7.84
394.854	7.79
395.214	7.74
395.574	7.65
395.935	7.59
396.295	7.5
396.655	7.43
397.015	7.41
397.376	7.35
397.736	7.29
398.096	7.24
398.456	7.18
398.816	7.13
399.176	7.01
399.535	6.93
399.895	6.87
400.255	6.85
400.615	6.84
400.975	6.78
401.334	6.72
401.694	6.64
402.054	6.58
402.413	6.52
402.773	6.44
403.132	6.43
403.492	6.41
403.851	6.38
404.211	6.35
404.57	6.28
404.929	6.23
405.288	6.25
405.648	6.21
406.007	6.17
406.366	6.13
406.725	6.1
407.084	6.09
407.443	6.09
407.802	6.05
408.161	6.02
408.52	6
408.879	5.96
409.238	5.94
409.596	5.92
409.955	5.89
410.314	5.89
410.673	5.87
411.031	5.85
411.39	5.84
411.748	5.8
412.107	5.78
412.465	5.77
412.824	5.71
413.182	5.67
413.54	5.66
413.899	5.64
414.257	5.61
414.615	5.57
414.974	5.53
415.332	5.52
415.69	5.51
416.048	5.49
416.406	5.45
416.764	5.43
417.122	5.41
417.48	5.37
417.838	5.36
418.195	5.31
418.553	5.28
418.911	5.25
419.269	5.24
419.626	5.2
419.984	5.16
420.342	5.14
420.699	5.12
421.057	5.09
421.414	5.05
421.772	5.05
422.129	5.02
422.486	5.01
422.844	4.98
423.201	4.95
423.558	4.93
423.915	4.92
424.273	4.9
424.63	4.87
424.987	4.86
425.344	4.84
425.701	4.83
426.058	4.81
426.415	4.81
426.772	4.8
427.128	4.81
427.485	4.81
427.842	4.79
428.199	4.78
428.555	4.78
428.912	4.79
429.269	4.76
429.625	4.75
429.982	4.76
430.338	4.78
430.695	4.77
431.051	4.76
431.407	4.74
431.764	4.73
432.12	4.75
432.476	4.75
432.832	4.74
433.189	4.74
433.545	4.74
433.901	4.75
434.257	4.74
434.613	4.71
434.969	4.71
435.325	4.73
435.681	4.73
436.036	4.72
436.392	4.71
436.748	4.7
437.104	4.71
437.459	4.68
437.815	4.68
438.171	4.68
438.526	4.68
438.882	4.69
439.237	4.68
439.593	4.68
439.948	4.68
440.304	4.68
440.659	4.67
441.014	4.67
441.369	4.66
441.725	4.66
442.08	4.66
442.435	4.65
442.79	4.64
443.145	4.63
443.5	4.6
443.855	4.59
444.21	4.6
444.565	4.59
444.92	4.59
445.275	4.56
445.629	4.53
445.984	4.52
446.339	4.5
446.693	4.51
447.048	4.48
447.403	4.45
447.757	4.44
448.112	4.42
448.466	4.4
448.82	4.37
449.175	4.36
449.529	4.36
449.883	4.34
450.238	4.32
450.592	4.31
450.946	4.3
451.3	4.29
451.654	4.27
452.008	4.27
452.362	4.25
452.716	4.22
453.07	4.23
453.424	4.21
453.778	4.19
454.132	4.18
454.486	4.18
454.839	4.17
455.193	4.2
455.547	4.22
455.9	4.24
456.254	4.24
456.607	4.23
456.961	4.22
457.314	4.24
457.668	4.27
458.021	4.26
458.375	4.26
458.728	4.27
459.081	4.28
459.434	4.28
459.787	4.3
460.141	4.33
460.494	4.34
460.847	4.37
461.2	4.38
461.553	4.41
461.906	4.43
462.259	4.46
462.611	4.46
462.964	4.47
463.317	4.48
463.67	4.52
464.022	4.57
464.375	4.58
464.728	4.6
465.08	4.62
465.433	4.66
465.785	4.72
466.138	4.76
466.49	4.79
466.843	4.84
467.195	4.86
467.547	4.88
467.899	4.91
468.252	4.94
468.604	4.97
468.956	4.99
469.308	5.01
469.66	5.04
470.012	5.06
470.364	5.09
470.716	5.13
471.068	5.17
471.42	5.17
471.772	5.21
472.123	5.23
472.475	5.27
472.827	5.3
473.178	5.29
473.53	5.29
473.882	5.29
474.233	5.27
474.585	5.27
474.936	5.27
475.288	5.26
475.639	5.26
475.99	5.24
476.342	5.23
476.693	5.22
477.044	5.21
477.395	5.21
477.746	5.19
478.097	5.14
478.448	5.1
478.8	5.08
479.15	5.07
479.501	5.07
479.852	5.06
480.203	5.04
480.554	5.05
480.905	5.04
481.255	5.02
481.606	5.01
481.957	5.01
482.307	5.01
482.658	4.99
483.009	4.98
483.359	4.98
483.709	4.97
484.06	4.97
484.41	4.97
484.761	4.97
485.111	4.96
485.461	4.97
485.811	4.97
486.162	4.97
486.512	4.96
486.862	4.96
487.212	4.95
487.562	4.95
487.912	4.94
488.262	4.95
488.612	4.95
488.961	4.96
489.311	4.96
489.661	4.97
490.011	4.98
490.36	5
490.71	5.02
491.06	5.04
491.409	5.05
491.759	5.07
492.108	5.07
492.458	5.1
492.807	5.12
493.157	5.15
493.506	5.18
493.855	5.22
494.204	5.27
494.554	5.29
494.903	5.34
495.252	5.38
495.601	5.45
495.95	5.53
496.299	5.58
496.648	5.66
496.997	5.74
497.346	5.84
497.695	5.92
498.043	5.98
498.392	6.08
498.741	6.17
499.09	6.27
499.438	6.41
499.787	6.51
500.135	6.63
500.484	6.73
500.832	6.85
501.181	6.98
501.529	7.12
501.878	7.28
502.226	7.4
502.574	7.56
502.923	7.69
503.271	7.85
503.619	8.01
503.967	8.17
504.315	8.33
504.663	8.5
505.011	8.67
505.359	8.83
505.707	8.99
506.055	9.18
506.403	9.36
506.751	9.52
507.098	9.73
507.446	9.94
507.794	10.16
508.141	10.32
508.489	10.52
508.837	10.7
509.184	10.89
509.531	11.09
509.879	11.28
510.226	11.47
510.574	11.65
510.921	11.81
511.268	12.01
511.616	12.22
511.963	12.39
512.31	12.61
512.657	12.84
513.004	13.06
513.351	13.26
513.698	13.5
514.045	13.75
514.392	13.99
514.739	14.19
515.086	14.4
515.432	14.67
515.779	14.88
516.126	15.1
516.473	15.31
516.819	15.5
517.166	15.72
517.512	15.91
517.859	16.1
518.205	16.27
518.552	16.43
518.898	16.57
519.245	16.78
519.591	16.98
519.937	17.15
520.283	17.34
520.629	17.51
520.976	17.7
521.322	17.9
521.668	18.05
522.014	18.26
522.36	18.45
522.706	18.65
523.052	18.89
523.398	19.1
523.743	19.34
524.089	19.61
524.435	19.84
524.781	20.07
525.126	20.25
525.472	20.47
525.817	20.63
526.163	20.79
526.509	20.91
526.854	21.03
527.199	21.16
527.545	21.28
527.89	21.4
528.235	21.52
528.581	21.63
528.926	21.78
529.271	21.89
529.616	22.01
529.961	22.14
530.306	22.25
530.651	22.38
530.996	22.51
531.341	22.62
531.686	22.76
532.031	22.91
532.376	23.05
532.721	23.2
533.065	23.35
533.41	23.51
533.755	23.68
534.099	23.83
534.444	23.99
534.788	24.11
535.133	24.28
535.477	24.44
535.822	24.6
536.166	24.78
536.51	24.99
536.855	25.21
537.199	25.4
537.543	25.61
537.887	25.83
538.231	26.03
538.576	26.24
538.92	26.41
539.264	26.57
539.608	26.73
539.951	26.89
540.295	27.02
540.639	27.18
540.983	27.29
541.327	27.42
541.671	27.54
542.014	27.68
542.358	27.81
542.701	27.93
543.045	28.03
543.389	28.13
543.732	28.23
544.075	28.34
544.419	28.44
544.762	28.55
545.105	28.65
545.449	28.78
545.792	28.89
546.135	29.01
546.478	29.13
546.821	29.28
547.165	29.44
547.508	29.6
547.851	29.73
548.194	29.88
548.536	29.99
548.879	30.12
549.222	30.3
549.565	30.41
549.908	30.54
550.25	30.67
550.593	30.8
550.936	30.9
551.278	31.01
551.621	31.13
551.963	31.29
552.306	31.41
552.648	31.52
552.991	31.64
553.333	31.82
553.675	31.93
554.017	32.04
554.36	32.12
554.702	32.18
555.044	32.29
555.386	32.48
555.728	32.6
556.07	32.7
556.412	32.74
556.754	32.85
557.096	32.95
557.438	33.07
557.78	33.12
558.121	33.22
558.463	33.32
558.805	33.42
559.147	33.48
559.488	33.6
559.83	33.68
560.171	33.74
560.513	33.81
560.854	33.9
561.196	34
561.537	34.08
561.878	34.16
562.22	34.24
562.561	34.25
562.902	34.32
563.243	34.38
563.584	34.46
563.925	34.49
564.266	34.56
564.607	34.59
564.948	34.69
565.289	34.78
565.63	34.88
565.971	34.98
566.312	35.08
566.653	35.16
566.993	35.21
567.334	35.29
567.675	35.33
568.015	35.37
568.356	35.4
568.696	35.46
569.037	35.5
569.377	35.54
569.718	35.62
570.058	35.68
570.398	35.74
570.739	35.8
571.079	35.91
571.419	35.93
571.759	36
572.099	36.05
572.439	36.07
572.779	36.09
573.119	36.14
573.459	36.13
573.799	36.14
574.139	36.19
574.479	36.27
574.819	36.31
575.158	36.39
575.498	36.46
575.838	36.46
576.177	36.56
576.517	36.59
576.856	36.62
577.196	36.7
577.535	36.75
577.875	36.83
578.214	36.87
578.553	36.96
578.893	37.03
579.232	37.06
579.571	37.15
579.91	37.23
580.25	37.28
580.589	37.28
580.928	37.28
581.267	37.34
581.606	37.4
581.945	37.38
582.283	37.44
582.622	37.45
582.961	37.49
583.3	37.51
583.639	37.61
583.977	37.58
584.316	37.59
584.654	37.67
584.993	37.69
585.332	37.7
585.67	37.76
586.008	37.84
586.347	37.82
586.685	37.8
587.024	37.8
587.362	37.77
587.7	37.91
588.038	38.01
588.376	38.02
588.715	38.01
589.053	38.07
589.391	38.11
589.729	38.13
590.067	38.28
590.404	38.36
590.742	38.36
591.08	38.5
591.418	38.52
591.756	38.53
592.093	38.49
592.431	38.56
592.769	38.52
593.106	38.57
593.444	38.63
593.781	38.72
594.119	38.75
594.456	38.85
594.793	38.87
595.131	38.86
595.468	38.94
595.805	38.97
596.143	39.03
596.48	38.98
596.817	38.99
597.154	38.94
597.491	38.93
597.828	39.01
598.165	38.97
598.502	38.99
598.839	39.02
599.176	39.07
599.512	39.04
599.849	39.1
600.186	39.06
600.523	39.09
600.859	39.14
601.196	39.21
601.532	39.2
601.869	39.25
602.205	39.31
602.542	39.3
602.878	39.34
603.215	39.35
603.551	39.44
603.887	39.51
604.223	39.56
604.56	39.56
604.896	39.54
605.232	39.6
605.568	39.58
605.904	39.65
606.24	39.74
606.576	39.8
606.912	39.84
607.248	39.91
607.583	39.89
607.919	39.9
608.255	39.89
608.591	39.93
608.926	39.94
609.262	39.93
609.597	39.97
609.933	39.95
610.268	40.02
610.604	40.09
610.939	40.15
611.275	40.15
611.61	40.16
611.945	40.2
612.281	40.21
612.616	40.3
612.951	40.32
613.286	40.34
613.621	40.37
613.956	40.38
614.291	40.38
614.626	40.5
614.961	40.6
615.296	40.61
615.631	40.63
615.966	40.65
616.3	40.67
616.635	40.64
616.97	40.72
617.304	40.69
617.639	40.6
617.973	40.52
618.308	40.54
618.642	40.62
618.977	40.62
619.311	40.67
619.646	40.67
619.98	40.67
620.314	40.66
620.648	40.67
620.983	40.74
621.317	40.79
621.651	40.78
621.985	40.72
622.319	40.72
622.653	40.74
622.987	40.85
623.321	40.9
623.655	41.04
623.988	41.06
624.322	41.11
624.656	41.18
624.99	41.23
625.323	41.25
625.657	41.3
625.99	41.39
626.324	41.31
626.657	41.31
626.991	41.32
627.324	41.33
627.658	41.38
627.991	41.37
628.324	41.41
628.657	41.49
628.991	41.6
629.324	41.7
629.657	41.7
629.99	41.63
630.323	41.58
630.656	41.46
630.989	41.41
631.322	41.42
631.655	41.36
631.987	41.39
632.32	41.41
632.653	41.37
632.986	41.33
633.318	41.49
633.651	41.52
633.984	41.55
634.316	41.6
634.649	41.59
634.981	41.66
635.313	41.76
635.646	41.68
635.978	41.68
636.31	41.67
636.643	41.69
636.975	41.71
637.307	41.72
637.639	41.86
637.971	41.98
638.303	42.01
638.635	42.1
638.967	42.19
639.299	42.22
639.631	42.32
639.963	42.37
640.295	42.38
640.626	42.54
640.958	42.57
641.29	42.59
641.621	42.66
641.953	42.7
642.285	42.57
642.616	42.69
642.948	42.59
643.279	42.64
643.61	42.64
643.942	42.68
644.273	42.8
644.604	42.76
644.936	42.74
645.267	42.77
645.598	42.78
645.929	42.69
646.26	42.77
646.591	42.78
646.922	42.74
647.253	42.75
647.584	42.73
647.915	42.77
648.245	42.78
648.576	42.75
648.907	42.66
649.238	42.73
649.568	42.64
649.899	42.65
650.229	42.67
650.56	42.75
650.89	42.84
651.221	42.81
651.551	42.93
651.882	42.98
652.212	42.95
652.542	43.03
652.872	43.11
653.203	43.08
653.533	43.02
653.863	43.11
654.193	43.04
654.523	43
654.853	42.96
655.183	42.98
655.513	43.07
655.843	43.19
656.172	43.13
656.502	43.2
656.832	43.36
657.162	43.35
657.491	43.45
657.821	43.44
658.15	43.48
658.48	43.43
658.809	43.45
659.139	43.5
659.468	43.44
659.798	43.46
660.127	43.39
660.456	43.45
660.785	43.4
661.115	43.45
661.444	43.53
661.773	43.52
662.102	43.51
662.431	43.51
662.76	43.47
663.089	43.57
