Data from BU26843_Reflection_00003.txt Node
Date: Mon Nov 18 16:30:57 EST 2019
User: vgr7
Spectrometer: USB2G7710
Scans to average: 3
Trigger mode: 4
Integration Time (sec): 2.000000E-2
Electric dark correction enabled: true
Boxcar width: 10
XAxis mode: Wavelengths
Number of Pixels in Spectrum: 2048
>>>>>Begin Spectral Data<<<<<
177.721	30.52
178.105	345.61
178.488	-15.29
178.871	94.1
179.254	25.93
179.636	-209.9
180.019	16.28
180.402	-6.9
180.785	36.41
181.168	139.31
181.55	410.23
181.933	201.87
182.316	197.78
182.698	291.69
183.081	295.17
183.463	687.46
183.846	1365.7
184.228	889.64
184.611	702.67
184.993	-765.9
185.376	-405.59
185.758	-360.66
186.14	-309.49
186.522	-342.87
186.904	-283.21
187.287	-542.09
187.669	-173.03
188.051	-289.82
188.433	-118.4
188.815	-77.23
189.197	-80.94
189.579	-38.2
189.961	-40.35
190.342	-31.67
190.724	-26.23
191.106	-37.33
191.488	-53
191.869	-39.76
192.251	-49.91
192.633	-46.64
193.014	-46.58
193.396	-69.94
193.777	-67.57
194.159	-65.95
194.54	-62.8
194.922	-108.18
195.303	-117.27
195.684	-129.5
196.065	-110.05
196.447	-130.8
196.828	-157.96
197.209	-136.61
197.59	-190.26
197.971	-161.08
198.352	-151.07
198.733	-183.4
199.114	-178
199.495	-131.96
199.876	-149.41
200.257	-123.08
200.638	-100.42
201.018	-104.07
201.399	-109.09
201.78	-72.19
202.16	-93.75
202.541	-114.04
202.922	-81.27
203.302	-94.27
203.683	-72.98
204.063	-83.74
204.444	-101.99
204.824	-102.7
205.204	-109.25
205.585	-80.79
205.965	-119.61
206.345	-134.68
206.725	-261.03
207.106	-346.13
207.486	-370.01
207.866	-253.29
208.246	-174.3
208.626	-187.24
209.006	-138.72
209.386	-131.92
209.766	-159.72
210.145	-127.98
210.525	-103.22
210.905	-71.98
211.285	-63.74
211.664	-46.8
212.044	-44.03
212.424	-38.13
212.803	-32.43
213.183	-26.21
213.562	-26.52
213.942	-18.54
214.321	-20.13
214.701	-7.25
215.08	-2.62
215.459	3.75
215.838	1.51
216.218	-1.73
216.597	3.63
216.976	3.93
217.355	9.45
217.734	6.96
218.113	14.03
218.492	15.64
218.871	2.72
219.25	16.37
219.629	7.72
220.008	6.44
220.387	5.93
220.766	3.66
221.144	-9.5
221.523	-20.1
221.902	-19.03
222.28	-26.79
222.659	-29.73
223.037	-28.68
223.416	-31.29
223.794	-25.88
224.173	-32.11
224.551	-20.71
224.929	-26.83
225.308	-30.71
225.686	-31.48
226.064	-30.43
226.442	-30.5
226.821	-25.4
227.199	-22.11
227.577	-22.88
227.955	-25.44
228.333	-24.38
228.711	-19.92
229.089	-11.3
229.467	-9.75
229.845	-9.81
230.222	-7.51
230.6	-8.16
230.978	-6.71
231.356	-4.74
231.733	-6.08
232.111	-5.5
232.488	-5.94
232.866	-3.58
233.243	-1.45
233.621	1.09
233.998	2.51
234.376	1.61
234.753	2.6
235.13	2.21
235.508	2.93
235.885	4.52
236.262	4.94
236.639	4.09
237.016	3.32
237.393	4.14
237.77	5.3
238.147	5.63
238.524	5.84
238.901	6.2
239.278	6.86
239.655	7.52
240.032	7.44
240.409	7.19
240.785	7.25
241.162	6.56
241.539	5.72
241.915	5.31
242.292	5.48
242.668	5.44
243.045	5.21
243.421	4.65
243.798	4.61
244.174	4.49
244.551	4.34
244.927	3.92
245.303	3.81
245.679	3.46
246.056	2.96
246.432	3.01
246.808	2.85
247.184	2.31
247.56	2.13
247.936	2.29
248.312	2.22
248.688	2.09
249.064	2.26
249.44	2.53
249.815	2.5
250.191	2.66
250.567	2.41
250.943	2.3
251.318	2.4
251.694	2.31
252.069	2.17
252.445	2.23
252.82	2.38
253.196	2.23
253.571	2.11
253.947	2.36
254.322	2.42
254.697	2.45
255.073	2.39
255.448	2.41
255.823	2.17
256.198	2.4
256.573	2.5
256.948	2.57
257.323	2.62
257.698	2.82
258.073	2.5
258.448	2.62
258.823	2.64
259.198	2.67
259.573	2.67
259.948	2.72
260.322	2.66
260.697	2.6
261.072	2.54
261.446	2.7
261.821	2.64
262.195	2.72
262.57	2.71
262.944	2.91
263.319	2.81
263.693	2.68
264.067	2.69
264.442	2.66
264.816	2.32
265.19	2.26
265.564	2.03
265.938	2.12
266.313	2
266.687	1.84
267.061	2.05
267.435	2.09
267.809	2.09
268.183	2.2
268.556	2.26
268.93	2.32
269.304	2.21
269.678	2.38
270.051	2.43
270.425	2.35
270.799	2.22
271.172	2.43
271.546	2.44
271.919	2.26
272.293	2.1
272.666	2.4
273.04	2.48
273.413	2.48
273.787	2.53
274.16	2.53
274.533	2.78
274.906	2.66
275.279	2.55
275.653	2.55
276.026	2.6
276.399	2.46
276.772	2.53
277.145	2.45
277.518	2.46
277.891	2.33
278.263	2.45
278.636	2.48
279.009	2.33
279.382	2.54
279.755	2.79
280.127	3.14
280.5	3.09
280.872	3.02
281.245	3
281.617	3.09
281.99	3.27
282.362	3.27
282.735	3.19
283.107	3.27
283.479	3.31
283.852	3.2
284.224	3.35
284.596	3.36
284.968	3.49
285.34	3.5
285.713	3.62
286.085	3.67
286.457	3.7
286.829	3.62
287.201	3.59
287.572	3.55
287.944	3.37
288.316	3.39
288.688	3.31
289.06	3.29
289.431	3.27
289.803	3.31
290.175	3.27
290.546	3.48
290.918	3.47
291.289	3.38
291.661	3.49
292.032	3.58
292.403	3.61
292.775	3.65
293.146	3.56
293.517	3.44
293.889	3.41
294.26	3.54
294.631	3.66
295.002	3.55
295.373	3.51
295.744	3.62
296.115	3.58
296.486	3.55
296.857	3.56
297.228	3.54
297.599	3.42
297.97	3.45
298.34	3.34
298.711	3.39
299.082	3.41
299.452	3.38
299.823	3.23
300.194	3.28
300.564	3.24
300.935	3.33
301.305	3.26
301.676	3.26
302.046	3.17
302.416	3.35
302.787	3.44
303.157	3.41
303.527	3.35
303.897	3.34
304.267	3.5
304.637	3.48
305.008	3.46
305.378	3.57
305.748	3.67
306.117	3.63
306.487	3.56
306.857	3.7
307.227	3.57
307.597	3.63
307.967	3.5
308.336	3.44
308.706	3.43
309.076	3.51
309.445	3.39
309.815	3.36
310.184	3.13
310.554	3.11
310.923	3.14
311.293	3.04
311.662	3.08
312.031	2.98
312.401	3.14
312.77	3.28
313.139	3.31
313.508	3.11
313.877	3.2
314.246	3.22
314.616	3.12
314.985	3.2
315.353	3.19
315.722	3.27
316.091	3.2
316.46	3.2
316.829	3.19
317.198	3.36
317.567	3.43
317.935	3.42
318.304	3.54
318.672	3.43
319.041	3.63
319.41	3.64
319.778	3.78
320.147	3.57
320.515	3.49
320.883	3.43
321.252	3.56
321.62	3.5
321.988	3.54
322.357	3.59
322.725	3.52
323.093	3.54
323.461	3.49
323.829	3.65
324.197	3.64
324.565	3.58
324.933	3.59
325.301	3.58
325.669	3.63
326.037	3.48
326.405	3.65
326.772	3.67
327.14	3.7
327.508	3.61
327.875	3.51
328.243	3.53
328.61	3.42
328.978	3.46
329.346	3.53
329.713	3.39
330.08	3.39
330.448	3.42
330.815	3.3
331.182	3.35
331.55	3.32
331.917	3.3
332.284	3.41
332.651	3.4
333.018	3.4
333.385	3.43
333.752	3.53
334.119	3.39
334.486	3.27
334.853	3.27
335.22	3.27
335.587	3.45
335.954	3.44
336.32	3.48
336.687	3.45
337.054	3.41
337.42	3.54
337.787	3.56
338.153	3.63
338.52	3.8
338.886	3.68
339.253	3.71
339.619	3.7
339.986	3.56
340.352	3.61
340.718	3.54
341.084	3.47
341.451	3.4
341.817	3.47
342.183	3.55
342.549	3.4
342.915	3.5
343.281	3.53
343.647	3.48
344.013	3.54
344.379	3.43
344.745	3.37
345.11	3.3
345.476	3.22
345.842	3.15
346.208	3.12
346.573	3.18
346.939	3.18
347.304	3.17
347.67	3.21
348.035	3.02
348.401	3.11
348.766	3.13
349.132	3.21
349.497	3.09
349.862	3.06
350.228	3.17
350.593	2.99
350.958	2.85
351.323	2.86
351.688	2.79
352.053	2.91
352.418	2.97
352.783	3.01
353.148	3.04
353.513	3.1
353.878	3.12
354.243	3.16
354.608	3.15
354.972	3.17
355.337	3.29
355.702	3.43
356.066	3.42
356.431	3.37
356.795	3.38
357.16	3.47
357.524	3.41
357.889	3.4
358.253	3.47
358.618	3.62
358.982	3.58
359.346	3.57
359.71	3.54
360.075	3.52
360.439	3.56
360.803	3.55
361.167	3.45
361.531	3.38
361.895	3.37
362.259	3.39
362.623	3.37
362.987	3.3
363.351	3.24
363.714	3.24
364.078	3.28
364.442	3.23
364.806	3.18
365.169	3.22
365.533	3.23
365.896	3.25
366.26	3.18
366.623	3.18
366.987	3.2
367.35	3.17
367.714	3.15
368.077	3.05
368.44	3.1
368.803	3.14
369.167	3.16
369.53	3.17
369.893	3.15
370.256	3.14
370.619	3.15
370.982	3.17
371.345	3.1
371.708	3.1
372.071	3.09
372.434	3.1
372.797	3.14
373.159	3.14
373.522	3.16
373.885	3.13
374.247	3.15
374.61	3.23
374.973	3.2
375.335	3.21
375.698	3.22
376.06	3.16
376.423	3.22
376.785	3.3
377.147	3.29
377.51	3.29
377.872	3.35
378.234	3.36
378.596	3.37
378.958	3.41
379.321	3.38
379.683	3.43
380.045	3.48
380.407	3.46
380.769	3.45
381.13	3.42
381.492	3.43
381.854	3.43
382.216	3.37
382.578	3.41
382.939	3.4
383.301	3.41
383.663	3.4
384.024	3.37
384.386	3.31
384.747	3.31
385.109	3.28
385.47	3.21
385.832	3.22
386.193	3.21
386.554	3.18
386.916	3.22
387.277	3.23
387.638	3.2
387.999	3.16
388.36	3.17
388.721	3.19
389.082	3.2
389.443	3.2
389.804	3.19
390.165	3.17
390.526	3.19
390.887	3.18
391.248	3.21
391.609	3.22
391.969	3.23
392.33	3.23
392.691	3.27
393.051	3.3
393.412	3.29
393.772	3.28
394.133	3.31
394.493	3.27
394.854	3.27
395.214	3.31
395.574	3.33
395.935	3.31
396.295	3.34
396.655	3.32
397.015	3.33
397.376	3.39
397.736	3.4
398.096	3.4
398.456	3.41
398.816	3.41
399.176	3.42
399.535	3.41
399.895	3.39
400.255	3.41
400.615	3.41
400.975	3.42
401.334	3.43
401.694	3.42
402.054	3.44
402.413	3.41
402.773	3.35
403.132	3.35
403.492	3.35
403.851	3.32
404.211	3.33
404.57	3.31
404.929	3.29
405.288	3.29
405.648	3.29
406.007	3.31
406.366	3.33
406.725	3.35
407.084	3.37
407.443	3.38
407.802	3.37
408.161	3.37
408.52	3.35
408.879	3.35
409.238	3.37
409.596	3.38
409.955	3.4
410.314	3.46
410.673	3.47
411.031	3.47
411.39	3.48
411.748	3.5
412.107	3.52
412.465	3.47
412.824	3.45
413.182	3.45
413.54	3.45
413.899	3.45
414.257	3.44
414.615	3.44
414.974	3.44
415.332	3.41
415.69	3.41
416.048	3.4
416.406	3.4
416.764	3.41
417.122	3.42
417.48	3.39
417.838	3.38
418.195	3.37
418.553	3.38
418.911	3.38
419.269	3.39
419.626	3.39
419.984	3.4
420.342	3.41
420.699	3.42
421.057	3.41
421.414	3.41
421.772	3.41
422.129	3.41
422.486	3.41
422.844	3.42
423.201	3.43
423.558	3.43
423.915	3.44
424.273	3.43
424.63	3.42
424.987	3.44
425.344	3.44
425.701	3.45
426.058	3.45
426.415	3.46
426.772	3.44
427.128	3.41
427.485	3.42
427.842	3.42
428.199	3.41
428.555	3.41
428.912	3.42
429.269	3.41
429.625	3.38
429.982	3.4
430.338	3.4
430.695	3.39
431.051	3.37
431.407	3.38
431.764	3.38
432.12	3.38
432.476	3.38
432.832	3.36
433.189	3.39
433.545	3.38
433.901	3.38
434.257	3.38
434.613	3.4
434.969	3.4
435.325	3.39
435.681	3.4
436.036	3.42
436.392	3.42
436.748	3.42
437.104	3.44
437.459	3.43
437.815	3.43
438.171	3.43
438.526	3.45
438.882	3.45
439.237	3.45
439.593	3.44
439.948	3.45
440.304	3.46
440.659	3.45
441.014	3.47
441.369	3.46
441.725	3.46
442.08	3.46
442.435	3.47
442.79	3.47
443.145	3.48
443.5	3.48
443.855	3.48
444.21	3.48
444.565	3.49
444.92	3.51
445.275	3.49
445.629	3.48
445.984	3.48
446.339	3.47
446.693	3.47
447.048	3.48
447.403	3.47
447.757	3.46
448.112	3.45
448.466	3.45
448.82	3.46
449.175	3.47
449.529	3.48
449.883	3.47
450.238	3.46
450.592	3.47
450.946	3.45
451.3	3.45
451.654	3.46
452.008	3.45
452.362	3.42
452.716	3.43
453.07	3.45
453.424	3.46
453.778	3.46
454.132	3.46
454.486	3.46
454.839	3.46
455.193	3.45
455.547	3.46
455.9	3.44
456.254	3.44
456.607	3.42
456.961	3.4
457.314	3.4
457.668	3.4
458.021	3.39
458.375	3.4
458.728	3.39
459.081	3.4
459.434	3.38
459.787	3.39
460.141	3.4
460.494	3.4
460.847	3.41
461.2	3.42
461.553	3.42
461.906	3.42
462.259	3.43
462.611	3.42
462.964	3.44
463.317	3.44
463.67	3.44
464.022	3.44
464.375	3.44
464.728	3.44
465.08	3.44
465.433	3.45
465.785	3.44
466.138	3.44
466.49	3.43
466.843	3.46
467.195	3.47
467.547	3.5
467.899	3.49
468.252	3.47
468.604	3.48
468.956	3.48
469.308	3.49
469.66	3.49
470.012	3.51
470.364	3.51
470.716	3.5
471.068	3.52
471.42	3.54
471.772	3.58
472.123	3.62
472.475	3.62
472.827	3.63
473.178	3.65
473.53	3.67
473.882	3.68
474.233	3.68
474.585	3.68
474.936	3.65
475.288	3.66
475.639	3.67
475.99	3.66
476.342	3.67
476.693	3.65
477.044	3.66
477.395	3.65
477.746	3.64
478.097	3.63
478.448	3.63
478.8	3.63
479.15	3.61
479.501	3.58
479.852	3.57
480.203	3.58
480.554	3.58
480.905	3.58
481.255	3.59
481.606	3.59
481.957	3.6
482.307	3.6
482.658	3.59
483.009	3.59
483.359	3.59
483.709	3.59
484.06	3.59
484.41	3.59
484.761	3.59
485.111	3.6
485.461	3.61
485.811	3.61
486.162	3.61
486.512	3.61
486.862	3.62
487.212	3.62
487.562	3.62
487.912	3.62
488.262	3.61
488.612	3.6
488.961	3.59
489.311	3.59
489.661	3.61
490.011	3.62
490.36	3.61
490.71	3.62
491.06	3.62
491.409	3.63
491.759	3.61
492.108	3.63
492.458	3.61
492.807	3.62
493.157	3.6
493.506	3.61
493.855	3.61
494.204	3.62
494.554	3.62
494.903	3.62
495.252	3.63
495.601	3.66
495.95	3.68
496.299	3.68
496.648	3.67
496.997	3.67
497.346	3.67
497.695	3.68
498.043	3.68
498.392	3.69
498.741	3.7
499.09	3.69
499.438	3.71
499.787	3.72
500.135	3.72
500.484	3.75
500.832	3.75
501.181	3.75
501.529	3.74
501.878	3.75
502.226	3.75
502.574	3.75
502.923	3.73
503.271	3.73
503.619	3.74
503.967	3.77
504.315	3.75
504.663	3.76
505.011	3.78
505.359	3.77
505.707	3.77
506.055	3.78
506.403	3.81
506.751	3.78
507.098	3.79
507.446	3.81
507.794	3.8
508.141	3.82
508.489	3.83
508.837	3.86
509.184	3.87
509.531	3.89
509.879	3.9
510.226	3.93
510.574	3.95
510.921	3.95
511.268	3.95
511.616	3.97
511.963	3.98
512.31	3.99
512.657	4
513.004	4.01
513.351	4.03
513.698	4.04
514.045	4.06
514.392	4.08
514.739	4.07
515.086	4.09
515.432	4.08
515.779	4.06
516.126	4.07
516.473	4.08
516.819	4.1
517.166	4.11
517.512	4.09
517.859	4.09
518.205	4.1
518.552	4.11
518.898	4.11
519.245	4.1
519.591	4.1
519.937	4.08
520.283	4.08
520.629	4.07
520.976	4.08
521.322	4.08
521.668	4.07
522.014	4.08
522.36	4.07
522.706	4.09
523.052	4.12
523.398	4.13
523.743	4.13
524.089	4.13
524.435	4.11
524.781	4.13
525.126	4.13
525.472	4.12
525.817	4.12
526.163	4.13
526.509	4.14
526.854	4.14
527.199	4.16
527.545	4.17
527.89	4.16
528.235	4.16
528.581	4.16
528.926	4.15
529.271	4.16
529.616	4.16
529.961	4.16
530.306	4.16
530.651	4.16
530.996	4.16
531.341	4.15
531.686	4.16
532.031	4.16
532.376	4.17
532.721	4.17
533.065	4.17
533.41	4.17
533.755	4.16
534.099	4.16
534.444	4.17
534.788	4.17
535.133	4.18
535.477	4.19
535.822	4.19
536.166	4.2
536.51	4.2
536.855	4.21
537.199	4.21
537.543	4.22
537.887	4.22
538.231	4.22
538.576	4.25
538.92	4.24
539.264	4.24
539.608	4.24
539.951	4.24
540.295	4.24
540.639	4.26
540.983	4.27
541.327	4.26
541.671	4.26
542.014	4.25
542.358	4.26
542.701	4.26
543.045	4.26
543.389	4.25
543.732	4.26
544.075	4.27
544.419	4.26
544.762	4.25
545.105	4.24
545.449	4.24
545.792	4.24
546.135	4.24
546.478	4.25
546.821	4.24
547.165	4.24
547.508	4.25
547.851	4.26
548.194	4.26
548.536	4.27
548.879	4.28
549.222	4.28
549.565	4.31
549.908	4.32
550.25	4.34
550.593	4.35
550.936	4.36
551.278	4.37
551.621	4.38
551.963	4.42
552.306	4.42
552.648	4.43
552.991	4.45
553.333	4.46
553.675	4.45
554.017	4.44
554.36	4.44
554.702	4.46
555.044	4.43
555.386	4.44
555.728	4.44
556.07	4.47
556.412	4.45
556.754	4.43
557.096	4.41
557.438	4.4
557.78	4.4
558.121	4.44
558.463	4.43
558.805	4.43
559.147	4.42
559.488	4.44
559.83	4.45
560.171	4.39
560.513	4.43
560.854	4.45
561.196	4.47
561.537	4.47
561.878	4.45
562.22	4.48
562.561	4.46
562.902	4.44
563.243	4.43
563.584	4.46
563.925	4.48
564.266	4.45
564.607	4.44
564.948	4.44
565.289	4.41
565.63	4.41
565.971	4.4
566.312	4.38
566.653	4.38
566.993	4.39
567.334	4.43
567.675	4.42
568.015	4.44
568.356	4.44
568.696	4.47
569.037	4.48
569.377	4.46
569.718	4.48
570.058	4.51
570.398	4.52
570.739	4.51
571.079	4.51
571.419	4.55
571.759	4.57
572.099	4.55
572.439	4.56
572.779	4.57
573.119	4.59
573.459	4.61
573.799	4.64
574.139	4.61
574.479	4.6
574.819	4.59
575.158	4.58
575.498	4.57
575.838	4.57
576.177	4.57
576.517	4.58
576.856	4.6
577.196	4.57
577.535	4.59
577.875	4.62
578.214	4.62
578.553	4.62
578.893	4.6
579.232	4.62
579.571	4.61
579.91	4.55
580.25	4.58
580.589	4.59
580.928	4.56
581.267	4.61
581.606	4.64
581.945	4.62
582.283	4.62
582.622	4.6
582.961	4.59
583.3	4.61
583.639	4.62
583.977	4.63
584.316	4.62
584.654	4.59
584.993	4.56
585.332	4.56
585.67	4.57
586.008	4.59
586.347	4.57
586.685	4.59
587.024	4.64
587.362	4.61
587.7	4.59
588.038	4.59
588.376	4.56
588.715	4.52
589.053	4.59
589.391	4.63
589.729	4.67
590.067	4.66
590.404	4.65
590.742	4.65
591.08	4.62
591.418	4.69
591.756	4.7
592.093	4.72
592.431	4.71
592.769	4.7
593.106	4.7
593.444	4.71
593.781	4.7
594.119	4.72
594.456	4.74
594.793	4.78
595.131	4.74
595.468	4.76
595.805	4.79
596.143	4.75
596.48	4.74
596.817	4.74
597.154	4.74
597.491	4.71
597.828	4.7
598.165	4.7
598.502	4.64
598.839	4.63
599.176	4.6
599.512	4.63
599.849	4.65
600.186	4.66
600.523	4.7
600.859	4.76
601.196	4.77
601.532	4.77
601.869	4.73
602.205	4.75
602.542	4.79
602.878	4.78
603.215	4.79
603.551	4.79
603.887	4.81
604.223	4.82
604.56	4.87
604.896	4.87
605.232	4.91
605.568	4.92
605.904	4.91
606.24	4.94
606.576	4.92
606.912	4.92
607.248	4.91
607.583	4.86
607.919	4.84
608.255	4.8
608.591	4.81
608.926	4.83
609.262	4.84
609.597	4.84
609.933	4.87
610.268	4.82
610.604	4.82
610.939	4.81
611.275	4.84
611.61	4.85
611.945	4.84
612.281	4.84
612.616	4.87
612.951	4.9
613.286	4.95
613.621	4.98
613.956	4.97
614.291	5.01
614.626	5.08
614.961	5.06
615.296	5.07
615.631	5.11
615.966	5.13
616.3	5.1
616.635	5.07
616.97	5.03
617.304	5.03
617.639	5.03
617.973	5.01
618.308	4.97
618.642	4.91
618.977	4.9
619.311	4.91
619.646	4.88
619.98	4.91
620.314	4.88
620.648	4.84
620.983	4.89
621.317	4.9
621.651	4.84
621.985	4.83
622.319	4.83
622.653	4.81
622.987	4.84
623.321	4.88
623.655	4.91
623.988	4.98
624.322	5.02
624.656	5.05
624.99	5.09
625.323	5.13
625.657	5.16
625.99	5.2
626.324	5.18
626.657	5.18
626.991	5.15
627.324	5.15
627.658	5.18
627.991	5.18
628.324	5.2
628.657	5.23
628.991	5.27
629.324	5.3
629.657	5.32
629.99	5.34
630.323	5.31
630.656	5.32
630.989	5.32
631.322	5.33
631.655	5.32
631.987	5.36
632.32	5.34
632.653	5.35
632.986	5.3
633.318	5.32
633.651	5.37
633.984	5.38
634.316	5.34
634.649	5.32
634.981	5.28
635.313	5.22
635.646	5.28
635.978	5.26
636.31	5.28
636.643	5.24
636.975	5.23
637.307	5.26
637.639	5.29
637.971	5.27
638.303	5.3
638.635	5.29
638.967	5.23
639.299	5.28
639.631	5.3
639.963	5.29
640.295	5.25
640.626	5.19
640.958	5.25
641.29	5.25
641.621	5.27
641.953	5.27
642.285	5.3
642.616	5.29
642.948	5.31
643.279	5.27
643.61	5.27
643.942	5.23
644.273	5.3
644.604	5.26
644.936	5.2
645.267	5.22
645.598	5.21
645.929	5.18
646.26	5.2
646.591	5.23
646.922	5.26
647.253	5.3
647.584	5.29
647.915	5.25
648.245	5.28
648.576	5.25
648.907	5.32
649.238	5.33
649.568	5.27
649.899	5.28
650.229	5.31
650.56	5.32
650.89	5.31
651.221	5.27
651.551	5.22
651.882	5.3
652.212	5.28
652.542	5.29
652.872	5.33
653.203	5.28
653.533	5.33
653.863	5.38
654.193	5.33
654.523	5.36
654.853	5.35
655.183	5.33
655.513	5.35
655.843	5.33
656.172	5.37
656.502	5.39
656.832	5.38
657.162	5.42
657.491	5.45
657.821	5.44
658.15	5.45
658.48	5.51
658.809	5.48
659.139	5.42
659.468	5.41
659.798	5.39
660.127	5.46
660.456	5.42
660.785	5.41
661.115	5.49
661.444	5.53
661.773	5.59
662.102	5.67
662.431	5.72
662.76	5.74
663.089	5.7
663.418	5.72
663.747	5.71
664.076	5.65
664.404	5.69
664.733	5.77
665.062	5.78
665.39	5.79
665.719	5.81
666.048	5.88
666.376	5.89
666.705	5.93
667.033	5.89
667.362	5.85
667.69	5.75
668.018	5.75
668.347	5.71
668.675	5.66
669.003	5.66
669.331	5.67
669.659	5.64
669.987	5.61
670.315	5.6
670.643	5.65
670.971	5.64
671.299	5.59
671.627	5.69
671.955	5.69
672.283	5.71
672.61	5.73
672.938	5.67
673.266	5.71
673.593	5.78
673.921	5.79
674.249	5.77
674.576	5.82
674.904	5.86
675.231	5.77
675.558	5.78
675.886	5.76
676.213	5.73
676.54	5.79
676.867	5.84
