Data from BU26845_Reflection_00008.txt Node
Date: Mon Nov 18 16:28:04 EST 2019
User: vgr7
Spectrometer: USB2G7710
Scans to average: 3
Trigger mode: 4
Integration Time (sec): 2.000000E-2
Electric dark correction enabled: true
Boxcar width: 10
XAxis mode: Wavelengths
Number of Pixels in Spectrum: 2048
>>>>>Begin Spectral Data<<<<<
177.721	19.23
178.105	-2.17
178.488	51.47
178.871	116.73
179.254	106.68
179.636	-138.94
180.019	90.9
180.402	164
180.785	414.69
181.168	-462.5
181.55	-1198.51
181.933	161.79
182.316	220.95
182.698	303.24
183.081	246.54
183.463	266.95
183.846	159.51
184.228	203.45
184.611	107.47
184.993	200.26
185.376	93.23
185.758	-15.56
186.14	19.44
186.522	-5.08
186.904	4.16
187.287	-16.62
187.669	-11.17
188.051	-15.47
188.433	5.29
188.815	10.81
189.197	5.98
189.579	20.64
189.961	23.97
190.342	26.72
190.724	24.09
191.106	25.53
191.488	16.53
191.869	9.49
192.251	17.41
192.633	16.07
193.014	15.91
193.396	16.68
193.777	28.51
194.159	21.25
194.54	24.18
194.922	18.83
195.303	23.67
195.684	40.47
196.065	40.49
196.447	37.02
196.828	36.88
197.209	43.25
197.59	43.68
197.971	44.61
198.352	39.61
198.733	44.96
199.114	45.71
199.495	42.3
199.876	56
200.257	50.01
200.638	55.58
201.018	33.24
201.399	23.14
201.78	17.12
202.16	23.14
202.541	16.33
202.922	17.37
203.302	23.92
203.683	-1.14
204.063	-7.25
204.444	0.22
204.824	-16.96
205.204	-11.83
205.585	-13.87
205.965	-8.8
206.345	-9.27
206.725	-18.53
207.106	-46.22
207.486	-49.7
207.866	-56.84
208.246	-75.08
208.626	-75.82
209.006	-55.82
209.386	-57.74
209.766	-72.84
210.145	-71.9
210.525	-49.79
210.905	-38.32
211.285	-39.55
211.664	-31.01
212.044	-23.15
212.424	-31.81
212.803	-30.39
213.183	-32.65
213.562	-24.86
213.942	-21.04
214.321	-15.3
214.701	-14.03
215.08	-17.28
215.459	-7.19
215.838	-7.39
216.218	2.25
216.597	18.97
216.976	16.76
217.355	14.84
217.734	10.07
218.113	22.05
218.492	28.71
218.871	26.98
219.25	17.19
219.629	16.61
220.008	15.62
220.387	17.56
220.766	24.11
221.144	24.1
221.523	20.75
221.902	30.99
222.28	16.5
222.659	24.41
223.037	45.11
223.416	48.87
223.794	63.09
224.173	41.88
224.551	37.03
224.929	30.74
225.308	29.39
225.686	30.71
226.064	20.06
226.442	8.84
226.821	9.35
227.199	11.4
227.577	10.78
227.955	7.74
228.333	10.96
228.711	8.34
229.089	12.82
229.467	9.44
229.845	4.9
230.222	5.11
230.6	3.42
230.978	-0.47
231.356	0.45
231.733	-0.57
232.111	2.22
232.488	0.67
232.866	2.11
233.243	2.93
233.621	2.77
233.998	5.73
234.376	6.2
234.753	5.77
235.13	4.42
235.508	5.01
235.885	4.99
236.262	2.58
236.639	3.72
237.016	2.55
237.393	5.16
237.77	5.44
238.147	6.37
238.524	6.2
238.901	7.23
239.278	6.11
239.655	6.7
240.032	6.46
240.409	6.3
240.785	5.52
241.162	4.91
241.539	5.08
241.915	4.71
242.292	4.53
242.668	4.26
243.045	4.61
243.421	4.53
243.798	4.38
244.174	4.35
244.551	4.57
244.927	4.11
245.303	3.88
245.679	3.85
246.056	3.7
246.432	3.71
246.808	3.84
247.184	3.56
247.56	3.36
247.936	3.05
248.312	2.97
248.688	2.97
249.064	3.17
249.44	2.94
249.815	2.81
250.191	3
250.567	3.27
250.943	3
251.318	2.88
251.694	2.84
252.069	2.84
252.445	2.51
252.82	2.77
253.196	2.46
253.571	2.61
253.947	2.58
254.322	2.72
254.697	2.09
255.073	2.28
255.448	2.17
255.823	2.56
256.198	2.44
256.573	2.7
256.948	2.72
257.323	2.93
257.698	3.01
258.073	3
258.448	2.81
258.823	2.91
259.198	2.8
259.573	2.81
259.948	2.91
260.322	2.82
260.697	2.86
261.072	2.87
261.446	2.86
261.821	2.95
262.195	2.94
262.57	3.04
262.944	3.06
263.319	2.99
263.693	3
264.067	2.99
264.442	3.04
264.816	2.91
265.19	2.9
265.564	2.95
265.938	2.94
266.313	3.01
266.687	3.1
267.061	3.34
267.435	3.53
267.809	3.31
268.183	3.35
268.556	3.17
268.93	3.31
269.304	3.29
269.678	3.23
270.051	3.19
270.425	3.11
270.799	3.09
271.172	3.12
271.546	3.09
271.919	3.27
272.293	3.06
272.666	3.17
273.04	3.09
273.413	3
273.787	2.96
274.16	2.89
274.533	2.79
274.906	2.48
275.279	2.45
275.653	2.54
276.026	2.62
276.399	2.53
276.772	2.65
277.145	2.62
277.518	2.58
277.891	2.49
278.263	2.41
278.636	2.56
279.009	2.45
279.382	2.46
279.755	2.46
280.127	2.74
280.5	2.71
280.872	2.69
281.245	2.71
281.617	2.86
281.99	2.95
282.362	3.11
282.735	3.19
283.107	3.14
283.479	3.12
283.852	3.12
284.224	3.29
284.596	3.24
284.968	3.28
285.34	3.41
285.713	3.37
286.085	3.61
286.457	3.69
286.829	3.83
287.201	3.81
287.572	3.61
287.944	3.55
288.316	3.57
288.688	3.6
289.06	3.58
289.431	3.35
289.803	3.4
290.175	3.2
290.546	3.34
290.918	3.18
291.289	3.25
291.661	3.35
292.032	3.44
292.403	3.46
292.775	3.5
293.146	3.42
293.517	3.47
293.889	3.48
294.26	3.38
294.631	3.35
295.002	3.39
295.373	3.47
295.744	3.54
296.115	3.42
296.486	3.37
296.857	3.4
297.228	3.55
297.599	3.47
297.97	3.64
298.34	3.62
298.711	3.77
299.082	3.71
299.452	3.65
299.823	3.85
300.194	3.81
300.564	3.71
300.935	3.77
301.305	3.85
301.676	3.85
302.046	3.93
302.416	4.01
302.787	3.93
303.157	4.05
303.527	3.88
303.897	4.01
304.267	4.23
304.637	4.38
305.008	4.44
305.378	4.51
305.748	4.45
306.117	4.48
306.487	4.51
306.857	4.66
307.227	4.72
307.597	4.32
307.967	4.26
308.336	4.32
308.706	4.3
309.076	4.34
309.445	4.31
309.815	4.2
310.184	4.19
310.554	4.28
310.923	4.39
311.293	4.55
311.662	4.64
312.031	4.58
312.401	4.52
312.77	4.64
313.139	4.67
313.508	4.7
313.877	4.74
314.246	4.84
314.616	4.83
314.985	4.87
315.353	5.16
315.722	5.37
316.091	5.51
316.46	5.48
316.829	5.5
317.198	5.61
317.567	5.76
317.935	5.8
318.304	5.92
318.672	5.81
319.041	5.91
319.41	5.87
319.778	5.96
320.147	5.92
320.515	5.7
320.883	5.67
321.252	5.84
321.62	5.77
321.988	5.76
322.357	5.82
322.725	5.74
323.093	5.59
323.461	5.53
323.829	5.54
324.197	5.6
324.565	5.65
324.933	5.73
325.301	5.75
325.669	5.77
326.037	5.72
326.405	5.77
326.772	5.76
327.14	5.82
327.508	5.88
327.875	5.93
328.243	6.12
328.61	6.17
328.978	6.31
329.346	6.43
329.713	6.3
330.08	6.28
330.448	6.46
330.815	6.45
331.182	6.36
331.55	6.37
331.917	6.47
332.284	6.58
332.651	6.48
333.018	6.52
333.385	6.56
333.752	6.56
334.119	6.66
334.486	6.5
334.853	6.5
335.22	6.46
335.587	6.5
335.954	6.47
336.32	6.58
336.687	6.55
337.054	6.53
337.42	6.69
337.787	6.69
338.153	6.65
338.52	6.79
338.886	6.82
339.253	6.84
339.619	6.83
339.986	6.71
340.352	6.88
340.718	6.94
341.084	6.93
341.451	7.1
341.817	7.06
342.183	7.13
342.549	7.19
342.915	7.22
343.281	7.29
343.647	7.31
344.013	7.42
344.379	7.36
344.745	7.4
345.11	7.37
345.476	7.49
345.842	7.51
346.208	7.54
346.573	7.59
346.939	7.63
347.304	7.7
347.67	7.73
348.035	7.69
348.401	7.72
348.766	7.81
349.132	7.75
349.497	7.83
349.862	7.92
350.228	7.88
350.593	7.82
350.958	7.8
351.323	7.79
351.688	7.7
352.053	7.7
352.418	7.73
352.783	7.81
353.148	7.76
353.513	7.77
353.878	7.76
354.243	7.87
354.608	7.78
354.972	7.75
355.337	7.82
355.702	7.82
356.066	7.78
356.431	7.71
356.795	7.73
357.16	7.67
357.524	7.65
357.889	7.57
358.253	7.64
358.618	7.63
358.982	7.57
359.346	7.52
359.71	7.5
360.075	7.51
360.439	7.5
360.803	7.49
361.167	7.5
361.531	7.47
361.895	7.36
362.259	7.34
362.623	7.34
362.987	7.3
363.351	7.27
363.714	7.29
364.078	7.31
364.442	7.18
364.806	7.17
365.169	7.15
365.533	7.17
365.896	7.1
366.26	7.06
366.623	7.08
366.987	7.06
367.35	7.05
367.714	6.95
368.077	6.86
368.44	6.82
368.803	6.67
369.167	6.62
369.53	6.64
369.893	6.64
370.256	6.6
370.619	6.52
370.982	6.5
371.345	6.41
371.708	6.42
372.071	6.43
372.434	6.4
372.797	6.38
373.159	6.34
373.522	6.32
373.885	6.28
374.247	6.19
374.61	6.18
374.973	6.06
375.335	6
375.698	5.97
376.06	5.93
376.423	5.97
376.785	5.97
377.147	5.9
377.51	5.86
377.872	5.86
378.234	5.84
378.596	5.81
378.958	5.74
379.321	5.72
379.683	5.68
380.045	5.58
380.407	5.53
380.769	5.5
381.13	5.48
381.492	5.47
381.854	5.44
382.216	5.33
382.578	5.34
382.939	5.34
383.301	5.32
383.663	5.22
384.024	5.17
384.386	5.14
384.747	5.16
385.109	5.12
385.47	5.02
385.832	5.01
386.193	4.98
386.554	4.98
386.916	4.91
387.277	4.91
387.638	4.94
387.999	4.89
388.36	4.84
388.721	4.82
389.082	4.78
389.443	4.75
389.804	4.76
390.165	4.71
390.526	4.68
390.887	4.68
391.248	4.71
391.609	4.66
391.969	4.6
392.33	4.55
392.691	4.54
393.051	4.51
393.412	4.46
393.772	4.39
394.133	4.32
394.493	4.3
394.854	4.27
395.214	4.24
395.574	4.22
395.935	4.21
396.295	4.16
396.655	4.11
397.015	4.09
397.376	4.05
397.736	4.06
398.096	4.03
398.456	3.97
398.816	3.93
399.176	3.9
399.535	3.86
399.895	3.82
400.255	3.81
400.615	3.79
400.975	3.75
401.334	3.71
401.694	3.71
402.054	3.67
402.413	3.64
402.773	3.6
403.132	3.58
403.492	3.56
403.851	3.56
404.211	3.58
404.57	3.51
404.929	3.5
405.288	3.48
405.648	3.49
406.007	3.48
406.366	3.46
406.725	3.5
407.084	3.51
407.443	3.52
407.802	3.49
408.161	3.5
408.52	3.5
408.879	3.53
409.238	3.54
409.596	3.55
409.955	3.54
410.314	3.57
410.673	3.56
411.031	3.57
411.39	3.57
411.748	3.55
412.107	3.58
412.465	3.59
412.824	3.56
413.182	3.52
413.54	3.51
413.899	3.5
414.257	3.45
414.615	3.44
414.974	3.41
415.332	3.4
415.69	3.37
416.048	3.36
416.406	3.36
416.764	3.33
417.122	3.33
417.48	3.29
417.838	3.26
418.195	3.27
418.553	3.27
418.911	3.24
419.269	3.24
419.626	3.22
419.984	3.2
420.342	3.22
420.699	3.21
421.057	3.21
421.414	3.19
421.772	3.18
422.129	3.18
422.486	3.18
422.844	3.17
423.201	3.16
423.558	3.16
423.915	3.14
424.273	3.13
424.63	3.11
424.987	3.13
425.344	3.12
425.701	3.1
426.058	3.09
426.415	3.1
426.772	3.07
427.128	3.06
427.485	3.05
427.842	3.04
428.199	3.05
428.555	3.05
428.912	3.04
429.269	3.04
429.625	3.02
429.982	3.01
430.338	3
430.695	3
431.051	2.98
431.407	2.97
431.764	2.98
432.12	2.97
432.476	2.98
432.832	2.95
433.189	2.97
433.545	2.95
433.901	2.96
434.257	2.98
434.613	3
434.969	3
435.325	2.98
435.681	2.95
436.036	2.98
436.392	2.99
436.748	3.01
437.104	2.99
437.459	2.99
437.815	2.99
438.171	2.99
438.526	3.02
438.882	3.03
439.237	3.03
439.593	3.04
439.948	3.02
440.304	3.02
440.659	3
441.014	3.01
441.369	3
441.725	2.98
442.08	2.98
442.435	2.98
442.79	2.98
443.145	2.97
443.5	2.94
443.855	2.93
444.21	2.92
444.565	2.94
444.92	2.94
445.275	2.93
445.629	2.93
445.984	2.91
446.339	2.89
446.693	2.88
447.048	2.88
447.403	2.87
447.757	2.85
448.112	2.85
448.466	2.85
448.82	2.84
449.175	2.85
449.529	2.84
449.883	2.82
450.238	2.82
450.592	2.84
450.946	2.83
451.3	2.83
451.654	2.81
452.008	2.8
452.362	2.79
452.716	2.8
453.07	2.81
453.424	2.8
453.778	2.82
454.132	2.82
454.486	2.81
454.839	2.84
455.193	2.85
455.547	2.86
455.9	2.85
456.254	2.86
456.607	2.87
456.961	2.88
457.314	2.88
457.668	2.89
458.021	2.88
458.375	2.89
458.728	2.9
459.081	2.91
459.434	2.91
459.787	2.92
460.141	2.91
460.494	2.91
460.847	2.92
461.2	2.91
461.553	2.91
461.906	2.92
462.259	2.92
462.611	2.95
462.964	2.95
463.317	2.96
463.67	2.96
464.022	2.98
464.375	2.99
464.728	3
465.08	3.01
465.433	3.03
465.785	3.03
466.138	3.04
466.49	3.06
466.843	3.07
467.195	3.08
467.547	3.1
467.899	3.11
468.252	3.12
468.604	3.14
468.956	3.17
469.308	3.17
469.66	3.18
470.012	3.17
470.364	3.18
470.716	3.19
471.068	3.18
471.42	3.17
471.772	3.19
472.123	3.21
472.475	3.23
472.827	3.23
473.178	3.26
473.53	3.27
473.882	3.26
474.233	3.27
474.585	3.27
474.936	3.25
475.288	3.24
475.639	3.23
475.99	3.23
476.342	3.21
476.693	3.19
477.044	3.19
477.395	3.19
477.746	3.18
478.097	3.16
478.448	3.17
478.8	3.15
479.15	3.12
479.501	3.09
479.852	3.07
480.203	3.07
480.554	3.05
480.905	3.03
481.255	3.03
481.606	3.05
481.957	3.05
482.307	3.04
482.658	3.04
483.009	3.04
483.359	3.04
483.709	3.05
484.06	3.06
484.41	3.06
484.761	3.07
485.111	3.07
485.461	3.08
485.811	3.07
486.162	3.07
486.512	3.08
486.862	3.09
487.212	3.1
487.562	3.1
487.912	3.11
488.262	3.12
488.612	3.12
488.961	3.12
489.311	3.14
489.661	3.16
490.011	3.17
490.36	3.18
490.71	3.19
491.06	3.21
491.409	3.22
491.759	3.23
492.108	3.24
492.458	3.25
492.807	3.27
493.157	3.29
493.506	3.32
493.855	3.34
494.204	3.36
494.554	3.39
494.903	3.43
495.252	3.47
495.601	3.51
495.95	3.56
496.299	3.59
496.648	3.61
496.997	3.63
497.346	3.69
497.695	3.75
498.043	3.79
498.392	3.83
498.741	3.86
499.09	3.91
499.438	3.96
499.787	4.03
500.135	4.1
500.484	4.15
500.832	4.22
501.181	4.3
501.529	4.36
501.878	4.46
502.226	4.55
502.574	4.65
502.923	4.74
503.271	4.82
503.619	4.92
503.967	5.03
504.315	5.17
504.663	5.26
505.011	5.38
505.359	5.5
505.707	5.67
506.055	5.82
506.403	5.99
506.751	6.16
507.098	6.3
507.446	6.44
507.794	6.62
508.141	6.79
508.489	6.99
508.837	7.18
509.184	7.37
509.531	7.57
509.879	7.77
510.226	8.01
510.574	8.21
510.921	8.44
511.268	8.68
511.616	8.91
511.963	9.17
512.31	9.42
512.657	9.69
513.004	9.94
513.351	10.24
513.698	10.56
514.045	10.86
514.392	11.2
514.739	11.56
515.086	11.89
515.432	12.23
515.779	12.56
516.126	12.88
516.473	13.19
516.819	13.5
517.166	13.78
517.512	14.05
517.859	14.37
518.205	14.64
518.552	14.91
518.898	15.19
519.245	15.45
519.591	15.73
519.937	16
520.283	16.29
520.629	16.59
520.976	16.91
521.322	17.25
521.668	17.59
522.014	17.92
522.36	18.3
522.706	18.68
523.052	19.06
523.398	19.5
523.743	19.95
524.089	20.37
524.435	20.77
524.781	21.15
525.126	21.48
525.472	21.81
525.817	22.11
526.163	22.4
526.509	22.68
526.854	22.93
527.199	23.14
527.545	23.38
527.89	23.6
528.235	23.81
528.581	24.02
528.926	24.22
529.271	24.42
529.616	24.62
529.961	24.82
530.306	25.05
530.651	25.26
530.996	25.49
531.341	25.72
531.686	25.97
532.031	26.21
532.376	26.47
532.721	26.71
533.065	26.95
533.41	27.22
533.755	27.46
534.099	27.71
534.444	27.98
534.788	28.24
535.133	28.49
535.477	28.73
535.822	28.99
536.166	29.3
536.51	29.61
536.855	29.94
537.199	30.25
537.543	30.57
537.887	30.87
538.231	31.17
538.576	31.48
538.92	31.74
539.264	32.03
539.608	32.33
539.951	32.59
540.295	32.81
540.639	33.03
540.983	33.24
541.327	33.46
541.671	33.68
542.014	33.86
542.358	34.07
542.701	34.28
543.045	34.49
543.389	34.64
543.732	34.81
544.075	34.97
544.419	35.14
544.762	35.32
545.105	35.51
545.449	35.68
545.792	35.85
546.135	36.08
546.478	36.28
546.821	36.43
547.165	36.63
547.508	36.88
547.851	37.1
548.194	37.32
548.536	37.58
548.879	37.78
549.222	37.97
549.565	38.19
549.908	38.38
550.25	38.58
550.593	38.84
550.936	39.03
551.278	39.26
551.621	39.51
551.963	39.72
552.306	39.97
552.648	40.23
552.991	40.47
553.333	40.71
553.675	40.88
554.017	41.1
554.36	41.31
554.702	41.47
555.044	41.62
555.386	41.84
555.728	41.96
556.07	42.14
556.412	42.34
556.754	42.45
557.096	42.64
557.438	42.75
557.78	42.87
558.121	43.07
558.463	43.23
558.805	43.33
559.147	43.49
559.488	43.56
559.83	43.69
560.171	43.81
560.513	43.94
560.854	44.04
561.196	44.2
561.537	44.33
561.878	44.46
562.22	44.59
562.561	44.65
562.902	44.8
563.243	44.88
563.584	44.96
563.925	45.11
564.266	45.14
564.607	45.28
564.948	45.42
565.289	45.56
565.63	45.69
565.971	45.78
566.312	45.92
566.653	46.09
566.993	46.18
567.334	46.31
567.675	46.42
568.015	46.54
568.356	46.65
568.696	46.73
569.037	46.83
569.377	46.99
569.718	47.12
570.058	47.23
570.398	47.39
570.739	47.56
571.079	47.64
571.419	47.81
571.759	47.91
572.099	48.02
572.439	48.08
572.779	48.15
573.119	48.33
573.459	48.39
573.799	48.49
574.139	48.6
574.479	48.69
574.819	48.79
575.158	48.88
575.498	48.94
575.838	49.05
576.177	49.15
576.517	49.2
576.856	49.29
577.196	49.42
577.535	49.48
577.875	49.57
578.214	49.71
578.553	49.8
578.893	49.89
579.232	49.97
579.571	50.1
579.91	50.19
580.25	50.2
580.589	50.25
580.928	50.32
581.267	50.38
581.606	50.5
581.945	50.54
582.283	50.63
582.622	50.63
582.961	50.74
583.3	50.88
583.639	50.94
583.977	51
584.316	51.08
584.654	51.18
584.993	51.22
585.332	51.26
585.67	51.34
586.008	51.43
586.347	51.46
586.685	51.54
587.024	51.63
587.362	51.67
587.7	51.76
588.038	51.8
588.376	51.83
588.715	51.79
589.053	51.84
589.391	51.87
589.729	51.96
590.067	51.97
590.404	51.99
590.742	52.1
591.08	52.2
591.418	52.21
591.756	52.19
592.093	52.28
592.431	52.4
592.769	52.48
593.106	52.5
593.444	52.55
593.781	52.58
594.119	52.64
594.456	52.68
594.793	52.72
595.131	52.77
595.468	52.88
595.805	52.94
596.143	52.98
596.48	53.05
596.817	53.17
597.154	53.26
597.491	53.26
597.828	53.23
598.165	53.2
598.502	53.23
598.839	53.34
599.176	53.33
599.512	53.35
599.849	53.35
600.186	53.35
600.523	53.43
600.859	53.46
601.196	53.48
601.532	53.49
601.869	53.52
602.205	53.54
602.542	53.56
602.878	53.59
603.215	53.66
603.551	53.68
603.887	53.65
604.223	53.69
604.56	53.76
604.896	53.82
605.232	53.96
605.568	54.01
605.904	54.05
606.24	54.13
606.576	54.11
606.912	54.15
607.248	54.26
607.583	54.31
607.919	54.31
608.255	54.39
608.591	54.42
608.926	54.46
609.262	54.53
609.597	54.55
609.933	54.63
610.268	54.65
610.604	54.7
610.939	54.81
611.275	54.77
611.61	54.76
611.945	54.83
612.281	54.81
612.616	54.74
612.951	54.85
613.286	54.83
613.621	54.86
613.956	54.93
614.291	54.99
614.626	55.02
614.961	55.15
615.296	55.13
615.631	55.22
615.966	55.25
616.3	55.36
616.635	55.36
616.97	55.36
617.304	55.4
617.639	55.39
617.973	55.3
618.308	55.29
618.642	55.42
618.977	55.46
619.311	55.5
619.646	55.63
619.98	55.58
620.314	55.63
620.648	55.72
620.983	55.76
621.317	55.68
621.651	55.71
621.985	55.66
622.319	55.72
622.653	55.77
622.987	55.9
623.321	55.77
623.655	55.75
623.988	55.79
624.322	55.82
624.656	55.84
624.99	55.84
625.323	55.92
625.657	55.86
625.99	55.79
626.324	55.75
626.657	55.77
626.991	55.83
627.324	55.79
627.658	55.81
627.991	55.8
628.324	55.87
628.657	55.89
628.991	55.94
629.324	55.95
629.657	56
629.99	56.01
630.323	56.03
630.656	56.07
630.989	56.14
631.322	56.27
631.655	56.35
631.987	56.45
632.32	56.42
632.653	56.45
632.986	56.52
633.318	56.57
633.651	56.64
633.984	56.62
634.316	56.76
634.649	56.78
634.981	56.84
635.313	56.82
635.646	56.9
635.978	56.95
636.31	57.05
636.643	57.09
636.975	57.07
637.307	57.2
637.639	57.26
637.971	57.23
638.303	57.1
638.635	57.06
638.967	57
639.299	57.11
639.631	57.13
639.963	57.06
640.295	57.11
640.626	57.02
640.958	57.05
641.29	56.96
641.621	56.94
641.953	56.98
642.285	57.03
642.616	57.06
642.948	57.05
643.279	56.95
643.61	56.86
643.942	56.8
644.273	56.68
644.604	56.61
644.936	56.59
645.267	56.69
645.598	56.75
645.929	56.81
646.26	56.77
646.591	56.81
646.922	56.82
647.253	56.78
647.584	56.77
647.915	56.79
648.245	56.88
648.576	56.93
648.907	56.93
649.238	56.98
649.568	56.97
649.899	56.95
650.229	56.95
650.56	57.02
650.89	57.1
651.221	57.21
651.551	57.28
651.882	57.3
652.212	57.28
652.542	57.21
652.872	57.15
653.203	57.21
653.533	57.28
653.863	57.39
654.193	57.28
654.523	57.36
654.853	57.37
655.183	57.24
655.513	57.27
655.843	57.37
656.172	57.35
656.502	57.28
656.832	57.25
657.162	57.3
657.491	57.42
657.821	57.49
658.15	57.47
658.48	57.46
658.809	57.59
659.139	57.55
659.468	57.58
659.798	57.66
660.127	57.64
660.456	57.59
660.785	57.63
661.115	57.71
661.444	57.84
661.773	57.88
662.102	57.99
662.431	58.03
662.76	57.91
663.089	57.84
663.418	57.7
663.747	57.79
664.076	57.73
664.404	57.68
664.733	57.53
665.062	57.64
665.39	57.64
665.719	57.47
666.048	57.57
666.376	57.58
666.705	57.73
667.033	57.7
667.362	57.65
667.69	57.57
668.018	57.6
668.347	57.56
668.675	57.51
669.003	57.48
