Data from BU26938_Reflection_00009.txt Node
Date: Tue Nov 19 10:42:24 EST 2019
User: vgr7
Spectrometer: USB2G7710
Scans to average: 3
Trigger mode: 4
Integration Time (sec): 2.000000E-2
Electric dark correction enabled: true
Boxcar width: 10
XAxis mode: Wavelengths
Number of Pixels in Spectrum: 2048
>>>>>Begin Spectral Data<<<<<
177.721	111.78
178.105	369.23
178.488	-121.8
178.871	-0
179.254	-38.71
179.636	-81.82
180.019	36.86
180.402	-4.76
180.785	1042.11
181.168	370.99
181.55	600
181.933	238.74
182.316	677.92
182.698	-1238.71
183.081	394.68
183.463	-725.15
183.846	-1859.02
184.228	-1754.43
184.611	-3027.91
184.993	-1341.18
185.376	-16114.29
185.758	335.02
186.14	275.41
186.522	235.57
186.904	725.58
187.287	269.45
187.669	241.73
188.051	229.17
188.433	438.05
188.815	338.15
189.197	232.33
189.579	251.16
189.961	629.56
190.342	160.19
190.724	322.35
191.106	373.58
191.488	151.3
191.869	85.65
192.251	58.02
192.633	70.22
193.014	61.35
193.396	66.82
193.777	75.04
194.159	72.63
194.54	69.34
194.922	53.26
195.303	52.81
195.684	43.97
196.065	54.19
196.447	51.91
196.828	42.98
197.209	38.31
197.59	34.21
197.971	28.96
198.352	30.66
198.733	16.47
199.114	0.52
199.495	6.99
199.876	2.24
200.257	-9.51
200.638	-19
201.018	-18.34
201.399	-9.9
201.78	-14.58
202.16	-20.99
202.541	-25.68
202.922	-39.74
203.302	-47.31
203.683	-52.99
204.063	-49.89
204.444	-72.28
204.824	-63.76
205.204	-57.13
205.585	-54
205.965	-54.06
206.345	-39.94
206.725	-26.6
207.106	-1.85
207.486	-0
207.866	1.38
208.246	10.55
208.626	8.62
209.006	0.58
209.386	-34.55
209.766	-46.41
210.145	-76.81
210.525	-212.66
210.905	-206.79
211.285	-86.93
211.664	-39.2
212.044	-33.38
212.424	-15.31
212.803	-36.14
213.183	-38.22
213.562	-39.81
213.942	-36.78
214.321	-48.84
214.701	-49.48
215.08	-83.54
215.459	-51.79
215.838	-41.42
216.218	-63.64
216.597	-49.34
216.976	-59.27
217.355	-54.62
217.734	-36.62
218.113	-3.65
218.492	-13.6
218.871	-0
219.25	-16.97
219.629	-20.41
220.008	-10.01
220.387	-14.5
220.766	-4.29
221.144	-23.03
221.523	-25.39
221.902	-25.38
222.28	-14.96
222.659	-1.85
223.037	2.31
223.416	-5.94
223.794	-3.33
224.173	7.71
224.551	2.77
224.929	-2.59
225.308	-1.86
225.686	-3.88
226.064	-14.38
226.442	-0
226.821	-1.15
227.199	0.1
227.577	1.68
227.955	-0.47
228.333	3.44
228.711	2.03
229.089	2.09
229.467	1.13
229.845	-1.52
230.222	-0.33
230.6	-3.02
230.978	2.03
231.356	0.97
231.733	2.25
232.111	1.91
232.488	8.36
232.866	12.1
233.243	11.75
233.621	11.46
233.998	13.4
234.376	12.53
234.753	12.21
235.13	13.33
235.508	13.27
235.885	13.55
236.262	11.85
236.639	11.47
237.016	10.49
237.393	11.39
237.77	12.28
238.147	11.59
238.524	11.87
238.901	9.23
239.278	9.06
239.655	8.31
240.032	7.89
240.409	6.35
240.785	5.86
241.162	6.25
241.539	6.02
241.915	5.43
242.292	5.55
242.668	5.35
243.045	5.68
243.421	5.56
243.798	5.13
244.174	4.97
244.551	5.06
244.927	5.22
245.303	4.73
245.679	4.57
246.056	4.43
246.432	4.34
246.808	4.74
247.184	4.83
247.56	4.87
247.936	4.96
248.312	5.2
248.688	5.37
249.064	5.24
249.44	5.32
249.815	5.48
250.191	5.2
250.567	5.21
250.943	4.81
251.318	4.78
251.694	4.89
252.069	5.11
252.445	5.02
252.82	5.36
253.196	5.64
253.571	5.67
253.947	5.95
254.322	6.16
254.697	5.66
255.073	5.29
255.448	4.79
255.823	4.63
256.198	4.33
256.573	4.13
256.948	4.2
257.323	4.29
257.698	4.39
258.073	4.36
258.448	4.49
258.823	4.46
259.198	4.28
259.573	4.33
259.948	4.34
260.322	4.23
260.697	4.13
261.072	3.97
261.446	3.92
261.821	3.71
262.195	3.57
262.57	3.66
262.944	3.75
263.319	3.85
263.693	3.66
264.067	3.48
264.442	3.39
264.816	3.13
265.19	3.13
265.564	2.91
265.938	3.06
266.313	2.87
266.687	2.84
267.061	2.84
267.435	2.74
267.809	2.54
268.183	2.68
268.556	2.61
268.93	2.81
269.304	2.84
269.678	2.96
270.051	3.01
270.425	3.26
270.799	3.22
271.172	3.34
271.546	3.5
271.919	3.69
272.293	3.93
272.666	4.04
273.04	3.96
273.413	4
273.787	3.94
274.16	3.89
274.533	4.15
274.906	4.26
275.279	4.38
275.653	4.47
276.026	4.43
276.399	4.43
276.772	4.47
277.145	4.52
277.518	4.56
277.891	4.53
278.263	4.36
278.636	4.52
279.009	4.45
279.382	4.32
279.755	4.34
280.127	4.05
280.5	3.96
280.872	3.91
281.245	3.88
281.617	3.98
281.99	3.95
282.362	3.75
282.735	3.73
283.107	3.51
283.479	3.54
283.852	3.59
284.224	3.65
284.596	3.7
284.968	3.7
285.34	3.72
285.713	3.69
286.085	3.5
286.457	3.46
286.829	3.46
287.201	3.6
287.572	3.58
287.944	3.72
288.316	3.76
288.688	3.84
289.06	3.92
289.431	3.96
289.803	4.06
290.175	4.09
290.546	4.03
290.918	4.24
291.289	4.16
291.661	4.17
292.032	4.09
292.403	4
292.775	4.05
293.146	4.01
293.517	4.06
293.889	4.19
294.26	4.13
294.631	4.25
295.002	4.24
295.373	4.28
295.744	4.2
296.115	4.34
296.486	4.26
296.857	4.26
297.228	4.11
297.599	4.08
297.97	4.16
298.34	4.33
298.711	4.29
299.082	4.29
299.452	4.22
299.823	4.26
300.194	4.27
300.564	4.23
300.935	4.31
301.305	4.36
301.676	4.32
302.046	4.38
302.416	4.25
302.787	4.31
303.157	4.35
303.527	4.52
303.897	4.47
304.267	4.43
304.637	4.28
305.008	4.38
305.378	4.42
305.748	4.32
306.117	4.25
306.487	4.13
306.857	4.29
307.227	4.43
307.597	4.47
307.967	4.49
308.336	4.51
308.706	4.53
309.076	4.55
309.445	4.73
309.815	4.79
310.184	4.85
310.554	4.77
310.923	4.82
311.293	4.71
311.662	4.75
312.031	4.94
312.401	5.06
312.77	4.96
313.139	4.99
313.508	5.04
313.877	5.14
314.246	5.37
314.616	5.46
314.985	5.41
315.353	5.54
315.722	5.7
316.091	5.74
316.46	5.79
316.829	5.87
317.198	5.92
317.567	6.07
317.935	6.06
318.304	6.36
318.672	6.34
319.041	6.56
319.41	6.58
319.778	6.45
320.147	6.54
320.515	6.74
320.883	6.96
321.252	7.1
321.62	7.06
321.988	7.08
322.357	6.98
322.725	6.91
323.093	6.88
323.461	6.88
323.829	6.95
324.197	6.9
324.565	6.85
324.933	6.84
325.301	6.67
325.669	6.78
326.037	6.62
326.405	6.79
326.772	6.75
327.14	6.72
327.508	6.82
327.875	6.77
328.243	6.72
328.61	6.61
328.978	6.6
329.346	6.58
329.713	6.5
330.08	6.6
330.448	6.78
330.815	6.78
331.182	6.67
331.55	6.65
331.917	6.68
332.284	6.79
332.651	6.77
333.018	6.85
333.385	6.92
333.752	7.02
334.119	6.93
334.486	6.86
334.853	6.78
335.22	6.69
335.587	6.78
335.954	6.9
336.32	6.89
336.687	6.83
337.054	6.84
337.42	6.92
337.787	6.8
338.153	6.79
338.52	6.86
338.886	6.96
339.253	6.86
339.619	6.9
339.986	6.8
340.352	6.81
340.718	6.8
341.084	6.79
341.451	6.81
341.817	6.72
342.183	6.72
342.549	6.79
342.915	6.87
343.281	6.83
343.647	6.87
344.013	6.88
344.379	6.97
344.745	7.02
345.11	7.06
345.476	7.21
345.842	7.18
346.208	7.15
346.573	7.07
346.939	7.18
347.304	7.27
347.67	7.29
348.035	7.24
348.401	7.29
348.766	7.28
349.132	7.26
349.497	7.31
349.862	7.32
350.228	7.4
350.593	7.44
350.958	7.54
351.323	7.45
351.688	7.48
352.053	7.52
352.418	7.56
352.783	7.55
353.148	7.52
353.513	7.57
353.878	7.5
354.243	7.54
354.608	7.6
354.972	7.43
355.337	7.4
355.702	7.33
356.066	7.34
356.431	7.27
356.795	7.26
357.16	7.27
357.524	7.27
357.889	7.26
358.253	7.22
358.618	7.16
358.982	7.15
359.346	7.15
359.71	7.1
360.075	7.06
360.439	6.97
360.803	6.98
361.167	6.96
361.531	6.99
361.895	7.02
362.259	7
362.623	7.05
362.987	7.07
363.351	7.11
363.714	7.02
364.078	7.15
364.442	7.07
364.806	7.08
365.169	7.07
365.533	7.07
365.896	7.1
366.26	7.04
366.623	7
366.987	7.01
367.35	7.01
367.714	7.01
368.077	6.97
368.44	6.92
368.803	6.89
369.167	6.86
369.53	6.77
369.893	6.69
370.256	6.66
370.619	6.64
370.982	6.62
371.345	6.64
371.708	6.47
372.071	6.48
372.434	6.34
372.797	6.33
373.159	6.31
373.522	6.18
373.885	6.19
374.247	6.23
374.61	6.18
374.973	6.09
375.335	6.02
375.698	6.01
376.06	5.95
376.423	5.96
376.785	5.99
377.147	6.01
377.51	6
377.872	5.99
378.234	5.98
378.596	5.96
378.958	5.95
379.321	5.94
379.683	5.93
380.045	5.92
380.407	5.92
380.769	5.85
381.13	5.88
381.492	5.83
381.854	5.8
382.216	5.76
382.578	5.74
382.939	5.72
383.301	5.76
383.663	5.76
384.024	5.66
384.386	5.59
384.747	5.55
385.109	5.54
385.47	5.5
385.832	5.48
386.193	5.44
386.554	5.42
386.916	5.43
387.277	5.41
387.638	5.43
387.999	5.36
388.36	5.33
388.721	5.31
389.082	5.31
389.443	5.28
389.804	5.23
390.165	5.23
390.526	5.2
390.887	5.15
391.248	5.12
391.609	5.11
391.969	5.16
392.33	5.13
392.691	5.1
393.051	5.07
393.412	5.03
393.772	5.02
394.133	4.94
394.493	4.86
394.854	4.84
395.214	4.82
395.574	4.79
395.935	4.79
396.295	4.75
396.655	4.73
397.015	4.7
397.376	4.72
397.736	4.7
398.096	4.7
398.456	4.67
398.816	4.65
399.176	4.62
399.535	4.53
399.895	4.53
400.255	4.48
400.615	4.46
400.975	4.44
401.334	4.39
401.694	4.4
402.054	4.46
402.413	4.44
402.773	4.42
403.132	4.42
403.492	4.43
403.851	4.43
404.211	4.39
404.57	4.37
404.929	4.31
405.288	4.29
405.648	4.25
406.007	4.24
406.366	4.22
406.725	4.22
407.084	4.21
407.443	4.15
407.802	4.16
408.161	4.18
408.52	4.16
408.879	4.2
409.238	4.21
409.596	4.15
409.955	4.12
410.314	4.13
410.673	4.11
411.031	4.07
411.39	4.04
411.748	4.05
412.107	4.03
412.465	4.01
412.824	4.01
413.182	4.02
413.54	4.03
413.899	4.01
414.257	4.03
414.615	4.01
414.974	4
415.332	3.97
415.69	3.96
416.048	3.96
416.406	3.92
416.764	3.89
417.122	3.89
417.48	3.88
417.838	3.84
418.195	3.83
418.553	3.83
418.911	3.81
419.269	3.8
419.626	3.8
419.984	3.8
420.342	3.79
420.699	3.78
421.057	3.77
421.414	3.76
421.772	3.74
422.129	3.73
422.486	3.74
422.844	3.74
423.201	3.74
423.558	3.72
423.915	3.71
424.273	3.71
424.63	3.7
424.987	3.7
425.344	3.72
425.701	3.72
426.058	3.69
426.415	3.69
426.772	3.68
427.128	3.68
427.485	3.68
427.842	3.67
428.199	3.66
428.555	3.63
428.912	3.62
429.269	3.61
429.625	3.61
429.982	3.6
430.338	3.59
430.695	3.58
431.051	3.57
431.407	3.58
431.764	3.56
432.12	3.56
432.476	3.58
432.832	3.55
433.189	3.54
433.545	3.56
433.901	3.57
434.257	3.58
434.613	3.57
434.969	3.56
435.325	3.56
435.681	3.54
436.036	3.54
436.392	3.55
436.748	3.55
437.104	3.56
437.459	3.56
437.815	3.55
438.171	3.55
438.526	3.58
438.882	3.58
439.237	3.57
439.593	3.57
439.948	3.56
440.304	3.56
440.659	3.56
441.014	3.55
441.369	3.55
441.725	3.54
442.08	3.54
442.435	3.54
442.79	3.54
443.145	3.55
443.5	3.55
443.855	3.54
444.21	3.55
444.565	3.54
444.92	3.54
445.275	3.55
445.629	3.54
445.984	3.52
446.339	3.53
446.693	3.55
447.048	3.53
447.403	3.52
447.757	3.52
448.112	3.52
448.466	3.53
448.82	3.52
449.175	3.53
449.529	3.52
449.883	3.5
450.238	3.51
450.592	3.5
450.946	3.49
451.3	3.49
451.654	3.48
452.008	3.48
452.362	3.46
452.716	3.45
453.07	3.46
453.424	3.46
453.778	3.45
454.132	3.43
454.486	3.44
454.839	3.44
455.193	3.45
455.547	3.44
455.9	3.42
456.254	3.42
456.607	3.42
456.961	3.44
457.314	3.47
457.668	3.47
458.021	3.47
458.375	3.49
458.728	3.48
459.081	3.49
459.434	3.49
459.787	3.5
460.141	3.5
460.494	3.48
460.847	3.48
461.2	3.48
461.553	3.47
461.906	3.47
462.259	3.48
462.611	3.48
462.964	3.49
463.317	3.5
463.67	3.52
464.022	3.52
464.375	3.52
464.728	3.52
465.08	3.49
465.433	3.51
465.785	3.53
466.138	3.54
466.49	3.55
466.843	3.58
467.195	3.58
467.547	3.61
467.899	3.64
468.252	3.64
468.604	3.65
468.956	3.67
469.308	3.68
469.66	3.69
470.012	3.69
470.364	3.7
470.716	3.7
471.068	3.7
471.42	3.7
471.772	3.68
472.123	3.68
472.475	3.72
472.827	3.72
473.178	3.7
473.53	3.72
473.882	3.72
474.233	3.7
474.585	3.7
474.936	3.7
475.288	3.72
475.639	3.72
475.99	3.73
476.342	3.73
476.693	3.75
477.044	3.74
477.395	3.75
477.746	3.74
478.097	3.73
478.448	3.72
478.8	3.73
479.15	3.72
479.501	3.72
479.852	3.69
480.203	3.69
480.554	3.69
480.905	3.68
481.255	3.68
481.606	3.69
481.957	3.69
482.307	3.69
482.658	3.69
483.009	3.71
483.359	3.7
483.709	3.71
484.06	3.71
484.41	3.71
484.761	3.7
485.111	3.71
485.461	3.71
485.811	3.71
486.162	3.71
486.512	3.72
486.862	3.71
487.212	3.72
487.562	3.73
487.912	3.73
488.262	3.73
488.612	3.73
488.961	3.73
489.311	3.72
489.661	3.72
490.011	3.71
490.36	3.7
490.71	3.7
491.06	3.69
491.409	3.69
491.759	3.69
492.108	3.7
492.458	3.7
492.807	3.71
493.157	3.72
493.506	3.73
493.855	3.73
494.204	3.74
494.554	3.75
494.903	3.75
495.252	3.76
495.601	3.78
495.95	3.81
496.299	3.82
496.648	3.85
496.997	3.87
497.346	3.91
497.695	3.92
498.043	3.97
498.392	4
498.741	4.03
499.09	4.05
499.438	4.08
499.787	4.1
500.135	4.12
500.484	4.16
500.832	4.19
501.181	4.24
501.529	4.3
501.878	4.31
502.226	4.36
502.574	4.39
502.923	4.43
503.271	4.46
503.619	4.52
503.967	4.54
504.315	4.59
504.663	4.62
505.011	4.68
505.359	4.72
505.707	4.76
506.055	4.8
506.403	4.87
506.751	4.92
507.098	5
507.446	5.04
507.794	5.09
508.141	5.14
508.489	5.18
508.837	5.23
509.184	5.31
509.531	5.38
509.879	5.46
510.226	5.53
510.574	5.61
510.921	5.65
511.268	5.75
511.616	5.83
511.963	5.93
512.31	6.03
512.657	6.12
513.004	6.22
513.351	6.34
513.698	6.45
514.045	6.56
514.392	6.69
514.739	6.83
515.086	6.98
515.432	7.13
515.779	7.26
516.126	7.4
516.473	7.54
516.819	7.68
517.166	7.81
517.512	7.94
517.859	8.08
518.205	8.22
518.552	8.34
518.898	8.46
519.245	8.57
519.591	8.71
519.937	8.85
520.283	8.99
520.629	9.14
520.976	9.28
521.322	9.45
521.668	9.61
522.014	9.79
522.36	9.95
522.706	10.15
523.052	10.35
523.398	10.56
523.743	10.78
524.089	10.97
524.435	11.16
524.781	11.37
525.126	11.55
525.472	11.73
525.817	11.91
526.163	12.05
526.509	12.19
526.854	12.33
527.199	12.43
527.545	12.56
527.89	12.69
528.235	12.82
528.581	12.95
528.926	13.08
529.271	13.2
529.616	13.34
529.961	13.46
530.306	13.6
530.651	13.73
530.996	13.86
531.341	14.03
531.686	14.19
532.031	14.33
532.376	14.48
532.721	14.65
533.065	14.79
533.41	14.97
533.755	15.17
534.099	15.35
534.444	15.53
534.788	15.71
535.133	15.88
535.477	16.07
535.822	16.27
536.166	16.48
536.51	16.67
536.855	16.89
537.199	17.12
537.543	17.33
537.887	17.57
538.231	17.81
538.576	18.04
538.92	18.27
539.264	18.49
539.608	18.69
539.951	18.89
540.295	19.08
540.639	19.28
540.983	19.43
541.327	19.62
541.671	19.81
542.014	19.98
542.358	20.15
542.701	20.31
543.045	20.47
543.389	20.63
543.732	20.81
544.075	20.99
544.419	21.17
544.762	21.37
545.105	21.6
545.449	21.82
545.792	22.04
546.135	22.28
546.478	22.52
546.821	22.82
547.165	23.05
547.508	23.33
547.851	23.56
548.194	23.85
548.536	24.12
548.879	24.37
549.222	24.66
549.565	24.94
549.908	25.22
550.25	25.49
550.593	25.8
550.936	26.1
551.278	26.36
551.621	26.66
551.963	26.95
552.306	27.22
552.648	27.46
552.991	27.71
553.333	27.99
553.675	28.32
554.017	28.48
554.36	28.73
554.702	29
555.044	29.25
555.386	29.49
555.728	29.72
556.07	29.97
556.412	30.24
556.754	30.48
557.096	30.78
557.438	31.02
557.78	31.23
558.121	31.51
558.463	31.77
558.805	32.03
559.147	32.3
559.488	32.52
559.83	32.77
560.171	33.05
560.513	33.27
560.854	33.49
561.196	33.81
561.537	34.09
561.878	34.31
562.22	34.57
562.561	34.81
562.902	35.07
563.243	35.37
563.584	35.57
563.925	35.77
564.266	35.96
564.607	36.19
564.948	36.39
565.289	36.62
565.63	36.8
565.971	36.94
566.312	37.13
566.653	37.38
566.993	37.58
567.334	37.76
567.675	37.97
568.015	38.16
568.356	38.28
568.696	38.51
569.037	38.7
569.377	38.9
569.718	39.07
570.058	39.22
570.398	39.37
570.739	39.58
571.079	39.75
571.419	39.97
571.759	40.14
572.099	40.38
572.439	40.51
572.779	40.74
573.119	40.94
573.459	41.08
573.799	41.27
574.139	41.37
574.479	41.55
574.819	41.69
575.158	41.82
575.498	42.02
575.838	42.16
576.177	42.35
576.517	42.5
576.856	42.72
577.196	42.9
577.535	43.07
577.875	43.21
578.214	43.44
578.553	43.54
578.893	43.7
579.232	43.84
579.571	44.05
579.91	44.2
580.25	44.42
580.589	44.58
580.928	44.63
581.267	44.9
581.606	45.01
581.945	45.17
582.283	45.28
582.622	45.46
582.961	45.63
583.3	45.79
583.639	45.93
583.977	46
584.316	46.17
584.654	46.27
584.993	46.44
585.332	46.52
585.67	46.65
586.008	46.79
586.347	46.9
586.685	46.91
587.024	47.05
587.362	47.16
587.7	47.3
588.038	47.5
588.376	47.61
588.715	47.78
589.053	47.88
589.391	48.02
589.729	48.06
590.067	48.03
590.404	48.08
590.742	48.17
591.08	48.35
591.418	48.45
591.756	48.55
592.093	48.65
592.431	48.8
592.769	48.94
593.106	48.97
593.444	49.05
593.781	49.2
594.119	49.33
594.456	49.4
594.793	49.45
595.131	49.52
595.468	49.53
595.805	49.57
596.143	49.61
596.48	49.75
596.817	49.84
597.154	49.98
597.491	50.07
597.828	50.14
598.165	50.16
598.502	50.23
598.839	50.31
599.176	50.38
599.512	50.5
599.849	50.61
600.186	50.79
600.523	50.93
600.859	51.02
601.196	50.96
601.532	51.09
601.869	51.23
602.205	51.33
602.542	51.41
602.878	51.47
603.215	51.61
603.551	51.63
603.887	51.8
604.223	51.86
604.56	52.03
604.896	52.1
605.232	52.14
605.568	52.18
605.904	52.24
606.24	52.29
606.576	52.33
606.912	52.34
607.248	52.44
607.583	52.5
607.919	52.57
608.255	52.67
608.591	52.7
608.926	52.77
609.262	52.83
609.597	52.92
609.933	53
610.268	53.05
610.604	53.13
610.939	53.13
611.275	53.21
611.61	53.11
611.945	53.16
612.281	53.24
612.616	53.33
612.951	53.52
613.286	53.61
613.621	53.66
613.956	53.76
614.291	53.68
614.626	53.71
614.961	53.77
615.296	53.89
615.631	53.95
615.966	53.94
616.3	53.97
616.635	53.96
616.97	54.04
617.304	54.02
617.639	53.97
617.973	54.03
618.308	54.08
618.642	54.12
618.977	54.3
619.311	54.31
619.646	54.31
619.98	54.26
620.314	54.31
620.648	54.24
620.983	54.24
621.317	54.41
621.651	54.45
621.985	54.59
622.319	54.59
622.653	54.64
622.987	54.7
623.321	54.72
623.655	54.82
623.988	54.84
624.322	54.88
624.656	55.01
624.99	55.03
625.323	55.1
625.657	55.19
625.99	55.23
626.324	55.33
626.657	55.31
626.991	55.31
627.324	55.3
627.658	55.37
627.991	55.47
628.324	55.47
628.657	55.48
628.991	55.38
629.324	55.46
629.657	55.52
629.99	55.52
630.323	55.56
630.656	55.61
630.989	55.65
631.322	55.73
631.655	55.79
631.987	55.82
632.32	55.73
632.653	55.82
632.986	55.77
633.318	55.81
633.651	55.86
633.984	55.95
634.316	55.93
634.649	56.07
634.981	56.15
635.313	56.12
635.646	56.23
635.978	56.3
636.31	56.3
636.643	56.24
636.975	56.32
637.307	56.38
637.639	56.36
637.971	56.36
638.303	56.31
638.635	56.28
638.967	56.26
639.299	56.38
639.631	56.38
639.963	56.35
640.295	56.32
640.626	56.42
640.958	56.46
641.29	56.46
641.621	56.43
641.953	56.33
642.285	56.36
642.616	56.4
642.948	56.47
643.279	56.43
643.61	56.38
643.942	56.45
644.273	56.52
644.604	56.55
644.936	56.57
645.267	56.66
645.598	56.73
645.929	56.74
646.26	56.78
646.591	56.85
646.922	57
647.253	57.03
647.584	57.08
647.915	57.15
648.245	57.2
648.576	57.16
648.907	57.18
649.238	57.26
649.568	57.17
649.899	57.13
650.229	57.35
650.56	57.51
650.89	57.56
651.221	57.57
651.551	57.57
651.882	57.7
652.212	57.76
652.542	57.78
652.872	57.79
653.203	57.79
653.533	57.73
653.863	57.65
654.193	57.64
654.523	57.56
654.853	57.44
655.183	57.45
655.513	57.58
655.843	57.57
656.172	57.59
656.502	57.64
656.832	57.68
657.162	57.61
657.491	57.65
657.821	57.56
658.15	57.45
658.48	57.51
658.809	57.47
659.139	57.46
659.468	57.35
659.798	57.47
660.127	57.53
660.456	57.48
660.785	57.52
661.115	57.54
661.444	57.68
661.773	57.79
662.102	57.88
662.431	57.8
662.76	57.88
663.089	57.94
663.418	57.93
663.747	57.97
664.076	57.9
664.404	57.93
664.733	58.07
665.062	58.16
665.39	58.23
665.719	58.18
666.048	58.17
666.376	58.3
666.705	58.31
667.033	58.25
667.362	58.35
667.69	58.34
668.018	58.45
