Data from BU26845_Reflection_00003.txt Node
Date: Mon Nov 18 16:27:52 EST 2019
User: vgr7
Spectrometer: USB2G7710
Scans to average: 3
Trigger mode: 4
Integration Time (sec): 2.000000E-2
Electric dark correction enabled: true
Boxcar width: 10
XAxis mode: Wavelengths
Number of Pixels in Spectrum: 2048
>>>>>Begin Spectral Data<<<<<
177.721	-93.67
178.105	-82.66
178.488	-78.55
178.871	-74.72
179.254	15.37
179.636	347.79
180.019	6.98
180.402	160
180.785	211.89
181.168	-2259.38
181.55	-1123.88
181.933	110.63
182.316	183.79
182.698	188.98
183.081	170.05
183.463	207.93
183.846	125.67
184.228	137.82
184.611	148.13
184.993	387.92
185.376	312.19
185.758	-220.49
186.14	-194.31
186.522	-143.03
186.904	-78.73
187.287	-81.41
187.669	-40.97
188.051	-55.95
188.433	-43.84
188.815	-34.82
189.197	-22.25
189.579	-28.05
189.961	-21.33
190.342	-7.98
190.724	1.48
191.106	-0.74
191.488	-0.91
191.869	-1.61
192.251	-1.88
192.633	-0.28
193.014	-2.83
193.396	-6.24
193.777	-2.85
194.159	3.81
194.54	9.36
194.922	6.33
195.303	7.17
195.684	6.76
196.065	13.4
196.447	14.55
196.828	-2.4
197.209	-12.05
197.59	-9.68
197.971	-19.69
198.352	-25.17
198.733	-42.02
199.114	-33.23
199.495	-35.73
199.876	-27.92
200.257	-13.48
200.638	-18.46
201.018	-29.85
201.399	-38.79
201.78	-22.68
202.16	-39.78
202.541	-59.83
202.922	-77.8
203.302	-89.26
203.683	-95.04
204.063	-121.71
204.444	-113.86
204.824	-95.27
205.204	-64.67
205.585	-78.7
205.965	-86.71
206.345	-100.5
206.725	-86.83
207.106	-107.71
207.486	-97.35
207.866	-91.09
208.246	-105.81
208.626	-69.16
209.006	-56.05
209.386	-52.22
209.766	-65
210.145	-47.69
210.525	-18.71
210.905	-12.59
211.285	-9.13
211.664	-7.06
212.044	4.55
212.424	14.15
212.803	7
213.183	6.71
213.562	10.65
213.942	7.6
214.321	8.92
214.701	6.98
215.08	11.55
215.459	1.78
215.838	5.58
216.218	1.12
216.597	-7.69
216.976	-13.67
217.355	-13.23
217.734	-23.26
218.113	-25.72
218.492	-35.83
218.871	-38.57
219.25	-29.5
219.629	-28.51
220.008	-43.93
220.387	-53.98
220.766	-53.21
221.144	-61.49
221.523	-64.15
221.902	-78.95
222.28	-77.55
222.659	-76.2
223.037	-77.85
223.416	-72.52
223.794	-89.78
224.173	-83.56
224.551	-63.11
224.929	-55.03
225.308	-45.24
225.686	-39
226.064	-34.83
226.442	-33.29
226.821	-23.7
227.199	-23.56
227.577	-22.98
227.955	-18.91
228.333	-13.95
228.711	-12.89
229.089	-9.71
229.467	-10.94
229.845	-5.94
230.222	-6.64
230.6	-5.78
230.978	-6.22
231.356	-4.96
231.733	-0.18
232.111	-0.03
232.488	-1.32
232.866	-0.18
233.243	0.29
233.621	0.92
233.998	3.21
234.376	3.19
234.753	-0.36
235.13	-1.94
235.508	-1.43
235.885	-1.42
236.262	-2.33
236.639	-2.41
237.016	-2.94
237.393	-0.52
237.77	-0.62
238.147	1.23
238.524	1.6
238.901	1.25
239.278	1.34
239.655	1.49
240.032	1.66
240.409	1.35
240.785	1.75
241.162	1.65
241.539	1.74
241.915	1.08
242.292	0.58
242.668	0.99
243.045	1.23
243.421	1.5
243.798	1.73
244.174	1.69
244.551	1.75
244.927	1.78
245.303	1.59
245.679	1.38
246.056	1.26
246.432	1.11
246.808	1.28
247.184	1.01
247.56	0.81
247.936	0.84
248.312	0.9
248.688	0.81
249.064	0.94
249.44	0.71
249.815	0.81
250.191	1.17
250.567	1.04
250.943	0.72
251.318	0.71
251.694	0.88
252.069	0.94
252.445	0.87
252.82	0.65
253.196	0.46
253.571	0.6
253.947	0.68
254.322	0.82
254.697	0.32
255.073	0.4
255.448	0.41
255.823	0.47
256.198	0.57
256.573	0.49
256.948	0.55
257.323	0.77
257.698	0.75
258.073	0.79
258.448	0.89
258.823	1.25
259.198	1.08
259.573	0.82
259.948	0.66
260.322	0.63
260.697	0.72
261.072	0.8
261.446	0.82
261.821	0.65
262.195	0.65
262.57	0.81
262.944	0.77
263.319	0.72
263.693	0.76
264.067	0.97
264.442	1.07
264.816	0.97
265.19	1.04
265.564	1.11
265.938	0.85
266.313	0.91
266.687	0.94
267.061	0.95
267.435	1.03
267.809	1.13
268.183	1.22
268.556	1.24
268.93	1.33
269.304	1.42
269.678	1.49
270.051	1.57
270.425	1.65
270.799	1.7
271.172	1.72
271.546	1.8
271.919	1.39
272.293	1.35
272.666	1.52
273.04	1.49
273.413	1.57
273.787	1.76
274.16	1.75
274.533	1.66
274.906	1.68
275.279	1.59
275.653	1.64
276.026	1.66
276.399	1.64
276.772	1.69
277.145	1.39
277.518	1.41
277.891	1.29
278.263	1.51
278.636	1.51
279.009	1.49
279.382	1.54
279.755	1.86
280.127	2.03
280.5	1.82
280.872	1.96
281.245	1.81
281.617	1.88
281.99	1.89
282.362	1.96
282.735	1.95
283.107	2.06
283.479	2.09
283.852	2.01
284.224	1.94
284.596	1.84
284.968	2.16
285.34	2.11
285.713	2.1
286.085	1.98
286.457	2.15
286.829	2.09
287.201	2.05
287.572	2.02
287.944	2.06
288.316	2.19
288.688	2.03
289.06	2.02
289.431	1.94
289.803	1.9
290.175	1.88
290.546	2.03
290.918	2.11
291.289	2.21
291.661	2.16
292.032	2.27
292.403	2.3
292.775	2.24
293.146	2.26
293.517	2.17
293.889	2.06
294.26	2.03
294.631	2.18
295.002	2.14
295.373	2.15
295.744	1.95
296.115	1.86
296.486	1.74
296.857	1.6
297.228	1.59
297.599	1.58
297.97	1.66
298.34	1.52
298.711	1.43
299.082	1.31
299.452	1.47
299.823	1.56
300.194	1.52
300.564	1.49
300.935	1.61
301.305	1.79
301.676	1.81
302.046	1.72
302.416	1.72
302.787	1.7
303.157	1.5
303.527	1.51
303.897	1.39
304.267	1.59
304.637	1.79
305.008	1.88
305.378	2.06
305.748	2.06
306.117	2.09
306.487	2
306.857	2
307.227	1.96
307.597	1.85
307.967	1.85
308.336	1.79
308.706	1.74
309.076	1.63
309.445	1.72
309.815	1.69
310.184	1.58
310.554	1.57
310.923	1.68
311.293	1.65
311.662	1.8
312.031	1.72
312.401	1.72
312.77	1.7
313.139	1.69
313.508	1.53
313.877	1.6
314.246	1.67
314.616	1.72
314.985	1.67
315.353	1.6
315.722	1.57
316.091	1.57
316.46	1.6
316.829	1.58
317.198	1.48
317.567	1.51
317.935	1.49
318.304	1.54
318.672	1.44
319.041	1.59
319.41	1.63
319.778	1.69
320.147	1.66
320.515	1.65
320.883	1.44
321.252	1.66
321.62	1.56
321.988	1.54
322.357	1.57
322.725	1.69
323.093	1.76
323.461	1.86
323.829	2.02
324.197	2.01
324.565	2.09
324.933	2.18
325.301	2.26
325.669	2.29
326.037	2.17
326.405	2.2
326.772	2.16
327.14	2.29
327.508	2.24
327.875	2.32
328.243	2.33
328.61	2.4
328.978	2.4
329.346	2.44
329.713	2.45
330.08	2.48
330.448	2.32
330.815	2.31
331.182	2.19
331.55	2.03
331.917	2.1
332.284	2.05
332.651	1.9
333.018	1.85
333.385	1.87
333.752	2.03
334.119	2.15
334.486	2.17
334.853	1.9
335.22	1.9
335.587	1.89
335.954	1.77
336.32	1.86
336.687	1.78
337.054	1.76
337.42	1.77
337.787	1.68
338.153	1.73
338.52	1.74
338.886	1.77
339.253	1.71
339.619	1.54
339.986	1.58
340.352	1.74
340.718	1.73
341.084	1.8
341.451	1.81
341.817	1.75
342.183	1.73
342.549	1.79
342.915	1.9
343.281	1.85
343.647	1.86
344.013	1.81
344.379	1.81
344.745	1.81
345.11	1.8
345.476	1.85
345.842	1.87
346.208	1.9
346.573	1.92
346.939	2.08
347.304	2.1
347.67	2.07
348.035	1.95
348.401	1.95
348.766	1.94
349.132	1.86
349.497	1.84
349.862	1.92
350.228	1.91
350.593	1.85
350.958	1.96
351.323	1.99
351.688	1.99
352.053	2.05
352.418	2.08
352.783	2.12
353.148	2.04
353.513	1.96
353.878	1.98
354.243	2.05
354.608	2.07
354.972	2.08
355.337	2.2
355.702	2.24
356.066	2.24
356.431	2.23
356.795	2.36
357.16	2.36
357.524	2.21
357.889	2.23
358.253	2.28
358.618	2.24
358.982	2.25
359.346	2.22
359.71	2.2
360.075	2.22
360.439	2.2
360.803	2.27
361.167	2.3
361.531	2.27
361.895	2.18
362.259	2.07
362.623	2.06
362.987	2
363.351	2.03
363.714	2
364.078	1.98
364.442	1.9
364.806	1.91
365.169	1.91
365.533	1.93
365.896	1.86
366.26	1.81
366.623	1.79
366.987	1.77
367.35	1.8
367.714	1.74
368.077	1.74
368.44	1.71
368.803	1.77
369.167	1.73
369.53	1.78
369.893	1.9
370.256	1.96
370.619	1.97
370.982	1.93
371.345	1.9
371.708	1.93
372.071	1.91
372.434	1.91
372.797	2
373.159	1.92
373.522	1.97
373.885	2.01
374.247	2.03
374.61	2.04
374.973	1.96
375.335	1.95
375.698	2.01
376.06	2.02
376.423	1.96
376.785	1.96
377.147	1.99
377.51	1.93
377.872	1.91
378.234	1.96
378.596	1.95
378.958	2
379.321	1.99
379.683	2
380.045	2.01
380.407	1.96
380.769	2.02
381.13	1.98
381.492	2
381.854	2.04
382.216	2.04
382.578	2.1
382.939	2.11
383.301	2.05
383.663	2
384.024	2.02
384.386	2.06
384.747	2.11
385.109	2.1
385.47	2.1
385.832	2.08
386.193	2.18
386.554	2.16
386.916	2.15
387.277	2.18
387.638	2.18
387.999	2.19
388.36	2.19
388.721	2.22
389.082	2.2
389.443	2.15
389.804	2.17
390.165	2.15
390.526	2.19
390.887	2.18
391.248	2.24
391.609	2.25
391.969	2.26
392.33	2.2
392.691	2.2
393.051	2.19
393.412	2.19
393.772	2.09
394.133	2.11
394.493	2.09
394.854	2.05
395.214	2.07
395.574	2.07
395.935	2.08
396.295	2.1
396.655	2.11
397.015	2.13
397.376	2.13
397.736	2.13
398.096	2.15
398.456	2.18
398.816	2.18
399.176	2.15
399.535	2.13
399.895	2.16
400.255	2.2
400.615	2.23
400.975	2.21
401.334	2.25
401.694	2.25
402.054	2.28
402.413	2.29
402.773	2.28
403.132	2.3
403.492	2.29
403.851	2.27
404.211	2.28
404.57	2.27
404.929	2.31
405.288	2.34
405.648	2.31
406.007	2.33
406.366	2.32
406.725	2.37
407.084	2.38
407.443	2.39
407.802	2.36
408.161	2.35
408.52	2.32
408.879	2.33
409.238	2.36
409.596	2.38
409.955	2.37
410.314	2.37
410.673	2.35
411.031	2.38
411.39	2.39
411.748	2.38
412.107	2.39
412.465	2.37
412.824	2.35
413.182	2.33
413.54	2.33
413.899	2.32
414.257	2.3
414.615	2.29
414.974	2.3
415.332	2.3
415.69	2.3
416.048	2.33
416.406	2.35
416.764	2.35
417.122	2.35
417.48	2.35
417.838	2.37
418.195	2.4
418.553	2.41
418.911	2.43
419.269	2.44
419.626	2.44
419.984	2.43
420.342	2.44
420.699	2.44
421.057	2.44
421.414	2.44
421.772	2.43
422.129	2.45
422.486	2.44
422.844	2.45
423.201	2.46
423.558	2.47
423.915	2.47
424.273	2.48
424.63	2.48
424.987	2.48
425.344	2.47
425.701	2.47
426.058	2.46
426.415	2.44
426.772	2.42
427.128	2.42
427.485	2.43
427.842	2.44
428.199	2.46
428.555	2.47
428.912	2.5
429.269	2.51
429.625	2.48
429.982	2.49
430.338	2.5
430.695	2.47
431.051	2.44
431.407	2.43
431.764	2.42
432.12	2.42
432.476	2.42
432.832	2.43
433.189	2.43
433.545	2.42
433.901	2.41
434.257	2.43
434.613	2.42
434.969	2.42
435.325	2.42
435.681	2.41
436.036	2.42
436.392	2.4
436.748	2.4
437.104	2.43
437.459	2.43
437.815	2.43
438.171	2.44
438.526	2.46
438.882	2.47
439.237	2.46
439.593	2.46
439.948	2.46
440.304	2.46
440.659	2.47
441.014	2.48
441.369	2.48
441.725	2.48
442.08	2.49
442.435	2.5
442.79	2.49
443.145	2.5
443.5	2.5
443.855	2.5
444.21	2.5
444.565	2.51
444.92	2.51
445.275	2.52
445.629	2.51
445.984	2.5
446.339	2.49
446.693	2.5
447.048	2.5
447.403	2.5
447.757	2.5
448.112	2.5
448.466	2.49
448.82	2.5
449.175	2.5
449.529	2.5
449.883	2.5
450.238	2.49
450.592	2.49
450.946	2.48
451.3	2.48
451.654	2.49
452.008	2.49
452.362	2.49
452.716	2.48
453.07	2.5
453.424	2.5
453.778	2.51
454.132	2.52
454.486	2.5
454.839	2.49
455.193	2.49
455.547	2.48
455.9	2.5
456.254	2.52
456.607	2.52
456.961	2.51
457.314	2.51
457.668	2.53
458.021	2.51
458.375	2.51
458.728	2.52
459.081	2.52
459.434	2.52
459.787	2.53
460.141	2.54
460.494	2.53
460.847	2.55
461.2	2.55
461.553	2.55
461.906	2.56
462.259	2.58
462.611	2.59
462.964	2.6
463.317	2.61
463.67	2.59
464.022	2.58
464.375	2.61
464.728	2.62
465.08	2.61
465.433	2.63
465.785	2.65
466.138	2.65
466.49	2.64
466.843	2.63
467.195	2.62
467.547	2.62
467.899	2.62
468.252	2.6
468.604	2.6
468.956	2.6
469.308	2.6
469.66	2.59
470.012	2.6
470.364	2.61
470.716	2.61
471.068	2.62
471.42	2.63
471.772	2.62
472.123	2.63
472.475	2.65
472.827	2.65
473.178	2.65
473.53	2.62
473.882	2.63
474.233	2.63
474.585	2.62
474.936	2.64
475.288	2.65
475.639	2.65
475.99	2.65
476.342	2.65
476.693	2.66
477.044	2.68
477.395	2.68
477.746	2.67
478.097	2.66
478.448	2.67
478.8	2.67
479.15	2.65
479.501	2.64
479.852	2.64
480.203	2.63
480.554	2.63
480.905	2.64
481.255	2.65
481.606	2.67
481.957	2.68
482.307	2.67
482.658	2.66
483.009	2.66
483.359	2.66
483.709	2.67
484.06	2.66
484.41	2.66
484.761	2.65
485.111	2.65
485.461	2.65
485.811	2.65
486.162	2.64
486.512	2.65
486.862	2.66
487.212	2.66
487.562	2.67
487.912	2.67
488.262	2.67
488.612	2.67
488.961	2.65
489.311	2.65
489.661	2.64
490.011	2.65
490.36	2.65
490.71	2.65
491.06	2.65
491.409	2.66
491.759	2.65
492.108	2.66
492.458	2.65
492.807	2.65
493.157	2.65
493.506	2.68
493.855	2.66
494.204	2.65
494.554	2.65
494.903	2.64
495.252	2.64
495.601	2.66
495.95	2.66
496.299	2.67
496.648	2.67
496.997	2.67
497.346	2.68
497.695	2.69
498.043	2.69
498.392	2.69
498.741	2.68
499.09	2.7
499.438	2.73
499.787	2.75
500.135	2.77
500.484	2.77
500.832	2.77
501.181	2.79
501.529	2.81
501.878	2.82
502.226	2.83
502.574	2.84
502.923	2.8
503.271	2.8
503.619	2.8
503.967	2.79
504.315	2.79
504.663	2.79
505.011	2.78
505.359	2.8
505.707	2.81
506.055	2.81
506.403	2.8
506.751	2.78
507.098	2.75
507.446	2.75
507.794	2.74
508.141	2.76
508.489	2.75
508.837	2.74
509.184	2.75
509.531	2.75
509.879	2.77
510.226	2.8
510.574	2.81
510.921	2.82
511.268	2.83
511.616	2.84
511.963	2.85
512.31	2.83
512.657	2.85
513.004	2.85
513.351	2.87
513.698	2.87
514.045	2.86
514.392	2.87
514.739	2.86
515.086	2.85
515.432	2.83
515.779	2.82
516.126	2.85
516.473	2.84
516.819	2.84
517.166	2.83
517.512	2.81
517.859	2.81
518.205	2.81
518.552	2.83
518.898	2.82
519.245	2.82
519.591	2.82
519.937	2.79
520.283	2.8
520.629	2.79
520.976	2.79
521.322	2.83
521.668	2.85
522.014	2.88
522.36	2.9
522.706	2.91
523.052	2.92
523.398	2.92
523.743	2.91
524.089	2.92
524.435	2.91
524.781	2.9
525.126	2.91
525.472	2.91
525.817	2.91
526.163	2.91
526.509	2.91
526.854	2.93
527.199	2.93
527.545	2.93
527.89	2.93
528.235	2.94
528.581	2.92
528.926	2.91
529.271	2.9
529.616	2.89
529.961	2.9
530.306	2.91
530.651	2.9
530.996	2.91
531.341	2.92
531.686	2.92
532.031	2.94
532.376	2.95
532.721	2.96
533.065	2.95
533.41	2.95
533.755	2.96
534.099	2.96
534.444	2.98
534.788	2.99
535.133	2.99
535.477	3
535.822	3
536.166	3.01
536.51	3.02
536.855	3.03
537.199	3.03
537.543	3.03
537.887	3.04
538.231	3.02
538.576	3.01
538.92	3.01
539.264	2.99
539.608	2.99
539.951	2.99
540.295	2.97
540.639	2.99
540.983	2.98
541.327	2.98
541.671	2.97
542.014	2.96
542.358	2.95
542.701	2.95
543.045	2.96
543.389	2.96
543.732	2.96
544.075	2.96
544.419	2.97
544.762	2.95
545.105	2.96
545.449	3
545.792	3
546.135	3
546.478	3
546.821	3
547.165	3.01
547.508	3.03
547.851	3.04
548.194	3.03
548.536	3.05
548.879	3.04
549.222	3.07
549.565	3.09
549.908	3.08
550.25	3.08
550.593	3.08
550.936	3.06
551.278	3.08
551.621	3.08
551.963	3.08
552.306	3.07
552.648	3.05
552.991	3.06
553.333	3.1
553.675	3.11
554.017	3.12
554.36	3.12
554.702	3.13
555.044	3.13
555.386	3.17
555.728	3.17
556.07	3.2
556.412	3.19
556.754	3.16
557.096	3.16
557.438	3.15
557.78	3.13
558.121	3.17
558.463	3.15
558.805	3.14
559.147	3.14
559.488	3.12
559.83	3.14
560.171	3.15
560.513	3.16
560.854	3.15
561.196	3.13
561.537	3.12
561.878	3.1
562.22	3.08
562.561	3.04
562.902	3.05
563.243	3.01
563.584	3.03
563.925	3.05
564.266	3.07
564.607	3.09
564.948	3.12
565.289	3.12
565.63	3.12
565.971	3.12
566.312	3.14
566.653	3.14
566.993	3.13
567.334	3.12
567.675	3.11
568.015	3.11
568.356	3.13
568.696	3.13
569.037	3.15
569.377	3.18
569.718	3.2
570.058	3.2
570.398	3.22
570.739	3.22
571.079	3.21
571.419	3.21
571.759	3.2
572.099	3.21
572.439	3.21
572.779	3.19
573.119	3.22
573.459	3.22
573.799	3.23
574.139	3.24
574.479	3.25
574.819	3.24
575.158	3.21
575.498	3.21
575.838	3.22
576.177	3.2
576.517	3.18
576.856	3.19
577.196	3.17
577.535	3.16
577.875	3.19
578.214	3.17
578.553	3.2
578.893	3.21
579.232	3.2
579.571	3.22
579.91	3.24
580.25	3.2
580.589	3.19
580.928	3.21
581.267	3.18
581.606	3.18
581.945	3.17
582.283	3.19
582.622	3.18
582.961	3.19
583.3	3.21
583.639	3.27
583.977	3.26
584.316	3.25
584.654	3.25
584.993	3.19
585.332	3.22
585.67	3.19
586.008	3.18
586.347	3.2
586.685	3.17
587.024	3.17
587.362	3.17
587.7	3.17
588.038	3.2
588.376	3.2
588.715	3.18
589.053	3.2
589.391	3.22
589.729	3.26
590.067	3.23
590.404	3.25
590.742	3.22
591.08	3.2
591.418	3.25
591.756	3.27
592.093	3.32
592.431	3.33
592.769	3.36
593.106	3.36
593.444	3.31
593.781	3.31
594.119	3.33
594.456	3.32
594.793	3.31
595.131	3.27
595.468	3.29
595.805	3.31
596.143	3.3
596.48	3.26
596.817	3.23
597.154	3.27
597.491	3.26
597.828	3.26
598.165	3.26
598.502	3.25
598.839	3.22
599.176	3.18
599.512	3.15
599.849	3.13
600.186	3.14
600.523	3.2
600.859	3.23
601.196	3.23
601.532	3.24
601.869	3.22
602.205	3.22
602.542	3.2
602.878	3.18
603.215	3.2
603.551	3.23
603.887	3.24
604.223	3.22
604.56	3.21
604.896	3.18
605.232	3.23
605.568	3.24
605.904	3.24
606.24	3.27
606.576	3.27
606.912	3.27
607.248	3.25
607.583	3.24
607.919	3.23
608.255	3.2
608.591	3.23
608.926	3.25
609.262	3.29
609.597	3.33
609.933	3.34
610.268	3.34
610.604	3.34
610.939	3.35
611.275	3.35
611.61	3.33
611.945	3.33
612.281	3.32
612.616	3.34
612.951	3.39
613.286	3.37
613.621	3.39
613.956	3.4
614.291	3.43
614.626	3.43
614.961	3.4
615.296	3.36
615.631	3.36
615.966	3.36
616.3	3.34
616.635	3.28
616.97	3.29
617.304	3.23
617.639	3.24
617.973	3.2
618.308	3.19
618.642	3.25
618.977	3.26
619.311	3.22
619.646	3.2
619.98	3.16
620.314	3.17
620.648	3.18
620.983	3.22
621.317	3.19
621.651	3.19
621.985	3.22
622.319	3.26
622.653	3.23
622.987	3.26
623.321	3.24
623.655	3.28
623.988	3.3
624.322	3.32
624.656	3.33
624.99	3.33
625.323	3.35
625.657	3.36
625.99	3.38
626.324	3.38
626.657	3.35
626.991	3.36
627.324	3.34
627.658	3.35
627.991	3.37
628.324	3.37
628.657	3.39
628.991	3.39
629.324	3.42
629.657	3.44
629.99	3.44
630.323	3.46
630.656	3.48
630.989	3.49
631.322	3.53
631.655	3.52
631.987	3.52
632.32	3.51
632.653	3.48
632.986	3.48
633.318	3.49
633.651	3.53
633.984	3.54
634.316	3.56
634.649	3.55
634.981	3.49
635.313	3.54
635.646	3.53
635.978	3.57
636.31	3.54
636.643	3.56
636.975	3.61
637.307	3.62
637.639	3.61
637.971	3.59
638.303	3.53
638.635	3.51
638.967	3.53
639.299	3.55
639.631	3.52
639.963	3.49
640.295	3.56
640.626	3.57
640.958	3.56
641.29	3.58
641.621	3.61
641.953	3.68
642.285	3.63
642.616	3.66
642.948	3.58
643.279	3.58
643.61	3.51
643.942	3.43
644.273	3.4
644.604	3.33
644.936	3.35
645.267	3.43
645.598	3.41
645.929	3.4
646.26	3.38
646.591	3.41
646.922	3.44
647.253	3.4
647.584	3.36
647.915	3.35
648.245	3.3
648.576	3.26
648.907	3.19
649.238	3.19
649.568	3.2
649.899	3.26
650.229	3.29
650.56	3.36
650.89	3.41
651.221	3.41
651.551	3.47
651.882	3.5
652.212	3.45
652.542	3.46
652.872	3.38
653.203	3.41
653.533	3.45
653.863	3.44
654.193	3.39
654.523	3.43
654.853	3.42
655.183	3.43
655.513	3.44
655.843	3.49
656.172	3.51
656.502	3.53
656.832	3.52
657.162	3.48
657.491	3.43
657.821	3.46
658.15	3.45
658.48	3.41
658.809	3.43
659.139	3.39
659.468	3.38
659.798	3.45
660.127	3.52
660.456	3.51
660.785	3.52
661.115	3.58
661.444	3.59
661.773	3.62
662.102	3.67
662.431	3.7
662.76	3.71
663.089	3.71
663.418	3.59
663.747	3.56
664.076	3.65
664.404	3.7
664.733	3.66
665.062	3.71
665.39	3.83
665.719	3.76
666.048	3.9
666.376	3.91
666.705	3.88
667.033	3.74
667.362	3.71
667.69	3.74
668.018	3.72
668.347	3.69
668.675	3.7
669.003	3.7
669.331	3.75
669.659	3.7
669.987	3.61
670.315	3.68
670.643	3.65
670.971	3.64
671.299	3.68
671.627	3.72
671.955	3.72
672.283	3.6
672.61	3.7
672.938	3.67
673.266	3.66
673.593	3.79
673.921	3.8
674.249	3.8
674.576	3.78
674.904	3.8
675.231	3.75
675.558	3.74
675.886	3.74
676.213	3.75
676.54	3.79
676.867	3.87
677.195	3.89
677.522	3.91
677.849	3.88
678.176	3.86
678.503	3.78
678.83	3.73
