Data from BU26843_Reflection_00009.txt Node
Date: Mon Nov 18 16:31:12 EST 2019
User: vgr7
Spectrometer: USB2G7710
Scans to average: 3
Trigger mode: 4
Integration Time (sec): 2.000000E-2
Electric dark correction enabled: true
Boxcar width: 10
XAxis mode: Wavelengths
Number of Pixels in Spectrum: 2048
>>>>>Begin Spectral Data<<<<<
177.721	-92.17
178.105	-514.04
178.488	275.44
178.871	61.65
179.254	23.92
179.636	136.46
180.019	79.58
180.402	55.17
180.785	80.13
181.168	79.56
181.55	284.82
181.933	213.86
182.316	177.46
182.698	274.72
183.081	351.21
183.463	1037.29
183.846	1674.88
184.228	1038.51
184.611	969.33
184.993	-1126.05
185.376	-602.46
185.758	-409.3
186.14	-396.88
186.522	-368.79
186.904	-224.62
187.287	-437.63
187.669	-215.44
188.051	-240.49
188.433	-98.35
188.815	-65.25
189.197	-80.25
189.579	-44.9
189.961	-23.8
190.342	-14.98
190.724	11.52
191.106	13.49
191.488	21.24
191.869	20.62
192.251	22.07
192.633	27.34
193.014	26.03
193.396	19.4
193.777	-2.29
194.159	-7.01
194.54	3.39
194.922	-7.74
195.303	0.74
195.684	8.48
196.065	23.43
196.447	29.87
196.828	7.3
197.209	-6.44
197.59	-23.8
197.971	-9.6
198.352	6.18
198.733	12.08
199.114	27.4
199.495	-3.46
199.876	16.55
200.257	-21.84
200.638	-31.66
201.018	-71.08
201.399	-64.86
201.78	-33.33
202.16	-50.26
202.541	-110.11
202.922	-87.33
203.302	-121.65
203.683	-136.56
204.063	-195.33
204.444	-160.94
204.824	-177.08
205.204	-181.27
205.585	-190.7
205.965	-306.27
206.345	-394.29
206.725	-468.21
207.106	-662.99
207.486	-533.24
207.866	-402.59
208.246	-305.49
208.626	-218.29
209.006	-161.88
209.386	-172.32
209.766	-183.49
210.145	-129.41
210.525	-75.31
210.905	-63.69
211.285	-46.36
211.664	-35.01
212.044	-31.04
212.424	-28.11
212.803	-13.26
213.183	1.59
213.562	12.52
213.942	14.55
214.321	9.64
214.701	3.23
215.08	-1.6
215.459	7.94
215.838	0.1
216.218	4.56
216.597	2.22
216.976	15.25
217.355	9.76
217.734	10.89
218.113	9.74
218.492	3.17
218.871	1.09
219.25	-3.52
219.629	-3.91
220.008	1.73
220.387	-2.96
220.766	-15.35
221.144	-39.29
221.523	-59.88
221.902	-78.98
222.28	-83.34
222.659	-63.7
223.037	-44.19
223.416	-53.72
223.794	-51.53
224.173	-63.69
224.551	-56.31
224.929	-61.81
225.308	-44.07
225.686	-39.31
226.064	-31.94
226.442	-33.4
226.821	-28.56
227.199	-24.57
227.577	-24.39
227.955	-26.1
228.333	-21.27
228.711	-15.68
229.089	-9.96
229.467	-6.92
229.845	-6.88
230.222	-5.82
230.6	-7.04
230.978	-4.07
231.356	-0.98
231.733	1.71
232.111	1.96
232.488	2.43
232.866	2.02
233.243	2.61
233.621	2.64
233.998	1.85
234.376	6.16
234.753	5.49
235.13	5.52
235.508	5.46
235.885	6.64
236.262	5.3
236.639	3.11
237.016	4.07
237.393	4.43
237.77	5.11
238.147	4.5
238.524	5.77
238.901	5.09
239.278	5.12
239.655	5.48
240.032	6.1
240.409	5.33
240.785	4.95
241.162	5.02
241.539	4.87
241.915	5.28
242.292	4.17
242.668	4.44
243.045	4.41
243.421	4.44
243.798	4.44
244.174	4.37
244.551	4.84
244.927	4.67
245.303	4.69
245.679	4.74
246.056	4.78
246.432	4.57
246.808	4.5
247.184	4.18
247.56	4.08
247.936	3.91
248.312	4.16
248.688	4.2
249.064	4.04
249.44	3.81
249.815	3.58
250.191	3.93
250.567	4
250.943	4.1
251.318	4.22
251.694	4.21
252.069	4.21
252.445	4.05
252.82	4.2
253.196	4
253.571	3.86
253.947	3.87
254.322	3.95
254.697	3.92
255.073	3.85
255.448	3.73
255.823	3.83
256.198	4.07
256.573	4.37
256.948	4.44
257.323	4.73
257.698	4.82
258.073	4.78
258.448	4.72
258.823	4.71
259.198	4.58
259.573	4.44
259.948	4.61
260.322	4.72
260.697	4.43
261.072	4.34
261.446	4.35
261.821	4.41
262.195	4.41
262.57	4.45
262.944	4.58
263.319	4.69
263.693	4.71
264.067	4.67
264.442	4.7
264.816	4.73
265.19	4.72
265.564	4.63
265.938	4.48
266.313	4.41
266.687	4.3
267.061	4.5
267.435	4.79
267.809	4.74
268.183	4.59
268.556	4.74
268.93	4.79
269.304	4.84
269.678	4.9
270.051	4.81
270.425	4.86
270.799	4.82
271.172	4.7
271.546	4.69
271.919	4.61
272.293	4.57
272.666	4.35
273.04	4.46
273.413	4.58
273.787	4.65
274.16	4.56
274.533	4.73
274.906	4.4
275.279	4.23
275.653	4.1
276.026	4.22
276.399	4.16
276.772	4.27
277.145	4.2
277.518	4.08
277.891	4.05
278.263	3.91
278.636	4.03
279.009	4.04
279.382	4.1
279.755	3.95
280.127	4
280.5	4.27
280.872	4.16
281.245	4
281.617	3.97
281.99	4.18
282.362	4.11
282.735	4.27
283.107	4.18
283.479	4.31
283.852	4.25
284.224	4.29
284.596	4.27
284.968	4.35
285.34	4.37
285.713	4.42
286.085	4.57
286.457	4.55
286.829	4.54
287.201	4.65
287.572	4.71
287.944	4.64
288.316	4.55
288.688	4.56
289.06	4.62
289.431	4.65
289.803	4.62
290.175	4.58
290.546	4.71
290.918	4.8
291.289	4.74
291.661	4.76
292.032	4.81
292.403	4.79
292.775	4.93
293.146	4.96
293.517	5.02
293.889	5.12
294.26	5.18
294.631	5.28
295.002	5.09
295.373	5.26
295.744	5.41
296.115	5.49
296.486	5.44
296.857	5.38
297.228	5.52
297.599	5.52
297.97	5.62
298.34	5.66
298.711	5.77
299.082	5.86
299.452	5.9
299.823	6.04
300.194	6.06
300.564	6.17
300.935	6.19
301.305	6.33
301.676	6.29
302.046	6.24
302.416	6.36
302.787	6.52
303.157	6.43
303.527	6.33
303.897	6.47
304.267	6.71
304.637	6.89
305.008	6.91
305.378	7.17
305.748	7.26
306.117	7.16
306.487	7.35
306.857	7.5
307.227	7.62
307.597	7.65
307.967	7.76
308.336	7.76
308.706	7.91
309.076	7.96
309.445	8.03
309.815	8.09
310.184	8.17
310.554	8.23
310.923	8.34
311.293	8.57
311.662	8.61
312.031	8.6
312.401	8.74
312.77	8.89
313.139	8.93
313.508	9.09
313.877	9.28
314.246	9.18
314.616	9.2
314.985	9.31
315.353	9.35
315.722	9.53
316.091	9.54
316.46	9.45
316.829	9.52
317.198	9.55
317.567	9.65
317.935	9.59
318.304	9.72
318.672	9.89
319.041	9.91
319.41	9.77
319.778	10.01
320.147	10.22
320.515	10.12
320.883	9.98
321.252	9.91
321.62	10
321.988	10.21
322.357	10.22
322.725	10.3
323.093	10.42
323.461	10.5
323.829	10.73
324.197	10.97
324.565	10.88
324.933	10.94
325.301	11.05
325.669	11.19
326.037	11.26
326.405	11.31
326.772	11.43
327.14	11.64
327.508	11.42
327.875	11.3
328.243	11.42
328.61	11.55
328.978	11.54
329.346	11.6
329.713	11.59
330.08	11.61
330.448	11.69
330.815	11.79
331.182	11.77
331.55	11.7
331.917	11.63
332.284	11.83
332.651	11.86
333.018	11.92
333.385	11.87
333.752	11.88
334.119	11.98
334.486	11.97
334.853	12.01
335.22	12.23
335.587	12.3
335.954	12.42
336.32	12.31
336.687	12.35
337.054	12.45
337.42	12.44
337.787	12.54
338.153	12.52
338.52	12.51
338.886	12.53
339.253	12.44
339.619	12.57
339.986	12.62
340.352	12.76
340.718	12.77
341.084	12.73
341.451	12.84
341.817	12.86
342.183	12.92
342.549	12.98
342.915	12.99
343.281	13.1
343.647	13.02
344.013	13.2
344.379	13.22
344.745	13.22
345.11	13.3
345.476	13.23
345.842	13.2
346.208	13.24
346.573	13.28
346.939	13.43
347.304	13.38
347.67	13.42
348.035	13.29
348.401	13.37
348.766	13.53
349.132	13.56
349.497	13.59
349.862	13.7
350.228	13.73
350.593	13.72
350.958	13.62
351.323	13.65
351.688	13.62
352.053	13.74
352.418	13.73
352.783	13.72
353.148	13.81
353.513	13.88
353.878	13.86
354.243	13.87
354.608	13.84
354.972	13.89
355.337	13.92
355.702	14.09
356.066	14.2
356.431	14.16
356.795	14.14
357.16	14.08
357.524	13.92
357.889	13.87
358.253	13.92
358.618	14.03
358.982	14.08
359.346	14.07
359.71	14.06
360.075	13.98
360.439	13.97
360.803	13.99
361.167	13.95
361.531	13.9
361.895	13.86
362.259	13.83
362.623	13.78
362.987	13.74
363.351	13.6
363.714	13.55
364.078	13.48
364.442	13.36
364.806	13.3
365.169	13.31
365.533	13.35
365.896	13.3
366.26	13.16
366.623	13.03
366.987	13.06
367.35	12.99
367.714	13.01
368.077	12.89
368.44	12.86
368.803	12.81
369.167	12.74
369.53	12.63
369.893	12.61
370.256	12.6
370.619	12.48
370.982	12.49
371.345	12.32
371.708	12.37
372.071	12.33
372.434	12.31
372.797	12.22
373.159	12.08
373.522	12.04
373.885	12.09
374.247	12.07
374.61	11.97
374.973	11.86
375.335	11.73
375.698	11.73
376.06	11.59
376.423	11.51
376.785	11.49
377.147	11.53
377.51	11.41
377.872	11.37
378.234	11.37
378.596	11.3
378.958	11.24
379.321	11.14
379.683	11.14
380.045	11.08
380.407	11.02
380.769	10.95
381.13	10.84
381.492	10.7
381.854	10.59
382.216	10.54
382.578	10.55
382.939	10.5
383.301	10.42
383.663	10.41
384.024	10.29
384.386	10.23
384.747	10.15
385.109	10.12
385.47	10.02
385.832	9.96
386.193	9.93
386.554	9.94
386.916	9.9
387.277	9.84
387.638	9.82
387.999	9.8
388.36	9.77
388.721	9.74
389.082	9.74
389.443	9.69
389.804	9.61
390.165	9.5
390.526	9.44
390.887	9.39
391.248	9.33
391.609	9.3
391.969	9.25
392.33	9.19
392.691	9.14
393.051	9.1
393.412	9.09
393.772	8.96
394.133	8.89
394.493	8.8
394.854	8.74
395.214	8.65
395.574	8.51
395.935	8.43
396.295	8.35
396.655	8.23
397.015	8.22
397.376	8.15
397.736	8.1
398.096	8.06
398.456	8.03
398.816	7.99
399.176	8.02
399.535	7.94
399.895	7.91
400.255	7.84
400.615	7.78
400.975	7.69
401.334	7.68
401.694	7.6
402.054	7.6
402.413	7.54
402.773	7.5
403.132	7.54
403.492	7.54
403.851	7.52
404.211	7.5
404.57	7.43
404.929	7.41
405.288	7.36
405.648	7.33
406.007	7.27
406.366	7.23
406.725	7.18
407.084	7.19
407.443	7.16
407.802	7.13
408.161	7.1
408.52	7.06
408.879	7.01
409.238	7.02
409.596	6.98
409.955	6.98
410.314	6.96
410.673	6.9
411.031	6.87
411.39	6.86
411.748	6.82
412.107	6.83
412.465	6.8
412.824	6.81
413.182	6.81
413.54	6.8
413.899	6.79
414.257	6.74
414.615	6.7
414.974	6.65
415.332	6.65
415.69	6.64
416.048	6.61
416.406	6.64
416.764	6.58
417.122	6.56
417.48	6.52
417.838	6.49
418.195	6.48
418.553	6.46
418.911	6.43
419.269	6.44
419.626	6.42
419.984	6.38
420.342	6.36
420.699	6.33
421.057	6.31
421.414	6.26
421.772	6.25
422.129	6.22
422.486	6.2
422.844	6.17
423.201	6.14
423.558	6.12
423.915	6.08
424.273	6.06
424.63	6.03
424.987	6.01
425.344	5.98
425.701	5.94
426.058	5.91
426.415	5.88
426.772	5.83
427.128	5.79
427.485	5.77
427.842	5.73
428.199	5.72
428.555	5.69
428.912	5.7
429.269	5.68
429.625	5.65
429.982	5.65
430.338	5.65
430.695	5.63
431.051	5.63
431.407	5.63
431.764	5.61
432.12	5.62
432.476	5.6
432.832	5.58
433.189	5.6
433.545	5.59
433.901	5.62
434.257	5.61
434.613	5.61
434.969	5.61
435.325	5.62
435.681	5.62
436.036	5.6
436.392	5.59
436.748	5.6
437.104	5.6
437.459	5.6
437.815	5.6
438.171	5.61
438.526	5.61
438.882	5.63
439.237	5.66
439.593	5.67
439.948	5.66
440.304	5.7
440.659	5.68
441.014	5.68
441.369	5.66
441.725	5.65
442.08	5.66
442.435	5.67
442.79	5.66
443.145	5.64
443.5	5.63
443.855	5.63
444.21	5.62
444.565	5.62
444.92	5.61
445.275	5.59
445.629	5.56
445.984	5.55
446.339	5.51
446.693	5.49
447.048	5.46
447.403	5.45
447.757	5.4
448.112	5.38
448.466	5.37
448.82	5.36
449.175	5.35
449.529	5.32
449.883	5.28
450.238	5.27
450.592	5.27
450.946	5.28
451.3	5.24
451.654	5.22
452.008	5.21
452.362	5.19
452.716	5.18
453.07	5.18
453.424	5.17
453.778	5.16
454.132	5.15
454.486	5.14
454.839	5.15
455.193	5.14
455.547	5.15
455.9	5.15
456.254	5.15
456.607	5.15
456.961	5.15
457.314	5.14
457.668	5.14
458.021	5.11
458.375	5.09
458.728	5.1
459.081	5.11
459.434	5.11
459.787	5.11
460.141	5.12
460.494	5.13
460.847	5.13
461.2	5.15
461.553	5.16
461.906	5.19
462.259	5.19
462.611	5.22
462.964	5.22
463.317	5.24
463.67	5.27
464.022	5.26
464.375	5.29
464.728	5.33
465.08	5.38
465.433	5.41
465.785	5.43
466.138	5.47
466.49	5.49
466.843	5.53
467.195	5.58
467.547	5.61
467.899	5.64
468.252	5.67
468.604	5.69
468.956	5.73
469.308	5.73
469.66	5.75
470.012	5.8
470.364	5.83
470.716	5.89
471.068	5.9
471.42	5.96
471.772	5.98
472.123	6
472.475	6.02
472.827	6.05
473.178	6.1
473.53	6.12
473.882	6.12
474.233	6.12
474.585	6.11
474.936	6.1
475.288	6.11
475.639	6.12
475.99	6.14
476.342	6.11
476.693	6.12
477.044	6.15
477.395	6.13
477.746	6.11
478.097	6.05
478.448	6.06
478.8	6.03
479.15	6
479.501	6
479.852	5.98
480.203	5.97
480.554	5.95
480.905	5.94
481.255	5.94
481.606	5.93
481.957	5.91
482.307	5.89
482.658	5.87
483.009	5.85
483.359	5.83
483.709	5.83
484.06	5.82
484.41	5.81
484.761	5.79
485.111	5.78
485.461	5.78
485.811	5.76
486.162	5.75
486.512	5.75
486.862	5.74
487.212	5.73
487.562	5.71
487.912	5.71
488.262	5.69
488.612	5.69
488.961	5.68
489.311	5.68
489.661	5.68
490.011	5.69
490.36	5.69
490.71	5.7
491.06	5.69
491.409	5.69
491.759	5.69
492.108	5.72
492.458	5.74
492.807	5.76
493.157	5.79
493.506	5.83
493.855	5.83
494.204	5.86
494.554	5.9
494.903	5.95
495.252	5.99
495.601	6.01
495.95	6.06
496.299	6.12
496.648	6.16
496.997	6.21
497.346	6.28
497.695	6.36
498.043	6.42
498.392	6.52
498.741	6.58
499.09	6.66
499.438	6.74
499.787	6.83
500.135	6.92
500.484	7
500.832	7.1
501.181	7.23
501.529	7.3
501.878	7.43
502.226	7.52
502.574	7.64
502.923	7.78
503.271	7.9
503.619	8.03
503.967	8.17
504.315	8.31
504.663	8.47
505.011	8.59
505.359	8.71
505.707	8.86
506.055	9.02
506.403	9.18
506.751	9.31
507.098	9.44
507.446	9.6
507.794	9.72
508.141	9.86
508.489	9.99
508.837	10.17
509.184	10.29
509.531	10.45
509.879	10.59
510.226	10.74
510.574	10.9
510.921	11.06
511.268	11.21
511.616	11.37
511.963	11.53
512.31	11.71
512.657	11.88
513.004	12.02
513.351	12.2
513.698	12.4
514.045	12.57
514.392	12.77
514.739	12.96
515.086	13.14
515.432	13.34
515.779	13.5
516.126	13.66
516.473	13.85
516.819	14.02
517.166	14.19
517.512	14.35
517.859	14.48
518.205	14.62
518.552	14.78
518.898	14.91
519.245	15.03
519.591	15.17
519.937	15.29
520.283	15.44
520.629	15.61
520.976	15.72
521.322	15.89
521.668	16.05
522.014	16.23
522.36	16.41
522.706	16.59
523.052	16.82
523.398	17.01
523.743	17.19
524.089	17.4
524.435	17.63
524.781	17.83
525.126	18.02
525.472	18.17
525.817	18.32
526.163	18.48
526.509	18.6
526.854	18.73
527.199	18.85
527.545	18.95
527.89	19.05
528.235	19.19
528.581	19.29
528.926	19.42
529.271	19.53
529.616	19.66
529.961	19.78
530.306	19.91
530.651	20.06
530.996	20.22
531.341	20.37
531.686	20.51
532.031	20.66
532.376	20.81
532.721	21
533.065	21.17
533.41	21.35
533.755	21.55
534.099	21.75
534.444	21.94
534.788	22.18
535.133	22.37
535.477	22.57
535.822	22.8
536.166	23.03
536.51	23.29
536.855	23.54
537.199	23.78
537.543	24.04
537.887	24.31
538.231	24.56
538.576	24.8
538.92	25.07
539.264	25.3
539.608	25.56
539.951	25.77
540.295	25.95
540.639	26.16
540.983	26.33
541.327	26.51
541.671	26.68
542.014	26.85
542.358	27.04
542.701	27.25
543.045	27.42
543.389	27.57
543.732	27.74
544.075	27.91
544.419	28.11
544.762	28.27
545.105	28.46
545.449	28.69
545.792	28.9
546.135	29.1
546.478	29.35
546.821	29.55
547.165	29.77
547.508	30.05
547.851	30.28
548.194	30.54
548.536	30.8
548.879	31.12
549.222	31.41
549.565	31.63
549.908	31.84
550.25	32.09
550.593	32.37
550.936	32.57
551.278	32.8
551.621	33.05
551.963	33.28
552.306	33.57
552.648	33.78
552.991	34.07
553.333	34.31
553.675	34.47
554.017	34.71
554.36	34.88
554.702	35.06
555.044	35.26
555.386	35.47
555.728	35.63
556.07	35.81
556.412	36
556.754	36.2
557.096	36.38
557.438	36.58
557.78	36.79
558.121	37.05
558.463	37.31
558.805	37.47
559.147	37.68
559.488	37.82
559.83	37.97
560.171	38.06
560.513	38.19
560.854	38.33
561.196	38.48
561.537	38.65
561.878	38.8
562.22	38.93
562.561	39.07
562.902	39.22
563.243	39.35
563.584	39.41
563.925	39.55
564.266	39.68
564.607	39.8
564.948	39.87
565.289	40.02
565.63	40.08
565.971	40.21
566.312	40.31
566.653	40.37
566.993	40.46
567.334	40.58
567.675	40.71
568.015	40.83
568.356	40.93
568.696	41.02
569.037	41.17
569.377	41.32
569.718	41.42
570.058	41.5
570.398	41.63
570.739	41.74
571.079	41.84
571.419	41.93
571.759	42.04
572.099	42.12
572.439	42.15
572.779	42.2
573.119	42.29
573.459	42.36
573.799	42.46
574.139	42.53
574.479	42.59
574.819	42.64
575.158	42.73
575.498	42.8
575.838	42.94
576.177	42.94
576.517	42.95
576.856	43.06
577.196	43.12
577.535	43.11
577.875	43.18
578.214	43.27
578.553	43.3
578.893	43.34
579.232	43.41
579.571	43.48
579.91	43.6
580.25	43.63
580.589	43.7
580.928	43.79
581.267	43.86
581.606	43.91
581.945	43.96
582.283	43.97
582.622	43.92
582.961	43.95
583.3	44.05
583.639	44.12
583.977	44.1
584.316	44.22
584.654	44.39
584.993	44.42
585.332	44.42
585.67	44.51
586.008	44.56
586.347	44.64
586.685	44.66
587.024	44.68
587.362	44.72
587.7	44.76
588.038	44.86
588.376	44.89
588.715	44.97
589.053	45.02
589.391	45.12
589.729	45.3
590.067	45.35
590.404	45.37
590.742	45.43
591.08	45.51
591.418	45.43
591.756	45.36
592.093	45.37
592.431	45.48
592.769	45.52
593.106	45.55
593.444	45.51
593.781	45.51
594.119	45.51
594.456	45.61
594.793	45.63
595.131	45.61
595.468	45.61
595.805	45.6
596.143	45.63
596.48	45.62
596.817	45.61
597.154	45.6
597.491	45.63
597.828	45.62
598.165	45.65
598.502	45.71
598.839	45.8
599.176	45.88
599.512	45.87
599.849	45.93
600.186	45.96
600.523	46.04
600.859	46.13
601.196	46.24
601.532	46.21
601.869	46.3
602.205	46.34
602.542	46.34
602.878	46.32
603.215	46.31
603.551	46.32
603.887	46.31
604.223	46.35
604.56	46.43
604.896	46.42
605.232	46.41
605.568	46.51
605.904	46.52
606.24	46.55
606.576	46.59
606.912	46.54
607.248	46.53
607.583	46.59
607.919	46.6
608.255	46.52
608.591	46.57
608.926	46.54
609.262	46.59
609.597	46.68
609.933	46.81
610.268	46.85
610.604	46.92
610.939	46.96
611.275	46.97
611.61	46.98
611.945	47.09
612.281	47.12
612.616	47.13
612.951	47.09
613.286	47.12
613.621	47.09
613.956	47.12
614.291	47.09
614.626	47.03
614.961	47.04
615.296	47.13
615.631	47.18
615.966	47.16
616.3	47.08
616.635	47.1
616.97	47.1
617.304	47.12
617.639	47.13
617.973	47.14
618.308	47.2
618.642	47.23
618.977	47.2
619.311	47.22
619.646	47.22
619.98	47.24
620.314	47.22
620.648	47.27
620.983	47.45
621.317	47.58
621.651	47.73
621.985	47.77
622.319	47.81
622.653	47.78
622.987	47.85
623.321	47.89
623.655	47.94
623.988	47.95
624.322	47.92
624.656	48.06
624.99	48.03
625.323	47.99
625.657	47.93
625.99	48.03
626.324	47.98
626.657	47.95
626.991	48
627.324	48
627.658	48.07
627.991	47.93
628.324	47.89
628.657	47.85
628.991	47.85
629.324	47.89
629.657	47.9
629.99	47.82
630.323	47.83
630.656	47.75
630.989	47.74
631.322	47.69
631.655	47.56
631.987	47.61
632.32	47.65
632.653	47.66
632.986	47.65
633.318	47.71
633.651	47.75
633.984	47.76
634.316	47.81
634.649	47.71
634.981	47.85
635.313	47.83
635.646	47.81
635.978	47.84
636.31	47.8
636.643	47.79
636.975	47.99
637.307	47.96
637.639	48.04
637.971	48.15
638.303	48.23
638.635	48.28
638.967	48.34
639.299	48.31
639.631	48.26
639.963	48.27
640.295	48.25
640.626	48.26
640.958	48.24
641.29	48.28
641.621	48.36
641.953	48.28
642.285	48.26
642.616	48.42
642.948	48.42
643.279	48.39
643.61	48.34
643.942	48.26
644.273	48.29
644.604	48.23
644.936	48.13
645.267	48.18
645.598	48.14
645.929	48.12
646.26	48.15
646.591	48.25
646.922	48.17
647.253	48.26
647.584	48.2
647.915	48.26
648.245	48.23
648.576	48.21
648.907	48.23
649.238	48.32
649.568	48.17
649.899	48.18
650.229	48.24
650.56	48.26
650.89	48.32
651.221	48.36
651.551	48.37
651.882	48.42
652.212	48.4
652.542	48.36
652.872	48.29
653.203	48.26
653.533	48.24
653.863	48.33
654.193	48.22
654.523	48.35
654.853	48.29
655.183	48.29
655.513	48.3
655.843	48.3
656.172	48.35
656.502	48.37
656.832	48.32
657.162	48.33
657.491	48.45
657.821	48.39
658.15	48.36
658.48	48.44
658.809	48.46
659.139	48.55
659.468	48.53
659.798	48.59
660.127	48.51
660.456	48.53
660.785	48.48
661.115	48.5
661.444	48.38
661.773	48.4
662.102	48.5
662.431	48.61
662.76	48.7
663.089	48.6
663.418	48.69
