Data from BU26844_Reflection_00015.txt Node
Date: Mon Nov 18 16:36:34 EST 2019
User: vgr7
Spectrometer: USB2G7710
Scans to average: 3
Trigger mode: 4
Integration Time (sec): 2.000000E-2
Electric dark correction enabled: true
Boxcar width: 10
XAxis mode: Wavelengths
Number of Pixels in Spectrum: 2048
>>>>>Begin Spectral Data<<<<<
177.721	243.73
178.105	8766.67
178.488	-324.54
178.871	-9483.33
179.254	158.66
179.636	-1483.33
180.019	233.12
180.402	58.33
180.785	-60.38
181.168	-3.88
181.55	35.14
181.933	99.31
182.316	99.31
182.698	107.75
183.081	89.17
183.463	104.16
183.846	113.21
184.228	80.24
184.611	184.15
184.993	574.93
185.376	5887.88
185.758	-333.51
186.14	-311.61
186.522	-332.19
186.904	-787.79
187.287	1156.22
187.669	-365.25
188.051	-392.92
188.433	-137.63
188.815	-91.53
189.197	-97.23
189.579	-78.12
189.961	-77.47
190.342	-92.32
190.724	-65.4
191.106	-63.13
191.488	-48.65
191.869	-38.54
192.251	-52.51
192.633	-62.84
193.014	-58.11
193.396	-65.78
193.777	-60.98
194.159	-70.58
194.54	-63.09
194.922	-59.55
195.303	-61.82
195.684	-69.65
196.065	-55.58
196.447	-60.86
196.828	-76.9
197.209	-58.8
197.59	-54.14
197.971	-60.04
198.352	-58.39
198.733	-74.99
199.114	-41.66
199.495	-43.91
199.876	-40.34
200.257	-23.64
200.638	3.9
201.018	0.91
201.399	-12.17
201.78	-15.15
202.16	-32.23
202.541	-43.45
202.922	-41.05
203.302	-68.91
203.683	-54.04
204.063	-129.67
204.444	-187.82
204.824	-134.57
205.204	-78.74
205.585	-115.53
205.965	-107.31
206.345	-76.11
206.725	-96.71
207.106	-169.53
207.486	-325.38
207.866	-507.06
208.246	-551.99
208.626	-812.77
209.006	-198.08
209.386	-141.15
209.766	-166.5
210.145	-62.54
210.525	-66.36
210.905	-64.2
211.285	-31.18
211.664	-31.65
212.044	-36.65
212.424	-31.39
212.803	-40.92
213.183	-43.6
213.562	-43.82
213.942	-11.7
214.321	-16.2
214.701	-9.69
215.08	-21.46
215.459	-15.99
215.838	-13.14
216.218	-14.65
216.597	-18.89
216.976	-10.19
217.355	-16.45
217.734	-14.73
218.113	-15.26
218.492	-17.79
218.871	-19.22
219.25	-21.52
219.629	-18.22
220.008	-0.79
220.387	-9.83
220.766	-8.35
221.144	-18.31
221.523	-29.69
221.902	-50.07
222.28	-55.3
222.659	-58.27
223.037	-47.64
223.416	-60.77
223.794	-60.69
224.173	-53.62
224.551	-34.1
224.929	-33.24
225.308	-29.81
225.686	-23.91
226.064	-19.03
226.442	-13.99
226.821	-8.06
227.199	-13.08
227.577	-12.47
227.955	-14.76
228.333	-9.88
228.711	-4.08
229.089	1.29
229.467	5.3
229.845	8.49
230.222	6.03
230.6	1.59
230.978	2.81
231.356	3.69
231.733	1.22
232.111	1.32
232.488	0.95
232.866	1.27
233.243	2.84
233.621	0.51
233.998	3.08
234.376	2.12
234.753	0.99
235.13	3.39
235.508	5.08
235.885	4.92
236.262	3.28
236.639	1.87
237.016	0.64
237.393	1.67
237.77	1.15
238.147	2.69
238.524	4.17
238.901	4.27
239.278	4.7
239.655	5.86
240.032	6.01
240.409	4.82
240.785	4.94
241.162	4.46
241.539	5.07
241.915	4.91
242.292	4.47
242.668	4.48
243.045	4.35
243.421	3.79
243.798	3.84
244.174	3.87
244.551	3.77
244.927	3.64
245.303	3.46
245.679	3.38
246.056	3.56
246.432	3.26
246.808	3.12
247.184	3.01
247.56	2.95
247.936	2.97
248.312	3.06
248.688	3.13
249.064	3.11
249.44	3.03
249.815	3.03
250.191	3.4
250.567	3.36
250.943	3.4
251.318	3.52
251.694	3.54
252.069	3.61
252.445	3.7
252.82	3.54
253.196	3.55
253.571	3.42
253.947	3.32
254.322	3.89
254.697	3.9
255.073	4.05
255.448	3.83
255.823	3.74
256.198	4.03
256.573	4.09
256.948	4.35
257.323	4.39
257.698	4.29
258.073	3.96
258.448	3.85
258.823	3.82
259.198	3.76
259.573	3.84
259.948	3.74
260.322	3.66
260.697	3.68
261.072	3.57
261.446	3.61
261.821	3.44
262.195	3.36
262.57	3.45
262.944	3.37
263.319	3.28
263.693	3.21
264.067	3.14
264.442	2.98
264.816	2.7
265.19	2.54
265.564	2.38
265.938	2.22
266.313	2.17
266.687	2.27
267.061	2.46
267.435	2.34
267.809	2.42
268.183	2.48
268.556	2.57
268.93	2.58
269.304	2.59
269.678	2.84
270.051	2.7
270.425	2.68
270.799	2.53
271.172	2.64
271.546	2.67
271.919	2.52
272.293	2.58
272.666	2.6
273.04	2.73
273.413	2.76
273.787	2.91
274.16	2.97
274.533	2.87
274.906	2.73
275.279	2.7
275.653	2.67
276.026	2.55
276.399	2.69
276.772	2.86
277.145	2.96
277.518	2.83
277.891	3.01
278.263	2.94
278.636	3.12
279.009	3.09
279.382	3.18
279.755	3.19
280.127	3.23
280.5	3.18
280.872	3.1
281.245	2.92
281.617	3.05
281.99	3.13
282.362	3.19
282.735	3.09
283.107	3.1
283.479	3.24
283.852	3.21
284.224	3.09
284.596	2.9
284.968	2.91
285.34	3.01
285.713	2.91
286.085	2.98
286.457	3
286.829	3
287.201	2.97
287.572	3.1
287.944	3.13
288.316	3.2
288.688	3.34
289.06	3.46
289.431	3.49
289.803	3.63
290.175	3.63
290.546	3.89
290.918	3.96
291.289	3.94
291.661	4.12
292.032	4.29
292.403	4.49
292.775	4.54
293.146	4.52
293.517	4.56
293.889	4.72
294.26	4.68
294.631	4.8
295.002	4.84
295.373	4.79
295.744	4.82
296.115	4.91
296.486	4.74
296.857	4.83
297.228	4.76
297.599	4.62
297.97	4.66
298.34	4.66
298.711	4.72
299.082	4.67
299.452	4.72
299.823	4.76
300.194	4.71
300.564	4.86
300.935	5.05
301.305	5.1
301.676	5.1
302.046	5.27
302.416	5.29
302.787	5.39
303.157	5.53
303.527	5.6
303.897	5.67
304.267	5.93
304.637	5.92
305.008	6.13
305.378	6.2
305.748	6.38
306.117	6.29
306.487	6.34
306.857	6.59
307.227	6.73
307.597	6.62
307.967	6.81
308.336	6.82
308.706	6.75
309.076	6.85
309.445	6.83
309.815	6.79
310.184	6.77
310.554	6.78
310.923	6.73
311.293	6.8
311.662	6.84
312.031	6.86
312.401	6.96
312.77	6.97
313.139	7.08
313.508	7.14
313.877	7.32
314.246	7.42
314.616	7.37
314.985	7.3
315.353	7.42
315.722	7.51
316.091	7.5
316.46	7.61
316.829	7.76
317.198	7.83
317.567	7.93
317.935	8
318.304	8.08
318.672	8.22
319.041	8.22
319.41	8.16
319.778	8.28
320.147	8.33
320.515	8.47
320.883	8.42
321.252	8.5
321.62	8.5
321.988	8.52
322.357	8.71
322.725	8.75
323.093	8.74
323.461	8.66
323.829	8.75
324.197	8.78
324.565	8.75
324.933	8.73
325.301	8.73
325.669	8.83
326.037	8.86
326.405	9.02
326.772	9.11
327.14	9.29
327.508	9.28
327.875	9.36
328.243	9.41
328.61	9.6
328.978	9.57
329.346	9.71
329.713	9.78
330.08	9.77
330.448	9.8
330.815	9.77
331.182	9.84
331.55	9.83
331.917	9.84
332.284	9.87
332.651	10.08
333.018	10.32
333.385	10.4
333.752	10.47
334.119	10.51
334.486	10.46
334.853	10.54
335.22	10.58
335.587	10.65
335.954	10.62
336.32	10.6
336.687	10.67
337.054	10.75
337.42	10.69
337.787	10.74
338.153	10.97
338.52	11.14
338.886	11.22
339.253	11.21
339.619	11.41
339.986	11.47
340.352	11.57
340.718	11.52
341.084	11.54
341.451	11.58
341.817	11.65
342.183	11.67
342.549	11.74
342.915	11.86
343.281	11.85
343.647	11.9
344.013	11.95
344.379	11.9
344.745	11.87
345.11	11.98
345.476	11.98
345.842	11.88
346.208	11.88
346.573	11.89
346.939	12.07
347.304	11.96
347.67	12.03
348.035	11.92
348.401	11.99
348.766	12.03
349.132	12.07
349.497	11.96
349.862	12.04
350.228	11.95
350.593	11.81
350.958	11.87
351.323	11.88
351.688	11.99
352.053	12.08
352.418	12.09
352.783	12.04
353.148	12.03
353.513	12
353.878	12.04
354.243	12.1
354.608	12
354.972	12.01
355.337	11.98
355.702	12.03
356.066	12.01
356.431	12.05
356.795	12.03
357.16	12.04
357.524	11.99
357.889	12.02
358.253	12.04
358.618	12.02
358.982	11.98
359.346	11.87
359.71	11.8
360.075	11.78
360.439	11.81
360.803	11.78
361.167	11.78
361.531	11.72
361.895	11.67
362.259	11.67
362.623	11.65
362.987	11.6
363.351	11.59
363.714	11.54
364.078	11.45
364.442	11.35
364.806	11.32
365.169	11.35
365.533	11.29
365.896	11.34
366.26	11.3
366.623	11.34
366.987	11.34
367.35	11.35
367.714	11.3
368.077	11.24
368.44	11.21
368.803	11.15
369.167	11.11
369.53	11.06
369.893	11.04
370.256	10.98
370.619	10.87
370.982	10.77
371.345	10.7
371.708	10.67
372.071	10.6
372.434	10.59
372.797	10.47
373.159	10.33
373.522	10.19
373.885	10.16
374.247	10.03
374.61	9.91
374.973	9.8
375.335	9.72
375.698	9.63
376.06	9.54
376.423	9.52
376.785	9.45
377.147	9.43
377.51	9.32
377.872	9.29
378.234	9.27
378.596	9.21
378.958	9.12
379.321	9.07
379.683	9.06
380.045	8.93
380.407	8.89
380.769	8.81
381.13	8.78
381.492	8.69
381.854	8.6
382.216	8.52
382.578	8.42
382.939	8.34
383.301	8.29
383.663	8.19
384.024	8.1
384.386	8.05
384.747	8.01
385.109	7.98
385.47	7.93
385.832	7.91
386.193	7.88
386.554	7.86
386.916	7.81
387.277	7.74
387.638	7.75
387.999	7.69
388.36	7.68
388.721	7.6
389.082	7.57
389.443	7.54
389.804	7.53
390.165	7.5
390.526	7.46
390.887	7.43
391.248	7.41
391.609	7.38
391.969	7.33
392.33	7.25
392.691	7.22
393.051	7.11
393.412	7.05
393.772	6.95
394.133	6.88
394.493	6.82
394.854	6.77
395.214	6.69
395.574	6.61
395.935	6.56
396.295	6.53
396.655	6.44
397.015	6.41
397.376	6.37
397.736	6.29
398.096	6.25
398.456	6.18
398.816	6.13
399.176	6.03
399.535	5.99
399.895	5.9
400.255	5.84
400.615	5.8
400.975	5.73
401.334	5.7
401.694	5.66
402.054	5.58
402.413	5.54
402.773	5.49
403.132	5.47
403.492	5.41
403.851	5.38
404.211	5.35
404.57	5.29
404.929	5.24
405.288	5.22
405.648	5.17
406.007	5.14
406.366	5.1
406.725	5.1
407.084	5.08
407.443	5.07
407.802	5.04
408.161	5.05
408.52	5.02
408.879	5
409.238	4.98
409.596	5.02
409.955	5.02
410.314	5.01
410.673	4.98
411.031	5.01
411.39	4.98
411.748	4.95
412.107	4.95
412.465	4.92
412.824	4.91
413.182	4.89
413.54	4.87
413.899	4.87
414.257	4.86
414.615	4.84
414.974	4.82
415.332	4.79
415.69	4.76
416.048	4.74
416.406	4.71
416.764	4.67
417.122	4.61
417.48	4.56
417.838	4.54
418.195	4.52
418.553	4.47
418.911	4.46
419.269	4.45
419.626	4.43
419.984	4.43
420.342	4.4
420.699	4.36
421.057	4.35
421.414	4.32
421.772	4.29
422.129	4.27
422.486	4.26
422.844	4.24
423.201	4.2
423.558	4.19
423.915	4.17
424.273	4.15
424.63	4.14
424.987	4.11
425.344	4.1
425.701	4.08
426.058	4.07
426.415	4.03
426.772	4
427.128	3.97
427.485	3.92
427.842	3.91
428.199	3.91
428.555	3.89
428.912	3.88
429.269	3.88
429.625	3.83
429.982	3.8
430.338	3.79
430.695	3.79
431.051	3.76
431.407	3.75
431.764	3.75
432.12	3.76
432.476	3.78
432.832	3.78
433.189	3.78
433.545	3.78
433.901	3.81
434.257	3.81
434.613	3.83
434.969	3.85
435.325	3.84
435.681	3.84
436.036	3.85
436.392	3.86
436.748	3.86
437.104	3.88
437.459	3.89
437.815	3.91
438.171	3.92
438.526	3.94
438.882	3.94
439.237	3.94
439.593	3.93
439.948	3.92
440.304	3.91
440.659	3.9
441.014	3.9
441.369	3.88
441.725	3.87
442.08	3.87
442.435	3.86
442.79	3.86
443.145	3.85
443.5	3.83
443.855	3.82
444.21	3.81
444.565	3.83
444.92	3.82
445.275	3.78
445.629	3.78
445.984	3.76
446.339	3.75
446.693	3.73
447.048	3.72
447.403	3.72
447.757	3.7
448.112	3.69
448.466	3.68
448.82	3.66
449.175	3.67
449.529	3.65
449.883	3.62
450.238	3.62
450.592	3.62
450.946	3.62
451.3	3.6
451.654	3.59
452.008	3.56
452.362	3.54
452.716	3.54
453.07	3.53
453.424	3.53
453.778	3.51
454.132	3.5
454.486	3.5
454.839	3.48
455.193	3.48
455.547	3.47
455.9	3.45
456.254	3.47
456.607	3.46
456.961	3.48
457.314	3.47
457.668	3.46
458.021	3.46
458.375	3.45
458.728	3.45
459.081	3.45
459.434	3.45
459.787	3.47
460.141	3.47
460.494	3.46
460.847	3.47
461.2	3.5
461.553	3.52
461.906	3.54
462.259	3.57
462.611	3.6
462.964	3.63
463.317	3.65
463.67	3.68
464.022	3.68
464.375	3.68
464.728	3.74
465.08	3.78
465.433	3.82
465.785	3.85
466.138	3.87
466.49	3.9
466.843	3.91
467.195	3.94
467.547	3.98
467.899	4
468.252	4.02
468.604	4.02
468.956	4.04
469.308	4.08
469.66	4.08
470.012	4.09
470.364	4.1
470.716	4.14
471.068	4.16
471.42	4.2
471.772	4.26
472.123	4.26
472.475	4.26
472.827	4.26
473.178	4.29
473.53	4.32
473.882	4.35
474.233	4.38
474.585	4.37
474.936	4.36
475.288	4.38
475.639	4.4
475.99	4.42
476.342	4.43
476.693	4.42
477.044	4.43
477.395	4.42
477.746	4.39
478.097	4.38
478.448	4.36
478.8	4.33
479.15	4.27
479.501	4.25
479.852	4.23
480.203	4.2
480.554	4.17
480.905	4.15
481.255	4.13
481.606	4.11
481.957	4.11
482.307	4.1
482.658	4.08
483.009	4.06
483.359	4.03
483.709	4.02
484.06	4.01
484.41	4
484.761	3.99
485.111	3.99
485.461	3.98
485.811	3.97
486.162	3.97
486.512	3.97
486.862	3.95
487.212	3.95
487.562	3.95
487.912	3.95
488.262	3.94
488.612	3.95
488.961	3.94
489.311	3.94
489.661	3.95
490.011	3.96
490.36	3.97
490.71	3.99
491.06	4
491.409	4.02
491.759	4.03
492.108	4.06
492.458	4.08
492.807	4.1
493.157	4.14
493.506	4.17
493.855	4.22
494.204	4.26
494.554	4.31
494.903	4.35
495.252	4.4
495.601	4.46
495.95	4.51
496.299	4.58
496.648	4.62
496.997	4.69
497.346	4.77
497.695	4.87
498.043	4.95
498.392	5.04
498.741	5.15
499.09	5.22
499.438	5.32
499.787	5.42
500.135	5.55
500.484	5.63
500.832	5.77
501.181	5.87
501.529	6.01
501.878	6.15
502.226	6.29
502.574	6.45
502.923	6.61
503.271	6.77
503.619	6.98
503.967	7.18
504.315	7.35
504.663	7.54
505.011	7.72
505.359	7.92
505.707	8.15
506.055	8.37
506.403	8.58
506.751	8.79
507.098	9.03
507.446	9.23
507.794	9.47
508.141	9.72
508.489	9.98
508.837	10.23
509.184	10.5
509.531	10.75
509.879	11.04
510.226	11.32
510.574	11.57
510.921	11.82
511.268	12.08
511.616	12.39
511.963	12.7
512.31	13.01
512.657	13.31
513.004	13.63
513.351	13.93
513.698	14.28
514.045	14.65
514.392	15
514.739	15.37
515.086	15.74
515.432	16.05
515.779	16.37
516.126	16.72
516.473	17.04
516.819	17.41
517.166	17.68
517.512	17.97
517.859	18.26
518.205	18.54
518.552	18.84
518.898	19.1
519.245	19.34
519.591	19.63
519.937	19.9
520.283	20.15
520.629	20.46
520.976	20.76
521.322	21.05
521.668	21.34
522.014	21.69
522.36	22
522.706	22.38
523.052	22.75
523.398	23.1
523.743	23.47
524.089	23.82
524.435	24.17
524.781	24.53
525.126	24.84
525.472	25.12
525.817	25.38
526.163	25.62
526.509	25.86
526.854	26.05
527.199	26.24
527.545	26.45
527.89	26.63
528.235	26.83
528.581	27.03
528.926	27.22
529.271	27.4
529.616	27.59
529.961	27.76
530.306	27.96
530.651	28.18
530.996	28.39
531.341	28.59
531.686	28.81
532.031	29
532.376	29.22
532.721	29.46
533.065	29.7
533.41	29.96
533.755	30.18
534.099	30.45
534.444	30.71
534.788	30.95
535.133	31.16
535.477	31.39
535.822	31.62
536.166	31.9
536.51	32.17
536.855	32.42
537.199	32.7
537.543	32.98
537.887	33.24
538.231	33.55
538.576	33.84
538.92	34.12
539.264	34.4
539.608	34.63
539.951	34.85
540.295	35.07
540.639	35.24
540.983	35.41
541.327	35.61
541.671	35.78
542.014	35.94
542.358	36.15
542.701	36.32
543.045	36.49
543.389	36.62
543.732	36.78
544.075	36.97
544.419	37.13
544.762	37.27
545.105	37.43
545.449	37.57
545.792	37.73
546.135	37.95
546.478	38.13
546.821	38.36
547.165	38.57
547.508	38.75
547.851	38.98
548.194	39.23
548.536	39.39
548.879	39.62
549.222	39.81
549.565	40.01
549.908	40.2
550.25	40.44
550.593	40.73
550.936	40.97
551.278	41.18
551.621	41.38
551.963	41.64
552.306	41.88
552.648	42.08
552.991	42.3
553.333	42.44
553.675	42.63
554.017	42.79
554.36	42.92
554.702	43.02
555.044	43.15
555.386	43.33
555.728	43.5
556.07	43.66
556.412	43.82
556.754	43.94
557.096	44.07
557.438	44.2
557.78	44.3
558.121	44.4
558.463	44.56
558.805	44.72
559.147	44.82
559.488	44.9
559.83	45.03
560.171	45.11
560.513	45.24
560.854	45.34
561.196	45.38
561.537	45.55
561.878	45.69
562.22	45.81
562.561	45.9
562.902	45.98
563.243	46.01
563.584	46.15
563.925	46.27
564.266	46.3
564.607	46.4
564.948	46.49
565.289	46.6
565.63	46.64
565.971	46.7
566.312	46.81
566.653	46.97
566.993	47.07
567.334	47.15
567.675	47.24
568.015	47.34
568.356	47.44
568.696	47.49
569.037	47.6
569.377	47.68
569.718	47.71
570.058	47.8
570.398	47.88
570.739	47.96
571.079	48
571.419	48.16
571.759	48.24
572.099	48.23
572.439	48.3
572.779	48.39
573.119	48.49
573.459	48.57
573.799	48.61
574.139	48.63
574.479	48.75
574.819	48.77
575.158	48.85
575.498	48.93
575.838	49.04
576.177	49.09
576.517	49.15
576.856	49.34
577.196	49.42
577.535	49.54
577.875	49.55
578.214	49.62
578.553	49.74
578.893	49.85
579.232	50.05
579.571	50.19
579.91	50.3
580.25	50.35
580.589	50.39
580.928	50.51
581.267	50.65
581.606	50.7
581.945	50.82
582.283	50.85
582.622	50.97
582.961	50.94
583.3	50.98
583.639	51.14
583.977	51.21
584.316	51.28
584.654	51.33
584.993	51.52
585.332	51.62
585.67	51.61
586.008	51.63
586.347	51.67
586.685	51.68
587.024	51.72
587.362	51.85
587.7	51.91
588.038	51.95
588.376	52.03
588.715	52.05
589.053	52.13
589.391	52.27
589.729	52.31
590.067	52.47
590.404	52.5
590.742	52.56
591.08	52.56
591.418	52.61
591.756	52.64
592.093	52.58
592.431	52.63
592.769	52.69
593.106	52.81
593.444	52.83
593.781	52.87
594.119	52.92
594.456	52.88
594.793	52.9
595.131	52.91
595.468	52.87
595.805	52.88
596.143	52.85
596.48	52.82
596.817	52.8
597.154	52.77
597.491	52.91
597.828	52.87
598.165	52.9
598.502	52.92
598.839	52.98
599.176	53.04
599.512	53.06
599.849	53.16
600.186	53.18
600.523	53.23
600.859	53.25
601.196	53.21
601.532	53.32
601.869	53.44
602.205	53.49
602.542	53.52
602.878	53.57
603.215	53.59
603.551	53.64
603.887	53.71
604.223	53.76
604.56	53.76
604.896	53.77
605.232	53.86
605.568	53.92
605.904	54
606.24	54.05
606.576	54.05
606.912	54.07
607.248	54.1
607.583	54.25
607.919	54.32
608.255	54.42
608.591	54.48
608.926	54.47
609.262	54.51
609.597	54.61
609.933	54.64
610.268	54.75
610.604	54.72
610.939	54.79
611.275	54.82
611.61	54.83
611.945	54.86
612.281	54.82
612.616	54.81
612.951	54.81
613.286	54.9
613.621	55.04
613.956	55.03
614.291	55
614.626	54.89
614.961	54.92
615.296	54.96
615.631	54.94
615.966	54.97
616.3	54.91
616.635	55
616.97	55.14
617.304	55.12
617.639	55.22
617.973	55.28
618.308	55.3
618.642	55.42
618.977	55.47
619.311	55.5
619.646	55.58
619.98	55.58
620.314	55.53
620.648	55.5
620.983	55.51
621.317	55.55
621.651	55.56
621.985	55.53
622.319	55.53
622.653	55.52
622.987	55.53
623.321	55.68
623.655	55.69
623.988	55.6
624.322	55.57
624.656	55.55
624.99	55.5
625.323	55.59
625.657	55.64
625.99	55.69
626.324	55.71
626.657	55.75
626.991	55.77
627.324	55.76
627.658	55.81
627.991	55.82
628.324	55.87
628.657	55.99
628.991	56.07
629.324	56.14
629.657	56.23
629.99	56.27
630.323	56.23
630.656	56.27
630.989	56.35
631.322	56.39
631.655	56.51
631.987	56.56
632.32	56.75
632.653	56.64
632.986	56.6
633.318	56.7
633.651	56.63
633.984	56.67
634.316	56.64
634.649	56.68
634.981	56.83
635.313	56.88
635.646	56.78
635.978	56.79
636.31	56.75
636.643	56.78
636.975	56.75
637.307	56.8
637.639	56.79
637.971	56.79
638.303	56.9
638.635	56.83
638.967	56.88
639.299	56.61
639.631	56.69
639.963	56.76
640.295	56.71
640.626	56.77
640.958	56.79
641.29	56.91
641.621	56.77
641.953	56.7
642.285	56.67
642.616	56.84
642.948	56.79
643.279	56.8
643.61	56.64
643.942	56.67
644.273	56.73
644.604	56.63
644.936	56.74
645.267	56.7
645.598	56.83
645.929	56.88
646.26	56.94
646.591	56.84
646.922	56.82
647.253	56.82
647.584	56.81
647.915	56.81
648.245	56.82
648.576	57.01
648.907	57.01
649.238	57
649.568	56.86
649.899	56.99
650.229	57.05
650.56	57.09
650.89	57.14
651.221	57.15
651.551	57.18
651.882	57.09
652.212	57.18
652.542	57.14
652.872	57.07
653.203	57.04
653.533	57.2
653.863	57.21
654.193	57.11
654.523	57.14
654.853	57.02
655.183	57.03
655.513	56.98
655.843	57.01
656.172	57.05
656.502	57.14
656.832	57.16
657.162	57.19
657.491	57.23
657.821	57.37
658.15	57.38
658.48	57.49
658.809	57.42
659.139	57.36
659.468	57.35
659.798	57.42
660.127	57.44
660.456	57.46
660.785	57.52
661.115	57.61
661.444	57.7
661.773	57.83
662.102	57.89
662.431	57.92
662.76	58
663.089	58.02
663.418	58.07
663.747	58.09
664.076	58.05
