Data from BU26938_Reflection_00001.txt Node
Date: Tue Nov 19 10:42:07 EST 2019
User: vgr7
Spectrometer: USB2G7710
Scans to average: 3
Trigger mode: 4
Integration Time (sec): 2.000000E-2
Electric dark correction enabled: true
Boxcar width: 10
XAxis mode: Wavelengths
Number of Pixels in Spectrum: 2048
>>>>>Begin Spectral Data<<<<<
177.721	-44.54
178.105	-938.46
178.488	675.19
178.871	3700
179.254	-25.81
179.636	202.27
180.019	207.51
180.402	-9.52
180.785	242.11
181.168	-140.46
181.55	-192.21
181.933	13.61
182.316	314.29
182.698	-529.03
183.081	162.74
183.463	-240.49
183.846	-760.66
184.228	-716.46
184.611	-1260.47
184.993	-905.88
185.376	-6542.86
185.758	76.34
186.14	213.11
186.522	161.82
186.904	400
187.287	87.48
187.669	102.16
188.051	83.31
188.433	111.57
188.815	58.85
189.197	49.38
189.579	65.12
189.961	107.39
190.342	12.4
190.724	-25.28
191.106	-106.2
191.488	-46.48
191.869	-71.06
192.251	-55.47
192.633	-73.44
193.014	-76.2
193.396	-68.78
193.777	-32.47
194.159	-42.39
194.54	-28.48
194.922	-47.25
195.303	-48.9
195.684	-28.25
196.065	-17.67
196.447	-25.42
196.828	-15.48
197.209	-8.2
197.59	-1.65
197.971	-8.84
198.352	-14.68
198.733	-16.4
199.114	-29.95
199.495	-36.09
199.876	-12.68
200.257	-24.19
200.638	-15.28
201.018	-6.3
201.399	-7.67
201.78	-19.34
202.16	-7.58
202.541	-33.65
202.922	-23.3
203.302	-28.66
203.683	-45.71
204.063	-63.11
204.444	-69.65
204.824	-69.21
205.204	-76.42
205.585	-112.96
205.965	-148.61
206.345	-98.48
206.725	-88.2
207.106	-45.46
207.486	-45.16
207.866	-49.22
208.246	-39.18
208.626	-66.4
209.006	-99.32
209.386	-141.48
209.766	-127.07
210.145	-147.11
210.525	-329.11
210.905	-248.56
211.285	-95.99
211.664	-85.43
212.044	-99
212.424	-45.73
212.803	-101.38
213.183	-104.46
213.562	-60.66
213.942	-27.55
214.321	-49.64
214.701	-75.73
215.08	-119.22
215.459	-90.59
215.838	-91.28
216.218	-89.03
216.597	-38.48
216.976	-44.95
217.355	-26.13
217.734	-37.33
218.113	-28.63
218.492	-17.66
218.871	-34.81
219.25	-40.54
219.629	-67.11
220.008	-44.43
220.387	-64.05
220.766	-47.77
221.144	-65.2
221.523	-58.24
221.902	-71.98
222.28	-58.73
222.659	-20.77
223.037	-3.25
223.416	3.17
223.794	-0.37
224.173	-4.43
224.551	-14.39
224.929	-20.82
225.308	-25.88
225.686	-22.72
226.064	-25.03
226.442	-15.99
226.821	-12.25
227.199	-14.62
227.577	-7.37
227.955	-6.28
228.333	-3.76
228.711	-1.49
229.089	0.41
229.467	-4.65
229.845	-4.76
230.222	-3.45
230.6	-4.77
230.978	-6.06
231.356	-6.38
231.733	-7.36
232.111	-4.45
232.488	-3.34
232.866	-1.42
233.243	-0.22
233.621	-1.1
233.998	-0.07
234.376	-2.08
234.753	-3.02
235.13	-4.03
235.508	-3.38
235.885	-4.43
236.262	-4.21
236.639	-3.72
237.016	-4.05
237.393	-1.33
237.77	-0.96
238.147	-0.67
238.524	-1.65
238.901	-1.39
239.278	-1.76
239.655	-1.23
240.032	-1.3
240.409	-1.8
240.785	-0.98
241.162	-0.94
241.539	-0.55
241.915	-0.34
242.292	0.26
242.668	0.63
243.045	1.52
243.421	1.94
243.798	2.36
244.174	2.75
244.551	2.86
244.927	2.75
245.303	2.61
245.679	2.81
246.056	2.97
246.432	3.11
246.808	3.2
247.184	3.4
247.56	3.48
247.936	3.62
248.312	3.83
248.688	3.77
249.064	4.04
249.44	4.15
249.815	4.07
250.191	4.04
250.567	4.08
250.943	3.85
251.318	3.76
251.694	3.86
252.069	4
252.445	3.92
252.82	4.62
253.196	4.7
253.571	4.91
253.947	4.87
254.322	4.83
254.697	4.46
255.073	4.33
255.448	4.34
255.823	4.2
256.198	4.02
256.573	4.05
256.948	3.97
257.323	3.72
257.698	3.81
258.073	3.75
258.448	3.83
258.823	3.77
259.198	3.83
259.573	3.47
259.948	3.34
260.322	3.24
260.697	3.17
261.072	3.18
261.446	3.06
261.821	3.1
262.195	3.15
262.57	3.16
262.944	3.05
263.319	3.09
263.693	3
264.067	3.07
264.442	2.93
264.816	2.78
265.19	2.85
265.564	2.85
265.938	2.95
266.313	2.66
266.687	2.7
267.061	2.51
267.435	2.81
267.809	2.63
268.183	2.7
268.556	2.55
268.93	2.51
269.304	2.42
269.678	2.37
270.051	2.44
270.425	2.55
270.799	2.46
271.172	2.28
271.546	2.53
271.919	2.46
272.293	2.58
272.666	2.7
273.04	2.64
273.413	2.47
273.787	2.27
274.16	2.3
274.533	2.46
274.906	2.61
275.279	2.65
275.653	2.83
276.026	2.88
276.399	2.78
276.772	2.95
277.145	3.08
277.518	3.02
277.891	2.97
278.263	3.04
278.636	3.4
279.009	3.59
279.382	3.41
279.755	3.52
280.127	3.44
280.5	3.42
280.872	3.51
281.245	3.68
281.617	3.79
281.99	3.79
282.362	3.56
282.735	3.46
283.107	3.36
283.479	3.36
283.852	3.33
284.224	3.34
284.596	3.12
284.968	3.21
285.34	3.14
285.713	3.08
286.085	2.96
286.457	2.85
286.829	2.78
287.201	2.78
287.572	2.69
287.944	2.88
288.316	2.94
288.688	2.96
289.06	2.92
289.431	3.01
289.803	3.02
290.175	3.14
290.546	3.08
290.918	3.11
291.289	2.99
291.661	3.02
292.032	3.16
292.403	3.25
292.775	3.23
293.146	3.42
293.517	3.5
293.889	3.49
294.26	3.43
294.631	3.52
295.002	3.57
295.373	3.5
295.744	3.41
296.115	3.34
296.486	3.32
296.857	3.35
297.228	3.12
297.599	3.17
297.97	3.16
298.34	3.14
298.711	3.14
299.082	3.2
299.452	3.13
299.823	3.01
300.194	3.09
300.564	3.04
300.935	2.93
301.305	2.95
301.676	2.98
302.046	3.06
302.416	2.94
302.787	2.99
303.157	3.04
303.527	3.19
303.897	3.11
304.267	3.09
304.637	3.03
305.008	3.11
305.378	3.12
305.748	2.96
306.117	2.99
306.487	2.96
306.857	2.98
307.227	3.07
307.597	3.01
307.967	2.87
308.336	2.8
308.706	2.87
309.076	2.88
309.445	3.13
309.815	3.25
310.184	3.31
310.554	3.21
310.923	3.3
311.293	3.03
311.662	3.14
312.031	3.11
312.401	3.16
312.77	3.19
313.139	3.18
313.508	3.31
313.877	3.36
314.246	3.48
314.616	3.38
314.985	3.29
315.353	3.44
315.722	3.52
316.091	3.47
316.46	3.32
316.829	3.38
317.198	3.01
317.567	2.87
317.935	2.74
318.304	2.76
318.672	2.74
319.041	2.83
319.41	2.83
319.778	2.88
320.147	2.92
320.515	2.96
320.883	2.97
321.252	2.97
321.62	2.87
321.988	2.7
322.357	2.76
322.725	2.8
323.093	2.55
323.461	2.59
323.829	2.78
324.197	2.81
324.565	2.75
324.933	2.77
325.301	2.69
325.669	2.85
326.037	2.78
326.405	2.7
326.772	2.75
327.14	2.66
327.508	2.61
327.875	2.62
328.243	2.62
328.61	2.71
328.978	2.64
329.346	2.73
329.713	2.82
330.08	2.89
330.448	2.77
330.815	2.98
331.182	2.88
331.55	2.8
331.917	2.7
332.284	2.59
332.651	2.71
333.018	2.71
333.385	2.69
333.752	2.72
334.119	2.76
334.486	2.78
334.853	2.74
335.22	2.74
335.587	2.63
335.954	2.65
336.32	2.57
336.687	2.7
337.054	2.7
337.42	2.73
337.787	2.61
338.153	2.8
338.52	2.84
338.886	2.96
339.253	2.83
339.619	3.06
339.986	3.06
340.352	3.07
340.718	3.1
341.084	3.03
341.451	3.08
341.817	3.15
342.183	3.11
342.549	3.13
342.915	3.13
343.281	3.17
343.647	3.14
344.013	3.19
344.379	3.07
344.745	2.98
345.11	2.94
345.476	3.03
345.842	2.97
346.208	3
346.573	2.96
346.939	3.02
347.304	2.97
347.67	2.98
348.035	2.93
348.401	2.94
348.766	2.93
349.132	2.92
349.497	2.86
349.862	2.8
350.228	2.79
350.593	2.91
350.958	3.05
351.323	3.06
351.688	3.02
352.053	3.03
352.418	3.1
352.783	3.1
353.148	3.19
353.513	3.19
353.878	3.14
354.243	3.08
354.608	3.13
354.972	3.07
355.337	3.16
355.702	3.25
356.066	3.22
356.431	3.22
356.795	3.19
357.16	3.19
357.524	3.25
357.889	3.25
358.253	3.17
358.618	3.06
358.982	3.07
359.346	3.06
359.71	3.08
360.075	3.11
360.439	3.1
360.803	3.03
361.167	3.02
361.531	2.99
361.895	2.98
362.259	2.99
362.623	3.02
362.987	3.02
363.351	2.99
363.714	3.07
364.078	3.06
364.442	3.08
364.806	3.03
365.169	3.06
365.533	3.12
365.896	3.14
366.26	3.08
366.623	3.04
366.987	3.05
367.35	3.07
367.714	3.02
368.077	3.07
368.44	3.05
368.803	3.01
369.167	3
369.53	3.01
369.893	2.94
370.256	2.92
370.619	2.9
370.982	2.84
371.345	2.8
371.708	2.85
372.071	2.79
372.434	2.87
372.797	2.82
373.159	2.74
373.522	2.7
373.885	2.77
374.247	2.81
374.61	2.82
374.973	2.86
375.335	2.87
375.698	2.84
376.06	2.81
376.423	2.8
376.785	2.8
377.147	2.81
377.51	2.83
377.872	2.79
378.234	2.8
378.596	2.81
378.958	2.8
379.321	2.8
379.683	2.85
380.045	2.8
380.407	2.85
380.769	2.89
381.13	2.9
381.492	2.86
381.854	2.9
382.216	2.91
382.578	2.87
382.939	2.86
383.301	2.9
383.663	2.92
384.024	2.92
384.386	2.95
384.747	2.91
385.109	2.93
385.47	2.96
385.832	2.93
386.193	2.95
386.554	2.92
386.916	2.93
387.277	2.92
387.638	2.98
387.999	2.98
388.36	2.97
388.721	2.98
389.082	3.05
389.443	3.04
389.804	3.04
390.165	3.03
390.526	3.05
390.887	3.05
391.248	3.09
391.609	3.12
391.969	3.11
392.33	3.13
392.691	3.13
393.051	3.17
393.412	3.16
393.772	3.2
394.133	3.2
394.493	3.19
394.854	3.2
395.214	3.18
395.574	3.15
395.935	3.16
396.295	3.15
396.655	3.1
397.015	3.08
397.376	3.09
397.736	3.08
398.096	3.08
398.456	3.05
398.816	3
399.176	2.99
399.535	2.99
399.895	2.99
400.255	2.99
400.615	2.95
400.975	2.96
401.334	2.93
401.694	2.95
402.054	2.97
402.413	2.96
402.773	2.97
403.132	2.96
403.492	2.98
403.851	2.96
404.211	2.98
404.57	2.99
404.929	3
405.288	3.03
405.648	3.03
406.007	3.02
406.366	3.03
406.725	3.03
407.084	3.05
407.443	3.07
407.802	3.07
408.161	3.09
408.52	3.1
408.879	3.12
409.238	3.09
409.596	3.08
409.955	3.09
410.314	3.08
410.673	3.07
411.031	3.01
411.39	3.03
411.748	3.03
412.107	3.03
412.465	3
412.824	2.98
413.182	2.98
413.54	3
413.899	3.02
414.257	3.01
414.615	3
414.974	3
415.332	2.99
415.69	2.99
416.048	2.98
416.406	2.96
416.764	2.97
417.122	2.98
417.48	2.98
417.838	2.98
418.195	3
418.553	3.03
418.911	3.04
419.269	3.06
419.626	3.06
419.984	3.06
420.342	3.05
420.699	3.04
421.057	3.05
421.414	3.04
421.772	3.04
422.129	3.03
422.486	3.03
422.844	3.02
423.201	3.02
423.558	3.03
423.915	3.05
424.273	3.04
424.63	3.03
424.987	3.01
425.344	3.01
425.701	3.01
426.058	3
426.415	2.99
426.772	2.96
427.128	2.97
427.485	2.97
427.842	2.97
428.199	2.97
428.555	2.97
428.912	2.98
429.269	2.95
429.625	2.98
429.982	2.98
430.338	3.02
430.695	3.01
431.051	3.02
431.407	3
431.764	3
432.12	3.01
432.476	3.02
432.832	3.03
433.189	3.04
433.545	3.03
433.901	3.05
434.257	3.05
434.613	3.04
434.969	3.03
435.325	3.04
435.681	3.03
436.036	3.03
436.392	3.02
436.748	3.05
437.104	3.02
437.459	3.01
437.815	2.99
438.171	3.01
438.526	3
438.882	3
439.237	3
439.593	2.99
439.948	2.99
440.304	2.99
440.659	2.99
441.014	2.99
441.369	2.97
441.725	2.99
442.08	2.99
442.435	2.99
442.79	2.97
443.145	2.98
443.5	2.98
443.855	2.96
444.21	2.95
444.565	2.95
444.92	2.96
445.275	2.96
445.629	2.95
445.984	2.95
446.339	2.95
446.693	2.96
447.048	2.96
447.403	2.96
447.757	2.97
448.112	2.96
448.466	2.97
448.82	2.98
449.175	2.96
449.529	2.97
449.883	2.97
450.238	2.98
450.592	2.96
450.946	2.97
451.3	2.99
451.654	2.99
452.008	3
452.362	3
452.716	3.01
453.07	3.02
453.424	3.02
453.778	3.02
454.132	3.02
454.486	3.03
454.839	3.02
455.193	3.01
455.547	3.01
455.9	3.02
456.254	3.02
456.607	3.03
456.961	3.03
457.314	3.03
457.668	3.04
458.021	3.05
458.375	3.06
458.728	3.05
459.081	3.06
459.434	3.06
459.787	3.06
460.141	3.06
460.494	3.06
460.847	3.06
461.2	3.07
461.553	3.07
461.906	3.08
462.259	3.08
462.611	3.08
462.964	3.1
463.317	3.07
463.67	3.08
464.022	3.07
464.375	3.06
464.728	3.06
465.08	3.05
465.433	3.05
465.785	3.05
466.138	3.05
466.49	3.07
466.843	3.08
467.195	3.06
467.547	3.07
467.899	3.07
468.252	3.06
468.604	3.06
468.956	3.05
469.308	3.02
469.66	3.01
470.012	3.02
470.364	3
470.716	3.02
471.068	2.99
471.42	3.02
471.772	3.03
472.123	3.05
472.475	3.04
472.827	3.05
473.178	3.07
473.53	3.08
473.882	3.07
474.233	3.06
474.585	3.08
474.936	3.07
475.288	3.07
475.639	3.07
475.99	3.05
476.342	3.07
476.693	3.09
477.044	3.11
477.395	3.11
477.746	3.09
478.097	3.11
478.448	3.11
478.8	3.08
479.15	3.07
479.501	3.07
479.852	3.08
480.203	3.07
480.554	3.07
480.905	3.08
481.255	3.08
481.606	3.1
481.957	3.11
482.307	3.12
482.658	3.13
483.009	3.14
483.359	3.15
483.709	3.16
484.06	3.17
484.41	3.17
484.761	3.18
485.111	3.19
485.461	3.19
485.811	3.19
486.162	3.2
486.512	3.21
486.862	3.22
487.212	3.22
487.562	3.22
487.912	3.23
488.262	3.22
488.612	3.23
488.961	3.22
489.311	3.22
489.661	3.22
490.011	3.21
490.36	3.21
490.71	3.2
491.06	3.19
491.409	3.19
491.759	3.19
492.108	3.19
492.458	3.18
492.807	3.19
493.157	3.19
493.506	3.19
493.855	3.2
494.204	3.19
494.554	3.19
494.903	3.2
495.252	3.2
495.601	3.21
495.95	3.21
496.299	3.22
496.648	3.23
496.997	3.23
497.346	3.25
497.695	3.25
498.043	3.29
498.392	3.31
498.741	3.29
499.09	3.29
499.438	3.31
499.787	3.32
500.135	3.34
500.484	3.34
500.832	3.33
501.181	3.34
501.529	3.37
501.878	3.37
502.226	3.35
502.574	3.35
502.923	3.35
503.271	3.38
503.619	3.39
503.967	3.36
504.315	3.36
504.663	3.34
505.011	3.35
505.359	3.31
505.707	3.3
506.055	3.3
506.403	3.29
506.751	3.29
507.098	3.29
507.446	3.3
507.794	3.33
508.141	3.32
508.489	3.32
508.837	3.31
509.184	3.33
509.531	3.32
509.879	3.32
510.226	3.34
510.574	3.34
510.921	3.35
511.268	3.36
511.616	3.38
511.963	3.39
512.31	3.39
512.657	3.42
513.004	3.43
513.351	3.44
513.698	3.43
514.045	3.42
514.392	3.4
514.739	3.4
515.086	3.39
515.432	3.41
515.779	3.42
516.126	3.41
516.473	3.42
516.819	3.45
517.166	3.45
517.512	3.42
517.859	3.42
518.205	3.39
518.552	3.4
518.898	3.38
519.245	3.38
519.591	3.38
519.937	3.38
520.283	3.38
520.629	3.38
520.976	3.4
521.322	3.42
521.668	3.43
522.014	3.43
522.36	3.41
522.706	3.42
523.052	3.43
523.398	3.44
523.743	3.41
524.089	3.43
524.435	3.44
524.781	3.47
525.126	3.47
525.472	3.49
525.817	3.49
526.163	3.5
526.509	3.5
526.854	3.52
527.199	3.53
527.545	3.54
527.89	3.55
528.235	3.56
528.581	3.56
528.926	3.56
529.271	3.55
529.616	3.57
529.961	3.56
530.306	3.56
530.651	3.56
530.996	3.58
531.341	3.58
531.686	3.59
532.031	3.58
532.376	3.59
532.721	3.59
533.065	3.59
533.41	3.59
533.755	3.6
534.099	3.58
534.444	3.58
534.788	3.56
535.133	3.57
535.477	3.56
535.822	3.56
536.166	3.56
536.51	3.56
536.855	3.57
537.199	3.57
537.543	3.56
537.887	3.57
538.231	3.56
538.576	3.54
538.92	3.54
539.264	3.54
539.608	3.55
539.951	3.55
540.295	3.56
540.639	3.57
540.983	3.57
541.327	3.58
541.671	3.58
542.014	3.6
542.358	3.61
542.701	3.62
543.045	3.62
543.389	3.63
543.732	3.64
544.075	3.63
544.419	3.64
544.762	3.65
545.105	3.66
545.449	3.66
545.792	3.68
546.135	3.67
546.478	3.68
546.821	3.66
547.165	3.67
547.508	3.67
547.851	3.67
548.194	3.65
548.536	3.61
548.879	3.61
549.222	3.6
549.565	3.58
549.908	3.56
550.25	3.56
550.593	3.51
550.936	3.52
551.278	3.52
551.621	3.51
551.963	3.56
552.306	3.55
552.648	3.56
552.991	3.56
553.333	3.57
553.675	3.57
554.017	3.58
554.36	3.58
554.702	3.56
555.044	3.56
555.386	3.55
555.728	3.59
556.07	3.57
556.412	3.55
556.754	3.54
557.096	3.57
557.438	3.57
557.78	3.57
558.121	3.57
558.463	3.59
558.805	3.62
559.147	3.6
559.488	3.58
559.83	3.57
560.171	3.55
560.513	3.54
560.854	3.55
561.196	3.55
561.537	3.58
561.878	3.6
562.22	3.61
562.561	3.64
562.902	3.64
563.243	3.67
563.584	3.69
563.925	3.71
564.266	3.68
564.607	3.69
564.948	3.73
565.289	3.74
565.63	3.71
565.971	3.69
566.312	3.66
566.653	3.68
566.993	3.69
567.334	3.7
567.675	3.71
568.015	3.69
568.356	3.7
568.696	3.7
569.037	3.69
569.377	3.71
569.718	3.7
570.058	3.7
570.398	3.71
570.739	3.7
571.079	3.7
571.419	3.73
571.759	3.75
572.099	3.72
572.439	3.72
572.779	3.74
573.119	3.74
573.459	3.76
573.799	3.76
574.139	3.76
574.479	3.76
574.819	3.76
575.158	3.78
575.498	3.75
575.838	3.71
576.177	3.71
576.517	3.69
576.856	3.69
577.196	3.71
577.535	3.71
577.875	3.7
578.214	3.71
578.553	3.72
578.893	3.71
579.232	3.72
579.571	3.74
579.91	3.73
580.25	3.75
580.589	3.74
580.928	3.71
581.267	3.69
581.606	3.71
581.945	3.72
582.283	3.74
582.622	3.77
582.961	3.8
583.3	3.8
583.639	3.78
583.977	3.78
584.316	3.79
584.654	3.79
584.993	3.79
585.332	3.8
585.67	3.79
586.008	3.8
586.347	3.81
586.685	3.75
587.024	3.78
587.362	3.77
587.7	3.82
588.038	3.85
588.376	3.85
588.715	3.83
589.053	3.83
589.391	3.83
589.729	3.84
590.067	3.85
590.404	3.84
590.742	3.81
591.08	3.86
591.418	3.86
591.756	3.85
592.093	3.84
592.431	3.83
592.769	3.8
593.106	3.77
593.444	3.77
593.781	3.78
594.119	3.78
594.456	3.81
594.793	3.78
595.131	3.8
595.468	3.79
595.805	3.81
596.143	3.78
596.48	3.78
596.817	3.79
597.154	3.8
597.491	3.81
597.828	3.85
598.165	3.82
598.502	3.8
598.839	3.77
599.176	3.81
599.512	3.82
599.849	3.87
600.186	3.84
600.523	3.87
600.859	3.86
601.196	3.87
601.532	3.85
601.869	3.88
602.205	3.84
602.542	3.86
602.878	3.85
603.215	3.85
603.551	3.81
603.887	3.8
604.223	3.79
604.56	3.8
604.896	3.81
605.232	3.82
605.568	3.84
605.904	3.85
606.24	3.86
606.576	3.89
606.912	3.88
607.248	3.92
607.583	3.93
607.919	3.96
608.255	3.95
608.591	3.98
608.926	3.98
609.262	4.02
609.597	4.03
609.933	4.01
610.268	4.05
610.604	4.08
610.939	4.12
611.275	4.16
611.61	4.15
611.945	4.11
612.281	4.08
612.616	4.08
612.951	4.12
613.286	4.12
613.621	4.1
613.956	4.11
614.291	4.08
614.626	4.02
614.961	4.03
615.296	4.06
615.631	3.99
615.966	3.96
616.3	3.93
616.635	3.94
616.97	3.96
617.304	3.95
617.639	3.97
617.973	3.88
618.308	3.81
618.642	3.85
618.977	3.86
619.311	3.9
619.646	3.89
619.98	3.85
620.314	3.84
620.648	3.83
620.983	3.81
621.317	3.84
621.651	3.86
621.985	3.84
622.319	3.79
622.653	3.83
622.987	3.82
623.321	3.82
623.655	3.78
623.988	3.83
624.322	3.81
624.656	3.78
624.99	3.81
625.323	3.86
625.657	3.85
625.99	3.89
626.324	3.92
626.657	3.92
626.991	3.9
627.324	3.9
627.658	3.91
627.991	3.94
628.324	3.94
628.657	3.91
628.991	3.91
629.324	3.94
629.657	3.94
629.99	4
630.323	4.01
630.656	4.04
630.989	4
631.322	3.97
631.655	3.98
631.987	4
632.32	3.98
632.653	3.96
632.986	3.95
633.318	3.91
633.651	3.95
633.984	3.98
634.316	4
634.649	4
634.981	3.94
635.313	3.97
635.646	4.03
635.978	4.06
636.31	4.01
636.643	4
636.975	3.97
637.307	3.97
637.639	3.95
637.971	3.99
638.303	4.01
638.635	4.04
638.967	4.01
639.299	4.03
639.631	4.05
639.963	4
640.295	3.98
640.626	3.93
640.958	3.95
641.29	3.95
641.621	3.92
641.953	4.01
642.285	4
642.616	3.96
642.948	3.94
643.279	4
643.61	4.03
643.942	4.09
644.273	4.12
644.604	4.14
644.936	4.16
645.267	4.2
645.598	4.2
645.929	4.26
646.26	4.21
646.591	4.18
646.922	4.27
647.253	4.26
647.584	4.28
647.915	4.35
648.245	4.34
648.576	4.36
648.907	4.3
649.238	4.28
649.568	4.31
649.899	4.35
650.229	4.35
650.56	4.31
650.89	4.28
651.221	4.28
651.551	4.23
651.882	4.2
652.212	4.19
652.542	4.16
652.872	4.18
653.203	4.23
653.533	4.24
653.863	4.14
654.193	4.2
654.523	4.18
654.853	4.17
655.183	4.17
655.513	4.16
655.843	4.15
656.172	4.16
656.502	4.18
656.832	4.13
657.162	4.03
657.491	4.08
657.821	4.05
658.15	4.09
658.48	4.15
658.809	4.16
659.139	4.16
659.468	4.21
659.798	4.21
660.127	4.24
660.456	4.22
660.785	4.29
661.115	4.3
661.444	4.34
661.773	4.33
662.102	4.37
662.431	4.36
662.76	4.41
663.089	4.44
663.418	4.38
663.747	4.42
664.076	4.51
664.404	4.51
664.733	4.57
665.062	4.5
665.39	4.44
665.719	4.46
666.048	4.46
666.376	4.42
666.705	4.36
667.033	4.41
667.362	4.41
667.69	4.38
668.018	4.42
668.347	4.4
668.675	4.35
669.003	4.34
669.331	4.41
669.659	4.41
669.987	4.36
670.315	4.34
670.643	4.34
670.971	4.32
671.299	4.3
671.627	4.26
671.955	4.21
672.283	4.2
672.61	4.21
672.938	4.26
673.266	4.35
673.593	4.36
673.921	4.26
674.249	4.35
674.576	4.41
674.904	4.35
675.231	4.34
675.558	4.33
675.886	4.33
676.213	4.37
676.54	4.37
676.867	4.45
677.195	4.51
677.522	4.53
677.849	4.54
