Data from BU26848_Reflection_00011.txt Node
Date: Mon Nov 18 16:25:49 EST 2019
User: vgr7
Spectrometer: USB2G7710
Scans to average: 3
Trigger mode: 4
Integration Time (sec): 2.000000E-2
Electric dark correction enabled: true
Boxcar width: 10
XAxis mode: Wavelengths
Number of Pixels in Spectrum: 2048
>>>>>Begin Spectral Data<<<<<
177.721	-213.59
178.105	-900
178.488	757.02
178.871	205.26
179.254	520.12
179.636	-953.57
180.019	2.42
180.402	58.33
180.785	-1039.53
181.168	89.36
181.55	908.22
181.933	118.57
182.316	99.6
182.698	75.07
183.081	79.1
183.463	89.06
183.846	101.91
184.228	206.24
184.611	217.6
184.993	262.55
185.376	-829.96
185.758	-863.53
186.14	-2457.25
186.522	1614.52
186.904	1859.36
187.287	1015.57
187.669	-1805.03
188.051	2393.23
188.433	-484.37
188.815	-260.98
189.197	-143.81
189.579	-121.8
189.961	-65.69
190.342	-90.62
190.724	-55.89
191.106	-50.19
191.488	-59.96
191.869	-62.74
192.251	-89.4
192.633	-78.25
193.014	-75.19
193.396	-168.65
193.777	-134.2
194.159	-137.53
194.54	-64.73
194.922	-71.44
195.303	-60.12
195.684	-72.15
196.065	-47.78
196.447	-70.7
196.828	-92.18
197.209	-125.59
197.59	-169.53
197.971	-391.39
198.352	-114.52
198.733	-275.11
199.114	-148.91
199.495	-96.52
199.876	-95.9
200.257	-80.38
200.638	-93.14
201.018	-85.75
201.399	-61.75
201.78	-59.28
202.16	-74.79
202.541	-112.31
202.922	-146.94
203.302	-144
203.683	-156.75
204.063	-225.04
204.444	-242.21
204.824	-195.76
205.204	-133.27
205.585	-135.27
205.965	-115.94
206.345	-197.36
206.725	-173.9
207.106	-334.53
207.486	-861.46
207.866	-301.4
208.246	-584.7
208.626	-455.82
209.006	-502.88
209.386	-1097.26
209.766	-954.92
210.145	-434.67
210.525	-259.18
210.905	-111.7
211.285	-87.47
211.664	-95.2
212.044	-64.8
212.424	-71.69
212.803	-77.73
213.183	-88.48
213.562	-71.71
213.942	-46.6
214.321	-37.54
214.701	-29.59
215.08	-16.55
215.459	-20.78
215.838	-16.08
216.218	-19.84
216.597	-11.5
216.976	-6.54
217.355	-6.62
217.734	-2.34
218.113	3.57
218.492	2.25
218.871	-10.87
219.25	-8.82
219.629	-4.4
220.008	-8.38
220.387	-13.6
220.766	-6.8
221.144	-10.09
221.523	-19.04
221.902	-25.29
222.28	-39.56
222.659	-35.74
223.037	-43.35
223.416	-34.87
223.794	-32.67
224.173	-41.51
224.551	-41.53
224.929	-43.49
225.308	-26.23
225.686	-27.21
226.064	-26.73
226.442	-29.08
226.821	-18.12
227.199	-18.82
227.577	-19.23
227.955	-17.44
228.333	-12.81
228.711	-12.15
229.089	-5.98
229.467	-6.7
229.845	-5.79
230.222	-3.27
230.6	-4.41
230.978	-4.64
231.356	-4.82
231.733	-5.28
232.111	-2.67
232.488	-2.51
232.866	-2.7
233.243	-4.25
233.621	-4.07
233.998	-1.92
234.376	-2.77
234.753	-3.82
235.13	-3.39
235.508	-1.82
235.885	-1.31
236.262	-2.95
236.639	-3.2
237.016	-4.04
237.393	-1.33
237.77	-1.98
238.147	-2.48
238.524	-0.91
238.901	-0.31
239.278	0.85
239.655	1.22
240.032	0.94
240.409	0.79
240.785	1.79
241.162	2.34
241.539	2.3
241.915	1.9
242.292	2.15
242.668	1.86
243.045	2.6
243.421	2.7
243.798	2.67
244.174	2.94
244.551	3.01
244.927	2.7
245.303	2.88
245.679	2.86
246.056	3.04
246.432	2.93
246.808	3.16
247.184	2.86
247.56	2.82
247.936	2.89
248.312	3.12
248.688	2.89
249.064	2.49
249.44	2.69
249.815	3.11
250.191	3.17
250.567	3.23
250.943	2.74
251.318	2.56
251.694	2.62
252.069	2.8
252.445	2.81
252.82	3.24
253.196	3.15
253.571	3.31
253.947	3.4
254.322	3.41
254.697	3.12
255.073	3.1
255.448	2.99
255.823	3.13
256.198	2.91
256.573	2.92
256.948	3.24
257.323	3.25
257.698	2.76
258.073	2.75
258.448	2.72
258.823	2.68
259.198	2.73
259.573	2.85
259.948	2.64
260.322	2.71
260.697	2.5
261.072	2.61
261.446	2.72
261.821	2.94
262.195	3.1
262.57	3.08
262.944	3.14
263.319	3.21
263.693	3.25
264.067	3.29
264.442	3.44
264.816	3.38
265.19	3.21
265.564	3.53
265.938	3.5
266.313	3.45
266.687	3.69
267.061	3.76
267.435	3.71
267.809	3.76
268.183	3.73
268.556	3.96
268.93	3.85
269.304	3.79
269.678	3.61
270.051	3.44
270.425	3.59
270.799	3.59
271.172	3.62
271.546	3.52
271.919	3.54
272.293	3.34
272.666	3.49
273.04	3.54
273.413	3.31
273.787	3.37
274.16	3.32
274.533	3.13
274.906	3.03
275.279	3
275.653	3.01
276.026	2.93
276.399	2.79
276.772	2.83
277.145	2.7
277.518	2.56
277.891	2.56
278.263	2.38
278.636	2.37
279.009	2.33
279.382	2.46
279.755	2.4
280.127	2.59
280.5	2.42
280.872	2.55
281.245	2.49
281.617	2.65
281.99	2.89
282.362	3.11
282.735	2.97
283.107	2.93
283.479	3.04
283.852	3.13
284.224	3.12
284.596	3.02
284.968	3.23
285.34	3.39
285.713	3.35
286.085	3.41
286.457	3.49
286.829	3.57
287.201	3.47
287.572	3.58
287.944	3.49
288.316	3.6
288.688	3.54
289.06	3.64
289.431	3.49
289.803	3.5
290.175	3.49
290.546	3.75
290.918	3.77
291.289	3.73
291.661	3.77
292.032	3.81
292.403	3.82
292.775	3.73
293.146	3.59
293.517	3.56
293.889	3.76
294.26	3.72
294.631	3.74
295.002	3.85
295.373	3.74
295.744	3.85
296.115	3.82
296.486	3.77
296.857	3.78
297.228	3.79
297.599	3.72
297.97	3.66
298.34	3.63
298.711	3.71
299.082	3.72
299.452	3.74
299.823	3.79
300.194	3.83
300.564	3.9
300.935	3.9
301.305	3.93
301.676	3.77
302.046	3.86
302.416	3.82
302.787	3.83
303.157	3.85
303.527	3.78
303.897	3.79
304.267	4.03
304.637	4.16
305.008	4.22
305.378	4.4
305.748	4.5
306.117	4.46
306.487	4.5
306.857	4.47
307.227	4.53
307.597	4.59
307.967	4.65
308.336	4.64
308.706	4.8
309.076	4.92
309.445	4.98
309.815	4.84
310.184	4.89
310.554	4.93
310.923	4.94
311.293	4.96
311.662	4.98
312.031	4.89
312.401	4.87
312.77	4.93
313.139	4.92
313.508	4.98
313.877	4.99
314.246	4.98
314.616	4.98
314.985	4.97
315.353	4.95
315.722	5.02
316.091	5
316.46	5.03
316.829	5.01
317.198	5.11
317.567	5.18
317.935	5.27
318.304	5.24
318.672	5.38
319.041	5.59
319.41	5.64
319.778	5.63
320.147	5.62
320.515	5.68
320.883	5.64
321.252	5.66
321.62	5.84
321.988	5.9
322.357	6.1
322.725	6.13
323.093	6.19
323.461	6.12
323.829	6.23
324.197	6.23
324.565	6.31
324.933	6.33
325.301	6.37
325.669	6.43
326.037	6.46
326.405	6.43
326.772	6.47
327.14	6.61
327.508	6.76
327.875	6.8
328.243	6.9
328.61	6.96
328.978	6.99
329.346	6.98
329.713	6.99
330.08	6.97
330.448	6.95
330.815	6.96
331.182	7.05
331.55	7.1
331.917	7.09
332.284	7.18
332.651	7.12
333.018	7.09
333.385	7.01
333.752	7.11
334.119	7.19
334.486	6.96
334.853	6.91
335.22	6.92
335.587	7.07
335.954	6.98
336.32	6.93
336.687	6.99
337.054	6.97
337.42	7.01
337.787	7.01
338.153	6.95
338.52	7.03
338.886	7
339.253	6.96
339.619	7.06
339.986	7.05
340.352	7.17
340.718	7.19
341.084	7.24
341.451	7.28
341.817	7.34
342.183	7.44
342.549	7.54
342.915	7.55
343.281	7.56
343.647	7.58
344.013	7.63
344.379	7.54
344.745	7.56
345.11	7.54
345.476	7.54
345.842	7.63
346.208	7.51
346.573	7.67
346.939	7.68
347.304	7.63
347.67	7.62
348.035	7.57
348.401	7.62
348.766	7.61
349.132	7.52
349.497	7.43
349.862	7.53
350.228	7.51
350.593	7.53
350.958	7.46
351.323	7.46
351.688	7.5
352.053	7.58
352.418	7.6
352.783	7.7
353.148	7.72
353.513	7.77
353.878	7.87
354.243	7.74
354.608	7.71
354.972	7.67
355.337	7.66
355.702	7.64
356.066	7.6
356.431	7.58
356.795	7.61
357.16	7.62
357.524	7.49
357.889	7.41
358.253	7.37
358.618	7.36
358.982	7.34
359.346	7.26
359.71	7.31
360.075	7.26
360.439	7.22
360.803	7.17
361.167	7.1
361.531	7.06
361.895	6.99
362.259	6.97
362.623	7
362.987	7.03
363.351	7.08
363.714	7.15
364.078	7.11
364.442	7.01
364.806	6.96
365.169	7.01
365.533	6.99
365.896	6.92
366.26	6.91
366.623	6.86
366.987	6.9
367.35	6.81
367.714	6.8
368.077	6.71
368.44	6.66
368.803	6.64
369.167	6.59
369.53	6.63
369.893	6.63
370.256	6.56
370.619	6.48
370.982	6.36
371.345	6.24
371.708	6.27
372.071	6.3
372.434	6.23
372.797	6.16
373.159	6.13
373.522	6.14
373.885	6.09
374.247	6.07
374.61	5.98
374.973	5.87
375.335	5.85
375.698	5.84
376.06	5.83
376.423	5.76
376.785	5.8
377.147	5.78
377.51	5.7
377.872	5.7
378.234	5.64
378.596	5.62
378.958	5.58
379.321	5.52
379.683	5.53
380.045	5.57
380.407	5.55
380.769	5.51
381.13	5.49
381.492	5.4
381.854	5.4
382.216	5.38
382.578	5.41
382.939	5.3
383.301	5.29
383.663	5.27
384.024	5.26
384.386	5.14
384.747	5.08
385.109	5.03
385.47	4.98
385.832	4.96
386.193	4.96
386.554	4.93
386.916	4.88
387.277	4.8
387.638	4.73
387.999	4.67
388.36	4.67
388.721	4.65
389.082	4.65
389.443	4.6
389.804	4.57
390.165	4.5
390.526	4.5
390.887	4.43
391.248	4.43
391.609	4.43
391.969	4.45
392.33	4.4
392.691	4.43
393.051	4.42
393.412	4.4
393.772	4.38
394.133	4.37
394.493	4.37
394.854	4.35
395.214	4.34
395.574	4.33
395.935	4.28
396.295	4.26
396.655	4.22
397.015	4.19
397.376	4.18
397.736	4.17
398.096	4.14
398.456	4.12
398.816	4.07
399.176	4.01
399.535	3.96
399.895	3.96
400.255	3.89
400.615	3.89
400.975	3.83
401.334	3.78
401.694	3.73
402.054	3.73
402.413	3.68
402.773	3.67
403.132	3.64
403.492	3.66
403.851	3.64
404.211	3.65
404.57	3.63
404.929	3.62
405.288	3.61
405.648	3.62
406.007	3.61
406.366	3.58
406.725	3.6
407.084	3.61
407.443	3.6
407.802	3.63
408.161	3.57
408.52	3.59
408.879	3.58
409.238	3.58
409.596	3.57
409.955	3.62
410.314	3.63
410.673	3.6
411.031	3.57
411.39	3.56
411.748	3.54
412.107	3.54
412.465	3.49
412.824	3.49
413.182	3.47
413.54	3.48
413.899	3.51
414.257	3.5
414.615	3.46
414.974	3.45
415.332	3.42
415.69	3.42
416.048	3.4
416.406	3.39
416.764	3.38
417.122	3.35
417.48	3.28
417.838	3.27
418.195	3.29
418.553	3.28
418.911	3.25
419.269	3.23
419.626	3.24
419.984	3.25
420.342	3.23
420.699	3.22
421.057	3.21
421.414	3.2
421.772	3.18
422.129	3.19
422.486	3.2
422.844	3.2
423.201	3.19
423.558	3.19
423.915	3.19
424.273	3.19
424.63	3.19
424.987	3.21
425.344	3.21
425.701	3.21
426.058	3.21
426.415	3.22
426.772	3.23
427.128	3.21
427.485	3.21
427.842	3.22
428.199	3.22
428.555	3.22
428.912	3.24
429.269	3.25
429.625	3.23
429.982	3.2
430.338	3.21
430.695	3.19
431.051	3.18
431.407	3.16
431.764	3.15
432.12	3.15
432.476	3.14
432.832	3.12
433.189	3.1
433.545	3.09
433.901	3.06
434.257	3.06
434.613	3.08
434.969	3.07
435.325	3.07
435.681	3.06
436.036	3.07
436.392	3.07
436.748	3.06
437.104	3.04
437.459	3.04
437.815	3.02
438.171	3.05
438.526	3.06
438.882	3.07
439.237	3.07
439.593	3.07
439.948	3.09
440.304	3.1
440.659	3.1
441.014	3.1
441.369	3.11
441.725	3.1
442.08	3.1
442.435	3.09
442.79	3.09
443.145	3.09
443.5	3.07
443.855	3.05
444.21	3.05
444.565	3.07
444.92	3.08
445.275	3.07
445.629	3.05
445.984	3.03
446.339	3.03
446.693	3.01
447.048	3
447.403	2.98
447.757	2.98
448.112	2.97
448.466	2.97
448.82	2.97
449.175	2.97
449.529	2.97
449.883	2.96
450.238	2.94
450.592	2.94
450.946	2.95
451.3	2.94
451.654	2.94
452.008	2.93
452.362	2.91
452.716	2.92
453.07	2.94
453.424	2.94
453.778	2.94
454.132	2.95
454.486	2.95
454.839	2.95
455.193	2.93
455.547	2.95
455.9	2.96
456.254	2.97
456.607	2.97
456.961	2.96
457.314	2.97
457.668	3
458.021	3
458.375	3
458.728	3
459.081	3
459.434	3
459.787	3
460.141	3.01
460.494	2.99
460.847	3.01
461.2	2.99
461.553	3.01
461.906	3.02
462.259	3.03
462.611	3.08
462.964	3.09
463.317	3.07
463.67	3.06
464.022	3.07
464.375	3.1
464.728	3.11
465.08	3.1
465.433	3.1
465.785	3.13
466.138	3.14
466.49	3.16
466.843	3.16
467.195	3.18
467.547	3.21
467.899	3.24
468.252	3.23
468.604	3.28
468.956	3.26
469.308	3.27
469.66	3.25
470.012	3.24
470.364	3.23
470.716	3.25
471.068	3.26
471.42	3.25
471.772	3.24
472.123	3.26
472.475	3.28
472.827	3.29
473.178	3.31
473.53	3.31
473.882	3.32
474.233	3.33
474.585	3.34
474.936	3.31
475.288	3.32
475.639	3.34
475.99	3.33
476.342	3.33
476.693	3.33
477.044	3.36
477.395	3.34
477.746	3.35
478.097	3.34
478.448	3.34
478.8	3.33
479.15	3.33
479.501	3.32
479.852	3.3
480.203	3.3
480.554	3.27
480.905	3.27
481.255	3.27
481.606	3.26
481.957	3.26
482.307	3.25
482.658	3.24
483.009	3.23
483.359	3.23
483.709	3.24
484.06	3.24
484.41	3.23
484.761	3.23
485.111	3.22
485.461	3.22
485.811	3.23
486.162	3.24
486.512	3.23
486.862	3.23
487.212	3.23
487.562	3.23
487.912	3.23
488.262	3.23
488.612	3.23
488.961	3.23
489.311	3.24
489.661	3.24
490.011	3.24
490.36	3.25
490.71	3.26
491.06	3.25
491.409	3.26
491.759	3.27
492.108	3.28
492.458	3.28
492.807	3.28
493.157	3.28
493.506	3.28
493.855	3.28
494.204	3.3
494.554	3.32
494.903	3.32
495.252	3.33
495.601	3.35
495.95	3.36
496.299	3.39
496.648	3.4
496.997	3.44
497.346	3.46
497.695	3.49
498.043	3.51
498.392	3.54
498.741	3.56
499.09	3.58
499.438	3.64
499.787	3.71
500.135	3.77
500.484	3.82
500.832	3.87
501.181	3.94
501.529	4.01
501.878	4.06
502.226	4.15
502.574	4.22
502.923	4.3
503.271	4.36
503.619	4.43
503.967	4.53
504.315	4.61
504.663	4.7
505.011	4.8
505.359	4.89
505.707	5.03
506.055	5.14
506.403	5.27
506.751	5.38
507.098	5.5
507.446	5.65
507.794	5.77
508.141	5.94
508.489	6.07
508.837	6.22
509.184	6.39
509.531	6.55
509.879	6.73
510.226	6.92
510.574	7.11
510.921	7.32
511.268	7.49
511.616	7.7
511.963	7.93
512.31	8.15
512.657	8.4
513.004	8.62
513.351	8.88
513.698	9.15
514.045	9.43
514.392	9.71
514.739	10
515.086	10.32
515.432	10.58
515.779	10.84
516.126	11.11
516.473	11.39
516.819	11.67
517.166	11.93
517.512	12.17
517.859	12.41
518.205	12.65
518.552	12.9
518.898	13.15
519.245	13.37
519.591	13.6
519.937	13.83
520.283	14.12
520.629	14.39
520.976	14.68
521.322	14.94
521.668	15.22
522.014	15.55
522.36	15.88
522.706	16.25
523.052	16.65
523.398	17.01
523.743	17.38
524.089	17.73
524.435	18.11
524.781	18.48
525.126	18.81
525.472	19.1
525.817	19.38
526.163	19.63
526.509	19.84
526.854	20.08
527.199	20.3
527.545	20.5
527.89	20.69
528.235	20.93
528.581	21.13
528.926	21.35
529.271	21.54
529.616	21.73
529.961	21.92
530.306	22.12
530.651	22.34
530.996	22.57
531.341	22.81
531.686	23.04
532.031	23.27
532.376	23.53
532.721	23.8
533.065	24.05
533.41	24.36
533.755	24.66
534.099	24.91
534.444	25.21
534.788	25.51
535.133	25.79
535.477	26.03
535.822	26.35
536.166	26.61
536.51	26.92
536.855	27.26
537.199	27.61
537.543	27.94
537.887	28.28
538.231	28.59
538.576	28.93
538.92	29.26
539.264	29.56
539.608	29.86
539.951	30.11
540.295	30.38
540.639	30.61
540.983	30.84
541.327	31.06
541.671	31.27
542.014	31.46
542.358	31.64
542.701	31.84
543.045	32.02
543.389	32.24
543.732	32.46
544.075	32.66
544.419	32.86
544.762	33.09
545.105	33.37
545.449	33.6
545.792	33.86
546.135	34.09
546.478	34.36
546.821	34.59
547.165	34.85
547.508	35.12
547.851	35.36
548.194	35.65
548.536	35.94
548.879	36.2
549.222	36.49
549.565	36.84
549.908	37.13
550.25	37.4
550.593	37.71
550.936	37.97
551.278	38.22
551.621	38.51
551.963	38.77
552.306	38.95
552.648	39.23
552.991	39.44
553.333	39.72
553.675	39.92
554.017	40.12
554.36	40.31
554.702	40.45
555.044	40.67
555.386	40.87
555.728	41.1
556.07	41.28
556.412	41.45
556.754	41.53
557.096	41.68
557.438	41.9
557.78	42.08
558.121	42.28
558.463	42.47
558.805	42.64
559.147	42.8
559.488	43.01
559.83	43.19
560.171	43.36
560.513	43.47
560.854	43.6
561.196	43.81
561.537	44.04
561.878	44.22
562.22	44.36
562.561	44.5
562.902	44.66
563.243	44.76
563.584	44.94
563.925	45.13
564.266	45.26
564.607	45.34
564.948	45.47
565.289	45.59
565.63	45.73
565.971	45.79
566.312	45.98
566.653	46.06
566.993	46.17
567.334	46.28
567.675	46.4
568.015	46.56
568.356	46.6
568.696	46.64
569.037	46.74
569.377	46.89
569.718	46.99
570.058	47.06
570.398	47.24
570.739	47.34
571.079	47.44
571.419	47.5
571.759	47.68
572.099	47.74
572.439	47.87
572.779	47.99
573.119	48.09
573.459	48.15
573.799	48.3
574.139	48.35
574.479	48.42
574.819	48.56
575.158	48.69
575.498	48.85
575.838	49.02
576.177	49.2
576.517	49.27
576.856	49.39
577.196	49.52
577.535	49.56
577.875	49.62
578.214	49.77
578.553	49.95
578.893	50.05
579.232	50.17
579.571	50.27
579.91	50.33
580.25	50.54
580.589	50.56
580.928	50.56
581.267	50.74
581.606	50.88
581.945	50.91
582.283	50.91
582.622	50.96
582.961	51
583.3	51.02
583.639	51.19
583.977	51.29
584.316	51.31
584.654	51.51
584.993	51.59
585.332	51.63
585.67	51.72
586.008	51.77
586.347	51.89
586.685	51.91
587.024	51.93
587.362	51.91
587.7	52.01
588.038	52.13
588.376	52.19
588.715	52.25
589.053	52.3
589.391	52.41
589.729	52.46
590.067	52.5
590.404	52.57
590.742	52.56
591.08	52.52
591.418	52.65
591.756	52.71
592.093	52.85
592.431	52.95
592.769	52.99
593.106	53.04
593.444	53.04
593.781	53.15
594.119	53.2
594.456	53.26
594.793	53.35
595.131	53.38
595.468	53.38
595.805	53.42
596.143	53.52
596.48	53.59
596.817	53.62
597.154	53.7
597.491	53.79
597.828	53.86
598.165	54.01
598.502	54.02
598.839	54.07
599.176	54.1
599.512	54.07
599.849	54.17
600.186	54.17
600.523	54.27
600.859	54.32
601.196	54.43
601.532	54.47
601.869	54.5
602.205	54.55
602.542	54.58
602.878	54.65
603.215	54.61
603.551	54.65
603.887	54.68
604.223	54.75
604.56	54.77
604.896	54.81
605.232	54.85
605.568	54.85
605.904	54.87
606.24	54.88
606.576	55
606.912	54.94
607.248	55
607.583	55.05
607.919	55.04
608.255	55.1
608.591	55.21
608.926	55.23
609.262	55.34
609.597	55.41
609.933	55.46
610.268	55.51
610.604	55.52
610.939	55.55
611.275	55.53
611.61	55.5
611.945	55.54
612.281	55.57
612.616	55.66
612.951	55.69
613.286	55.83
613.621	55.82
613.956	56
614.291	56.09
614.626	56.11
614.961	56.19
615.296	56.23
615.631	56.17
615.966	56.19
616.3	56.17
616.635	56.24
616.97	56.25
617.304	56.34
617.639	56.38
617.973	56.36
618.308	56.44
618.642	56.61
618.977	56.7
619.311	56.7
619.646	56.83
619.98	56.86
620.314	56.8
620.648	56.81
620.983	56.76
621.317	56.84
621.651	56.87
621.985	56.86
622.319	56.87
622.653	56.89
622.987	56.94
623.321	56.94
623.655	56.94
623.988	57.05
624.322	57.13
624.656	57.13
624.99	57.34
625.323	57.39
625.657	57.36
625.99	57.28
626.324	57.31
626.657	57.28
626.991	57.28
627.324	57.25
627.658	57.35
627.991	57.39
628.324	57.33
628.657	57.36
628.991	57.41
629.324	57.46
629.657	57.58
629.99	57.63
630.323	57.62
630.656	57.66
630.989	57.62
631.322	57.62
631.655	57.67
631.987	57.52
632.32	57.53
632.653	57.53
632.986	57.6
633.318	57.58
633.651	57.66
633.984	57.75
634.316	57.79
634.649	57.82
634.981	57.82
635.313	57.86
635.646	57.89
635.978	57.95
636.31	58.02
636.643	58.02
636.975	58.02
637.307	58.11
637.639	58.09
637.971	58.08
638.303	58.03
638.635	58.04
638.967	58.25
639.299	58.24
639.631	58.23
639.963	58.24
640.295	58.32
640.626	58.26
640.958	58.23
641.29	58.28
641.621	58.34
641.953	58.54
642.285	58.49
642.616	58.49
642.948	58.43
643.279	58.42
643.61	58.32
643.942	58.4
644.273	58.28
644.604	58.26
644.936	58.27
645.267	58.35
645.598	58.38
645.929	58.24
646.26	58.27
646.591	58.3
646.922	58.33
647.253	58.37
647.584	58.32
647.915	58.27
648.245	58.27
648.576	58.15
648.907	58
649.238	58.01
649.568	57.93
649.899	57.96
650.229	57.87
650.56	57.94
650.89	57.96
651.221	58.14
651.551	58.21
651.882	58.27
652.212	58.16
652.542	58.09
652.872	58.1
653.203	58.05
653.533	58.06
653.863	58.15
654.193	58.08
654.523	58.24
654.853	58.38
655.183	58.36
655.513	58.42
655.843	58.48
656.172	58.54
656.502	58.67
656.832	58.79
657.162	58.83
657.491	58.92
657.821	58.94
658.15	58.89
658.48	58.99
658.809	59.06
659.139	59.11
659.468	59.13
659.798	59.11
660.127	59.18
660.456	59.15
660.785	59.11
661.115	59.25
661.444	59.29
661.773	59.28
662.102	59.31
662.431	59.28
662.76	59.37
663.089	59.47
663.418	59.53
663.747	59.48
664.076	59.43
664.404	59.38
664.733	59.29
665.062	59.15
665.39	59.08
665.719	59.11
666.048	59.22
