Data from BU26849_Reflection_00010.txt Node
Date: Mon Nov 18 16:43:21 EST 2019
User: vgr7
Spectrometer: USB2G7710
Scans to average: 3
Trigger mode: 4
Integration Time (sec): 2.000000E-2
Electric dark correction enabled: true
Boxcar width: 10
XAxis mode: Wavelengths
Number of Pixels in Spectrum: 2048
>>>>>Begin Spectral Data<<<<<
177.721	-35.92
178.105	-44.95
178.488	-11.56
178.871	-6.75
179.254	11.23
179.636	-3.1
180.019	-17.45
180.402	74.19
180.785	-30.76
181.168	12.62
181.55	9.87
181.933	64.92
182.316	82.86
182.698	69.87
183.081	68.02
183.463	91.91
183.846	86.48
184.228	104.55
184.611	151.76
184.993	207.54
185.376	230.02
185.758	139.1
186.14	49.02
186.522	151.25
186.904	65.57
187.287	68.32
187.669	231.96
188.051	-774.02
188.433	-152.14
188.815	-81.12
189.197	-88.43
189.579	-62.12
189.961	-26.92
190.342	-4.85
190.724	-1.99
191.106	-12.19
191.488	1.84
191.869	20.3
192.251	22.16
192.633	23.69
193.014	10.52
193.396	-16.41
193.777	1.15
194.159	-25.48
194.54	-17.28
194.922	-21.08
195.303	-24.96
195.684	-17.06
196.065	6.09
196.447	9.17
196.828	12.43
197.209	27.09
197.59	25.02
197.971	16.54
198.352	8.3
198.733	-4.96
199.114	13.83
199.495	15.95
199.876	12.98
200.257	15.36
200.638	17.15
201.018	10.92
201.399	10.26
201.78	19.05
202.16	17.08
202.541	1.66
202.922	-7.93
203.302	-8.67
203.683	-5.06
204.063	-18.7
204.444	-26.45
204.824	-34.9
205.204	-46.01
205.585	-31.87
205.965	-35.22
206.345	-43.99
206.725	-44.3
207.106	-66.62
207.486	-76.77
207.866	-83.67
208.246	-104.71
208.626	-123.36
209.006	-104.07
209.386	-117.82
209.766	-176.56
210.145	-125.19
210.525	-100.57
210.905	-98.85
211.285	-88.03
211.664	-84.47
212.044	-78.98
212.424	-70.09
212.803	-66.92
213.183	-73.65
213.562	-114.9
213.942	-77.69
214.321	-40.03
214.701	-49.35
215.08	-50.63
215.459	-43.23
215.838	-45.54
216.218	-39.94
216.597	-26.09
216.976	-24.19
217.355	-17.38
217.734	-10.3
218.113	-22.84
218.492	-22.81
218.871	-16.8
219.25	-12.09
219.629	-23.6
220.008	-22.59
220.387	-26.87
220.766	-37.53
221.144	-27.55
221.523	-26.4
221.902	-36.22
222.28	-44.74
222.659	-28.69
223.037	-32.42
223.416	-29.94
223.794	-25.88
224.173	-20.99
224.551	-16.08
224.929	-20.38
225.308	-15.77
225.686	-18.88
226.064	-13.79
226.442	-15.14
226.821	-12.84
227.199	-13.51
227.577	-13.46
227.955	-16.27
228.333	-16.22
228.711	-9.04
229.089	-6.68
229.467	-6.22
229.845	-6.24
230.222	-5.81
230.6	-8.45
230.978	-7.3
231.356	-5.4
231.733	-8.17
232.111	-5.25
232.488	-5.46
232.866	-4.3
233.243	-3.02
233.621	-0.37
233.998	0.24
234.376	0.26
234.753	0.96
235.13	2.67
235.508	5.83
235.885	7.82
236.262	7.84
236.639	7.59
237.016	8.36
237.393	9.23
237.77	9.25
238.147	7.38
238.524	8.15
238.901	8.86
239.278	7.99
239.655	8.78
240.032	7.79
240.409	6.73
240.785	6.68
241.162	6.28
241.539	6.4
241.915	6.73
242.292	6.34
242.668	6.34
243.045	5.89
243.421	5.26
243.798	5.16
244.174	5.17
244.551	5.07
244.927	4.48
245.303	4.37
245.679	4.29
246.056	4.36
246.432	4.29
246.808	4.08
247.184	3.99
247.56	3.69
247.936	3.62
248.312	3.78
248.688	3.94
249.064	3.99
249.44	3.77
249.815	3.46
250.191	3.67
250.567	3.54
250.943	3.42
251.318	3.52
251.694	3.67
252.069	3.66
252.445	3.59
252.82	3.59
253.196	3.51
253.571	3.87
253.947	4
254.322	4.04
254.697	4.1
255.073	4.08
255.448	3.97
255.823	3.78
256.198	3.89
256.573	3.65
256.948	3.37
257.323	3.52
257.698	3.47
258.073	3.55
258.448	3.41
258.823	3.42
259.198	3.32
259.573	3.11
259.948	3.07
260.322	3
260.697	3.09
261.072	2.99
261.446	2.87
261.821	2.95
262.195	2.87
262.57	2.72
262.944	2.62
263.319	2.63
263.693	2.66
264.067	2.56
264.442	2.71
264.816	2.57
265.19	2.49
265.564	2.6
265.938	2.21
266.313	2.19
266.687	2.13
267.061	2.26
267.435	2.17
267.809	2.16
268.183	2.24
268.556	2.18
268.93	2.17
269.304	2.01
269.678	2.03
270.051	1.94
270.425	2.17
270.799	2.22
271.172	2.36
271.546	2.48
271.919	2.3
272.293	2.33
272.666	2.6
273.04	2.64
273.413	2.53
273.787	2.67
274.16	2.67
274.533	2.77
274.906	2.58
275.279	2.57
275.653	2.64
276.026	2.59
276.399	2.71
276.772	2.83
277.145	2.85
277.518	2.75
277.891	2.79
278.263	2.63
278.636	2.68
279.009	2.63
279.382	2.72
279.755	2.93
280.127	2.93
280.5	2.99
280.872	2.98
281.245	3
281.617	3.09
281.99	3.24
282.362	3.28
282.735	3.37
283.107	3.42
283.479	3.35
283.852	3.37
284.224	3.23
284.596	3.15
284.968	3.32
285.34	3.4
285.713	3.45
286.085	3.51
286.457	3.5
286.829	3.57
287.201	3.55
287.572	3.54
287.944	3.46
288.316	3.25
288.688	3.33
289.06	3.44
289.431	3.37
289.803	3.26
290.175	3.17
290.546	3.24
290.918	3.18
291.289	3.22
291.661	3.33
292.032	3.36
292.403	3.55
292.775	3.61
293.146	3.63
293.517	3.77
293.889	3.91
294.26	3.94
294.631	3.96
295.002	3.86
295.373	3.83
295.744	3.87
296.115	3.98
296.486	3.84
296.857	3.76
297.228	3.86
297.599	3.8
297.97	3.87
298.34	3.76
298.711	3.96
299.082	3.9
299.452	3.85
299.823	3.95
300.194	3.77
300.564	3.76
300.935	3.73
301.305	3.67
301.676	3.68
302.046	3.72
302.416	3.84
302.787	3.88
303.157	3.97
303.527	3.95
303.897	3.96
304.267	4.1
304.637	4.16
305.008	4.2
305.378	4.44
305.748	4.54
306.117	4.66
306.487	4.63
306.857	4.82
307.227	4.74
307.597	4.66
307.967	4.81
308.336	4.73
308.706	4.81
309.076	4.81
309.445	4.72
309.815	4.72
310.184	4.58
310.554	4.65
310.923	4.66
311.293	4.66
311.662	4.78
312.031	4.83
312.401	4.87
312.77	4.96
313.139	4.93
313.508	5.04
313.877	5.05
314.246	5.06
314.616	5.08
314.985	5.19
315.353	5.21
315.722	5.16
316.091	5.19
316.46	5.18
316.829	5.34
317.198	5.39
317.567	5.45
317.935	5.49
318.304	5.53
318.672	5.7
319.041	5.94
319.41	5.85
319.778	5.91
320.147	5.95
320.515	5.93
320.883	5.86
321.252	5.88
321.62	5.89
321.988	5.97
322.357	5.96
322.725	6.1
323.093	6.22
323.461	6.28
323.829	6.49
324.197	6.64
324.565	6.64
324.933	6.61
325.301	6.66
325.669	6.8
326.037	6.73
326.405	6.72
326.772	6.66
327.14	6.84
327.508	6.74
327.875	6.79
328.243	6.86
328.61	6.96
328.978	6.96
329.346	7.14
329.713	7.07
330.08	7.21
330.448	7.13
330.815	7.1
331.182	7.14
331.55	7.07
331.917	7.09
332.284	7.09
332.651	7.1
333.018	7.11
333.385	7.14
333.752	7.3
334.119	7.26
334.486	7.18
334.853	7.21
335.22	7.27
335.587	7.35
335.954	7.34
336.32	7.37
336.687	7.5
337.054	7.47
337.42	7.58
337.787	7.48
338.153	7.47
338.52	7.64
338.886	7.59
339.253	7.59
339.619	7.63
339.986	7.65
340.352	7.78
340.718	7.79
341.084	7.72
341.451	7.67
341.817	7.8
342.183	7.85
342.549	7.79
342.915	7.86
343.281	7.85
343.647	7.93
344.013	7.91
344.379	7.76
344.745	7.71
345.11	7.72
345.476	7.71
345.842	7.77
346.208	7.75
346.573	7.96
346.939	8.07
347.304	7.97
347.67	8.02
348.035	7.93
348.401	7.94
348.766	8.08
349.132	8.12
349.497	8.07
349.862	8.2
350.228	8.27
350.593	8.25
350.958	8.27
351.323	8.29
351.688	8.24
352.053	8.24
352.418	8.28
352.783	8.24
353.148	8.3
353.513	8.36
353.878	8.35
354.243	8.26
354.608	8.01
354.972	8.03
355.337	8.1
355.702	8.23
356.066	8.26
356.431	8.12
356.795	8.17
357.16	8.12
357.524	7.99
357.889	7.89
358.253	7.89
358.618	7.87
358.982	7.77
359.346	7.73
359.71	7.69
360.075	7.68
360.439	7.77
360.803	7.75
361.167	7.67
361.531	7.61
361.895	7.58
362.259	7.64
362.623	7.62
362.987	7.47
363.351	7.42
363.714	7.39
364.078	7.35
364.442	7.21
364.806	7.18
365.169	7.18
365.533	7.19
365.896	7.15
366.26	7.06
366.623	7.04
366.987	7.12
367.35	7.14
367.714	7.06
368.077	6.91
368.44	6.87
368.803	6.8
369.167	6.72
369.53	6.7
369.893	6.7
370.256	6.65
370.619	6.66
370.982	6.55
371.345	6.44
371.708	6.45
372.071	6.44
372.434	6.36
372.797	6.28
373.159	6.25
373.522	6.21
373.885	6.22
374.247	6.16
374.61	6.12
374.973	5.99
375.335	5.96
375.698	5.98
376.06	5.92
376.423	5.91
376.785	5.89
377.147	5.85
377.51	5.78
377.872	5.72
378.234	5.66
378.596	5.65
378.958	5.68
379.321	5.66
379.683	5.61
380.045	5.59
380.407	5.66
380.769	5.57
381.13	5.53
381.492	5.47
381.854	5.48
382.216	5.43
382.578	5.48
382.939	5.43
383.301	5.35
383.663	5.34
384.024	5.3
384.386	5.34
384.747	5.38
385.109	5.39
385.47	5.38
385.832	5.39
386.193	5.29
386.554	5.23
386.916	5.16
387.277	5.2
387.638	5.17
387.999	5.08
388.36	5.07
388.721	5.02
389.082	4.97
389.443	4.88
389.804	4.83
390.165	4.79
390.526	4.79
390.887	4.76
391.248	4.73
391.609	4.68
391.969	4.62
392.33	4.53
392.691	4.49
393.051	4.48
393.412	4.44
393.772	4.45
394.133	4.41
394.493	4.39
394.854	4.3
395.214	4.27
395.574	4.25
395.935	4.23
396.295	4.21
396.655	4.17
397.015	4.18
397.376	4.14
397.736	4.1
398.096	4.05
398.456	4.03
398.816	3.99
399.176	3.96
399.535	3.91
399.895	3.88
400.255	3.83
400.615	3.79
400.975	3.77
401.334	3.75
401.694	3.74
402.054	3.69
402.413	3.69
402.773	3.65
403.132	3.61
403.492	3.6
403.851	3.56
404.211	3.54
404.57	3.51
404.929	3.51
405.288	3.51
405.648	3.48
406.007	3.47
406.366	3.47
406.725	3.49
407.084	3.51
407.443	3.5
407.802	3.51
408.161	3.49
408.52	3.46
408.879	3.45
409.238	3.45
409.596	3.47
409.955	3.43
410.314	3.46
410.673	3.4
411.031	3.39
411.39	3.38
411.748	3.4
412.107	3.4
412.465	3.42
412.824	3.35
413.182	3.34
413.54	3.31
413.899	3.3
414.257	3.28
414.615	3.25
414.974	3.27
415.332	3.25
415.69	3.25
416.048	3.23
416.406	3.21
416.764	3.19
417.122	3.21
417.48	3.21
417.838	3.18
418.195	3.22
418.553	3.19
418.911	3.17
419.269	3.16
419.626	3.13
419.984	3.12
420.342	3.14
420.699	3.13
421.057	3.13
421.414	3.12
421.772	3.1
422.129	3.1
422.486	3.07
422.844	3.07
423.201	3.04
423.558	3.05
423.915	3.05
424.273	3.05
424.63	3.02
424.987	3.01
425.344	3
425.701	2.98
426.058	2.98
426.415	2.98
426.772	2.97
427.128	2.98
427.485	2.96
427.842	2.93
428.199	2.95
428.555	2.94
428.912	2.93
429.269	2.93
429.625	2.91
429.982	2.9
430.338	2.89
430.695	2.89
431.051	2.87
431.407	2.85
431.764	2.84
432.12	2.82
432.476	2.82
432.832	2.81
433.189	2.82
433.545	2.81
433.901	2.81
434.257	2.82
434.613	2.83
434.969	2.85
435.325	2.86
435.681	2.87
436.036	2.88
436.392	2.87
436.748	2.88
437.104	2.88
437.459	2.89
437.815	2.88
438.171	2.88
438.526	2.9
438.882	2.9
439.237	2.91
439.593	2.93
439.948	2.94
440.304	2.95
440.659	2.95
441.014	2.94
441.369	2.93
441.725	2.93
442.08	2.9
442.435	2.9
442.79	2.88
443.145	2.85
443.5	2.85
443.855	2.85
444.21	2.86
444.565	2.85
444.92	2.86
445.275	2.86
445.629	2.87
445.984	2.86
446.339	2.85
446.693	2.83
447.048	2.82
447.403	2.8
447.757	2.79
448.112	2.8
448.466	2.81
448.82	2.81
449.175	2.8
449.529	2.8
449.883	2.8
450.238	2.79
450.592	2.8
450.946	2.78
451.3	2.78
451.654	2.77
452.008	2.77
452.362	2.76
452.716	2.78
453.07	2.76
453.424	2.76
453.778	2.77
454.132	2.77
454.486	2.76
454.839	2.75
455.193	2.74
455.547	2.74
455.9	2.75
456.254	2.76
456.607	2.76
456.961	2.76
457.314	2.77
457.668	2.78
458.021	2.76
458.375	2.75
458.728	2.77
459.081	2.77
459.434	2.77
459.787	2.76
460.141	2.76
460.494	2.76
460.847	2.75
461.2	2.74
461.553	2.75
461.906	2.76
462.259	2.78
462.611	2.8
462.964	2.8
463.317	2.79
463.67	2.8
464.022	2.8
464.375	2.79
464.728	2.78
465.08	2.78
465.433	2.81
465.785	2.83
466.138	2.82
466.49	2.84
466.843	2.84
467.195	2.88
467.547	2.88
467.899	2.9
468.252	2.91
468.604	2.94
468.956	2.92
469.308	2.94
469.66	2.94
470.012	2.94
470.364	2.95
470.716	2.96
471.068	2.97
471.42	2.97
471.772	3.01
472.123	3.03
472.475	3.07
472.827	3.07
473.178	3.08
473.53	3.08
473.882	3.06
474.233	3.08
474.585	3.06
474.936	3.06
475.288	3.06
475.639	3.07
475.99	3.04
476.342	3.04
476.693	3.05
477.044	3.06
477.395	3.06
477.746	3.07
478.097	3.05
478.448	3.02
478.8	3.02
479.15	2.99
479.501	2.97
479.852	2.94
480.203	2.93
480.554	2.94
480.905	2.93
481.255	2.95
481.606	2.95
481.957	2.94
482.307	2.94
482.658	2.94
483.009	2.94
483.359	2.95
483.709	2.96
484.06	2.94
484.41	2.94
484.761	2.93
485.111	2.93
485.461	2.93
485.811	2.94
486.162	2.94
486.512	2.94
486.862	2.95
487.212	2.96
487.562	2.96
487.912	2.96
488.262	2.96
488.612	2.96
488.961	2.95
489.311	2.96
489.661	2.96
490.011	2.95
490.36	2.96
490.71	2.96
491.06	2.96
491.409	2.97
491.759	2.97
492.108	2.99
492.458	2.99
492.807	2.99
493.157	3
493.506	3.02
493.855	3.02
494.204	3.02
494.554	3.02
494.903	3.01
495.252	3.02
495.601	3.03
495.95	3.05
496.299	3.07
496.648	3.07
496.997	3.1
497.346	3.11
497.695	3.14
498.043	3.15
498.392	3.17
498.741	3.2
499.09	3.21
499.438	3.26
499.787	3.29
500.135	3.35
500.484	3.39
500.832	3.42
501.181	3.47
501.529	3.51
501.878	3.57
502.226	3.64
502.574	3.69
502.923	3.73
503.271	3.77
503.619	3.84
503.967	3.9
504.315	3.97
504.663	4.03
505.011	4.1
505.359	4.16
505.707	4.22
506.055	4.28
506.403	4.37
506.751	4.43
507.098	4.5
507.446	4.57
507.794	4.64
508.141	4.71
508.489	4.79
508.837	4.9
509.184	4.98
509.531	5.05
509.879	5.16
510.226	5.27
510.574	5.37
510.921	5.44
511.268	5.53
511.616	5.63
511.963	5.74
512.31	5.84
512.657	5.96
513.004	6.1
513.351	6.23
513.698	6.36
514.045	6.49
514.392	6.63
514.739	6.76
515.086	6.92
515.432	7.07
515.779	7.19
516.126	7.32
516.473	7.47
516.819	7.62
517.166	7.73
517.512	7.84
517.859	7.97
518.205	8.11
518.552	8.26
518.898	8.37
519.245	8.5
519.591	8.61
519.937	8.72
520.283	8.85
520.629	8.99
520.976	9.13
521.322	9.28
521.668	9.44
522.014	9.59
522.36	9.75
522.706	9.92
523.052	10.13
523.398	10.32
523.743	10.53
524.089	10.73
524.435	10.92
524.781	11.12
525.126	11.29
525.472	11.44
525.817	11.58
526.163	11.72
526.509	11.82
526.854	11.97
527.199	12.1
527.545	12.2
527.89	12.32
528.235	12.44
528.581	12.57
528.926	12.68
529.271	12.81
529.616	12.94
529.961	13.06
530.306	13.18
530.651	13.31
530.996	13.45
531.341	13.6
531.686	13.76
532.031	13.92
532.376	14.1
532.721	14.26
533.065	14.45
533.41	14.65
533.755	14.86
534.099	15.03
534.444	15.24
534.788	15.48
535.133	15.66
535.477	15.89
535.822	16.1
536.166	16.34
536.51	16.57
536.855	16.84
537.199	17.11
537.543	17.39
537.887	17.65
538.231	17.93
538.576	18.22
538.92	18.5
539.264	18.74
539.608	18.98
539.951	19.23
540.295	19.43
540.639	19.65
540.983	19.86
541.327	20.09
541.671	20.31
542.014	20.53
542.358	20.73
542.701	20.93
543.045	21.16
543.389	21.38
543.732	21.64
544.075	21.86
544.419	22.08
544.762	22.34
545.105	22.63
545.449	22.9
545.792	23.19
546.135	23.5
546.478	23.79
546.821	24.16
547.165	24.53
547.508	24.89
547.851	25.23
548.194	25.58
548.536	25.89
548.879	26.22
549.222	26.55
549.565	26.89
549.908	27.18
550.25	27.51
550.593	27.85
550.936	28.14
551.278	28.47
551.621	28.87
551.963	29.2
552.306	29.47
552.648	29.75
552.991	30.05
553.333	30.36
553.675	30.71
554.017	30.94
554.36	31.21
554.702	31.51
555.044	31.8
555.386	32.04
555.728	32.31
556.07	32.63
556.412	32.91
556.754	33.28
557.096	33.64
557.438	33.95
557.78	34.25
558.121	34.6
558.463	34.87
558.805	35.18
559.147	35.48
559.488	35.74
559.83	36.01
560.171	36.22
560.513	36.43
560.854	36.66
561.196	36.99
561.537	37.21
561.878	37.48
562.22	37.77
562.561	38.03
562.902	38.36
563.243	38.56
563.584	38.85
563.925	39.04
564.266	39.28
564.607	39.48
564.948	39.66
565.289	39.85
565.63	40.08
565.971	40.23
566.312	40.44
566.653	40.67
566.993	40.89
567.334	41.14
567.675	41.37
568.015	41.66
568.356	41.78
568.696	41.98
569.037	42.2
569.377	42.38
569.718	42.64
570.058	42.78
570.398	42.98
570.739	43.1
571.079	43.27
571.419	43.42
571.759	43.59
572.099	43.77
572.439	43.96
572.779	44.12
573.119	44.26
573.459	44.4
573.799	44.59
574.139	44.75
574.479	44.85
574.819	44.98
575.158	45.06
575.498	45.26
575.838	45.45
576.177	45.55
576.517	45.74
576.856	45.85
577.196	46.07
577.535	46.21
577.875	46.34
578.214	46.56
578.553	46.73
578.893	46.91
579.232	47.13
579.571	47.32
579.91	47.46
580.25	47.64
580.589	47.78
580.928	47.89
581.267	48.07
581.606	48.24
581.945	48.41
582.283	48.53
582.622	48.65
582.961	48.74
583.3	48.82
583.639	48.84
583.977	48.99
584.316	49.12
584.654	49.27
584.993	49.45
585.332	49.51
585.67	49.67
586.008	49.79
586.347	49.84
586.685	49.9
587.024	50.04
587.362	50.16
587.7	50.32
588.038	50.5
588.376	50.64
588.715	50.79
589.053	50.92
589.391	51.01
589.729	51.15
590.067	51.22
590.404	51.31
590.742	51.42
591.08	51.49
591.418	51.54
591.756	51.57
592.093	51.63
592.431	51.68
592.769	51.77
593.106	51.83
593.444	51.91
593.781	51.95
594.119	51.98
594.456	51.97
594.793	51.99
595.131	51.91
595.468	51.97
595.805	51.99
596.143	51.98
596.48	52.03
596.817	51.99
597.154	52.08
597.491	52.14
597.828	52.14
598.165	52.17
598.502	52.2
598.839	52.33
599.176	52.4
599.512	52.49
599.849	52.55
600.186	52.62
600.523	52.71
600.859	52.81
601.196	52.86
601.532	52.97
601.869	53.04
602.205	53.1
602.542	53.15
602.878	53.24
603.215	53.33
603.551	53.38
603.887	53.47
604.223	53.5
604.56	53.57
604.896	53.66
605.232	53.74
605.568	53.8
605.904	53.79
606.24	53.87
606.576	53.9
606.912	53.97
607.248	54.04
607.583	54.08
607.919	54.12
608.255	54.17
608.591	54.2
608.926	54.25
609.262	54.37
609.597	54.4
609.933	54.46
610.268	54.47
610.604	54.52
610.939	54.57
611.275	54.64
611.61	54.73
611.945	54.7
612.281	54.71
612.616	54.75
612.951	54.81
613.286	54.85
613.621	54.92
613.956	54.89
614.291	54.86
614.626	54.99
614.961	55.12
615.296	55.16
615.631	55.21
615.966	55.22
616.3	55.25
616.635	55.18
616.97	55.16
617.304	55.23
617.639	55.22
617.973	55.29
618.308	55.36
618.642	55.38
618.977	55.51
619.311	55.59
619.646	55.73
619.98	55.79
620.314	55.79
620.648	55.83
620.983	55.76
621.317	55.8
621.651	55.85
621.985	55.8
622.319	55.83
622.653	55.87
622.987	55.96
623.321	56.01
623.655	56.14
623.988	56.22
624.322	56.28
624.656	56.35
624.99	56.3
625.323	56.26
625.657	56.24
625.99	56.27
626.324	56.25
626.657	56.19
626.991	56.1
627.324	56.18
627.658	56.19
627.991	56.38
628.324	56.46
628.657	56.39
628.991	56.46
629.324	56.49
629.657	56.58
629.99	56.58
630.323	56.63
630.656	56.59
630.989	56.62
631.322	56.64
631.655	56.7
631.987	56.81
632.32	56.9
632.653	56.98
632.986	57.01
633.318	57.05
633.651	57.15
633.984	57.24
634.316	57.21
634.649	57.2
634.981	57.24
635.313	57.28
635.646	57.36
635.978	57.38
636.31	57.39
636.643	57.36
636.975	57.35
637.307	57.39
637.639	57.45
637.971	57.5
638.303	57.51
638.635	57.43
638.967	57.39
639.299	57.42
639.631	57.43
639.963	57.42
640.295	57.44
640.626	57.4
640.958	57.42
641.29	57.43
641.621	57.46
641.953	57.35
642.285	57.31
642.616	57.3
642.948	57.27
643.279	57.41
643.61	57.5
643.942	57.55
644.273	57.68
644.604	57.74
644.936	57.8
645.267	57.82
645.598	57.86
645.929	57.99
646.26	57.89
646.591	57.97
646.922	57.95
647.253	58.02
647.584	58.08
647.915	58.05
648.245	58.12
648.576	58.15
648.907	58.22
649.238	58.19
649.568	58.31
649.899	58.43
650.229	58.32
650.56	58.31
650.89	58.45
651.221	58.31
651.551	58.34
651.882	58.22
652.212	58.2
652.542	58.27
652.872	58.15
653.203	58.17
653.533	58.12
653.863	58.12
654.193	58.11
654.523	58.15
654.853	58.34
655.183	58.4
655.513	58.32
655.843	58.25
656.172	58.16
656.502	58.04
656.832	57.96
657.162	58.01
657.491	57.98
657.821	57.96
658.15	57.92
658.48	57.93
658.809	57.91
659.139	58.02
659.468	58
659.798	58.03
660.127	58.08
660.456	58.14
660.785	58.2
661.115	58.17
661.444	58.16
661.773	58.04
662.102	57.99
662.431	58.1
662.76	58.21
663.089	58.2
663.418	58.23
663.747	58.26
664.076	58.32
664.404	58.36
664.733	58.29
665.062	58.28
665.39	58.33
665.719	58.43
666.048	58.46
666.376	58.44
666.705	58.39
667.033	58.35
667.362	58.35
