Data from BU26851_Reflection_00007.txt Node
Date: Mon Nov 18 16:48:18 EST 2019
User: vgr7
Spectrometer: USB2G7710
Scans to average: 3
Trigger mode: 4
Integration Time (sec): 2.000000E-2
Electric dark correction enabled: true
Boxcar width: 10
XAxis mode: Wavelengths
Number of Pixels in Spectrum: 2048
>>>>>Begin Spectral Data<<<<<
177.721	-533.69
178.105	1208.11
178.488	-1849.37
178.871	4.96
179.254	269.49
179.636	138.02
180.019	66.1
180.402	50
180.785	32.99
181.168	113.06
181.55	2.1
181.933	59.36
182.316	37.69
182.698	69.82
183.081	191.34
183.463	-1425.77
183.846	-411.18
184.228	-5641.94
184.611	977.42
184.993	1998.31
185.376	147.69
185.758	134.71
186.14	317.57
186.522	421.54
186.904	-3900
187.287	836.84
187.669	-598.22
188.051	829.06
188.433	-832.33
188.815	-54.82
189.197	-89.64
189.579	-141.62
189.961	-98.07
190.342	-75.39
190.724	-30.02
191.106	-136.98
191.488	-304.86
191.869	1038.05
192.251	-308.3
192.633	5918.18
193.014	-403.94
193.396	-58.32
193.777	-20.85
194.159	-157.63
194.54	-35.83
194.922	1120.41
195.303	49.84
195.684	77.9
196.065	321.5
196.447	106.39
196.828	-210.25
197.209	-21.55
197.59	444.83
197.971	396.77
198.352	-264.82
198.733	-206.7
199.114	70.23
199.495	41.83
199.876	23.61
200.257	7.87
200.638	-7.4
201.018	-15.63
201.399	-27.16
201.78	-12.35
202.16	-12.83
202.541	-52.14
202.922	-71.14
203.302	-57.57
203.683	-75.4
204.063	-109.11
204.444	-138.88
204.824	-82.49
205.204	-56.91
205.585	-41.08
205.965	-34.93
206.345	-108.99
206.725	-213.25
207.106	-811.24
207.486	1035.96
207.866	552.96
208.246	167.35
208.626	120.54
209.006	87.1
209.386	251.35
209.766	1986.79
210.145	310.02
210.525	295.8
210.905	-309.97
211.285	-236.28
211.664	-61.04
212.044	-52.84
212.424	-17.3
212.803	-9.76
213.183	4.58
213.562	15.52
213.942	37.44
214.321	59.78
214.701	51.03
215.08	32.6
215.459	47.32
215.838	46.43
216.218	51.67
216.597	53.37
216.976	59.01
217.355	71.02
217.734	72.4
218.113	74.64
218.492	63.81
218.871	68.82
219.25	55.19
219.629	42.55
220.008	33.5
220.387	32.66
220.766	20.74
221.144	15.03
221.523	3.85
221.902	-41.39
222.28	-37.31
222.659	-27.08
223.037	-24.85
223.416	-53.77
223.794	-40.84
224.173	-49.99
224.551	-33.61
224.929	-46.37
225.308	-42.68
225.686	-34.36
226.064	-32.88
226.442	-30.71
226.821	-20.94
227.199	-22.42
227.577	-23.77
227.955	-19.93
228.333	-16.33
228.711	-12.14
229.089	-8.51
229.467	-9.12
229.845	-7.13
230.222	-6.36
230.6	-10.16
230.978	-8.88
231.356	-5.04
231.733	-7.55
232.111	-3.56
232.488	-5.37
232.866	-4.99
233.243	-3.39
233.621	-5.01
233.998	-3.33
234.376	-4.13
234.753	-5.59
235.13	-3.27
235.508	-2.64
235.885	-1.11
236.262	-2.26
236.639	-2.79
237.016	-3.97
237.393	-1.56
237.77	-1.08
238.147	-1.66
238.524	-0.79
238.901	0.23
239.278	0.75
239.655	2.06
240.032	0.91
240.409	0.83
240.785	1.3
241.162	1.11
241.539	2.01
241.915	2.1
242.292	1.98
242.668	2.1
243.045	2.07
243.421	2.63
243.798	2.63
244.174	2.59
244.551	2.48
244.927	2.45
245.303	2.3
245.679	2.64
246.056	2.67
246.432	2.85
246.808	2.87
247.184	2.58
247.56	2.24
247.936	2.45
248.312	2.59
248.688	2.4
249.064	2.39
249.44	2.28
249.815	2.2
250.191	2.25
250.567	2.21
250.943	2.23
251.318	2.21
251.694	2.17
252.069	2.15
252.445	2.19
252.82	2.5
253.196	2.49
253.571	2.32
253.947	2.55
254.322	2.75
254.697	2.38
255.073	2.43
255.448	2.5
255.823	2.31
256.198	2.56
256.573	2.78
256.948	2.76
257.323	2.76
257.698	2.71
258.073	2.63
258.448	2.75
258.823	2.74
259.198	2.51
259.573	2.41
259.948	2.51
260.322	2.63
260.697	2.63
261.072	2.48
261.446	2.47
261.821	2.46
262.195	2.5
262.57	2.54
262.944	2.66
263.319	2.77
263.693	2.85
264.067	2.67
264.442	2.76
264.816	2.76
265.19	2.62
265.564	2.87
265.938	2.85
266.313	2.79
266.687	2.82
267.061	2.97
267.435	3.12
267.809	3.09
268.183	2.96
268.556	2.74
268.93	2.95
269.304	2.77
269.678	2.65
270.051	2.5
270.425	2.55
270.799	2.48
271.172	2.44
271.546	2.33
271.919	2.27
272.293	2.12
272.666	2.24
273.04	2.19
273.413	2.05
273.787	2.1
274.16	2.06
274.533	2.06
274.906	1.96
275.279	1.98
275.653	1.89
276.026	1.79
276.399	1.83
276.772	1.96
277.145	2.03
277.518	2.03
277.891	2
278.263	2.04
278.636	2.24
279.009	2.21
279.382	2.49
279.755	2.63
280.127	2.77
280.5	2.75
280.872	2.87
281.245	2.72
281.617	2.89
281.99	2.95
282.362	2.92
282.735	2.85
283.107	2.76
283.479	2.75
283.852	2.94
284.224	2.94
284.596	2.75
284.968	2.86
285.34	2.94
285.713	2.98
286.085	2.95
286.457	2.76
286.829	2.76
287.201	2.67
287.572	2.65
287.944	2.55
288.316	2.37
288.688	2.36
289.06	2.44
289.431	2.43
289.803	2.5
290.175	2.57
290.546	2.71
290.918	2.81
291.289	2.92
291.661	2.96
292.032	3.12
292.403	3.2
292.775	3.32
293.146	3.33
293.517	3.41
293.889	3.45
294.26	3.68
294.631	3.74
295.002	3.72
295.373	3.7
295.744	3.72
296.115	3.79
296.486	3.77
296.857	3.81
297.228	3.69
297.599	3.59
297.97	3.58
298.34	3.6
298.711	3.53
299.082	3.46
299.452	3.44
299.823	3.42
300.194	3.36
300.564	3.21
300.935	3.14
301.305	3.09
301.676	3.06
302.046	3.07
302.416	3.19
302.787	3.22
303.157	3.15
303.527	3.24
303.897	3.43
304.267	3.53
304.637	3.51
305.008	3.71
305.378	3.66
305.748	3.61
306.117	3.7
306.487	3.76
306.857	3.84
307.227	3.87
307.597	3.91
307.967	3.98
308.336	4.04
308.706	4.17
309.076	4.32
309.445	4.33
309.815	4.29
310.184	4.14
310.554	4.24
310.923	4.37
311.293	4.36
311.662	4.3
312.031	4.33
312.401	4.44
312.77	4.57
313.139	4.72
313.508	4.72
313.877	4.62
314.246	4.61
314.616	4.6
314.985	4.62
315.353	4.51
315.722	4.54
316.091	4.5
316.46	4.63
316.829	4.6
317.198	4.85
317.567	4.89
317.935	4.97
318.304	4.98
318.672	5.1
319.041	5.22
319.41	5.18
319.778	5.15
320.147	5.18
320.515	5.04
320.883	4.97
321.252	5.08
321.62	5.16
321.988	5.18
322.357	5.25
322.725	5.31
323.093	5.53
323.461	5.59
323.829	5.7
324.197	5.68
324.565	5.76
324.933	5.68
325.301	5.79
325.669	5.93
326.037	6.06
326.405	6.03
326.772	6.04
327.14	6.22
327.508	6.31
327.875	6.24
328.243	6.22
328.61	6.28
328.978	6.46
329.346	6.52
329.713	6.48
330.08	6.49
330.448	6.49
330.815	6.3
331.182	6.4
331.55	6.49
331.917	6.57
332.284	6.53
332.651	6.49
333.018	6.4
333.385	6.34
333.752	6.21
334.119	6.27
334.486	6.17
334.853	6.07
335.22	6.04
335.587	6.02
335.954	6.06
336.32	6.2
336.687	6.08
337.054	6.05
337.42	6.24
337.787	6.25
338.153	6.26
338.52	6.51
338.886	6.45
339.253	6.38
339.619	6.33
339.986	6.31
340.352	6.45
340.718	6.47
341.084	6.44
341.451	6.6
341.817	6.59
342.183	6.54
342.549	6.67
342.915	6.81
343.281	6.85
343.647	6.93
344.013	6.83
344.379	6.84
344.745	6.97
345.11	7
345.476	7.04
345.842	7.11
346.208	7.11
346.573	7.19
346.939	7.31
347.304	7.28
347.67	7.29
348.035	7.22
348.401	7.24
348.766	7.33
349.132	7.26
349.497	7.35
349.862	7.58
350.228	7.48
350.593	7.43
350.958	7.55
351.323	7.55
351.688	7.55
352.053	7.6
352.418	7.63
352.783	7.64
353.148	7.66
353.513	7.67
353.878	7.55
354.243	7.58
354.608	7.49
354.972	7.48
355.337	7.53
355.702	7.57
356.066	7.61
356.431	7.57
356.795	7.62
357.16	7.57
357.524	7.47
357.889	7.5
358.253	7.54
358.618	7.61
358.982	7.62
359.346	7.62
359.71	7.6
360.075	7.57
360.439	7.52
360.803	7.5
361.167	7.44
361.531	7.48
361.895	7.43
362.259	7.39
362.623	7.42
362.987	7.37
363.351	7.33
363.714	7.32
364.078	7.35
364.442	7.31
364.806	7.34
365.169	7.38
365.533	7.38
365.896	7.29
366.26	7.16
366.623	7.06
366.987	7.1
367.35	7.03
367.714	6.98
368.077	6.95
368.44	6.97
368.803	6.94
369.167	6.88
369.53	6.87
369.893	6.97
370.256	6.92
370.619	6.88
370.982	6.87
371.345	6.8
371.708	6.74
372.071	6.65
372.434	6.5
372.797	6.43
373.159	6.36
373.522	6.38
373.885	6.31
374.247	6.35
374.61	6.27
374.973	6.27
375.335	6.24
375.698	6.22
376.06	6.15
376.423	6.11
376.785	6.08
377.147	6.03
377.51	5.97
377.872	5.93
378.234	5.95
378.596	5.92
378.958	5.84
379.321	5.81
379.683	5.81
380.045	5.81
380.407	5.78
380.769	5.75
381.13	5.67
381.492	5.65
381.854	5.6
382.216	5.58
382.578	5.55
382.939	5.5
383.301	5.45
383.663	5.34
384.024	5.3
384.386	5.31
384.747	5.28
385.109	5.26
385.47	5.2
385.832	5.12
386.193	5.07
386.554	5.04
386.916	5.01
387.277	4.97
387.638	4.95
387.999	4.86
388.36	4.85
388.721	4.83
389.082	4.83
389.443	4.76
389.804	4.72
390.165	4.67
390.526	4.63
390.887	4.62
391.248	4.64
391.609	4.65
391.969	4.59
392.33	4.63
392.691	4.57
393.051	4.57
393.412	4.58
393.772	4.54
394.133	4.53
394.493	4.5
394.854	4.47
395.214	4.46
395.574	4.46
395.935	4.42
396.295	4.4
396.655	4.36
397.015	4.35
397.376	4.32
397.736	4.33
398.096	4.29
398.456	4.24
398.816	4.2
399.176	4.15
399.535	4.13
399.895	4.05
400.255	4.08
400.615	4.06
400.975	4.01
401.334	4
401.694	3.99
402.054	3.95
402.413	3.93
402.773	3.85
403.132	3.82
403.492	3.81
403.851	3.79
404.211	3.79
404.57	3.76
404.929	3.73
405.288	3.68
405.648	3.68
406.007	3.69
406.366	3.68
406.725	3.68
407.084	3.66
407.443	3.66
407.802	3.65
408.161	3.62
408.52	3.63
408.879	3.61
409.238	3.59
409.596	3.58
409.955	3.59
410.314	3.59
410.673	3.56
411.031	3.54
411.39	3.54
411.748	3.49
412.107	3.51
412.465	3.51
412.824	3.5
413.182	3.49
413.54	3.46
413.899	3.44
414.257	3.43
414.615	3.43
414.974	3.4
415.332	3.34
415.69	3.34
416.048	3.31
416.406	3.29
416.764	3.27
417.122	3.26
417.48	3.21
417.838	3.2
418.195	3.2
418.553	3.19
418.911	3.17
419.269	3.15
419.626	3.14
419.984	3.12
420.342	3.12
420.699	3.09
421.057	3.1
421.414	3.08
421.772	3.07
422.129	3.06
422.486	3.05
422.844	3.05
423.201	3.04
423.558	3.03
423.915	3.03
424.273	3.03
424.63	3.03
424.987	3.03
425.344	3.03
425.701	3.04
426.058	3.03
426.415	3.02
426.772	3.02
427.128	3.01
427.485	3.02
427.842	3.02
428.199	3.04
428.555	3.02
428.912	3.03
429.269	3.01
429.625	3
429.982	2.98
430.338	2.96
430.695	2.96
431.051	2.94
431.407	2.95
431.764	2.94
432.12	2.94
432.476	2.92
432.832	2.91
433.189	2.9
433.545	2.89
433.901	2.88
434.257	2.9
434.613	2.89
434.969	2.88
435.325	2.9
435.681	2.87
436.036	2.89
436.392	2.89
436.748	2.88
437.104	2.86
437.459	2.86
437.815	2.86
438.171	2.85
438.526	2.86
438.882	2.85
439.237	2.84
439.593	2.84
439.948	2.84
440.304	2.85
440.659	2.86
441.014	2.87
441.369	2.85
441.725	2.83
442.08	2.83
442.435	2.83
442.79	2.8
443.145	2.8
443.5	2.79
443.855	2.79
444.21	2.8
444.565	2.8
444.92	2.81
445.275	2.81
445.629	2.82
445.984	2.81
446.339	2.8
446.693	2.79
447.048	2.79
447.403	2.78
447.757	2.78
448.112	2.77
448.466	2.77
448.82	2.8
449.175	2.81
449.529	2.81
449.883	2.8
450.238	2.81
450.592	2.81
450.946	2.8
451.3	2.78
451.654	2.78
452.008	2.78
452.362	2.75
452.716	2.76
453.07	2.75
453.424	2.75
453.778	2.77
454.132	2.76
454.486	2.74
454.839	2.73
455.193	2.71
455.547	2.72
455.9	2.72
456.254	2.71
456.607	2.69
456.961	2.68
457.314	2.69
457.668	2.69
458.021	2.68
458.375	2.69
458.728	2.69
459.081	2.69
459.434	2.68
459.787	2.69
460.141	2.68
460.494	2.67
460.847	2.67
461.2	2.65
461.553	2.67
461.906	2.7
462.259	2.73
462.611	2.74
462.964	2.75
463.317	2.74
463.67	2.74
464.022	2.75
464.375	2.75
464.728	2.76
465.08	2.78
465.433	2.78
465.785	2.79
466.138	2.8
466.49	2.82
466.843	2.83
467.195	2.83
467.547	2.85
467.899	2.86
468.252	2.88
468.604	2.88
468.956	2.89
469.308	2.88
469.66	2.86
470.012	2.9
470.364	2.88
470.716	2.89
471.068	2.87
471.42	2.89
471.772	2.91
472.123	2.92
472.475	2.93
472.827	2.93
473.178	2.93
473.53	2.94
473.882	2.92
474.233	2.93
474.585	2.91
474.936	2.91
475.288	2.92
475.639	2.94
475.99	2.96
476.342	2.96
476.693	2.96
477.044	2.97
477.395	2.95
477.746	2.93
478.097	2.92
478.448	2.95
478.8	2.94
479.15	2.92
479.501	2.92
479.852	2.91
480.203	2.93
480.554	2.93
480.905	2.93
481.255	2.96
481.606	2.96
481.957	2.98
482.307	2.97
482.658	2.98
483.009	2.96
483.359	2.96
483.709	2.96
484.06	2.95
484.41	2.96
484.761	2.96
485.111	2.97
485.461	2.97
485.811	2.97
486.162	2.98
486.512	2.98
486.862	2.97
487.212	2.97
487.562	2.97
487.912	2.97
488.262	2.97
488.612	2.97
488.961	2.96
489.311	2.96
489.661	2.97
490.011	2.97
490.36	2.98
490.71	2.99
491.06	2.99
491.409	3.01
491.759	3.02
492.108	3.03
492.458	3.03
492.807	3.04
493.157	3.05
493.506	3.07
493.855	3.08
494.204	3.1
494.554	3.13
494.903	3.15
495.252	3.16
495.601	3.17
495.95	3.19
496.299	3.21
496.648	3.22
496.997	3.25
497.346	3.29
497.695	3.33
498.043	3.35
498.392	3.37
498.741	3.41
499.09	3.41
499.438	3.45
499.787	3.49
500.135	3.54
500.484	3.56
500.832	3.58
501.181	3.63
501.529	3.69
501.878	3.73
502.226	3.77
502.574	3.82
502.923	3.86
503.271	3.91
503.619	3.99
503.967	4.03
504.315	4.07
504.663	4.12
505.011	4.17
505.359	4.21
505.707	4.25
506.055	4.3
506.403	4.38
506.751	4.44
507.098	4.52
507.446	4.55
507.794	4.58
508.141	4.67
508.489	4.73
508.837	4.8
509.184	4.89
509.531	4.97
509.879	5.06
510.226	5.17
510.574	5.22
510.921	5.3
511.268	5.39
511.616	5.48
511.963	5.56
512.31	5.63
512.657	5.73
513.004	5.83
513.351	5.94
513.698	6.03
514.045	6.1
514.392	6.21
514.739	6.35
515.086	6.47
515.432	6.58
515.779	6.7
516.126	6.8
516.473	6.89
516.819	7
517.166	7.12
517.512	7.21
517.859	7.32
518.205	7.44
518.552	7.54
518.898	7.63
519.245	7.72
519.591	7.82
519.937	7.91
520.283	8.04
520.629	8.15
520.976	8.27
521.322	8.4
521.668	8.51
522.014	8.64
522.36	8.77
522.706	8.91
523.052	9.04
523.398	9.22
523.743	9.37
524.089	9.52
524.435	9.65
524.781	9.79
525.126	9.94
525.472	10.05
525.817	10.19
526.163	10.33
526.509	10.45
526.854	10.55
527.199	10.66
527.545	10.75
527.89	10.86
528.235	10.97
528.581	11.08
528.926	11.2
529.271	11.3
529.616	11.4
529.961	11.51
530.306	11.62
530.651	11.73
530.996	11.84
531.341	11.98
531.686	12.11
532.031	12.25
532.376	12.39
532.721	12.53
533.065	12.65
533.41	12.78
533.755	12.91
534.099	13.05
534.444	13.2
534.788	13.34
535.133	13.47
535.477	13.64
535.822	13.8
536.166	13.93
536.51	14.12
536.855	14.32
537.199	14.52
537.543	14.73
537.887	14.95
538.231	15.15
538.576	15.35
538.92	15.56
539.264	15.74
539.608	15.94
539.951	16.11
540.295	16.28
540.639	16.45
540.983	16.63
541.327	16.79
541.671	16.95
542.014	17.12
542.358	17.29
542.701	17.41
543.045	17.58
543.389	17.75
543.732	17.9
544.075	18.07
544.419	18.23
544.762	18.44
545.105	18.62
545.449	18.81
545.792	19.03
546.135	19.25
546.478	19.46
546.821	19.68
547.165	19.92
547.508	20.17
547.851	20.43
548.194	20.68
548.536	20.97
548.879	21.24
549.222	21.5
549.565	21.75
549.908	22.03
550.25	22.29
550.593	22.56
550.936	22.84
551.278	23.1
551.621	23.38
551.963	23.57
552.306	23.79
552.648	24.06
552.991	24.27
553.333	24.47
553.675	24.76
554.017	25
554.36	25.25
554.702	25.47
555.044	25.72
555.386	25.93
555.728	26.13
556.07	26.37
556.412	26.59
556.754	26.8
557.096	27.06
557.438	27.31
557.78	27.58
558.121	27.86
558.463	28.12
558.805	28.34
559.147	28.59
559.488	28.85
559.83	29.08
560.171	29.34
560.513	29.6
560.854	29.79
561.196	30.03
561.537	30.26
561.878	30.54
562.22	30.76
562.561	30.96
562.902	31.13
563.243	31.32
563.584	31.52
563.925	31.76
564.266	31.96
564.607	32.18
564.948	32.32
565.289	32.5
565.63	32.67
565.971	32.88
566.312	33.06
566.653	33.22
566.993	33.38
567.334	33.58
567.675	33.76
568.015	33.94
568.356	34.08
568.696	34.24
569.037	34.45
569.377	34.64
569.718	34.83
570.058	35.05
570.398	35.2
570.739	35.39
571.079	35.53
571.419	35.68
571.759	35.82
572.099	35.99
572.439	36.11
572.779	36.26
573.119	36.39
573.459	36.53
573.799	36.7
574.139	36.87
574.479	36.98
574.819	37.13
575.158	37.25
575.498	37.42
575.838	37.58
576.177	37.64
576.517	37.72
576.856	37.85
577.196	37.95
577.535	38.08
577.875	38.22
578.214	38.44
578.553	38.6
578.893	38.74
579.232	38.91
579.571	39.08
579.91	39.21
580.25	39.4
580.589	39.54
580.928	39.66
581.267	39.83
581.606	39.95
581.945	40.04
582.283	40.18
582.622	40.32
582.961	40.42
583.3	40.53
583.639	40.71
583.977	40.87
584.316	41
584.654	41.16
584.993	41.27
585.332	41.27
585.67	41.39
586.008	41.48
586.347	41.54
586.685	41.64
587.024	41.7
587.362	41.74
587.7	41.79
588.038	41.91
588.376	41.98
588.715	42.1
589.053	42.27
589.391	42.37
589.729	42.45
590.067	42.55
590.404	42.73
590.742	42.84
591.08	42.88
591.418	42.98
591.756	43.05
592.093	43.12
592.431	43.29
592.769	43.35
593.106	43.36
593.444	43.45
593.781	43.58
594.119	43.68
594.456	43.75
594.793	43.83
595.131	43.93
595.468	44
595.805	44.1
596.143	44.13
596.48	44.17
596.817	44.25
597.154	44.3
597.491	44.28
597.828	44.35
598.165	44.44
598.502	44.52
598.839	44.54
599.176	44.63
599.512	44.66
599.849	44.76
600.186	44.84
600.523	44.92
600.859	44.94
601.196	45.03
601.532	45.1
601.869	45.18
602.205	45.22
602.542	45.25
602.878	45.27
603.215	45.26
603.551	45.34
603.887	45.35
604.223	45.44
604.56	45.5
604.896	45.48
605.232	45.51
605.568	45.52
605.904	45.65
606.24	45.73
606.576	45.76
606.912	45.81
607.248	45.89
607.583	46
607.919	46.07
608.255	46.07
608.591	46.12
608.926	46.16
609.262	46.2
609.597	46.27
609.933	46.32
610.268	46.42
610.604	46.41
610.939	46.49
611.275	46.5
611.61	46.58
611.945	46.65
612.281	46.69
612.616	46.78
612.951	46.73
613.286	46.7
613.621	46.77
613.956	46.79
614.291	46.78
614.626	46.71
614.961	46.77
615.296	46.81
615.631	46.8
615.966	46.81
616.3	46.91
616.635	46.93
616.97	46.98
617.304	47.01
617.639	47.15
617.973	47.13
618.308	47.21
618.642	47.19
618.977	47.23
619.311	47.27
619.646	47.37
619.98	47.48
620.314	47.52
620.648	47.53
620.983	47.63
621.317	47.71
621.651	47.79
621.985	47.86
622.319	47.94
622.653	48.07
622.987	48.23
623.321	48.21
623.655	48.22
623.988	48.21
624.322	48.18
624.656	48.16
624.99	48.24
625.323	48.18
625.657	48.22
625.99	48.24
626.324	48.29
626.657	48.27
626.991	48.3
627.324	48.27
627.658	48.22
627.991	48.18
628.324	48.23
628.657	48.21
628.991	48.2
629.324	48.24
629.657	48.26
629.99	48.2
630.323	48.2
630.656	48.24
630.989	48.29
631.322	48.3
631.655	48.27
631.987	48.3
632.32	48.4
632.653	48.46
632.986	48.54
633.318	48.52
633.651	48.51
633.984	48.56
634.316	48.71
634.649	48.79
634.981	48.84
635.313	48.79
635.646	48.8
635.978	48.78
636.31	48.79
636.643	48.78
636.975	48.78
637.307	48.76
637.639	48.74
637.971	48.8
638.303	48.81
638.635	48.85
638.967	49
639.299	48.99
639.631	48.87
639.963	48.83
640.295	48.84
640.626	48.85
640.958	48.81
641.29	48.83
641.621	48.78
641.953	48.8
642.285	48.92
642.616	48.99
642.948	49.04
643.279	48.95
643.61	48.95
643.942	49.1
644.273	49.25
644.604	49.35
644.936	49.31
645.267	49.45
645.598	49.53
645.929	49.29
646.26	49.39
646.591	49.5
646.922	49.54
647.253	49.58
647.584	49.69
647.915	49.65
648.245	49.65
648.576	49.74
648.907	49.77
649.238	49.75
649.568	49.87
649.899	49.92
650.229	50.03
650.56	50.06
650.89	50.01
651.221	49.95
651.551	49.88
651.882	49.93
652.212	49.88
652.542	49.88
652.872	49.97
653.203	49.93
653.533	49.9
653.863	49.92
654.193	49.96
654.523	49.98
654.853	50.01
655.183	50.06
655.513	50.17
655.843	50.27
656.172	50.34
656.502	50.35
656.832	50.31
657.162	50.37
657.491	50.38
657.821	50.44
658.15	50.45
658.48	50.54
658.809	50.53
659.139	50.62
659.468	50.61
659.798	50.64
660.127	50.76
660.456	50.91
660.785	50.91
661.115	50.86
661.444	50.81
661.773	50.91
662.102	50.97
662.431	50.95
662.76	50.91
663.089	50.88
663.418	50.86
663.747	51.02
664.076	50.93
664.404	50.94
664.733	50.97
665.062	51.01
665.39	50.95
665.719	50.88
666.048	50.7
666.376	50.81
666.705	50.81
667.033	50.73
