Data from BU26940_Reflection_00012.txt Node
Date: Tue Nov 19 11:00:31 EST 2019
User: vgr7
Spectrometer: USB2G7710
Scans to average: 3
Trigger mode: 4
Integration Time (sec): 2.000000E-2
Electric dark correction enabled: true
Boxcar width: 10
XAxis mode: Wavelengths
Number of Pixels in Spectrum: 2048
>>>>>Begin Spectral Data<<<<<
177.721	166.93
178.105	-2900
178.488	87.95
178.871	96.15
179.254	50
179.636	72.83
180.019	82.14
180.402	400
180.785	-115.79
181.168	-94.92
181.55	-66.67
181.933	-23.6
182.316	36.51
182.698	-29.31
183.081	-51.41
183.463	-56.44
183.846	-106.11
184.228	-111.04
184.611	-188.62
184.993	-153.33
185.376	-153.79
185.758	-176.42
186.14	-85.71
186.522	-184.4
186.904	-300
187.287	-207.69
187.669	-338.46
188.051	-439.22
188.433	-630.77
188.815	881.25
189.197	1369.23
189.579	247.06
189.961	742.86
190.342	309.46
190.724	242.05
191.106	161.98
191.488	123.67
191.869	97.95
192.251	105.21
192.633	100
193.014	115.96
193.396	95.19
193.777	47.67
194.159	66.17
194.54	43.22
194.922	34.94
195.303	30.19
195.684	12.09
196.065	4.96
196.447	36.48
196.828	37.24
197.209	21.49
197.59	27.82
197.971	8.81
198.352	6.25
198.733	6.02
199.114	8.24
199.495	-9.44
199.876	-37.36
200.257	-23.85
200.638	-38.42
201.018	-39.34
201.399	-29.63
201.78	-9
202.16	-3.45
202.541	-21.11
202.922	-38.3
203.302	-31.3
203.683	-28
204.063	-35.53
204.444	-44.35
204.824	-37.88
205.204	-14.99
205.585	-16.76
205.965	-17.55
206.345	-17.65
206.725	-12.83
207.106	-16.36
207.486	-7.95
207.866	-10.24
208.246	-9.7
208.626	-11.92
209.006	-4.7
209.386	2.99
209.766	10.87
210.145	-4.42
210.525	1.09
210.905	31.57
211.285	42.58
211.664	39.29
212.044	44.21
212.424	49.89
212.803	46.47
213.183	36.05
213.562	39.53
213.942	32.57
214.321	31.87
214.701	41.86
215.08	48.51
215.459	43.57
215.838	45.77
216.218	46.84
216.597	51.82
216.976	41.64
217.355	35.44
217.734	11.84
218.113	24.61
218.492	21.22
218.871	20.69
219.25	12.18
219.629	12.28
220.008	8.63
220.387	5.62
220.766	12.73
221.144	14.68
221.523	3.58
221.902	13.87
222.28	25.89
222.659	21.59
223.037	20.53
223.416	23.58
223.794	26.4
224.173	26.68
224.551	22.04
224.929	20.08
225.308	21.72
225.686	27.54
226.064	22.03
226.442	30.32
226.821	27.75
227.199	25.7
227.577	27.1
227.955	27.88
228.333	27.55
228.711	23.91
229.089	23.15
229.467	21.04
229.845	18.35
230.222	17.55
230.6	19.79
230.978	19.97
231.356	17.59
231.733	17.94
232.111	18.1
232.488	17.6
232.866	20.27
233.243	16.67
233.621	16.33
233.998	16.28
234.376	14.7
234.753	12.13
235.13	10.73
235.508	10.46
235.885	9
236.262	7.53
236.639	6.17
237.016	4.75
237.393	5.56
237.77	4.88
238.147	4.54
238.524	3.9
238.901	3.03
239.278	3.25
239.655	3.32
240.032	2.46
240.409	2.67
240.785	2.17
241.162	2.56
241.539	2.92
241.915	3.68
242.292	3.26
242.668	3.44
243.045	3.72
243.421	3.81
243.798	3.88
244.174	4.01
244.551	4.01
244.927	4.04
245.303	4.08
245.679	4.21
246.056	4.1
246.432	4.25
246.808	4.74
247.184	4.68
247.56	4.61
247.936	4.57
248.312	4.69
248.688	4.8
249.064	4.83
249.44	4.85
249.815	4.51
250.191	4.73
250.567	4.81
250.943	4.85
251.318	4.6
251.694	4.55
252.069	4.74
252.445	4.85
252.82	5.01
253.196	5.2
253.571	5.31
253.947	5.62
254.322	5.28
254.697	4.61
255.073	4.61
255.448	4.36
255.823	4.86
256.198	4.63
256.573	4.42
256.948	4.51
257.323	4.19
257.698	4.28
258.073	4.08
258.448	4.02
258.823	3.98
259.198	4.27
259.573	4.08
259.948	4.08
260.322	4.17
260.697	4.07
261.072	3.93
261.446	3.82
261.821	3.72
262.195	3.66
262.57	3.87
262.944	3.79
263.319	3.81
263.693	3.38
264.067	3.5
264.442	3.6
264.816	3.49
265.19	3.57
265.564	3.64
265.938	3.76
266.313	3.79
266.687	3.6
267.061	3.5
267.435	3.69
267.809	3.41
268.183	3.2
268.556	3.29
268.93	3.26
269.304	3.17
269.678	3.21
270.051	3.3
270.425	3.2
270.799	3.04
271.172	3.11
271.546	3.25
271.919	3.24
272.293	3.19
272.666	3.18
273.04	3.04
273.413	2.87
273.787	2.85
274.16	2.7
274.533	2.96
274.906	2.97
275.279	3.04
275.653	2.99
276.026	3.05
276.399	3.11
276.772	3.17
277.145	3.22
277.518	3.06
277.891	3.03
278.263	2.92
278.636	3.1
279.009	3.13
279.382	3.26
279.755	3.26
280.127	3.16
280.5	3.26
280.872	3.36
281.245	3.42
281.617	3.4
281.99	3.48
282.362	3.46
282.735	3.26
283.107	3.22
283.479	3.29
283.852	3.28
284.224	3.09
284.596	3.13
284.968	3.15
285.34	3.12
285.713	3.16
286.085	3.23
286.457	3.26
286.829	3.22
287.201	3.22
287.572	3.18
287.944	3.24
288.316	3.17
288.688	3.27
289.06	3.38
289.431	3.42
289.803	3.53
290.175	3.52
290.546	3.64
290.918	3.73
291.289	3.75
291.661	3.81
292.032	3.94
292.403	3.93
292.775	3.92
293.146	4.02
293.517	3.89
293.889	3.94
294.26	4.02
294.631	4.03
295.002	4.1
295.373	4.18
295.744	4.23
296.115	4.33
296.486	4.25
296.857	4.24
297.228	4.24
297.599	4.14
297.97	4.18
298.34	4.29
298.711	4.35
299.082	4.38
299.452	4.34
299.823	4.28
300.194	4.39
300.564	4.41
300.935	4.63
301.305	4.82
301.676	4.8
302.046	4.84
302.416	4.81
302.787	4.76
303.157	4.7
303.527	4.83
303.897	4.8
304.267	4.93
304.637	5.03
305.008	5.1
305.378	5.23
305.748	5.24
306.117	5.23
306.487	5.27
306.857	5.5
307.227	5.65
307.597	5.77
307.967	5.66
308.336	5.7
308.706	5.72
309.076	5.86
309.445	6.09
309.815	6.07
310.184	6.09
310.554	6.2
310.923	6.21
311.293	6.23
311.662	6.23
312.031	6.22
312.401	6.08
312.77	6.03
313.139	6.09
313.508	6.18
313.877	6.13
314.246	6.01
314.616	5.9
314.985	5.99
315.353	6.09
315.722	6.27
316.091	6.37
316.46	6.34
316.829	6.29
317.198	6.19
317.567	6.44
317.935	6.69
318.304	6.82
318.672	6.93
319.041	6.98
319.41	7.16
319.778	7.17
320.147	7.31
320.515	7.34
320.883	7.32
321.252	7.37
321.62	7.32
321.988	7.4
322.357	7.54
322.725	7.52
323.093	7.58
323.461	7.5
323.829	7.65
324.197	7.71
324.565	7.73
324.933	7.97
325.301	7.87
325.669	7.74
326.037	7.66
326.405	7.84
326.772	7.94
327.14	7.87
327.508	7.91
327.875	7.98
328.243	8.01
328.61	8.1
328.978	8.07
329.346	8.15
329.713	8.31
330.08	8.27
330.448	8.27
330.815	8.3
331.182	8.39
331.55	8.33
331.917	8.32
332.284	8.36
332.651	8.23
333.018	8.2
333.385	8.31
333.752	8.4
334.119	8.3
334.486	8.34
334.853	8.36
335.22	8.44
335.587	8.46
335.954	8.56
336.32	8.6
336.687	8.69
337.054	8.85
337.42	8.78
337.787	8.8
338.153	8.86
338.52	8.96
338.886	9.02
339.253	9.14
339.619	9.23
339.986	9.27
340.352	9.25
340.718	9.32
341.084	9.39
341.451	9.43
341.817	9.5
342.183	9.43
342.549	9.6
342.915	9.64
343.281	9.71
343.647	9.69
344.013	9.61
344.379	9.64
344.745	9.54
345.11	9.54
345.476	9.63
345.842	9.6
346.208	9.61
346.573	9.64
346.939	9.58
347.304	9.57
347.67	9.54
348.035	9.58
348.401	9.63
348.766	9.53
349.132	9.51
349.497	9.54
349.862	9.54
350.228	9.44
350.593	9.36
350.958	9.34
351.323	9.38
351.688	9.44
352.053	9.38
352.418	9.48
352.783	9.54
353.148	9.48
353.513	9.56
353.878	9.51
354.243	9.45
354.608	9.52
354.972	9.55
355.337	9.61
355.702	9.58
356.066	9.55
356.431	9.56
356.795	9.6
357.16	9.54
357.524	9.56
357.889	9.55
358.253	9.64
358.618	9.62
358.982	9.6
359.346	9.58
359.71	9.61
360.075	9.63
360.439	9.64
360.803	9.7
361.167	9.66
361.531	9.68
361.895	9.66
362.259	9.66
362.623	9.58
362.987	9.53
363.351	9.53
363.714	9.49
364.078	9.5
364.442	9.42
364.806	9.41
365.169	9.34
365.533	9.31
365.896	9.25
366.26	9.22
366.623	9.14
366.987	9.12
367.35	9.07
367.714	8.93
368.077	8.89
368.44	8.75
368.803	8.58
369.167	8.47
369.53	8.45
369.893	8.36
370.256	8.28
370.619	8.24
370.982	8.11
371.345	8.08
371.708	8.03
372.071	7.93
372.434	7.91
372.797	7.92
373.159	7.85
373.522	7.82
373.885	7.73
374.247	7.74
374.61	7.67
374.973	7.59
375.335	7.61
375.698	7.51
376.06	7.47
376.423	7.54
376.785	7.53
377.147	7.5
377.51	7.45
377.872	7.46
378.234	7.46
378.596	7.49
378.958	7.42
379.321	7.35
379.683	7.39
380.045	7.3
380.407	7.25
380.769	7.2
381.13	7.15
381.492	7.1
381.854	7.06
382.216	7.06
382.578	7.06
382.939	6.94
383.301	6.94
383.663	6.9
384.024	6.85
384.386	6.78
384.747	6.67
385.109	6.59
385.47	6.52
385.832	6.44
386.193	6.35
386.554	6.25
386.916	6.24
387.277	6.16
387.638	6.15
387.999	6.13
388.36	6.06
388.721	6.02
389.082	6.01
389.443	5.93
389.804	5.91
390.165	5.85
390.526	5.89
390.887	5.87
391.248	5.82
391.609	5.78
391.969	5.75
392.33	5.73
392.691	5.68
393.051	5.64
393.412	5.63
393.772	5.65
394.133	5.67
394.493	5.62
394.854	5.55
395.214	5.51
395.574	5.44
395.935	5.43
396.295	5.37
396.655	5.33
397.015	5.3
397.376	5.27
397.736	5.19
398.096	5.1
398.456	5.01
398.816	4.99
399.176	4.97
399.535	4.92
399.895	4.93
400.255	4.91
400.615	4.9
400.975	4.84
401.334	4.79
401.694	4.78
402.054	4.73
402.413	4.73
402.773	4.71
403.132	4.67
403.492	4.62
403.851	4.6
404.211	4.57
404.57	4.57
404.929	4.52
405.288	4.52
405.648	4.55
406.007	4.55
406.366	4.51
406.725	4.49
407.084	4.47
407.443	4.45
407.802	4.43
408.161	4.41
408.52	4.4
408.879	4.37
409.238	4.35
409.596	4.35
409.955	4.35
410.314	4.31
410.673	4.33
411.031	4.34
411.39	4.32
411.748	4.31
412.107	4.28
412.465	4.27
412.824	4.26
413.182	4.2
413.54	4.19
413.899	4.17
414.257	4.17
414.615	4.16
414.974	4.12
415.332	4.11
415.69	4.08
416.048	4.05
416.406	4.02
416.764	3.99
417.122	3.96
417.48	3.94
417.838	3.92
418.195	3.89
418.553	3.87
418.911	3.87
419.269	3.85
419.626	3.83
419.984	3.79
420.342	3.76
420.699	3.74
421.057	3.72
421.414	3.73
421.772	3.69
422.129	3.66
422.486	3.66
422.844	3.65
423.201	3.63
423.558	3.61
423.915	3.6
424.273	3.59
424.63	3.6
424.987	3.59
425.344	3.57
425.701	3.56
426.058	3.56
426.415	3.53
426.772	3.52
427.128	3.52
427.485	3.53
427.842	3.55
428.199	3.57
428.555	3.55
428.912	3.52
429.269	3.52
429.625	3.54
429.982	3.52
430.338	3.53
430.695	3.52
431.051	3.52
431.407	3.52
431.764	3.52
432.12	3.51
432.476	3.51
432.832	3.51
433.189	3.52
433.545	3.48
433.901	3.47
434.257	3.46
434.613	3.44
434.969	3.44
435.325	3.42
435.681	3.41
436.036	3.44
436.392	3.45
436.748	3.46
437.104	3.47
437.459	3.47
437.815	3.48
438.171	3.48
438.526	3.48
438.882	3.51
439.237	3.51
439.593	3.51
439.948	3.5
440.304	3.5
440.659	3.51
441.014	3.52
441.369	3.52
441.725	3.53
442.08	3.53
442.435	3.53
442.79	3.53
443.145	3.52
443.5	3.5
443.855	3.51
444.21	3.5
444.565	3.48
444.92	3.47
445.275	3.46
445.629	3.47
445.984	3.46
446.339	3.43
446.693	3.42
447.048	3.4
447.403	3.41
447.757	3.41
448.112	3.4
448.466	3.39
448.82	3.38
449.175	3.37
449.529	3.36
449.883	3.34
450.238	3.34
450.592	3.34
450.946	3.32
451.3	3.31
451.654	3.29
452.008	3.29
452.362	3.3
452.716	3.3
453.07	3.29
453.424	3.27
453.778	3.26
454.132	3.26
454.486	3.26
454.839	3.25
455.193	3.24
455.547	3.23
455.9	3.23
456.254	3.23
456.607	3.23
456.961	3.24
457.314	3.25
457.668	3.25
458.021	3.25
458.375	3.23
458.728	3.24
459.081	3.25
459.434	3.25
459.787	3.24
460.141	3.23
460.494	3.25
460.847	3.25
461.2	3.25
461.553	3.26
461.906	3.27
462.259	3.28
462.611	3.29
462.964	3.31
463.317	3.33
463.67	3.36
464.022	3.36
464.375	3.37
464.728	3.38
465.08	3.38
465.433	3.4
465.785	3.45
466.138	3.44
466.49	3.46
466.843	3.49
467.195	3.5
467.547	3.51
467.899	3.52
468.252	3.56
468.604	3.6
468.956	3.61
469.308	3.61
469.66	3.62
470.012	3.64
470.364	3.66
470.716	3.67
471.068	3.7
471.42	3.71
471.772	3.72
472.123	3.73
472.475	3.76
472.827	3.76
473.178	3.78
473.53	3.78
473.882	3.77
474.233	3.76
474.585	3.74
474.936	3.72
475.288	3.71
475.639	3.7
475.99	3.68
476.342	3.7
476.693	3.72
477.044	3.7
477.395	3.7
477.746	3.68
478.097	3.66
478.448	3.63
478.8	3.64
479.15	3.63
479.501	3.63
479.852	3.64
480.203	3.63
480.554	3.61
480.905	3.63
481.255	3.64
481.606	3.64
481.957	3.65
482.307	3.67
482.658	3.67
483.009	3.67
483.359	3.67
483.709	3.67
484.06	3.67
484.41	3.67
484.761	3.67
485.111	3.67
485.461	3.67
485.811	3.68
486.162	3.68
486.512	3.69
486.862	3.68
487.212	3.68
487.562	3.68
487.912	3.69
488.262	3.69
488.612	3.68
488.961	3.68
489.311	3.68
489.661	3.69
490.011	3.69
490.36	3.69
490.71	3.69
491.06	3.7
491.409	3.69
491.759	3.69
492.108	3.71
492.458	3.72
492.807	3.74
493.157	3.75
493.506	3.76
493.855	3.77
494.204	3.79
494.554	3.8
494.903	3.82
495.252	3.86
495.601	3.88
495.95	3.92
496.299	3.94
496.648	3.97
496.997	4
497.346	4.05
497.695	4.1
498.043	4.15
498.392	4.19
498.741	4.24
499.09	4.3
499.438	4.35
499.787	4.41
500.135	4.47
500.484	4.52
500.832	4.61
501.181	4.69
501.529	4.78
501.878	4.88
502.226	4.99
502.574	5.07
502.923	5.16
503.271	5.26
503.619	5.4
503.967	5.53
504.315	5.66
504.663	5.78
505.011	5.89
505.359	6.01
505.707	6.16
506.055	6.33
506.403	6.47
506.751	6.63
507.098	6.8
507.446	6.92
507.794	7.1
508.141	7.27
508.489	7.45
508.837	7.62
509.184	7.78
509.531	7.96
509.879	8.15
510.226	8.34
510.574	8.54
510.921	8.73
511.268	8.93
511.616	9.13
511.963	9.36
512.31	9.62
512.657	9.84
513.004	10.09
513.351	10.33
513.698	10.65
514.045	10.9
514.392	11.22
514.739	11.56
515.086	11.85
515.432	12.13
515.779	12.43
516.126	12.74
516.473	13.02
516.819	13.29
517.166	13.57
517.512	13.82
517.859	14.09
518.205	14.34
518.552	14.6
518.898	14.88
519.245	15.13
519.591	15.39
519.937	15.67
520.283	15.92
520.629	16.22
520.976	16.49
521.322	16.84
521.668	17.12
522.014	17.42
522.36	17.76
522.706	18.11
523.052	18.45
523.398	18.81
523.743	19.19
524.089	19.58
524.435	19.92
524.781	20.28
525.126	20.61
525.472	20.93
525.817	21.21
526.163	21.46
526.509	21.73
526.854	21.94
527.199	22.16
527.545	22.37
527.89	22.57
528.235	22.78
528.581	22.97
528.926	23.17
529.271	23.36
529.616	23.56
529.961	23.75
530.306	23.97
530.651	24.18
530.996	24.43
531.341	24.68
531.686	24.91
532.031	25.13
532.376	25.36
532.721	25.59
533.065	25.85
533.41	26.07
533.755	26.3
534.099	26.58
534.444	26.83
534.788	27.08
535.133	27.34
535.477	27.59
535.822	27.84
536.166	28.12
536.51	28.47
536.855	28.77
537.199	29.09
537.543	29.42
537.887	29.72
538.231	30.03
538.576	30.36
538.92	30.7
539.264	31
539.608	31.28
539.951	31.52
540.295	31.78
540.639	32.05
540.983	32.24
541.327	32.47
541.671	32.68
542.014	32.93
542.358	33.11
542.701	33.3
543.045	33.49
543.389	33.68
543.732	33.86
544.075	34.03
544.419	34.25
544.762	34.45
545.105	34.69
545.449	34.87
545.792	35.04
546.135	35.24
546.478	35.51
546.821	35.77
547.165	36.02
547.508	36.19
547.851	36.43
548.194	36.73
548.536	36.93
548.879	37.16
549.222	37.37
549.565	37.66
549.908	37.88
550.25	38.16
550.593	38.37
550.936	38.57
551.278	38.83
551.621	39.03
551.963	39.24
552.306	39.46
552.648	39.7
552.991	39.9
553.333	40.09
553.675	40.24
554.017	40.33
554.36	40.52
554.702	40.72
555.044	40.88
555.386	41.01
555.728	41.2
556.07	41.38
556.412	41.52
556.754	41.61
557.096	41.8
557.438	41.93
557.78	42.12
558.121	42.25
558.463	42.45
558.805	42.6
559.147	42.76
559.488	42.85
559.83	42.99
560.171	43.16
560.513	43.32
560.854	43.46
561.196	43.68
561.537	43.83
561.878	44.05
562.22	44.18
562.561	44.35
562.902	44.48
563.243	44.61
563.584	44.73
563.925	44.87
564.266	44.98
564.607	45.09
564.948	45.16
565.289	45.29
565.63	45.38
565.971	45.48
566.312	45.62
566.653	45.76
566.993	45.87
567.334	45.99
567.675	46.09
568.015	46.2
568.356	46.28
568.696	46.37
569.037	46.45
569.377	46.57
569.718	46.63
570.058	46.66
570.398	46.79
570.739	46.88
571.079	47
571.419	47.08
571.759	47.2
572.099	47.36
572.439	47.43
572.779	47.5
573.119	47.57
573.459	47.61
573.799	47.69
574.139	47.8
574.479	47.86
574.819	47.94
575.158	48.04
575.498	48.07
575.838	48.14
576.177	48.22
576.517	48.28
576.856	48.36
577.196	48.51
577.535	48.58
577.875	48.71
578.214	48.72
578.553	48.81
578.893	48.88
579.232	48.98
579.571	49.05
579.91	49.12
580.25	49.27
580.589	49.29
580.928	49.37
581.267	49.37
581.606	49.44
581.945	49.48
582.283	49.5
582.622	49.66
582.961	49.76
583.3	49.75
583.639	49.77
583.977	49.84
584.316	49.95
584.654	49.93
584.993	49.96
585.332	50.08
585.67	50.14
586.008	50.16
586.347	50.15
586.685	50.32
587.024	50.4
587.362	50.47
587.7	50.56
588.038	50.64
588.376	50.76
588.715	50.81
589.053	50.95
589.391	51.08
589.729	51.07
590.067	51.1
590.404	51.19
590.742	51.27
591.08	51.32
591.418	51.32
591.756	51.44
592.093	51.45
592.431	51.5
592.769	51.54
593.106	51.65
593.444	51.81
593.781	51.82
594.119	51.86
594.456	51.82
594.793	51.97
595.131	51.96
595.468	51.89
595.805	51.97
596.143	51.97
596.48	51.95
596.817	51.95
597.154	52.05
597.491	52.09
597.828	52.12
598.165	52.19
598.502	52.26
598.839	52.34
599.176	52.36
599.512	52.47
599.849	52.5
600.186	52.52
600.523	52.5
600.859	52.49
601.196	52.55
601.532	52.64
601.869	52.66
602.205	52.75
602.542	52.83
602.878	52.89
603.215	52.91
603.551	52.92
603.887	52.92
604.223	52.89
604.56	52.9
604.896	53.02
605.232	53.05
605.568	53.05
605.904	53.05
606.24	53.16
606.576	53.14
606.912	53.2
607.248	53.3
607.583	53.33
607.919	53.36
608.255	53.38
608.591	53.42
608.926	53.45
609.262	53.49
609.597	53.58
609.933	53.54
610.268	53.59
610.604	53.63
610.939	53.76
611.275	53.8
611.61	53.89
611.945	53.86
612.281	53.8
612.616	53.8
612.951	53.82
613.286	53.9
613.621	54.03
613.956	54.11
614.291	54.07
614.626	54.17
614.961	54.2
615.296	54.26
615.631	54.31
615.966	54.27
616.3	54.34
616.635	54.38
616.97	54.49
617.304	54.53
617.639	54.64
617.973	54.66
618.308	54.66
618.642	54.56
618.977	54.57
619.311	54.69
619.646	54.78
619.98	54.84
620.314	54.81
620.648	54.7
620.983	54.63
621.317	54.56
621.651	54.52
621.985	54.59
622.319	54.55
622.653	54.54
622.987	54.59
623.321	54.65
623.655	54.56
623.988	54.53
624.322	54.42
624.656	54.35
624.99	54.39
625.323	54.47
625.657	54.53
625.99	54.56
626.324	54.5
626.657	54.49
626.991	54.44
627.324	54.41
627.658	54.5
627.991	54.67
628.324	54.7
628.657	54.74
628.991	54.71
629.324	54.76
629.657	54.8
629.99	54.84
630.323	54.74
630.656	54.73
630.989	54.73
631.322	54.82
631.655	54.94
631.987	54.91
632.32	54.97
632.653	55
632.986	54.99
633.318	55.03
633.651	55.03
633.984	55.03
634.316	55.07
634.649	55.08
634.981	54.96
635.313	55.13
635.646	55.12
635.978	55.15
636.31	55.14
636.643	55.17
636.975	55.11
637.307	55.27
637.639	55.41
637.971	55.48
638.303	55.49
638.635	55.47
638.967	55.61
639.299	55.59
639.631	55.65
639.963	55.74
640.295	55.81
640.626	55.77
640.958	55.93
641.29	55.91
641.621	55.93
641.953	55.92
642.285	55.86
642.616	55.83
642.948	55.8
643.279	55.81
643.61	55.8
643.942	55.8
644.273	55.7
644.604	55.62
644.936	55.63
645.267	55.66
645.598	55.7
645.929	55.58
646.26	55.49
646.591	55.49
646.922	55.51
647.253	55.58
647.584	55.72
647.915	55.64
648.245	55.78
648.576	55.69
648.907	55.75
649.238	55.71
649.568	55.79
649.899	55.83
650.229	55.89
650.56	56.01
650.89	56.01
651.221	56.1
651.551	56.14
651.882	56.15
652.212	56.13
652.542	56.08
652.872	56.17
653.203	56.18
653.533	56.1
653.863	56.13
654.193	56.03
654.523	55.98
654.853	56.13
655.183	56.07
655.513	56.18
655.843	56.07
656.172	56.16
656.502	56.24
656.832	56.31
657.162	56.33
657.491	56.32
657.821	56.41
658.15	56.37
658.48	56.39
658.809	56.41
659.139	56.39
659.468	56.4
659.798	56.37
660.127	56.38
660.456	56.5
660.785	56.46
661.115	56.55
661.444	56.54
661.773	56.44
662.102	56.4
662.431	56.44
662.76	56.5
663.089	56.46
663.418	56.4
663.747	56.34
664.076	56.38
664.404	56.3
664.733	56.17
665.062	56.17
665.39	56.11
665.719	56.11
666.048	56.25
666.376	56.31
666.705	56.38
667.033	56.44
667.362	56.5
667.69	56.5
668.018	56.6
668.347	56.67
