Data from BU26946_Reflection_00010.txt Node
Date: Tue Nov 19 10:52:08 EST 2019
User: vgr7
Spectrometer: USB2G7710
Scans to average: 3
Trigger mode: 4
Integration Time (sec): 2.000000E-2
Electric dark correction enabled: true
Boxcar width: 10
XAxis mode: Wavelengths
Number of Pixels in Spectrum: 2048
>>>>>Begin Spectral Data<<<<<
177.721	374.48
178.105	289.19
178.488	185.14
178.871	452.63
179.254	-742.86
179.636	406.6
180.019	646.51
180.402	135.71
180.785	-676.92
181.168	-206.22
181.55	-18.5
181.933	-34.84
182.316	-102.55
182.698	-77.54
183.081	-122.47
183.463	585.07
183.846	-64.6
184.228	-68.9
184.611	-295.1
184.993	-356.36
185.376	-3080.85
185.758	466.43
186.14	320
186.522	194.29
186.904	184.52
187.287	176.25
187.669	139.71
188.051	257.84
188.433	171.23
188.815	96.36
189.197	52.88
189.579	59.2
189.961	40.91
190.342	38.56
190.724	31.26
191.106	41.31
191.488	43.16
191.869	62.42
192.251	61.15
192.633	57.94
193.014	41.57
193.396	30.94
193.777	39.36
194.159	53.75
194.54	56.75
194.922	47.88
195.303	38.12
195.684	49.16
196.065	41.98
196.447	43.43
196.828	52.03
197.209	50.79
197.59	48.25
197.971	47.07
198.352	46.5
198.733	35.53
199.114	33.31
199.495	25.28
199.876	-14.11
200.257	-10.16
200.638	-15.34
201.018	-22.34
201.399	-38.68
201.78	-36.42
202.16	-53.63
202.541	-60.3
202.922	-65.55
203.302	-50.62
203.683	-56.59
204.063	-54.36
204.444	-42.2
204.824	-41.52
205.204	-32.19
205.585	-20.27
205.965	-17.26
206.345	-14.53
206.725	-3.64
207.106	-7.54
207.486	-8.85
207.866	16.85
208.246	19.15
208.626	22.66
209.006	23.81
209.386	37.88
209.766	47.1
210.145	45.7
210.525	40.8
210.905	53.08
211.285	65.16
211.664	65.67
212.044	78.99
212.424	72.36
212.803	69.84
213.183	79.84
213.562	80
213.942	69.33
214.321	78.97
214.701	88.1
215.08	95.64
215.459	102.78
215.838	122.62
216.218	125.3
216.597	124
216.976	139.92
217.355	122.68
217.734	144.26
218.113	162.83
218.492	161.18
218.871	149.84
219.25	119.58
219.629	174.59
220.008	200.63
220.387	200
220.766	184.48
221.144	172.75
221.523	189.55
221.902	282.39
222.28	165.64
222.659	121.96
223.037	113.46
223.416	118.11
223.794	85.31
224.173	67.24
224.551	57.38
224.929	48.17
225.308	45.02
225.686	37.31
226.064	35.02
226.442	36.75
226.821	32.26
227.199	30.96
227.577	22.91
227.955	22.23
228.333	18.66
228.711	18.23
229.089	16.67
229.467	18.22
229.845	15.09
230.222	13.66
230.6	14.8
230.978	15.87
231.356	14.69
231.733	14.84
232.111	13.73
232.488	10.65
232.866	11.6
233.243	11.62
233.621	11.63
233.998	10.54
234.376	9.78
234.753	10.21
235.13	10.7
235.508	11.42
235.885	9.87
236.262	9.49
236.639	8.03
237.016	8.06
237.393	7.75
237.77	8.15
238.147	8.73
238.524	7.94
238.901	6.58
239.278	7.14
239.655	7.08
240.032	7.66
240.409	7.84
240.785	7.8
241.162	7.78
241.539	7.04
241.915	6.76
242.292	6.53
242.668	6.13
243.045	6.02
243.421	6.15
243.798	6.06
244.174	6.34
244.551	6.52
244.927	6.3
245.303	5.83
245.679	5.54
246.056	5.08
246.432	5.06
246.808	5.26
247.184	5.18
247.56	5.28
247.936	5.12
248.312	5.01
248.688	4.82
249.064	4.75
249.44	4.94
249.815	4.8
250.191	4.8
250.567	4.7
250.943	4.42
251.318	4.47
251.694	4.28
252.069	4.25
252.445	4.35
252.82	4.57
253.196	4.92
253.571	5.3
253.947	5.81
254.322	5.74
254.697	5.35
255.073	5.16
255.448	4.55
255.823	4.48
256.198	4.65
256.573	4.93
256.948	4.81
257.323	4.81
257.698	4.73
258.073	4.74
258.448	4.83
258.823	4.91
259.198	4.85
259.573	4.64
259.948	4.49
260.322	4.37
260.697	4.33
261.072	4.16
261.446	4.12
261.821	4.03
262.195	4.04
262.57	4.09
262.944	4.1
263.319	4.32
263.693	4.4
264.067	4.59
264.442	4.32
264.816	4.33
265.19	4.21
265.564	4.14
265.938	4.08
266.313	4.02
266.687	3.86
267.061	3.65
267.435	3.9
267.809	3.78
268.183	3.7
268.556	3.45
268.93	3.46
269.304	3.52
269.678	3.57
270.051	3.36
270.425	3.38
270.799	3.29
271.172	3.25
271.546	3.2
271.919	2.87
272.293	3.14
272.666	3.17
273.04	3.14
273.413	3.2
273.787	3.28
274.16	3.27
274.533	3.3
274.906	3.56
275.279	3.48
275.653	3.54
276.026	3.5
276.399	3.62
276.772	3.59
277.145	3.42
277.518	3.36
277.891	3.64
278.263	3.68
278.636	3.88
279.009	3.87
279.382	3.78
279.755	3.95
280.127	3.89
280.5	3.86
280.872	3.96
281.245	4.01
281.617	3.93
281.99	3.94
282.362	4.07
282.735	3.92
283.107	3.85
283.479	3.81
283.852	3.99
284.224	4.02
284.596	4.16
284.968	4.16
285.34	4.27
285.713	4.14
286.085	4.11
286.457	3.94
286.829	3.99
287.201	4.01
287.572	3.92
287.944	3.86
288.316	3.86
288.688	3.86
289.06	3.84
289.431	3.86
289.803	4.01
290.175	4
290.546	3.99
290.918	4.15
291.289	4.12
291.661	4.04
292.032	4.05
292.403	4
292.775	4.06
293.146	3.95
293.517	3.96
293.889	4
294.26	4
294.631	3.99
295.002	3.97
295.373	4.02
295.744	4.01
296.115	4.11
296.486	4.21
296.857	4.29
297.228	4.29
297.599	4.21
297.97	4.25
298.34	4.36
298.711	4.38
299.082	4.47
299.452	4.43
299.823	4.55
300.194	4.64
300.564	4.69
300.935	4.7
301.305	4.78
301.676	4.7
302.046	4.78
302.416	4.82
302.787	4.94
303.157	5.11
303.527	5.17
303.897	5.13
304.267	5.15
304.637	5.15
305.008	5.18
305.378	5.27
305.748	5.34
306.117	5.26
306.487	5.42
306.857	5.7
307.227	5.86
307.597	5.81
307.967	5.77
308.336	5.76
308.706	5.86
309.076	6.1
309.445	6.29
309.815	6.4
310.184	6.41
310.554	6.46
310.923	6.45
311.293	6.54
311.662	6.61
312.031	6.5
312.401	6.52
312.77	6.64
313.139	6.68
313.508	6.58
313.877	6.65
314.246	6.61
314.616	6.55
314.985	6.63
315.353	6.64
315.722	6.75
316.091	6.82
316.46	6.84
316.829	6.66
317.198	6.72
317.567	6.75
317.935	6.95
318.304	7.08
318.672	7.2
319.041	7.28
319.41	7.22
319.778	7.4
320.147	7.57
320.515	7.64
320.883	7.53
321.252	7.79
321.62	7.89
321.988	7.91
322.357	7.91
322.725	7.91
323.093	7.9
323.461	7.99
323.829	8.11
324.197	8.19
324.565	8.27
324.933	8.34
325.301	8.3
325.669	8.36
326.037	8.32
326.405	8.26
326.772	8.35
327.14	8.37
327.508	8.44
327.875	8.39
328.243	8.39
328.61	8.45
328.978	8.33
329.346	8.39
329.713	8.41
330.08	8.32
330.448	8.38
330.815	8.44
331.182	8.36
331.55	8.36
331.917	8.27
332.284	8.27
332.651	8.22
333.018	8.23
333.385	8.13
333.752	8.11
334.119	8.15
334.486	8.15
334.853	8.26
335.22	8.23
335.587	8.2
335.954	8.28
336.32	8.36
336.687	8.45
337.054	8.4
337.42	8.35
337.787	8.51
338.153	8.42
338.52	8.57
338.886	8.54
339.253	8.57
339.619	8.68
339.986	8.68
340.352	8.68
340.718	8.71
341.084	8.77
341.451	8.81
341.817	8.86
342.183	8.79
342.549	8.82
342.915	8.93
343.281	9.06
343.647	9.07
344.013	9.04
344.379	9.06
344.745	9.05
345.11	9.1
345.476	9.15
345.842	9.21
346.208	9.26
346.573	9.28
346.939	9.35
347.304	9.36
347.67	9.39
348.035	9.36
348.401	9.41
348.766	9.33
349.132	9.39
349.497	9.46
349.862	9.46
350.228	9.48
350.593	9.52
350.958	9.56
351.323	9.56
351.688	9.64
352.053	9.64
352.418	9.7
352.783	9.69
353.148	9.69
353.513	9.63
353.878	9.54
354.243	9.59
354.608	9.61
354.972	9.61
355.337	9.64
355.702	9.61
356.066	9.58
356.431	9.68
356.795	9.63
357.16	9.57
357.524	9.6
357.889	9.55
358.253	9.52
358.618	9.43
358.982	9.33
359.346	9.27
359.71	9.23
360.075	9.15
360.439	9.21
360.803	9.14
361.167	9.24
361.531	9.22
361.895	9.22
362.259	9.18
362.623	9.12
362.987	9.01
363.351	8.96
363.714	8.99
364.078	8.9
364.442	8.88
364.806	8.85
365.169	8.79
365.533	8.76
365.896	8.74
366.26	8.7
366.623	8.7
366.987	8.66
367.35	8.71
367.714	8.73
368.077	8.66
368.44	8.61
368.803	8.47
369.167	8.41
369.53	8.38
369.893	8.38
370.256	8.37
370.619	8.39
370.982	8.39
371.345	8.34
371.708	8.32
372.071	8.25
372.434	8.18
372.797	8.14
373.159	8.1
373.522	7.98
373.885	8.04
374.247	7.98
374.61	7.93
374.973	7.81
375.335	7.74
375.698	7.67
376.06	7.6
376.423	7.59
376.785	7.58
377.147	7.44
377.51	7.33
377.872	7.31
378.234	7.29
378.596	7.25
378.958	7.15
379.321	7.07
379.683	6.99
380.045	6.97
380.407	6.9
380.769	6.77
381.13	6.72
381.492	6.62
381.854	6.58
382.216	6.58
382.578	6.56
382.939	6.56
383.301	6.51
383.663	6.45
384.024	6.32
384.386	6.26
384.747	6.26
385.109	6.26
385.47	6.22
385.832	6.15
386.193	6.1
386.554	6.04
386.916	6.02
387.277	6.01
387.638	5.92
387.999	5.91
388.36	5.9
388.721	5.94
389.082	5.93
389.443	5.88
389.804	5.85
390.165	5.8
390.526	5.71
390.887	5.64
391.248	5.64
391.609	5.67
391.969	5.63
392.33	5.57
392.691	5.53
393.051	5.47
393.412	5.46
393.772	5.44
394.133	5.41
394.493	5.37
394.854	5.32
395.214	5.31
395.574	5.28
395.935	5.26
396.295	5.18
396.655	5.1
397.015	5.12
397.376	5.07
397.736	5.01
398.096	5.01
398.456	5.02
398.816	5.01
399.176	4.97
399.535	4.92
399.895	4.91
400.255	4.85
400.615	4.82
400.975	4.79
401.334	4.74
401.694	4.72
402.054	4.69
402.413	4.69
402.773	4.68
403.132	4.66
403.492	4.63
403.851	4.6
404.211	4.59
404.57	4.53
404.929	4.5
405.288	4.48
405.648	4.45
406.007	4.43
406.366	4.43
406.725	4.42
407.084	4.41
407.443	4.4
407.802	4.38
408.161	4.37
408.52	4.32
408.879	4.31
409.238	4.32
409.596	4.3
409.955	4.28
410.314	4.26
410.673	4.22
411.031	4.21
411.39	4.22
411.748	4.21
412.107	4.24
412.465	4.2
412.824	4.19
413.182	4.18
413.54	4.18
413.899	4.11
414.257	4.09
414.615	4.1
414.974	4.08
415.332	4.09
415.69	4.08
416.048	4.07
416.406	4.02
416.764	4
417.122	3.96
417.48	3.94
417.838	3.92
418.195	3.91
418.553	3.89
418.911	3.86
419.269	3.84
419.626	3.82
419.984	3.81
420.342	3.79
420.699	3.75
421.057	3.74
421.414	3.74
421.772	3.72
422.129	3.7
422.486	3.69
422.844	3.67
423.201	3.65
423.558	3.64
423.915	3.64
424.273	3.63
424.63	3.64
424.987	3.63
425.344	3.62
425.701	3.61
426.058	3.62
426.415	3.61
426.772	3.6
427.128	3.6
427.485	3.59
427.842	3.57
428.199	3.58
428.555	3.57
428.912	3.56
429.269	3.54
429.625	3.53
429.982	3.52
430.338	3.52
430.695	3.52
431.051	3.51
431.407	3.52
431.764	3.51
432.12	3.51
432.476	3.53
432.832	3.53
433.189	3.54
433.545	3.5
433.901	3.49
434.257	3.47
434.613	3.46
434.969	3.46
435.325	3.48
435.681	3.48
436.036	3.47
436.392	3.47
436.748	3.49
437.104	3.48
437.459	3.49
437.815	3.49
438.171	3.48
438.526	3.48
438.882	3.49
439.237	3.48
439.593	3.47
439.948	3.48
440.304	3.48
440.659	3.48
441.014	3.5
441.369	3.51
441.725	3.51
442.08	3.51
442.435	3.51
442.79	3.51
443.145	3.51
443.5	3.51
443.855	3.5
444.21	3.48
444.565	3.48
444.92	3.49
445.275	3.48
445.629	3.48
445.984	3.5
446.339	3.48
446.693	3.49
447.048	3.47
447.403	3.43
447.757	3.4
448.112	3.41
448.466	3.39
448.82	3.39
449.175	3.4
449.529	3.39
449.883	3.38
450.238	3.37
450.592	3.36
450.946	3.36
451.3	3.35
451.654	3.35
452.008	3.33
452.362	3.3
452.716	3.3
453.07	3.28
453.424	3.27
453.778	3.27
454.132	3.28
454.486	3.28
454.839	3.29
455.193	3.29
455.547	3.28
455.9	3.28
456.254	3.27
456.607	3.27
456.961	3.26
457.314	3.26
457.668	3.27
458.021	3.27
458.375	3.26
458.728	3.27
459.081	3.28
459.434	3.29
459.787	3.3
460.141	3.31
460.494	3.33
460.847	3.35
461.2	3.36
461.553	3.36
461.906	3.37
462.259	3.37
462.611	3.39
462.964	3.4
463.317	3.4
463.67	3.41
464.022	3.44
464.375	3.45
464.728	3.48
465.08	3.5
465.433	3.51
465.785	3.55
466.138	3.57
466.49	3.6
466.843	3.6
467.195	3.64
467.547	3.61
467.899	3.61
468.252	3.61
468.604	3.62
468.956	3.63
469.308	3.62
469.66	3.65
470.012	3.68
470.364	3.68
470.716	3.72
471.068	3.74
471.42	3.74
471.772	3.74
472.123	3.74
472.475	3.74
472.827	3.75
473.178	3.77
473.53	3.76
473.882	3.76
474.233	3.78
474.585	3.76
474.936	3.79
475.288	3.77
475.639	3.77
475.99	3.77
476.342	3.77
476.693	3.78
477.044	3.78
477.395	3.76
477.746	3.74
478.097	3.71
478.448	3.69
478.8	3.69
479.15	3.67
479.501	3.66
479.852	3.64
480.203	3.64
480.554	3.63
480.905	3.63
481.255	3.62
481.606	3.62
481.957	3.61
482.307	3.61
482.658	3.63
483.009	3.62
483.359	3.61
483.709	3.59
484.06	3.59
484.41	3.59
484.761	3.59
485.111	3.59
485.461	3.6
485.811	3.6
486.162	3.59
486.512	3.59
486.862	3.59
487.212	3.59
487.562	3.59
487.912	3.58
488.262	3.58
488.612	3.58
488.961	3.58
489.311	3.58
489.661	3.58
490.011	3.57
490.36	3.58
490.71	3.58
491.06	3.59
491.409	3.6
491.759	3.61
492.108	3.62
492.458	3.62
492.807	3.64
493.157	3.65
493.506	3.66
493.855	3.69
494.204	3.71
494.554	3.72
494.903	3.76
495.252	3.79
495.601	3.84
495.95	3.85
496.299	3.88
496.648	3.92
496.997	3.96
497.346	4
497.695	4.04
498.043	4.09
498.392	4.13
498.741	4.17
499.09	4.21
499.438	4.26
499.787	4.32
500.135	4.37
500.484	4.43
500.832	4.53
501.181	4.59
501.529	4.67
501.878	4.76
502.226	4.84
502.574	4.89
502.923	4.96
503.271	5.05
503.619	5.15
503.967	5.24
504.315	5.36
504.663	5.47
505.011	5.58
505.359	5.69
505.707	5.83
506.055	5.98
506.403	6.11
506.751	6.21
507.098	6.36
507.446	6.53
507.794	6.68
508.141	6.81
508.489	6.97
508.837	7.1
509.184	7.25
509.531	7.42
509.879	7.62
510.226	7.76
510.574	7.95
510.921	8.12
511.268	8.3
511.616	8.48
511.963	8.66
512.31	8.87
512.657	9.08
513.004	9.3
513.351	9.52
513.698	9.75
514.045	10.02
514.392	10.27
514.739	10.51
515.086	10.76
515.432	11
515.779	11.23
516.126	11.47
516.473	11.69
516.819	11.92
517.166	12.13
517.512	12.36
517.859	12.58
518.205	12.78
518.552	13.01
518.898	13.2
519.245	13.41
519.591	13.63
519.937	13.83
520.283	14.06
520.629	14.29
520.976	14.51
521.322	14.76
521.668	15.01
522.014	15.26
522.36	15.5
522.706	15.78
523.052	16.07
523.398	16.38
523.743	16.67
524.089	16.98
524.435	17.28
524.781	17.57
525.126	17.82
525.472	18.06
525.817	18.26
526.163	18.47
526.509	18.64
526.854	18.8
527.199	18.96
527.545	19.1
527.89	19.24
528.235	19.43
528.581	19.59
528.926	19.74
529.271	19.89
529.616	20.06
529.961	20.22
530.306	20.38
530.651	20.55
530.996	20.75
531.341	20.94
531.686	21.12
532.031	21.28
532.376	21.47
532.721	21.68
533.065	21.9
533.41	22.11
533.755	22.34
534.099	22.56
534.444	22.78
534.788	22.98
535.133	23.19
535.477	23.37
535.822	23.6
536.166	23.85
536.51	24.12
536.855	24.37
537.199	24.65
537.543	24.92
537.887	25.19
538.231	25.47
538.576	25.72
538.92	25.97
539.264	26.23
539.608	26.45
539.951	26.65
540.295	26.84
540.639	27.05
540.983	27.22
541.327	27.39
541.671	27.57
542.014	27.76
542.358	27.97
542.701	28.18
543.045	28.35
543.389	28.5
543.732	28.66
544.075	28.86
544.419	29.03
544.762	29.22
545.105	29.42
545.449	29.6
545.792	29.82
546.135	30.04
546.478	30.25
546.821	30.51
547.165	30.74
547.508	30.99
547.851	31.18
548.194	31.47
548.536	31.75
548.879	32
549.222	32.28
549.565	32.43
549.908	32.64
550.25	32.86
550.593	33.1
550.936	33.37
551.278	33.51
551.621	33.67
551.963	33.92
552.306	34.14
552.648	34.31
552.991	34.49
553.333	34.71
553.675	34.91
554.017	35.13
554.36	35.28
554.702	35.44
555.044	35.66
555.386	35.85
555.728	36.04
556.07	36.21
556.412	36.37
556.754	36.58
557.096	36.78
557.438	36.98
557.78	37.17
558.121	37.35
558.463	37.63
558.805	37.84
559.147	38.03
559.488	38.22
559.83	38.44
560.171	38.63
560.513	38.76
560.854	38.93
561.196	39.12
561.537	39.31
561.878	39.54
562.22	39.72
562.561	39.85
562.902	39.95
563.243	40.16
563.584	40.3
563.925	40.43
564.266	40.56
564.607	40.71
564.948	40.85
565.289	40.98
565.63	41.09
565.971	41.23
566.312	41.33
566.653	41.39
566.993	41.52
567.334	41.64
567.675	41.78
568.015	41.9
568.356	42.01
568.696	42.12
569.037	42.24
569.377	42.34
569.718	42.47
570.058	42.65
570.398	42.69
570.739	42.77
571.079	42.91
571.419	43.02
571.759	43.15
572.099	43.23
572.439	43.3
572.779	43.37
573.119	43.48
573.459	43.59
573.799	43.72
574.139	43.78
574.479	43.86
574.819	43.97
575.158	44.1
575.498	44.2
575.838	44.33
576.177	44.37
576.517	44.47
576.856	44.55
577.196	44.59
577.535	44.76
577.875	44.93
578.214	45.06
578.553	45.14
578.893	45.23
579.232	45.35
579.571	45.46
579.91	45.64
580.25	45.74
580.589	45.8
580.928	45.92
581.267	46.03
581.606	46.15
581.945	46.14
582.283	46.15
582.622	46.23
582.961	46.29
583.3	46.33
583.639	46.44
583.977	46.55
584.316	46.6
584.654	46.65
584.993	46.8
585.332	46.82
585.67	46.91
586.008	46.97
586.347	47.07
586.685	47.16
587.024	47.16
587.362	47.26
587.7	47.36
588.038	47.49
588.376	47.55
588.715	47.6
589.053	47.75
589.391	47.87
589.729	47.87
590.067	47.97
590.404	48.1
590.742	48.16
591.08	48.22
591.418	48.37
591.756	48.42
592.093	48.43
592.431	48.5
592.769	48.6
593.106	48.65
593.444	48.72
593.781	48.73
594.119	48.86
594.456	48.8
594.793	48.85
595.131	48.85
595.468	48.86
595.805	48.9
596.143	48.96
596.48	48.99
596.817	49.15
597.154	49.19
597.491	49.24
597.828	49.28
598.165	49.31
598.502	49.29
598.839	49.34
599.176	49.46
599.512	49.55
599.849	49.62
600.186	49.66
600.523	49.7
600.859	49.82
601.196	49.84
601.532	49.97
601.869	50.02
602.205	50.09
602.542	50.12
602.878	50.17
603.215	50.22
603.551	50.31
603.887	50.27
604.223	50.34
604.56	50.38
604.896	50.39
605.232	50.44
605.568	50.54
605.904	50.53
606.24	50.54
606.576	50.53
606.912	50.53
607.248	50.55
607.583	50.52
607.919	50.48
608.255	50.49
608.591	50.53
608.926	50.55
609.262	50.59
609.597	50.75
609.933	50.84
610.268	50.87
610.604	50.85
610.939	50.88
611.275	50.89
611.61	50.94
611.945	50.94
612.281	50.97
612.616	50.99
612.951	51.11
613.286	51.08
613.621	51.15
613.956	51.2
614.291	51.23
614.626	51.35
614.961	51.45
615.296	51.54
615.631	51.62
615.966	51.67
616.3	51.7
616.635	51.73
616.97	51.75
617.304	51.71
617.639	51.75
617.973	51.84
618.308	51.88
618.642	51.87
618.977	51.92
619.311	51.91
619.646	51.88
619.98	51.81
620.314	51.81
620.648	51.8
620.983	51.88
621.317	51.93
621.651	51.9
621.985	51.91
622.319	51.95
622.653	51.87
622.987	51.87
623.321	51.84
623.655	51.79
623.988	51.85
624.322	51.87
624.656	51.94
624.99	51.89
625.323	51.98
625.657	51.99
625.99	52.09
626.324	52.16
626.657	52.21
626.991	52.31
627.324	52.36
627.658	52.37
627.991	52.34
628.324	52.37
628.657	52.37
628.991	52.45
629.324	52.48
629.657	52.59
629.99	52.65
630.323	52.66
630.656	52.73
630.989	52.71
631.322	52.75
631.655	52.65
631.987	52.78
632.32	52.69
632.653	52.68
632.986	52.67
633.318	52.64
633.651	52.63
633.984	52.58
634.316	52.62
634.649	52.67
634.981	52.69
635.313	52.74
635.646	52.85
635.978	52.83
636.31	52.84
636.643	52.86
636.975	52.83
637.307	52.93
637.639	52.9
637.971	52.86
638.303	52.95
638.635	53.06
638.967	52.97
639.299	53.03
639.631	53.13
639.963	53.13
640.295	53.23
640.626	53.26
640.958	53.44
641.29	53.49
641.621	53.57
641.953	53.64
642.285	53.58
642.616	53.58
642.948	53.62
643.279	53.52
643.61	53.54
643.942	53.56
644.273	53.56
644.604	53.65
644.936	53.72
645.267	53.74
645.598	53.8
645.929	53.84
646.26	53.75
646.591	53.72
646.922	53.78
647.253	53.73
647.584	53.85
647.915	53.85
648.245	53.83
648.576	53.75
648.907	53.66
649.238	53.7
649.568	53.68
649.899	53.76
650.229	53.89
650.56	53.84
650.89	53.87
651.221	53.87
651.551	53.84
651.882	53.73
652.212	53.75
652.542	53.69
652.872	53.72
653.203	53.85
653.533	53.91
653.863	53.93
654.193	53.9
654.523	53.87
654.853	53.85
655.183	53.91
655.513	53.9
655.843	54.02
656.172	54.17
656.502	54.2
656.832	54.17
657.162	54.11
657.491	54.08
657.821	54.1
658.15	54.07
658.48	54.16
658.809	54.28
659.139	54.31
659.468	54.44
659.798	54.41
660.127	54.36
660.456	54.33
660.785	54.29
661.115	54.28
661.444	54.26
661.773	54.24
662.102	54.17
662.431	54.29
662.76	54.23
663.089	54.14
663.418	54.17
663.747	54.22
664.076	54.24
664.404	54.4
664.733	54.4
665.062	54.51
665.39	54.43
665.719	54.44
666.048	54.45
666.376	54.41
666.705	54.37
667.033	54.37
667.362	54.4
667.69	54.43
