Data from BU26945_Reflection_00011.txt Node
Date: Tue Nov 19 10:49:39 EST 2019
User: vgr7
Spectrometer: USB2G7710
Scans to average: 3
Trigger mode: 4
Integration Time (sec): 2.000000E-2
Electric dark correction enabled: true
Boxcar width: 10
XAxis mode: Wavelengths
Number of Pixels in Spectrum: 2048
>>>>>Begin Spectral Data<<<<<
177.721	-37.34
178.105	-15.13
178.488	151.24
178.871	96.88
179.254	128
179.636	280.12
180.019	82.52
180.402	-100
180.785	39.57
181.168	0.11
181.55	6.78
181.933	-11.03
182.316	-47.98
182.698	-30.61
183.081	-5.07
183.463	-12.98
183.846	-8.06
184.228	1.35
184.611	-0.46
184.993	1.8
185.376	-1.41
185.758	-5.95
186.14	-4.11
186.522	4.8
186.904	6.08
187.287	10.93
187.669	20.84
188.051	11.56
188.433	11.13
188.815	11.49
189.197	17.68
189.579	16.01
189.961	26.86
190.342	31.97
190.724	21.97
191.106	28.57
191.488	37.94
191.869	39.62
192.251	29.8
192.633	47.74
193.014	62.2
193.396	42.43
193.777	69.81
194.159	84.05
194.54	87.05
194.922	88.75
195.303	110.5
195.684	73.96
196.065	67.5
196.447	82.9
196.828	69.91
197.209	59.99
197.59	58.79
197.971	34.13
198.352	29.17
198.733	23.97
199.114	14.08
199.495	11.79
199.876	1.01
200.257	12.11
200.638	5.07
201.018	4.07
201.399	15.54
201.78	1.4
202.16	-6.9
202.541	-1.22
202.922	6.27
203.302	10.81
203.683	19.56
204.063	21.25
204.444	14.16
204.824	25.06
205.204	58.31
205.585	63.05
205.965	86
206.345	118.87
206.725	107.53
207.106	128.38
207.486	104.58
207.866	110.86
208.246	118.02
208.626	121.57
209.006	144.9
209.386	122.95
209.766	131.69
210.145	177.81
210.525	131.78
210.905	122.22
211.285	120.31
211.664	109.79
212.044	101.61
212.424	121.99
212.803	100.24
213.183	74.94
213.562	74.22
213.942	62.13
214.321	47.61
214.701	48.18
215.08	45.56
215.459	42.3
215.838	59.39
216.218	43.81
216.597	52.46
216.976	39.53
217.355	52.3
217.734	32.86
218.113	6.5
218.492	27.03
218.871	49.45
219.25	25.69
219.629	24.74
220.008	42.55
220.387	12.08
220.766	22.1
221.144	17.69
221.523	-0.15
221.902	25.91
222.28	43.32
222.659	50.82
223.037	38.1
223.416	45.34
223.794	37.74
224.173	33.11
224.551	32.05
224.929	28.46
225.308	26.72
225.686	26.83
226.064	25.35
226.442	20.7
226.821	10.83
227.199	10.41
227.577	12.41
227.955	12.04
228.333	10.72
228.711	13.11
229.089	13.85
229.467	12.42
229.845	8.69
230.222	10.51
230.6	7.08
230.978	6.37
231.356	5.57
231.733	7.76
232.111	8.95
232.488	10.3
232.866	11.8
233.243	12.51
233.621	13.37
233.998	13.52
234.376	14.52
234.753	16.76
235.13	16.4
235.508	14.82
235.885	13.12
236.262	12.67
236.639	10.38
237.016	10.59
237.393	11.39
237.77	11.31
238.147	9.88
238.524	9.1
238.901	9.37
239.278	8.91
239.655	7.28
240.032	7.08
240.409	6.19
240.785	5.3
241.162	4.68
241.539	4.94
241.915	5.3
242.292	4.79
242.668	4.49
243.045	4.63
243.421	4.7
243.798	5.26
244.174	5.41
244.551	5.55
244.927	5.22
245.303	4.86
245.679	4.95
246.056	4.76
246.432	5.16
246.808	5.1
247.184	5.07
247.56	5.02
247.936	5
248.312	4.98
248.688	5.22
249.064	5.26
249.44	5.04
249.815	4.96
250.191	4.99
250.567	5.16
250.943	5.18
251.318	5.12
251.694	4.76
252.069	4.5
252.445	4.3
252.82	4.59
253.196	4.73
253.571	4.57
253.947	4.86
254.322	4.52
254.697	4.42
255.073	4.2
255.448	4.32
255.823	4.23
256.198	4.37
256.573	4.11
256.948	4.18
257.323	4.45
257.698	4.45
258.073	4.22
258.448	4.28
258.823	4.13
259.198	4.05
259.573	4
259.948	4.34
260.322	4.4
260.697	4.38
261.072	4.37
261.446	4.35
261.821	4.16
262.195	4.32
262.57	4.55
262.944	4.83
263.319	4.81
263.693	4.83
264.067	4.76
264.442	4.83
264.816	4.94
265.19	4.83
265.564	4.59
265.938	4.82
266.313	4.41
266.687	4.38
267.061	4.52
267.435	4.92
267.809	4.7
268.183	4.57
268.556	4.56
268.93	4.7
269.304	4.62
269.678	4.78
270.051	4.59
270.425	4.27
270.799	3.88
271.172	3.88
271.546	3.95
271.919	3.96
272.293	3.96
272.666	3.96
273.04	3.8
273.413	3.95
273.787	3.84
274.16	3.77
274.533	3.78
274.906	3.69
275.279	3.5
275.653	3.53
276.026	3.67
276.399	3.63
276.772	3.68
277.145	3.74
277.518	3.67
277.891	3.67
278.263	3.71
278.636	3.95
279.009	3.88
279.382	3.73
279.755	3.81
280.127	3.93
280.5	3.75
280.872	3.83
281.245	3.76
281.617	3.83
281.99	3.88
282.362	3.99
282.735	4.05
283.107	3.95
283.479	3.94
283.852	3.89
284.224	3.89
284.596	3.75
284.968	3.86
285.34	3.9
285.713	4.03
286.085	3.93
286.457	3.77
286.829	3.74
287.201	3.72
287.572	3.76
287.944	3.73
288.316	3.82
288.688	3.93
289.06	4.06
289.431	4.1
289.803	4.24
290.175	4.21
290.546	4.14
290.918	4.17
291.289	4
291.661	4.04
292.032	3.99
292.403	4.16
292.775	4
293.146	4.01
293.517	3.99
293.889	4.07
294.26	4.15
294.631	4.26
295.002	4.41
295.373	4.31
295.744	4.36
296.115	4.34
296.486	4.3
296.857	4.24
297.228	4.25
297.599	4.24
297.97	4.26
298.34	4.39
298.711	4.49
299.082	4.74
299.452	4.62
299.823	4.58
300.194	4.48
300.564	4.6
300.935	4.67
301.305	4.52
301.676	4.66
302.046	4.81
302.416	4.73
302.787	4.71
303.157	4.79
303.527	4.76
303.897	4.81
304.267	4.71
304.637	4.83
305.008	4.86
305.378	4.94
305.748	5.01
306.117	5.04
306.487	4.92
306.857	4.87
307.227	5.1
307.597	5.17
307.967	5.18
308.336	5.04
308.706	4.81
309.076	4.99
309.445	4.94
309.815	4.81
310.184	4.77
310.554	4.74
310.923	4.69
311.293	4.74
311.662	4.75
312.031	4.82
312.401	4.61
312.77	4.55
313.139	4.56
313.508	4.48
313.877	4.45
314.246	4.56
314.616	4.56
314.985	4.37
315.353	4.44
315.722	4.38
316.091	4.51
316.46	4.67
316.829	4.77
317.198	4.86
317.567	5.03
317.935	5.27
318.304	5.4
318.672	5.49
319.041	5.46
319.41	5.56
319.778	5.68
320.147	5.82
320.515	5.92
320.883	5.89
321.252	6.08
321.62	6.08
321.988	6.1
322.357	5.96
322.725	6.2
323.093	6.12
323.461	6.26
323.829	6.27
324.197	6.32
324.565	6.23
324.933	6.11
325.301	6.17
325.669	6.19
326.037	6.24
326.405	6.22
326.772	6.13
327.14	6.03
327.508	5.99
327.875	6.05
328.243	6.08
328.61	6.06
328.978	5.98
329.346	5.94
329.713	6.08
330.08	6.32
330.448	6.38
330.815	6.44
331.182	6.32
331.55	6.35
331.917	6.34
332.284	6.54
332.651	6.51
333.018	6.38
333.385	6.28
333.752	6.15
334.119	6.19
334.486	6.31
334.853	6.26
335.22	6.2
335.587	6.27
335.954	6.15
336.32	6.22
336.687	6.29
337.054	6.3
337.42	6.25
337.787	6.08
338.153	5.98
338.52	6.17
338.886	6.22
339.253	6.18
339.619	6.2
339.986	6.09
340.352	6.23
340.718	6.3
341.084	6.36
341.451	6.54
341.817	6.48
342.183	6.48
342.549	6.63
342.915	6.67
343.281	6.57
343.647	6.65
344.013	6.66
344.379	6.66
344.745	6.65
345.11	6.54
345.476	6.69
345.842	6.8
346.208	6.66
346.573	6.69
346.939	6.74
347.304	6.74
347.67	6.59
348.035	6.58
348.401	6.61
348.766	6.56
349.132	6.49
349.497	6.65
349.862	6.64
350.228	6.55
350.593	6.71
350.958	6.9
351.323	6.91
351.688	6.92
352.053	6.86
352.418	6.92
352.783	6.96
353.148	7
353.513	6.98
353.878	6.98
354.243	6.95
354.608	6.88
354.972	6.93
355.337	7.03
355.702	6.99
356.066	6.87
356.431	6.95
356.795	6.9
357.16	6.76
357.524	6.78
357.889	6.8
358.253	6.73
358.618	6.59
358.982	6.58
359.346	6.61
359.71	6.66
360.075	6.67
360.439	6.76
360.803	6.71
361.167	6.65
361.531	6.64
361.895	6.61
362.259	6.68
362.623	6.64
362.987	6.67
363.351	6.61
363.714	6.66
364.078	6.67
364.442	6.65
364.806	6.75
365.169	6.76
365.533	6.81
365.896	6.83
366.26	6.84
366.623	6.87
366.987	6.82
367.35	6.85
367.714	6.74
368.077	6.68
368.44	6.62
368.803	6.63
369.167	6.61
369.53	6.66
369.893	6.65
370.256	6.59
370.619	6.56
370.982	6.63
371.345	6.67
371.708	6.6
372.071	6.62
372.434	6.6
372.797	6.56
373.159	6.55
373.522	6.47
373.885	6.5
374.247	6.48
374.61	6.45
374.973	6.36
375.335	6.45
375.698	6.42
376.06	6.41
376.423	6.42
376.785	6.5
377.147	6.43
377.51	6.36
377.872	6.36
378.234	6.34
378.596	6.35
378.958	6.33
379.321	6.29
379.683	6.28
380.045	6.21
380.407	6.26
380.769	6.15
381.13	6.12
381.492	6.06
381.854	6.02
382.216	6.04
382.578	6.06
382.939	6.05
383.301	5.96
383.663	5.96
384.024	5.94
384.386	5.87
384.747	5.84
385.109	5.82
385.47	5.82
385.832	5.78
386.193	5.69
386.554	5.61
386.916	5.63
387.277	5.57
387.638	5.55
387.999	5.49
388.36	5.55
388.721	5.53
389.082	5.52
389.443	5.51
389.804	5.43
390.165	5.38
390.526	5.32
390.887	5.35
391.248	5.32
391.609	5.3
391.969	5.27
392.33	5.29
392.691	5.31
393.051	5.29
393.412	5.27
393.772	5.29
394.133	5.3
394.493	5.25
394.854	5.25
395.214	5.22
395.574	5.15
395.935	5.08
396.295	5.09
396.655	5.06
397.015	5.05
397.376	5.04
397.736	4.98
398.096	5
398.456	4.93
398.816	4.92
399.176	4.9
399.535	4.85
399.895	4.83
400.255	4.78
400.615	4.75
400.975	4.74
401.334	4.7
401.694	4.69
402.054	4.68
402.413	4.67
402.773	4.67
403.132	4.65
403.492	4.65
403.851	4.62
404.211	4.63
404.57	4.63
404.929	4.61
405.288	4.65
405.648	4.6
406.007	4.64
406.366	4.6
406.725	4.6
407.084	4.61
407.443	4.59
407.802	4.6
408.161	4.57
408.52	4.54
408.879	4.56
409.238	4.54
409.596	4.57
409.955	4.55
410.314	4.54
410.673	4.55
411.031	4.51
411.39	4.48
411.748	4.47
412.107	4.45
412.465	4.43
412.824	4.42
413.182	4.42
413.54	4.38
413.899	4.39
414.257	4.35
414.615	4.31
414.974	4.29
415.332	4.29
415.69	4.28
416.048	4.27
416.406	4.19
416.764	4.16
417.122	4.13
417.48	4.11
417.838	4.08
418.195	4.06
418.553	4.06
418.911	4.07
419.269	4.07
419.626	4.04
419.984	4.02
420.342	3.99
420.699	3.99
421.057	3.98
421.414	3.96
421.772	3.95
422.129	3.93
422.486	3.93
422.844	3.9
423.201	3.9
423.558	3.89
423.915	3.9
424.273	3.91
424.63	3.9
424.987	3.9
425.344	3.92
425.701	3.92
426.058	3.93
426.415	3.89
426.772	3.86
427.128	3.86
427.485	3.84
427.842	3.83
428.199	3.82
428.555	3.82
428.912	3.81
429.269	3.79
429.625	3.78
429.982	3.77
430.338	3.77
430.695	3.77
431.051	3.77
431.407	3.77
431.764	3.73
432.12	3.74
432.476	3.7
432.832	3.67
433.189	3.66
433.545	3.64
433.901	3.65
434.257	3.67
434.613	3.66
434.969	3.69
435.325	3.7
435.681	3.7
436.036	3.7
436.392	3.71
436.748	3.73
437.104	3.73
437.459	3.76
437.815	3.76
438.171	3.76
438.526	3.78
438.882	3.79
439.237	3.79
439.593	3.8
439.948	3.81
440.304	3.83
440.659	3.84
441.014	3.85
441.369	3.85
441.725	3.84
442.08	3.84
442.435	3.86
442.79	3.84
443.145	3.83
443.5	3.82
443.855	3.81
444.21	3.81
444.565	3.83
444.92	3.8
445.275	3.8
445.629	3.81
445.984	3.8
446.339	3.79
446.693	3.78
447.048	3.77
447.403	3.77
447.757	3.75
448.112	3.74
448.466	3.75
448.82	3.74
449.175	3.73
449.529	3.72
449.883	3.68
450.238	3.7
450.592	3.7
450.946	3.68
451.3	3.69
451.654	3.65
452.008	3.64
452.362	3.64
452.716	3.63
453.07	3.6
453.424	3.58
453.778	3.57
454.132	3.55
454.486	3.55
454.839	3.56
455.193	3.56
455.547	3.55
455.9	3.53
456.254	3.53
456.607	3.52
456.961	3.52
457.314	3.53
457.668	3.51
458.021	3.49
458.375	3.52
458.728	3.51
459.081	3.53
459.434	3.54
459.787	3.55
460.141	3.57
460.494	3.6
460.847	3.61
461.2	3.62
461.553	3.66
461.906	3.67
462.259	3.65
462.611	3.66
462.964	3.73
463.317	3.74
463.67	3.76
464.022	3.78
464.375	3.8
464.728	3.83
465.08	3.85
465.433	3.89
465.785	3.91
466.138	3.93
466.49	3.94
466.843	3.94
467.195	3.93
467.547	3.9
467.899	3.91
468.252	3.94
468.604	3.95
468.956	3.94
469.308	3.94
469.66	3.96
470.012	3.97
470.364	3.95
470.716	3.98
471.068	4
471.42	4
471.772	4.01
472.123	4.01
472.475	4.03
472.827	4.03
473.178	4.03
473.53	4.04
473.882	4.06
474.233	4.07
474.585	4.1
474.936	4.13
475.288	4.1
475.639	4.09
475.99	4.06
476.342	4.05
476.693	4.07
477.044	4.06
477.395	4.07
477.746	4.06
478.097	4.04
478.448	4.04
478.8	4.02
479.15	4
479.501	4
479.852	3.98
480.203	3.97
480.554	3.97
480.905	3.96
481.255	3.96
481.606	3.95
481.957	3.95
482.307	3.95
482.658	3.96
483.009	3.95
483.359	3.95
483.709	3.96
484.06	3.97
484.41	3.97
484.761	3.97
485.111	3.97
485.461	3.96
485.811	3.95
486.162	3.96
486.512	3.96
486.862	3.95
487.212	3.96
487.562	3.97
487.912	3.98
488.262	3.97
488.612	3.96
488.961	3.96
489.311	3.96
489.661	3.97
490.011	3.96
490.36	3.97
490.71	3.98
491.06	3.98
491.409	3.97
491.759	3.97
492.108	3.98
492.458	3.98
492.807	4
493.157	4.04
493.506	4.04
493.855	4.06
494.204	4.1
494.554	4.12
494.903	4.14
495.252	4.17
495.601	4.22
495.95	4.26
496.299	4.28
496.648	4.32
496.997	4.35
497.346	4.42
497.695	4.47
498.043	4.55
498.392	4.61
498.741	4.64
499.09	4.7
499.438	4.75
499.787	4.8
500.135	4.85
500.484	4.89
500.832	4.96
501.181	5.01
501.529	5.06
501.878	5.13
502.226	5.2
502.574	5.25
502.923	5.31
503.271	5.39
503.619	5.48
503.967	5.56
504.315	5.66
504.663	5.72
505.011	5.8
505.359	5.84
505.707	5.9
506.055	6.02
506.403	6.13
506.751	6.22
507.098	6.35
507.446	6.46
507.794	6.55
508.141	6.63
508.489	6.76
508.837	6.89
509.184	7
509.531	7.14
509.879	7.26
510.226	7.37
510.574	7.5
510.921	7.63
511.268	7.75
511.616	7.87
511.963	8.03
512.31	8.18
512.657	8.33
513.004	8.5
513.351	8.64
513.698	8.78
514.045	8.93
514.392	9.07
514.739	9.23
515.086	9.42
515.432	9.64
515.779	9.82
516.126	10
516.473	10.16
516.819	10.31
517.166	10.48
517.512	10.67
517.859	10.84
518.205	10.99
518.552	11.15
518.898	11.32
519.245	11.47
519.591	11.62
519.937	11.78
520.283	11.94
520.629	12.11
520.976	12.32
521.322	12.54
521.668	12.75
522.014	12.96
522.36	13.17
522.706	13.39
523.052	13.6
523.398	13.8
523.743	14.04
524.089	14.26
524.435	14.5
524.781	14.75
525.126	14.95
525.472	15.16
525.817	15.36
526.163	15.51
526.509	15.64
526.854	15.79
527.199	15.92
527.545	16.06
527.89	16.22
528.235	16.37
528.581	16.51
528.926	16.66
529.271	16.8
529.616	16.95
529.961	17.09
530.306	17.27
530.651	17.45
530.996	17.63
531.341	17.83
531.686	17.99
532.031	18.14
532.376	18.33
532.721	18.52
533.065	18.7
533.41	18.92
533.755	19.18
534.099	19.39
534.444	19.6
534.788	19.81
535.133	20.02
535.477	20.2
535.822	20.45
536.166	20.72
536.51	20.99
536.855	21.23
537.199	21.47
537.543	21.73
537.887	21.97
538.231	22.24
538.576	22.46
538.92	22.71
539.264	22.96
539.608	23.17
539.951	23.37
540.295	23.59
540.639	23.76
540.983	23.94
541.327	24.15
541.671	24.36
542.014	24.56
542.358	24.73
542.701	24.92
543.045	25.12
543.389	25.25
543.732	25.41
544.075	25.63
544.419	25.84
544.762	26
545.105	26.24
545.449	26.45
545.792	26.71
546.135	26.99
546.478	27.28
546.821	27.56
547.165	27.82
547.508	28.1
547.851	28.37
548.194	28.62
548.536	28.85
548.879	29.09
549.222	29.33
549.565	29.58
549.908	29.84
550.25	30.03
550.593	30.25
550.936	30.51
551.278	30.72
551.621	30.97
551.963	31.22
552.306	31.43
552.648	31.62
552.991	31.85
553.333	32.06
553.675	32.22
554.017	32.41
554.36	32.64
554.702	32.8
555.044	33
555.386	33.21
555.728	33.4
556.07	33.6
556.412	33.8
556.754	34
557.096	34.22
557.438	34.38
557.78	34.67
558.121	34.86
558.463	35.07
558.805	35.22
559.147	35.43
559.488	35.58
559.83	35.77
560.171	35.89
560.513	36.07
560.854	36.22
561.196	36.35
561.537	36.5
561.878	36.66
562.22	36.79
562.561	36.92
562.902	37.07
563.243	37.22
563.584	37.34
563.925	37.46
564.266	37.53
564.607	37.66
564.948	37.74
565.289	37.89
565.63	38.03
565.971	38.18
566.312	38.31
566.653	38.48
566.993	38.59
567.334	38.76
567.675	38.86
568.015	38.98
568.356	39.13
568.696	39.24
569.037	39.34
569.377	39.45
569.718	39.54
570.058	39.65
570.398	39.8
570.739	39.96
571.079	40.07
571.419	40.2
571.759	40.32
572.099	40.45
572.439	40.57
572.779	40.69
573.119	40.79
573.459	40.88
573.799	40.94
574.139	41.01
574.479	41.1
574.819	41.21
575.158	41.32
575.498	41.43
575.838	41.5
576.177	41.6
576.517	41.71
576.856	41.88
577.196	41.97
577.535	42.07
577.875	42.13
578.214	42.35
578.553	42.5
578.893	42.64
579.232	42.72
579.571	42.83
579.91	42.95
580.25	43.09
580.589	43.13
580.928	43.25
581.267	43.39
581.606	43.48
581.945	43.59
582.283	43.65
582.622	43.74
582.961	43.83
583.3	43.95
583.639	44.05
583.977	44.1
584.316	44.2
584.654	44.28
584.993	44.39
585.332	44.39
585.67	44.4
586.008	44.55
586.347	44.63
586.685	44.64
587.024	44.65
587.362	44.77
587.7	44.92
588.038	44.95
588.376	45.04
588.715	45.04
589.053	45.12
589.391	45.29
589.729	45.34
590.067	45.49
590.404	45.52
590.742	45.54
591.08	45.61
591.418	45.67
591.756	45.79
592.093	45.83
592.431	45.91
592.769	45.99
593.106	46.03
593.444	46.06
593.781	46.17
594.119	46.26
594.456	46.28
594.793	46.27
595.131	46.32
595.468	46.4
595.805	46.55
596.143	46.64
596.48	46.69
596.817	46.73
597.154	46.75
597.491	46.8
597.828	46.91
598.165	46.99
598.502	47.07
598.839	47.06
599.176	47.07
599.512	47.12
599.849	47.15
600.186	47.25
600.523	47.35
600.859	47.41
601.196	47.43
601.532	47.47
601.869	47.64
602.205	47.75
602.542	47.83
602.878	47.85
603.215	47.83
603.551	47.86
603.887	47.93
604.223	48.01
604.56	48.01
604.896	48.03
605.232	48.07
605.568	48.07
605.904	48.11
606.24	48.21
606.576	48.2
606.912	48.25
607.248	48.26
607.583	48.32
607.919	48.35
608.255	48.46
608.591	48.48
608.926	48.55
609.262	48.58
609.597	48.62
609.933	48.72
610.268	48.77
610.604	48.77
610.939	48.77
611.275	48.82
611.61	49
611.945	49.08
612.281	49.07
612.616	49.16
612.951	49.23
613.286	49.33
613.621	49.54
613.956	49.65
614.291	49.66
614.626	49.67
614.961	49.67
615.296	49.71
615.631	49.73
615.966	49.74
616.3	49.84
616.635	49.88
616.97	49.89
617.304	49.92
617.639	50.01
617.973	50
618.308	50.03
618.642	50.02
618.977	50.04
619.311	50.17
619.646	50.28
619.98	50.32
620.314	50.27
620.648	50.17
620.983	50.19
621.317	50.33
621.651	50.42
621.985	50.48
622.319	50.52
622.653	50.6
622.987	50.62
623.321	50.69
623.655	50.69
623.988	50.73
624.322	50.78
624.656	50.79
624.99	50.92
625.323	50.89
625.657	50.89
625.99	51.02
626.324	51.1
626.657	51.01
626.991	51.05
627.324	51.08
627.658	51.12
627.991	51.14
628.324	51.12
628.657	51.1
628.991	51.18
629.324	51.18
629.657	51.17
629.99	51.24
630.323	51.21
630.656	51.22
630.989	51.32
631.322	51.32
631.655	51.41
631.987	51.34
632.32	51.43
632.653	51.46
632.986	51.43
633.318	51.37
633.651	51.49
633.984	51.57
634.316	51.62
634.649	51.71
634.981	51.71
635.313	51.73
635.646	51.82
635.978	51.9
636.31	51.95
636.643	51.97
636.975	51.89
637.307	51.92
637.639	52.04
637.971	52
638.303	52.1
638.635	52.09
638.967	52.28
639.299	52.27
639.631	52.37
639.963	52.41
640.295	52.45
640.626	52.51
640.958	52.52
641.29	52.59
641.621	52.62
641.953	52.66
642.285	52.67
642.616	52.67
642.948	52.66
643.279	52.7
643.61	52.87
643.942	53.01
644.273	53.09
644.604	52.96
644.936	52.77
645.267	52.79
645.598	52.86
645.929	52.81
646.26	52.78
646.591	52.76
646.922	52.84
647.253	52.79
647.584	52.74
647.915	52.79
648.245	52.77
648.576	52.72
648.907	52.64
649.238	52.66
649.568	52.61
649.899	52.58
650.229	52.59
650.56	52.57
650.89	52.56
651.221	52.5
651.551	52.57
651.882	52.64
652.212	52.64
652.542	52.66
652.872	52.74
653.203	52.83
653.533	52.78
653.863	52.74
654.193	52.81
654.523	52.85
654.853	52.79
655.183	52.77
655.513	52.84
655.843	52.92
656.172	53.04
656.502	53.15
656.832	53.17
657.162	53.09
657.491	52.99
657.821	52.94
658.15	52.98
658.48	53.01
658.809	53.09
659.139	53.1
659.468	53.15
659.798	53.15
660.127	53.21
660.456	53.23
660.785	53.21
661.115	53.27
661.444	53.23
661.773	53.22
662.102	53.35
662.431	53.37
662.76	53.4
663.089	53.44
663.418	53.34
663.747	53.28
664.076	53.42
664.404	53.57
664.733	53.64
665.062	53.66
665.39	53.67
665.719	53.79
666.048	53.89
666.376	53.76
666.705	53.82
667.033	53.82
667.362	53.97
667.69	54.12
668.018	54.18
668.347	54.3
668.675	54.41
669.003	54.24
669.331	54.3
669.659	54.26
