Data from BU26942_Reflection_00010.txt Node
Date: Mon Nov 18 16:50:47 EST 2019
User: vgr7
Spectrometer: USB2G7710
Scans to average: 3
Trigger mode: 4
Integration Time (sec): 2.000000E-2
Electric dark correction enabled: true
Boxcar width: 10
XAxis mode: Wavelengths
Number of Pixels in Spectrum: 2048
>>>>>Begin Spectral Data<<<<<
177.721	21.36
178.105	38.99
178.488	237.44
178.871	219.72
179.254	-47.93
179.636	2676.92
180.019	-477.46
180.402	91.3
180.785	133.63
181.168	176.73
181.55	-0.64
181.933	192.13
182.316	447.69
182.698	434.96
183.081	820.75
183.463	14792.31
183.846	316.65
184.228	451.99
184.611	1386.79
184.993	1691.72
185.376	-522.98
185.758	-365.82
186.14	-286.6
186.522	227100
186.904	993.05
187.287	652.12
187.669	-631.84
188.051	-554.18
188.433	-414.36
188.815	-1384.47
189.197	-318.31
189.579	-89.67
189.961	-123.58
190.342	-124.18
190.724	-108.12
191.106	-165.76
191.488	-254.69
191.869	-52.23
192.251	-71.45
192.633	-63
193.014	-78.99
193.396	-87.7
193.777	-105.94
194.159	-140.17
194.54	-79.14
194.922	-60.11
195.303	-89.19
195.684	-158.66
196.065	-119.55
196.447	-115.92
196.828	-176.75
197.209	-223.11
197.59	-396.28
197.971	-231.37
198.352	-238.58
198.733	-157.12
199.114	-201.05
199.495	-191.38
199.876	-162.5
200.257	-190.12
200.638	-180
201.018	-212.37
201.399	-188.41
201.78	-153.08
202.16	-150.8
202.541	-188.35
202.922	-353.4
203.302	-295.48
203.683	-216.59
204.063	-295.68
204.444	-377.4
204.824	-257.01
205.204	-210.51
205.585	-247.75
205.965	-324.91
206.345	-257
206.725	-592.56
207.106	-234.45
207.486	-268.42
207.866	-130.22
208.246	-93.53
208.626	-110.2
209.006	-35.86
209.386	-45.17
209.766	-92.03
210.145	-66.22
210.525	-87.87
210.905	-70.76
211.285	-32.53
211.664	-9.44
212.044	-4.16
212.424	-5.82
212.803	-4.66
213.183	18.85
213.562	14.78
213.942	25.93
214.321	19.8
214.701	10.47
215.08	2.96
215.459	14.44
215.838	-8.37
216.218	-10.16
216.597	10.22
216.976	2.33
217.355	8.03
217.734	20.16
218.113	11.66
218.492	9.63
218.871	-0.71
219.25	-12.76
219.629	-7.85
220.008	-15.96
220.387	-17.53
220.766	-23.76
221.144	-47.07
221.523	-76.2
221.902	-133.12
222.28	-110.09
222.659	-70.1
223.037	-51.37
223.416	-48.45
223.794	-25.45
224.173	-32.02
224.551	-31.37
224.929	-25.51
225.308	-17.63
225.686	-12.69
226.064	-8.88
226.442	-6.98
226.821	-4.39
227.199	-4.73
227.577	-5.59
227.955	-5.64
228.333	-6.04
228.711	-2.75
229.089	-0.25
229.467	2.94
229.845	3.22
230.222	1.24
230.6	-1.52
230.978	-3.64
231.356	-2.75
231.733	-3.02
232.111	0.75
232.488	3.03
232.866	2.67
233.243	0.22
233.621	-1.91
233.998	-1.82
234.376	-2.32
234.753	-1.96
235.13	-2.19
235.508	-3.66
235.885	-3.9
236.262	-3.06
236.639	-3.48
237.016	-4.33
237.393	-4.51
237.77	-1.79
238.147	-0.9
238.524	-0.4
238.901	1.39
239.278	2.07
239.655	2.86
240.032	2.36
240.409	1.42
240.785	1.29
241.162	1.78
241.539	2.57
241.915	2.83
242.292	2.66
242.668	3.03
243.045	3.69
243.421	3.57
243.798	3.75
244.174	4.03
244.551	4.17
244.927	4.25
245.303	4.31
245.679	4.24
246.056	4.33
246.432	4.22
246.808	4.22
247.184	3.85
247.56	3.75
247.936	3.75
248.312	3.87
248.688	3.95
249.064	3.89
249.44	3.74
249.815	3.62
250.191	3.91
250.567	3.93
250.943	3.76
251.318	3.98
251.694	4.05
252.069	3.81
252.445	3.93
252.82	3.93
253.196	4.03
253.571	3.72
253.947	3.68
254.322	4.2
254.697	4.02
255.073	4.08
255.448	3.83
255.823	3.74
256.198	3.77
256.573	3.62
256.948	3.63
257.323	3.7
257.698	3.72
258.073	3.61
258.448	3.62
258.823	3.52
259.198	3.44
259.573	3.29
259.948	3.19
260.322	3.1
260.697	3.12
261.072	2.88
261.446	2.96
261.821	2.86
262.195	2.75
262.57	2.74
262.944	2.77
263.319	2.7
263.693	2.66
264.067	2.77
264.442	2.87
264.816	2.89
265.19	2.72
265.564	2.71
265.938	2.62
266.313	2.47
266.687	2.52
267.061	2.7
267.435	2.85
267.809	2.99
268.183	3.03
268.556	2.86
268.93	3.05
269.304	3.19
269.678	3.3
270.051	3.23
270.425	3.28
270.799	3.19
271.172	3.26
271.546	3.33
271.919	3.09
272.293	3.05
272.666	3.1
273.04	3.17
273.413	3.07
273.787	3.13
274.16	3.27
274.533	3.23
274.906	3.15
275.279	3.09
275.653	3.05
276.026	2.92
276.399	2.98
276.772	2.94
277.145	2.7
277.518	2.56
277.891	2.59
278.263	2.54
278.636	2.68
279.009	2.66
279.382	2.79
279.755	2.76
280.127	2.94
280.5	3
280.872	3.08
281.245	3.17
281.617	3.19
281.99	3.33
282.362	3.43
282.735	3.41
283.107	3.33
283.479	3.31
283.852	3.41
284.224	3.5
284.596	3.56
284.968	3.74
285.34	3.75
285.713	3.69
286.085	3.75
286.457	3.84
286.829	3.98
287.201	3.84
287.572	3.91
287.944	3.8
288.316	3.82
288.688	3.69
289.06	3.57
289.431	3.65
289.803	3.61
290.175	3.63
290.546	3.69
290.918	3.66
291.289	3.64
291.661	3.69
292.032	3.69
292.403	3.69
292.775	3.68
293.146	3.79
293.517	3.84
293.889	3.85
294.26	3.8
294.631	3.71
295.002	3.83
295.373	3.8
295.744	3.75
296.115	3.65
296.486	3.62
296.857	3.7
297.228	3.63
297.599	3.5
297.97	3.56
298.34	3.57
298.711	3.65
299.082	3.71
299.452	3.72
299.823	3.67
300.194	3.6
300.564	3.54
300.935	3.5
301.305	3.47
301.676	3.48
302.046	3.42
302.416	3.57
302.787	3.55
303.157	3.52
303.527	3.63
303.897	3.65
304.267	3.8
304.637	3.85
305.008	4.01
305.378	4.09
305.748	4.04
306.117	4.06
306.487	4.12
306.857	4.18
307.227	4.12
307.597	4.16
307.967	4.22
308.336	4.23
308.706	4.17
309.076	4.25
309.445	4.13
309.815	4.13
310.184	3.98
310.554	3.97
310.923	3.94
311.293	3.85
311.662	3.86
312.031	3.81
312.401	3.86
312.77	3.77
313.139	3.84
313.508	3.83
313.877	3.69
314.246	3.86
314.616	3.79
314.985	3.89
315.353	3.91
315.722	3.98
316.091	3.89
316.46	3.89
316.829	3.73
317.198	3.75
317.567	3.72
317.935	3.89
318.304	3.96
318.672	4.05
319.041	4.08
319.41	4.22
319.778	4.27
320.147	4.19
320.515	4.26
320.883	4.17
321.252	4.13
321.62	4.24
321.988	4.06
322.357	4.09
322.725	3.98
323.093	4.04
323.461	4.02
323.829	4.2
324.197	4.36
324.565	4.5
324.933	4.56
325.301	4.59
325.669	4.52
326.037	4.5
326.405	4.49
326.772	4.63
327.14	4.76
327.508	4.83
327.875	4.85
328.243	4.78
328.61	4.73
328.978	4.82
329.346	4.85
329.713	4.88
330.08	4.96
330.448	4.83
330.815	4.82
331.182	4.83
331.55	4.8
331.917	4.76
332.284	4.85
332.651	4.79
333.018	4.96
333.385	4.94
333.752	4.92
334.119	4.99
334.486	4.96
334.853	4.81
335.22	4.82
335.587	4.75
335.954	4.7
336.32	4.85
336.687	4.95
337.054	4.93
337.42	4.93
337.787	5
338.153	5.12
338.52	5.07
338.886	5.03
339.253	4.99
339.619	5.09
339.986	4.98
340.352	5.12
340.718	5.09
341.084	5.12
341.451	5.21
341.817	5.18
342.183	5.17
342.549	5.03
342.915	4.93
343.281	4.99
343.647	5.02
344.013	4.98
344.379	4.82
344.745	4.76
345.11	4.85
345.476	4.9
345.842	4.94
346.208	4.95
346.573	5.02
346.939	5.1
347.304	4.94
347.67	5.02
348.035	4.97
348.401	4.94
348.766	4.95
349.132	4.95
349.497	4.94
349.862	4.95
350.228	5.1
350.593	5.08
350.958	5.02
351.323	5.08
351.688	5.07
352.053	5.13
352.418	5.18
352.783	5.07
353.148	5
353.513	4.95
353.878	4.97
354.243	4.91
354.608	4.93
354.972	4.95
355.337	4.91
355.702	4.95
356.066	5.05
356.431	5.07
356.795	5.12
357.16	5.13
357.524	5.11
357.889	5.06
358.253	5.17
358.618	5.3
358.982	5.24
359.346	5.17
359.71	5.16
360.075	5.26
360.439	5.26
360.803	5.26
361.167	5.28
361.531	5.3
361.895	5.29
362.259	5.25
362.623	5.27
362.987	5.3
363.351	5.27
363.714	5.18
364.078	5.13
364.442	5.12
364.806	5.15
365.169	5.18
365.533	5.17
365.896	5.11
366.26	5.06
366.623	5.11
366.987	5.21
367.35	5.26
367.714	5.23
368.077	5.23
368.44	5.18
368.803	5.17
369.167	5.1
369.53	5.13
369.893	5.12
370.256	5.05
370.619	4.97
370.982	4.91
371.345	4.9
371.708	4.86
372.071	4.74
372.434	4.64
372.797	4.58
373.159	4.6
373.522	4.54
373.885	4.54
374.247	4.51
374.61	4.5
374.973	4.47
375.335	4.4
375.698	4.38
376.06	4.35
376.423	4.37
376.785	4.42
377.147	4.42
377.51	4.47
377.872	4.47
378.234	4.49
378.596	4.55
378.958	4.47
379.321	4.46
379.683	4.47
380.045	4.48
380.407	4.48
380.769	4.44
381.13	4.44
381.492	4.4
381.854	4.4
382.216	4.34
382.578	4.3
382.939	4.28
383.301	4.24
383.663	4.22
384.024	4.16
384.386	4.17
384.747	4.15
385.109	4.13
385.47	4.12
385.832	4.06
386.193	4.03
386.554	4.08
386.916	4.11
387.277	4.12
387.638	4.13
387.999	4.09
388.36	4.07
388.721	4.11
389.082	4.11
389.443	4.02
389.804	4.05
390.165	4.05
390.526	4.03
390.887	4.05
391.248	4.08
391.609	4.06
391.969	4.01
392.33	3.97
392.691	3.89
393.051	3.87
393.412	3.86
393.772	3.8
394.133	3.83
394.493	3.81
394.854	3.76
395.214	3.75
395.574	3.77
395.935	3.74
396.295	3.7
396.655	3.67
397.015	3.73
397.376	3.72
397.736	3.69
398.096	3.71
398.456	3.72
398.816	3.69
399.176	3.67
399.535	3.65
399.895	3.64
400.255	3.65
400.615	3.66
400.975	3.66
401.334	3.67
401.694	3.63
402.054	3.58
402.413	3.59
402.773	3.58
403.132	3.56
403.492	3.56
403.851	3.58
404.211	3.57
404.57	3.54
404.929	3.51
405.288	3.5
405.648	3.46
406.007	3.44
406.366	3.44
406.725	3.47
407.084	3.49
407.443	3.52
407.802	3.49
408.161	3.48
408.52	3.45
408.879	3.45
409.238	3.42
409.596	3.44
409.955	3.43
410.314	3.44
410.673	3.41
411.031	3.4
411.39	3.37
411.748	3.38
412.107	3.38
412.465	3.36
412.824	3.35
413.182	3.36
413.54	3.34
413.899	3.35
414.257	3.33
414.615	3.31
414.974	3.28
415.332	3.3
415.69	3.3
416.048	3.3
416.406	3.32
416.764	3.33
417.122	3.32
417.48	3.31
417.838	3.32
418.195	3.32
418.553	3.3
418.911	3.29
419.269	3.29
419.626	3.29
419.984	3.27
420.342	3.28
420.699	3.27
421.057	3.27
421.414	3.24
421.772	3.22
422.129	3.23
422.486	3.21
422.844	3.2
423.201	3.2
423.558	3.21
423.915	3.2
424.273	3.2
424.63	3.19
424.987	3.19
425.344	3.17
425.701	3.16
426.058	3.16
426.415	3.16
426.772	3.16
427.128	3.16
427.485	3.18
427.842	3.18
428.199	3.19
428.555	3.19
428.912	3.19
429.269	3.22
429.625	3.22
429.982	3.23
430.338	3.23
430.695	3.22
431.051	3.22
431.407	3.23
431.764	3.21
432.12	3.22
432.476	3.22
432.832	3.21
433.189	3.22
433.545	3.22
433.901	3.22
434.257	3.22
434.613	3.23
434.969	3.21
435.325	3.2
435.681	3.21
436.036	3.2
436.392	3.21
436.748	3.2
437.104	3.19
437.459	3.2
437.815	3.21
438.171	3.22
438.526	3.22
438.882	3.2
439.237	3.22
439.593	3.22
439.948	3.23
440.304	3.22
440.659	3.22
441.014	3.24
441.369	3.22
441.725	3.21
442.08	3.21
442.435	3.2
442.79	3.21
443.145	3.2
443.5	3.21
443.855	3.19
444.21	3.19
444.565	3.19
444.92	3.2
445.275	3.19
445.629	3.19
445.984	3.2
446.339	3.21
446.693	3.21
447.048	3.19
447.403	3.18
447.757	3.18
448.112	3.18
448.466	3.18
448.82	3.18
449.175	3.2
449.529	3.19
449.883	3.19
450.238	3.18
450.592	3.18
450.946	3.15
451.3	3.15
451.654	3.16
452.008	3.17
452.362	3.16
452.716	3.16
453.07	3.18
453.424	3.14
453.778	3.13
454.132	3.11
454.486	3.12
454.839	3.12
455.193	3.13
455.547	3.12
455.9	3.14
456.254	3.15
456.607	3.14
456.961	3.14
457.314	3.15
457.668	3.16
458.021	3.17
458.375	3.2
458.728	3.21
459.081	3.2
459.434	3.19
459.787	3.18
460.141	3.18
460.494	3.18
460.847	3.2
461.2	3.2
461.553	3.22
461.906	3.23
462.259	3.23
462.611	3.23
462.964	3.24
463.317	3.22
463.67	3.22
464.022	3.23
464.375	3.22
464.728	3.21
465.08	3.21
465.433	3.2
465.785	3.19
466.138	3.2
466.49	3.22
466.843	3.22
467.195	3.25
467.547	3.25
467.899	3.24
468.252	3.22
468.604	3.24
468.956	3.23
469.308	3.23
469.66	3.26
470.012	3.29
470.364	3.29
470.716	3.31
471.068	3.31
471.42	3.33
471.772	3.36
472.123	3.37
472.475	3.37
472.827	3.36
473.178	3.39
473.53	3.38
473.882	3.37
474.233	3.4
474.585	3.36
474.936	3.37
475.288	3.37
475.639	3.39
475.99	3.37
476.342	3.38
476.693	3.4
477.044	3.38
477.395	3.36
477.746	3.35
478.097	3.35
478.448	3.35
478.8	3.33
479.15	3.29
479.501	3.27
479.852	3.26
480.203	3.28
480.554	3.28
480.905	3.28
481.255	3.29
481.606	3.28
481.957	3.29
482.307	3.27
482.658	3.27
483.009	3.27
483.359	3.27
483.709	3.27
484.06	3.27
484.41	3.26
484.761	3.27
485.111	3.27
485.461	3.27
485.811	3.27
486.162	3.28
486.512	3.29
486.862	3.31
487.212	3.32
487.562	3.32
487.912	3.32
488.262	3.31
488.612	3.31
488.961	3.31
489.311	3.32
489.661	3.33
490.011	3.34
490.36	3.34
490.71	3.35
491.06	3.36
491.409	3.36
491.759	3.37
492.108	3.36
492.458	3.37
492.807	3.36
493.157	3.37
493.506	3.38
493.855	3.36
494.204	3.36
494.554	3.37
494.903	3.36
495.252	3.36
495.601	3.4
495.95	3.42
496.299	3.44
496.648	3.46
496.997	3.48
497.346	3.5
497.695	3.52
498.043	3.53
498.392	3.53
498.741	3.57
499.09	3.6
499.438	3.63
499.787	3.65
500.135	3.69
500.484	3.72
500.832	3.76
501.181	3.8
501.529	3.83
501.878	3.88
502.226	3.92
502.574	3.97
502.923	3.97
503.271	3.99
503.619	4.04
503.967	4.06
504.315	4.09
504.663	4.12
505.011	4.17
505.359	4.22
505.707	4.27
506.055	4.28
506.403	4.34
506.751	4.4
507.098	4.44
507.446	4.51
507.794	4.56
508.141	4.62
508.489	4.68
508.837	4.72
509.184	4.76
509.531	4.83
509.879	4.91
510.226	4.98
510.574	5.03
510.921	5.11
511.268	5.16
511.616	5.25
511.963	5.32
512.31	5.4
512.657	5.47
513.004	5.58
513.351	5.66
513.698	5.74
514.045	5.82
514.392	5.91
514.739	6
515.086	6.11
515.432	6.19
515.779	6.3
516.126	6.4
516.473	6.48
516.819	6.56
517.166	6.64
517.512	6.72
517.859	6.8
518.205	6.86
518.552	6.94
518.898	7
519.245	7.07
519.591	7.13
519.937	7.18
520.283	7.25
520.629	7.35
520.976	7.44
521.322	7.55
521.668	7.64
522.014	7.73
522.36	7.81
522.706	7.91
523.052	8.02
523.398	8.12
523.743	8.27
524.089	8.39
524.435	8.51
524.781	8.62
525.126	8.74
525.472	8.86
525.817	8.97
526.163	9.05
526.509	9.14
526.854	9.24
527.199	9.34
527.545	9.41
527.89	9.5
528.235	9.58
528.581	9.66
528.926	9.75
529.271	9.85
529.616	9.95
529.961	10.06
530.306	10.16
530.651	10.31
530.996	10.41
531.341	10.52
531.686	10.62
532.031	10.76
532.376	10.9
532.721	11.04
533.065	11.19
533.41	11.35
533.755	11.5
534.099	11.64
534.444	11.82
534.788	11.98
535.133	12.13
535.477	12.29
535.822	12.49
536.166	12.68
536.51	12.87
536.855	13.07
537.199	13.27
537.543	13.48
537.887	13.66
538.231	13.88
538.576	14.11
538.92	14.37
539.264	14.57
539.608	14.76
539.951	14.94
540.295	15.13
540.639	15.31
540.983	15.49
541.327	15.66
541.671	15.81
542.014	16.01
542.358	16.19
542.701	16.34
543.045	16.51
543.389	16.68
543.732	16.85
544.075	17.07
544.419	17.24
544.762	17.43
545.105	17.65
545.449	17.86
545.792	18.08
546.135	18.27
546.478	18.54
546.821	18.81
547.165	19.03
547.508	19.24
547.851	19.49
548.194	19.73
548.536	20.01
548.879	20.28
549.222	20.53
549.565	20.77
549.908	21.05
550.25	21.31
550.593	21.57
550.936	21.84
551.278	22.06
551.621	22.33
551.963	22.61
552.306	22.86
552.648	23.15
552.991	23.37
553.333	23.64
553.675	23.82
554.017	24.01
554.36	24.27
554.702	24.54
555.044	24.75
555.386	25
555.728	25.2
556.07	25.43
556.412	25.65
556.754	25.91
557.096	26.12
557.438	26.38
557.78	26.59
558.121	26.81
558.463	27.03
558.805	27.24
559.147	27.39
559.488	27.55
559.83	27.71
560.171	27.93
560.513	28.16
560.854	28.38
561.196	28.62
561.537	28.82
561.878	28.99
562.22	29.17
562.561	29.32
562.902	29.47
563.243	29.64
563.584	29.82
563.925	29.97
564.266	30.12
564.607	30.24
564.948	30.43
565.289	30.6
565.63	30.76
565.971	30.94
566.312	31.17
566.653	31.32
566.993	31.47
567.334	31.56
567.675	31.7
568.015	31.83
568.356	31.92
568.696	32.08
569.037	32.26
569.377	32.43
569.718	32.55
570.058	32.72
570.398	32.86
570.739	33
571.079	33.16
571.419	33.33
571.759	33.45
572.099	33.55
572.439	33.61
572.779	33.7
573.119	33.8
573.459	33.87
573.799	33.98
574.139	34.08
574.479	34.27
574.819	34.34
575.158	34.4
575.498	34.57
575.838	34.63
576.177	34.7
576.517	34.79
576.856	34.98
577.196	35.08
577.535	35.2
577.875	35.28
578.214	35.32
578.553	35.44
578.893	35.58
579.232	35.66
579.571	35.82
579.91	36.01
580.25	36.11
580.589	36.18
580.928	36.32
581.267	36.4
581.606	36.43
581.945	36.56
582.283	36.71
582.622	36.81
582.961	36.96
583.3	37.11
583.639	37.2
583.977	37.18
584.316	37.25
584.654	37.33
584.993	37.44
585.332	37.58
585.67	37.63
586.008	37.68
586.347	37.77
586.685	37.84
587.024	37.89
587.362	37.96
587.7	38.11
588.038	38.2
588.376	38.31
588.715	38.44
589.053	38.48
589.391	38.57
589.729	38.59
590.067	38.65
590.404	38.6
590.742	38.68
591.08	38.79
591.418	38.9
591.756	39.01
592.093	39.05
592.431	39.16
592.769	39.14
593.106	39.22
593.444	39.3
593.781	39.35
594.119	39.36
594.456	39.42
594.793	39.43
595.131	39.49
595.468	39.51
595.805	39.5
596.143	39.61
596.48	39.69
596.817	39.75
597.154	39.82
597.491	39.97
597.828	40.01
598.165	39.97
598.502	40
598.839	40.01
599.176	40.06
599.512	40.09
599.849	40.18
600.186	40.25
600.523	40.32
600.859	40.43
601.196	40.53
601.532	40.55
601.869	40.62
602.205	40.59
602.542	40.65
602.878	40.71
603.215	40.69
603.551	40.69
603.887	40.73
604.223	40.74
604.56	40.74
604.896	40.8
605.232	40.91
605.568	40.93
605.904	40.95
606.24	41.01
606.576	41.02
606.912	41.06
607.248	41.05
607.583	41.12
607.919	41.14
608.255	41.19
608.591	41.26
608.926	41.34
609.262	41.46
609.597	41.51
609.933	41.58
610.268	41.66
610.604	41.76
610.939	41.79
611.275	41.87
611.61	41.92
611.945	41.97
612.281	42.02
612.616	42.04
612.951	42.11
613.286	42.15
613.621	42.19
613.956	42.2
614.291	42.27
614.626	42.23
614.961	42.25
615.296	42.2
615.631	42.2
615.966	42.13
616.3	42.19
616.635	42.31
616.97	42.29
617.304	42.3
617.639	42.25
617.973	42.27
618.308	42.21
618.642	42.2
618.977	42.23
619.311	42.25
619.646	42.39
619.98	42.45
620.314	42.44
620.648	42.52
620.983	42.64
621.317	42.69
621.651	42.75
621.985	42.76
622.319	42.86
622.653	42.9
622.987	43.05
623.321	43.03
623.655	43.01
623.988	43.1
624.322	43.15
624.656	43.2
624.99	43.25
625.323	43.33
625.657	43.34
625.99	43.28
626.324	43.42
626.657	43.44
626.991	43.42
627.324	43.47
627.658	43.49
627.991	43.46
628.324	43.47
628.657	43.42
628.991	43.48
629.324	43.47
629.657	43.49
629.99	43.46
630.323	43.51
630.656	43.56
630.989	43.6
631.322	43.66
631.655	43.71
631.987	43.72
632.32	43.68
632.653	43.69
632.986	43.75
633.318	43.62
633.651	43.57
633.984	43.55
634.316	43.58
634.649	43.59
634.981	43.65
635.313	43.69
635.646	43.82
635.978	43.87
636.31	43.91
636.643	43.94
636.975	43.97
637.307	43.94
637.639	43.92
637.971	43.87
638.303	43.77
638.635	43.67
638.967	43.67
639.299	43.73
639.631	43.76
639.963	43.76
640.295	43.83
640.626	43.93
640.958	44.06
641.29	44.06
641.621	44.06
641.953	44.05
642.285	44.13
642.616	44.08
642.948	44.06
643.279	44.21
643.61	44.35
643.942	44.36
644.273	44.4
644.604	44.43
644.936	44.42
645.267	44.54
645.598	44.69
645.929	44.83
646.26	44.9
646.591	45.01
646.922	45.02
647.253	45.08
647.584	45.14
647.915	45.1
648.245	45.08
648.576	45.16
648.907	45.24
649.238	45.22
649.568	45.25
649.899	45.23
650.229	45.09
650.56	44.99
650.89	44.94
651.221	44.94
651.551	44.94
651.882	44.94
652.212	44.98
652.542	45
652.872	44.91
653.203	44.93
653.533	44.91
653.863	45.08
654.193	44.92
654.523	44.82
654.853	44.93
655.183	44.99
655.513	44.94
655.843	45.03
656.172	45.04
656.502	45.11
656.832	45.12
657.162	45.25
657.491	45.28
657.821	45.34
658.15	45.31
658.48	45.32
658.809	45.47
659.139	45.48
659.468	45.39
659.798	45.38
660.127	45.35
660.456	45.36
660.785	45.27
661.115	45.43
661.444	45.54
661.773	45.43
662.102	45.34
662.431	45.38
662.76	45.25
663.089	45.19
663.418	45.14
663.747	45.19
664.076	45.18
664.404	45.13
664.733	45.27
665.062	45.32
665.39	45.29
665.719	45.18
666.048	45.15
666.376	45.16
666.705	45.19
