Data from BU26850_Reflection_00006.txt Node
Date: Mon Nov 18 16:45:33 EST 2019
User: vgr7
Spectrometer: USB2G7710
Scans to average: 3
Trigger mode: 4
Integration Time (sec): 2.000000E-2
Electric dark correction enabled: true
Boxcar width: 10
XAxis mode: Wavelengths
Number of Pixels in Spectrum: 2048
>>>>>Begin Spectral Data<<<<<
177.721	192.82
178.105	230.74
178.488	301.53
178.871	164.62
179.254	182.29
179.636	132.99
180.019	5.31
180.402	53.85
180.785	-0.68
181.168	8.67
181.55	161.35
181.933	272.63
182.316	330.99
182.698	364.76
183.081	687.95
183.463	-3770.13
183.846	-781.36
184.228	-929.65
184.611	1470.21
184.993	4251.9
185.376	-882.8
185.758	-1358.19
186.14	-388.84
186.522	-272.13
186.904	-326.48
187.287	-392.73
187.669	-238.58
188.051	-241.15
188.433	-157.06
188.815	-113.23
189.197	-96.59
189.579	-83.92
189.961	-94.45
190.342	-102.38
190.724	-72.57
191.106	-67.28
191.488	-63.53
191.869	-48.6
192.251	-63.45
192.633	-61.77
193.014	-63.55
193.396	-87.97
193.777	-91.12
194.159	-103.99
194.54	-92.98
194.922	-80.75
195.303	-63.8
195.684	-56.29
196.065	-49.99
196.447	-41.99
196.828	-49.14
197.209	-50.58
197.59	-74.6
197.971	-76.9
198.352	-77.04
198.733	-70.95
199.114	-66.39
199.495	-62.57
199.876	-58.95
200.257	-44
200.638	-37.07
201.018	-36.86
201.399	-28.39
201.78	-26.63
202.16	-30.59
202.541	-39.46
202.922	-46.09
203.302	-47.5
203.683	-47.13
204.063	-47.03
204.444	-43.6
204.824	-42.82
205.204	-66.04
205.585	-19.85
205.965	-18.14
206.345	-18.91
206.725	-57.8
207.106	-63.23
207.486	-88.72
207.866	-95.87
208.246	-102.43
208.626	-108.76
209.006	-93.28
209.386	-95.06
209.766	-84.13
210.145	-79.13
210.525	-65.81
210.905	-61.97
211.285	-49.38
211.664	-60.69
212.044	-72.29
212.424	-85.98
212.803	-89.42
213.183	-80.21
213.562	-75.41
213.942	-61.04
214.321	-61.27
214.701	-59.45
215.08	-58.87
215.459	-43.72
215.838	-40.21
216.218	-54.41
216.597	-50.7
216.976	-46.24
217.355	-56.23
217.734	-64.13
218.113	-59.85
218.492	-56.89
218.871	-57.99
219.25	-66.69
219.629	-63.94
220.008	-52.17
220.387	-44.9
220.766	-50.92
221.144	-53.92
221.523	-68.43
221.902	-104.64
222.28	-104.89
222.659	-89.33
223.037	-83.92
223.416	-80.18
223.794	-72.79
224.173	-63.18
224.551	-64.29
224.929	-62.81
225.308	-55.27
225.686	-50.03
226.064	-46.85
226.442	-49.96
226.821	-40.71
227.199	-34.18
227.577	-32.82
227.955	-38.82
228.333	-35.11
228.711	-31.55
229.089	-27.77
229.467	-27.31
229.845	-21.15
230.222	-18.15
230.6	-19.58
230.978	-22.49
231.356	-19.13
231.733	-18.57
232.111	-16.21
232.488	-14.35
232.866	-12.67
233.243	-11.64
233.621	-10.26
233.998	-9.44
234.376	-8.06
234.753	-9.09
235.13	-8.07
235.508	-7.21
235.885	-5.57
236.262	-6.6
236.639	-6.23
237.016	-4.97
237.393	-1.5
237.77	-1.76
238.147	-0.62
238.524	0.57
238.901	2.42
239.278	1.68
239.655	2.59
240.032	2.99
240.409	2.37
240.785	2.01
241.162	2.59
241.539	2.09
241.915	1.75
242.292	1.52
242.668	1.77
243.045	1.89
243.421	2.05
243.798	2.02
244.174	2.2
244.551	2.66
244.927	2.57
245.303	2.47
245.679	2.67
246.056	2.44
246.432	2.2
246.808	1.97
247.184	1.71
247.56	1.47
247.936	1.23
248.312	1.41
248.688	1.85
249.064	1.79
249.44	1.97
249.815	2.22
250.191	2.54
250.567	2.57
250.943	2.21
251.318	2.38
251.694	2.39
252.069	2.23
252.445	1.86
252.82	1.91
253.196	2.01
253.571	1.89
253.947	2.01
254.322	2.24
254.697	2.27
255.073	2.47
255.448	2.47
255.823	2.62
256.198	2.6
256.573	2.32
256.948	2.73
257.323	2.66
257.698	2.42
258.073	2.28
258.448	2.34
258.823	2.5
259.198	2.26
259.573	2.28
259.948	2.23
260.322	2.34
260.697	2.28
261.072	2.06
261.446	2.11
261.821	2.05
262.195	2.14
262.57	2.09
262.944	2.09
263.319	2.19
263.693	2.17
264.067	2.27
264.442	2.35
264.816	2.03
265.19	2.04
265.564	2.06
265.938	1.99
266.313	1.89
266.687	2.02
267.061	2.22
267.435	2.4
267.809	2.41
268.183	2.35
268.556	2.31
268.93	2.37
269.304	2.39
269.678	2.57
270.051	2.53
270.425	2.77
270.799	2.79
271.172	2.65
271.546	2.5
271.919	2.35
272.293	2.15
272.666	2.2
273.04	2.29
273.413	2.39
273.787	2.38
274.16	2.48
274.533	2.44
274.906	2.35
275.279	2.09
275.653	2.19
276.026	2.25
276.399	2.33
276.772	2.6
277.145	2.53
277.518	2.58
277.891	2.59
278.263	2.52
278.636	2.52
279.009	2.6
279.382	2.66
279.755	2.72
280.127	2.85
280.5	2.98
280.872	2.94
281.245	2.78
281.617	3
281.99	3.07
282.362	2.9
282.735	2.89
283.107	2.99
283.479	2.86
283.852	2.88
284.224	2.89
284.596	2.71
284.968	2.74
285.34	2.74
285.713	2.67
286.085	2.63
286.457	2.71
286.829	2.65
287.201	2.86
287.572	2.82
287.944	2.79
288.316	2.7
288.688	2.65
289.06	2.66
289.431	2.63
289.803	2.67
290.175	2.84
290.546	2.93
290.918	3.17
291.289	3.37
291.661	3.31
292.032	3.35
292.403	3.42
292.775	3.46
293.146	3.3
293.517	3.21
293.889	3.32
294.26	3.24
294.631	3.26
295.002	3.06
295.373	3.02
295.744	2.89
296.115	2.91
296.486	2.94
296.857	3.07
297.228	3.01
297.599	2.94
297.97	2.81
298.34	2.7
298.711	2.54
299.082	2.43
299.452	2.46
299.823	2.41
300.194	2.24
300.564	2.17
300.935	2.18
301.305	2.29
301.676	2.16
302.046	2.23
302.416	2.23
302.787	2.3
303.157	2.44
303.527	2.64
303.897	2.6
304.267	2.56
304.637	2.5
305.008	2.46
305.378	2.67
305.748	2.67
306.117	2.76
306.487	2.68
306.857	2.58
307.227	2.61
307.597	2.61
307.967	2.73
308.336	2.83
308.706	2.91
309.076	2.94
309.445	2.88
309.815	2.86
310.184	2.88
310.554	2.83
310.923	2.61
311.293	2.52
311.662	2.55
312.031	2.62
312.401	2.57
312.77	2.59
313.139	2.41
313.508	2.49
313.877	2.42
314.246	2.58
314.616	2.63
314.985	2.49
315.353	2.39
315.722	2.39
316.091	2.22
316.46	2.14
316.829	2.06
317.198	2.05
317.567	1.95
317.935	1.84
318.304	1.78
318.672	1.95
319.041	1.98
319.41	1.99
319.778	1.87
320.147	1.97
320.515	2
320.883	1.9
321.252	1.78
321.62	1.87
321.988	1.78
322.357	1.86
322.725	1.87
323.093	2.08
323.461	2.05
323.829	2.17
324.197	2.32
324.565	2.34
324.933	2.51
325.301	2.48
325.669	2.5
326.037	2.49
326.405	2.42
326.772	2.52
327.14	2.55
327.508	2.62
327.875	2.5
328.243	2.55
328.61	2.55
328.978	2.65
329.346	2.71
329.713	2.73
330.08	2.81
330.448	2.84
330.815	2.61
331.182	2.66
331.55	2.52
331.917	2.57
332.284	2.62
332.651	2.46
333.018	2.52
333.385	2.59
333.752	2.65
334.119	2.64
334.486	2.49
334.853	2.44
335.22	2.48
335.587	2.57
335.954	2.57
336.32	2.59
336.687	2.56
337.054	2.49
337.42	2.57
337.787	2.47
338.153	2.54
338.52	2.66
338.886	2.55
339.253	2.6
339.619	2.35
339.986	2.34
340.352	2.42
340.718	2.45
341.084	2.31
341.451	2.31
341.817	2.55
342.183	2.59
342.549	2.6
342.915	2.5
343.281	2.46
343.647	2.31
344.013	2.32
344.379	2.32
344.745	2.39
345.11	2.35
345.476	2.46
345.842	2.47
346.208	2.51
346.573	2.62
346.939	2.69
347.304	2.79
347.67	2.76
348.035	2.7
348.401	2.71
348.766	2.77
349.132	2.78
349.497	2.57
349.862	2.68
350.228	2.67
350.593	2.7
350.958	2.7
351.323	2.83
351.688	2.86
352.053	2.91
352.418	2.9
352.783	2.93
353.148	2.85
353.513	2.84
353.878	2.79
354.243	2.83
354.608	2.89
354.972	2.93
355.337	2.96
355.702	3.04
356.066	3.03
356.431	3.09
356.795	3.13
357.16	3.15
357.524	3.12
357.889	3.1
358.253	3.1
358.618	3.18
358.982	3.12
359.346	3.08
359.71	3.04
360.075	2.98
360.439	2.92
360.803	2.95
361.167	2.93
361.531	2.97
361.895	2.89
362.259	2.8
362.623	2.8
362.987	2.81
363.351	2.8
363.714	2.89
364.078	2.87
364.442	2.81
364.806	2.78
365.169	2.67
365.533	2.7
365.896	2.75
366.26	2.65
366.623	2.66
366.987	2.71
367.35	2.74
367.714	2.8
368.077	2.79
368.44	2.79
368.803	2.79
369.167	2.73
369.53	2.72
369.893	2.79
370.256	2.77
370.619	2.7
370.982	2.65
371.345	2.58
371.708	2.59
372.071	2.6
372.434	2.64
372.797	2.79
373.159	2.79
373.522	2.78
373.885	2.77
374.247	2.82
374.61	2.77
374.973	2.74
375.335	2.71
375.698	2.7
376.06	2.68
376.423	2.73
376.785	2.73
377.147	2.81
377.51	2.78
377.872	2.8
378.234	2.84
378.596	2.92
378.958	2.91
379.321	2.93
379.683	2.97
380.045	2.94
380.407	2.86
380.769	2.83
381.13	2.8
381.492	2.82
381.854	2.85
382.216	2.87
382.578	2.88
382.939	2.85
383.301	2.86
383.663	2.84
384.024	2.76
384.386	2.8
384.747	2.75
385.109	2.77
385.47	2.74
385.832	2.77
386.193	2.75
386.554	2.7
386.916	2.63
387.277	2.63
387.638	2.64
387.999	2.67
388.36	2.72
388.721	2.76
389.082	2.79
389.443	2.72
389.804	2.73
390.165	2.71
390.526	2.78
390.887	2.79
391.248	2.85
391.609	2.89
391.969	2.88
392.33	2.88
392.691	2.91
393.051	2.91
393.412	2.91
393.772	2.91
394.133	2.97
394.493	3.02
394.854	3.04
395.214	3.02
395.574	2.99
395.935	2.97
396.295	2.97
396.655	2.94
397.015	3.01
397.376	3.01
397.736	3.03
398.096	3.01
398.456	3.01
398.816	2.96
399.176	2.92
399.535	2.9
399.895	2.9
400.255	2.87
400.615	2.9
400.975	2.91
401.334	2.91
401.694	2.89
402.054	2.91
402.413	2.89
402.773	2.92
403.132	2.96
403.492	2.94
403.851	2.93
404.211	2.91
404.57	2.89
404.929	2.9
405.288	2.9
405.648	2.9
406.007	2.91
406.366	2.92
406.725	2.99
407.084	3.01
407.443	3.02
407.802	3.03
408.161	3
408.52	3
408.879	2.98
409.238	2.98
409.596	2.96
409.955	2.99
410.314	2.99
410.673	2.98
411.031	2.98
411.39	2.98
411.748	3.04
412.107	3.05
412.465	3.04
412.824	3.04
413.182	3.01
413.54	3.02
413.899	3.04
414.257	3.01
414.615	3
414.974	3
415.332	3.01
415.69	3.01
416.048	2.99
416.406	3
416.764	3
417.122	3.01
417.48	2.99
417.838	2.98
418.195	2.98
418.553	2.97
418.911	2.95
419.269	2.94
419.626	2.94
419.984	2.93
420.342	2.93
420.699	2.94
421.057	2.95
421.414	2.94
421.772	2.95
422.129	2.96
422.486	2.96
422.844	2.95
423.201	2.96
423.558	2.96
423.915	2.96
424.273	2.96
424.63	2.96
424.987	2.97
425.344	2.97
425.701	2.95
426.058	2.96
426.415	2.98
426.772	2.96
427.128	2.97
427.485	2.98
427.842	2.98
428.199	2.99
428.555	2.97
428.912	3
429.269	3
429.625	2.98
429.982	2.97
430.338	2.97
430.695	2.96
431.051	2.95
431.407	2.95
431.764	2.94
432.12	2.95
432.476	2.95
432.832	2.95
433.189	2.99
433.545	2.99
433.901	2.98
434.257	2.98
434.613	2.98
434.969	2.98
435.325	2.99
435.681	3
436.036	2.99
436.392	2.97
436.748	2.94
437.104	2.94
437.459	2.97
437.815	2.96
438.171	2.95
438.526	2.97
438.882	2.98
439.237	2.98
439.593	2.97
439.948	2.97
440.304	2.97
440.659	2.97
441.014	2.96
441.369	2.96
441.725	2.95
442.08	2.96
442.435	2.95
442.79	2.95
443.145	2.93
443.5	2.94
443.855	2.95
444.21	2.96
444.565	2.98
444.92	2.97
445.275	2.96
445.629	2.96
445.984	2.96
446.339	2.96
446.693	2.95
447.048	2.94
447.403	2.94
447.757	2.93
448.112	2.93
448.466	2.93
448.82	2.94
449.175	2.96
449.529	2.95
449.883	2.94
450.238	2.95
450.592	2.95
450.946	2.93
451.3	2.91
451.654	2.9
452.008	2.88
452.362	2.88
452.716	2.89
453.07	2.87
453.424	2.88
453.778	2.87
454.132	2.88
454.486	2.89
454.839	2.91
455.193	2.9
455.547	2.89
455.9	2.9
456.254	2.91
456.607	2.91
456.961	2.91
457.314	2.93
457.668	2.91
458.021	2.91
458.375	2.91
458.728	2.93
459.081	2.93
459.434	2.93
459.787	2.94
460.141	2.96
460.494	2.97
460.847	2.96
461.2	2.96
461.553	2.96
461.906	2.96
462.259	2.96
462.611	2.98
462.964	3.01
463.317	3
463.67	2.98
464.022	2.99
464.375	2.98
464.728	2.98
465.08	2.98
465.433	3
465.785	3.01
466.138	3
466.49	3.02
466.843	3.02
467.195	3.01
467.547	3
467.899	2.99
468.252	2.98
468.604	3
468.956	2.99
469.308	2.98
469.66	2.97
470.012	2.95
470.364	2.94
470.716	2.95
471.068	2.95
471.42	2.92
471.772	2.94
472.123	2.94
472.475	2.96
472.827	2.96
473.178	2.96
473.53	2.96
473.882	2.95
474.233	2.97
474.585	2.96
474.936	2.96
475.288	2.96
475.639	2.99
475.99	2.98
476.342	3
476.693	3.02
477.044	3.01
477.395	3.02
477.746	3.03
478.097	3.01
478.448	3.02
478.8	3.02
479.15	2.99
479.501	3
479.852	3
480.203	3.01
480.554	3
480.905	3.02
481.255	3.02
481.606	3.02
481.957	3.03
482.307	3.05
482.658	3.06
483.009	3.05
483.359	3.05
483.709	3.05
484.06	3.05
484.41	3.06
484.761	3.06
485.111	3.07
485.461	3.07
485.811	3.07
486.162	3.07
486.512	3.09
486.862	3.09
487.212	3.09
487.562	3.1
487.912	3.1
488.262	3.1
488.612	3.11
488.961	3.11
489.311	3.11
489.661	3.11
490.011	3.11
490.36	3.1
490.71	3.11
491.06	3.1
491.409	3.1
491.759	3.1
492.108	3.1
492.458	3.11
492.807	3.1
493.157	3.1
493.506	3.1
493.855	3.1
494.204	3.08
494.554	3.07
494.903	3.06
495.252	3.06
495.601	3.06
495.95	3.07
496.299	3.07
496.648	3.06
496.997	3.07
497.346	3.06
497.695	3.07
498.043	3.07
498.392	3.06
498.741	3.05
499.09	3.04
499.438	3.04
499.787	3.03
500.135	3.05
500.484	3.07
500.832	3.08
501.181	3.08
501.529	3.1
501.878	3.11
502.226	3.12
502.574	3.13
502.923	3.13
503.271	3.13
503.619	3.14
503.967	3.15
504.315	3.13
504.663	3.13
505.011	3.13
505.359	3.13
505.707	3.15
506.055	3.15
506.403	3.17
506.751	3.18
507.098	3.17
507.446	3.18
507.794	3.16
508.141	3.16
508.489	3.17
508.837	3.18
509.184	3.18
509.531	3.16
509.879	3.18
510.226	3.18
510.574	3.16
510.921	3.15
511.268	3.14
511.616	3.16
511.963	3.17
512.31	3.16
512.657	3.16
513.004	3.18
513.351	3.18
513.698	3.18
514.045	3.17
514.392	3.17
514.739	3.16
515.086	3.17
515.432	3.18
515.779	3.18
516.126	3.18
516.473	3.21
516.819	3.2
517.166	3.18
517.512	3.18
517.859	3.2
518.205	3.19
518.552	3.2
518.898	3.22
519.245	3.22
519.591	3.21
519.937	3.2
520.283	3.2
520.629	3.21
520.976	3.21
521.322	3.21
521.668	3.21
522.014	3.23
522.36	3.24
522.706	3.23
523.052	3.23
523.398	3.23
523.743	3.21
524.089	3.22
524.435	3.22
524.781	3.23
525.126	3.24
525.472	3.26
525.817	3.25
526.163	3.25
526.509	3.26
526.854	3.27
527.199	3.28
527.545	3.28
527.89	3.29
528.235	3.29
528.581	3.3
528.926	3.31
529.271	3.31
529.616	3.31
529.961	3.31
530.306	3.33
530.651	3.31
530.996	3.33
531.341	3.33
531.686	3.34
532.031	3.35
532.376	3.35
532.721	3.36
533.065	3.36
533.41	3.36
533.755	3.35
534.099	3.35
534.444	3.35
534.788	3.36
535.133	3.35
535.477	3.35
535.822	3.35
536.166	3.35
536.51	3.34
536.855	3.35
537.199	3.35
537.543	3.33
537.887	3.34
538.231	3.33
538.576	3.33
538.92	3.34
539.264	3.33
539.608	3.34
539.951	3.32
540.295	3.32
540.639	3.34
540.983	3.33
541.327	3.33
541.671	3.32
542.014	3.31
542.358	3.31
542.701	3.29
543.045	3.3
543.389	3.3
543.732	3.29
544.075	3.29
544.419	3.29
544.762	3.28
545.105	3.29
545.449	3.31
545.792	3.3
546.135	3.3
546.478	3.3
546.821	3.31
547.165	3.31
547.508	3.31
547.851	3.3
548.194	3.29
548.536	3.28
548.879	3.3
549.222	3.31
549.565	3.32
549.908	3.35
550.25	3.34
550.593	3.33
550.936	3.32
551.278	3.35
551.621	3.35
551.963	3.36
552.306	3.34
552.648	3.33
552.991	3.35
553.333	3.33
553.675	3.32
554.017	3.31
554.36	3.31
554.702	3.3
555.044	3.28
555.386	3.32
555.728	3.33
556.07	3.34
556.412	3.32
556.754	3.32
557.096	3.3
557.438	3.3
557.78	3.31
558.121	3.32
558.463	3.29
558.805	3.27
559.147	3.24
559.488	3.23
559.83	3.24
560.171	3.21
560.513	3.21
560.854	3.19
561.196	3.2
561.537	3.23
561.878	3.23
562.22	3.24
562.561	3.24
562.902	3.22
563.243	3.22
563.584	3.23
563.925	3.25
564.266	3.27
564.607	3.26
564.948	3.29
565.289	3.28
565.63	3.3
565.971	3.29
566.312	3.31
566.653	3.31
566.993	3.31
567.334	3.29
567.675	3.27
568.015	3.28
568.356	3.27
568.696	3.26
569.037	3.29
569.377	3.31
569.718	3.31
570.058	3.31
570.398	3.28
570.739	3.29
571.079	3.28
571.419	3.25
571.759	3.28
572.099	3.25
572.439	3.27
572.779	3.26
573.119	3.28
573.459	3.29
573.799	3.3
574.139	3.28
574.479	3.31
574.819	3.33
575.158	3.34
575.498	3.34
575.838	3.32
576.177	3.25
576.517	3.24
576.856	3.23
577.196	3.28
577.535	3.33
577.875	3.31
578.214	3.29
578.553	3.31
578.893	3.28
579.232	3.3
579.571	3.3
579.91	3.31
580.25	3.35
580.589	3.32
580.928	3.32
581.267	3.35
581.606	3.32
581.945	3.34
582.283	3.33
582.622	3.32
582.961	3.32
583.3	3.37
583.639	3.39
583.977	3.39
584.316	3.33
584.654	3.27
584.993	3.28
585.332	3.33
585.67	3.35
586.008	3.31
586.347	3.28
586.685	3.27
587.024	3.27
587.362	3.26
587.7	3.29
588.038	3.3
588.376	3.3
588.715	3.34
589.053	3.33
589.391	3.38
589.729	3.4
590.067	3.42
590.404	3.42
590.742	3.43
591.08	3.41
591.418	3.44
591.756	3.45
592.093	3.46
592.431	3.43
592.769	3.44
593.106	3.46
593.444	3.46
593.781	3.43
594.119	3.42
594.456	3.4
594.793	3.35
595.131	3.33
595.468	3.36
595.805	3.33
596.143	3.32
596.48	3.27
596.817	3.25
597.154	3.27
597.491	3.25
597.828	3.25
598.165	3.23
598.502	3.21
598.839	3.23
599.176	3.25
599.512	3.27
599.849	3.25
600.186	3.27
600.523	3.28
600.859	3.32
601.196	3.38
601.532	3.35
601.869	3.35
602.205	3.35
602.542	3.31
602.878	3.3
603.215	3.31
603.551	3.33
603.887	3.36
604.223	3.32
604.56	3.35
604.896	3.34
605.232	3.35
605.568	3.36
605.904	3.33
606.24	3.31
606.576	3.29
606.912	3.27
607.248	3.25
607.583	3.26
607.919	3.28
608.255	3.19
608.591	3.25
608.926	3.26
609.262	3.3
609.597	3.3
609.933	3.31
610.268	3.31
610.604	3.28
610.939	3.24
611.275	3.25
611.61	3.24
611.945	3.24
612.281	3.25
612.616	3.25
612.951	3.28
613.286	3.27
613.621	3.25
613.956	3.24
614.291	3.27
614.626	3.24
614.961	3.21
615.296	3.21
615.631	3.19
615.966	3.24
616.3	3.23
616.635	3.23
616.97	3.25
617.304	3.23
617.639	3.28
617.973	3.26
618.308	3.25
618.642	3.27
618.977	3.3
619.311	3.28
619.646	3.27
619.98	3.27
620.314	3.31
620.648	3.31
620.983	3.37
621.317	3.29
621.651	3.32
621.985	3.36
622.319	3.39
622.653	3.39
622.987	3.41
623.321	3.39
623.655	3.39
623.988	3.39
624.322	3.37
624.656	3.36
624.99	3.37
625.323	3.37
625.657	3.35
625.99	3.36
626.324	3.41
626.657	3.46
626.991	3.49
627.324	3.47
627.658	3.5
627.991	3.51
628.324	3.57
628.657	3.56
628.991	3.57
629.324	3.57
629.657	3.59
629.99	3.55
630.323	3.53
630.656	3.54
630.989	3.55
631.322	3.56
631.655	3.56
631.987	3.57
632.32	3.57
632.653	3.54
632.986	3.5
633.318	3.48
633.651	3.49
633.984	3.45
634.316	3.44
634.649	3.4
634.981	3.37
635.313	3.38
635.646	3.35
635.978	3.35
636.31	3.36
636.643	3.34
636.975	3.33
637.307	3.36
637.639	3.35
637.971	3.33
638.303	3.37
638.635	3.36
638.967	3.36
639.299	3.44
639.631	3.46
639.963	3.48
640.295	3.43
640.626	3.44
640.958	3.48
641.29	3.58
641.621	3.62
641.953	3.56
642.285	3.54
642.616	3.58
642.948	3.45
643.279	3.44
643.61	3.42
643.942	3.46
644.273	3.49
644.604	3.42
644.936	3.39
645.267	3.37
645.598	3.39
645.929	3.42
646.26	3.38
646.591	3.37
646.922	3.35
647.253	3.42
647.584	3.35
647.915	3.25
648.245	3.17
648.576	3.17
648.907	3.27
649.238	3.23
649.568	3.21
649.899	3.31
650.229	3.36
650.56	3.39
650.89	3.28
651.221	3.23
651.551	3.29
651.882	3.33
652.212	3.41
652.542	3.38
652.872	3.34
653.203	3.31
653.533	3.34
653.863	3.33
654.193	3.28
654.523	3.29
654.853	3.33
655.183	3.36
655.513	3.34
655.843	3.26
656.172	3.31
656.502	3.4
656.832	3.38
657.162	3.39
657.491	3.34
657.821	3.43
658.15	3.43
658.48	3.4
658.809	3.41
659.139	3.36
659.468	3.36
659.798	3.36
660.127	3.4
660.456	3.4
660.785	3.39
661.115	3.43
661.444	3.44
661.773	3.49
662.102	3.5
662.431	3.47
662.76	3.47
663.089	3.49
663.418	3.49
663.747	3.5
664.076	3.47
664.404	3.55
664.733	3.58
665.062	3.65
665.39	3.68
665.719	3.7
666.048	3.68
666.376	3.7
666.705	3.73
667.033	3.72
667.362	3.75
667.69	3.88
668.018	3.9
668.347	3.87
668.675	3.86
669.003	3.81
669.331	3.88
669.659	3.88
669.987	3.78
670.315	3.68
670.643	3.67
670.971	3.67
671.299	3.61
671.627	3.62
671.955	3.58
672.283	3.59
672.61	3.59
672.938	3.6
673.266	3.6
673.593	3.62
673.921	3.57
674.249	3.52
674.576	3.46
674.904	3.4
675.231	3.43
675.558	3.37
675.886	3.4
676.213	3.36
676.54	3.47
