Data from BU26849_Reflection_00006.txt Node
Date: Mon Nov 18 16:43:13 EST 2019
User: vgr7
Spectrometer: USB2G7710
Scans to average: 3
Trigger mode: 4
Integration Time (sec): 2.000000E-2
Electric dark correction enabled: true
Boxcar width: 10
XAxis mode: Wavelengths
Number of Pixels in Spectrum: 2048
>>>>>Begin Spectral Data<<<<<
177.721	-46.58
178.105	-44.95
178.488	-21.94
178.871	-6.75
179.254	25.32
179.636	27.22
180.019	-34.85
180.402	51.61
180.785	-19.39
181.168	-118.45
181.55	-299.14
181.933	28
182.316	67.27
182.698	43.35
183.081	42.43
183.463	-5.23
183.846	17.38
184.228	-31.88
184.611	-66.77
184.993	-215.2
185.376	-280.42
185.758	-85.06
186.14	-71.81
186.522	-140.47
186.904	-62.97
187.287	4.95
187.669	-49.56
188.051	737.8
188.433	146.31
188.815	68.77
189.197	38.6
189.579	14.76
189.961	15.76
190.342	7.36
190.724	3.06
191.106	22.47
191.488	3.49
191.869	-1.37
192.251	-30.35
192.633	-39.75
193.014	-47.07
193.396	-52.72
193.777	-32.17
194.159	-21.27
194.54	-23.86
194.922	-23.15
195.303	-21.31
195.684	-18.77
196.065	-22.01
196.447	-21.32
196.828	-26.18
197.209	-24.03
197.59	-30.14
197.971	-23.87
198.352	-3.06
198.733	-0.43
199.114	0.39
199.495	3.31
199.876	16.58
200.257	23.31
200.638	31.6
201.018	22.8
201.399	24.45
201.78	23.96
202.16	8.45
202.541	1.66
202.922	1.74
203.302	5.42
203.683	1.81
204.063	-2.48
204.444	17.92
204.824	18.51
205.204	27.95
205.585	17.79
205.965	17.46
206.345	10.87
206.725	-1.5
207.106	-23
207.486	-7.41
207.866	-12.4
208.246	-23.66
208.626	-46.85
209.006	-30.75
209.386	-42.98
209.766	-30.56
210.145	-17.54
210.525	-5.06
210.905	-2.11
211.285	-1.1
211.664	24.34
212.044	34.56
212.424	29.44
212.803	31.59
213.183	35.72
213.562	34.92
213.942	38.69
214.321	30.38
214.701	43.88
215.08	40.25
215.459	39.74
215.838	33.71
216.218	37.89
216.597	40.47
216.976	30.73
217.355	33.86
217.734	19.37
218.113	25.77
218.492	19.85
218.871	19.32
219.25	30.01
219.629	11.43
220.008	10.31
220.387	5.52
220.766	11.69
221.144	-0.45
221.523	3.34
221.902	-3.2
222.28	-2.01
222.659	-4.26
223.037	-1.45
223.416	-10.12
223.794	-15.55
224.173	-10.82
224.551	-1.02
224.929	5.11
225.308	6.04
225.686	12.04
226.064	13.29
226.442	12.45
226.821	11.22
227.199	7.09
227.577	8.35
227.955	6.48
228.333	4.11
228.711	4.56
229.089	9.17
229.467	10.05
229.845	5.78
230.222	6.21
230.6	7.23
230.978	9.48
231.356	12.36
231.733	13.09
232.111	12.43
232.488	11.67
232.866	10.49
233.243	8.62
233.621	8.26
233.998	8.7
234.376	8.81
234.753	7.69
235.13	7.19
235.508	9.47
235.885	9.04
236.262	8.18
236.639	6.44
237.016	5.73
237.393	5.3
237.77	8.1
238.147	7.26
238.524	7.73
238.901	8.2
239.278	8.67
239.655	9.09
240.032	8.73
240.409	8.15
240.785	7.64
241.162	7.9
241.539	7.75
241.915	7.63
242.292	7.13
242.668	7.54
243.045	7.59
243.421	7.38
243.798	7.26
244.174	7.18
244.551	7.2
244.927	7.04
245.303	7.13
245.679	6.9
246.056	6.72
246.432	6.46
246.808	6.28
247.184	5.82
247.56	5.59
247.936	5.53
248.312	5.46
248.688	5.56
249.064	5.41
249.44	5.48
249.815	5.53
250.191	5.77
250.567	5.84
250.943	5.57
251.318	5.32
251.694	5.43
252.069	5.24
252.445	5.3
252.82	5.3
253.196	5.11
253.571	5.12
253.947	5.31
254.322	5.39
254.697	5.18
255.073	5.33
255.448	5.17
255.823	5.29
256.198	5.24
256.573	5.3
256.948	5.52
257.323	5.32
257.698	5.09
258.073	4.99
258.448	4.84
258.823	4.85
259.198	4.77
259.573	4.65
259.948	4.85
260.322	4.75
260.697	4.67
261.072	4.59
261.446	4.63
261.821	4.75
262.195	4.96
262.57	4.98
262.944	4.82
263.319	4.85
263.693	4.82
264.067	4.96
264.442	4.8
264.816	4.67
265.19	4.55
265.564	4.73
265.938	4.69
266.313	4.7
266.687	4.92
267.061	5.17
267.435	5.29
267.809	5.22
268.183	5.3
268.556	5.18
268.93	5.52
269.304	5.51
269.678	5.32
270.051	5.05
270.425	4.99
270.799	4.98
271.172	4.89
271.546	4.71
271.919	4.68
272.293	4.69
272.666	4.68
273.04	4.73
273.413	4.68
273.787	4.71
274.16	4.72
274.533	4.69
274.906	4.53
275.279	4.57
275.653	4.67
276.026	4.5
276.399	4.57
276.772	4.5
277.145	4.38
277.518	4.36
277.891	4.44
278.263	4.35
278.636	4.41
279.009	4.38
279.382	4.66
279.755	4.41
280.127	4.49
280.5	4.58
280.872	4.68
281.245	4.68
281.617	4.85
281.99	4.98
282.362	4.95
282.735	4.84
283.107	4.7
283.479	4.56
283.852	4.59
284.224	4.61
284.596	4.59
284.968	4.69
285.34	4.78
285.713	4.86
286.085	5.02
286.457	5.1
286.829	5.17
287.201	5.1
287.572	5.19
287.944	5.13
288.316	5.14
288.688	5.06
289.06	5.07
289.431	5.02
289.803	4.85
290.175	4.88
290.546	5.08
290.918	5.13
291.289	5.23
291.661	5.3
292.032	5.25
292.403	5.17
292.775	5.13
293.146	5.04
293.517	4.86
293.889	4.93
294.26	4.9
294.631	5
295.002	4.94
295.373	4.98
295.744	5.02
296.115	4.81
296.486	4.8
296.857	4.8
297.228	4.76
297.599	4.83
297.97	4.83
298.34	4.74
298.711	4.86
299.082	4.79
299.452	4.73
299.823	4.81
300.194	4.79
300.564	4.78
300.935	4.79
301.305	4.86
301.676	4.72
302.046	4.78
302.416	4.83
302.787	4.91
303.157	4.86
303.527	4.79
303.897	4.93
304.267	5.05
304.637	5.1
305.008	5.25
305.378	5.18
305.748	5.1
306.117	5.04
306.487	4.93
306.857	4.98
307.227	4.94
307.597	4.97
307.967	4.91
308.336	5
308.706	5.12
309.076	5.25
309.445	5.16
309.815	5.06
310.184	4.9
310.554	4.79
310.923	4.72
311.293	4.74
311.662	4.76
312.031	4.7
312.401	4.59
312.77	4.54
313.139	4.64
313.508	4.65
313.877	4.6
314.246	4.74
314.616	4.66
314.985	4.73
315.353	4.71
315.722	4.95
316.091	4.8
316.46	4.65
316.829	4.6
317.198	4.73
317.567	4.79
317.935	4.93
318.304	5.01
318.672	5.05
319.041	5.18
319.41	5.22
319.778	5.14
320.147	5.28
320.515	5.02
320.883	4.98
321.252	5.02
321.62	5
321.988	4.78
322.357	4.82
322.725	4.72
323.093	4.73
323.461	4.58
323.829	4.55
324.197	4.52
324.565	4.51
324.933	4.45
325.301	4.42
325.669	4.22
326.037	4.23
326.405	4.37
326.772	4.27
327.14	4.34
327.508	4.4
327.875	4.22
328.243	4.42
328.61	4.47
328.978	4.52
329.346	4.69
329.713	4.6
330.08	4.64
330.448	4.64
330.815	4.52
331.182	4.5
331.55	4.59
331.917	4.67
332.284	4.58
332.651	4.44
333.018	4.49
333.385	4.73
333.752	4.67
334.119	4.71
334.486	4.6
334.853	4.55
335.22	4.53
335.587	4.65
335.954	4.47
336.32	4.33
336.687	4.22
337.054	4.23
337.42	4.36
337.787	4.32
338.153	4.36
338.52	4.46
338.886	4.44
339.253	4.41
339.619	4.3
339.986	4.38
340.352	4.53
340.718	4.49
341.084	4.31
341.451	4.37
341.817	4.24
342.183	4.29
342.549	4.21
342.915	4.27
343.281	4.21
343.647	4.21
344.013	4.22
344.379	4.25
344.745	4.23
345.11	4.21
345.476	4.23
345.842	4.2
346.208	4.08
346.573	4.09
346.939	4.16
347.304	4.25
347.67	4.15
348.035	4.06
348.401	4.07
348.766	4.05
349.132	4.18
349.497	4.26
349.862	4.34
350.228	4.35
350.593	4.22
350.958	4.26
351.323	4.32
351.688	4.32
352.053	4.36
352.418	4.38
352.783	4.32
353.148	4.26
353.513	4.32
353.878	4.42
354.243	4.48
354.608	4.44
354.972	4.45
355.337	4.52
355.702	4.6
356.066	4.59
356.431	4.63
356.795	4.49
357.16	4.42
357.524	4.36
357.889	4.36
358.253	4.45
358.618	4.44
358.982	4.41
359.346	4.38
359.71	4.35
360.075	4.35
360.439	4.36
360.803	4.42
361.167	4.44
361.531	4.4
361.895	4.37
362.259	4.33
362.623	4.25
362.987	4.22
363.351	4.22
363.714	4.22
364.078	4.19
364.442	4.19
364.806	4.23
365.169	4.24
365.533	4.29
365.896	4.25
366.26	4.26
366.623	4.25
366.987	4.28
367.35	4.27
367.714	4.25
368.077	4.29
368.44	4.25
368.803	4.19
369.167	4.11
369.53	4.05
369.893	4.04
370.256	4.09
370.619	4.09
370.982	4.03
371.345	4.02
371.708	4.11
372.071	4.08
372.434	4.03
372.797	3.99
373.159	3.97
373.522	3.99
373.885	4.02
374.247	4.1
374.61	4.15
374.973	4.14
375.335	4.1
375.698	4.05
376.06	4.08
376.423	4.11
376.785	4.19
377.147	4.25
377.51	4.26
377.872	4.28
378.234	4.27
378.596	4.32
378.958	4.24
379.321	4.25
379.683	4.3
380.045	4.34
380.407	4.33
380.769	4.3
381.13	4.27
381.492	4.23
381.854	4.17
382.216	4.13
382.578	4.15
382.939	4.11
383.301	4.13
383.663	4.12
384.024	4.1
384.386	4.11
384.747	4.08
385.109	4.08
385.47	4.04
385.832	4.07
386.193	4.1
386.554	4.13
386.916	4.08
387.277	4.08
387.638	4.06
387.999	4.07
388.36	4.06
388.721	4.09
389.082	4.09
389.443	4.07
389.804	4.03
390.165	4.03
390.526	4.07
390.887	4.06
391.248	4.09
391.609	4.09
391.969	4.08
392.33	4.08
392.691	4.09
393.051	4.1
393.412	4.1
393.772	4.05
394.133	4.07
394.493	4.08
394.854	4.08
395.214	4.09
395.574	4.13
395.935	4.16
396.295	4.17
396.655	4.13
397.015	4.13
397.376	4.17
397.736	4.15
398.096	4.15
398.456	4.15
398.816	4.1
399.176	4.05
399.535	4.03
399.895	4.02
400.255	4
400.615	4.05
400.975	4
401.334	3.99
401.694	3.96
402.054	3.95
402.413	3.94
402.773	3.94
403.132	3.92
403.492	3.91
403.851	3.9
404.211	3.93
404.57	3.92
404.929	3.92
405.288	3.94
405.648	3.91
406.007	3.95
406.366	3.96
406.725	4.01
407.084	4.05
407.443	4.06
407.802	4.08
408.161	4.05
408.52	4.07
408.879	4.09
409.238	4.13
409.596	4.15
409.955	4.13
410.314	4.14
410.673	4.09
411.031	4.1
411.39	4.11
411.748	4.09
412.107	4.11
412.465	4.09
412.824	4.09
413.182	4.12
413.54	4.09
413.899	4.09
414.257	4.08
414.615	4.07
414.974	4.08
415.332	4.07
415.69	4.05
416.048	4.03
416.406	4.02
416.764	4.01
417.122	4
417.48	3.98
417.838	3.96
418.195	3.97
418.553	3.97
418.911	3.93
419.269	3.94
419.626	3.95
419.984	3.94
420.342	3.96
420.699	3.95
421.057	3.95
421.414	3.91
421.772	3.9
422.129	3.89
422.486	3.88
422.844	3.87
423.201	3.88
423.558	3.88
423.915	3.89
424.273	3.88
424.63	3.87
424.987	3.87
425.344	3.88
425.701	3.9
426.058	3.89
426.415	3.9
426.772	3.89
427.128	3.88
427.485	3.88
427.842	3.86
428.199	3.88
428.555	3.86
428.912	3.92
429.269	3.93
429.625	3.92
429.982	3.94
430.338	3.96
430.695	3.92
431.051	3.91
431.407	3.89
431.764	3.9
432.12	3.9
432.476	3.91
432.832	3.87
433.189	3.86
433.545	3.87
433.901	3.88
434.257	3.87
434.613	3.88
434.969	3.89
435.325	3.87
435.681	3.84
436.036	3.84
436.392	3.83
436.748	3.82
437.104	3.82
437.459	3.8
437.815	3.8
438.171	3.8
438.526	3.82
438.882	3.83
439.237	3.84
439.593	3.84
439.948	3.84
440.304	3.84
440.659	3.85
441.014	3.85
441.369	3.84
441.725	3.83
442.08	3.81
442.435	3.8
442.79	3.82
443.145	3.83
443.5	3.83
443.855	3.81
444.21	3.81
444.565	3.83
444.92	3.84
445.275	3.82
445.629	3.85
445.984	3.84
446.339	3.84
446.693	3.83
447.048	3.82
447.403	3.82
447.757	3.83
448.112	3.83
448.466	3.82
448.82	3.81
449.175	3.82
449.529	3.83
449.883	3.83
450.238	3.83
450.592	3.82
450.946	3.82
451.3	3.81
451.654	3.83
452.008	3.82
452.362	3.82
452.716	3.82
453.07	3.8
453.424	3.8
453.778	3.77
454.132	3.77
454.486	3.78
454.839	3.78
455.193	3.77
455.547	3.74
455.9	3.73
456.254	3.74
456.607	3.74
456.961	3.74
457.314	3.74
457.668	3.72
458.021	3.74
458.375	3.74
458.728	3.75
459.081	3.74
459.434	3.74
459.787	3.75
460.141	3.75
460.494	3.76
460.847	3.76
461.2	3.76
461.553	3.78
461.906	3.78
462.259	3.78
462.611	3.79
462.964	3.81
463.317	3.83
463.67	3.84
464.022	3.84
464.375	3.84
464.728	3.84
465.08	3.85
465.433	3.84
465.785	3.84
466.138	3.84
466.49	3.83
466.843	3.83
467.195	3.82
467.547	3.83
467.899	3.81
468.252	3.81
468.604	3.82
468.956	3.81
469.308	3.8
469.66	3.79
470.012	3.79
470.364	3.8
470.716	3.8
471.068	3.81
471.42	3.81
471.772	3.82
472.123	3.85
472.475	3.86
472.827	3.87
473.178	3.86
473.53	3.87
473.882	3.87
474.233	3.89
474.585	3.89
474.936	3.89
475.288	3.92
475.639	3.93
475.99	3.95
476.342	3.94
476.693	3.95
477.044	3.98
477.395	3.98
477.746	3.96
478.097	3.96
478.448	3.94
478.8	3.94
479.15	3.94
479.501	3.92
479.852	3.92
480.203	3.93
480.554	3.94
480.905	3.95
481.255	3.95
481.606	3.95
481.957	3.96
482.307	3.97
482.658	3.96
483.009	3.96
483.359	3.95
483.709	3.95
484.06	3.96
484.41	3.95
484.761	3.95
485.111	3.94
485.461	3.94
485.811	3.95
486.162	3.96
486.512	3.96
486.862	3.97
487.212	3.97
487.562	3.97
487.912	3.97
488.262	3.97
488.612	3.96
488.961	3.95
489.311	3.95
489.661	3.94
490.011	3.94
490.36	3.95
490.71	3.97
491.06	3.97
491.409	3.97
491.759	3.96
492.108	3.98
492.458	3.99
492.807	3.99
493.157	4
493.506	4
493.855	3.99
494.204	3.99
494.554	4
494.903	3.98
495.252	3.97
495.601	3.97
495.95	3.99
496.299	4.02
496.648	4.02
496.997	4.03
497.346	4.03
497.695	4.02
498.043	4.01
498.392	4.01
498.741	4.03
499.09	4.04
499.438	4.04
499.787	4.07
500.135	4.09
500.484	4.11
500.832	4.12
501.181	4.14
501.529	4.15
501.878	4.16
502.226	4.19
502.574	4.24
502.923	4.26
503.271	4.23
503.619	4.22
503.967	4.22
504.315	4.21
504.663	4.23
505.011	4.24
505.359	4.27
505.707	4.27
506.055	4.26
506.403	4.29
506.751	4.3
507.098	4.29
507.446	4.28
507.794	4.26
508.141	4.27
508.489	4.24
508.837	4.27
509.184	4.27
509.531	4.27
509.879	4.27
510.226	4.28
510.574	4.32
510.921	4.33
511.268	4.34
511.616	4.35
511.963	4.35
512.31	4.37
512.657	4.39
513.004	4.37
513.351	4.39
513.698	4.4
514.045	4.41
514.392	4.41
514.739	4.42
515.086	4.43
515.432	4.43
515.779	4.44
516.126	4.43
516.473	4.46
516.819	4.46
517.166	4.45
517.512	4.44
517.859	4.43
518.205	4.43
518.552	4.44
518.898	4.46
519.245	4.47
519.591	4.47
519.937	4.44
520.283	4.44
520.629	4.45
520.976	4.45
521.322	4.45
521.668	4.43
522.014	4.42
522.36	4.44
522.706	4.44
523.052	4.46
523.398	4.47
523.743	4.47
524.089	4.48
524.435	4.49
524.781	4.5
525.126	4.51
525.472	4.51
525.817	4.51
526.163	4.51
526.509	4.52
526.854	4.51
527.199	4.52
527.545	4.54
527.89	4.54
528.235	4.55
528.581	4.55
528.926	4.57
529.271	4.58
529.616	4.59
529.961	4.59
530.306	4.6
530.651	4.6
530.996	4.61
531.341	4.59
531.686	4.59
532.031	4.6
532.376	4.61
532.721	4.62
533.065	4.62
533.41	4.62
533.755	4.62
534.099	4.63
534.444	4.64
534.788	4.63
535.133	4.63
535.477	4.63
535.822	4.65
536.166	4.65
536.51	4.65
536.855	4.65
537.199	4.65
537.543	4.65
537.887	4.64
538.231	4.64
538.576	4.66
538.92	4.67
539.264	4.67
539.608	4.66
539.951	4.66
540.295	4.67
540.639	4.67
540.983	4.66
541.327	4.66
541.671	4.66
542.014	4.65
542.358	4.66
542.701	4.66
543.045	4.65
543.389	4.64
543.732	4.64
544.075	4.65
544.419	4.65
544.762	4.65
545.105	4.67
545.449	4.68
545.792	4.69
546.135	4.69
546.478	4.7
546.821	4.71
547.165	4.71
547.508	4.73
547.851	4.72
548.194	4.73
548.536	4.74
548.879	4.78
549.222	4.78
549.565	4.76
549.908	4.78
550.25	4.8
550.593	4.81
550.936	4.78
551.278	4.78
551.621	4.78
551.963	4.79
552.306	4.76
552.648	4.76
552.991	4.76
553.333	4.75
553.675	4.75
554.017	4.75
554.36	4.78
554.702	4.76
555.044	4.78
555.386	4.79
555.728	4.8
556.07	4.74
556.412	4.75
556.754	4.79
557.096	4.79
557.438	4.77
557.78	4.76
558.121	4.81
558.463	4.8
558.805	4.78
559.147	4.78
559.488	4.8
559.83	4.79
560.171	4.77
560.513	4.8
560.854	4.79
561.196	4.75
561.537	4.74
561.878	4.74
562.22	4.73
562.561	4.71
562.902	4.72
563.243	4.73
563.584	4.75
563.925	4.71
564.266	4.69
564.607	4.71
564.948	4.75
565.289	4.74
565.63	4.76
565.971	4.76
566.312	4.75
566.653	4.74
566.993	4.75
567.334	4.75
567.675	4.73
568.015	4.74
568.356	4.75
568.696	4.77
569.037	4.77
569.377	4.79
569.718	4.81
570.058	4.82
570.398	4.83
570.739	4.82
571.079	4.84
571.419	4.84
571.759	4.85
572.099	4.8
572.439	4.78
572.779	4.76
573.119	4.79
573.459	4.81
573.799	4.81
574.139	4.81
574.479	4.82
574.819	4.86
575.158	4.85
575.498	4.89
575.838	4.88
576.177	4.87
576.517	4.85
576.856	4.87
577.196	4.83
577.535	4.83
577.875	4.84
578.214	4.87
578.553	4.92
578.893	4.94
579.232	4.99
579.571	5.02
579.91	5.04
580.25	5.02
580.589	5.02
580.928	5.06
581.267	5.05
581.606	5.02
581.945	4.97
582.283	4.98
582.622	4.95
582.961	4.95
583.3	4.99
583.639	5.04
583.977	5.03
584.316	5.05
584.654	5.05
584.993	5.05
585.332	5.02
585.67	5
586.008	4.97
586.347	4.95
586.685	4.97
587.024	4.95
587.362	4.96
587.7	4.99
588.038	4.97
588.376	4.97
588.715	5
589.053	5.02
589.391	5.04
589.729	5.03
590.067	5.01
590.404	4.99
590.742	5.01
591.08	5.01
591.418	5.02
591.756	5.03
592.093	5.03
592.431	5.01
592.769	4.94
593.106	4.95
593.444	4.95
593.781	4.94
594.119	4.96
594.456	4.95
594.793	4.93
595.131	4.91
595.468	4.92
595.805	4.92
596.143	4.89
596.48	4.88
596.817	4.86
597.154	4.9
597.491	4.87
597.828	4.82
598.165	4.8
598.502	4.77
598.839	4.75
599.176	4.75
599.512	4.78
599.849	4.82
600.186	4.82
600.523	4.87
600.859	4.91
601.196	4.94
601.532	4.96
601.869	4.96
602.205	4.99
602.542	5
602.878	4.99
603.215	5
603.551	5.02
603.887	5.07
604.223	5.05
604.56	5.07
604.896	5.13
605.232	5.14
605.568	5.2
605.904	5.23
606.24	5.23
606.576	5.24
606.912	5.26
607.248	5.26
607.583	5.21
607.919	5.14
608.255	5.12
608.591	5.13
608.926	5.13
609.262	5.14
609.597	5.17
609.933	5.17
610.268	5.2
610.604	5.2
610.939	5.19
611.275	5.19
611.61	5.22
611.945	5.2
612.281	5.17
612.616	5.14
612.951	5.13
613.286	5.15
613.621	5.14
613.956	5.12
614.291	5.14
614.626	5.17
614.961	5.18
615.296	5.17
615.631	5.14
615.966	5.14
616.3	5.12
616.635	5.11
616.97	5.12
617.304	5.09
617.639	5.1
617.973	5.09
618.308	5.1
618.642	5.07
618.977	5.05
619.311	5.06
619.646	5.12
619.98	5.1
620.314	5.12
620.648	5.2
620.983	5.26
621.317	5.3
621.651	5.29
621.985	5.31
622.319	5.32
622.653	5.32
622.987	5.33
623.321	5.31
623.655	5.34
623.988	5.37
624.322	5.37
624.656	5.4
624.99	5.4
625.323	5.39
625.657	5.43
625.99	5.4
626.324	5.41
626.657	5.42
626.991	5.45
627.324	5.4
627.658	5.35
627.991	5.36
628.324	5.31
628.657	5.31
628.991	5.32
629.324	5.33
629.657	5.38
629.99	5.4
630.323	5.39
630.656	5.38
630.989	5.4
631.322	5.45
631.655	5.44
631.987	5.44
632.32	5.44
632.653	5.44
632.986	5.46
633.318	5.51
633.651	5.45
633.984	5.44
634.316	5.51
634.649	5.5
634.981	5.44
635.313	5.44
635.646	5.46
635.978	5.48
636.31	5.51
636.643	5.52
636.975	5.51
637.307	5.51
637.639	5.51
637.971	5.5
638.303	5.42
638.635	5.35
638.967	5.37
639.299	5.42
639.631	5.35
639.963	5.35
640.295	5.34
640.626	5.36
640.958	5.44
641.29	5.39
641.621	5.36
641.953	5.38
642.285	5.46
642.616	5.48
642.948	5.48
643.279	5.47
643.61	5.47
643.942	5.44
644.273	5.41
644.604	5.45
644.936	5.43
645.267	5.51
645.598	5.63
645.929	5.67
646.26	5.65
646.591	5.7
646.922	5.72
647.253	5.74
647.584	5.76
647.915	5.68
648.245	5.66
648.576	5.69
648.907	5.69
649.238	5.62
649.568	5.64
649.899	5.62
650.229	5.65
650.56	5.63
650.89	5.68
651.221	5.76
651.551	5.7
651.882	5.72
652.212	5.7
652.542	5.68
652.872	5.68
653.203	5.58
653.533	5.6
653.863	5.58
654.193	5.56
654.523	5.5
654.853	5.54
655.183	5.6
655.513	5.58
655.843	5.54
656.172	5.51
656.502	5.49
656.832	5.47
657.162	5.5
657.491	5.46
657.821	5.46
658.15	5.43
658.48	5.45
658.809	5.41
659.139	5.39
659.468	5.33
659.798	5.28
660.127	5.38
660.456	5.41
660.785	5.4
661.115	5.38
661.444	5.47
661.773	5.39
662.102	5.29
662.431	5.34
662.76	5.4
663.089	5.41
663.418	5.41
663.747	5.41
664.076	5.35
664.404	5.38
664.733	5.39
665.062	5.47
665.39	5.5
665.719	5.5
666.048	5.54
666.376	5.6
666.705	5.58
667.033	5.53
667.362	5.49
667.69	5.54
668.018	5.54
668.347	5.52
668.675	5.67
669.003	5.8
669.331	5.9
669.659	5.89
669.987	5.87
670.315	5.89
670.643	5.99
670.971	6.05
671.299	6.1
671.627	6.15
671.955	6.06
672.283	6.05
672.61	6.09
672.938	6.09
673.266	6.1
673.593	6.28
673.921	6.29
674.249	6.25
674.576	6.2
674.904	6.23
675.231	6.17
675.558	6.13
675.886	6.03
676.213	5.87
676.54	5.92
676.867	6.03
677.195	6.03
677.522	5.95
677.849	5.93
678.176	5.9
678.503	5.85
678.83	5.92
679.157	5.83
679.484	5.77
679.81	5.73
