Data from BU26940_Reflection_00009.txt Node
Date: Tue Nov 19 11:00:24 EST 2019
User: vgr7
Spectrometer: USB2G7710
Scans to average: 3
Trigger mode: 4
Integration Time (sec): 2.000000E-2
Electric dark correction enabled: true
Boxcar width: 10
XAxis mode: Wavelengths
Number of Pixels in Spectrum: 2048
>>>>>Begin Spectral Data<<<<<
177.721	214.83
178.105	-7066.67
178.488	207.43
178.871	221.79
179.254	379.17
179.636	161.59
180.019	227.98
180.402	380
180.785	62.28
181.168	77.4
181.55	86.11
181.933	115.92
182.316	217.72
182.698	107.9
183.081	85.33
183.463	56.54
183.846	107
184.228	89.72
184.611	54.61
184.993	66.11
185.376	106.94
185.758	111.52
186.14	105.24
186.522	186.39
186.904	198.89
187.287	197.99
187.669	298.72
188.051	441.5
188.433	1058.33
188.815	-1988.54
189.197	-2701.28
189.579	-457.6
189.961	-1111.31
190.342	-344.82
190.724	-262.69
191.106	-192.7
191.488	-153.94
191.869	-79.99
192.251	-102.69
192.633	-116.99
193.014	-114.98
193.396	-101.52
193.777	-72.16
194.159	-68.86
194.54	-51.71
194.922	-59.54
195.303	-61.95
195.684	-68.19
196.065	-79.41
196.447	-65.64
196.828	-27.27
197.209	-19.49
197.59	-33.51
197.971	-44.39
198.352	-52.49
198.733	-74.5
199.114	-86.95
199.495	-94.92
199.876	-146.79
200.257	-126.68
200.638	-148.12
201.018	-106.63
201.399	-101.3
201.78	-90.02
202.16	-73.85
202.541	-95.21
202.922	-79.08
203.302	-72.19
203.683	-65.11
204.063	-58.99
204.444	-70.88
204.824	-78.54
205.204	-57.41
205.585	-49.5
205.965	-54.91
206.345	-35.62
206.725	-35.19
207.106	-19.62
207.486	-8.9
207.866	-8.95
208.246	-9.53
208.626	-4.43
209.006	-3.56
209.386	-7.12
209.766	-9.6
210.145	-17.3
210.525	-15.04
210.905	-13.5
211.285	-0.28
211.664	-0.99
212.044	-8.19
212.424	-4.39
212.803	-14.38
213.183	-33.53
213.562	-39.34
213.942	-20.16
214.321	-41.84
214.701	-49.66
215.08	-61.02
215.459	-57.26
215.838	-54.54
216.218	-62.12
216.597	-52.13
216.976	-64.24
217.355	-49.5
217.734	-42.31
218.113	-30.64
218.492	-24.82
218.871	-25.1
219.25	-36.81
219.629	-43.9
220.008	-44.46
220.387	-51.5
220.766	-38.43
221.144	-24.83
221.523	-24.09
221.902	-33.23
222.28	-34.67
222.659	-25.49
223.037	-22.38
223.416	-31.57
223.794	-29.47
224.173	-27.68
224.551	-28.25
224.929	-22.94
225.308	-30.36
225.686	-29.78
226.064	-34.37
226.442	-29.7
226.821	-31.5
227.199	-26.74
227.577	-25.53
227.955	-22.61
228.333	-20.82
228.711	-19.12
229.089	-17.33
229.467	-13.15
229.845	-10.45
230.222	-1.62
230.6	-1.11
230.978	0.71
231.356	2.01
231.733	2.24
232.111	4.23
232.488	4.66
232.866	5.68
233.243	8.1
233.621	9.74
233.998	10.69
234.376	8
234.753	8.3
235.13	7.67
235.508	8.01
235.885	7.68
236.262	8.85
236.639	8.66
237.016	7.25
237.393	6.26
237.77	5.88
238.147	4
238.524	2.81
238.901	2.2
239.278	2.22
239.655	2.13
240.032	2.25
240.409	2.13
240.785	1.66
241.162	1.41
241.539	1.38
241.915	1.47
242.292	1.9
242.668	2.33
243.045	2.74
243.421	3.27
243.798	3.23
244.174	3.27
244.551	3.23
244.927	3.36
245.303	3.16
245.679	3.22
246.056	3.22
246.432	3.65
246.808	3.81
247.184	3.82
247.56	3.74
247.936	3.71
248.312	3.88
248.688	3.82
249.064	4.14
249.44	3.89
249.815	3.96
250.191	3.99
250.567	3.71
250.943	3.81
251.318	3.39
251.694	3.41
252.069	3.56
252.445	3.7
252.82	3.85
253.196	4.14
253.571	4.28
253.947	4.68
254.322	4.19
254.697	4.04
255.073	4
255.448	4.36
255.823	4.33
256.198	4.06
256.573	4.28
256.948	3.91
257.323	4.24
257.698	4.08
258.073	4.11
258.448	4.34
258.823	4.33
259.198	4.41
259.573	4.4
259.948	4.46
260.322	4.37
260.697	4.39
261.072	4.36
261.446	4.06
261.821	3.86
262.195	3.91
262.57	3.95
262.944	4.04
263.319	3.91
263.693	3.94
264.067	4.02
264.442	3.95
264.816	4.23
265.19	4.17
265.564	4.1
265.938	4.11
266.313	3.99
266.687	3.96
267.061	3.97
267.435	4.14
267.809	3.71
268.183	3.53
268.556	3.49
268.93	3.44
269.304	3.59
269.678	3.62
270.051	3.77
270.425	3.69
270.799	3.58
271.172	3.63
271.546	3.73
271.919	3.75
272.293	3.67
272.666	3.55
273.04	3.55
273.413	3.52
273.787	3.41
274.16	3.5
274.533	3.43
274.906	3.48
275.279	3.21
275.653	3.43
276.026	3.63
276.399	3.59
276.772	3.46
277.145	3.57
277.518	3.46
277.891	3.39
278.263	3.43
278.636	3.45
279.009	3.59
279.382	3.49
279.755	3.6
280.127	3.72
280.5	3.53
280.872	3.48
281.245	3.63
281.617	3.65
281.99	3.56
282.362	3.57
282.735	3.45
283.107	3.54
283.479	3.5
283.852	3.48
284.224	3.52
284.596	3.58
284.968	3.5
285.34	3.55
285.713	3.57
286.085	3.48
286.457	3.58
286.829	3.44
287.201	3.27
287.572	3.11
287.944	3.09
288.316	3.26
288.688	3.43
289.06	3.48
289.431	3.5
289.803	3.46
290.175	3.45
290.546	3.52
290.918	3.56
291.289	3.43
291.661	3.45
292.032	3.54
292.403	3.62
292.775	3.8
293.146	3.9
293.517	3.98
293.889	4.11
294.26	3.99
294.631	4.05
295.002	4.26
295.373	4.39
295.744	4.42
296.115	4.41
296.486	4.35
296.857	4.32
297.228	4.39
297.599	4.51
297.97	4.57
298.34	4.72
298.711	4.77
299.082	5.09
299.452	5.09
299.823	5.13
300.194	5.23
300.564	5.18
300.935	5.26
301.305	5.35
301.676	5.37
302.046	5.51
302.416	5.56
302.787	5.61
303.157	5.58
303.527	5.72
303.897	5.73
304.267	5.89
304.637	5.9
305.008	6.06
305.378	6.11
305.748	6.13
306.117	6.04
306.487	6.24
306.857	6.21
307.227	6.39
307.597	6.5
307.967	6.55
308.336	6.66
308.706	6.77
309.076	6.85
309.445	6.99
309.815	7.2
310.184	7.2
310.554	7.35
310.923	7.48
311.293	7.33
311.662	7.45
312.031	7.53
312.401	7.73
312.77	7.74
313.139	7.89
313.508	8.04
313.877	8.13
314.246	8.09
314.616	8.19
314.985	8.1
315.353	8.12
315.722	8.19
316.091	8.22
316.46	8.24
316.829	8.25
317.198	8.31
317.567	8.42
317.935	8.41
318.304	8.56
318.672	8.72
319.041	9.02
319.41	9.14
319.778	9.18
320.147	9.18
320.515	9.15
320.883	9.2
321.252	9.24
321.62	9.33
321.988	9.54
322.357	9.38
322.725	9.43
323.093	9.51
323.461	9.68
323.829	9.82
324.197	9.74
324.565	9.81
324.933	9.81
325.301	9.71
325.669	10
326.037	9.9
326.405	9.87
326.772	9.86
327.14	9.92
327.508	9.88
327.875	9.95
328.243	10.07
328.61	10
328.978	9.98
329.346	9.98
329.713	10.05
330.08	10.2
330.448	10.36
330.815	10.41
331.182	10.47
331.55	10.47
331.917	10.62
332.284	10.55
332.651	10.57
333.018	10.73
333.385	10.63
333.752	10.68
334.119	10.8
334.486	10.96
334.853	10.88
335.22	10.91
335.587	10.86
335.954	10.76
336.32	10.87
336.687	10.97
337.054	11.04
337.42	10.92
337.787	10.96
338.153	10.95
338.52	11.03
338.886	10.93
339.253	10.85
339.619	10.94
339.986	11.08
340.352	11.21
340.718	11.22
341.084	11.29
341.451	11.37
341.817	11.4
342.183	11.3
342.549	11.41
342.915	11.37
343.281	11.48
343.647	11.59
344.013	11.61
344.379	11.66
344.745	11.76
345.11	11.88
345.476	12.07
345.842	12.08
346.208	12.05
346.573	12.17
346.939	12.17
347.304	12.17
347.67	12.12
348.035	12.12
348.401	12.02
348.766	11.95
349.132	11.94
349.497	11.86
349.862	11.95
350.228	11.94
350.593	12.06
350.958	12.07
351.323	12.05
351.688	12.05
352.053	12.06
352.418	11.95
352.783	11.94
353.148	11.86
353.513	11.91
353.878	11.89
354.243	11.81
354.608	11.91
354.972	11.9
355.337	11.93
355.702	11.96
356.066	11.94
356.431	12.02
356.795	12.03
357.16	12.07
357.524	12.01
357.889	11.95
358.253	11.94
358.618	11.91
358.982	11.87
359.346	11.82
359.71	11.76
360.075	11.82
360.439	11.84
360.803	11.84
361.167	11.76
361.531	11.69
361.895	11.68
362.259	11.71
362.623	11.66
362.987	11.7
363.351	11.62
363.714	11.7
364.078	11.64
364.442	11.56
364.806	11.52
365.169	11.46
365.533	11.47
365.896	11.42
366.26	11.37
366.623	11.42
366.987	11.43
367.35	11.37
367.714	11.26
368.077	11.19
368.44	11.07
368.803	11.02
369.167	10.97
369.53	10.89
369.893	10.78
370.256	10.7
370.619	10.55
370.982	10.44
371.345	10.28
371.708	10.29
372.071	10.19
372.434	10.08
372.797	10
373.159	9.83
373.522	9.72
373.885	9.64
374.247	9.54
374.61	9.48
374.973	9.47
375.335	9.38
375.698	9.23
376.06	9.18
376.423	9.16
376.785	9.09
377.147	9.02
377.51	8.96
377.872	8.87
378.234	8.79
378.596	8.73
378.958	8.64
379.321	8.46
379.683	8.43
380.045	8.34
380.407	8.29
380.769	8.25
381.13	8.17
381.492	8.08
381.854	8.01
382.216	7.93
382.578	7.84
382.939	7.81
383.301	7.76
383.663	7.68
384.024	7.63
384.386	7.59
384.747	7.54
385.109	7.5
385.47	7.49
385.832	7.4
386.193	7.34
386.554	7.29
386.916	7.32
387.277	7.23
387.638	7.22
387.999	7.16
388.36	7.16
388.721	7.1
389.082	7.09
389.443	7.08
389.804	6.99
390.165	6.94
390.526	6.89
390.887	6.84
391.248	6.76
391.609	6.73
391.969	6.71
392.33	6.62
392.691	6.56
393.051	6.5
393.412	6.46
393.772	6.43
394.133	6.38
394.493	6.29
394.854	6.25
395.214	6.19
395.574	6.16
395.935	6.07
396.295	6.05
396.655	5.98
397.015	5.92
397.376	5.86
397.736	5.8
398.096	5.71
398.456	5.66
398.816	5.63
399.176	5.54
399.535	5.45
399.895	5.44
400.255	5.39
400.615	5.38
400.975	5.36
401.334	5.32
401.694	5.26
402.054	5.21
402.413	5.17
402.773	5.15
403.132	5.08
403.492	5.06
403.851	5.03
404.211	4.97
404.57	4.93
404.929	4.92
405.288	4.91
405.648	4.92
406.007	4.88
406.366	4.86
406.725	4.84
407.084	4.84
407.443	4.78
407.802	4.75
408.161	4.71
408.52	4.68
408.879	4.68
409.238	4.71
409.596	4.72
409.955	4.7
410.314	4.64
410.673	4.66
411.031	4.63
411.39	4.63
411.748	4.64
412.107	4.63
412.465	4.6
412.824	4.58
413.182	4.53
413.54	4.56
413.899	4.52
414.257	4.49
414.615	4.45
414.974	4.47
415.332	4.45
415.69	4.44
416.048	4.43
416.406	4.36
416.764	4.34
417.122	4.3
417.48	4.29
417.838	4.27
418.195	4.25
418.553	4.23
418.911	4.19
419.269	4.16
419.626	4.14
419.984	4.12
420.342	4.1
420.699	4.08
421.057	4.04
421.414	4.03
421.772	4.01
422.129	3.98
422.486	3.97
422.844	3.94
423.201	3.91
423.558	3.88
423.915	3.88
424.273	3.86
424.63	3.85
424.987	3.84
425.344	3.83
425.701	3.8
426.058	3.8
426.415	3.8
426.772	3.77
427.128	3.75
427.485	3.74
427.842	3.72
428.199	3.71
428.555	3.71
428.912	3.7
429.269	3.72
429.625	3.72
429.982	3.71
430.338	3.71
430.695	3.69
431.051	3.69
431.407	3.69
431.764	3.68
432.12	3.69
432.476	3.7
432.832	3.71
433.189	3.71
433.545	3.69
433.901	3.69
434.257	3.7
434.613	3.7
434.969	3.7
435.325	3.71
435.681	3.71
436.036	3.71
436.392	3.71
436.748	3.69
437.104	3.72
437.459	3.73
437.815	3.73
438.171	3.75
438.526	3.78
438.882	3.78
439.237	3.78
439.593	3.78
439.948	3.76
440.304	3.76
440.659	3.77
441.014	3.77
441.369	3.76
441.725	3.78
442.08	3.79
442.435	3.8
442.79	3.79
443.145	3.78
443.5	3.79
443.855	3.79
444.21	3.78
444.565	3.77
444.92	3.76
445.275	3.74
445.629	3.73
445.984	3.72
446.339	3.71
446.693	3.72
447.048	3.69
447.403	3.68
447.757	3.67
448.112	3.66
448.466	3.65
448.82	3.64
449.175	3.61
449.529	3.6
449.883	3.58
450.238	3.57
450.592	3.56
450.946	3.54
451.3	3.53
451.654	3.5
452.008	3.48
452.362	3.46
452.716	3.44
453.07	3.44
453.424	3.43
453.778	3.4
454.132	3.37
454.486	3.37
454.839	3.37
455.193	3.37
455.547	3.36
455.9	3.36
456.254	3.36
456.607	3.37
456.961	3.37
457.314	3.36
457.668	3.37
458.021	3.38
458.375	3.38
458.728	3.39
459.081	3.4
459.434	3.41
459.787	3.43
460.141	3.44
460.494	3.45
460.847	3.44
461.2	3.47
461.553	3.48
461.906	3.5
462.259	3.51
462.611	3.54
462.964	3.54
463.317	3.57
463.67	3.58
464.022	3.6
464.375	3.59
464.728	3.61
465.08	3.63
465.433	3.64
465.785	3.67
466.138	3.69
466.49	3.71
466.843	3.74
467.195	3.78
467.547	3.79
467.899	3.82
468.252	3.84
468.604	3.87
468.956	3.91
469.308	3.91
469.66	3.93
470.012	3.96
470.364	4
470.716	4.02
471.068	4.05
471.42	4.05
471.772	4.08
472.123	4.11
472.475	4.13
472.827	4.16
473.178	4.17
473.53	4.17
473.882	4.19
474.233	4.19
474.585	4.19
474.936	4.2
475.288	4.18
475.639	4.18
475.99	4.19
476.342	4.19
476.693	4.19
477.044	4.2
477.395	4.17
477.746	4.15
478.097	4.13
478.448	4.13
478.8	4.09
479.15	4.08
479.501	4.05
479.852	4.04
480.203	4.03
480.554	4.01
480.905	4.01
481.255	4
481.606	3.99
481.957	3.98
482.307	3.97
482.658	3.97
483.009	3.96
483.359	3.95
483.709	3.94
484.06	3.93
484.41	3.92
484.761	3.92
485.111	3.91
485.461	3.91
485.811	3.91
486.162	3.91
486.512	3.9
486.862	3.91
487.212	3.9
487.562	3.89
487.912	3.89
488.262	3.88
488.612	3.88
488.961	3.88
489.311	3.89
489.661	3.89
490.011	3.88
490.36	3.89
490.71	3.9
491.06	3.91
491.409	3.9
491.759	3.91
492.108	3.91
492.458	3.93
492.807	3.95
493.157	3.97
493.506	3.99
493.855	4.01
494.204	4.03
494.554	4.07
494.903	4.11
495.252	4.17
495.601	4.22
495.95	4.27
496.299	4.3
496.648	4.35
496.997	4.4
497.346	4.47
497.695	4.51
498.043	4.59
498.392	4.67
498.741	4.76
499.09	4.84
499.438	4.92
499.787	4.99
500.135	5.07
500.484	5.17
500.832	5.3
501.181	5.41
501.529	5.52
501.878	5.64
502.226	5.75
502.574	5.87
502.923	6
503.271	6.14
503.619	6.3
503.967	6.46
504.315	6.66
504.663	6.83
505.011	7
505.359	7.15
505.707	7.3
506.055	7.51
506.403	7.71
506.751	7.93
507.098	8.19
507.446	8.41
507.794	8.65
508.141	8.85
508.489	9.09
508.837	9.32
509.184	9.55
509.531	9.79
509.879	10.03
510.226	10.27
510.574	10.53
510.921	10.82
511.268	11.1
511.616	11.37
511.963	11.67
512.31	12
512.657	12.33
513.004	12.65
513.351	12.98
513.698	13.33
514.045	13.69
514.392	14.02
514.739	14.42
515.086	14.79
515.432	15.17
515.779	15.54
516.126	15.92
516.473	16.25
516.819	16.58
517.166	16.9
517.512	17.23
517.859	17.54
518.205	17.8
518.552	18.08
518.898	18.37
519.245	18.63
519.591	18.92
519.937	19.21
520.283	19.53
520.629	19.83
520.976	20.15
521.322	20.47
521.668	20.78
522.014	21.09
522.36	21.42
522.706	21.78
523.052	22.15
523.398	22.51
523.743	22.94
524.089	23.36
524.435	23.77
524.781	24.14
525.126	24.46
525.472	24.78
525.817	25.06
526.163	25.31
526.509	25.58
526.854	25.79
527.199	25.97
527.545	26.14
527.89	26.34
528.235	26.55
528.581	26.75
528.926	26.98
529.271	27.17
529.616	27.37
529.961	27.58
530.306	27.79
530.651	28
530.996	28.19
531.341	28.4
531.686	28.61
532.031	28.8
532.376	29.04
532.721	29.28
533.065	29.49
533.41	29.72
533.755	29.94
534.099	30.2
534.444	30.49
534.788	30.75
535.133	30.97
535.477	31.17
535.822	31.41
536.166	31.67
536.51	31.98
536.855	32.26
537.199	32.56
537.543	32.84
537.887	33.14
538.231	33.45
538.576	33.75
538.92	34.04
539.264	34.36
539.608	34.57
539.951	34.75
540.295	35
540.639	35.21
540.983	35.41
541.327	35.6
541.671	35.77
542.014	35.98
542.358	36.18
542.701	36.38
543.045	36.53
543.389	36.65
543.732	36.81
544.075	36.94
544.419	37.09
544.762	37.3
545.105	37.48
545.449	37.64
545.792	37.81
546.135	37.97
546.478	38.12
546.821	38.35
547.165	38.58
547.508	38.76
547.851	38.98
548.194	39.17
548.536	39.38
548.879	39.6
549.222	39.75
549.565	39.98
549.908	40.17
550.25	40.4
550.593	40.61
550.936	40.78
551.278	40.98
551.621	41.18
551.963	41.3
552.306	41.46
552.648	41.61
552.991	41.69
553.333	41.9
553.675	42.02
554.017	42.19
554.36	42.37
554.702	42.47
555.044	42.59
555.386	42.74
555.728	42.88
556.07	42.99
556.412	43.12
556.754	43.22
557.096	43.32
557.438	43.51
557.78	43.62
558.121	43.72
558.463	43.9
558.805	44
559.147	44.13
559.488	44.25
559.83	44.38
560.171	44.57
560.513	44.63
560.854	44.75
561.196	44.84
561.537	45
561.878	45.18
562.22	45.3
562.561	45.47
562.902	45.57
563.243	45.69
563.584	45.85
563.925	45.94
564.266	46.11
564.607	46.2
564.948	46.33
565.289	46.45
565.63	46.48
565.971	46.56
566.312	46.68
566.653	46.77
566.993	46.85
567.334	46.96
567.675	47.1
568.015	47.24
568.356	47.33
568.696	47.43
569.037	47.44
569.377	47.57
569.718	47.62
570.058	47.73
570.398	47.78
570.739	47.87
571.079	47.97
571.419	48.01
571.759	48.07
572.099	48.14
572.439	48.18
572.779	48.29
573.119	48.39
573.459	48.43
573.799	48.47
574.139	48.54
574.479	48.54
574.819	48.55
575.158	48.58
575.498	48.63
575.838	48.67
576.177	48.77
576.517	48.82
576.856	48.84
577.196	48.91
577.535	48.97
577.875	48.99
578.214	49.03
578.553	49.1
578.893	49.16
579.232	49.21
579.571	49.33
579.91	49.4
580.25	49.44
580.589	49.49
580.928	49.62
581.267	49.71
581.606	49.86
581.945	49.95
582.283	50.03
582.622	50.1
582.961	50.09
583.3	50.15
583.639	50.25
583.977	50.29
584.316	50.32
584.654	50.43
584.993	50.38
585.332	50.46
585.67	50.49
586.008	50.55
586.347	50.66
586.685	50.7
587.024	50.69
587.362	50.74
587.7	50.83
588.038	50.88
588.376	50.88
588.715	50.89
589.053	50.98
589.391	51.06
589.729	51.09
590.067	51.11
590.404	51.22
590.742	51.21
591.08	51.26
591.418	51.32
591.756	51.43
592.093	51.55
592.431	51.61
592.769	51.65
593.106	51.7
593.444	51.77
593.781	51.87
594.119	51.98
594.456	52.05
594.793	52.06
595.131	52.03
595.468	52.11
595.805	52.25
596.143	52.26
596.48	52.22
596.817	52.24
597.154	52.36
597.491	52.39
597.828	52.4
598.165	52.49
598.502	52.49
598.839	52.53
599.176	52.64
599.512	52.61
599.849	52.72
600.186	52.73
600.523	52.74
600.859	52.71
601.196	52.76
601.532	52.78
601.869	52.89
602.205	52.95
602.542	52.97
602.878	53
603.215	53.04
603.551	53.07
603.887	53.1
604.223	53.12
604.56	53.13
604.896	53.21
605.232	53.25
605.568	53.33
605.904	53.25
606.24	53.24
606.576	53.31
606.912	53.31
607.248	53.41
607.583	53.44
607.919	53.5
608.255	53.56
608.591	53.66
608.926	53.65
609.262	53.77
609.597	53.86
609.933	53.82
610.268	53.84
610.604	53.85
610.939	53.98
611.275	54.03
611.61	54.03
611.945	54.03
612.281	53.98
612.616	54.02
612.951	54.14
613.286	54.29
613.621	54.38
613.956	54.42
614.291	54.41
614.626	54.43
614.961	54.49
615.296	54.38
615.631	54.3
615.966	54.29
616.3	54.21
616.635	54.14
616.97	54.26
617.304	54.26
617.639	54.37
617.973	54.36
618.308	54.29
618.642	54.34
618.977	54.36
619.311	54.46
619.646	54.5
619.98	54.45
620.314	54.35
620.648	54.36
620.983	54.4
621.317	54.37
621.651	54.36
621.985	54.35
622.319	54.43
622.653	54.48
622.987	54.56
623.321	54.6
623.655	54.61
623.988	54.53
624.322	54.58
624.656	54.59
624.99	54.61
625.323	54.73
625.657	54.71
625.99	54.82
626.324	54.79
626.657	54.81
626.991	54.89
627.324	54.93
627.658	54.92
627.991	54.96
628.324	54.97
628.657	55.04
628.991	55.01
629.324	55.09
629.657	55.08
629.99	55.13
630.323	55.12
630.656	55.14
630.989	55.2
631.322	55.24
631.655	55.28
631.987	55.27
632.32	55.28
632.653	55.33
632.986	55.36
633.318	55.29
633.651	55.34
633.984	55.34
634.316	55.35
634.649	55.34
634.981	55.4
635.313	55.51
635.646	55.55
635.978	55.61
636.31	55.59
636.643	55.73
636.975	55.69
637.307	55.85
637.639	55.96
637.971	56.02
638.303	56.06
638.635	56.14
638.967	56.23
639.299	56.25
639.631	56.25
639.963	56.22
640.295	56.39
640.626	56.29
640.958	56.31
641.29	56.33
641.621	56.3
641.953	56.21
642.285	56.19
642.616	56.14
642.948	56.16
643.279	56.15
643.61	56.04
643.942	56.1
644.273	56.01
644.604	55.98
644.936	56.01
645.267	55.98
645.598	55.94
645.929	55.9
646.26	55.84
646.591	55.81
646.922	55.89
647.253	55.86
647.584	55.85
647.915	55.92
648.245	55.97
648.576	56.03
648.907	56.02
649.238	56
649.568	56.04
649.899	56.1
650.229	56.06
650.56	56.14
650.89	56.08
651.221	56.12
651.551	56.06
651.882	56.07
652.212	55.99
652.542	55.95
652.872	56.01
653.203	56.11
653.533	56.07
653.863	56.01
654.193	56.03
654.523	56.18
654.853	56.3
655.183	56.27
655.513	56.44
655.843	56.44
656.172	56.58
656.502	56.61
656.832	56.67
657.162	56.78
657.491	56.75
657.821	56.89
658.15	56.91
658.48	57.04
658.809	57.1
659.139	57.22
659.468	57.29
659.798	57.23
660.127	57.24
660.456	57.36
660.785	57.36
661.115	57.39
661.444	57.33
661.773	57.14
662.102	57.2
662.431	57.05
662.76	57.1
663.089	57.08
663.418	57.15
663.747	57.14
