Data from BU26940_Reflection_00014.txt Node
Date: Tue Nov 19 11:00:35 EST 2019
User: vgr7
Spectrometer: USB2G7710
Scans to average: 3
Trigger mode: 4
Integration Time (sec): 2.000000E-2
Electric dark correction enabled: true
Boxcar width: 10
XAxis mode: Wavelengths
Number of Pixels in Spectrum: 2048
>>>>>Begin Spectral Data<<<<<
177.721	65.22
178.105	-566.67
178.488	92.97
178.871	-16.67
179.254	54.17
179.636	74.64
180.019	-182.74
180.402	130
180.785	-227.19
181.168	-198.02
181.55	-42.09
181.933	-2.06
182.316	-12.43
182.698	-30.03
183.081	-44.95
183.463	-23.21
183.846	-64.76
184.228	-49.89
184.611	-124.25
184.993	-97.22
185.376	-131.69
185.758	-193.36
186.14	-151.9
186.522	-281.5
186.904	-421.11
187.287	-307.51
187.669	-424.36
188.051	-440.85
188.433	-864.74
188.815	886.46
189.197	1029.49
189.579	233.58
189.961	495.83
190.342	188.96
190.724	89.58
191.106	51.1
191.488	53.16
191.869	18.37
192.251	19.7
192.633	-15.54
193.014	-16.58
193.396	-29.41
193.777	-31.46
194.159	-59.46
194.54	-75.52
194.922	-93
195.303	-65.72
195.684	-79.18
196.065	-85.61
196.447	-88.18
196.828	-90.03
197.209	-98
197.59	-84.57
197.971	-77.41
198.352	-87.21
198.733	-106.45
199.114	-113.17
199.495	-131.4
199.876	-166.03
200.257	-149.62
200.638	-167.89
201.018	-112.77
201.399	-130.11
201.78	-117.7
202.16	-123.85
202.541	-129.82
202.922	-120.11
203.302	-119.94
203.683	-109.11
204.063	-105.04
204.444	-105.11
204.824	-113.38
205.204	-84.54
205.585	-85.21
205.965	-97.23
206.345	-83.24
206.725	-50.63
207.106	-35.75
207.486	-40.72
207.866	-34.56
208.246	-30.63
208.626	-32.67
209.006	-32.91
209.386	-27.64
209.766	-36.78
210.145	-27.34
210.525	-21.56
210.905	-10.19
211.285	2.11
211.664	10.91
212.044	4.69
212.424	3.23
212.803	1.68
213.183	-10.27
213.562	-12.6
213.942	-6.67
214.321	0.89
214.701	-10.9
215.08	-10.89
215.459	20.17
215.838	27.47
216.218	32.71
216.597	32.51
216.976	32.58
217.355	37.04
217.734	41.02
218.113	43.64
218.492	44.5
218.871	42.72
219.25	29.94
219.629	18.76
220.008	16.46
220.387	14.79
220.766	36.52
221.144	34.69
221.523	44.5
221.902	45.55
222.28	35.86
222.659	52.92
223.037	46.33
223.416	25.34
223.794	16.93
224.173	9.33
224.551	11.4
224.929	12.42
225.308	12.72
225.686	6.45
226.064	2.92
226.442	-1.51
226.821	-4.7
227.199	4.43
227.577	8.15
227.955	12.33
228.333	13.26
228.711	9.02
229.089	10.24
229.467	8.13
229.845	7.43
230.222	9.24
230.6	4.13
230.978	3.54
231.356	3.93
231.733	5.61
232.111	7.54
232.488	6.83
232.866	6.09
233.243	4.62
233.621	6.53
233.998	7.01
234.376	8
234.753	8.12
235.13	6.03
235.508	3.42
235.885	4.49
236.262	2.53
236.639	3.13
237.016	4.04
237.393	4.64
237.77	5.15
238.147	3.22
238.524	4.02
238.901	4.28
239.278	4.48
239.655	4.39
240.032	3.45
240.409	3.3
240.785	3.35
241.162	3.61
241.539	3.56
241.915	3.69
242.292	3.82
242.668	4.61
243.045	4.67
243.421	5.24
243.798	4.84
244.174	5.14
244.551	5.03
244.927	4.73
245.303	4.48
245.679	4.4
246.056	4.6
246.432	4.56
246.808	4.52
247.184	4.58
247.56	4.59
247.936	5
248.312	5
248.688	5.16
249.064	5.23
249.44	5.11
249.815	4.97
250.191	5.15
250.567	5.02
250.943	5.06
251.318	4.91
251.694	4.83
252.069	4.64
252.445	4.61
252.82	4.82
253.196	4.77
253.571	4.72
253.947	4.96
254.322	4.68
254.697	4.28
255.073	4.53
255.448	4.39
255.823	4.17
256.198	4.03
256.573	3.69
256.948	3.84
257.323	3.92
257.698	4.14
258.073	4.07
258.448	3.86
258.823	3.77
259.198	3.83
259.573	3.8
259.948	4.08
260.322	3.88
260.697	3.8
261.072	3.79
261.446	3.78
261.821	3.74
262.195	3.74
262.57	3.87
262.944	3.78
263.319	3.83
263.693	3.83
264.067	3.9
264.442	4.05
264.816	3.75
265.19	3.64
265.564	3.37
265.938	3.33
266.313	3.46
266.687	3.46
267.061	3.37
267.435	3.56
267.809	3.19
268.183	3.2
268.556	3.18
268.93	3.3
269.304	3.3
269.678	3.28
270.051	3.28
270.425	3.32
270.799	3.13
271.172	3.15
271.546	3.11
271.919	2.96
272.293	3.04
272.666	3.15
273.04	3.33
273.413	3.55
273.787	3.5
274.16	3.45
274.533	3.57
274.906	3.68
275.279	3.62
275.653	3.74
276.026	3.94
276.399	3.98
276.772	3.99
277.145	4.17
277.518	4
277.891	4.12
278.263	4.27
278.636	4.39
279.009	4.35
279.382	4.44
279.755	4.59
280.127	4.5
280.5	4.48
280.872	4.41
281.245	4.23
281.617	4.16
281.99	4.14
282.362	4.02
282.735	3.91
283.107	3.77
283.479	3.66
283.852	3.56
284.224	3.59
284.596	3.48
284.968	3.37
285.34	3.54
285.713	3.63
286.085	3.49
286.457	3.42
286.829	3.52
287.201	3.51
287.572	3.55
287.944	3.53
288.316	3.61
288.688	3.6
289.06	3.76
289.431	3.9
289.803	3.94
290.175	3.9
290.546	3.95
290.918	4.15
291.289	4.22
291.661	4.43
292.032	4.49
292.403	4.68
292.775	4.76
293.146	4.84
293.517	4.8
293.889	4.78
294.26	4.98
294.631	4.9
295.002	5.07
295.373	5.14
295.744	5.29
296.115	5.4
296.486	5.51
296.857	5.42
297.228	5.32
297.599	5.44
297.97	5.6
298.34	5.72
298.711	5.73
299.082	5.9
299.452	5.89
299.823	6.01
300.194	6.14
300.564	6.17
300.935	6.12
301.305	6.3
301.676	6.41
302.046	6.45
302.416	6.52
302.787	6.41
303.157	6.61
303.527	6.76
303.897	6.88
304.267	6.91
304.637	7.07
305.008	7.28
305.378	7.24
305.748	7.27
306.117	7.3
306.487	7.41
306.857	7.3
307.227	7.46
307.597	7.48
307.967	7.48
308.336	7.63
308.706	7.63
309.076	7.62
309.445	7.78
309.815	7.96
310.184	8.1
310.554	8.21
310.923	8.05
311.293	8.12
311.662	8.15
312.031	8.21
312.401	8.36
312.77	8.32
313.139	8.48
313.508	8.58
313.877	8.67
314.246	8.76
314.616	8.91
314.985	8.93
315.353	9.05
315.722	9.12
316.091	9.15
316.46	9.38
316.829	9.42
317.198	9.58
317.567	9.59
317.935	9.79
318.304	9.88
318.672	10.17
319.041	10.17
319.41	10.15
319.778	10.22
320.147	10.25
320.515	10.43
320.883	10.34
321.252	10.42
321.62	10.53
321.988	10.6
322.357	10.52
322.725	10.58
323.093	10.57
323.461	10.64
323.829	10.64
324.197	10.72
324.565	10.78
324.933	10.7
325.301	10.54
325.669	10.46
326.037	10.51
326.405	10.5
326.772	10.63
327.14	10.82
327.508	10.82
327.875	10.76
328.243	10.8
328.61	10.96
328.978	11.04
329.346	10.99
329.713	10.99
330.08	11.22
330.448	11.17
330.815	11.24
331.182	11.24
331.55	11.31
331.917	11.28
332.284	11.33
332.651	11.33
333.018	11.53
333.385	11.68
333.752	11.87
334.119	11.92
334.486	11.85
334.853	11.77
335.22	11.88
335.587	11.94
335.954	11.9
336.32	11.96
336.687	12
337.054	12.13
337.42	12.06
337.787	12.04
338.153	12.18
338.52	12.25
338.886	12.34
339.253	12.34
339.619	12.42
339.986	12.45
340.352	12.55
340.718	12.5
341.084	12.51
341.451	12.34
341.817	12.31
342.183	12.37
342.549	12.37
342.915	12.35
343.281	12.43
343.647	12.51
344.013	12.51
344.379	12.51
344.745	12.41
345.11	12.65
345.476	12.72
345.842	12.71
346.208	12.74
346.573	12.68
346.939	12.79
347.304	12.84
347.67	12.81
348.035	12.84
348.401	12.95
348.766	12.95
349.132	12.96
349.497	13
349.862	12.91
350.228	12.86
350.593	12.81
350.958	12.94
351.323	12.88
351.688	12.89
352.053	12.91
352.418	12.95
352.783	12.77
353.148	12.75
353.513	12.73
353.878	12.73
354.243	12.67
354.608	12.61
354.972	12.53
355.337	12.56
355.702	12.55
356.066	12.47
356.431	12.48
356.795	12.49
357.16	12.46
357.524	12.49
357.889	12.45
358.253	12.47
358.618	12.37
358.982	12.34
359.346	12.24
359.71	12.17
360.075	12.2
360.439	12.19
360.803	12.16
361.167	12.04
361.531	12.01
361.895	12.03
362.259	12.04
362.623	12.01
362.987	11.95
363.351	11.89
363.714	11.85
364.078	11.75
364.442	11.68
364.806	11.67
365.169	11.63
365.533	11.6
365.896	11.63
366.26	11.5
366.623	11.5
366.987	11.47
367.35	11.38
367.714	11.23
368.077	11.23
368.44	11.16
368.803	11.11
369.167	11.02
369.53	10.9
369.893	10.82
370.256	10.79
370.619	10.73
370.982	10.59
371.345	10.53
371.708	10.48
372.071	10.44
372.434	10.27
372.797	10.2
373.159	10.11
373.522	10
373.885	9.96
374.247	9.81
374.61	9.75
374.973	9.68
375.335	9.63
375.698	9.42
376.06	9.29
376.423	9.23
376.785	9.15
377.147	9.07
377.51	8.96
377.872	8.84
378.234	8.72
378.596	8.65
378.958	8.51
379.321	8.38
379.683	8.34
380.045	8.34
380.407	8.17
380.769	8.09
381.13	7.98
381.492	7.88
381.854	7.87
382.216	7.78
382.578	7.68
382.939	7.62
383.301	7.63
383.663	7.58
384.024	7.53
384.386	7.41
384.747	7.39
385.109	7.32
385.47	7.24
385.832	7.2
386.193	7.2
386.554	7.16
386.916	7.09
387.277	6.96
387.638	6.87
387.999	6.88
388.36	6.85
388.721	6.79
389.082	6.78
389.443	6.75
389.804	6.74
390.165	6.74
390.526	6.64
390.887	6.55
391.248	6.55
391.609	6.5
391.969	6.49
392.33	6.42
392.691	6.36
393.051	6.33
393.412	6.26
393.772	6.21
394.133	6.16
394.493	6.13
394.854	6.12
395.214	6.06
395.574	6.02
395.935	5.98
396.295	5.91
396.655	5.79
397.015	5.67
397.376	5.58
397.736	5.49
398.096	5.45
398.456	5.42
398.816	5.31
399.176	5.22
399.535	5.14
399.895	5.13
400.255	5.12
400.615	5.08
400.975	5.06
401.334	4.99
401.694	4.97
402.054	4.94
402.413	4.88
402.773	4.88
403.132	4.83
403.492	4.8
403.851	4.78
404.211	4.81
404.57	4.8
404.929	4.78
405.288	4.74
405.648	4.72
406.007	4.69
406.366	4.69
406.725	4.71
407.084	4.7
407.443	4.65
407.802	4.6
408.161	4.57
408.52	4.54
408.879	4.54
409.238	4.52
409.596	4.51
409.955	4.53
410.314	4.51
410.673	4.46
411.031	4.44
411.39	4.39
411.748	4.38
412.107	4.35
412.465	4.34
412.824	4.36
413.182	4.34
413.54	4.33
413.899	4.31
414.257	4.27
414.615	4.25
414.974	4.23
415.332	4.22
415.69	4.19
416.048	4.18
416.406	4.14
416.764	4.11
417.122	4.07
417.48	4.05
417.838	4.03
418.195	4
418.553	3.98
418.911	3.96
419.269	3.94
419.626	3.92
419.984	3.88
420.342	3.87
420.699	3.86
421.057	3.84
421.414	3.82
421.772	3.81
422.129	3.79
422.486	3.78
422.844	3.76
423.201	3.76
423.558	3.74
423.915	3.73
424.273	3.73
424.63	3.72
424.987	3.7
425.344	3.69
425.701	3.68
426.058	3.67
426.415	3.65
426.772	3.63
427.128	3.62
427.485	3.64
427.842	3.62
428.199	3.6
428.555	3.59
428.912	3.59
429.269	3.59
429.625	3.59
429.982	3.57
430.338	3.57
430.695	3.55
431.051	3.54
431.407	3.53
431.764	3.51
432.12	3.5
432.476	3.52
432.832	3.52
433.189	3.52
433.545	3.54
433.901	3.57
434.257	3.56
434.613	3.57
434.969	3.56
435.325	3.54
435.681	3.56
436.036	3.56
436.392	3.54
436.748	3.54
437.104	3.54
437.459	3.54
437.815	3.55
438.171	3.56
438.526	3.56
438.882	3.56
439.237	3.56
439.593	3.57
439.948	3.56
440.304	3.57
440.659	3.58
441.014	3.56
441.369	3.55
441.725	3.55
442.08	3.54
442.435	3.53
442.79	3.51
443.145	3.49
443.5	3.48
443.855	3.48
444.21	3.47
444.565	3.46
444.92	3.44
445.275	3.42
445.629	3.43
445.984	3.43
446.339	3.41
446.693	3.42
447.048	3.38
447.403	3.38
447.757	3.34
448.112	3.33
448.466	3.32
448.82	3.31
449.175	3.29
449.529	3.3
449.883	3.29
450.238	3.29
450.592	3.28
450.946	3.26
451.3	3.26
451.654	3.23
452.008	3.24
452.362	3.25
452.716	3.23
453.07	3.22
453.424	3.21
453.778	3.21
454.132	3.18
454.486	3.2
454.839	3.18
455.193	3.19
455.547	3.21
455.9	3.2
456.254	3.21
456.607	3.21
456.961	3.21
457.314	3.22
457.668	3.21
458.021	3.21
458.375	3.21
458.728	3.2
459.081	3.22
459.434	3.22
459.787	3.22
460.141	3.25
460.494	3.24
460.847	3.25
461.2	3.24
461.553	3.28
461.906	3.29
462.259	3.3
462.611	3.32
462.964	3.31
463.317	3.31
463.67	3.34
464.022	3.37
464.375	3.37
464.728	3.37
465.08	3.41
465.433	3.44
465.785	3.46
466.138	3.49
466.49	3.5
466.843	3.52
467.195	3.55
467.547	3.55
467.899	3.56
468.252	3.56
468.604	3.6
468.956	3.6
469.308	3.57
469.66	3.62
470.012	3.65
470.364	3.67
470.716	3.71
471.068	3.72
471.42	3.72
471.772	3.74
472.123	3.78
472.475	3.79
472.827	3.8
473.178	3.82
473.53	3.82
473.882	3.82
474.233	3.82
474.585	3.82
474.936	3.84
475.288	3.84
475.639	3.85
475.99	3.86
476.342	3.84
476.693	3.86
477.044	3.82
477.395	3.81
477.746	3.79
478.097	3.76
478.448	3.74
478.8	3.73
479.15	3.7
479.501	3.68
479.852	3.67
480.203	3.66
480.554	3.65
480.905	3.66
481.255	3.67
481.606	3.66
481.957	3.66
482.307	3.63
482.658	3.64
483.009	3.63
483.359	3.62
483.709	3.63
484.06	3.62
484.41	3.63
484.761	3.62
485.111	3.63
485.461	3.63
485.811	3.62
486.162	3.62
486.512	3.62
486.862	3.62
487.212	3.62
487.562	3.62
487.912	3.61
488.262	3.6
488.612	3.61
488.961	3.61
489.311	3.61
489.661	3.62
490.011	3.61
490.36	3.61
490.71	3.61
491.06	3.62
491.409	3.63
491.759	3.63
492.108	3.64
492.458	3.64
492.807	3.66
493.157	3.69
493.506	3.7
493.855	3.73
494.204	3.76
494.554	3.77
494.903	3.81
495.252	3.84
495.601	3.86
495.95	3.87
496.299	3.92
496.648	3.96
496.997	4
497.346	4.06
497.695	4.13
498.043	4.17
498.392	4.22
498.741	4.26
499.09	4.33
499.438	4.4
499.787	4.46
500.135	4.54
500.484	4.57
500.832	4.67
501.181	4.77
501.529	4.85
501.878	4.95
502.226	5.05
502.574	5.15
502.923	5.26
503.271	5.39
503.619	5.51
503.967	5.61
504.315	5.74
504.663	5.86
505.011	6
505.359	6.15
505.707	6.28
506.055	6.45
506.403	6.59
506.751	6.73
507.098	6.9
507.446	7.05
507.794	7.25
508.141	7.41
508.489	7.58
508.837	7.73
509.184	7.92
509.531	8.1
509.879	8.31
510.226	8.51
510.574	8.72
510.921	8.94
511.268	9.16
511.616	9.41
511.963	9.65
512.31	9.92
512.657	10.19
513.004	10.45
513.351	10.76
513.698	11.09
514.045	11.42
514.392	11.76
514.739	12.09
515.086	12.42
515.432	12.76
515.779	13.13
516.126	13.49
516.473	13.82
516.819	14.15
517.166	14.45
517.512	14.75
517.859	15.04
518.205	15.29
518.552	15.62
518.898	15.89
519.245	16.2
519.591	16.47
519.937	16.79
520.283	17.11
520.629	17.42
520.976	17.75
521.322	18.08
521.668	18.41
522.014	18.77
522.36	19.14
522.706	19.53
523.052	19.91
523.398	20.35
523.743	20.8
524.089	21.26
524.435	21.67
524.781	22.07
525.126	22.44
525.472	22.8
525.817	23.09
526.163	23.41
526.509	23.67
526.854	23.92
527.199	24.13
527.545	24.36
527.89	24.59
528.235	24.82
528.581	25.04
528.926	25.25
529.271	25.49
529.616	25.72
529.961	25.93
530.306	26.17
530.651	26.39
530.996	26.61
531.341	26.84
531.686	27.07
532.031	27.32
532.376	27.57
532.721	27.83
533.065	28.09
533.41	28.33
533.755	28.59
534.099	28.88
534.444	29.19
534.788	29.45
535.133	29.7
535.477	29.95
535.822	30.25
536.166	30.56
536.51	30.84
536.855	31.17
537.199	31.48
537.543	31.8
537.887	32.12
538.231	32.42
538.576	32.76
538.92	33.08
539.264	33.39
539.608	33.68
539.951	33.93
540.295	34.15
540.639	34.43
540.983	34.66
541.327	34.88
541.671	35.08
542.014	35.3
542.358	35.51
542.701	35.7
543.045	35.88
543.389	36.06
543.732	36.26
544.075	36.43
544.419	36.63
544.762	36.85
545.105	37.09
545.449	37.31
545.792	37.52
546.135	37.74
546.478	37.98
546.821	38.21
547.165	38.49
547.508	38.75
547.851	38.97
548.194	39.21
548.536	39.44
548.879	39.68
549.222	39.92
549.565	40.16
549.908	40.41
550.25	40.71
550.593	40.89
550.936	41.15
551.278	41.4
551.621	41.63
551.963	41.79
552.306	42.03
552.648	42.28
552.991	42.43
553.333	42.63
553.675	42.82
554.017	43.02
554.36	43.17
554.702	43.33
555.044	43.54
555.386	43.71
555.728	43.89
556.07	44.08
556.412	44.2
556.754	44.41
557.096	44.56
557.438	44.72
557.78	44.93
558.121	45.06
558.463	45.25
558.805	45.42
559.147	45.64
559.488	45.72
559.83	45.86
560.171	46.02
560.513	46.11
560.854	46.2
561.196	46.36
561.537	46.55
561.878	46.71
562.22	46.82
562.561	46.98
562.902	47.13
563.243	47.25
563.584	47.44
563.925	47.54
564.266	47.68
564.607	47.78
564.948	47.85
565.289	47.98
565.63	48.02
565.971	48.14
566.312	48.22
566.653	48.33
566.993	48.46
567.334	48.57
567.675	48.78
568.015	48.89
568.356	48.95
568.696	49.02
569.037	49.15
569.377	49.25
569.718	49.34
570.058	49.37
570.398	49.47
570.739	49.51
571.079	49.64
571.419	49.69
571.759	49.78
572.099	49.94
572.439	50.01
572.779	50.1
573.119	50.19
573.459	50.28
573.799	50.37
574.139	50.43
574.479	50.49
574.819	50.5
575.158	50.59
575.498	50.7
575.838	50.77
576.177	50.79
576.517	50.85
576.856	50.89
577.196	51.01
577.535	51.06
577.875	51.19
578.214	51.2
578.553	51.33
578.893	51.4
579.232	51.47
579.571	51.59
579.91	51.69
580.25	51.74
580.589	51.74
580.928	51.82
581.267	51.93
581.606	52.06
581.945	52.1
582.283	52.18
582.622	52.17
582.961	52.25
583.3	52.26
583.639	52.35
583.977	52.41
584.316	52.46
584.654	52.56
584.993	52.64
585.332	52.73
585.67	52.82
586.008	52.75
586.347	52.82
586.685	52.93
587.024	52.94
587.362	53.02
587.7	53.15
588.038	53.21
588.376	53.23
588.715	53.26
589.053	53.4
589.391	53.55
589.729	53.7
590.067	53.68
590.404	53.73
590.742	53.77
591.08	53.82
591.418	53.84
591.756	53.92
592.093	53.92
592.431	53.93
592.769	53.94
593.106	54.07
593.444	54.12
593.781	54.14
594.119	54.22
594.456	54.28
594.793	54.3
595.131	54.27
595.468	54.28
595.805	54.34
596.143	54.39
596.48	54.31
596.817	54.21
597.154	54.32
597.491	54.46
597.828	54.47
598.165	54.52
598.502	54.55
598.839	54.58
599.176	54.66
599.512	54.65
599.849	54.68
600.186	54.79
600.523	54.82
600.859	54.84
601.196	54.89
601.532	54.98
601.869	55.03
602.205	55.11
602.542	55.13
602.878	55.21
603.215	55.21
603.551	55.26
603.887	55.29
604.223	55.36
604.56	55.38
604.896	55.49
605.232	55.59
605.568	55.68
605.904	55.66
606.24	55.71
606.576	55.85
606.912	55.92
607.248	55.89
607.583	55.98
607.919	56
608.255	56.05
608.591	56.05
608.926	56.07
609.262	56.17
609.597	56.27
609.933	56.27
610.268	56.31
610.604	56.31
610.939	56.48
611.275	56.46
611.61	56.44
611.945	56.47
612.281	56.37
612.616	56.35
612.951	56.38
613.286	56.36
613.621	56.38
613.956	56.37
614.291	56.51
614.626	56.46
614.961	56.5
615.296	56.56
615.631	56.63
615.966	56.6
616.3	56.58
616.635	56.61
616.97	56.64
617.304	56.63
617.639	56.79
617.973	56.76
618.308	56.77
618.642	56.85
618.977	56.74
619.311	56.79
619.646	56.77
619.98	56.8
620.314	56.82
620.648	56.77
620.983	56.8
621.317	56.7
621.651	56.78
621.985	56.81
622.319	56.77
622.653	56.68
622.987	56.73
623.321	56.77
623.655	56.7
623.988	56.71
624.322	56.64
624.656	56.58
624.99	56.66
625.323	56.7
625.657	56.65
625.99	56.75
626.324	56.79
626.657	56.88
626.991	56.87
627.324	56.92
627.658	57.03
627.991	57.05
628.324	57.05
628.657	57.02
628.991	57.04
629.324	57.11
629.657	57.17
629.99	57.27
630.323	57.25
630.656	57.25
630.989	57.25
631.322	57.41
631.655	57.55
631.987	57.49
632.32	57.51
632.653	57.53
632.986	57.59
633.318	57.62
633.651	57.66
633.984	57.7
634.316	57.6
634.649	57.54
634.981	57.51
635.313	57.61
635.646	57.64
635.978	57.68
636.31	57.64
636.643	57.69
636.975	57.67
637.307	57.76
637.639	57.88
637.971	57.91
638.303	57.89
638.635	57.83
638.967	57.98
639.299	57.91
639.631	57.94
639.963	57.84
640.295	57.85
640.626	57.76
640.958	57.81
641.29	57.96
641.621	57.98
641.953	58.06
642.285	58.05
642.616	58.04
642.948	57.98
643.279	58
643.61	58.01
643.942	58.01
644.273	58
644.604	58
644.936	58.09
645.267	58.22
645.598	58.36
645.929	58.16
646.26	58.29
646.591	58.34
646.922	58.41
647.253	58.53
647.584	58.62
647.915	58.62
648.245	58.64
648.576	58.69
648.907	58.67
649.238	58.63
649.568	58.74
649.899	58.72
650.229	58.7
650.56	58.78
650.89	58.76
651.221	58.8
651.551	58.74
651.882	58.76
652.212	58.62
652.542	58.53
652.872	58.77
653.203	58.71
653.533	58.71
653.863	58.71
654.193	58.55
654.523	58.47
654.853	58.61
655.183	58.57
655.513	58.63
655.843	58.59
656.172	58.8
656.502	58.81
656.832	58.92
657.162	58.96
657.491	58.87
657.821	58.91
658.15	58.91
658.48	58.96
658.809	58.86
659.139	58.95
659.468	58.92
659.798	58.86
660.127	58.99
660.456	59.05
660.785	59.15
661.115	59.21
661.444	59.26
661.773	59.1
662.102	59.06
662.431	58.95
662.76	59.06
663.089	58.99
663.418	58.97
663.747	58.91
