Data from BU26942_Reflection_00005.txt Node
Date: Mon Nov 18 16:50:35 EST 2019
User: vgr7
Spectrometer: USB2G7710
Scans to average: 3
Trigger mode: 4
Integration Time (sec): 2.000000E-2
Electric dark correction enabled: true
Boxcar width: 10
XAxis mode: Wavelengths
Number of Pixels in Spectrum: 2048
>>>>>Begin Spectral Data<<<<<
177.721	55.79
178.105	70.82
178.488	692.42
178.871	388.73
179.254	-47.93
179.636	1753.85
180.019	-815.49
180.402	178.26
180.785	-18.74
181.168	-172.28
181.55	-141.97
181.933	326.97
182.316	355.38
182.698	170.9
183.081	322.64
183.463	6484.62
183.846	124.55
184.228	142.71
184.611	662.26
184.993	981.66
185.376	-339.86
185.758	-403.97
186.14	-385.31
186.522	305100
186.904	1731.02
187.287	1555.6
187.669	-2106.7
188.051	-1193.95
188.433	-1025.33
188.815	-2427.95
189.197	-598.38
189.579	-244.65
189.961	-231.42
190.342	-252.72
190.724	-256.06
191.106	-403.09
191.488	-625.4
191.869	-221.79
192.251	-183.52
192.633	-163.08
193.014	-100.98
193.396	-130.87
193.777	-81.63
194.159	-87.77
194.54	-63.66
194.922	-46.9
195.303	-28.12
195.684	-7.99
196.065	-3.67
196.447	-1.01
196.828	-11
197.209	-39.18
197.59	-39.21
197.971	-63.1
198.352	-71.08
198.733	-75.78
199.114	-85.93
199.495	-76.13
199.876	-66.39
200.257	-77.66
200.638	-58.88
201.018	-98.18
201.399	-77.51
201.78	-85.79
202.16	-63.53
202.541	-95.53
202.922	-159.99
203.302	-180.83
203.683	-188
204.063	-291.76
204.444	-416.84
204.824	-289.52
205.204	-233.99
205.585	-285.32
205.965	-365.66
206.345	-353.45
206.725	-870.25
207.106	-469.64
207.486	-602.09
207.866	-416.75
208.246	-321.28
208.626	-432.74
209.006	-326.24
209.386	-279.78
209.766	-278.71
210.145	-325.98
210.525	-282.78
210.905	-279.78
211.285	-226.27
211.664	-198.26
212.044	-182.38
212.424	-136.47
212.803	-135.39
213.183	-134.61
213.562	-105.7
213.942	-76.81
214.321	-71.23
214.701	-76.87
215.08	-82.48
215.459	-78.89
215.838	-79.28
216.218	-99.79
216.597	-56.63
216.976	-54.96
217.355	-67.4
217.734	-80.99
218.113	-69.09
218.492	-69.47
218.871	-71.88
219.25	-61.59
219.629	-56.86
220.008	-53.35
220.387	-48.59
220.766	-51.71
221.144	-55.1
221.523	-64.43
221.902	-89.62
222.28	-98.27
222.659	-61.99
223.037	-44.15
223.416	-45.32
223.794	-48.06
224.173	-48.28
224.551	-46.51
224.929	-49.29
225.308	-37.98
225.686	-30.86
226.064	-28.21
226.442	-29.27
226.821	-25.97
227.199	-29.42
227.577	-27.07
227.955	-23.99
228.333	-22.76
228.711	-19.06
229.089	-14.63
229.467	-14.8
229.845	-14.57
230.222	-13.22
230.6	-13.21
230.978	-13.84
231.356	-10.79
231.733	-8.67
232.111	-5.04
232.488	-2.92
232.866	-1.37
233.243	-2.28
233.621	-1.5
233.998	-1.24
234.376	-1.19
234.753	-0.3
235.13	0.45
235.508	1.07
235.885	0.19
236.262	-1.47
236.639	0.53
237.016	0.49
237.393	1.57
237.77	2.85
238.147	2.47
238.524	3.15
238.901	3.72
239.278	3.46
239.655	4.22
240.032	3.61
240.409	2.91
240.785	2.74
241.162	3.37
241.539	3.32
241.915	3.64
242.292	3.03
242.668	3.08
243.045	3.49
243.421	3.5
243.798	3.68
244.174	3.74
244.551	3.39
244.927	3.41
245.303	3.49
245.679	3.41
246.056	3.6
246.432	3.49
246.808	3.55
247.184	3.67
247.56	3.41
247.936	3.54
248.312	3.76
248.688	3.95
249.064	3.87
249.44	3.72
249.815	3.79
250.191	4.11
250.567	4.17
250.943	4.16
251.318	4.25
251.694	4.24
252.069	4.29
252.445	4.35
252.82	4.33
253.196	4.41
253.571	4.54
253.947	4.58
254.322	4.61
254.697	4.31
255.073	4.42
255.448	4.24
255.823	4.31
256.198	4.13
256.573	4.12
256.948	4.33
257.323	4.48
257.698	4.5
258.073	4.34
258.448	4.27
258.823	4.25
259.198	4
259.573	3.98
259.948	3.98
260.322	4.14
260.697	4.14
261.072	3.91
261.446	3.96
261.821	4.09
262.195	4.27
262.57	4.43
262.944	4.35
263.319	4.26
263.693	4.13
264.067	4.39
264.442	4.37
264.816	4.31
265.19	4.19
265.564	3.93
265.938	3.92
266.313	3.88
266.687	3.8
267.061	4.07
267.435	4.18
267.809	4.07
268.183	3.91
268.556	4.01
268.93	4.24
269.304	4.06
269.678	3.97
270.051	3.89
270.425	3.8
270.799	3.8
271.172	3.98
271.546	3.92
271.919	3.62
272.293	3.8
272.666	3.85
273.04	3.97
273.413	4.06
273.787	4.19
274.16	4.09
274.533	4.06
274.906	3.87
275.279	3.74
275.653	3.89
276.026	3.76
276.399	3.64
276.772	3.66
277.145	3.66
277.518	3.62
277.891	3.49
278.263	3.5
278.636	3.45
279.009	3.51
279.382	3.69
279.755	3.88
280.127	3.82
280.5	3.83
280.872	3.73
281.245	3.67
281.617	3.75
281.99	3.97
282.362	4.04
282.735	4.16
283.107	4.07
283.479	4.07
283.852	4.25
284.224	4.34
284.596	4.23
284.968	4.14
285.34	4.23
285.713	4.26
286.085	4.33
286.457	4.31
286.829	4.26
287.201	4.29
287.572	4.27
287.944	4.26
288.316	4.18
288.688	4.21
289.06	4.18
289.431	4.15
289.803	4.14
290.175	4.15
290.546	4.23
290.918	4.56
291.289	4.54
291.661	4.42
292.032	4.53
292.403	4.55
292.775	4.63
293.146	4.54
293.517	4.58
293.889	4.54
294.26	4.67
294.631	4.78
295.002	4.78
295.373	4.86
295.744	4.75
296.115	4.76
296.486	4.73
296.857	4.89
297.228	4.86
297.599	4.76
297.97	4.68
298.34	4.67
298.711	4.54
299.082	4.52
299.452	4.61
299.823	4.52
300.194	4.54
300.564	4.58
300.935	4.62
301.305	4.57
301.676	4.64
302.046	4.64
302.416	4.48
302.787	4.35
303.157	4.17
303.527	4.22
303.897	4.21
304.267	4.16
304.637	4.16
305.008	4.2
305.378	4.29
305.748	4.38
306.117	4.28
306.487	4.3
306.857	4.36
307.227	4.42
307.597	4.39
307.967	4.41
308.336	4.42
308.706	4.41
309.076	4.47
309.445	4.42
309.815	4.26
310.184	4.26
310.554	4.44
310.923	4.49
311.293	4.43
311.662	4.43
312.031	4.43
312.401	4.22
312.77	4.14
313.139	4.21
313.508	4.2
313.877	4.25
314.246	4.31
314.616	4.2
314.985	4.07
315.353	4.01
315.722	4.01
316.091	3.95
316.46	3.82
316.829	3.8
317.198	3.78
317.567	3.78
317.935	3.89
318.304	3.85
318.672	3.79
319.041	3.88
319.41	3.8
319.778	3.91
320.147	4.11
320.515	4.01
320.883	3.92
321.252	3.88
321.62	3.85
321.988	3.72
322.357	3.69
322.725	3.71
323.093	3.77
323.461	3.76
323.829	3.85
324.197	3.97
324.565	3.92
324.933	4.12
325.301	4.22
325.669	4.17
326.037	4.15
326.405	4.17
326.772	4.2
327.14	4.3
327.508	4.24
327.875	4.18
328.243	4.4
328.61	4.35
328.978	4.36
329.346	4.43
329.713	4.34
330.08	4.32
330.448	4.35
330.815	4.18
331.182	4.17
331.55	4.07
331.917	4.12
332.284	4.18
332.651	3.97
333.018	3.9
333.385	3.83
333.752	3.84
334.119	3.81
334.486	3.74
334.853	3.68
335.22	3.79
335.587	3.87
335.954	3.72
336.32	3.7
336.687	3.8
337.054	3.73
337.42	3.8
337.787	3.83
338.153	3.89
338.52	4.04
338.886	4.04
339.253	4.03
339.619	4.02
339.986	4.04
340.352	4.08
340.718	4.13
341.084	4.09
341.451	4.11
341.817	4.27
342.183	4.31
342.549	4.31
342.915	4.31
343.281	4.16
343.647	4.14
344.013	4.19
344.379	4.07
344.745	4.12
345.11	4.14
345.476	4.22
345.842	4.08
346.208	4.01
346.573	4.07
346.939	4.14
347.304	4.1
347.67	3.97
348.035	4.02
348.401	4.07
348.766	4.2
349.132	4.14
349.497	4.01
349.862	4
350.228	4
350.593	3.94
350.958	4.11
351.323	4.17
351.688	4.18
352.053	4.24
352.418	4.23
352.783	4.23
353.148	4.24
353.513	4.32
353.878	4.41
354.243	4.35
354.608	4.41
354.972	4.37
355.337	4.44
355.702	4.48
356.066	4.51
356.431	4.49
356.795	4.55
357.16	4.6
357.524	4.56
357.889	4.53
358.253	4.56
358.618	4.54
358.982	4.5
359.346	4.44
359.71	4.5
360.075	4.48
360.439	4.49
360.803	4.46
361.167	4.4
361.531	4.38
361.895	4.42
362.259	4.34
362.623	4.42
362.987	4.44
363.351	4.41
363.714	4.38
364.078	4.37
364.442	4.29
364.806	4.29
365.169	4.32
365.533	4.3
365.896	4.29
366.26	4.23
366.623	4.28
366.987	4.27
367.35	4.17
367.714	4.18
368.077	4.17
368.44	4.2
368.803	4.26
369.167	4.22
369.53	4.17
369.893	4.2
370.256	4.2
370.619	4.2
370.982	4.17
371.345	4.11
371.708	4.13
372.071	4.17
372.434	4.12
372.797	4.14
373.159	4.21
373.522	4.29
373.885	4.3
374.247	4.26
374.61	4.31
374.973	4.38
375.335	4.38
375.698	4.4
376.06	4.43
376.423	4.42
376.785	4.51
377.147	4.52
377.51	4.55
377.872	4.55
378.234	4.56
378.596	4.55
378.958	4.57
379.321	4.56
379.683	4.54
380.045	4.59
380.407	4.59
380.769	4.63
381.13	4.61
381.492	4.62
381.854	4.72
382.216	4.7
382.578	4.64
382.939	4.62
383.301	4.66
383.663	4.68
384.024	4.66
384.386	4.65
384.747	4.69
385.109	4.7
385.47	4.68
385.832	4.62
386.193	4.62
386.554	4.6
386.916	4.66
387.277	4.68
387.638	4.66
387.999	4.63
388.36	4.59
388.721	4.58
389.082	4.58
389.443	4.53
389.804	4.55
390.165	4.53
390.526	4.54
390.887	4.51
391.248	4.5
391.609	4.48
391.969	4.47
392.33	4.43
392.691	4.41
393.051	4.4
393.412	4.43
393.772	4.43
394.133	4.48
394.493	4.42
394.854	4.44
395.214	4.4
395.574	4.42
395.935	4.44
396.295	4.46
396.655	4.46
397.015	4.44
397.376	4.45
397.736	4.48
398.096	4.51
398.456	4.53
398.816	4.52
399.176	4.53
399.535	4.53
399.895	4.51
400.255	4.5
400.615	4.52
400.975	4.51
401.334	4.53
401.694	4.46
402.054	4.46
402.413	4.45
402.773	4.47
403.132	4.43
403.492	4.4
403.851	4.38
404.211	4.39
404.57	4.41
404.929	4.4
405.288	4.38
405.648	4.35
406.007	4.36
406.366	4.36
406.725	4.36
407.084	4.38
407.443	4.38
407.802	4.38
408.161	4.36
408.52	4.37
408.879	4.37
409.238	4.44
409.596	4.47
409.955	4.45
410.314	4.49
410.673	4.51
411.031	4.55
411.39	4.55
411.748	4.53
412.107	4.53
412.465	4.52
412.824	4.55
413.182	4.53
413.54	4.52
413.899	4.51
414.257	4.54
414.615	4.53
414.974	4.53
415.332	4.53
415.69	4.53
416.048	4.55
416.406	4.56
416.764	4.54
417.122	4.52
417.48	4.53
417.838	4.52
418.195	4.53
418.553	4.51
418.911	4.51
419.269	4.52
419.626	4.53
419.984	4.52
420.342	4.53
420.699	4.55
421.057	4.56
421.414	4.57
421.772	4.56
422.129	4.56
422.486	4.58
422.844	4.58
423.201	4.58
423.558	4.57
423.915	4.58
424.273	4.59
424.63	4.59
424.987	4.58
425.344	4.57
425.701	4.58
426.058	4.59
426.415	4.57
426.772	4.57
427.128	4.57
427.485	4.58
427.842	4.57
428.199	4.56
428.555	4.54
428.912	4.54
429.269	4.54
429.625	4.53
429.982	4.53
430.338	4.53
430.695	4.53
431.051	4.52
431.407	4.49
431.764	4.48
432.12	4.49
432.476	4.48
432.832	4.48
433.189	4.49
433.545	4.48
433.901	4.52
434.257	4.5
434.613	4.51
434.969	4.49
435.325	4.48
435.681	4.48
436.036	4.49
436.392	4.48
436.748	4.48
437.104	4.47
437.459	4.47
437.815	4.47
438.171	4.47
438.526	4.49
438.882	4.52
439.237	4.54
439.593	4.56
439.948	4.56
440.304	4.58
440.659	4.56
441.014	4.58
441.369	4.56
441.725	4.57
442.08	4.56
442.435	4.58
442.79	4.6
443.145	4.61
443.5	4.6
443.855	4.61
444.21	4.62
444.565	4.62
444.92	4.63
445.275	4.62
445.629	4.64
445.984	4.62
446.339	4.6
446.693	4.58
447.048	4.55
447.403	4.55
447.757	4.55
448.112	4.54
448.466	4.52
448.82	4.53
449.175	4.53
449.529	4.53
449.883	4.53
450.238	4.52
450.592	4.52
450.946	4.52
451.3	4.52
451.654	4.51
452.008	4.53
452.362	4.51
452.716	4.5
453.07	4.48
453.424	4.48
453.778	4.48
454.132	4.5
454.486	4.51
454.839	4.5
455.193	4.49
455.547	4.5
455.9	4.5
456.254	4.5
456.607	4.51
456.961	4.53
457.314	4.53
457.668	4.53
458.021	4.52
458.375	4.53
458.728	4.53
459.081	4.53
459.434	4.51
459.787	4.52
460.141	4.52
460.494	4.55
460.847	4.54
461.2	4.55
461.553	4.55
461.906	4.55
462.259	4.57
462.611	4.58
462.964	4.58
463.317	4.58
463.67	4.58
464.022	4.57
464.375	4.55
464.728	4.54
465.08	4.54
465.433	4.52
465.785	4.52
466.138	4.53
466.49	4.55
466.843	4.57
467.195	4.58
467.547	4.6
467.899	4.58
468.252	4.59
468.604	4.57
468.956	4.57
469.308	4.59
469.66	4.59
470.012	4.6
470.364	4.62
470.716	4.64
471.068	4.65
471.42	4.67
471.772	4.7
472.123	4.69
472.475	4.71
472.827	4.74
473.178	4.74
473.53	4.73
473.882	4.73
474.233	4.74
474.585	4.7
474.936	4.72
475.288	4.72
475.639	4.74
475.99	4.74
476.342	4.73
476.693	4.73
477.044	4.73
477.395	4.72
477.746	4.7
478.097	4.69
478.448	4.7
478.8	4.69
479.15	4.67
479.501	4.69
479.852	4.69
480.203	4.7
480.554	4.71
480.905	4.73
481.255	4.74
481.606	4.73
481.957	4.74
482.307	4.74
482.658	4.75
483.009	4.75
483.359	4.75
483.709	4.76
484.06	4.76
484.41	4.76
484.761	4.77
485.111	4.77
485.461	4.77
485.811	4.76
486.162	4.77
486.512	4.78
486.862	4.78
487.212	4.79
487.562	4.79
487.912	4.79
488.262	4.78
488.612	4.78
488.961	4.79
489.311	4.8
489.661	4.79
490.011	4.79
490.36	4.79
490.71	4.79
491.06	4.79
491.409	4.79
491.759	4.8
492.108	4.8
492.458	4.81
492.807	4.82
493.157	4.82
493.506	4.83
493.855	4.83
494.204	4.82
494.554	4.82
494.903	4.8
495.252	4.81
495.601	4.84
495.95	4.83
496.299	4.84
496.648	4.84
496.997	4.86
497.346	4.87
497.695	4.87
498.043	4.89
498.392	4.91
498.741	4.93
499.09	4.92
499.438	4.95
499.787	4.94
500.135	4.94
500.484	4.95
500.832	4.98
501.181	4.96
501.529	4.99
501.878	4.98
502.226	5.02
502.574	5.02
502.923	4.99
503.271	4.99
503.619	5
503.967	5.03
504.315	5.02
504.663	5.03
505.011	5.03
505.359	5.03
505.707	5.04
506.055	5.02
506.403	5.02
506.751	5.02
507.098	5.05
507.446	5.07
507.794	5.07
508.141	5.07
508.489	5.09
508.837	5.09
509.184	5.12
509.531	5.14
509.879	5.15
510.226	5.15
510.574	5.17
510.921	5.16
511.268	5.15
511.616	5.14
511.963	5.13
512.31	5.14
512.657	5.17
513.004	5.17
513.351	5.19
513.698	5.18
514.045	5.18
514.392	5.19
514.739	5.2
515.086	5.24
515.432	5.25
515.779	5.24
516.126	5.25
516.473	5.25
516.819	5.25
517.166	5.23
517.512	5.24
517.859	5.24
518.205	5.25
518.552	5.28
518.898	5.27
519.245	5.27
519.591	5.27
519.937	5.26
520.283	5.24
520.629	5.24
520.976	5.25
521.322	5.26
521.668	5.25
522.014	5.25
522.36	5.25
522.706	5.23
523.052	5.24
523.398	5.25
523.743	5.25
524.089	5.27
524.435	5.27
524.781	5.28
525.126	5.29
525.472	5.28
525.817	5.29
526.163	5.31
526.509	5.31
526.854	5.33
527.199	5.35
527.545	5.36
527.89	5.37
528.235	5.38
528.581	5.37
528.926	5.38
529.271	5.39
529.616	5.38
529.961	5.39
530.306	5.39
530.651	5.39
530.996	5.4
531.341	5.38
531.686	5.38
532.031	5.39
532.376	5.41
532.721	5.42
533.065	5.42
533.41	5.43
533.755	5.42
534.099	5.42
534.444	5.41
534.788	5.41
535.133	5.42
535.477	5.42
535.822	5.42
536.166	5.41
536.51	5.41
536.855	5.41
537.199	5.42
537.543	5.42
537.887	5.43
538.231	5.42
538.576	5.44
538.92	5.45
539.264	5.43
539.608	5.43
539.951	5.43
540.295	5.43
540.639	5.45
540.983	5.46
541.327	5.47
541.671	5.46
542.014	5.47
542.358	5.46
542.701	5.46
543.045	5.47
543.389	5.49
543.732	5.5
544.075	5.52
544.419	5.52
544.762	5.51
545.105	5.52
545.449	5.52
545.792	5.53
546.135	5.53
546.478	5.55
546.821	5.54
547.165	5.52
547.508	5.51
547.851	5.47
548.194	5.47
548.536	5.46
548.879	5.46
549.222	5.45
549.565	5.45
549.908	5.44
550.25	5.45
550.593	5.44
550.936	5.43
551.278	5.41
551.621	5.42
551.963	5.45
552.306	5.42
552.648	5.44
552.991	5.44
553.333	5.45
553.675	5.45
554.017	5.44
554.36	5.46
554.702	5.48
555.044	5.48
555.386	5.49
555.728	5.46
556.07	5.47
556.412	5.45
556.754	5.47
557.096	5.48
557.438	5.48
557.78	5.44
558.121	5.41
558.463	5.43
558.805	5.42
559.147	5.41
559.488	5.44
559.83	5.46
560.171	5.44
560.513	5.45
560.854	5.41
561.196	5.44
561.537	5.46
561.878	5.47
562.22	5.49
562.561	5.46
562.902	5.48
563.243	5.49
563.584	5.52
563.925	5.52
564.266	5.5
564.607	5.49
564.948	5.53
565.289	5.56
565.63	5.54
565.971	5.49
566.312	5.48
566.653	5.49
566.993	5.43
567.334	5.48
567.675	5.47
568.015	5.51
568.356	5.51
568.696	5.49
569.037	5.47
569.377	5.48
569.718	5.51
570.058	5.51
570.398	5.5
570.739	5.48
571.079	5.46
571.419	5.47
571.759	5.49
572.099	5.48
572.439	5.45
572.779	5.47
573.119	5.51
573.459	5.51
573.799	5.52
574.139	5.57
574.479	5.55
574.819	5.55
575.158	5.54
575.498	5.53
575.838	5.54
576.177	5.55
576.517	5.56
576.856	5.55
577.196	5.58
577.535	5.59
577.875	5.59
578.214	5.61
578.553	5.63
578.893	5.62
579.232	5.63
579.571	5.63
579.91	5.66
580.25	5.67
580.589	5.68
580.928	5.7
581.267	5.67
581.606	5.66
581.945	5.64
582.283	5.64
582.622	5.6
582.961	5.62
583.3	5.61
583.639	5.6
583.977	5.58
584.316	5.57
584.654	5.59
584.993	5.59
585.332	5.57
585.67	5.58
586.008	5.59
586.347	5.56
586.685	5.56
587.024	5.53
587.362	5.56
587.7	5.54
588.038	5.53
588.376	5.58
588.715	5.57
589.053	5.62
589.391	5.64
589.729	5.67
590.067	5.65
590.404	5.67
590.742	5.67
591.08	5.67
591.418	5.66
591.756	5.63
592.093	5.66
592.431	5.7
592.769	5.71
593.106	5.67
593.444	5.71
593.781	5.75
594.119	5.79
594.456	5.79
594.793	5.81
595.131	5.78
595.468	5.75
595.805	5.75
596.143	5.74
596.48	5.74
596.817	5.75
597.154	5.77
597.491	5.78
597.828	5.8
598.165	5.81
598.502	5.81
598.839	5.81
599.176	5.8
599.512	5.79
599.849	5.78
600.186	5.81
600.523	5.78
600.859	5.77
601.196	5.73
601.532	5.72
601.869	5.71
602.205	5.72
602.542	5.73
602.878	5.72
603.215	5.73
603.551	5.76
603.887	5.78
604.223	5.79
604.56	5.84
604.896	5.82
605.232	5.84
605.568	5.86
605.904	5.89
606.24	5.88
606.576	5.88
606.912	5.92
607.248	5.92
607.583	5.97
607.919	5.97
608.255	5.97
608.591	5.98
608.926	6
609.262	6.01
609.597	6.02
609.933	6.04
610.268	6.01
610.604	6
610.939	5.98
611.275	5.95
611.61	5.91
611.945	5.93
612.281	5.92
612.616	5.95
612.951	5.94
613.286	5.94
613.621	5.97
613.956	5.9
614.291	5.92
614.626	5.87
614.961	5.85
615.296	5.85
615.631	5.84
615.966	5.82
616.3	5.8
616.635	5.8
616.97	5.79
617.304	5.8
617.639	5.83
617.973	5.87
618.308	5.88
618.642	5.86
618.977	5.86
619.311	5.9
619.646	5.86
619.98	5.87
620.314	5.93
620.648	5.97
620.983	5.98
621.317	6.01
621.651	6.02
621.985	6
622.319	6.05
622.653	6.09
622.987	6.11
623.321	6.11
623.655	6.11
623.988	6.16
624.322	6.19
624.656	6.19
624.99	6.16
625.323	6.21
625.657	6.25
625.99	6.18
626.324	6.18
626.657	6.19
626.991	6.22
627.324	6.18
627.658	6.15
627.991	6.2
628.324	6.19
628.657	6.18
628.991	6.2
629.324	6.23
629.657	6.19
629.99	6.18
630.323	6.17
630.656	6.2
630.989	6.23
631.322	6.22
631.655	6.15
631.987	6.14
632.32	6.07
632.653	6.01
632.986	6.06
633.318	5.96
633.651	5.92
633.984	5.89
634.316	5.9
634.649	5.92
634.981	5.85
635.313	5.83
635.646	5.82
635.978	5.87
636.31	5.8
636.643	5.81
636.975	5.79
637.307	5.83
637.639	5.83
637.971	5.77
638.303	5.74
638.635	5.71
638.967	5.73
639.299	5.78
639.631	5.73
639.963	5.69
640.295	5.76
640.626	5.79
640.958	5.81
641.29	5.78
641.621	5.73
641.953	5.76
642.285	5.79
642.616	5.87
642.948	5.85
643.279	5.84
643.61	5.78
643.942	5.78
644.273	5.78
644.604	5.73
644.936	5.72
645.267	5.78
645.598	5.84
645.929	5.9
646.26	5.93
646.591	6.03
646.922	6.07
647.253	6.06
647.584	6.03
647.915	5.96
648.245	5.96
648.576	6.03
648.907	5.97
649.238	5.95
649.568	5.86
649.899	5.85
650.229	5.91
650.56	5.95
650.89	5.98
651.221	5.99
651.551	5.97
651.882	6
652.212	6.01
652.542	6.02
652.872	5.93
653.203	5.88
653.533	5.89
653.863	5.9
654.193	5.93
654.523	5.98
654.853	6.01
655.183	5.98
655.513	5.96
655.843	6
656.172	6.05
656.502	6.07
656.832	6.08
657.162	6.04
657.491	6.06
657.821	5.97
658.15	5.94
658.48	5.99
658.809	5.98
659.139	5.99
659.468	6.01
659.798	6.04
660.127	6.07
660.456	6.08
660.785	6.07
661.115	6.09
661.444	6.09
661.773	6.12
662.102	6.12
662.431	6.1
662.76	6.12
663.089	6.05
663.418	6.07
663.747	6.08
664.076	6.1
664.404	6.05
664.733	6.24
665.062	6.24
665.39	6.25
665.719	6.2
666.048	6.13
666.376	6.1
666.705	6.05
667.033	6.07
667.362	6.04
667.69	6.05
668.018	6.08
668.347	6.06
668.675	6.05
669.003	6.11
669.331	6.18
669.659	6.12
669.987	6.13
670.315	6.15
670.643	6.14
670.971	6.16
671.299	6.2
671.627	6.1
671.955	6.16
672.283	6.19
672.61	6.13
672.938	6.13
673.266	6.14
673.593	6.24
673.921	6.18
674.249	6.17
674.576	6.19
674.904	6.14
