Data from BU26847_Reflection_00009.txt Node
Date: Mon Nov 18 16:40:59 EST 2019
User: vgr7
Spectrometer: USB2G7710
Scans to average: 3
Trigger mode: 4
Integration Time (sec): 2.000000E-2
Electric dark correction enabled: true
Boxcar width: 10
XAxis mode: Wavelengths
Number of Pixels in Spectrum: 2048
>>>>>Begin Spectral Data<<<<<
177.721	76.22
178.105	218.64
178.488	2688.24
178.871	86.49
179.254	-39.53
179.636	10.96
180.019	80.3
180.402	94.74
180.785	441.46
181.168	912.5
181.55	2100
181.933	216.36
182.316	201.33
182.698	254.8
183.081	182.24
183.463	393.84
183.846	282.89
184.228	493.78
184.611	1554.55
184.993	28766.67
185.376	454.61
185.758	-21900
186.14	1588.37
186.522	1631.91
186.904	-1152.75
187.287	-1571.64
187.669	-209.47
188.051	-323.79
188.433	-149.31
188.815	-89.75
189.197	-112.94
189.579	-101.77
189.961	-94.11
190.342	-67.41
190.724	-27.66
191.106	-19.67
191.488	-13.77
191.869	-14.09
192.251	-68.63
192.633	-91.97
193.014	-97.18
193.396	-117.11
193.777	-131.26
194.159	-121.38
194.54	-114.54
194.922	-106.19
195.303	-115.34
195.684	-152.84
196.065	-139.76
196.447	-205.6
196.828	-261.27
197.209	-242.64
197.59	-265.34
197.971	-359.02
198.352	-193.14
198.733	-254.38
199.114	-272.21
199.495	-191.12
199.876	-155.16
200.257	-85.14
200.638	-66.42
201.018	-85.98
201.399	-78.62
201.78	-46.21
202.16	-116.4
202.541	-212.35
202.922	-1900
203.302	-3486.21
203.683	749.68
204.063	434.38
204.444	406.05
204.824	444.32
205.204	517.78
205.585	573.03
205.965	606.12
206.345	418.77
206.725	343.3
207.106	418.5
207.486	362.7
207.866	396.85
208.246	691.64
208.626	1302.45
209.006	655.93
209.386	604.62
209.766	1127.62
210.145	930.6
210.525	1235.14
210.905	-791.72
211.285	-678.38
211.664	-249.87
212.044	-208.43
212.424	-182.56
212.803	-181.98
213.183	-155.4
213.562	-120.88
213.942	-69.61
214.321	-69.34
214.701	-61.24
215.08	-84.35
215.459	-29.03
215.838	-32.82
216.218	-50.7
216.597	-52.09
216.976	-50.64
217.355	-30.14
217.734	-63.11
218.113	-75.48
218.492	-95.12
218.871	-85.9
219.25	-81.01
219.629	-90.22
220.008	-97.91
220.387	-81.98
220.766	-81.1
221.144	-85.34
221.523	-86.88
221.902	-97.04
222.28	-115.98
222.659	-90.27
223.037	-78.44
223.416	-93.34
223.794	-79.62
224.173	-60.1
224.551	-59.38
224.929	-47.17
225.308	-48.78
225.686	-31.38
226.064	-19.6
226.442	-13.07
226.821	-5.8
227.199	-5.99
227.577	-11.81
227.955	-9.85
228.333	-10.89
228.711	-10.56
229.089	-4.5
229.467	-4.82
229.845	-6.47
230.222	-2.43
230.6	-2.78
230.978	-4.42
231.356	-3.97
231.733	-3.12
232.111	-5.19
232.488	-5.39
232.866	-5.91
233.243	-5.17
233.621	-5.9
233.998	-5.8
234.376	-6.29
234.753	-9.16
235.13	-7.57
235.508	-4.12
235.885	-5.69
236.262	-6.22
236.639	-5.49
237.016	-6.06
237.393	-3.58
237.77	-1.29
238.147	-0.87
238.524	0.05
238.901	1.56
239.278	1.54
239.655	1.68
240.032	1.84
240.409	2.1
240.785	2.14
241.162	2.9
241.539	3.15
241.915	3.18
242.292	2.51
242.668	2.7
243.045	2.62
243.421	2.29
243.798	2.57
244.174	2.45
244.551	2.74
244.927	2.76
245.303	2.55
245.679	2.55
246.056	2.46
246.432	2.29
246.808	2.06
247.184	2.27
247.56	2.02
247.936	2.31
248.312	2.52
248.688	2.62
249.064	2.47
249.44	2.36
249.815	2.09
250.191	2.27
250.567	2.53
250.943	2.27
251.318	2.37
251.694	2.4
252.069	2.42
252.445	2.23
252.82	2.15
253.196	2.26
253.571	2.17
253.947	1.96
254.322	1.8
254.697	1.86
255.073	1.62
255.448	1.86
255.823	1.94
256.198	1.94
256.573	2.1
256.948	2.24
257.323	2.77
257.698	2.95
258.073	3.08
258.448	2.99
258.823	3.31
259.198	3.22
259.573	3.25
259.948	3.22
260.322	3.38
260.697	3.43
261.072	3.32
261.446	3.36
261.821	3.42
262.195	3.61
262.57	3.54
262.944	3.4
263.319	3.57
263.693	3.51
264.067	3.66
264.442	3.63
264.816	3.68
265.19	3.24
265.564	3.3
265.938	3.04
266.313	2.93
266.687	2.71
267.061	2.86
267.435	2.83
267.809	2.56
268.183	2.48
268.556	2.51
268.93	2.64
269.304	2.66
269.678	2.77
270.051	2.83
270.425	3
270.799	3.01
271.172	2.9
271.546	2.95
271.919	2.8
272.293	2.8
272.666	2.73
273.04	2.85
273.413	2.73
273.787	2.77
274.16	2.89
274.533	2.98
274.906	2.86
275.279	2.92
275.653	3.16
276.026	3.08
276.399	3.14
276.772	3.12
277.145	2.93
277.518	2.88
277.891	2.85
278.263	2.59
278.636	2.78
279.009	2.77
279.382	2.87
279.755	2.9
280.127	3
280.5	3
280.872	3.06
281.245	2.86
281.617	3.04
281.99	3.12
282.362	3.1
282.735	3.14
283.107	3.09
283.479	3.18
283.852	3.23
284.224	3.13
284.596	3.03
284.968	3.24
285.34	3.34
285.713	3.35
286.085	3.47
286.457	3.65
286.829	3.73
287.201	3.74
287.572	3.66
287.944	3.58
288.316	3.53
288.688	3.38
289.06	3.61
289.431	3.64
289.803	3.64
290.175	3.75
290.546	3.75
290.918	3.84
291.289	3.82
291.661	3.83
292.032	3.95
292.403	4.12
292.775	4.12
293.146	4.07
293.517	3.95
293.889	4.11
294.26	4
294.631	4
295.002	3.98
295.373	4.05
295.744	4.02
296.115	4.22
296.486	4.39
296.857	4.34
297.228	4.39
297.599	4.42
297.97	4.31
298.34	4.36
298.711	4.42
299.082	4.46
299.452	4.54
299.823	4.56
300.194	4.62
300.564	4.61
300.935	4.69
301.305	4.84
301.676	4.88
302.046	4.89
302.416	4.92
302.787	5.05
303.157	5.16
303.527	5.35
303.897	5.22
304.267	5.47
304.637	5.65
305.008	5.64
305.378	5.74
305.748	5.98
306.117	6
306.487	6.05
306.857	6.21
307.227	6.21
307.597	6.28
307.967	6.38
308.336	6.41
308.706	6.5
309.076	6.46
309.445	6.49
309.815	6.56
310.184	6.66
310.554	6.74
310.923	6.93
311.293	7
311.662	7.15
312.031	7.05
312.401	7.13
312.77	7.32
313.139	7.33
313.508	7.33
313.877	7.58
314.246	7.63
314.616	7.68
314.985	7.82
315.353	7.87
315.722	8.03
316.091	8.12
316.46	8.13
316.829	8.33
317.198	8.42
317.567	8.5
317.935	8.53
318.304	8.68
318.672	8.48
319.041	8.56
319.41	8.51
319.778	8.65
320.147	8.66
320.515	8.54
320.883	8.61
321.252	8.73
321.62	8.73
321.988	8.71
322.357	8.73
322.725	8.74
323.093	8.69
323.461	8.54
323.829	8.65
324.197	8.83
324.565	8.94
324.933	8.96
325.301	9.05
325.669	9.24
326.037	9.02
326.405	9.2
326.772	9.28
327.14	9.46
327.508	9.45
327.875	9.56
328.243	9.69
328.61	9.8
328.978	9.81
329.346	9.91
329.713	10.05
330.08	10.13
330.448	10.29
330.815	10.48
331.182	10.55
331.55	10.63
331.917	10.65
332.284	10.66
332.651	10.85
333.018	10.89
333.385	10.85
333.752	11.05
334.119	11.04
334.486	11.08
334.853	11.05
335.22	11.17
335.587	11.21
335.954	11.27
336.32	11.19
336.687	11.25
337.054	11.12
337.42	11.21
337.787	11.24
338.153	11.15
338.52	11.22
338.886	11.3
339.253	11.34
339.619	11.31
339.986	11.22
340.352	11.17
340.718	11.18
341.084	11.24
341.451	11.36
341.817	11.39
342.183	11.35
342.549	11.46
342.915	11.45
343.281	11.47
343.647	11.51
344.013	11.62
344.379	11.68
344.745	11.74
345.11	11.64
345.476	11.66
345.842	11.8
346.208	11.76
346.573	11.81
346.939	11.83
347.304	11.79
347.67	11.86
348.035	11.89
348.401	11.96
348.766	11.97
349.132	12.01
349.497	12.11
349.862	12.23
350.228	12.29
350.593	12.28
350.958	12.23
351.323	12.25
351.688	12.24
352.053	12.15
352.418	12.26
352.783	12.4
353.148	12.35
353.513	12.21
353.878	12.19
354.243	12.27
354.608	12.28
354.972	12.4
355.337	12.48
355.702	12.56
356.066	12.58
356.431	12.53
356.795	12.4
357.16	12.3
357.524	12.21
357.889	12.11
358.253	12.17
358.618	12.2
358.982	12.16
359.346	12.05
359.71	12.05
360.075	12.07
360.439	12.04
360.803	12.07
361.167	12.14
361.531	12.17
361.895	12.1
362.259	12.12
362.623	12.08
362.987	12.04
363.351	12.03
363.714	12.04
364.078	12.04
364.442	11.99
364.806	12.03
365.169	12.04
365.533	12
365.896	11.92
366.26	11.9
366.623	11.93
366.987	11.98
367.35	11.99
367.714	11.84
368.077	11.74
368.44	11.76
368.803	11.66
369.167	11.6
369.53	11.49
369.893	11.38
370.256	11.38
370.619	11.32
370.982	11.14
371.345	10.98
371.708	10.93
372.071	10.94
372.434	10.88
372.797	10.84
373.159	10.81
373.522	10.75
373.885	10.73
374.247	10.63
374.61	10.56
374.973	10.47
375.335	10.42
375.698	10.42
376.06	10.29
376.423	10.24
376.785	10.25
377.147	10.16
377.51	10.12
377.872	10.03
378.234	9.91
378.596	9.94
378.958	9.93
379.321	9.91
379.683	9.9
380.045	9.82
380.407	9.76
380.769	9.69
381.13	9.63
381.492	9.48
381.854	9.45
382.216	9.43
382.578	9.37
382.939	9.33
383.301	9.25
383.663	9.21
384.024	9.1
384.386	9.05
384.747	9.07
385.109	9.03
385.47	8.96
385.832	9.01
386.193	8.97
386.554	8.87
386.916	8.82
387.277	8.71
387.638	8.7
387.999	8.68
388.36	8.66
388.721	8.67
389.082	8.69
389.443	8.58
389.804	8.5
390.165	8.47
390.526	8.4
390.887	8.37
391.248	8.32
391.609	8.34
391.969	8.31
392.33	8.28
392.691	8.25
393.051	8.26
393.412	8.18
393.772	8.08
394.133	8.05
394.493	7.96
394.854	7.92
395.214	7.85
395.574	7.78
395.935	7.75
396.295	7.66
396.655	7.56
397.015	7.54
397.376	7.54
397.736	7.48
398.096	7.45
398.456	7.4
398.816	7.33
399.176	7.26
399.535	7.18
399.895	7.1
400.255	7.04
400.615	6.98
400.975	6.91
401.334	6.9
401.694	6.85
402.054	6.83
402.413	6.81
402.773	6.74
403.132	6.7
403.492	6.62
403.851	6.6
404.211	6.59
404.57	6.56
404.929	6.5
405.288	6.46
405.648	6.42
406.007	6.4
406.366	6.37
406.725	6.37
407.084	6.35
407.443	6.33
407.802	6.32
408.161	6.29
408.52	6.27
408.879	6.24
409.238	6.25
409.596	6.23
409.955	6.23
410.314	6.23
410.673	6.19
411.031	6.22
411.39	6.2
411.748	6.2
412.107	6.19
412.465	6.15
412.824	6.14
413.182	6.14
413.54	6.1
413.899	6.1
414.257	6.06
414.615	6.03
414.974	5.99
415.332	5.95
415.69	5.91
416.048	5.89
416.406	5.88
416.764	5.84
417.122	5.84
417.48	5.79
417.838	5.78
418.195	5.74
418.553	5.7
418.911	5.7
419.269	5.66
419.626	5.64
419.984	5.62
420.342	5.6
420.699	5.57
421.057	5.56
421.414	5.54
421.772	5.53
422.129	5.52
422.486	5.5
422.844	5.48
423.201	5.46
423.558	5.44
423.915	5.42
424.273	5.42
424.63	5.37
424.987	5.35
425.344	5.33
425.701	5.32
426.058	5.32
426.415	5.29
426.772	5.27
427.128	5.26
427.485	5.25
427.842	5.23
428.199	5.22
428.555	5.19
428.912	5.19
429.269	5.2
429.625	5.17
429.982	5.16
430.338	5.14
430.695	5.13
431.051	5.11
431.407	5.08
431.764	5.07
432.12	5.07
432.476	5.06
432.832	5.04
433.189	5.05
433.545	5.04
433.901	5.04
434.257	5.01
434.613	5.02
434.969	4.99
435.325	5
435.681	5
436.036	5
436.392	4.99
436.748	4.96
437.104	4.95
437.459	4.95
437.815	4.97
438.171	4.97
438.526	4.98
438.882	4.98
439.237	4.98
439.593	4.98
439.948	4.98
440.304	4.99
440.659	5
441.014	4.99
441.369	4.98
441.725	5
442.08	4.98
442.435	4.99
442.79	4.99
443.145	4.99
443.5	4.98
443.855	4.96
444.21	4.95
444.565	4.95
444.92	4.96
445.275	4.93
445.629	4.94
445.984	4.94
446.339	4.93
446.693	4.89
447.048	4.87
447.403	4.87
447.757	4.85
448.112	4.82
448.466	4.8
448.82	4.8
449.175	4.79
449.529	4.79
449.883	4.78
450.238	4.75
450.592	4.73
450.946	4.72
451.3	4.73
451.654	4.71
452.008	4.7
452.362	4.68
452.716	4.67
453.07	4.65
453.424	4.64
453.778	4.63
454.132	4.65
454.486	4.65
454.839	4.64
455.193	4.65
455.547	4.66
455.9	4.69
456.254	4.69
456.607	4.7
456.961	4.68
457.314	4.7
457.668	4.72
458.021	4.71
458.375	4.73
458.728	4.72
459.081	4.75
459.434	4.72
459.787	4.73
460.141	4.73
460.494	4.74
460.847	4.75
461.2	4.76
461.553	4.78
461.906	4.79
462.259	4.81
462.611	4.82
462.964	4.83
463.317	4.82
463.67	4.83
464.022	4.81
464.375	4.83
464.728	4.82
465.08	4.84
465.433	4.86
465.785	4.86
466.138	4.87
466.49	4.84
466.843	4.89
467.195	4.89
467.547	4.92
467.899	4.92
468.252	4.93
468.604	4.96
468.956	4.94
469.308	4.94
469.66	4.94
470.012	4.96
470.364	4.98
470.716	5.01
471.068	5.02
471.42	5.06
471.772	5.1
472.123	5.13
472.475	5.14
472.827	5.15
473.178	5.16
473.53	5.18
473.882	5.22
474.233	5.24
474.585	5.26
474.936	5.26
475.288	5.27
475.639	5.28
475.99	5.28
476.342	5.29
476.693	5.29
477.044	5.3
477.395	5.29
477.746	5.29
478.097	5.28
478.448	5.29
478.8	5.27
479.15	5.26
479.501	5.25
479.852	5.26
480.203	5.28
480.554	5.29
480.905	5.3
481.255	5.3
481.606	5.3
481.957	5.3
482.307	5.29
482.658	5.29
483.009	5.28
483.359	5.27
483.709	5.27
484.06	5.26
484.41	5.26
484.761	5.26
485.111	5.25
485.461	5.25
485.811	5.25
486.162	5.26
486.512	5.26
486.862	5.26
487.212	5.24
487.562	5.24
487.912	5.23
488.262	5.23
488.612	5.23
488.961	5.22
489.311	5.23
489.661	5.23
490.011	5.25
490.36	5.25
490.71	5.27
491.06	5.29
491.409	5.31
491.759	5.33
492.108	5.35
492.458	5.37
492.807	5.38
493.157	5.39
493.506	5.4
493.855	5.43
494.204	5.47
494.554	5.51
494.903	5.54
495.252	5.57
495.601	5.61
495.95	5.64
496.299	5.67
496.648	5.7
496.997	5.77
497.346	5.82
497.695	5.88
498.043	5.9
498.392	5.92
498.741	5.97
499.09	6
499.438	6.05
499.787	6.12
500.135	6.17
500.484	6.24
500.832	6.31
501.181	6.35
501.529	6.4
501.878	6.48
502.226	6.57
502.574	6.63
502.923	6.7
503.271	6.76
503.619	6.86
503.967	6.94
504.315	7.01
504.663	7.07
505.011	7.16
505.359	7.25
505.707	7.37
506.055	7.47
506.403	7.59
506.751	7.68
507.098	7.77
507.446	7.89
507.794	7.99
508.141	8.08
508.489	8.16
508.837	8.27
509.184	8.35
509.531	8.44
509.879	8.56
510.226	8.69
510.574	8.8
510.921	8.92
511.268	9.03
511.616	9.16
511.963	9.29
512.31	9.42
512.657	9.58
513.004	9.75
513.351	9.88
513.698	10.05
514.045	10.22
514.392	10.38
514.739	10.52
515.086	10.68
515.432	10.85
515.779	11.04
516.126	11.18
516.473	11.36
516.819	11.49
517.166	11.63
517.512	11.76
517.859	11.92
518.205	12.04
518.552	12.2
518.898	12.33
519.245	12.47
519.591	12.57
519.937	12.67
520.283	12.78
520.629	12.93
520.976	13.04
521.322	13.21
521.668	13.38
522.014	13.55
522.36	13.72
522.706	13.9
523.052	14.09
523.398	14.3
523.743	14.52
524.089	14.75
524.435	14.96
524.781	15.16
525.126	15.33
525.472	15.49
525.817	15.62
526.163	15.74
526.509	15.87
526.854	16
527.199	16.14
527.545	16.25
527.89	16.35
528.235	16.47
528.581	16.57
528.926	16.67
529.271	16.8
529.616	16.9
529.961	17.02
530.306	17.13
530.651	17.25
530.996	17.36
531.341	17.47
531.686	17.6
532.031	17.72
532.376	17.85
532.721	17.99
533.065	18.13
533.41	18.29
533.755	18.43
534.099	18.6
534.444	18.77
534.788	18.94
535.133	19.11
535.477	19.27
535.822	19.44
536.166	19.62
536.51	19.81
536.855	20.03
537.199	20.22
537.543	20.44
537.887	20.67
538.231	20.91
538.576	21.14
538.92	21.35
539.264	21.53
539.608	21.73
539.951	21.92
540.295	22.12
540.639	22.3
540.983	22.47
541.327	22.64
541.671	22.78
542.014	22.94
542.358	23.11
542.701	23.28
543.045	23.46
543.389	23.64
543.732	23.81
544.075	24
544.419	24.18
544.762	24.37
545.105	24.55
545.449	24.73
545.792	24.95
546.135	25.22
546.478	25.48
546.821	25.73
547.165	25.97
547.508	26.21
547.851	26.49
548.194	26.77
548.536	27.03
548.879	27.32
549.222	27.6
549.565	27.88
549.908	28.2
550.25	28.48
550.593	28.71
550.936	29.02
551.278	29.29
551.621	29.6
551.963	29.89
552.306	30.23
552.648	30.55
552.991	30.82
553.333	31.05
553.675	31.28
554.017	31.54
554.36	31.87
554.702	32.18
555.044	32.45
555.386	32.8
555.728	33.08
556.07	33.39
556.412	33.71
556.754	34.01
557.096	34.26
557.438	34.61
557.78	34.9
558.121	35.14
558.463	35.45
558.805	35.75
559.147	36.08
559.488	36.36
559.83	36.62
560.171	36.91
560.513	37.15
560.854	37.44
561.196	37.75
561.537	38
561.878	38.21
562.22	38.44
562.561	38.61
562.902	38.86
563.243	39.12
563.584	39.36
563.925	39.55
564.266	39.8
564.607	39.96
564.948	40.24
565.289	40.48
565.63	40.69
565.971	40.91
566.312	41.11
566.653	41.26
566.993	41.52
567.334	41.77
567.675	42.05
568.015	42.25
568.356	42.43
568.696	42.67
569.037	42.93
569.377	43.16
569.718	43.43
570.058	43.61
570.398	43.78
570.739	43.99
571.079	44.19
571.419	44.38
571.759	44.63
572.099	44.78
572.439	44.94
572.779	45.19
573.119	45.42
573.459	45.64
573.799	45.88
574.139	46.03
574.479	46.14
574.819	46.29
575.158	46.5
575.498	46.67
575.838	46.86
576.177	46.98
576.517	47.17
576.856	47.28
577.196	47.56
577.535	47.78
577.875	47.96
578.214	48.19
578.553	48.36
578.893	48.54
579.232	48.75
579.571	49
579.91	49.11
580.25	49.22
580.589	49.35
580.928	49.45
581.267	49.66
581.606	49.86
581.945	50.05
582.283	50.24
582.622	50.45
582.961	50.54
583.3	50.69
583.639	50.8
583.977	50.99
584.316	51.04
584.654	51.13
584.993	51.3
585.332	51.39
585.67	51.5
586.008	51.61
586.347	51.71
586.685	51.89
587.024	51.94
587.362	51.98
587.7	52.15
588.038	52.24
588.376	52.32
588.715	52.52
589.053	52.62
589.391	52.66
589.729	52.78
590.067	52.96
590.404	53.12
590.742	53.25
591.08	53.37
591.418	53.46
591.756	53.57
592.093	53.62
592.431	53.72
592.769	53.81
593.106	53.9
593.444	54.04
593.781	54.1
594.119	54.31
594.456	54.51
594.793	54.57
595.131	54.71
595.468	54.77
595.805	54.75
596.143	54.84
596.48	54.94
596.817	54.98
597.154	54.96
597.491	55.03
597.828	55.07
598.165	55.09
598.502	55.15
598.839	55.21
599.176	55.25
599.512	55.37
599.849	55.5
600.186	55.58
600.523	55.66
600.859	55.67
601.196	55.73
601.532	55.75
601.869	55.7
602.205	55.78
602.542	55.86
602.878	55.97
603.215	56.05
603.551	56.11
603.887	56.21
604.223	56.29
604.56	56.36
604.896	56.45
605.232	56.58
605.568	56.67
605.904	56.76
606.24	56.86
606.576	56.84
606.912	56.89
607.248	56.98
607.583	57.01
607.919	57.09
608.255	57.11
608.591	57.15
608.926	57.29
609.262	57.32
609.597	57.32
609.933	57.3
610.268	57.27
610.604	57.28
610.939	57.29
611.275	57.36
611.61	57.39
611.945	57.44
612.281	57.45
612.616	57.53
612.951	57.54
613.286	57.55
613.621	57.7
613.956	57.74
614.291	57.76
614.626	57.86
614.961	57.91
615.296	58.03
615.631	58.18
615.966	58.26
616.3	58.33
616.635	58.45
616.97	58.54
617.304	58.69
617.639	58.82
617.973	58.81
618.308	58.78
618.642	58.83
618.977	58.82
619.311	58.79
619.646	58.7
619.98	58.67
620.314	58.85
620.648	58.84
620.983	58.87
621.317	58.92
621.651	58.88
621.985	59
622.319	59
622.653	58.96
622.987	58.95
623.321	59.01
623.655	58.95
623.988	58.95
624.322	59.03
624.656	59.03
624.99	59.09
625.323	59.18
625.657	59.13
625.99	59.17
626.324	59.26
626.657	59.36
626.991	59.43
627.324	59.31
627.658	59.4
627.991	59.4
628.324	59.35
628.657	59.42
628.991	59.3
629.324	59.29
629.657	59.33
629.99	59.34
630.323	59.36
630.656	59.5
630.989	59.59
631.322	59.53
631.655	59.52
631.987	59.55
632.32	59.55
632.653	59.64
632.986	59.6
633.318	59.64
633.651	59.58
633.984	59.6
634.316	59.63
634.649	59.58
634.981	59.49
635.313	59.52
635.646	59.58
635.978	59.71
636.31	59.69
636.643	59.79
636.975	59.84
637.307	59.86
637.639	59.83
637.971	59.81
638.303	59.77
638.635	59.86
638.967	59.96
639.299	59.94
639.631	59.99
639.963	60.05
640.295	60.07
640.626	60.12
640.958	60.1
641.29	60.15
641.621	60.12
641.953	60.32
642.285	60.35
642.616	60.37
642.948	60.4
643.279	60.45
643.61	60.36
643.942	60.37
644.273	60.34
644.604	60.29
644.936	60.29
645.267	60.27
645.598	60.22
645.929	60.23
646.26	60.28
646.591	60.3
646.922	60.36
647.253	60.26
647.584	60.34
647.915	60.41
648.245	60.48
648.576	60.53
648.907	60.49
649.238	60.46
649.568	60.37
649.899	60.37
650.229	60.27
650.56	60.38
650.89	60.39
651.221	60.45
651.551	60.45
651.882	60.54
652.212	60.5
652.542	60.52
652.872	60.47
653.203	60.51
653.533	60.41
653.863	60.5
654.193	60.6
654.523	60.51
654.853	60.41
655.183	60.38
655.513	60.41
655.843	60.41
656.172	60.49
656.502	60.52
656.832	60.45
657.162	60.7
657.491	60.66
657.821	60.66
658.15	60.64
658.48	60.64
658.809	60.53
659.139	60.6
659.468	60.56
659.798	60.53
660.127	60.53
660.456	60.71
660.785	60.61
661.115	60.63
661.444	60.61
661.773	60.78
662.102	60.84
662.431	60.87
662.76	60.95
663.089	61
