Data from BU26940_Reflection_00006.txt Node
Date: Tue Nov 19 11:00:17 EST 2019
User: vgr7
Spectrometer: USB2G7710
Scans to average: 3
Trigger mode: 4
Integration Time (sec): 2.000000E-2
Electric dark correction enabled: true
Boxcar width: 10
XAxis mode: Wavelengths
Number of Pixels in Spectrum: 2048
>>>>>Begin Spectral Data<<<<<
177.721	316.54
178.105	-14400
178.488	545.78
178.871	276.92
179.254	500
179.636	355.43
180.019	975
180.402	120
180.785	-94.74
181.168	2.54
181.55	29.49
181.933	88.76
182.316	163.49
182.698	56.9
183.081	4.93
183.463	-7.36
183.846	-37.4
184.228	-78.57
184.611	-139.84
184.993	-133.33
185.376	-150
185.758	-168.29
186.14	-128.57
186.522	-225.69
186.904	-286.67
187.287	-180.22
187.669	-307.69
188.051	-458.82
188.433	-323.08
188.815	381.25
189.197	600
189.579	122.06
189.961	439.29
190.342	221.62
190.724	105.68
191.106	50.41
191.488	-9.47
191.869	9.84
192.251	1.04
192.633	-1.45
193.014	-30.32
193.396	-0.96
193.777	34.11
194.159	41.73
194.54	45.05
194.922	36.8
195.303	33.96
195.684	23.08
196.065	27.69
196.447	54.92
196.828	47.7
197.209	46.28
197.59	48.94
197.971	43.4
198.352	51.39
198.733	68.05
199.114	77.53
199.495	102.15
199.876	110.99
200.257	83.94
200.638	94.35
201.018	95.9
201.399	95.88
201.78	70.59
202.16	58.62
202.541	56.75
202.922	57.45
203.302	53.58
203.683	48
204.063	34.21
204.444	21.13
204.824	22.73
205.204	25.06
205.585	23.08
205.965	20.06
206.345	21.57
206.725	27.55
207.106	32.03
207.486	31.82
207.866	33.18
208.246	36.71
208.626	34.1
209.006	27.59
209.386	17.91
209.766	20.65
210.145	18.67
210.525	18.48
210.905	19.43
211.285	43.78
211.664	51.19
212.044	44.21
212.424	62.96
212.803	53.96
213.183	53.49
213.562	54.65
213.942	39.83
214.321	24.94
214.701	16.02
215.08	5.15
215.459	6.82
215.838	-3.17
216.218	-6.32
216.597	3.65
216.976	0.53
217.355	10.71
217.734	2.17
218.113	11.31
218.492	1.26
218.871	13.79
219.25	-1.87
219.629	-14.04
220.008	-10.41
220.387	-8.99
220.766	4.52
221.144	10.71
221.523	19.48
221.902	34.87
222.28	41.07
222.659	42.66
223.037	42.05
223.416	47.15
223.794	49.6
224.173	41.34
224.551	39.52
224.929	46.25
225.308	33.86
225.686	34.23
226.064	29.94
226.442	36.7
226.821	26.79
227.199	21.01
227.577	23.53
227.955	23.05
228.333	19.3
228.711	19.04
229.089	18.29
229.467	13.94
229.845	10.27
230.222	10.86
230.6	12.9
230.978	13.54
231.356	12.54
231.733	14.57
232.111	13.25
232.488	12.2
232.866	9.77
233.243	11.96
233.621	10.71
233.998	11.63
234.376	10.03
234.753	11.58
235.13	12.73
235.508	11.52
235.885	11.35
236.262	10.45
236.639	10.17
237.016	9.7
237.393	10.42
237.77	11.6
238.147	10.69
238.524	9.53
238.901	8.97
239.278	8.89
239.655	7.76
240.032	8.14
240.409	8.27
240.785	8.03
241.162	7.74
241.539	7.8
241.915	7.09
242.292	6.79
242.668	7.03
243.045	7.19
243.421	7.28
243.798	7.23
244.174	7.54
244.551	7.26
244.927	6.8
245.303	6.59
245.679	6.26
246.056	6.2
246.432	6.33
246.808	6.42
247.184	6.47
247.56	6.62
247.936	6.53
248.312	6.18
248.688	6.16
249.064	6.04
249.44	6.03
249.815	6.12
250.191	6.28
250.567	6.21
250.943	6.27
251.318	6.31
251.694	6.29
252.069	6.26
252.445	6.48
252.82	6.86
253.196	6.97
253.571	7.23
253.947	7.37
254.322	7.32
254.697	7.31
255.073	6.7
255.448	6.33
255.823	6.11
256.198	6.32
256.573	6.29
256.948	6.25
257.323	6.17
257.698	6.2
258.073	5.99
258.448	5.71
258.823	5.32
259.198	5.05
259.573	5
259.948	4.86
260.322	4.64
260.697	4.64
261.072	4.51
261.446	4.24
261.821	4.17
262.195	4.09
262.57	4.01
262.944	4.13
263.319	4.23
263.693	4.27
264.067	4.11
264.442	3.93
264.816	3.74
265.19	3.57
265.564	3.35
265.938	3.36
266.313	3.29
266.687	3.43
267.061	3.44
267.435	3.5
267.809	3.56
268.183	3.55
268.556	3.45
268.93	3.63
269.304	3.65
269.678	3.75
270.051	3.58
270.425	3.62
270.799	3.51
271.172	3.46
271.546	3.48
271.919	3.59
272.293	3.76
272.666	3.9
273.04	4.07
273.413	4.19
273.787	4.19
274.16	4.14
274.533	4.27
274.906	4.42
275.279	4.37
275.653	4.37
276.026	4.27
276.399	4.28
276.772	4.13
277.145	4.37
277.518	4.38
277.891	4.62
278.263	4.63
278.636	4.81
279.009	4.76
279.382	4.7
279.755	4.74
280.127	4.68
280.5	4.66
280.872	4.48
281.245	4.38
281.617	4.38
281.99	4.42
282.362	4.3
282.735	4.31
283.107	4.23
283.479	4.3
283.852	4.47
284.224	4.66
284.596	4.73
284.968	4.6
285.34	4.45
285.713	4.36
286.085	4.36
286.457	4.34
286.829	4.44
287.201	4.32
287.572	4.37
287.944	4.43
288.316	4.47
288.688	4.6
289.06	4.7
289.431	4.68
289.803	4.76
290.175	4.87
290.546	4.95
290.918	5.08
291.289	4.94
291.661	5.1
292.032	5.04
292.403	5.08
292.775	5.23
293.146	5.44
293.517	5.34
293.889	5.24
294.26	5.25
294.631	5.23
295.002	5.29
295.373	5.29
295.744	5.25
296.115	5.21
296.486	5.24
296.857	5.2
297.228	5.17
297.599	5.15
297.97	5.08
298.34	5.02
298.711	4.95
299.082	5.11
299.452	4.94
299.823	4.85
300.194	4.83
300.564	4.68
300.935	4.56
301.305	4.77
301.676	4.83
302.046	4.8
302.416	4.77
302.787	4.86
303.157	4.61
303.527	4.75
303.897	4.77
304.267	4.59
304.637	4.65
305.008	4.77
305.378	4.73
305.748	4.76
306.117	4.8
306.487	4.9
306.857	4.89
307.227	4.98
307.597	5
307.967	4.97
308.336	5
308.706	5.03
309.076	4.98
309.445	5.03
309.815	5.12
310.184	5.14
310.554	5.18
310.923	5.3
311.293	5.22
311.662	5.35
312.031	5.52
312.401	5.37
312.77	5.24
313.139	5.26
313.508	5.21
313.877	5.14
314.246	5.08
314.616	5.1
314.985	4.99
315.353	5.1
315.722	5.15
316.091	5.15
316.46	5.1
316.829	5.07
317.198	5.09
317.567	4.98
317.935	4.93
318.304	4.94
318.672	4.92
319.041	4.88
319.41	4.82
319.778	4.7
320.147	4.77
320.515	4.77
320.883	4.72
321.252	4.77
321.62	4.91
321.988	5
322.357	4.82
322.725	4.97
323.093	4.74
323.461	4.76
323.829	4.88
324.197	4.82
324.565	4.8
324.933	4.88
325.301	4.9
325.669	4.91
326.037	4.96
326.405	5.06
326.772	5.08
327.14	4.86
327.508	4.9
327.875	4.94
328.243	4.97
328.61	5.03
328.978	5.04
329.346	4.86
329.713	4.74
330.08	4.94
330.448	4.91
330.815	4.96
331.182	4.93
331.55	4.87
331.917	4.81
332.284	4.83
332.651	4.71
333.018	4.76
333.385	4.85
333.752	4.86
334.119	4.82
334.486	4.85
334.853	4.91
335.22	4.82
335.587	4.91
335.954	4.89
336.32	4.87
336.687	4.85
337.054	4.79
337.42	4.78
337.787	4.56
338.153	4.49
338.52	4.56
338.886	4.68
339.253	4.53
339.619	4.68
339.986	4.64
340.352	4.67
340.718	4.58
341.084	4.55
341.451	4.59
341.817	4.57
342.183	4.53
342.549	4.66
342.915	4.67
343.281	4.6
343.647	4.62
344.013	4.63
344.379	4.64
344.745	4.76
345.11	4.82
345.476	4.88
345.842	4.89
346.208	4.86
346.573	4.78
346.939	4.9
347.304	4.86
347.67	4.83
348.035	4.74
348.401	4.88
348.766	4.86
349.132	4.84
349.497	4.91
349.862	4.86
350.228	4.88
350.593	4.93
350.958	4.92
351.323	4.94
351.688	5.07
352.053	5.09
352.418	5.11
352.783	5.11
353.148	5.17
353.513	5.26
353.878	5.24
354.243	5.19
354.608	5.2
354.972	5.19
355.337	5.28
355.702	5.29
356.066	5.23
356.431	5.22
356.795	5.25
357.16	5.21
357.524	5.28
357.889	5.13
358.253	5.12
358.618	5.13
358.982	5.12
359.346	5.06
359.71	4.98
360.075	4.96
360.439	4.93
360.803	4.92
361.167	4.86
361.531	4.86
361.895	4.9
362.259	4.93
362.623	4.91
362.987	4.8
363.351	4.83
363.714	4.8
364.078	4.8
364.442	4.69
364.806	4.71
365.169	4.71
365.533	4.78
365.896	4.83
366.26	4.82
366.623	4.84
366.987	4.78
367.35	4.89
367.714	4.86
368.077	4.85
368.44	4.88
368.803	4.89
369.167	4.89
369.53	4.92
369.893	4.88
370.256	4.88
370.619	4.93
370.982	4.87
371.345	4.87
371.708	4.89
372.071	4.86
372.434	4.84
372.797	4.79
373.159	4.69
373.522	4.62
373.885	4.61
374.247	4.59
374.61	4.67
374.973	4.69
375.335	4.73
375.698	4.78
376.06	4.71
376.423	4.75
376.785	4.76
377.147	4.64
377.51	4.56
377.872	4.59
378.234	4.6
378.596	4.62
378.958	4.64
379.321	4.61
379.683	4.63
380.045	4.63
380.407	4.65
380.769	4.69
381.13	4.67
381.492	4.68
381.854	4.63
382.216	4.56
382.578	4.51
382.939	4.49
383.301	4.45
383.663	4.45
384.024	4.43
384.386	4.42
384.747	4.46
385.109	4.5
385.47	4.45
385.832	4.47
386.193	4.49
386.554	4.46
386.916	4.48
387.277	4.47
387.638	4.47
387.999	4.47
388.36	4.46
388.721	4.46
389.082	4.43
389.443	4.49
389.804	4.48
390.165	4.48
390.526	4.46
390.887	4.46
391.248	4.47
391.609	4.44
391.969	4.46
392.33	4.43
392.691	4.44
393.051	4.44
393.412	4.42
393.772	4.43
394.133	4.38
394.493	4.38
394.854	4.38
395.214	4.39
395.574	4.37
395.935	4.38
396.295	4.4
396.655	4.39
397.015	4.38
397.376	4.4
397.736	4.38
398.096	4.4
398.456	4.39
398.816	4.38
399.176	4.38
399.535	4.36
399.895	4.37
400.255	4.36
400.615	4.37
400.975	4.38
401.334	4.38
401.694	4.41
402.054	4.38
402.413	4.37
402.773	4.33
403.132	4.3
403.492	4.31
403.851	4.3
404.211	4.32
404.57	4.31
404.929	4.27
405.288	4.29
405.648	4.3
406.007	4.28
406.366	4.3
406.725	4.31
407.084	4.33
407.443	4.33
407.802	4.32
408.161	4.3
408.52	4.28
408.879	4.28
409.238	4.29
409.596	4.26
409.955	4.28
410.314	4.28
410.673	4.29
411.031	4.28
411.39	4.27
411.748	4.24
412.107	4.23
412.465	4.25
412.824	4.24
413.182	4.22
413.54	4.23
413.899	4.22
414.257	4.21
414.615	4.16
414.974	4.14
415.332	4.18
415.69	4.19
416.048	4.2
416.406	4.15
416.764	4.09
417.122	4.09
417.48	4.08
417.838	4.08
418.195	4.07
418.553	4.05
418.911	4.03
419.269	4.03
419.626	4.03
419.984	4.01
420.342	4.01
420.699	4.01
421.057	3.98
421.414	3.97
421.772	3.96
422.129	3.96
422.486	3.97
422.844	3.93
423.201	3.93
423.558	3.91
423.915	3.93
424.273	3.95
424.63	3.96
424.987	3.97
425.344	3.97
425.701	3.98
426.058	3.99
426.415	3.98
426.772	3.96
427.128	3.97
427.485	3.98
427.842	3.96
428.199	3.97
428.555	3.98
428.912	3.98
429.269	3.96
429.625	3.98
429.982	3.96
430.338	3.98
430.695	3.97
431.051	3.97
431.407	3.97
431.764	3.97
432.12	3.98
432.476	3.97
432.832	3.98
433.189	3.98
433.545	3.99
433.901	4.01
434.257	4.02
434.613	4.02
434.969	4.02
435.325	4.03
435.681	4.01
436.036	4.02
436.392	4.03
436.748	4.03
437.104	4.03
437.459	4.05
437.815	4.04
438.171	4.06
438.526	4.05
438.882	4.05
439.237	4.03
439.593	4.03
439.948	4.02
440.304	4.02
440.659	4.01
441.014	3.99
441.369	4
441.725	4.02
442.08	3.99
442.435	3.99
442.79	3.98
443.145	3.97
443.5	3.97
443.855	3.97
444.21	3.97
444.565	3.97
444.92	3.98
445.275	3.98
445.629	3.96
445.984	3.97
446.339	3.97
446.693	3.98
447.048	3.95
447.403	3.96
447.757	3.95
448.112	3.95
448.466	3.96
448.82	3.96
449.175	3.95
449.529	3.95
449.883	3.95
450.238	3.96
450.592	3.96
450.946	3.95
451.3	3.95
451.654	3.95
452.008	3.94
452.362	3.92
452.716	3.91
453.07	3.91
453.424	3.92
453.778	3.92
454.132	3.91
454.486	3.92
454.839	3.91
455.193	3.91
455.547	3.91
455.9	3.91
456.254	3.92
456.607	3.92
456.961	3.91
457.314	3.91
457.668	3.9
458.021	3.9
458.375	3.9
458.728	3.89
459.081	3.9
459.434	3.9
459.787	3.92
460.141	3.92
460.494	3.93
460.847	3.92
461.2	3.91
461.553	3.91
461.906	3.92
462.259	3.9
462.611	3.91
462.964	3.93
463.317	3.93
463.67	3.91
464.022	3.91
464.375	3.92
464.728	3.94
465.08	3.95
465.433	3.97
465.785	3.99
466.138	3.97
466.49	3.95
466.843	4.01
467.195	4.01
467.547	4.01
467.899	4.01
468.252	4.02
468.604	4.06
468.956	4.08
469.308	4.07
469.66	4.11
470.012	4.11
470.364	4.08
470.716	4.07
471.068	4.09
471.42	4.11
471.772	4.12
472.123	4.13
472.475	4.12
472.827	4.12
473.178	4.13
473.53	4.15
473.882	4.18
474.233	4.12
474.585	4.12
474.936	4.12
475.288	4.11
475.639	4.12
475.99	4.08
476.342	4.08
476.693	4.08
477.044	4.08
477.395	4.09
477.746	4.09
478.097	4.1
478.448	4.11
478.8	4.1
479.15	4.11
479.501	4.1
479.852	4.1
480.203	4.1
480.554	4.09
480.905	4.09
481.255	4.09
481.606	4.1
481.957	4.1
482.307	4.11
482.658	4.12
483.009	4.11
483.359	4.12
483.709	4.12
484.06	4.11
484.41	4.11
484.761	4.12
485.111	4.12
485.461	4.13
485.811	4.12
486.162	4.12
486.512	4.12
486.862	4.12
487.212	4.13
487.562	4.13
487.912	4.13
488.262	4.14
488.612	4.13
488.961	4.14
489.311	4.14
489.661	4.13
490.011	4.13
490.36	4.13
490.71	4.12
491.06	4.13
491.409	4.13
491.759	4.13
492.108	4.12
492.458	4.1
492.807	4.1
493.157	4.12
493.506	4.11
493.855	4.12
494.204	4.12
494.554	4.12
494.903	4.12
495.252	4.12
495.601	4.13
495.95	4.15
496.299	4.16
496.648	4.16
496.997	4.18
497.346	4.21
497.695	4.23
498.043	4.25
498.392	4.26
498.741	4.28
499.09	4.31
499.438	4.35
499.787	4.38
500.135	4.38
500.484	4.39
500.832	4.42
501.181	4.42
501.529	4.46
501.878	4.47
502.226	4.49
502.574	4.52
502.923	4.54
503.271	4.54
503.619	4.57
503.967	4.6
504.315	4.59
504.663	4.59
505.011	4.6
505.359	4.61
505.707	4.64
506.055	4.65
506.403	4.64
506.751	4.64
507.098	4.65
507.446	4.66
507.794	4.67
508.141	4.66
508.489	4.68
508.837	4.66
509.184	4.65
509.531	4.67
509.879	4.68
510.226	4.69
510.574	4.72
510.921	4.71
511.268	4.73
511.616	4.77
511.963	4.78
512.31	4.8
512.657	4.81
513.004	4.79
513.351	4.79
513.698	4.83
514.045	4.85
514.392	4.88
514.739	4.9
515.086	4.91
515.432	4.93
515.779	4.95
516.126	4.97
516.473	5.01
516.819	5.03
517.166	5.04
517.512	5.07
517.859	5.08
518.205	5.09
518.552	5.11
518.898	5.12
519.245	5.14
519.591	5.15
519.937	5.17
520.283	5.19
520.629	5.21
520.976	5.21
521.322	5.23
521.668	5.22
522.014	5.24
522.36	5.25
522.706	5.26
523.052	5.26
523.398	5.26
523.743	5.25
524.089	5.28
524.435	5.29
524.781	5.29
525.126	5.29
525.472	5.32
525.817	5.31
526.163	5.31
526.509	5.31
526.854	5.31
527.199	5.32
527.545	5.31
527.89	5.32
528.235	5.32
528.581	5.32
528.926	5.32
529.271	5.32
529.616	5.32
529.961	5.33
530.306	5.34
530.651	5.33
530.996	5.36
531.341	5.34
531.686	5.35
532.031	5.34
532.376	5.34
532.721	5.34
533.065	5.34
533.41	5.33
533.755	5.32
534.099	5.31
534.444	5.3
534.788	5.3
535.133	5.3
535.477	5.32
535.822	5.33
536.166	5.35
536.51	5.36
536.855	5.37
537.199	5.37
537.543	5.35
537.887	5.36
538.231	5.35
538.576	5.34
538.92	5.36
539.264	5.37
539.608	5.37
539.951	5.35
540.295	5.35
540.639	5.37
540.983	5.37
541.327	5.37
541.671	5.38
542.014	5.38
542.358	5.39
542.701	5.38
543.045	5.37
543.389	5.37
543.732	5.37
544.075	5.39
544.419	5.4
544.762	5.43
545.105	5.44
545.449	5.45
545.792	5.47
546.135	5.45
546.478	5.47
546.821	5.48
547.165	5.52
547.508	5.52
547.851	5.54
548.194	5.54
548.536	5.55
548.879	5.55
549.222	5.59
549.565	5.6
549.908	5.6
550.25	5.61
550.593	5.61
550.936	5.6
551.278	5.6
551.621	5.61
551.963	5.61
552.306	5.6
552.648	5.61
552.991	5.61
553.333	5.61
553.675	5.59
554.017	5.57
554.36	5.56
554.702	5.55
555.044	5.53
555.386	5.54
555.728	5.56
556.07	5.55
556.412	5.52
556.754	5.49
557.096	5.51
557.438	5.53
557.78	5.52
558.121	5.53
558.463	5.48
558.805	5.47
559.147	5.47
559.488	5.46
559.83	5.46
560.171	5.47
560.513	5.46
560.854	5.45
561.196	5.46
561.537	5.5
561.878	5.52
562.22	5.55
562.561	5.56
562.902	5.54
563.243	5.56
563.584	5.58
563.925	5.6
564.266	5.61
564.607	5.59
564.948	5.58
565.289	5.6
565.63	5.64
565.971	5.62
566.312	5.6
566.653	5.6
566.993	5.57
567.334	5.61
567.675	5.62
568.015	5.62
568.356	5.63
568.696	5.62
569.037	5.62
569.377	5.62
569.718	5.63
570.058	5.65
570.398	5.63
570.739	5.62
571.079	5.65
571.419	5.65
571.759	5.65
572.099	5.68
572.439	5.65
572.779	5.65
573.119	5.67
573.459	5.68
573.799	5.66
574.139	5.69
574.479	5.66
574.819	5.68
575.158	5.7
575.498	5.7
575.838	5.72
576.177	5.71
576.517	5.73
576.856	5.71
577.196	5.71
577.535	5.72
577.875	5.72
578.214	5.69
578.553	5.68
578.893	5.71
579.232	5.68
579.571	5.73
579.91	5.73
580.25	5.74
580.589	5.76
580.928	5.8
581.267	5.81
581.606	5.84
581.945	5.82
582.283	5.81
582.622	5.8
582.961	5.78
583.3	5.81
583.639	5.79
583.977	5.81
584.316	5.82
584.654	5.84
584.993	5.84
585.332	5.87
585.67	5.88
586.008	5.89
586.347	5.9
586.685	5.86
587.024	5.86
587.362	5.87
587.7	5.88
588.038	5.87
588.376	5.84
588.715	5.79
589.053	5.79
589.391	5.79
589.729	5.79
590.067	5.82
590.404	5.81
590.742	5.83
591.08	5.82
591.418	5.8
591.756	5.82
592.093	5.83
592.431	5.8
592.769	5.81
593.106	5.77
593.444	5.83
593.781	5.86
594.119	5.87
594.456	5.84
594.793	5.82
595.131	5.84
595.468	5.85
595.805	5.89
596.143	5.9
596.48	5.91
596.817	5.9
597.154	5.86
597.491	5.86
597.828	5.85
598.165	5.82
598.502	5.81
598.839	5.82
599.176	5.83
599.512	5.86
599.849	5.85
600.186	5.86
600.523	5.8
600.859	5.81
601.196	5.79
601.532	5.79
601.869	5.81
602.205	5.78
602.542	5.77
602.878	5.78
603.215	5.78
603.551	5.78
603.887	5.76
604.223	5.8
604.56	5.82
604.896	5.86
605.232	5.9
605.568	5.92
605.904	5.87
606.24	5.87
606.576	5.88
606.912	5.85
607.248	5.9
607.583	5.93
607.919	5.88
608.255	5.87
608.591	5.89
608.926	5.88
609.262	5.9
609.597	5.91
609.933	5.88
610.268	5.9
610.604	5.93
610.939	5.98
611.275	6
611.61	5.97
611.945	5.91
612.281	5.92
612.616	5.9
612.951	5.97
613.286	5.93
613.621	5.89
613.956	5.9
614.291	5.92
614.626	5.91
614.961	6
615.296	6.03
615.631	6.08
615.966	6.09
616.3	6.1
616.635	6.13
616.97	6.18
617.304	6.2
617.639	6.2
617.973	6.19
618.308	6.16
618.642	6.22
618.977	6.25
619.311	6.22
619.646	6.26
619.98	6.23
620.314	6.28
620.648	6.29
620.983	6.27
621.317	6.18
621.651	6.23
621.985	6.22
622.319	6.21
622.653	6.17
622.987	6.18
623.321	6.15
623.655	6.17
623.988	6.15
624.322	6.12
624.656	6.08
624.99	6.1
625.323	6.13
625.657	6.16
625.99	6.21
626.324	6.19
626.657	6.16
626.991	6.19
627.324	6.15
627.658	6.15
627.991	6.2
628.324	6.25
628.657	6.22
628.991	6.22
629.324	6.28
629.657	6.28
629.99	6.3
630.323	6.33
630.656	6.31
630.989	6.27
631.322	6.24
631.655	6.24
631.987	6.24
632.32	6.2
632.653	6.2
632.986	6.14
633.318	6.17
633.651	6.19
633.984	6.2
634.316	6.22
634.649	6.23
634.981	6.22
635.313	6.27
635.646	6.26
635.978	6.26
636.31	6.22
636.643	6.2
636.975	6.19
637.307	6.21
637.639	6.21
637.971	6.29
638.303	6.29
638.635	6.33
638.967	6.32
639.299	6.3
639.631	6.2
639.963	6.24
640.295	6.25
640.626	6.24
640.958	6.25
641.29	6.25
641.621	6.27
641.953	6.21
642.285	6.2
642.616	6.21
642.948	6.18
643.279	6.18
643.61	6.17
643.942	6.17
644.273	6.19
644.604	6.16
644.936	6.19
645.267	6.21
645.598	6.16
645.929	6.14
646.26	6.2
646.591	6.22
646.922	6.23
647.253	6.23
647.584	6.24
647.915	6.22
648.245	6.3
648.576	6.28
648.907	6.26
649.238	6.18
649.568	6.14
649.899	6.16
650.229	6.2
650.56	6.23
650.89	6.27
651.221	6.25
651.551	6.31
651.882	6.29
652.212	6.32
652.542	6.36
652.872	6.38
653.203	6.4
653.533	6.43
653.863	6.37
654.193	6.32
654.523	6.32
654.853	6.33
655.183	6.27
655.513	6.29
655.843	6.34
656.172	6.39
656.502	6.4
656.832	6.41
657.162	6.41
657.491	6.45
657.821	6.42
658.15	6.36
658.48	6.39
658.809	6.42
659.139	6.4
659.468	6.47
659.798	6.49
660.127	6.44
660.456	6.4
660.785	6.44
661.115	6.51
661.444	6.5
661.773	6.52
662.102	6.54
662.431	6.53
662.76	6.52
663.089	6.61
663.418	6.65
663.747	6.6
664.076	6.6
664.404	6.62
664.733	6.56
665.062	6.68
665.39	6.64
665.719	6.6
666.048	6.6
666.376	6.55
666.705	6.55
667.033	6.66
667.362	6.7
667.69	6.66
668.018	6.65
668.347	6.69
668.675	6.7
669.003	6.71
669.331	6.69
669.659	6.67
669.987	6.59
670.315	6.55
670.643	6.63
670.971	6.64
671.299	6.63
671.627	6.72
671.955	6.68
672.283	6.7
672.61	6.76
672.938	6.76
673.266	6.83
673.593	6.8
673.921	6.7
674.249	6.63
674.576	6.74
674.904	6.74
675.231	6.74
675.558	6.76
675.886	6.74
676.213	6.77
676.54	6.82
676.867	6.81
677.195	6.85
677.522	6.83
677.849	6.81
678.176	6.79
678.503	6.71
678.83	6.73
679.157	6.71
679.484	6.62
679.81	6.61
