Data from BU26944_Reflection_00011.txt Node
Date: Tue Nov 19 10:54:50 EST 2019
User: vgr7
Spectrometer: USB2G7710
Scans to average: 3
Trigger mode: 4
Integration Time (sec): 2.000000E-2
Electric dark correction enabled: true
Boxcar width: 10
XAxis mode: Wavelengths
Number of Pixels in Spectrum: 2048
>>>>>Begin Spectral Data<<<<<
177.721	-23.28
178.105	-121.24
178.488	-95.4
178.871	-134.29
179.254	320
179.636	166.39
180.019	68.56
180.402	-100
180.785	-117.65
181.168	69.47
181.55	179.4
181.933	155.27
182.316	37.11
182.698	15.65
183.081	5.49
183.463	24.96
183.846	111.25
184.228	70.44
184.611	-237.84
184.993	-40
185.376	-84.21
185.758	142.17
186.14	10.53
186.522	40.76
186.904	-9.64
187.287	-15.23
187.669	12.8
188.051	-18.4
188.433	-53.31
188.815	-77.45
189.197	-37.39
189.579	-25.83
189.961	-22.81
190.342	-30.42
190.724	-41.62
191.106	-47.49
191.488	-56.93
191.869	-52.98
192.251	-63.86
192.633	-87.46
193.014	-77.25
193.396	-91.67
193.777	-57.73
194.159	-37.86
194.54	-36.93
194.922	-42.82
195.303	-53.15
195.684	-56.76
196.065	-54.53
196.447	-55.31
196.828	-47.51
197.209	-49.64
197.59	-47.51
197.971	-48.91
198.352	-52.89
198.733	-64.36
199.114	-49.67
199.495	-44.42
199.876	-56
200.257	-30.88
200.638	-30.79
201.018	-47.06
201.399	-33.71
201.78	-35.75
202.16	-54.04
202.541	-61.76
202.922	-52.01
203.302	-57.05
203.683	-55.32
204.063	-74.45
204.444	-65.11
204.824	-59.42
205.204	-58
205.585	-58.33
205.965	-80.68
206.345	-106.82
206.725	-94.43
207.106	-106.09
207.486	-108.79
207.866	-121.57
208.246	-112.39
208.626	-137.84
209.006	-110.84
209.386	-137.41
209.766	-142.21
210.145	-147.84
210.525	-156.83
210.905	-173.63
211.285	-127.07
211.664	-93.95
212.044	-76.98
212.424	-68.04
212.803	-109.74
213.183	-113.31
213.562	-95.08
213.942	-77.94
214.321	-59.39
214.701	-51.69
215.08	-29.72
215.459	-42.24
215.838	-48.96
216.218	-62.37
216.597	-14.8
216.976	-15.31
217.355	-1.35
217.734	12.11
218.113	25.94
218.492	19.17
218.871	18.91
219.25	7.44
219.629	-9.51
220.008	1.97
220.387	-21.85
220.766	85.24
221.144	91.86
221.523	42.02
221.902	55.44
222.28	49.43
222.659	31.36
223.037	16.09
223.416	25.28
223.794	30.26
224.173	24.02
224.551	14.92
224.929	5.76
225.308	2.29
225.686	5.98
226.064	-1.78
226.442	-2.02
226.821	1.5
227.199	3.4
227.577	1.77
227.955	2.67
228.333	1.68
228.711	-2
229.089	-0.99
229.467	-1.39
229.845	-2.85
230.222	-1.66
230.6	-1.37
230.978	-3.57
231.356	-4.09
231.733	-3.58
232.111	-6.27
232.488	-6.44
232.866	-5.15
233.243	-4.48
233.621	-5.74
233.998	-2.91
234.376	-3.23
234.753	-4.37
235.13	-2.26
235.508	-1.94
235.885	-3.08
236.262	-4.67
236.639	-5.31
237.016	-4.66
237.393	-3.55
237.77	-1.96
238.147	-2.07
238.524	-0.58
238.901	1.24
239.278	0.98
239.655	0.47
240.032	1.39
240.409	1.34
240.785	1.51
241.162	1.88
241.539	2.12
241.915	1.62
242.292	1.78
242.668	2.28
243.045	2.11
243.421	2.12
243.798	2.43
244.174	3.21
244.551	3.43
244.927	3.33
245.303	3.46
245.679	3.41
246.056	3.25
246.432	3.02
246.808	2.97
247.184	2.91
247.56	3
247.936	3.1
248.312	3.49
248.688	3.7
249.064	3.75
249.44	3.81
249.815	4.07
250.191	3.93
250.567	3.79
250.943	3.95
251.318	4.14
251.694	4.03
252.069	3.97
252.445	3.96
252.82	4.01
253.196	4.08
253.571	4.04
253.947	4.53
254.322	4.52
254.697	4.3
255.073	4.21
255.448	3.82
255.823	3.79
256.198	3.16
256.573	3.17
256.948	3.21
257.323	3.21
257.698	3.04
258.073	3.11
258.448	3.3
258.823	3.07
259.198	3.08
259.573	3.11
259.948	3.14
260.322	2.96
260.697	3.09
261.072	3.19
261.446	3.1
261.821	2.84
262.195	2.83
262.57	3.13
262.944	3.16
263.319	3.28
263.693	3.46
264.067	3.84
264.442	3.81
264.816	3.67
265.19	3.42
265.564	3.35
265.938	3.56
266.313	3.42
266.687	3.48
267.061	3.28
267.435	3.22
267.809	2.94
268.183	3.04
268.556	3.08
268.93	2.85
269.304	2.97
269.678	3.15
270.051	3.11
270.425	2.81
270.799	2.7
271.172	2.77
271.546	2.67
271.919	2.41
272.293	2.52
272.666	2.52
273.04	2.69
273.413	2.68
273.787	2.59
274.16	2.58
274.533	2.6
274.906	2.82
275.279	2.88
275.653	3.14
276.026	3.26
276.399	3.18
276.772	3.42
277.145	3.31
277.518	3.18
277.891	3.15
278.263	3.05
278.636	3.23
279.009	3.29
279.382	3.26
279.755	3.37
280.127	3.37
280.5	3.3
280.872	3.47
281.245	3.53
281.617	3.61
281.99	3.68
282.362	3.68
282.735	3.51
283.107	3.49
283.479	3.4
283.852	3.38
284.224	3.4
284.596	3.23
284.968	3.31
285.34	3.34
285.713	3.37
286.085	3.38
286.457	3.47
286.829	3.5
287.201	3.48
287.572	3.55
287.944	3.47
288.316	3.62
288.688	3.59
289.06	3.72
289.431	3.72
289.803	3.74
290.175	3.64
290.546	3.78
290.918	3.82
291.289	3.86
291.661	4.01
292.032	4.09
292.403	4.28
292.775	4.33
293.146	4.42
293.517	4.43
293.889	4.6
294.26	4.51
294.631	4.44
295.002	4.42
295.373	4.44
295.744	4.37
296.115	4.37
296.486	4.36
296.857	4.34
297.228	4.17
297.599	4.1
297.97	4.27
298.34	4.31
298.711	4.41
299.082	4.5
299.452	4.41
299.823	4.32
300.194	4.31
300.564	4.31
300.935	4.45
301.305	4.53
301.676	4.47
302.046	4.5
302.416	4.52
302.787	4.6
303.157	4.7
303.527	4.81
303.897	4.83
304.267	4.9
304.637	4.97
305.008	5.17
305.378	5.45
305.748	5.51
306.117	5.47
306.487	5.47
306.857	5.54
307.227	5.65
307.597	5.68
307.967	5.73
308.336	5.72
308.706	5.72
309.076	5.98
309.445	6.07
309.815	6.17
310.184	6.31
310.554	6.26
310.923	6.21
311.293	6.39
311.662	6.53
312.031	6.6
312.401	6.52
312.77	6.7
313.139	6.66
313.508	6.62
313.877	6.8
314.246	6.74
314.616	6.61
314.985	6.57
315.353	6.83
315.722	7.02
316.091	7.11
316.46	7.09
316.829	6.97
317.198	7.15
317.567	7.23
317.935	7.25
318.304	7.62
318.672	7.77
319.041	7.82
319.41	7.69
319.778	7.67
320.147	7.78
320.515	7.68
320.883	7.74
321.252	7.9
321.62	7.87
321.988	8.12
322.357	8.31
322.725	8.36
323.093	8.22
323.461	8.19
323.829	8.42
324.197	8.42
324.565	8.39
324.933	8.35
325.301	8.31
325.669	8.39
326.037	8.27
326.405	8.23
326.772	8.2
327.14	8.39
327.508	8.42
327.875	8.52
328.243	8.56
328.61	8.56
328.978	8.63
329.346	8.58
329.713	8.62
330.08	8.67
330.448	8.96
330.815	9
331.182	8.94
331.55	8.75
331.917	8.68
332.284	8.83
332.651	8.9
333.018	8.96
333.385	8.89
333.752	8.97
334.119	8.99
334.486	8.96
334.853	8.92
335.22	8.9
335.587	9.03
335.954	9.12
336.32	9.23
336.687	9.29
337.054	9.38
337.42	9.26
337.787	9.31
338.153	9.1
338.52	9.32
338.886	9.41
339.253	9.37
339.619	9.56
339.986	9.54
340.352	9.64
340.718	9.73
341.084	9.8
341.451	9.8
341.817	9.9
342.183	10.09
342.549	10.14
342.915	10.18
343.281	10.18
343.647	10.18
344.013	10.1
344.379	10.01
344.745	10.1
345.11	10.26
345.476	10.22
345.842	10.31
346.208	10.16
346.573	10.18
346.939	10.28
347.304	10.32
347.67	10.3
348.035	10.19
348.401	10.17
348.766	10.11
349.132	10.1
349.497	10.02
349.862	9.94
350.228	9.99
350.593	10.03
350.958	9.96
351.323	9.95
351.688	9.96
352.053	10.02
352.418	9.93
352.783	9.79
353.148	9.81
353.513	9.79
353.878	9.86
354.243	9.7
354.608	9.78
354.972	9.85
355.337	9.84
355.702	9.83
356.066	9.83
356.431	9.88
356.795	9.86
357.16	9.88
357.524	9.8
357.889	9.71
358.253	9.7
358.618	9.73
358.982	9.68
359.346	9.66
359.71	9.6
360.075	9.6
360.439	9.58
360.803	9.57
361.167	9.6
361.531	9.55
361.895	9.61
362.259	9.62
362.623	9.56
362.987	9.5
363.351	9.43
363.714	9.4
364.078	9.34
364.442	9.31
364.806	9.26
365.169	9.23
365.533	9.15
365.896	9.15
366.26	9.08
366.623	9.01
366.987	8.98
367.35	8.97
367.714	8.87
368.077	8.86
368.44	8.85
368.803	8.73
369.167	8.61
369.53	8.6
369.893	8.47
370.256	8.36
370.619	8.33
370.982	8.29
371.345	8.15
371.708	8.12
372.071	8.02
372.434	8.01
372.797	8
373.159	8.04
373.522	7.96
373.885	7.85
374.247	7.82
374.61	7.77
374.973	7.72
375.335	7.71
375.698	7.65
376.06	7.52
376.423	7.51
376.785	7.48
377.147	7.36
377.51	7.29
377.872	7.2
378.234	7.14
378.596	7.06
378.958	7.08
379.321	7.02
379.683	7.03
380.045	6.96
380.407	6.9
380.769	6.75
381.13	6.68
381.492	6.66
381.854	6.64
382.216	6.6
382.578	6.53
382.939	6.44
383.301	6.38
383.663	6.41
384.024	6.32
384.386	6.29
384.747	6.23
385.109	6.25
385.47	6.23
385.832	6.15
386.193	6.15
386.554	6.04
386.916	5.99
387.277	5.9
387.638	5.87
387.999	5.79
388.36	5.8
388.721	5.73
389.082	5.71
389.443	5.63
389.804	5.58
390.165	5.59
390.526	5.56
390.887	5.52
391.248	5.42
391.609	5.41
391.969	5.36
392.33	5.32
392.691	5.21
393.051	5.16
393.412	5.17
393.772	5.13
394.133	5.16
394.493	5.15
394.854	5.13
395.214	5.08
395.574	5.04
395.935	4.99
396.295	4.94
396.655	4.89
397.015	4.88
397.376	4.84
397.736	4.78
398.096	4.73
398.456	4.7
398.816	4.67
399.176	4.63
399.535	4.58
399.895	4.53
400.255	4.53
400.615	4.51
400.975	4.47
401.334	4.44
401.694	4.41
402.054	4.35
402.413	4.28
402.773	4.24
403.132	4.25
403.492	4.24
403.851	4.26
404.211	4.24
404.57	4.22
404.929	4.18
405.288	4.16
405.648	4.13
406.007	4.08
406.366	4.06
406.725	4.04
407.084	4.05
407.443	4.05
407.802	4.04
408.161	4.05
408.52	4.06
408.879	4.02
409.238	3.98
409.596	4.01
409.955	4.02
410.314	4.04
410.673	4
411.031	3.97
411.39	3.97
411.748	3.94
412.107	3.88
412.465	3.9
412.824	3.86
413.182	3.87
413.54	3.87
413.899	3.86
414.257	3.83
414.615	3.8
414.974	3.78
415.332	3.75
415.69	3.73
416.048	3.74
416.406	3.75
416.764	3.74
417.122	3.7
417.48	3.7
417.838	3.67
418.195	3.65
418.553	3.64
418.911	3.61
419.269	3.59
419.626	3.6
419.984	3.58
420.342	3.57
420.699	3.55
421.057	3.54
421.414	3.54
421.772	3.54
422.129	3.53
422.486	3.53
422.844	3.51
423.201	3.5
423.558	3.47
423.915	3.47
424.273	3.46
424.63	3.45
424.987	3.44
425.344	3.44
425.701	3.43
426.058	3.42
426.415	3.42
426.772	3.41
427.128	3.41
427.485	3.41
427.842	3.38
428.199	3.39
428.555	3.36
428.912	3.32
429.269	3.3
429.625	3.28
429.982	3.26
430.338	3.26
430.695	3.24
431.051	3.22
431.407	3.19
431.764	3.19
432.12	3.2
432.476	3.2
432.832	3.19
433.189	3.21
433.545	3.22
433.901	3.21
434.257	3.21
434.613	3.18
434.969	3.17
435.325	3.18
435.681	3.19
436.036	3.2
436.392	3.21
436.748	3.24
437.104	3.24
437.459	3.25
437.815	3.24
438.171	3.26
438.526	3.28
438.882	3.29
439.237	3.27
439.593	3.26
439.948	3.24
440.304	3.24
440.659	3.22
441.014	3.22
441.369	3.22
441.725	3.21
442.08	3.22
442.435	3.22
442.79	3.2
443.145	3.2
443.5	3.19
443.855	3.18
444.21	3.15
444.565	3.15
444.92	3.15
445.275	3.14
445.629	3.13
445.984	3.11
446.339	3.11
446.693	3.13
447.048	3.12
447.403	3.12
447.757	3.11
448.112	3.1
448.466	3.09
448.82	3.08
449.175	3.09
449.529	3.09
449.883	3.08
450.238	3.07
450.592	3.07
450.946	3.08
451.3	3.09
451.654	3.08
452.008	3.08
452.362	3.07
452.716	3.08
453.07	3.07
453.424	3.09
453.778	3.07
454.132	3.04
454.486	3.05
454.839	3.04
455.193	3.05
455.547	3.05
455.9	3.06
456.254	3.05
456.607	3.04
456.961	3.04
457.314	3.04
457.668	3.04
458.021	3.04
458.375	3.01
458.728	3.02
459.081	3.04
459.434	3.03
459.787	3.04
460.141	3.03
460.494	3.03
460.847	3.03
461.2	3.03
461.553	3.05
461.906	3.06
462.259	3.06
462.611	3.06
462.964	3.08
463.317	3.09
463.67	3.1
464.022	3.11
464.375	3.12
464.728	3.13
465.08	3.15
465.433	3.15
465.785	3.18
466.138	3.18
466.49	3.18
466.843	3.21
467.195	3.22
467.547	3.23
467.899	3.24
468.252	3.26
468.604	3.28
468.956	3.29
469.308	3.29
469.66	3.32
470.012	3.34
470.364	3.32
470.716	3.32
471.068	3.34
471.42	3.35
471.772	3.35
472.123	3.36
472.475	3.35
472.827	3.37
473.178	3.38
473.53	3.4
473.882	3.41
474.233	3.39
474.585	3.4
474.936	3.4
475.288	3.4
475.639	3.39
475.99	3.4
476.342	3.4
476.693	3.41
477.044	3.39
477.395	3.37
477.746	3.38
478.097	3.38
478.448	3.36
478.8	3.36
479.15	3.36
479.501	3.35
479.852	3.35
480.203	3.35
480.554	3.34
480.905	3.35
481.255	3.34
481.606	3.35
481.957	3.35
482.307	3.35
482.658	3.35
483.009	3.35
483.359	3.34
483.709	3.34
484.06	3.35
484.41	3.34
484.761	3.35
485.111	3.36
485.461	3.35
485.811	3.35
486.162	3.35
486.512	3.35
486.862	3.35
487.212	3.35
487.562	3.35
487.912	3.35
488.262	3.35
488.612	3.36
488.961	3.35
489.311	3.35
489.661	3.34
490.011	3.35
490.36	3.34
490.71	3.34
491.06	3.34
491.409	3.33
491.759	3.33
492.108	3.33
492.458	3.32
492.807	3.33
493.157	3.34
493.506	3.35
493.855	3.35
494.204	3.37
494.554	3.38
494.903	3.38
495.252	3.38
495.601	3.39
495.95	3.4
496.299	3.4
496.648	3.43
496.997	3.45
497.346	3.47
497.695	3.51
498.043	3.56
498.392	3.6
498.741	3.64
499.09	3.67
499.438	3.71
499.787	3.74
500.135	3.78
500.484	3.8
500.832	3.83
501.181	3.87
501.529	3.92
501.878	3.97
502.226	4.02
502.574	4.07
502.923	4.11
503.271	4.17
503.619	4.23
503.967	4.29
504.315	4.35
504.663	4.41
505.011	4.45
505.359	4.47
505.707	4.51
506.055	4.56
506.403	4.61
506.751	4.66
507.098	4.73
507.446	4.78
507.794	4.86
508.141	4.93
508.489	5
508.837	5.05
509.184	5.13
509.531	5.2
509.879	5.27
510.226	5.35
510.574	5.41
510.921	5.49
511.268	5.55
511.616	5.64
511.963	5.72
512.31	5.81
512.657	5.91
513.004	6
513.351	6.12
513.698	6.24
514.045	6.35
514.392	6.46
514.739	6.58
515.086	6.68
515.432	6.81
515.779	6.91
516.126	7.03
516.473	7.13
516.819	7.23
517.166	7.34
517.512	7.44
517.859	7.55
518.205	7.65
518.552	7.76
518.898	7.85
519.245	7.95
519.591	8.06
519.937	8.18
520.283	8.29
520.629	8.4
520.976	8.51
521.322	8.66
521.668	8.77
522.014	8.89
522.36	9.02
522.706	9.14
523.052	9.31
523.398	9.47
523.743	9.63
524.089	9.78
524.435	9.94
524.781	10.08
525.126	10.23
525.472	10.37
525.817	10.49
526.163	10.6
526.509	10.71
526.854	10.81
527.199	10.91
527.545	11.01
527.89	11.1
528.235	11.19
528.581	11.28
528.926	11.39
529.271	11.48
529.616	11.6
529.961	11.72
530.306	11.81
530.651	11.92
530.996	12.04
531.341	12.18
531.686	12.29
532.031	12.42
532.376	12.52
532.721	12.64
533.065	12.76
533.41	12.9
533.755	13.05
534.099	13.18
534.444	13.31
534.788	13.44
535.133	13.58
535.477	13.73
535.822	13.88
536.166	14.03
536.51	14.2
536.855	14.37
537.199	14.54
537.543	14.72
537.887	14.91
538.231	15.1
538.576	15.28
538.92	15.5
539.264	15.67
539.608	15.87
539.951	16.04
540.295	16.22
540.639	16.39
540.983	16.55
541.327	16.72
541.671	16.87
542.014	17.05
542.358	17.22
542.701	17.38
543.045	17.54
543.389	17.7
543.732	17.86
544.075	18.02
544.419	18.18
544.762	18.37
545.105	18.54
545.449	18.75
545.792	18.95
546.135	19.14
546.478	19.35
546.821	19.58
547.165	19.81
547.508	20.03
547.851	20.26
548.194	20.46
548.536	20.69
548.879	20.9
549.222	21.16
549.565	21.37
549.908	21.61
550.25	21.87
550.593	22.13
550.936	22.39
551.278	22.68
551.621	22.92
551.963	23.19
552.306	23.49
552.648	23.71
552.991	23.99
553.333	24.23
553.675	24.5
554.017	24.74
554.36	25.04
554.702	25.31
555.044	25.55
555.386	25.84
555.728	26.1
556.07	26.4
556.412	26.63
556.754	26.91
557.096	27.22
557.438	27.53
557.78	27.83
558.121	28.17
558.463	28.41
558.805	28.75
559.147	29.08
559.488	29.3
559.83	29.6
560.171	29.9
560.513	30.21
560.854	30.47
561.196	30.75
561.537	30.97
561.878	31.22
562.22	31.53
562.561	31.78
562.902	32.03
563.243	32.3
563.584	32.57
563.925	32.86
564.266	33.08
564.607	33.29
564.948	33.52
565.289	33.7
565.63	33.97
565.971	34.19
566.312	34.36
566.653	34.67
566.993	34.93
567.334	35.16
567.675	35.37
568.015	35.62
568.356	35.87
568.696	36.15
569.037	36.42
569.377	36.69
569.718	36.97
570.058	37.25
570.398	37.51
570.739	37.72
571.079	37.94
571.419	38.17
571.759	38.42
572.099	38.61
572.439	38.85
572.779	39.04
573.119	39.26
573.459	39.47
573.799	39.68
574.139	39.86
574.479	40.07
574.819	40.31
575.158	40.49
575.498	40.67
575.838	40.85
576.177	40.94
576.517	41.04
576.856	41.23
577.196	41.47
577.535	41.65
577.875	41.81
578.214	42.01
578.553	42.19
578.893	42.34
579.232	42.53
579.571	42.78
579.91	42.99
580.25	43.12
580.589	43.36
580.928	43.5
581.267	43.64
581.606	43.75
581.945	43.88
582.283	44.1
582.622	44.28
582.961	44.45
583.3	44.67
583.639	44.93
583.977	45.04
584.316	45.12
584.654	45.26
584.993	45.45
585.332	45.63
585.67	45.78
586.008	46
586.347	46.14
586.685	46.22
587.024	46.38
587.362	46.55
587.7	46.62
588.038	46.75
588.376	46.94
588.715	47.1
589.053	47.22
589.391	47.41
589.729	47.49
590.067	47.62
590.404	47.71
590.742	47.81
591.08	47.97
591.418	48.08
591.756	48.12
592.093	48.3
592.431	48.41
592.769	48.46
593.106	48.51
593.444	48.65
593.781	48.75
594.119	48.87
594.456	48.97
594.793	49.07
595.131	49.11
595.468	49.19
595.805	49.28
596.143	49.34
596.48	49.35
596.817	49.4
597.154	49.49
597.491	49.58
597.828	49.63
598.165	49.75
598.502	49.9
598.839	50.04
599.176	50.15
599.512	50.19
599.849	50.31
600.186	50.44
600.523	50.52
600.859	50.6
601.196	50.61
601.532	50.73
601.869	50.79
602.205	50.92
602.542	51
602.878	51.05
603.215	51.16
603.551	51.26
603.887	51.37
604.223	51.45
604.56	51.56
604.896	51.62
605.232	51.63
605.568	51.63
605.904	51.66
606.24	51.7
606.576	51.82
606.912	51.94
607.248	51.97
607.583	52.02
607.919	52.15
608.255	52.22
608.591	52.22
608.926	52.31
609.262	52.42
609.597	52.45
609.933	52.53
610.268	52.56
610.604	52.59
610.939	52.64
611.275	52.61
611.61	52.59
611.945	52.61
612.281	52.62
612.616	52.69
612.951	52.85
613.286	52.87
613.621	52.91
613.956	52.99
614.291	53.04
614.626	53.14
614.961	53.13
615.296	53.18
615.631	53.28
615.966	53.32
616.3	53.26
616.635	53.24
616.97	53.26
617.304	53.32
617.639	53.36
617.973	53.45
618.308	53.51
618.642	53.61
618.977	53.66
619.311	53.75
619.646	53.76
619.98	53.75
620.314	53.76
620.648	53.67
620.983	53.62
621.317	53.64
621.651	53.59
621.985	53.67
622.319	53.71
622.653	53.73
622.987	53.76
623.321	53.84
623.655	53.92
623.988	53.97
624.322	54.07
624.656	54.08
624.99	54.16
625.323	54.25
625.657	54.28
625.99	54.34
626.324	54.38
626.657	54.48
626.991	54.46
627.324	54.49
627.658	54.54
627.991	54.58
628.324	54.61
628.657	54.71
628.991	54.74
629.324	54.83
629.657	54.85
629.99	54.91
630.323	54.95
630.656	55.03
630.989	55.05
631.322	55.02
631.655	55.08
631.987	55.07
632.32	55.07
632.653	55.13
632.986	55.16
633.318	55.19
633.651	55.22
633.984	55.34
634.316	55.32
634.649	55.35
634.981	55.46
635.313	55.54
635.646	55.49
635.978	55.5
636.31	55.4
636.643	55.45
636.975	55.46
637.307	55.48
637.639	55.43
637.971	55.46
638.303	55.43
638.635	55.39
638.967	55.33
639.299	55.37
639.631	55.42
639.963	55.48
640.295	55.51
640.626	55.34
640.958	55.3
641.29	55.37
641.621	55.35
641.953	55.29
642.285	55.37
642.616	55.48
642.948	55.55
643.279	55.72
643.61	55.72
643.942	55.65
644.273	55.64
644.604	55.58
644.936	55.51
645.267	55.57
645.598	55.52
645.929	55.61
646.26	55.42
646.591	55.35
646.922	55.3
647.253	55.25
647.584	55.31
647.915	55.37
648.245	55.43
648.576	55.61
648.907	55.53
649.238	55.41
649.568	55.33
649.899	55.31
650.229	55.27
650.56	55.32
650.89	55.39
651.221	55.41
651.551	55.4
651.882	55.54
652.212	55.63
652.542	55.75
652.872	55.78
653.203	55.85
653.533	55.88
653.863	55.92
654.193	56.03
654.523	56.13
654.853	56.09
655.183	56.08
655.513	56.02
655.843	56.17
656.172	56.33
656.502	56.39
656.832	56.39
657.162	56.4
657.491	56.47
657.821	56.41
658.15	56.56
658.48	56.72
658.809	56.81
659.139	56.78
659.468	56.83
659.798	56.78
660.127	56.92
660.456	56.96
660.785	56.97
661.115	56.86
661.444	56.93
661.773	57.07
662.102	57.07
662.431	57.2
662.76	57.25
663.089	57.14
663.418	57.11
663.747	57.17
664.076	57.27
664.404	57.22
664.733	57.31
665.062	57.23
665.39	57.22
665.719	57.03
666.048	57.09
666.376	57.15
666.705	57.36
667.033	57.15
