Data from BU26846_Reflection_00005.txt Node
Date: Mon Nov 18 16:33:27 EST 2019
User: vgr7
Spectrometer: USB2G7710
Scans to average: 3
Trigger mode: 4
Integration Time (sec): 2.000000E-2
Electric dark correction enabled: true
Boxcar width: 10
XAxis mode: Wavelengths
Number of Pixels in Spectrum: 2048
>>>>>Begin Spectral Data<<<<<
177.721	76.21
178.105	-220.75
178.488	-167.18
178.871	-35.35
179.254	15.16
179.636	-11.3
180.019	10.4
180.402	9.09
180.785	212.4
181.168	255.48
181.55	92.34
181.933	57.72
182.316	25.57
182.698	23.08
183.081	31.18
183.463	22.5
183.846	47.37
184.228	151.75
184.611	437.7
184.993	1796.63
185.376	-1147.42
185.758	2142.25
186.14	167.99
186.522	210.84
186.904	81.25
187.287	63.16
187.669	68.96
188.051	67
188.433	79.47
188.815	34.73
189.197	10.32
189.579	40.07
189.961	125.54
190.342	357.79
190.724	-178.56
191.106	474.05
191.488	112.43
191.869	32.5
192.251	56.11
192.633	29.81
193.014	11.55
193.396	21.48
193.777	12.12
194.159	18.67
194.54	14.64
194.922	17.12
195.303	7.58
195.684	15.07
196.065	16.6
196.447	2.11
196.828	16.08
197.209	-10.01
197.59	15.38
197.971	46.42
198.352	20.33
198.733	27.3
199.114	37.64
199.495	93.53
199.876	-387.44
200.257	-87.65
200.638	-32.9
201.018	-62.79
201.399	-22.55
201.78	-12.78
202.16	-19.53
202.541	-20.73
202.922	-49.01
203.302	-70.52
203.683	-92.43
204.063	-115.45
204.444	-84.37
204.824	-116.94
205.204	-144.3
205.585	-183.55
205.965	-131.77
206.345	-141.62
206.725	-171.19
207.106	-220.9
207.486	-262.13
207.866	-315.51
208.246	-403.05
208.626	-356.24
209.006	-273.91
209.386	-330.35
209.766	-544.24
210.145	-464.08
210.525	-453.26
210.905	-266.41
211.285	-297.72
211.664	-229.89
212.044	-214.83
212.424	-252.62
212.803	-226.2
213.183	-205.4
213.562	-144.82
213.942	-297.71
214.321	-219.07
214.701	-166.95
215.08	-304.38
215.459	-250.08
215.838	-169.47
216.218	-169.82
216.597	-262.46
216.976	-273.32
217.355	-269.3
217.734	-171.65
218.113	-163
218.492	-268.06
218.871	-6737.84
219.25	-157.02
219.629	-376.06
220.008	716.77
220.387	-2197.3
220.766	-99.37
221.144	-3260.66
221.523	1596.89
221.902	704.46
222.28	1533.57
222.659	-400.78
223.037	-82.45
223.416	-108.76
223.794	-111.14
224.173	-97.66
224.551	-57.87
224.929	-33.35
225.308	-9.95
225.686	-13.47
226.064	-17.07
226.442	-10.08
226.821	-5.58
227.199	-11.31
227.577	-11.97
227.955	-15.44
228.333	-16.58
228.711	-14.58
229.089	-6.3
229.467	-1.7
229.845	-3.47
230.222	-2.71
230.6	-3.98
230.978	-6.43
231.356	-5.62
231.733	-5.73
232.111	-0.62
232.488	-1.6
232.866	-2.43
233.243	-2.9
233.621	-4.15
233.998	-1.68
234.376	-4.09
234.753	-5.73
235.13	-5.32
235.508	-5.26
235.885	-2.83
236.262	-3.25
236.639	-2
237.016	-1.43
237.393	0.29
237.77	1.7
238.147	1.72
238.524	2.85
238.901	3.83
239.278	4.4
239.655	5.15
240.032	4.08
240.409	3.75
240.785	3.53
241.162	3.78
241.539	3.85
241.915	3.47
242.292	3.72
242.668	4.12
243.045	4.47
243.421	4.58
243.798	4.39
244.174	4.16
244.551	4.12
244.927	3.98
245.303	3.85
245.679	4.06
246.056	3.92
246.432	3.92
246.808	3.73
247.184	3.43
247.56	3.3
247.936	3.41
248.312	3.41
248.688	3.34
249.064	3.22
249.44	3.34
249.815	3.34
250.191	3.38
250.567	3.5
250.943	3.2
251.318	3.25
251.694	3.18
252.069	3.21
252.445	2.99
252.82	2.93
253.196	2.81
253.571	2.56
253.947	2.82
254.322	3.1
254.697	3.08
255.073	3.28
255.448	3.27
255.823	3.36
256.198	3.43
256.573	3.37
256.948	3.36
257.323	3.52
257.698	3.64
258.073	3.6
258.448	3.44
258.823	3.57
259.198	3.4
259.573	3.4
259.948	3.46
260.322	3.39
260.697	3.24
261.072	3.16
261.446	3.25
261.821	3.1
262.195	2.98
262.57	3.05
262.944	3.09
263.319	3.14
263.693	3.11
264.067	3.15
264.442	3.42
264.816	3.4
265.19	3.14
265.564	3.04
265.938	2.99
266.313	3.04
266.687	2.97
267.061	3.2
267.435	3.32
267.809	3.25
268.183	3.61
268.556	3.65
268.93	3.69
269.304	3.66
269.678	3.82
270.051	3.75
270.425	3.75
270.799	3.7
271.172	3.67
271.546	3.68
271.919	3.74
272.293	3.83
272.666	3.85
273.04	3.98
273.413	3.94
273.787	3.94
274.16	3.72
274.533	3.8
274.906	3.68
275.279	3.54
275.653	3.7
276.026	3.37
276.399	3.35
276.772	3.39
277.145	3.25
277.518	3.07
277.891	2.94
278.263	2.78
278.636	2.82
279.009	2.91
279.382	2.89
279.755	2.79
280.127	2.66
280.5	2.78
280.872	2.86
281.245	2.88
281.617	3.04
281.99	3.27
282.362	3.23
282.735	3.13
283.107	3.13
283.479	3.11
283.852	3.15
284.224	3.14
284.596	3.19
284.968	3.31
285.34	3.46
285.713	3.62
286.085	3.63
286.457	3.58
286.829	3.49
287.201	3.59
287.572	3.49
287.944	3.36
288.316	3.26
288.688	3.25
289.06	3.16
289.431	3.09
289.803	3.11
290.175	3.1
290.546	3.33
290.918	3.41
291.289	3.38
291.661	3.5
292.032	3.57
292.403	3.54
292.775	3.63
293.146	3.5
293.517	3.5
293.889	3.67
294.26	3.67
294.631	3.79
295.002	3.69
295.373	3.7
295.744	3.73
296.115	3.68
296.486	3.6
296.857	3.67
297.228	3.7
297.599	3.65
297.97	3.79
298.34	3.79
298.711	3.91
299.082	3.86
299.452	3.85
299.823	3.92
300.194	3.95
300.564	3.69
300.935	3.76
301.305	3.65
301.676	3.59
302.046	3.68
302.416	3.61
302.787	3.55
303.157	3.74
303.527	3.84
303.897	3.84
304.267	3.96
304.637	3.98
305.008	3.94
305.378	4.05
305.748	3.94
306.117	3.83
306.487	3.62
306.857	3.64
307.227	3.5
307.597	3.47
307.967	3.36
308.336	3.5
308.706	3.43
309.076	3.5
309.445	3.47
309.815	3.51
310.184	3.45
310.554	3.39
310.923	3.27
311.293	3.28
311.662	3.27
312.031	3.18
312.401	3.17
312.77	3.2
313.139	3.1
313.508	2.95
313.877	2.97
314.246	2.96
314.616	2.81
314.985	2.96
315.353	2.93
315.722	2.91
316.091	2.84
316.46	2.76
316.829	2.74
317.198	2.61
317.567	2.56
317.935	2.61
318.304	2.8
318.672	2.61
319.041	2.54
319.41	2.54
319.778	2.55
320.147	2.71
320.515	2.67
320.883	2.51
321.252	2.59
321.62	2.51
321.988	2.57
322.357	2.73
322.725	2.57
323.093	2.66
323.461	2.69
323.829	2.87
324.197	2.99
324.565	3.03
324.933	3.17
325.301	3.1
325.669	2.92
326.037	2.93
326.405	3.07
326.772	3.08
327.14	3.1
327.508	3.02
327.875	2.84
328.243	2.78
328.61	2.94
328.978	3.02
329.346	3.05
329.713	2.99
330.08	2.93
330.448	2.82
330.815	2.62
331.182	2.77
331.55	2.68
331.917	2.6
332.284	2.61
332.651	2.62
333.018	2.68
333.385	2.76
333.752	2.69
334.119	2.67
334.486	2.58
334.853	2.51
335.22	2.58
335.587	2.73
335.954	2.83
336.32	2.75
336.687	2.76
337.054	2.72
337.42	2.85
337.787	3.03
338.153	3.19
338.52	3.24
338.886	3.1
339.253	3.03
339.619	3.07
339.986	3.02
340.352	2.98
340.718	2.88
341.084	2.89
341.451	2.87
341.817	2.98
342.183	2.97
342.549	3.01
342.915	3.09
343.281	3.04
343.647	2.91
344.013	2.99
344.379	2.86
344.745	3
345.11	2.93
345.476	2.77
345.842	2.77
346.208	2.8
346.573	2.91
346.939	3
347.304	3.03
347.67	2.99
348.035	2.92
348.401	3.05
348.766	3.14
349.132	3.17
349.497	2.96
349.862	3.12
350.228	3.18
350.593	3.1
350.958	3.09
351.323	3.21
351.688	3.21
352.053	3.29
352.418	3.25
352.783	3.24
353.148	3.36
353.513	3.38
353.878	3.4
354.243	3.47
354.608	3.39
354.972	3.38
355.337	3.42
355.702	3.56
356.066	3.51
356.431	3.48
356.795	3.49
357.16	3.51
357.524	3.36
357.889	3.35
358.253	3.42
358.618	3.47
358.982	3.43
359.346	3.4
359.71	3.38
360.075	3.3
360.439	3.3
360.803	3.21
361.167	3.16
361.531	3.08
361.895	2.99
362.259	3
362.623	3.04
362.987	3.03
363.351	2.99
363.714	3.05
364.078	3.04
364.442	3.03
364.806	3.03
365.169	3.06
365.533	3.11
365.896	3.09
366.26	2.98
366.623	2.97
366.987	2.97
367.35	2.95
367.714	3.01
368.077	3.02
368.44	3.1
368.803	3.1
369.167	3.15
369.53	3.11
369.893	3.15
370.256	3.14
370.619	3.2
370.982	3.14
371.345	3.01
371.708	3.04
372.071	3
372.434	3.03
372.797	3.05
373.159	3.01
373.522	3
373.885	3.09
374.247	3.17
374.61	3.16
374.973	3.18
375.335	3.2
375.698	3.19
376.06	3.13
376.423	3.11
376.785	3.18
377.147	3.28
377.51	3.28
377.872	3.31
378.234	3.33
378.596	3.39
378.958	3.44
379.321	3.4
379.683	3.46
380.045	3.42
380.407	3.45
380.769	3.4
381.13	3.38
381.492	3.36
381.854	3.35
382.216	3.35
382.578	3.4
382.939	3.4
383.301	3.38
383.663	3.35
384.024	3.41
384.386	3.34
384.747	3.27
385.109	3.27
385.47	3.26
385.832	3.22
386.193	3.19
386.554	3.18
386.916	3.2
387.277	3.16
387.638	3.2
387.999	3.15
388.36	3.2
388.721	3.21
389.082	3.21
389.443	3.17
389.804	3.2
390.165	3.17
390.526	3.17
390.887	3.23
391.248	3.3
391.609	3.31
391.969	3.36
392.33	3.38
392.691	3.35
393.051	3.34
393.412	3.37
393.772	3.37
394.133	3.43
394.493	3.4
394.854	3.42
395.214	3.39
395.574	3.41
395.935	3.43
396.295	3.46
396.655	3.45
397.015	3.47
397.376	3.47
397.736	3.51
398.096	3.51
398.456	3.48
398.816	3.47
399.176	3.43
399.535	3.39
399.895	3.4
400.255	3.44
400.615	3.46
400.975	3.46
401.334	3.49
401.694	3.45
402.054	3.46
402.413	3.48
402.773	3.47
403.132	3.45
403.492	3.46
403.851	3.48
404.211	3.48
404.57	3.47
404.929	3.43
405.288	3.4
405.648	3.4
406.007	3.38
406.366	3.37
406.725	3.43
407.084	3.47
407.443	3.48
407.802	3.5
408.161	3.48
408.52	3.45
408.879	3.41
409.238	3.43
409.596	3.43
409.955	3.45
410.314	3.46
410.673	3.48
411.031	3.47
411.39	3.44
411.748	3.46
412.107	3.5
412.465	3.52
412.824	3.5
413.182	3.48
413.54	3.51
413.899	3.52
414.257	3.51
414.615	3.47
414.974	3.45
415.332	3.41
415.69	3.39
416.048	3.38
416.406	3.42
416.764	3.4
417.122	3.42
417.48	3.39
417.838	3.42
418.195	3.43
418.553	3.43
418.911	3.43
419.269	3.44
419.626	3.43
419.984	3.45
420.342	3.46
420.699	3.46
421.057	3.46
421.414	3.46
421.772	3.46
422.129	3.47
422.486	3.47
422.844	3.48
423.201	3.47
423.558	3.49
423.915	3.48
424.273	3.49
424.63	3.48
424.987	3.49
425.344	3.48
425.701	3.48
426.058	3.48
426.415	3.47
426.772	3.47
427.128	3.47
427.485	3.46
427.842	3.45
428.199	3.44
428.555	3.44
428.912	3.42
429.269	3.42
429.625	3.42
429.982	3.43
430.338	3.42
430.695	3.45
431.051	3.45
431.407	3.45
431.764	3.44
432.12	3.45
432.476	3.45
432.832	3.44
433.189	3.46
433.545	3.45
433.901	3.46
434.257	3.45
434.613	3.46
434.969	3.45
435.325	3.47
435.681	3.49
436.036	3.5
436.392	3.51
436.748	3.51
437.104	3.51
437.459	3.49
437.815	3.51
438.171	3.52
438.526	3.51
438.882	3.53
439.237	3.54
439.593	3.55
439.948	3.54
440.304	3.54
440.659	3.55
441.014	3.55
441.369	3.54
441.725	3.53
442.08	3.52
442.435	3.52
442.79	3.53
443.145	3.53
443.5	3.52
443.855	3.51
444.21	3.51
444.565	3.52
444.92	3.54
445.275	3.54
445.629	3.52
445.984	3.51
446.339	3.5
446.693	3.5
447.048	3.49
447.403	3.49
447.757	3.5
448.112	3.49
448.466	3.5
448.82	3.51
449.175	3.53
449.529	3.54
449.883	3.54
450.238	3.53
450.592	3.53
450.946	3.53
451.3	3.53
451.654	3.53
452.008	3.52
452.362	3.5
452.716	3.48
453.07	3.5
453.424	3.52
453.778	3.53
454.132	3.52
454.486	3.52
454.839	3.51
455.193	3.5
455.547	3.48
455.9	3.48
456.254	3.49
456.607	3.49
456.961	3.49
457.314	3.49
457.668	3.49
458.021	3.49
458.375	3.49
458.728	3.51
459.081	3.52
459.434	3.51
459.787	3.53
460.141	3.52
460.494	3.53
460.847	3.52
461.2	3.53
461.553	3.53
461.906	3.54
462.259	3.57
462.611	3.59
462.964	3.61
463.317	3.63
463.67	3.63
464.022	3.61
464.375	3.59
464.728	3.61
465.08	3.61
465.433	3.63
465.785	3.63
466.138	3.63
466.49	3.62
466.843	3.64
467.195	3.63
467.547	3.66
467.899	3.64
468.252	3.63
468.604	3.63
468.956	3.6
469.308	3.59
469.66	3.58
470.012	3.58
470.364	3.57
470.716	3.54
471.068	3.54
471.42	3.55
471.772	3.57
472.123	3.57
472.475	3.57
472.827	3.57
473.178	3.6
473.53	3.59
473.882	3.6
474.233	3.58
474.585	3.58
474.936	3.58
475.288	3.61
475.639	3.63
475.99	3.63
476.342	3.66
476.693	3.65
477.044	3.65
477.395	3.65
477.746	3.65
478.097	3.65
478.448	3.68
478.8	3.67
479.15	3.66
479.501	3.66
479.852	3.67
480.203	3.66
480.554	3.66
480.905	3.68
481.255	3.68
481.606	3.7
481.957	3.7
482.307	3.71
482.658	3.71
483.009	3.71
483.359	3.71
483.709	3.71
484.06	3.73
484.41	3.74
484.761	3.74
485.111	3.75
485.461	3.75
485.811	3.74
486.162	3.75
486.512	3.77
486.862	3.77
487.212	3.77
487.562	3.77
487.912	3.77
488.262	3.76
488.612	3.76
488.961	3.76
489.311	3.77
489.661	3.76
490.011	3.76
490.36	3.75
490.71	3.75
491.06	3.76
491.409	3.75
491.759	3.73
492.108	3.73
492.458	3.72
492.807	3.73
493.157	3.72
493.506	3.72
493.855	3.7
494.204	3.7
494.554	3.7
494.903	3.7
495.252	3.69
495.601	3.69
495.95	3.7
496.299	3.68
496.648	3.68
496.997	3.68
497.346	3.69
497.695	3.7
498.043	3.7
498.392	3.7
498.741	3.71
499.09	3.72
499.438	3.73
499.787	3.73
500.135	3.73
500.484	3.74
500.832	3.73
501.181	3.73
501.529	3.74
501.878	3.75
502.226	3.75
502.574	3.76
502.923	3.76
503.271	3.76
503.619	3.78
503.967	3.77
504.315	3.77
504.663	3.76
505.011	3.77
505.359	3.77
505.707	3.77
506.055	3.77
506.403	3.77
506.751	3.78
507.098	3.77
507.446	3.78
507.794	3.77
508.141	3.79
508.489	3.8
508.837	3.79
509.184	3.8
509.531	3.81
509.879	3.82
510.226	3.84
510.574	3.85
510.921	3.86
511.268	3.86
511.616	3.84
511.963	3.85
512.31	3.84
512.657	3.84
513.004	3.85
513.351	3.87
513.698	3.86
514.045	3.85
514.392	3.85
514.739	3.87
515.086	3.86
515.432	3.87
515.779	3.88
516.126	3.9
516.473	3.9
516.819	3.9
517.166	3.91
517.512	3.9
517.859	3.91
518.205	3.91
518.552	3.95
518.898	3.95
519.245	3.95
519.591	3.97
519.937	3.98
520.283	4
520.629	4
520.976	4.02
521.322	4.04
521.668	4.05
522.014	4.06
522.36	4.08
522.706	4.08
523.052	4.08
523.398	4.09
523.743	4.09
524.089	4.09
524.435	4.09
524.781	4.1
525.126	4.1
525.472	4.1
525.817	4.08
526.163	4.1
526.509	4.1
526.854	4.08
527.199	4.07
527.545	4.06
527.89	4.05
528.235	4.05
528.581	4.04
528.926	4.03
529.271	4.03
529.616	4.03
529.961	4.02
530.306	4.03
530.651	4.01
530.996	4.01
531.341	4.02
531.686	4.02
532.031	4.02
532.376	4.01
532.721	4
533.065	4.01
533.41	4
533.755	3.99
534.099	4.01
534.444	4.02
534.788	4.03
535.133	4.03
535.477	4.03
535.822	4.03
536.166	4.04
536.51	4.04
536.855	4.03
537.199	4.04
537.543	4.05
537.887	4.06
538.231	4.05
538.576	4.04
538.92	4.03
539.264	4.02
539.608	4.02
539.951	4.03
540.295	4.03
540.639	4.04
540.983	4.05
541.327	4.04
541.671	4.04
542.014	4.04
542.358	4.05
542.701	4.07
543.045	4.08
543.389	4.08
543.732	4.09
544.075	4.09
544.419	4.08
544.762	4.07
545.105	4.08
545.449	4.08
545.792	4.1
546.135	4.12
546.478	4.12
546.821	4.12
547.165	4.12
547.508	4.14
547.851	4.12
548.194	4.11
548.536	4.13
548.879	4.15
549.222	4.15
549.565	4.15
549.908	4.15
550.25	4.11
550.593	4.11
550.936	4.08
551.278	4.08
551.621	4.09
551.963	4.1
552.306	4.09
552.648	4.07
552.991	4.08
553.333	4.06
553.675	4.04
554.017	4.05
554.36	4.03
554.702	4.03
555.044	4.04
555.386	4.06
555.728	4.05
556.07	4.04
556.412	4
556.754	3.99
557.096	3.98
557.438	4.01
557.78	4.02
558.121	4.03
558.463	4.05
558.805	4.05
559.147	4.04
559.488	4.05
559.83	4.08
560.171	4.07
560.513	4.07
560.854	4.1
561.196	4.09
561.537	4.1
561.878	4.08
562.22	4.1
562.561	4.08
562.902	4.09
563.243	4.1
563.584	4.13
563.925	4.14
564.266	4.16
564.607	4.15
564.948	4.19
565.289	4.21
565.63	4.23
565.971	4.21
566.312	4.21
566.653	4.2
566.993	4.19
567.334	4.19
567.675	4.21
568.015	4.2
568.356	4.2
568.696	4.22
569.037	4.23
569.377	4.23
569.718	4.21
570.058	4.21
570.398	4.18
570.739	4.18
571.079	4.18
571.419	4.16
571.759	4.16
572.099	4.12
572.439	4.09
572.779	4.1
573.119	4.13
573.459	4.13
573.799	4.18
574.139	4.18
574.479	4.19
574.819	4.16
575.158	4.14
575.498	4.14
575.838	4.14
576.177	4.11
576.517	4.09
576.856	4.1
577.196	4.11
577.535	4.11
577.875	4.12
578.214	4.13
578.553	4.16
578.893	4.17
579.232	4.19
579.571	4.2
579.91	4.17
580.25	4.14
580.589	4.14
580.928	4.12
581.267	4.08
581.606	4.09
581.945	4.07
582.283	4.1
582.622	4.09
582.961	4.09
583.3	4.15
583.639	4.21
583.977	4.21
584.316	4.2
584.654	4.2
584.993	4.19
585.332	4.18
585.67	4.15
586.008	4.14
586.347	4.12
586.685	4.11
587.024	4.1
587.362	4.12
587.7	4.11
588.038	4.11
588.376	4.16
588.715	4.15
589.053	4.2
589.391	4.22
589.729	4.25
590.067	4.22
590.404	4.17
590.742	4.14
591.08	4.14
591.418	4.16
591.756	4.22
592.093	4.23
592.431	4.24
592.769	4.27
593.106	4.25
593.444	4.26
593.781	4.24
594.119	4.27
594.456	4.27
594.793	4.29
595.131	4.26
595.468	4.26
595.805	4.27
596.143	4.24
596.48	4.24
596.817	4.23
597.154	4.29
597.491	4.3
597.828	4.26
598.165	4.25
598.502	4.23
598.839	4.21
599.176	4.18
599.512	4.19
599.849	4.17
600.186	4.2
600.523	4.25
600.859	4.32
601.196	4.28
601.532	4.27
601.869	4.26
602.205	4.26
602.542	4.3
602.878	4.29
603.215	4.31
603.551	4.28
603.887	4.28
604.223	4.26
604.56	4.26
604.896	4.31
605.232	4.36
605.568	4.35
605.904	4.35
606.24	4.38
606.576	4.38
606.912	4.4
607.248	4.39
607.583	4.32
607.919	4.28
608.255	4.31
608.591	4.35
608.926	4.36
609.262	4.39
609.597	4.39
609.933	4.39
610.268	4.38
610.604	4.41
610.939	4.39
611.275	4.39
611.61	4.4
611.945	4.39
612.281	4.37
612.616	4.4
612.951	4.41
613.286	4.4
613.621	4.39
613.956	4.36
614.291	4.37
614.626	4.41
614.961	4.44
615.296	4.38
615.631	4.34
615.966	4.36
616.3	4.33
616.635	4.29
616.97	4.27
617.304	4.31
617.639	4.35
617.973	4.4
618.308	4.39
618.642	4.4
618.977	4.38
619.311	4.37
619.646	4.37
619.98	4.36
620.314	4.38
620.648	4.4
620.983	4.47
621.317	4.47
621.651	4.5
621.985	4.52
622.319	4.54
622.653	4.55
622.987	4.56
623.321	4.59
623.655	4.59
623.988	4.66
624.322	4.61
624.656	4.58
624.99	4.57
625.323	4.61
625.657	4.65
625.99	4.68
626.324	4.65
626.657	4.65
626.991	4.65
627.324	4.6
627.658	4.63
627.991	4.61
628.324	4.62
628.657	4.63
628.991	4.58
629.324	4.6
629.657	4.57
629.99	4.54
630.323	4.52
630.656	4.52
630.989	4.47
631.322	4.53
631.655	4.53
631.987	4.55
632.32	4.52
632.653	4.45
632.986	4.46
633.318	4.51
633.651	4.5
633.984	4.5
634.316	4.55
634.649	4.53
634.981	4.49
635.313	4.52
635.646	4.5
635.978	4.55
636.31	4.56
636.643	4.61
636.975	4.58
637.307	4.57
637.639	4.59
637.971	4.59
638.303	4.54
638.635	4.54
638.967	4.48
639.299	4.52
639.631	4.59
639.963	4.53
640.295	4.53
640.626	4.57
640.958	4.65
641.29	4.67
641.621	4.66
641.953	4.61
642.285	4.54
642.616	4.54
642.948	4.52
643.279	4.5
643.61	4.46
643.942	4.47
644.273	4.44
644.604	4.47
644.936	4.45
645.267	4.39
645.598	4.35
645.929	4.39
646.26	4.36
646.591	4.32
646.922	4.34
647.253	4.33
647.584	4.29
647.915	4.18
648.245	4.1
648.576	4.12
648.907	4.24
649.238	4.26
649.568	4.18
649.899	4.14
650.229	4.18
650.56	4.2
650.89	4.22
651.221	4.28
651.551	4.29
651.882	4.35
652.212	4.4
652.542	4.44
652.872	4.41
653.203	4.38
653.533	4.45
653.863	4.41
654.193	4.44
654.523	4.43
654.853	4.59
655.183	4.59
655.513	4.57
655.843	4.45
656.172	4.47
656.502	4.54
656.832	4.58
657.162	4.63
657.491	4.62
657.821	4.64
658.15	4.67
658.48	4.66
658.809	4.69
659.139	4.76
659.468	4.76
659.798	4.77
660.127	4.79
660.456	4.8
660.785	4.88
661.115	4.86
661.444	4.86
661.773	4.78
662.102	4.82
662.431	4.88
662.76	5.01
663.089	5.03
663.418	5.01
663.747	4.98
664.076	4.93
664.404	4.9
664.733	4.95
665.062	4.89
665.39	4.92
665.719	4.85
666.048	4.8
666.376	4.8
666.705	4.84
667.033	4.82
667.362	4.84
667.69	4.84
668.018	4.82
668.347	4.85
668.675	4.87
669.003	4.83
669.331	4.8
669.659	4.73
669.987	4.73
670.315	4.67
670.643	4.7
670.971	4.74
671.299	4.82
671.627	4.88
671.955	4.89
672.283	4.85
672.61	4.85
672.938	4.89
673.266	4.92
673.593	5.02
673.921	5.07
674.249	4.95
674.576	4.97
674.904	4.94
675.231	4.9
675.558	4.84
675.886	4.86
676.213	4.83
676.54	4.86
676.867	4.84
677.195	4.94
