Data from BU26939_Reflection_00015.txt Node
Date: Tue Nov 19 10:57:04 EST 2019
User: vgr7
Spectrometer: USB2G7710
Scans to average: 3
Trigger mode: 4
Integration Time (sec): 2.000000E-2
Electric dark correction enabled: true
Boxcar width: 10
XAxis mode: Wavelengths
Number of Pixels in Spectrum: 2048
>>>>>Begin Spectral Data<<<<<
177.721	47.23
178.105	23.76
178.488	18.99
178.871	96.97
179.254	62.96
179.636	142.29
180.019	-50.54
180.402	117.65
180.785	127.67
181.168	70.28
181.55	914.81
181.933	180.81
182.316	-301.13
182.698	161.73
183.081	-407.94
183.463	-543.68
183.846	-287.6
184.228	-102.28
184.611	-51.68
184.993	-16.89
185.376	4.61
185.758	25.03
186.14	7.98
186.522	-7.1
186.904	-12.82
187.287	-31.13
187.669	-8.68
188.051	-20.68
188.433	-34.07
188.815	-100.87
189.197	-67.1
189.579	-52.8
189.961	-43.31
190.342	-31.17
190.724	-34.38
191.106	-12.91
191.488	-0.59
191.869	4.96
192.251	0.33
192.633	-6.87
193.014	-3.13
193.396	-5.07
193.777	-7.79
194.159	-2.06
194.54	17.42
194.922	33.55
195.303	25.77
195.684	22.68
196.065	16.12
196.447	23.86
196.828	34.3
197.209	35.78
197.59	45.65
197.971	42.62
198.352	37.53
198.733	27.91
199.114	26.82
199.495	13.29
199.876	11.71
200.257	12.06
200.638	10.9
201.018	12.04
201.399	15.25
201.78	28.88
202.16	24.3
202.541	2.26
202.922	-19.88
203.302	-9.82
203.683	-19.02
204.063	-8.17
204.444	-14.3
204.824	-22.85
205.204	-16.61
205.585	-18.05
205.965	-16.32
206.345	-11
206.725	-2.08
207.106	7.11
207.486	13.87
207.866	12.32
208.246	22.23
208.626	26.6
209.006	7.3
209.386	0.04
209.766	-11.36
210.145	-5.51
210.525	-1.13
210.905	14.02
211.285	17.6
211.664	28.91
212.044	24.7
212.424	24.64
212.803	26.05
213.183	25.19
213.562	32.1
213.942	31.09
214.321	34.08
214.701	25.77
215.08	12.11
215.459	25.65
215.838	24.62
216.218	15.97
216.597	13.97
216.976	27.26
217.355	28.19
217.734	26.6
218.113	31.53
218.492	31.53
218.871	35.5
219.25	23.67
219.629	-0.85
220.008	18.94
220.387	35.58
220.766	49.63
221.144	51.6
221.523	53.19
221.902	58.78
222.28	48.1
222.659	45.48
223.037	46.7
223.416	29.68
223.794	24.13
224.173	23.34
224.551	14.81
224.929	5.88
225.308	1.56
225.686	4.89
226.064	-0.09
226.442	-1.07
226.821	-3.72
227.199	-1.19
227.577	3.53
227.955	3.18
228.333	2.25
228.711	2.89
229.089	1.66
229.467	0.92
229.845	-1.05
230.222	-0.32
230.6	-3.05
230.978	-2.93
231.356	-1.43
231.733	-1.95
232.111	1.54
232.488	3.95
232.866	5.4
233.243	6.53
233.621	7.84
233.998	8.25
234.376	8.35
234.753	8.08
235.13	6.76
235.508	6.18
235.885	5.92
236.262	3.97
236.639	3.02
237.016	3.2
237.393	4.15
237.77	5.68
238.147	4.96
238.524	6.74
238.901	6.39
239.278	5.27
239.655	5.17
240.032	4.39
240.409	4.06
240.785	4.21
241.162	4.42
241.539	3.68
241.915	3.63
242.292	3.79
242.668	4.06
243.045	4.75
243.421	4.63
243.798	4.38
244.174	4.98
244.551	4.73
244.927	4.63
245.303	4.44
245.679	4.11
246.056	4.16
246.432	3.93
246.808	4.2
247.184	4.28
247.56	4.14
247.936	4.04
248.312	4.06
248.688	4.23
249.064	4.12
249.44	4.34
249.815	4.5
250.191	4.55
250.567	4.61
250.943	4.4
251.318	4.3
251.694	4.47
252.069	4.23
252.445	4.26
252.82	4.72
253.196	4.61
253.571	4.47
253.947	4.45
254.322	4.52
254.697	4.09
255.073	4.2
255.448	4.26
255.823	4.33
256.198	4.24
256.573	4.02
256.948	4.04
257.323	3.71
257.698	3.59
258.073	3.34
258.448	3.4
258.823	3.32
259.198	3.35
259.573	3.36
259.948	3.47
260.322	3.36
260.697	3.09
261.072	3.1
261.446	3.19
261.821	3.33
262.195	3.22
262.57	3.35
262.944	3.3
263.319	3.48
263.693	3.49
264.067	3.52
264.442	3.54
264.816	3.38
265.19	3.44
265.564	3.46
265.938	3.55
266.313	3.27
266.687	3.32
267.061	3.36
267.435	3.33
267.809	3.13
268.183	3.41
268.556	3.44
268.93	3.52
269.304	3.46
269.678	3.5
270.051	3.62
270.425	3.5
270.799	3.5
271.172	3.4
271.546	3.39
271.919	3.57
272.293	3.65
272.666	3.85
273.04	3.91
273.413	3.74
273.787	3.78
274.16	3.87
274.533	3.91
274.906	4.01
275.279	3.94
275.653	4.06
276.026	3.87
276.399	3.87
276.772	3.76
277.145	3.72
277.518	3.4
277.891	3.26
278.263	3.38
278.636	3.43
279.009	3.64
279.382	3.51
279.755	3.37
280.127	3.27
280.5	3.19
280.872	3.16
281.245	3.23
281.617	3.25
281.99	3.26
282.362	3.12
282.735	2.94
283.107	2.91
283.479	2.96
283.852	2.93
284.224	2.98
284.596	3.01
284.968	3.03
285.34	3.16
285.713	3.18
286.085	3.13
286.457	2.99
286.829	2.89
287.201	3
287.572	3
287.944	3.08
288.316	3.15
288.688	3.19
289.06	3.18
289.431	3.12
289.803	3.09
290.175	3.23
290.546	3.2
290.918	3.24
291.289	3.11
291.661	3.22
292.032	3.33
292.403	3.29
292.775	3.38
293.146	3.42
293.517	3.5
293.889	3.6
294.26	3.73
294.631	3.79
295.002	3.81
295.373	3.89
295.744	3.91
296.115	3.88
296.486	4
296.857	4.1
297.228	4.2
297.599	4.21
297.97	4.29
298.34	4.49
298.711	4.54
299.082	4.65
299.452	4.64
299.823	4.58
300.194	4.75
300.564	4.71
300.935	4.72
301.305	4.78
301.676	4.75
302.046	4.81
302.416	4.78
302.787	4.78
303.157	4.75
303.527	4.79
303.897	4.73
304.267	4.77
304.637	4.8
305.008	4.75
305.378	4.7
305.748	4.6
306.117	4.48
306.487	4.46
306.857	4.54
307.227	4.77
307.597	4.81
307.967	4.78
308.336	4.86
308.706	4.96
309.076	5.07
309.445	5.07
309.815	5.18
310.184	5.16
310.554	5.18
310.923	5.25
311.293	5.31
311.662	5.49
312.031	5.41
312.401	5.41
312.77	5.55
313.139	5.63
313.508	5.65
313.877	5.75
314.246	5.86
314.616	5.94
314.985	5.82
315.353	5.88
315.722	5.96
316.091	5.95
316.46	5.92
316.829	5.89
317.198	6.03
317.567	6.02
317.935	6.13
318.304	6.3
318.672	6.45
319.041	6.52
319.41	6.56
319.778	6.64
320.147	6.73
320.515	6.79
320.883	6.93
321.252	7.02
321.62	7.06
321.988	7.1
322.357	7
322.725	6.97
323.093	6.96
323.461	7.05
323.829	7.27
324.197	7.44
324.565	7.4
324.933	7.4
325.301	7.35
325.669	7.39
326.037	7.35
326.405	7.35
326.772	7.4
327.14	7.28
327.508	7.37
327.875	7.39
328.243	7.26
328.61	7.32
328.978	7.43
329.346	7.42
329.713	7.5
330.08	7.66
330.448	7.81
330.815	7.93
331.182	7.86
331.55	7.85
331.917	7.85
332.284	7.9
332.651	7.9
333.018	7.94
333.385	7.99
333.752	7.95
334.119	7.94
334.486	7.85
334.853	8.01
335.22	7.92
335.587	7.98
335.954	8.04
336.32	8.01
336.687	8.06
337.054	8.19
337.42	8.23
337.787	8.18
338.153	8.27
338.52	8.34
338.886	8.44
339.253	8.34
339.619	8.31
339.986	8.31
340.352	8.39
340.718	8.49
341.084	8.61
341.451	8.66
341.817	8.75
342.183	8.81
342.549	8.82
342.915	8.89
343.281	8.87
343.647	9.08
344.013	9.25
344.379	9.11
344.745	9.19
345.11	9.13
345.476	9.19
345.842	9.16
346.208	9.19
346.573	9.2
346.939	9.27
347.304	9.28
347.67	9.37
348.035	9.31
348.401	9.29
348.766	9.17
349.132	9.23
349.497	9.14
349.862	9.09
350.228	9.19
350.593	9.18
350.958	9.2
351.323	9.1
351.688	8.97
352.053	9.1
352.418	9
352.783	9.01
353.148	9.02
353.513	8.99
353.878	8.82
354.243	8.77
354.608	8.83
354.972	8.86
355.337	8.9
355.702	8.99
356.066	8.95
356.431	9.1
356.795	9.15
357.16	9.17
357.524	9.2
357.889	9.14
358.253	9.13
358.618	9.13
358.982	9.13
359.346	9.14
359.71	9.06
360.075	9.04
360.439	9.16
360.803	9.17
361.167	9.14
361.531	9.17
361.895	9.14
362.259	9.13
362.623	9.1
362.987	9.05
363.351	9
363.714	9
364.078	8.88
364.442	8.83
364.806	8.78
365.169	8.79
365.533	8.74
365.896	8.77
366.26	8.67
366.623	8.58
366.987	8.58
367.35	8.63
367.714	8.6
368.077	8.46
368.44	8.34
368.803	8.31
369.167	8.25
369.53	8.25
369.893	8.22
370.256	8.2
370.619	8.11
370.982	8.05
371.345	7.98
371.708	7.99
372.071	7.93
372.434	7.89
372.797	7.87
373.159	7.78
373.522	7.66
373.885	7.66
374.247	7.56
374.61	7.49
374.973	7.44
375.335	7.38
375.698	7.28
376.06	7.26
376.423	7.23
376.785	7.24
377.147	7.17
377.51	7.12
377.872	7.02
378.234	6.99
378.596	6.96
378.958	6.95
379.321	6.86
379.683	6.82
380.045	6.78
380.407	6.71
380.769	6.69
381.13	6.69
381.492	6.68
381.854	6.65
382.216	6.61
382.578	6.57
382.939	6.52
383.301	6.49
383.663	6.46
384.024	6.46
384.386	6.42
384.747	6.4
385.109	6.33
385.47	6.29
385.832	6.28
386.193	6.25
386.554	6.14
386.916	6.11
387.277	6.05
387.638	6.03
387.999	5.98
388.36	5.95
388.721	5.93
389.082	5.87
389.443	5.91
389.804	5.87
390.165	5.82
390.526	5.81
390.887	5.77
391.248	5.75
391.609	5.73
391.969	5.69
392.33	5.68
392.691	5.67
393.051	5.65
393.412	5.62
393.772	5.59
394.133	5.59
394.493	5.57
394.854	5.51
395.214	5.48
395.574	5.45
395.935	5.41
396.295	5.35
396.655	5.31
397.015	5.25
397.376	5.19
397.736	5.13
398.096	5.05
398.456	5
398.816	4.96
399.176	4.88
399.535	4.84
399.895	4.78
400.255	4.73
400.615	4.68
400.975	4.64
401.334	4.65
401.694	4.63
402.054	4.59
402.413	4.59
402.773	4.55
403.132	4.53
403.492	4.51
403.851	4.5
404.211	4.47
404.57	4.45
404.929	4.44
405.288	4.43
405.648	4.43
406.007	4.43
406.366	4.39
406.725	4.38
407.084	4.32
407.443	4.29
407.802	4.28
408.161	4.25
408.52	4.22
408.879	4.18
409.238	4.17
409.596	4.19
409.955	4.18
410.314	4.16
410.673	4.16
411.031	4.13
411.39	4.11
411.748	4.12
412.107	4.09
412.465	4.07
412.824	4.07
413.182	4.05
413.54	4.06
413.899	4.03
414.257	4
414.615	4.03
414.974	4.04
415.332	4.01
415.69	4.01
416.048	4
416.406	3.98
416.764	3.96
417.122	3.93
417.48	3.9
417.838	3.89
418.195	3.85
418.553	3.83
418.911	3.81
419.269	3.79
419.626	3.77
419.984	3.78
420.342	3.75
420.699	3.73
421.057	3.71
421.414	3.71
421.772	3.7
422.129	3.68
422.486	3.66
422.844	3.65
423.201	3.65
423.558	3.63
423.915	3.62
424.273	3.6
424.63	3.58
424.987	3.58
425.344	3.57
425.701	3.56
426.058	3.56
426.415	3.54
426.772	3.54
427.128	3.54
427.485	3.53
427.842	3.53
428.199	3.51
428.555	3.5
428.912	3.5
429.269	3.49
429.625	3.51
429.982	3.5
430.338	3.48
430.695	3.45
431.051	3.44
431.407	3.44
431.764	3.44
432.12	3.44
432.476	3.42
432.832	3.42
433.189	3.42
433.545	3.45
433.901	3.44
434.257	3.43
434.613	3.42
434.969	3.41
435.325	3.41
435.681	3.41
436.036	3.42
436.392	3.41
436.748	3.4
437.104	3.38
437.459	3.38
437.815	3.4
438.171	3.41
438.526	3.43
438.882	3.42
439.237	3.43
439.593	3.44
439.948	3.44
440.304	3.43
440.659	3.43
441.014	3.41
441.369	3.42
441.725	3.42
442.08	3.41
442.435	3.4
442.79	3.41
443.145	3.41
443.5	3.38
443.855	3.38
444.21	3.39
444.565	3.38
444.92	3.38
445.275	3.36
445.629	3.35
445.984	3.33
446.339	3.33
446.693	3.32
447.048	3.3
447.403	3.29
447.757	3.28
448.112	3.28
448.466	3.28
448.82	3.28
449.175	3.27
449.529	3.27
449.883	3.26
450.238	3.26
450.592	3.25
450.946	3.24
451.3	3.24
451.654	3.23
452.008	3.22
452.362	3.21
452.716	3.21
453.07	3.22
453.424	3.22
453.778	3.22
454.132	3.18
454.486	3.2
454.839	3.2
455.193	3.21
455.547	3.22
455.9	3.22
456.254	3.21
456.607	3.2
456.961	3.19
457.314	3.19
457.668	3.18
458.021	3.22
458.375	3.23
458.728	3.22
459.081	3.23
459.434	3.25
459.787	3.26
460.141	3.28
460.494	3.27
460.847	3.26
461.2	3.25
461.553	3.28
461.906	3.28
462.259	3.28
462.611	3.29
462.964	3.29
463.317	3.28
463.67	3.28
464.022	3.29
464.375	3.3
464.728	3.32
465.08	3.34
465.433	3.34
465.785	3.35
466.138	3.37
466.49	3.38
466.843	3.38
467.195	3.38
467.547	3.38
467.899	3.41
468.252	3.46
468.604	3.48
468.956	3.49
469.308	3.52
469.66	3.55
470.012	3.56
470.364	3.6
470.716	3.62
471.068	3.64
471.42	3.66
471.772	3.68
472.123	3.69
472.475	3.71
472.827	3.72
473.178	3.71
473.53	3.72
473.882	3.74
474.233	3.75
474.585	3.76
474.936	3.76
475.288	3.76
475.639	3.74
475.99	3.73
476.342	3.73
476.693	3.71
477.044	3.69
477.395	3.69
477.746	3.65
478.097	3.65
478.448	3.66
478.8	3.67
479.15	3.66
479.501	3.64
479.852	3.63
480.203	3.61
480.554	3.61
480.905	3.6
481.255	3.6
481.606	3.59
481.957	3.6
482.307	3.6
482.658	3.6
483.009	3.6
483.359	3.61
483.709	3.6
484.06	3.6
484.41	3.6
484.761	3.6
485.111	3.6
485.461	3.61
485.811	3.6
486.162	3.59
486.512	3.58
486.862	3.59
487.212	3.58
487.562	3.57
487.912	3.57
488.262	3.57
488.612	3.56
488.961	3.55
489.311	3.55
489.661	3.54
490.011	3.53
490.36	3.51
490.71	3.51
491.06	3.52
491.409	3.52
491.759	3.52
492.108	3.52
492.458	3.52
492.807	3.52
493.157	3.54
493.506	3.56
493.855	3.59
494.204	3.6
494.554	3.61
494.903	3.64
495.252	3.68
495.601	3.72
495.95	3.74
496.299	3.79
496.648	3.83
496.997	3.86
497.346	3.92
497.695	3.95
498.043	4
498.392	4.05
498.741	4.11
499.09	4.18
499.438	4.23
499.787	4.28
500.135	4.33
500.484	4.39
500.832	4.45
501.181	4.5
501.529	4.57
501.878	4.65
502.226	4.73
502.574	4.81
502.923	4.88
503.271	4.98
503.619	5.07
503.967	5.15
504.315	5.25
504.663	5.37
505.011	5.51
505.359	5.61
505.707	5.7
506.055	5.8
506.403	5.89
506.751	6.01
507.098	6.13
507.446	6.24
507.794	6.36
508.141	6.47
508.489	6.6
508.837	6.73
509.184	6.86
509.531	7.01
509.879	7.14
510.226	7.28
510.574	7.42
510.921	7.57
511.268	7.73
511.616	7.89
511.963	8.02
512.31	8.17
512.657	8.32
513.004	8.52
513.351	8.71
513.698	8.92
514.045	9.14
514.392	9.36
514.739	9.62
515.086	9.84
515.432	10.08
515.779	10.31
516.126	10.57
516.473	10.78
516.819	10.97
517.166	11.17
517.512	11.36
517.859	11.56
518.205	11.74
518.552	11.92
518.898	12.11
519.245	12.33
519.591	12.53
519.937	12.75
520.283	12.95
520.629	13.17
520.976	13.41
521.322	13.63
521.668	13.86
522.014	14.1
522.36	14.35
522.706	14.6
523.052	14.87
523.398	15.13
523.743	15.42
524.089	15.73
524.435	16.01
524.781	16.29
525.126	16.54
525.472	16.77
525.817	17
526.163	17.22
526.509	17.39
526.854	17.55
527.199	17.7
527.545	17.86
527.89	18.04
528.235	18.21
528.581	18.37
528.926	18.55
529.271	18.71
529.616	18.89
529.961	19.06
530.306	19.25
530.651	19.42
530.996	19.62
531.341	19.8
531.686	19.99
532.031	20.19
532.376	20.4
532.721	20.62
533.065	20.83
533.41	21.04
533.755	21.28
534.099	21.53
534.444	21.78
534.788	22.03
535.133	22.25
535.477	22.45
535.822	22.69
536.166	22.93
536.51	23.17
536.855	23.45
537.199	23.71
537.543	24
537.887	24.29
538.231	24.6
538.576	24.92
538.92	25.22
539.264	25.53
539.608	25.77
539.951	26.04
540.295	26.27
540.639	26.53
540.983	26.75
541.327	26.97
541.671	27.18
542.014	27.38
542.358	27.6
542.701	27.82
543.045	28.01
543.389	28.23
543.732	28.44
544.075	28.64
544.419	28.88
544.762	29.1
545.105	29.34
545.449	29.57
545.792	29.82
546.135	30.06
546.478	30.29
546.821	30.56
547.165	30.81
547.508	31.07
547.851	31.3
548.194	31.55
548.536	31.84
548.879	32.11
549.222	32.38
549.565	32.65
549.908	32.91
550.25	33.2
550.593	33.45
550.936	33.75
551.278	34.04
551.621	34.29
551.963	34.52
552.306	34.76
552.648	35
552.991	35.2
553.333	35.46
553.675	35.72
554.017	35.95
554.36	36.15
554.702	36.36
555.044	36.61
555.386	36.81
555.728	37
556.07	37.23
556.412	37.44
556.754	37.6
557.096	37.84
557.438	38.06
557.78	38.3
558.121	38.48
558.463	38.73
558.805	38.9
559.147	39.15
559.488	39.43
559.83	39.61
560.171	39.83
560.513	40.04
560.854	40.21
561.196	40.4
561.537	40.66
561.878	40.91
562.22	41.1
562.561	41.33
562.902	41.51
563.243	41.72
563.584	41.86
563.925	42.12
564.266	42.3
564.607	42.51
564.948	42.67
565.289	42.88
565.63	43
565.971	43.19
566.312	43.33
566.653	43.46
566.993	43.66
567.334	43.78
567.675	43.96
568.015	44.15
568.356	44.28
568.696	44.42
569.037	44.55
569.377	44.67
569.718	44.84
570.058	44.99
570.398	45.14
570.739	45.32
571.079	45.45
571.419	45.58
571.759	45.71
572.099	45.82
572.439	45.94
572.779	46.05
573.119	46.17
573.459	46.23
573.799	46.32
574.139	46.45
574.479	46.56
574.819	46.64
575.158	46.74
575.498	46.87
575.838	46.96
576.177	47.08
576.517	47.25
576.856	47.34
577.196	47.46
577.535	47.49
577.875	47.6
578.214	47.7
578.553	47.82
578.893	47.93
579.232	48.08
579.571	48.2
579.91	48.36
580.25	48.55
580.589	48.74
580.928	48.87
581.267	48.93
581.606	49.08
581.945	49.2
582.283	49.29
582.622	49.36
582.961	49.51
583.3	49.63
583.639	49.71
583.977	49.8
584.316	49.89
584.654	50
584.993	50.02
585.332	50.15
585.67	50.2
586.008	50.3
586.347	50.27
586.685	50.38
587.024	50.4
587.362	50.46
587.7	50.52
588.038	50.65
588.376	50.74
588.715	50.77
589.053	50.79
589.391	50.81
589.729	50.91
590.067	51.01
590.404	51.13
590.742	51.18
591.08	51.24
591.418	51.31
591.756	51.42
592.093	51.53
592.431	51.59
592.769	51.69
593.106	51.71
593.444	51.89
593.781	51.89
594.119	51.97
594.456	51.99
594.793	51.99
595.131	51.95
595.468	52.02
595.805	52.13
596.143	52.2
596.48	52.27
596.817	52.32
597.154	52.35
597.491	52.33
597.828	52.4
598.165	52.45
598.502	52.48
598.839	52.56
599.176	52.6
599.512	52.68
599.849	52.75
600.186	52.76
600.523	52.83
600.859	52.9
601.196	52.98
601.532	52.95
601.869	53.08
602.205	53.16
602.542	53.19
602.878	53.26
603.215	53.32
603.551	53.38
603.887	53.47
604.223	53.46
604.56	53.54
604.896	53.59
605.232	53.62
605.568	53.71
605.904	53.73
606.24	53.8
606.576	53.79
606.912	53.81
607.248	53.88
607.583	53.86
607.919	53.88
608.255	53.88
608.591	54.07
608.926	54.15
609.262	54.18
609.597	54.29
609.933	54.32
610.268	54.36
610.604	54.37
610.939	54.38
611.275	54.46
611.61	54.48
611.945	54.47
612.281	54.54
612.616	54.58
612.951	54.69
613.286	54.66
613.621	54.73
613.956	54.81
614.291	54.93
614.626	54.99
614.961	55.12
615.296	55.14
615.631	55.11
615.966	55.1
616.3	55.17
616.635	55.09
616.97	55.13
617.304	55.21
617.639	55.21
617.973	55.26
618.308	55.28
618.642	55.23
618.977	55.25
619.311	55.33
619.646	55.28
619.98	55.15
620.314	55.2
620.648	55.13
620.983	55.07
621.317	55.08
621.651	55.09
621.985	55.07
622.319	55.1
622.653	55.11
622.987	55.11
623.321	55.11
623.655	55.13
623.988	55.15
624.322	55.09
624.656	55.11
624.99	55.1
625.323	55.19
625.657	55.21
625.99	55.27
626.324	55.22
626.657	55.19
626.991	55.31
627.324	55.3
627.658	55.43
627.991	55.48
628.324	55.46
628.657	55.46
628.991	55.56
629.324	55.57
629.657	55.6
629.99	55.65
630.323	55.62
630.656	55.65
630.989	55.66
631.322	55.73
631.655	55.81
631.987	55.8
632.32	55.78
632.653	55.9
632.986	55.85
633.318	55.9
633.651	56
633.984	56.06
634.316	56.06
634.649	56.07
634.981	56.13
635.313	56.19
635.646	56.24
635.978	56.16
636.31	56.15
636.643	56.12
636.975	56.1
637.307	56.22
637.639	56.23
637.971	56.31
638.303	56.4
638.635	56.38
638.967	56.49
639.299	56.47
639.631	56.41
639.963	56.39
640.295	56.35
640.626	56.42
640.958	56.32
641.29	56.41
641.621	56.38
641.953	56.27
642.285	56.28
642.616	56.33
642.948	56.35
643.279	56.45
643.61	56.51
643.942	56.51
644.273	56.5
644.604	56.48
644.936	56.26
645.267	56.24
645.598	56.25
645.929	56.21
646.26	56.17
646.591	56.2
646.922	56.35
647.253	56.44
647.584	56.43
647.915	56.45
648.245	56.56
648.576	56.55
648.907	56.71
649.238	56.74
649.568	56.77
649.899	56.86
650.229	56.88
650.56	56.93
650.89	57.04
651.221	57
651.551	57.15
651.882	57.29
652.212	57.27
652.542	57.3
652.872	57.31
653.203	57.43
653.533	57.47
653.863	57.51
654.193	57.51
654.523	57.51
654.853	57.54
655.183	57.41
655.513	57.49
655.843	57.4
656.172	57.44
656.502	57.33
656.832	57.39
657.162	57.54
657.491	57.58
657.821	57.52
658.15	57.66
658.48	57.67
658.809	57.77
659.139	57.8
659.468	57.83
659.798	57.78
660.127	57.72
660.456	57.7
660.785	57.62
661.115	57.58
661.444	57.55
661.773	57.51
662.102	57.51
662.431	57.55
662.76	57.47
663.089	57.51
663.418	57.61
663.747	57.49
664.076	57.48
664.404	57.37
664.733	57.44
665.062	57.37
665.39	57.29
665.719	57.34
666.048	57.16
666.376	57.12
666.705	57.16
667.033	57.25
667.362	57.38
667.69	57.47
668.018	57.59
668.347	57.73
668.675	57.79
669.003	57.85
669.331	57.94
669.659	58.01
669.987	57.92
