Data from BU26944_Reflection_00008.txt Node
Date: Tue Nov 19 10:54:43 EST 2019
User: vgr7
Spectrometer: USB2G7710
Scans to average: 3
Trigger mode: 4
Integration Time (sec): 2.000000E-2
Electric dark correction enabled: true
Boxcar width: 10
XAxis mode: Wavelengths
Number of Pixels in Spectrum: 2048
>>>>>Begin Spectral Data<<<<<
177.721	-233.08
178.105	-231.86
178.488	-227.63
178.871	-508.57
179.254	1720
179.636	218.26
180.019	121.3
180.402	-425
180.785	-115.29
181.168	-40.27
181.55	-60.94
181.933	26.74
182.316	-2.74
182.698	2.45
183.081	6.55
183.463	16.53
183.846	18.01
184.228	26.74
184.611	-670.27
184.993	-114.29
185.376	-24.06
185.758	334.94
186.14	368.42
186.522	7.58
186.904	-62.65
187.287	-29.26
187.669	-22.4
188.051	-48.17
188.433	-96.46
188.815	-81.26
189.197	-54.95
189.579	-57.37
189.961	-54.57
190.342	-55.29
190.724	-69.1
191.106	-71.71
191.488	-70.6
191.869	-57.03
192.251	-43.53
192.633	-64.23
193.014	-39.01
193.396	-33.91
193.777	-12.09
194.159	-2.12
194.54	-7.61
194.922	3.58
195.303	-10.96
195.684	-15.26
196.065	-11.68
196.447	0.22
196.828	8.01
197.209	17.39
197.59	19.63
197.971	-0.15
198.352	20.85
198.733	31.18
199.114	15.53
199.495	17.51
199.876	12.19
200.257	13.81
200.638	26.3
201.018	16.71
201.399	13.25
201.78	19.14
202.16	32.31
202.541	21.53
202.922	29.91
203.302	15.9
203.683	-1.22
204.063	6.31
204.444	4.44
204.824	24.4
205.204	27.78
205.585	44.92
205.965	62.48
206.345	49.29
206.725	45.23
207.106	65.36
207.486	73.64
207.866	101.36
208.246	73.76
208.626	69.08
209.006	56.41
209.386	50.04
209.766	50.95
210.145	37.55
210.525	43.17
210.905	49.26
211.285	68.09
211.664	71.47
212.044	83.05
212.424	81.46
212.803	69.94
213.183	33.45
213.562	32.13
213.942	34.61
214.321	33.56
214.701	42.99
215.08	43.38
215.459	57.03
215.838	66.62
216.218	91.21
216.597	104.9
216.976	89.14
217.355	101.26
217.734	122.7
218.113	106.57
218.492	84.16
218.871	70.55
219.25	57.56
219.629	75.59
220.008	55.57
220.387	36.97
220.766	55.73
221.144	90.61
221.523	16.1
221.902	28.01
222.28	50.95
222.659	60.12
223.037	57.25
223.416	50.56
223.794	39.29
224.173	44.53
224.551	41.62
224.929	44.41
225.308	44.72
225.686	37.83
226.064	23.18
226.442	27.5
226.821	24.37
227.199	25.51
227.577	26.49
227.955	24.15
228.333	23.68
228.711	18.12
229.089	16.45
229.467	20.04
229.845	19.88
230.222	15.95
230.6	11.84
230.978	12.05
231.356	9.06
231.733	10.89
232.111	8.5
232.488	6.39
232.866	7.35
233.243	7.43
233.621	9.82
233.998	12.47
234.376	12.71
234.753	13.19
235.13	11.65
235.508	11.79
235.885	10.84
236.262	10.19
236.639	9.67
237.016	8.62
237.393	9.54
237.77	7.44
238.147	7
238.524	7.27
238.901	6.61
239.278	6.6
239.655	5.96
240.032	6.21
240.409	6.13
240.785	5.56
241.162	5.12
241.539	4.94
241.915	4.38
242.292	4.39
242.668	4.62
243.045	4.78
243.421	4.62
243.798	4.72
244.174	4.54
244.551	4.69
244.927	4.71
245.303	4.35
245.679	4.56
246.056	4.46
246.432	4.51
246.808	4.88
247.184	4.69
247.56	4.53
247.936	4.51
248.312	4.43
248.688	4.4
249.064	4.33
249.44	4.07
249.815	4.04
250.191	3.85
250.567	3.67
250.943	3.76
251.318	3.55
251.694	3.48
252.069	3.52
252.445	3.56
252.82	3.76
253.196	3.69
253.571	3.49
253.947	3.73
254.322	3.62
254.697	3.23
255.073	3.63
255.448	3.92
255.823	4.2
256.198	4.25
256.573	4.42
256.948	4.44
257.323	4.33
257.698	4.35
258.073	4.41
258.448	4.27
258.823	4.15
259.198	4.04
259.573	3.82
259.948	3.9
260.322	3.8
260.697	3.82
261.072	3.86
261.446	3.95
261.821	3.93
262.195	3.75
262.57	3.74
262.944	3.67
263.319	3.67
263.693	3.55
264.067	3.44
264.442	3.21
264.816	3.3
265.19	3.39
265.564	3.46
265.938	3.16
266.313	3.21
266.687	3.25
267.061	3.57
267.435	3.92
267.809	3.86
268.183	3.8
268.556	3.6
268.93	3.55
269.304	3.52
269.678	3.6
270.051	3.69
270.425	3.65
270.799	3.59
271.172	3.48
271.546	3.64
271.919	3.69
272.293	3.75
272.666	3.71
273.04	3.81
273.413	3.8
273.787	3.99
274.16	4.06
274.533	4.05
274.906	3.99
275.279	3.81
275.653	3.74
276.026	3.82
276.399	3.96
276.772	4.05
277.145	4.15
277.518	3.98
277.891	3.96
278.263	4.09
278.636	4.16
279.009	4.26
279.382	4.03
279.755	4.06
280.127	3.99
280.5	3.84
280.872	3.82
281.245	3.83
281.617	3.94
281.99	3.89
282.362	3.8
282.735	3.83
283.107	3.9
283.479	4.03
283.852	3.91
284.224	3.92
284.596	3.82
284.968	3.62
285.34	3.72
285.713	3.77
286.085	3.73
286.457	3.63
286.829	3.6
287.201	3.68
287.572	3.86
287.944	3.99
288.316	4.15
288.688	4.17
289.06	4.1
289.431	3.98
289.803	4.02
290.175	4.17
290.546	4.04
290.918	4.13
291.289	3.99
291.661	4.07
292.032	4.06
292.403	4.12
292.775	4.26
293.146	4.21
293.517	4.26
293.889	4.18
294.26	4.31
294.631	4.44
295.002	4.35
295.373	4.15
295.744	4.17
296.115	4.01
296.486	3.95
296.857	4.02
297.228	4.02
297.599	3.95
297.97	3.85
298.34	3.93
298.711	3.91
299.082	4.01
299.452	3.97
299.823	3.94
300.194	4.03
300.564	3.98
300.935	4.15
301.305	4.13
301.676	4.15
302.046	4.14
302.416	4
302.787	4.08
303.157	4.24
303.527	4.24
303.897	4.37
304.267	4.44
304.637	4.4
305.008	4.47
305.378	4.59
305.748	4.71
306.117	4.65
306.487	4.66
306.857	4.72
307.227	4.91
307.597	5.04
307.967	5.09
308.336	5.07
308.706	4.9
309.076	5.07
309.445	5.18
309.815	5.12
310.184	5.16
310.554	5.15
310.923	5.19
311.293	5.19
311.662	5.12
312.031	5.22
312.401	5.29
312.77	5.35
313.139	5.38
313.508	5.43
313.877	5.5
314.246	5.49
314.616	5.47
314.985	5.47
315.353	5.47
315.722	5.59
316.091	5.76
316.46	5.97
316.829	5.76
317.198	5.76
317.567	5.91
317.935	5.92
318.304	6.09
318.672	6.12
319.041	6.19
319.41	6.29
319.778	6.22
320.147	6.3
320.515	6.44
320.883	6.47
321.252	6.38
321.62	6.55
321.988	6.76
322.357	6.86
322.725	6.89
323.093	6.95
323.461	6.89
323.829	6.85
324.197	6.66
324.565	6.83
324.933	6.89
325.301	6.85
325.669	6.92
326.037	6.86
326.405	6.84
326.772	6.78
327.14	6.82
327.508	6.89
327.875	6.92
328.243	6.9
328.61	6.96
328.978	7.11
329.346	7.06
329.713	7.07
330.08	7.25
330.448	7.34
330.815	7.29
331.182	7.25
331.55	7.27
331.917	7.47
332.284	7.6
332.651	7.69
333.018	7.78
333.385	7.81
333.752	7.9
334.119	8.01
334.486	8.09
334.853	8.13
335.22	8.07
335.587	8.03
335.954	8.11
336.32	8.09
336.687	8.21
337.054	8.3
337.42	8.19
337.787	8.06
338.153	8.12
338.52	8.3
338.886	8.31
339.253	8.32
339.619	8.33
339.986	8.15
340.352	8.16
340.718	8.16
341.084	8.2
341.451	8.31
341.817	8.32
342.183	8.36
342.549	8.4
342.915	8.36
343.281	8.35
343.647	8.28
344.013	8.34
344.379	8.33
344.745	8.3
345.11	8.4
345.476	8.47
345.842	8.41
346.208	8.39
346.573	8.37
346.939	8.45
347.304	8.52
347.67	8.56
348.035	8.54
348.401	8.62
348.766	8.64
349.132	8.53
349.497	8.45
349.862	8.4
350.228	8.41
350.593	8.46
350.958	8.46
351.323	8.49
351.688	8.47
352.053	8.43
352.418	8.43
352.783	8.41
353.148	8.31
353.513	8.27
353.878	8.21
354.243	8.22
354.608	8.22
354.972	8.21
355.337	8.33
355.702	8.31
356.066	8.2
356.431	8.14
356.795	8.15
357.16	8.23
357.524	8.29
357.889	8.29
358.253	8.29
358.618	8.29
358.982	8.17
359.346	8.13
359.71	7.99
360.075	8.03
360.439	8.01
360.803	8.14
361.167	8.17
361.531	8.11
361.895	8.08
362.259	8.09
362.623	8.01
362.987	7.89
363.351	7.87
363.714	7.88
364.078	7.84
364.442	7.83
364.806	7.73
365.169	7.63
365.533	7.52
365.896	7.56
366.26	7.51
366.623	7.46
366.987	7.45
367.35	7.51
367.714	7.43
368.077	7.37
368.44	7.24
368.803	7.17
369.167	7.15
369.53	7.16
369.893	7.11
370.256	7.13
370.619	7.09
370.982	7.03
371.345	6.95
371.708	6.92
372.071	6.85
372.434	6.84
372.797	6.87
373.159	6.92
373.522	6.81
373.885	6.8
374.247	6.83
374.61	6.74
374.973	6.7
375.335	6.64
375.698	6.61
376.06	6.53
376.423	6.48
376.785	6.43
377.147	6.33
377.51	6.21
377.872	6.13
378.234	6.11
378.596	6.12
378.958	6.04
379.321	5.95
379.683	5.96
380.045	5.89
380.407	5.8
380.769	5.7
381.13	5.65
381.492	5.56
381.854	5.51
382.216	5.55
382.578	5.46
382.939	5.38
383.301	5.33
383.663	5.32
384.024	5.28
384.386	5.27
384.747	5.24
385.109	5.28
385.47	5.22
385.832	5.19
386.193	5.07
386.554	5.03
386.916	5.07
387.277	4.99
387.638	4.98
387.999	5.02
388.36	5
388.721	4.97
389.082	4.95
389.443	4.91
389.804	4.85
390.165	4.89
390.526	4.88
390.887	4.87
391.248	4.84
391.609	4.8
391.969	4.77
392.33	4.72
392.691	4.67
393.051	4.65
393.412	4.64
393.772	4.65
394.133	4.65
394.493	4.61
394.854	4.59
395.214	4.55
395.574	4.47
395.935	4.45
396.295	4.41
396.655	4.39
397.015	4.37
397.376	4.34
397.736	4.25
398.096	4.24
398.456	4.21
398.816	4.18
399.176	4.13
399.535	4.11
399.895	4.12
400.255	4.13
400.615	4.11
400.975	4.07
401.334	4.09
401.694	4.06
402.054	4.04
402.413	3.99
402.773	3.97
403.132	3.97
403.492	3.96
403.851	3.98
404.211	3.96
404.57	3.93
404.929	3.94
405.288	3.95
405.648	3.94
406.007	3.89
406.366	3.87
406.725	3.91
407.084	3.88
407.443	3.85
407.802	3.82
408.161	3.81
408.52	3.8
408.879	3.75
409.238	3.77
409.596	3.76
409.955	3.77
410.314	3.77
410.673	3.77
411.031	3.75
411.39	3.75
411.748	3.76
412.107	3.75
412.465	3.7
412.824	3.69
413.182	3.7
413.54	3.71
413.899	3.73
414.257	3.7
414.615	3.67
414.974	3.67
415.332	3.65
415.69	3.63
416.048	3.62
416.406	3.59
416.764	3.55
417.122	3.55
417.48	3.52
417.838	3.5
418.195	3.48
418.553	3.45
418.911	3.42
419.269	3.41
419.626	3.41
419.984	3.4
420.342	3.38
420.699	3.34
421.057	3.32
421.414	3.32
421.772	3.31
422.129	3.29
422.486	3.27
422.844	3.27
423.201	3.27
423.558	3.28
423.915	3.27
424.273	3.26
424.63	3.24
424.987	3.25
425.344	3.23
425.701	3.23
426.058	3.22
426.415	3.21
426.772	3.19
427.128	3.18
427.485	3.17
427.842	3.16
428.199	3.16
428.555	3.15
428.912	3.13
429.269	3.12
429.625	3.13
429.982	3.14
430.338	3.14
430.695	3.12
431.051	3.1
431.407	3.13
431.764	3.11
432.12	3.13
432.476	3.15
432.832	3.15
433.189	3.14
433.545	3.15
433.901	3.16
434.257	3.16
434.613	3.16
434.969	3.16
435.325	3.16
435.681	3.19
436.036	3.19
436.392	3.18
436.748	3.19
437.104	3.19
437.459	3.18
437.815	3.18
438.171	3.18
438.526	3.18
438.882	3.18
439.237	3.17
439.593	3.17
439.948	3.14
440.304	3.14
440.659	3.14
441.014	3.14
441.369	3.12
441.725	3.12
442.08	3.12
442.435	3.13
442.79	3.12
443.145	3.11
443.5	3.11
443.855	3.1
444.21	3.08
444.565	3.08
444.92	3.09
445.275	3.06
445.629	3.05
445.984	3.05
446.339	3.04
446.693	3.05
447.048	3.03
447.403	3.03
447.757	3.02
448.112	3.01
448.466	3.01
448.82	3
449.175	3.01
449.529	3
449.883	2.97
450.238	2.97
450.592	2.95
450.946	2.94
451.3	2.95
451.654	2.96
452.008	2.94
452.362	2.9
452.716	2.91
453.07	2.92
453.424	2.91
453.778	2.89
454.132	2.88
454.486	2.89
454.839	2.89
455.193	2.88
455.547	2.89
455.9	2.9
456.254	2.93
456.607	2.93
456.961	2.93
457.314	2.94
457.668	2.95
458.021	2.94
458.375	2.93
458.728	2.92
459.081	2.91
459.434	2.91
459.787	2.93
460.141	2.94
460.494	2.96
460.847	2.96
461.2	2.97
461.553	2.97
461.906	2.97
462.259	2.97
462.611	2.98
462.964	2.97
463.317	2.96
463.67	2.95
464.022	2.95
464.375	2.98
464.728	3
465.08	3.01
465.433	3.04
465.785	3.07
466.138	3.08
466.49	3.11
466.843	3.12
467.195	3.14
467.547	3.14
467.899	3.11
468.252	3.12
468.604	3.14
468.956	3.15
469.308	3.14
469.66	3.15
470.012	3.18
470.364	3.21
470.716	3.22
471.068	3.23
471.42	3.23
471.772	3.2
472.123	3.2
472.475	3.21
472.827	3.22
473.178	3.22
473.53	3.23
473.882	3.21
474.233	3.22
474.585	3.22
474.936	3.22
475.288	3.24
475.639	3.23
475.99	3.22
476.342	3.23
476.693	3.26
477.044	3.26
477.395	3.23
477.746	3.22
478.097	3.23
478.448	3.22
478.8	3.23
479.15	3.22
479.501	3.22
479.852	3.2
480.203	3.2
480.554	3.21
480.905	3.22
481.255	3.23
481.606	3.23
481.957	3.22
482.307	3.22
482.658	3.22
483.009	3.22
483.359	3.22
483.709	3.22
484.06	3.21
484.41	3.21
484.761	3.21
485.111	3.21
485.461	3.21
485.811	3.21
486.162	3.2
486.512	3.21
486.862	3.21
487.212	3.21
487.562	3.21
487.912	3.2
488.262	3.19
488.612	3.18
488.961	3.17
489.311	3.17
489.661	3.17
490.011	3.15
490.36	3.15
490.71	3.16
491.06	3.15
491.409	3.16
491.759	3.16
492.108	3.16
492.458	3.17
492.807	3.16
493.157	3.16
493.506	3.18
493.855	3.17
494.204	3.17
494.554	3.17
494.903	3.17
495.252	3.19
495.601	3.21
495.95	3.22
496.299	3.24
496.648	3.29
496.997	3.31
497.346	3.34
497.695	3.35
498.043	3.36
498.392	3.39
498.741	3.41
499.09	3.45
499.438	3.49
499.787	3.5
500.135	3.52
500.484	3.56
500.832	3.59
501.181	3.63
501.529	3.67
501.878	3.72
502.226	3.77
502.574	3.8
502.923	3.83
503.271	3.88
503.619	3.92
503.967	3.93
504.315	3.96
504.663	4
505.011	4.07
505.359	4.12
505.707	4.16
506.055	4.21
506.403	4.27
506.751	4.32
507.098	4.39
507.446	4.45
507.794	4.51
508.141	4.57
508.489	4.63
508.837	4.68
509.184	4.75
509.531	4.82
509.879	4.89
510.226	4.94
510.574	5.03
510.921	5.11
511.268	5.19
511.616	5.28
511.963	5.36
512.31	5.45
512.657	5.52
513.004	5.61
513.351	5.71
513.698	5.8
514.045	5.88
514.392	5.98
514.739	6.09
515.086	6.18
515.432	6.28
515.779	6.39
516.126	6.53
516.473	6.62
516.819	6.7
517.166	6.79
517.512	6.89
517.859	6.97
518.205	7.06
518.552	7.15
518.898	7.23
519.245	7.32
519.591	7.4
519.937	7.5
520.283	7.59
520.629	7.68
520.976	7.78
521.322	7.91
521.668	8.02
522.014	8.13
522.36	8.27
522.706	8.37
523.052	8.49
523.398	8.61
523.743	8.74
524.089	8.9
524.435	9.04
524.781	9.19
525.126	9.33
525.472	9.46
525.817	9.56
526.163	9.67
526.509	9.77
526.854	9.85
527.199	9.94
527.545	10.03
527.89	10.12
528.235	10.23
528.581	10.32
528.926	10.42
529.271	10.52
529.616	10.61
529.961	10.73
530.306	10.83
530.651	10.94
530.996	11.06
531.341	11.17
531.686	11.29
532.031	11.42
532.376	11.51
532.721	11.64
533.065	11.8
533.41	11.92
533.755	12.08
534.099	12.23
534.444	12.37
534.788	12.51
535.133	12.65
535.477	12.76
535.822	12.9
536.166	13.07
536.51	13.24
536.855	13.43
537.199	13.61
537.543	13.81
537.887	14
538.231	14.18
538.576	14.4
538.92	14.6
539.264	14.79
539.608	15
539.951	15.16
540.295	15.3
540.639	15.5
540.983	15.64
541.327	15.81
541.671	15.98
542.014	16.15
542.358	16.32
542.701	16.5
543.045	16.69
543.389	16.85
543.732	16.99
544.075	17.16
544.419	17.35
544.762	17.55
545.105	17.74
545.449	17.96
545.792	18.16
546.135	18.37
546.478	18.58
546.821	18.78
547.165	19.06
547.508	19.34
547.851	19.58
548.194	19.84
548.536	20.09
548.879	20.34
549.222	20.6
549.565	20.86
549.908	21.12
550.25	21.4
550.593	21.65
550.936	21.93
551.278	22.21
551.621	22.46
551.963	22.72
552.306	23.03
552.648	23.29
552.991	23.51
553.333	23.79
553.675	24.09
554.017	24.37
554.36	24.59
554.702	24.85
555.044	25.1
555.386	25.38
555.728	25.67
556.07	25.95
556.412	26.18
556.754	26.44
557.096	26.75
557.438	27.03
557.78	27.32
558.121	27.67
558.463	27.96
558.805	28.28
559.147	28.61
559.488	28.89
559.83	29.2
560.171	29.47
560.513	29.75
560.854	30.02
561.196	30.3
561.537	30.6
561.878	30.86
562.22	31.13
562.561	31.41
562.902	31.65
563.243	31.95
563.584	32.22
563.925	32.5
564.266	32.78
564.607	33
564.948	33.26
565.289	33.47
565.63	33.71
565.971	33.92
566.312	34.14
566.653	34.4
566.993	34.62
567.334	34.91
567.675	35.17
568.015	35.41
568.356	35.7
568.696	35.94
569.037	36.18
569.377	36.4
569.718	36.67
570.058	36.94
570.398	37.17
570.739	37.45
571.079	37.71
571.419	37.86
571.759	38.14
572.099	38.35
572.439	38.57
572.779	38.81
573.119	39
573.459	39.18
573.799	39.32
574.139	39.48
574.479	39.73
574.819	39.88
575.158	40.08
575.498	40.21
575.838	40.37
576.177	40.55
576.517	40.79
576.856	40.94
577.196	41.13
577.535	41.3
577.875	41.45
578.214	41.65
578.553	41.89
578.893	42.01
579.232	42.16
579.571	42.36
579.91	42.51
580.25	42.76
580.589	43.01
580.928	43.25
581.267	43.42
581.606	43.48
581.945	43.61
582.283	43.83
582.622	44.06
582.961	44.24
583.3	44.42
583.639	44.55
583.977	44.73
584.316	44.88
584.654	45
584.993	45.15
585.332	45.31
585.67	45.44
586.008	45.66
586.347	45.81
586.685	45.94
587.024	46.07
587.362	46.18
587.7	46.24
588.038	46.38
588.376	46.55
588.715	46.74
589.053	46.94
589.391	47.05
589.729	47.12
590.067	47.22
590.404	47.36
590.742	47.46
591.08	47.53
591.418	47.69
591.756	47.86
592.093	47.97
592.431	48.03
592.769	48.14
593.106	48.19
593.444	48.27
593.781	48.36
594.119	48.5
594.456	48.61
594.793	48.7
595.131	48.72
595.468	48.79
595.805	48.85
596.143	48.88
596.48	48.93
596.817	48.95
597.154	49.09
597.491	49.12
597.828	49.17
598.165	49.31
598.502	49.36
598.839	49.42
599.176	49.59
599.512	49.72
599.849	49.79
600.186	49.92
600.523	49.96
600.859	50.07
601.196	50.13
601.532	50.19
601.869	50.3
602.205	50.45
602.542	50.57
602.878	50.62
603.215	50.73
603.551	50.8
603.887	50.92
604.223	50.98
604.56	51.09
604.896	51.16
605.232	51.19
605.568	51.25
605.904	51.28
606.24	51.32
606.576	51.33
606.912	51.43
607.248	51.47
607.583	51.56
607.919	51.62
608.255	51.67
608.591	51.72
608.926	51.77
609.262	51.78
609.597	51.84
609.933	51.86
610.268	51.98
610.604	52.03
610.939	52.09
611.275	52.15
611.61	52.17
611.945	52.16
612.281	52.18
612.616	52.24
612.951	52.32
613.286	52.36
613.621	52.45
613.956	52.57
614.291	52.65
614.626	52.77
614.961	52.86
615.296	52.96
615.631	53.02
615.966	53.04
616.3	53.1
616.635	53.08
616.97	53.2
617.304	53.19
617.639	53.25
617.973	53.37
618.308	53.34
618.642	53.48
618.977	53.54
619.311	53.58
619.646	53.6
619.98	53.66
620.314	53.68
620.648	53.69
620.983	53.7
621.317	53.66
621.651	53.68
621.985	53.67
622.319	53.67
622.653	53.62
622.987	53.7
623.321	53.71
623.655	53.7
623.988	53.72
624.322	53.7
624.656	53.75
624.99	53.71
625.323	53.71
625.657	53.62
625.99	53.7
626.324	53.76
626.657	53.81
626.991	53.79
627.324	53.82
627.658	53.85
627.991	53.83
628.324	53.93
628.657	53.96
628.991	54.03
629.324	54.05
629.657	54.14
629.99	54.15
630.323	54.19
630.656	54.35
630.989	54.32
631.322	54.45
631.655	54.49
631.987	54.49
632.32	54.58
632.653	54.7
632.986	54.75
633.318	54.76
633.651	54.77
633.984	54.82
634.316	54.79
634.649	54.8
634.981	54.85
635.313	54.9
635.646	54.95
635.978	54.92
636.31	54.81
636.643	54.84
636.975	54.9
637.307	54.96
637.639	54.93
637.971	55
638.303	54.9
638.635	54.84
638.967	54.9
639.299	54.89
639.631	54.86
639.963	54.88
640.295	54.95
640.626	54.96
640.958	54.96
641.29	55.08
641.621	55.04
641.953	55.12
642.285	54.99
642.616	55.06
642.948	55.16
643.279	55.38
643.61	55.47
643.942	55.47
644.273	55.38
644.604	55.36
644.936	55.38
645.267	55.48
645.598	55.5
645.929	55.49
646.26	55.36
646.591	55.42
646.922	55.34
647.253	55.38
647.584	55.35
647.915	55.38
648.245	55.43
648.576	55.5
648.907	55.42
649.238	55.5
649.568	55.41
649.899	55.41
650.229	55.45
650.56	55.38
650.89	55.49
651.221	55.56
651.551	55.52
651.882	55.59
652.212	55.59
652.542	55.62
652.872	55.69
653.203	55.86
653.533	55.89
653.863	55.99
654.193	55.95
654.523	56.05
654.853	56.07
655.183	56.06
655.513	56.09
655.843	56.22
656.172	56.29
656.502	56.31
656.832	56.38
657.162	56.31
657.491	56.38
657.821	56.22
658.15	56.39
658.48	56.56
658.809	56.64
659.139	56.64
659.468	56.68
659.798	56.65
660.127	56.65
660.456	56.67
660.785	56.72
661.115	56.72
661.444	56.67
661.773	56.72
662.102	56.65
662.431	56.67
662.76	56.65
663.089	56.51
663.418	56.59
663.747	56.56
664.076	56.56
664.404	56.53
664.733	56.57
665.062	56.51
665.39	56.48
665.719	56.43
666.048	56.52
666.376	56.71
666.705	56.83
667.033	56.8
667.362	56.74
667.69	56.74
668.018	56.91
668.347	56.94
668.675	56.95
669.003	56.98
