Data from BU26945_Reflection_00003.txt Node
Date: Tue Nov 19 10:49:21 EST 2019
User: vgr7
Spectrometer: USB2G7710
Scans to average: 3
Trigger mode: 4
Integration Time (sec): 2.000000E-2
Electric dark correction enabled: true
Boxcar width: 10
XAxis mode: Wavelengths
Number of Pixels in Spectrum: 2048
>>>>>Begin Spectral Data<<<<<
177.721	127.54
178.105	169.08
178.488	577.03
178.871	381.25
179.254	292
179.636	407.45
180.019	100
180.402	30
180.785	71.12
181.168	-2.16
181.55	29.6
181.933	32.94
182.316	-21.25
182.698	-13.92
183.081	-3.03
183.463	1.4
183.846	-8.41
184.228	-11.77
184.611	7.8
184.993	16.4
185.376	40.61
185.758	44.67
186.14	45.05
186.522	53.37
186.904	52
187.287	40.52
187.669	44.01
188.051	30.45
188.433	23.83
188.815	20.29
189.197	21.68
189.579	10.85
189.961	13.13
190.342	15.83
190.724	-0.47
191.106	-7.67
191.488	1.59
191.869	25.72
192.251	35.31
192.633	35.83
193.014	44.6
193.396	26.83
193.777	15.72
194.159	7.89
194.54	5.24
194.922	-11.71
195.303	-22.65
195.684	-27.1
196.065	-17.46
196.447	-15.1
196.828	-4.42
197.209	-2.89
197.59	-2.91
197.971	-1.45
198.352	3.93
198.733	12.08
199.114	13.91
199.495	8.93
199.876	-13
200.257	-22.01
200.638	-29.13
201.018	-29.93
201.399	-38.08
201.78	-33.39
202.16	-31.44
202.541	-47.96
202.922	-62.2
203.302	-41.13
203.683	-46.7
204.063	-39.95
204.444	-38.5
204.824	-67.26
205.204	-57.81
205.585	-74.62
205.965	-84.04
206.345	-112.08
206.725	-104.09
207.106	-79.05
207.486	-66.27
207.866	-72.81
208.246	-85.58
208.626	-124.08
209.006	-128.9
209.386	-100.46
209.766	-116
210.145	-134.47
210.525	-127.41
210.905	-103.87
211.285	-94.94
211.664	-79.04
212.044	-96.22
212.424	-84.15
212.803	-76.47
213.183	-90.57
213.562	-69.16
213.942	-84.54
214.321	-97.48
214.701	-124.09
215.08	-141.66
215.459	-117.01
215.838	-139.93
216.218	-107
216.597	-97.11
216.976	-112.57
217.355	-142.16
217.734	-162.72
218.113	-117.04
218.492	-111.36
218.871	-114.76
219.25	-97.71
219.629	-129.45
220.008	-97.92
220.387	-135.47
220.766	-95.61
221.144	-97.97
221.523	-138.16
221.902	-79.88
222.28	-53.12
222.659	-9.34
223.037	3.41
223.416	13.35
223.794	23.33
224.173	20.08
224.551	26.87
224.929	24.34
225.308	25.16
225.686	15.15
226.064	16.22
226.442	8.73
226.821	6.39
227.199	1.56
227.577	1.07
227.955	3.14
228.333	7.11
228.711	2.05
229.089	0.83
229.467	5.77
229.845	2.33
230.222	3.99
230.6	1.35
230.978	0.47
231.356	-2.75
231.733	-4.5
232.111	-4.64
232.488	-3.87
232.866	-0.55
233.243	-0.53
233.621	1.17
233.998	1.48
234.376	3.69
234.753	4.31
235.13	5.21
235.508	6.07
235.885	5.17
236.262	4.86
236.639	5.12
237.016	6.97
237.393	6.41
237.77	5.59
238.147	5.9
238.524	7.14
238.901	4.75
239.278	5.34
239.655	4.6
240.032	4.86
240.409	5.04
240.785	3.31
241.162	2.87
241.539	2.7
241.915	2.27
242.292	2.33
242.668	2.48
243.045	2.53
243.421	3.42
243.798	3.36
244.174	3.35
244.551	3.57
244.927	3.1
245.303	2.97
245.679	3.39
246.056	3.09
246.432	2.83
246.808	3.22
247.184	3.09
247.56	3.42
247.936	3.5
248.312	3.5
248.688	3.85
249.064	3.91
249.44	3.8
249.815	4.03
250.191	3.9
250.567	3.73
250.943	3.6
251.318	3.1
251.694	2.77
252.069	2.46
252.445	2.15
252.82	2.74
253.196	2.88
253.571	2.73
253.947	2.73
254.322	2.7
254.697	2.45
255.073	2.71
255.448	2.63
255.823	2.78
256.198	2.79
256.573	2.6
256.948	2.74
257.323	3.14
257.698	3
258.073	3.12
258.448	3.27
258.823	3.48
259.198	3.42
259.573	3.75
259.948	3.95
260.322	4.16
260.697	4.14
261.072	4.2
261.446	4.15
261.821	4.12
262.195	4.09
262.57	4.17
262.944	4.02
263.319	4.17
263.693	3.95
264.067	3.89
264.442	3.79
264.816	3.7
265.19	3.44
265.564	3.43
265.938	3.33
266.313	3.24
266.687	2.97
267.061	2.93
267.435	3.01
267.809	2.87
268.183	2.55
268.556	2.37
268.93	2.21
269.304	2.11
269.678	2.19
270.051	2.25
270.425	2.31
270.799	2.28
271.172	2.19
271.546	2.24
271.919	2.36
272.293	2.45
272.666	2.48
273.04	2.57
273.413	2.58
273.787	2.52
274.16	2.69
274.533	2.77
274.906	2.7
275.279	2.51
275.653	2.49
276.026	2.63
276.399	2.67
276.772	2.76
277.145	2.81
277.518	2.53
277.891	2.47
278.263	2.43
278.636	2.58
279.009	2.58
279.382	2.6
279.755	2.19
280.127	2.24
280.5	2.28
280.872	2.28
281.245	2.32
281.617	2.56
281.99	2.52
282.362	2.5
282.735	2.73
283.107	2.91
283.479	3.11
283.852	3.17
284.224	3.13
284.596	3
284.968	3.05
285.34	3.14
285.713	3.3
286.085	3.2
286.457	3.08
286.829	3.03
287.201	3.11
287.572	3.39
287.944	3.48
288.316	3.42
288.688	3.43
289.06	3.32
289.431	3.38
289.803	3.5
290.175	3.48
290.546	3.46
290.918	3.38
291.289	3.12
291.661	3.08
292.032	3.09
292.403	3.09
292.775	3.12
293.146	3.25
293.517	3.13
293.889	3.26
294.26	3.43
294.631	3.48
295.002	3.44
295.373	3.35
295.744	3.31
296.115	3.3
296.486	3.3
296.857	3.37
297.228	3.21
297.599	2.98
297.97	3.11
298.34	3.1
298.711	3.08
299.082	3.22
299.452	3.2
299.823	3.23
300.194	3.41
300.564	3.31
300.935	3.26
301.305	3.31
301.676	3.18
302.046	2.95
302.416	2.96
302.787	2.98
303.157	2.89
303.527	2.92
303.897	3
304.267	3.05
304.637	3.11
305.008	3.17
305.378	3.19
305.748	3.08
306.117	2.99
306.487	2.98
306.857	2.97
307.227	3.08
307.597	3.03
307.967	2.87
308.336	2.88
308.706	2.91
309.076	3.12
309.445	3.24
309.815	3.22
310.184	3.12
310.554	3.08
310.923	3.06
311.293	3.02
311.662	3.05
312.031	2.97
312.401	2.96
312.77	2.84
313.139	2.84
313.508	2.83
313.877	2.98
314.246	2.89
314.616	2.89
314.985	2.78
315.353	2.81
315.722	2.77
316.091	2.68
316.46	2.76
316.829	2.58
317.198	2.49
317.567	2.6
317.935	2.69
318.304	2.7
318.672	2.79
319.041	2.62
319.41	2.49
319.778	2.59
320.147	2.43
320.515	2.61
320.883	2.56
321.252	2.68
321.62	2.48
321.988	2.58
322.357	2.51
322.725	2.44
323.093	2.45
323.461	2.63
323.829	2.74
324.197	2.62
324.565	2.52
324.933	2.46
325.301	2.47
325.669	2.44
326.037	2.39
326.405	2.43
326.772	2.44
327.14	2.39
327.508	2.35
327.875	2.48
328.243	2.32
328.61	2.4
328.978	2.28
329.346	2.36
329.713	2.34
330.08	2.55
330.448	2.7
330.815	2.66
331.182	2.63
331.55	2.83
331.917	2.82
332.284	2.82
332.651	2.86
333.018	2.86
333.385	2.86
333.752	2.98
334.119	3.04
334.486	3.24
334.853	3.25
335.22	3.11
335.587	3.06
335.954	3.22
336.32	3.25
336.687	3.27
337.054	3.19
337.42	3.22
337.787	2.99
338.153	2.91
338.52	3.01
338.886	3
339.253	2.93
339.619	2.99
339.986	2.9
340.352	2.95
340.718	2.93
341.084	2.8
341.451	2.83
341.817	2.76
342.183	2.58
342.549	2.72
342.915	2.84
343.281	2.88
343.647	2.85
344.013	2.86
344.379	2.93
344.745	2.85
345.11	2.75
345.476	2.93
345.842	2.93
346.208	2.8
346.573	2.73
346.939	2.62
347.304	2.64
347.67	2.7
348.035	2.69
348.401	2.64
348.766	2.78
349.132	2.72
349.497	2.79
349.862	2.88
350.228	2.81
350.593	2.76
350.958	2.87
351.323	2.83
351.688	2.83
352.053	2.81
352.418	2.89
352.783	2.92
353.148	2.93
353.513	2.88
353.878	2.9
354.243	2.8
354.608	2.85
354.972	2.81
355.337	2.9
355.702	2.85
356.066	2.89
356.431	2.9
356.795	2.92
357.16	2.83
357.524	2.79
357.889	2.73
358.253	2.84
358.618	2.79
358.982	2.77
359.346	2.71
359.71	2.67
360.075	2.72
360.439	2.82
360.803	2.79
361.167	2.83
361.531	2.86
361.895	2.91
362.259	2.87
362.623	2.9
362.987	2.86
363.351	2.84
363.714	2.92
364.078	2.91
364.442	2.93
364.806	2.98
365.169	3.02
365.533	3.1
365.896	3.13
366.26	3.07
366.623	3.12
366.987	3.16
367.35	3.24
367.714	3.26
368.077	3.2
368.44	3.18
368.803	3.23
369.167	3.23
369.53	3.25
369.893	3.28
370.256	3.25
370.619	3.27
370.982	3.32
371.345	3.28
371.708	3.22
372.071	3.15
372.434	3.16
372.797	3.15
373.159	3.17
373.522	3.08
373.885	3.12
374.247	3.07
374.61	3.12
374.973	3.1
375.335	3.04
375.698	2.99
376.06	2.97
376.423	2.93
376.785	2.91
377.147	2.98
377.51	3
377.872	3.02
378.234	3
378.596	2.99
378.958	3
379.321	3.06
379.683	3.05
380.045	3.02
380.407	3.04
380.769	3.03
381.13	3.03
381.492	3
381.854	2.99
382.216	3.01
382.578	2.98
382.939	3
383.301	3
383.663	3.01
384.024	3.01
384.386	3.01
384.747	2.97
385.109	3.01
385.47	3.03
385.832	2.99
386.193	3
386.554	2.97
386.916	2.96
387.277	2.99
387.638	2.99
387.999	2.94
388.36	2.92
388.721	2.92
389.082	2.93
389.443	2.93
389.804	2.89
390.165	2.93
390.526	2.92
390.887	2.96
391.248	2.96
391.609	3.02
391.969	3.05
392.33	3.04
392.691	2.99
393.051	2.99
393.412	3.06
393.772	3.09
394.133	3.09
394.493	3.08
394.854	3.08
395.214	3.11
395.574	3.15
395.935	3.14
396.295	3.15
396.655	3.21
397.015	3.23
397.376	3.22
397.736	3.17
398.096	3.2
398.456	3.18
398.816	3.17
399.176	3.11
399.535	3.08
399.895	3.1
400.255	3.12
400.615	3.12
400.975	3.09
401.334	3.03
401.694	3.02
402.054	3.04
402.413	2.99
402.773	3.01
403.132	3
403.492	3.02
403.851	2.99
404.211	2.94
404.57	2.94
404.929	2.93
405.288	2.97
405.648	2.95
406.007	2.94
406.366	2.97
406.725	2.98
407.084	2.99
407.443	3
407.802	2.98
408.161	2.98
408.52	2.94
408.879	2.98
409.238	2.96
409.596	2.94
409.955	2.98
410.314	2.96
410.673	2.96
411.031	2.95
411.39	2.98
411.748	3.02
412.107	3.02
412.465	3.04
412.824	3
413.182	3.01
413.54	3.05
413.899	3.04
414.257	3.02
414.615	3.01
414.974	3.01
415.332	3
415.69	3.01
416.048	3.05
416.406	3.05
416.764	3.07
417.122	3.08
417.48	3.08
417.838	3.07
418.195	3.07
418.553	3.09
418.911	3.08
419.269	3.07
419.626	3.07
419.984	3.06
420.342	3.08
420.699	3.08
421.057	3.07
421.414	3.08
421.772	3.1
422.129	3.09
422.486	3.08
422.844	3.09
423.201	3.1
423.558	3.1
423.915	3.1
424.273	3.1
424.63	3.12
424.987	3.13
425.344	3.14
425.701	3.14
426.058	3.14
426.415	3.13
426.772	3.14
427.128	3.15
427.485	3.16
427.842	3.17
428.199	3.17
428.555	3.18
428.912	3.18
429.269	3.16
429.625	3.19
429.982	3.19
430.338	3.2
430.695	3.18
431.051	3.18
431.407	3.19
431.764	3.19
432.12	3.18
432.476	3.18
432.832	3.18
433.189	3.18
433.545	3.19
433.901	3.2
434.257	3.18
434.613	3.17
434.969	3.15
435.325	3.14
435.681	3.14
436.036	3.13
436.392	3.13
436.748	3.14
437.104	3.14
437.459	3.15
437.815	3.15
438.171	3.15
438.526	3.14
438.882	3.15
439.237	3.15
439.593	3.14
439.948	3.16
440.304	3.14
440.659	3.15
441.014	3.15
441.369	3.17
441.725	3.19
442.08	3.19
442.435	3.2
442.79	3.2
443.145	3.22
443.5	3.21
443.855	3.19
444.21	3.18
444.565	3.17
444.92	3.17
445.275	3.16
445.629	3.16
445.984	3.18
446.339	3.17
446.693	3.17
447.048	3.16
447.403	3.15
447.757	3.16
448.112	3.17
448.466	3.16
448.82	3.16
449.175	3.14
449.529	3.16
449.883	3.17
450.238	3.17
450.592	3.15
450.946	3.16
451.3	3.18
451.654	3.18
452.008	3.2
452.362	3.19
452.716	3.2
453.07	3.21
453.424	3.21
453.778	3.2
454.132	3.19
454.486	3.21
454.839	3.21
455.193	3.2
455.547	3.2
455.9	3.21
456.254	3.2
456.607	3.23
456.961	3.24
457.314	3.22
457.668	3.22
458.021	3.23
458.375	3.23
458.728	3.24
459.081	3.24
459.434	3.24
459.787	3.23
460.141	3.24
460.494	3.25
460.847	3.26
461.2	3.25
461.553	3.26
461.906	3.27
462.259	3.26
462.611	3.24
462.964	3.23
463.317	3.22
463.67	3.23
464.022	3.23
464.375	3.21
464.728	3.2
465.08	3.22
465.433	3.25
465.785	3.26
466.138	3.24
466.49	3.27
466.843	3.29
467.195	3.33
467.547	3.3
467.899	3.31
468.252	3.29
468.604	3.3
468.956	3.33
469.308	3.31
469.66	3.34
470.012	3.36
470.364	3.35
470.716	3.39
471.068	3.4
471.42	3.36
471.772	3.35
472.123	3.37
472.475	3.37
472.827	3.34
473.178	3.34
473.53	3.35
473.882	3.33
474.233	3.3
474.585	3.3
474.936	3.31
475.288	3.31
475.639	3.33
475.99	3.3
476.342	3.31
476.693	3.3
477.044	3.3
477.395	3.3
477.746	3.3
478.097	3.27
478.448	3.26
478.8	3.28
479.15	3.27
479.501	3.28
479.852	3.29
480.203	3.3
480.554	3.3
480.905	3.3
481.255	3.29
481.606	3.3
481.957	3.31
482.307	3.3
482.658	3.31
483.009	3.31
483.359	3.32
483.709	3.32
484.06	3.32
484.41	3.32
484.761	3.32
485.111	3.33
485.461	3.34
485.811	3.34
486.162	3.35
486.512	3.36
486.862	3.37
487.212	3.36
487.562	3.36
487.912	3.36
488.262	3.37
488.612	3.38
488.961	3.38
489.311	3.38
489.661	3.39
490.011	3.4
490.36	3.39
490.71	3.4
491.06	3.39
491.409	3.39
491.759	3.4
492.108	3.4
492.458	3.39
492.807	3.4
493.157	3.39
493.506	3.38
493.855	3.39
494.204	3.38
494.554	3.39
494.903	3.38
495.252	3.4
495.601	3.4
495.95	3.41
496.299	3.41
496.648	3.43
496.997	3.44
497.346	3.44
497.695	3.44
498.043	3.46
498.392	3.48
498.741	3.48
499.09	3.51
499.438	3.53
499.787	3.54
500.135	3.54
500.484	3.59
500.832	3.59
501.181	3.59
501.529	3.59
501.878	3.6
502.226	3.61
502.574	3.61
502.923	3.61
503.271	3.61
503.619	3.61
503.967	3.58
504.315	3.57
504.663	3.57
505.011	3.57
505.359	3.54
505.707	3.52
506.055	3.53
506.403	3.51
506.751	3.49
507.098	3.5
507.446	3.51
507.794	3.48
508.141	3.51
508.489	3.51
508.837	3.49
509.184	3.5
509.531	3.49
509.879	3.5
510.226	3.5
510.574	3.51
510.921	3.49
511.268	3.5
511.616	3.51
511.963	3.52
512.31	3.54
512.657	3.55
513.004	3.56
513.351	3.56
513.698	3.56
514.045	3.57
514.392	3.55
514.739	3.55
515.086	3.56
515.432	3.53
515.779	3.53
516.126	3.56
516.473	3.55
516.819	3.56
517.166	3.55
517.512	3.56
517.859	3.56
518.205	3.57
518.552	3.59
518.898	3.59
519.245	3.6
519.591	3.59
519.937	3.6
520.283	3.62
520.629	3.62
520.976	3.6
521.322	3.6
521.668	3.61
522.014	3.61
522.36	3.59
522.706	3.6
523.052	3.6
523.398	3.58
523.743	3.58
524.089	3.59
524.435	3.59
524.781	3.58
525.126	3.57
525.472	3.58
525.817	3.58
526.163	3.58
526.509	3.58
526.854	3.58
527.199	3.59
527.545	3.57
527.89	3.58
528.235	3.59
528.581	3.6
528.926	3.6
529.271	3.6
529.616	3.62
529.961	3.62
530.306	3.62
530.651	3.62
530.996	3.64
531.341	3.64
531.686	3.65
532.031	3.66
532.376	3.67
532.721	3.67
533.065	3.68
533.41	3.67
533.755	3.68
534.099	3.67
534.444	3.68
534.788	3.68
535.133	3.69
535.477	3.7
535.822	3.7
536.166	3.71
536.51	3.72
536.855	3.71
537.199	3.72
537.543	3.73
537.887	3.73
538.231	3.71
538.576	3.71
538.92	3.72
539.264	3.7
539.608	3.71
539.951	3.7
540.295	3.7
540.639	3.71
540.983	3.72
541.327	3.73
541.671	3.72
542.014	3.74
542.358	3.73
542.701	3.73
543.045	3.72
543.389	3.71
543.732	3.69
544.075	3.7
544.419	3.7
544.762	3.69
545.105	3.71
545.449	3.72
545.792	3.74
546.135	3.73
546.478	3.75
546.821	3.77
547.165	3.77
547.508	3.78
547.851	3.76
548.194	3.72
548.536	3.72
548.879	3.71
549.222	3.72
549.565	3.71
549.908	3.73
550.25	3.73
550.593	3.75
550.936	3.76
551.278	3.76
551.621	3.75
551.963	3.78
552.306	3.76
552.648	3.73
552.991	3.71
553.333	3.72
553.675	3.71
554.017	3.67
554.36	3.65
554.702	3.64
555.044	3.63
555.386	3.67
555.728	3.67
556.07	3.69
556.412	3.66
556.754	3.66
557.096	3.64
557.438	3.63
557.78	3.58
558.121	3.58
558.463	3.56
558.805	3.59
559.147	3.56
559.488	3.55
559.83	3.57
560.171	3.56
560.513	3.55
560.854	3.53
561.196	3.57
561.537	3.57
561.878	3.58
562.22	3.62
562.561	3.63
562.902	3.63
563.243	3.65
563.584	3.69
563.925	3.72
564.266	3.71
564.607	3.75
564.948	3.79
565.289	3.79
565.63	3.78
565.971	3.77
566.312	3.76
566.653	3.77
566.993	3.76
567.334	3.76
567.675	3.77
568.015	3.8
568.356	3.76
568.696	3.76
569.037	3.74
569.377	3.75
569.718	3.72
570.058	3.72
570.398	3.68
570.739	3.65
571.079	3.63
571.419	3.62
571.759	3.61
572.099	3.6
572.439	3.61
572.779	3.63
573.119	3.64
573.459	3.67
573.799	3.67
574.139	3.66
574.479	3.67
574.819	3.65
575.158	3.64
575.498	3.68
575.838	3.69
576.177	3.7
576.517	3.7
576.856	3.74
577.196	3.76
577.535	3.78
577.875	3.8
578.214	3.8
578.553	3.8
578.893	3.81
579.232	3.83
579.571	3.85
579.91	3.83
580.25	3.83
580.589	3.8
580.928	3.79
581.267	3.8
581.606	3.82
581.945	3.84
582.283	3.85
582.622	3.82
582.961	3.83
583.3	3.81
583.639	3.79
583.977	3.76
584.316	3.73
584.654	3.74
584.993	3.74
585.332	3.74
585.67	3.78
586.008	3.79
586.347	3.79
586.685	3.7
587.024	3.74
587.362	3.72
587.7	3.74
588.038	3.78
588.376	3.8
588.715	3.76
589.053	3.76
589.391	3.77
589.729	3.75
590.067	3.77
590.404	3.8
590.742	3.79
591.08	3.78
591.418	3.78
591.756	3.77
592.093	3.79
592.431	3.8
592.769	3.81
593.106	3.78
593.444	3.77
593.781	3.86
594.119	3.8
594.456	3.83
594.793	3.83
595.131	3.83
595.468	3.84
595.805	3.87
596.143	3.88
596.48	3.86
596.817	3.86
597.154	3.85
597.491	3.85
597.828	3.9
598.165	3.93
598.502	3.9
598.839	3.87
599.176	3.87
599.512	3.84
599.849	3.84
600.186	3.87
600.523	3.9
600.859	3.89
601.196	3.93
601.532	3.93
601.869	3.94
602.205	3.93
602.542	3.91
602.878	3.94
603.215	3.96
603.551	3.98
603.887	4.01
604.223	3.98
604.56	3.96
604.896	3.93
605.232	3.89
605.568	3.92
605.904	3.95
606.24	3.96
606.576	3.99
606.912	4
607.248	4.01
607.583	3.99
607.919	3.97
608.255	3.96
608.591	3.95
608.926	3.92
609.262	3.9
609.597	3.91
609.933	3.88
610.268	3.87
610.604	3.88
610.939	3.91
611.275	3.92
611.61	3.91
611.945	3.94
612.281	4.02
612.616	4.05
612.951	4.02
613.286	4.01
613.621	3.99
613.956	3.96
614.291	3.96
614.626	3.95
614.961	3.99
615.296	4.02
615.631	4.03
615.966	4.1
616.3	4.1
616.635	4.13
616.97	4.09
617.304	4.05
617.639	4.02
617.973	3.93
618.308	3.97
618.642	3.94
618.977	3.91
619.311	3.88
619.646	3.9
619.98	3.94
620.314	3.92
620.648	3.94
620.983	3.94
621.317	3.93
621.651	3.96
621.985	3.91
622.319	3.88
622.653	3.9
622.987	3.89
623.321	3.89
623.655	3.89
623.988	3.98
624.322	4.04
624.656	4.05
624.99	4.12
625.323	4.09
625.657	4.17
625.99	4.18
626.324	4.14
626.657	4.07
626.991	4.11
627.324	4.12
627.658	4.09
627.991	4.13
628.324	4.09
628.657	4.12
628.991	4.13
629.324	4.17
629.657	4.18
629.99	4.19
630.323	4.23
630.656	4.29
630.989	4.23
631.322	4.2
631.655	4.21
631.987	4.2
632.32	4.23
632.653	4.18
632.986	4.16
633.318	4.21
633.651	4.27
633.984	4.24
634.316	4.25
634.649	4.28
634.981	4.29
635.313	4.28
635.646	4.29
635.978	4.28
636.31	4.25
636.643	4.23
636.975	4.19
637.307	4.18
637.639	4.11
637.971	4.13
638.303	4.06
638.635	4
638.967	4.04
639.299	4
639.631	4.04
639.963	4.02
640.295	4
640.626	3.96
640.958	3.98
641.29	3.99
641.621	3.94
641.953	3.91
642.285	3.98
642.616	3.96
642.948	3.98
643.279	3.93
643.61	3.97
643.942	4.02
644.273	4.04
644.604	4.05
644.936	4.07
645.267	4.18
645.598	4.22
645.929	4.12
646.26	4.14
646.591	4.19
646.922	4.24
647.253	4.17
647.584	4.18
647.915	4.17
648.245	4.18
648.576	4.19
648.907	4.21
649.238	4.09
649.568	4.06
649.899	4.11
650.229	4.21
650.56	4.17
650.89	4.13
651.221	4.09
651.551	4.04
651.882	3.96
652.212	3.95
652.542	3.93
652.872	3.97
653.203	3.99
653.533	4.02
653.863	4.04
654.193	4.03
654.523	4.07
654.853	4.11
655.183	4.16
655.513	4.26
655.843	4.25
656.172	4.31
656.502	4.31
656.832	4.25
657.162	4.14
657.491	4.2
657.821	4.22
658.15	4.24
658.48	4.34
658.809	4.4
659.139	4.42
659.468	4.45
659.798	4.48
660.127	4.5
660.456	4.46
660.785	4.39
661.115	4.47
661.444	4.47
661.773	4.41
662.102	4.39
662.431	4.35
662.76	4.39
663.089	4.44
663.418	4.53
663.747	4.56
664.076	4.63
664.404	4.64
664.733	4.64
665.062	4.63
665.39	4.53
665.719	4.53
666.048	4.46
666.376	4.46
666.705	4.47
667.033	4.46
667.362	4.46
667.69	4.55
668.018	4.54
668.347	4.53
668.675	4.56
669.003	4.54
669.331	4.6
669.659	4.63
669.987	4.63
670.315	4.59
670.643	4.58
670.971	4.62
671.299	4.54
671.627	4.56
671.955	4.45
672.283	4.52
672.61	4.51
672.938	4.6
673.266	4.58
673.593	4.56
673.921	4.61
674.249	4.52
674.576	4.49
674.904	4.45
675.231	4.46
675.558	4.47
675.886	4.49
676.213	4.4
676.54	4.38
676.867	4.31
677.195	4.33
677.522	4.37
677.849	4.39
678.176	4.51
678.503	4.52
678.83	4.61
679.157	4.56
679.484	4.55
679.81	4.53
