Data from BU26843_Reflection_00014.txt Node
Date: Mon Nov 18 16:31:24 EST 2019
User: vgr7
Spectrometer: USB2G7710
Scans to average: 3
Trigger mode: 4
Integration Time (sec): 2.000000E-2
Electric dark correction enabled: true
Boxcar width: 10
XAxis mode: Wavelengths
Number of Pixels in Spectrum: 2048
>>>>>Begin Spectral Data<<<<<
177.721	35.7
178.105	-163.16
178.488	287.97
178.871	104.42
179.254	78.98
179.636	68.75
180.019	61.72
180.402	120.69
180.785	44.86
181.168	24.53
181.55	-48.51
181.933	93.26
182.316	136.19
182.698	158.52
183.081	230.43
183.463	703.96
183.846	1244.93
184.228	789.32
184.611	780
184.993	-1037.93
185.376	-403.36
185.758	-290.56
186.14	-233.33
186.522	-221.55
186.904	-139.9
187.287	-337.79
187.669	-132.6
188.051	-160.14
188.433	-66.49
188.815	-35.29
189.197	-49.64
189.579	-56.16
189.961	-59.88
190.342	-56.39
190.724	-51.31
191.106	-54.91
191.488	-48.23
191.869	-42.44
192.251	-52.64
192.633	-45.11
193.014	-42.27
193.396	-72.61
193.777	-78.1
194.159	-115.45
194.54	-107.37
194.922	-146.66
195.303	-121.57
195.684	-105.91
196.065	-105.48
196.447	-143.68
196.828	-155.14
197.209	-123.3
197.59	-152.2
197.971	-118.85
198.352	-89.3
198.733	-142
199.114	-113.81
199.495	-109.01
199.876	-126.17
200.257	-99.49
200.638	-94.97
201.018	-105.98
201.399	-106.27
201.78	-65.83
202.16	-86.24
202.541	-134.17
202.922	-128.67
203.302	-178.56
203.683	-195.93
204.063	-187.16
204.444	-137.97
204.824	-155.23
205.204	-178.83
205.585	-188.14
205.965	-311.76
206.345	-457.63
206.725	-407.69
207.106	-580.61
207.486	-439.82
207.866	-354.55
208.246	-295.35
208.626	-250.8
209.006	-152.69
209.386	-175.15
209.766	-197.67
210.145	-125.46
210.525	-104.73
210.905	-95.03
211.285	-77.85
211.664	-62.58
212.044	-74.79
212.424	-68.01
212.803	-76.16
213.183	-75.09
213.562	-62.48
213.942	-52.79
214.321	-47.96
214.701	-44.42
215.08	-42.42
215.459	-47.9
215.838	-50.7
216.218	-53.02
216.597	-52.18
216.976	-67.51
217.355	-62.53
217.734	-73.54
218.113	-81.28
218.492	-83.65
218.871	-90.82
219.25	-92.72
219.629	-95.64
220.008	-83.24
220.387	-85.22
220.766	-68.68
221.144	-79.32
221.523	-95.64
221.902	-107.45
222.28	-131.28
222.659	-122.84
223.037	-111
223.416	-103.36
223.794	-85.68
224.173	-84.15
224.551	-62.29
224.929	-63.59
225.308	-45.62
225.686	-34.47
226.064	-25.25
226.442	-22.21
226.821	-16.32
227.199	-15.95
227.577	-18.68
227.955	-16.6
228.333	-16.1
228.711	-15.05
229.089	-9.7
229.467	-5.46
229.845	-5.51
230.222	-2.12
230.6	-4.75
230.978	-4.88
231.356	-1.76
231.733	-3.71
232.111	-5.46
232.488	-5.48
232.866	-4.34
233.243	-6.37
233.621	-6.86
233.998	-7.22
234.376	-8.6
234.753	-7.28
235.13	-6.33
235.508	-4.99
235.885	-6.72
236.262	-7.96
236.639	-7.46
237.016	-7.14
237.393	-7.43
237.77	-6.15
238.147	-4.43
238.524	-1.41
238.901	-0.52
239.278	-0.66
239.655	0.77
240.032	1.28
240.409	0.99
240.785	1.4
241.162	2.07
241.539	2.91
241.915	2.83
242.292	3.22
242.668	3.38
243.045	3.59
243.421	3.61
243.798	3.88
244.174	4.37
244.551	4.44
244.927	4.21
245.303	4.47
245.679	4.48
246.056	4.21
246.432	4.01
246.808	3.92
247.184	3.92
247.56	3.77
247.936	3.79
248.312	3.88
248.688	4.06
249.064	4.04
249.44	3.85
249.815	3.8
250.191	4.06
250.567	3.91
250.943	3.93
251.318	3.91
251.694	3.79
252.069	3.45
252.445	3.27
252.82	3.44
253.196	3.44
253.571	3.48
253.947	3.53
254.322	3.46
254.697	3.67
255.073	3.46
255.448	3.21
255.823	3.13
256.198	3.17
256.573	2.82
256.948	2.92
257.323	3.05
257.698	3.25
258.073	2.85
258.448	3
258.823	2.87
259.198	2.77
259.573	2.81
259.948	2.85
260.322	3
260.697	2.97
261.072	2.82
261.446	2.74
261.821	2.72
262.195	2.75
262.57	2.55
262.944	2.64
263.319	2.73
263.693	2.86
264.067	2.92
264.442	2.92
264.816	2.71
265.19	2.56
265.564	2.44
265.938	2.45
266.313	2.48
266.687	2.68
267.061	2.88
267.435	2.93
267.809	3.04
268.183	3.03
268.556	2.83
268.93	3.01
269.304	3.19
269.678	3.23
270.051	3.17
270.425	3.25
270.799	3.19
271.172	3.26
271.546	2.97
271.919	2.81
272.293	2.94
272.666	3.18
273.04	3.25
273.413	3.2
273.787	3.27
274.16	3.21
274.533	3.02
274.906	3
275.279	2.91
275.653	2.74
276.026	2.74
276.399	2.84
276.772	2.76
277.145	2.67
277.518	2.72
277.891	2.84
278.263	2.87
278.636	2.94
279.009	2.85
279.382	3.16
279.755	3.38
280.127	3.37
280.5	3.43
280.872	3.56
281.245	3.41
281.617	3.55
281.99	3.57
282.362	3.72
282.735	3.56
283.107	3.72
283.479	3.78
283.852	3.86
284.224	3.99
284.596	4.05
284.968	4.08
285.34	4.04
285.713	3.98
286.085	4.05
286.457	4.08
286.829	4.14
287.201	4.09
287.572	3.93
287.944	3.82
288.316	3.75
288.688	3.69
289.06	3.79
289.431	3.72
289.803	3.8
290.175	3.72
290.546	3.84
290.918	3.9
291.289	3.99
291.661	4.01
292.032	3.96
292.403	4.03
292.775	4.11
293.146	4.04
293.517	4.17
293.889	4.24
294.26	4.31
294.631	4.38
295.002	4.36
295.373	4.54
295.744	4.68
296.115	4.8
296.486	4.77
296.857	4.89
297.228	5.05
297.599	4.9
297.97	5.01
298.34	5.1
298.711	5.02
299.082	5.01
299.452	5.03
299.823	5.22
300.194	5.29
300.564	5.34
300.935	5.52
301.305	5.4
301.676	5.4
302.046	5.53
302.416	5.7
302.787	5.81
303.157	5.69
303.527	5.64
303.897	5.53
304.267	5.7
304.637	5.73
305.008	5.7
305.378	5.96
305.748	5.93
306.117	5.97
306.487	6.18
306.857	6.27
307.227	6.31
307.597	6.23
307.967	6.16
308.336	6.23
308.706	6.3
309.076	6.5
309.445	6.51
309.815	6.34
310.184	6.28
310.554	6.28
310.923	6.41
311.293	6.57
311.662	6.66
312.031	6.69
312.401	6.73
312.77	6.92
313.139	6.88
313.508	6.97
313.877	7
314.246	6.9
314.616	7.01
314.985	6.99
315.353	6.99
315.722	7.11
316.091	7.18
316.46	7.24
316.829	7.34
317.198	7.41
317.567	7.58
317.935	7.73
318.304	7.91
318.672	7.98
319.041	8.06
319.41	8.16
319.778	8.29
320.147	8.36
320.515	8.31
320.883	8.37
321.252	8.56
321.62	8.73
321.988	8.82
322.357	8.91
322.725	9
323.093	9.15
323.461	9.08
323.829	9.15
324.197	9.2
324.565	9.22
324.933	9.36
325.301	9.4
325.669	9.4
326.037	9.58
326.405	9.72
326.772	9.75
327.14	9.91
327.508	9.81
327.875	9.85
328.243	9.97
328.61	10.03
328.978	10.11
329.346	10.05
329.713	10.23
330.08	10.2
330.448	10.18
330.815	10.08
331.182	10.29
331.55	10.29
331.917	10.36
332.284	10.34
332.651	10.36
333.018	10.42
333.385	10.45
333.752	10.43
334.119	10.46
334.486	10.48
334.853	10.44
335.22	10.43
335.587	10.49
335.954	10.43
336.32	10.48
336.687	10.55
337.054	10.68
337.42	10.64
337.787	10.75
338.153	10.86
338.52	11.04
338.886	10.97
339.253	10.97
339.619	11
339.986	11.14
340.352	11.25
340.718	11.31
341.084	11.37
341.451	11.46
341.817	11.56
342.183	11.57
342.549	11.59
342.915	11.75
343.281	11.75
343.647	11.79
344.013	11.85
344.379	11.71
344.745	11.74
345.11	11.84
345.476	11.8
345.842	11.85
346.208	11.8
346.573	11.83
346.939	11.89
347.304	11.82
347.67	11.77
348.035	11.79
348.401	11.77
348.766	11.86
349.132	11.85
349.497	11.8
349.862	11.94
350.228	11.98
350.593	11.93
350.958	11.98
351.323	12.11
351.688	12.08
352.053	12.12
352.418	12.13
352.783	12.11
353.148	12.12
353.513	12.09
353.878	12.15
354.243	12.14
354.608	12.08
354.972	12.13
355.337	12.09
355.702	12.1
356.066	12.13
356.431	12
356.795	11.98
357.16	11.95
357.524	11.81
357.889	11.78
358.253	11.84
358.618	11.8
358.982	11.72
359.346	11.7
359.71	11.7
360.075	11.6
360.439	11.54
360.803	11.5
361.167	11.48
361.531	11.4
361.895	11.38
362.259	11.35
362.623	11.34
362.987	11.3
363.351	11.23
363.714	11.19
364.078	11.14
364.442	11.06
364.806	10.94
365.169	10.91
365.533	10.76
365.896	10.65
366.26	10.52
366.623	10.4
366.987	10.38
367.35	10.3
367.714	10.29
368.077	10.21
368.44	10.18
368.803	10.08
369.167	9.95
369.53	9.82
369.893	9.79
370.256	9.65
370.619	9.64
370.982	9.5
371.345	9.41
371.708	9.41
372.071	9.32
372.434	9.27
372.797	9.18
373.159	9.16
373.522	9.11
373.885	9.12
374.247	9.04
374.61	8.91
374.973	8.86
375.335	8.72
375.698	8.73
376.06	8.63
376.423	8.58
376.785	8.6
377.147	8.57
377.51	8.44
377.872	8.5
378.234	8.38
378.596	8.38
378.958	8.25
379.321	8.19
379.683	8.17
380.045	8.13
380.407	8.09
380.769	8.04
381.13	8
381.492	7.9
381.854	7.86
382.216	7.81
382.578	7.77
382.939	7.73
383.301	7.59
383.663	7.51
384.024	7.45
384.386	7.39
384.747	7.36
385.109	7.34
385.47	7.23
385.832	7.2
386.193	7.13
386.554	7.14
386.916	7.06
387.277	7
387.638	6.98
387.999	6.91
388.36	6.9
388.721	6.83
389.082	6.81
389.443	6.75
389.804	6.7
390.165	6.6
390.526	6.57
390.887	6.55
391.248	6.56
391.609	6.53
391.969	6.52
392.33	6.46
392.691	6.46
393.051	6.42
393.412	6.38
393.772	6.33
394.133	6.31
394.493	6.26
394.854	6.2
395.214	6.11
395.574	6.07
395.935	6
396.295	5.98
396.655	5.94
397.015	5.94
397.376	5.88
397.736	5.83
398.096	5.83
398.456	5.78
398.816	5.73
399.176	5.67
399.535	5.62
399.895	5.57
400.255	5.5
400.615	5.45
400.975	5.4
401.334	5.38
401.694	5.34
402.054	5.3
402.413	5.28
402.773	5.26
403.132	5.22
403.492	5.18
403.851	5.18
404.211	5.14
404.57	5.06
404.929	5.06
405.288	5.04
405.648	4.98
406.007	4.94
406.366	4.91
406.725	4.91
407.084	4.92
407.443	4.89
407.802	4.91
408.161	4.89
408.52	4.87
408.879	4.83
409.238	4.79
409.596	4.79
409.955	4.78
410.314	4.79
410.673	4.77
411.031	4.78
411.39	4.74
411.748	4.73
412.107	4.75
412.465	4.73
412.824	4.74
413.182	4.72
413.54	4.74
413.899	4.72
414.257	4.69
414.615	4.62
414.974	4.62
415.332	4.55
415.69	4.54
416.048	4.5
416.406	4.5
416.764	4.47
417.122	4.47
417.48	4.44
417.838	4.41
418.195	4.41
418.553	4.4
418.911	4.36
419.269	4.35
419.626	4.32
419.984	4.32
420.342	4.3
420.699	4.27
421.057	4.24
421.414	4.22
421.772	4.22
422.129	4.2
422.486	4.19
422.844	4.21
423.201	4.18
423.558	4.19
423.915	4.16
424.273	4.17
424.63	4.14
424.987	4.14
425.344	4.13
425.701	4.11
426.058	4.07
426.415	4.08
426.772	4.06
427.128	4.07
427.485	4.04
427.842	4.02
428.199	4.03
428.555	4.01
428.912	4.01
429.269	3.98
429.625	3.98
429.982	3.95
430.338	3.93
430.695	3.93
431.051	3.91
431.407	3.91
431.764	3.88
432.12	3.87
432.476	3.86
432.832	3.84
433.189	3.85
433.545	3.85
433.901	3.83
434.257	3.82
434.613	3.82
434.969	3.82
435.325	3.83
435.681	3.84
436.036	3.84
436.392	3.86
436.748	3.87
437.104	3.86
437.459	3.86
437.815	3.85
438.171	3.84
438.526	3.86
438.882	3.86
439.237	3.88
439.593	3.9
439.948	3.9
440.304	3.91
440.659	3.91
441.014	3.91
441.369	3.91
441.725	3.91
442.08	3.9
442.435	3.92
442.79	3.91
443.145	3.9
443.5	3.9
443.855	3.88
444.21	3.89
444.565	3.89
444.92	3.9
445.275	3.89
445.629	3.9
445.984	3.91
446.339	3.88
446.693	3.86
447.048	3.85
447.403	3.84
447.757	3.84
448.112	3.82
448.466	3.8
448.82	3.79
449.175	3.79
449.529	3.77
449.883	3.73
450.238	3.73
450.592	3.73
450.946	3.71
451.3	3.69
451.654	3.66
452.008	3.67
452.362	3.65
452.716	3.65
453.07	3.64
453.424	3.63
453.778	3.64
454.132	3.64
454.486	3.62
454.839	3.61
455.193	3.6
455.547	3.62
455.9	3.65
456.254	3.66
456.607	3.65
456.961	3.65
457.314	3.65
457.668	3.64
458.021	3.63
458.375	3.63
458.728	3.63
459.081	3.66
459.434	3.64
459.787	3.65
460.141	3.65
460.494	3.65
460.847	3.63
461.2	3.62
461.553	3.63
461.906	3.65
462.259	3.66
462.611	3.67
462.964	3.68
463.317	3.66
463.67	3.67
464.022	3.69
464.375	3.69
464.728	3.71
465.08	3.73
465.433	3.73
465.785	3.74
466.138	3.75
466.49	3.76
466.843	3.77
467.195	3.79
467.547	3.81
467.899	3.82
468.252	3.86
468.604	3.88
468.956	3.9
469.308	3.9
469.66	3.89
470.012	3.89
470.364	3.9
470.716	3.92
471.068	3.92
471.42	3.93
471.772	3.97
472.123	4
472.475	3.99
472.827	4.02
473.178	4.05
473.53	4.06
473.882	4.09
474.233	4.11
474.585	4.11
474.936	4.13
475.288	4.15
475.639	4.15
475.99	4.16
476.342	4.16
476.693	4.16
477.044	4.17
477.395	4.17
477.746	4.17
478.097	4.13
478.448	4.12
478.8	4.11
479.15	4.08
479.501	4.06
479.852	4.06
480.203	4.05
480.554	4.04
480.905	4.04
481.255	4
481.606	3.98
481.957	3.97
482.307	3.96
482.658	3.95
483.009	3.94
483.359	3.93
483.709	3.93
484.06	3.92
484.41	3.92
484.761	3.91
485.111	3.9
485.461	3.9
485.811	3.9
486.162	3.89
486.512	3.9
486.862	3.89
487.212	3.87
487.562	3.87
487.912	3.87
488.262	3.86
488.612	3.86
488.961	3.86
489.311	3.85
489.661	3.85
490.011	3.84
490.36	3.83
490.71	3.84
491.06	3.82
491.409	3.83
491.759	3.82
492.108	3.83
492.458	3.84
492.807	3.85
493.157	3.87
493.506	3.87
493.855	3.87
494.204	3.89
494.554	3.91
494.903	3.93
495.252	3.93
495.601	3.98
495.95	4.02
496.299	4.07
496.648	4.1
496.997	4.15
497.346	4.19
497.695	4.25
498.043	4.3
498.392	4.36
498.741	4.43
499.09	4.49
499.438	4.55
499.787	4.61
500.135	4.66
500.484	4.72
500.832	4.79
501.181	4.86
501.529	4.93
501.878	5.05
502.226	5.12
502.574	5.22
502.923	5.28
503.271	5.35
503.619	5.44
503.967	5.54
504.315	5.61
504.663	5.72
505.011	5.82
505.359	5.9
505.707	6.05
506.055	6.13
506.403	6.22
506.751	6.33
507.098	6.43
507.446	6.56
507.794	6.68
508.141	6.79
508.489	6.91
508.837	7.03
509.184	7.15
509.531	7.29
509.879	7.41
510.226	7.55
510.574	7.65
510.921	7.77
511.268	7.88
511.616	8.04
511.963	8.19
512.31	8.35
512.657	8.52
513.004	8.64
513.351	8.81
513.698	8.99
514.045	9.16
514.392	9.34
514.739	9.51
515.086	9.69
515.432	9.86
515.779	10.02
516.126	10.19
516.473	10.35
516.819	10.49
517.166	10.63
517.512	10.77
517.859	10.93
518.205	11.06
518.552	11.22
518.898	11.32
519.245	11.42
519.591	11.53
519.937	11.63
520.283	11.78
520.629	11.92
520.976	12.06
521.322	12.21
521.668	12.38
522.014	12.57
522.36	12.73
522.706	12.92
523.052	13.15
523.398	13.35
523.743	13.58
524.089	13.81
524.435	14.03
524.781	14.21
525.126	14.4
525.472	14.59
525.817	14.77
526.163	14.93
526.509	15.08
526.854	15.22
527.199	15.39
527.545	15.52
527.89	15.65
528.235	15.81
528.581	15.95
528.926	16.1
529.271	16.23
529.616	16.4
529.961	16.54
530.306	16.69
530.651	16.87
530.996	17.04
531.341	17.22
531.686	17.41
532.031	17.62
532.376	17.85
532.721	18.06
533.065	18.29
533.41	18.52
533.755	18.77
534.099	19.03
534.444	19.28
534.788	19.54
535.133	19.81
535.477	20.07
535.822	20.36
536.166	20.65
536.51	21
536.855	21.35
537.199	21.71
537.543	22.1
537.887	22.47
538.231	22.84
538.576	23.25
538.92	23.62
539.264	24.01
539.608	24.36
539.951	24.71
540.295	24.98
540.639	25.29
540.983	25.6
541.327	25.9
541.671	26.18
542.014	26.47
542.358	26.76
542.701	27.05
543.045	27.35
543.389	27.64
543.732	27.92
544.075	28.22
544.419	28.55
544.762	28.85
545.105	29.16
545.449	29.52
545.792	29.84
546.135	30.21
546.478	30.6
546.821	30.97
547.165	31.36
547.508	31.85
547.851	32.31
548.194	32.71
548.536	33.16
548.879	33.59
549.222	34.07
549.565	34.48
549.908	34.9
550.25	35.35
550.593	35.81
550.936	36.24
551.278	36.65
551.621	37.06
551.963	37.48
552.306	37.92
552.648	38.33
552.991	38.8
553.333	39.2
553.675	39.55
554.017	39.89
554.36	40.23
554.702	40.53
555.044	40.86
555.386	41.28
555.728	41.57
556.07	41.97
556.412	42.27
556.754	42.62
557.096	42.99
557.438	43.33
557.78	43.66
558.121	44.01
558.463	44.39
558.805	44.75
559.147	45.16
559.488	45.5
559.83	45.8
560.171	46.12
560.513	46.49
560.854	46.83
561.196	47.19
561.537	47.52
561.878	47.89
562.22	48.15
562.561	48.39
562.902	48.73
563.243	48.94
563.584	49.18
563.925	49.48
564.266	49.74
564.607	50.01
564.948	50.25
565.289	50.49
565.63	50.77
565.971	50.98
566.312	51.14
566.653	51.37
566.993	51.61
567.334	51.81
567.675	51.98
568.015	52.15
568.356	52.35
568.696	52.6
569.037	52.8
569.377	53.1
569.718	53.34
570.058	53.53
570.398	53.81
570.739	53.99
571.079	54.22
571.419	54.4
571.759	54.53
572.099	54.69
572.439	54.81
572.779	54.99
573.119	55.17
573.459	55.36
573.799	55.55
574.139	55.72
574.479	55.84
574.819	55.98
575.158	56.15
575.498	56.38
575.838	56.49
576.177	56.63
576.517	56.68
576.856	56.82
577.196	56.95
577.535	57.06
577.875	57.27
578.214	57.39
578.553	57.54
578.893	57.7
579.232	57.92
579.571	58.09
579.91	58.13
580.25	58.3
580.589	58.46
580.928	58.51
581.267	58.64
581.606	58.83
581.945	58.97
582.283	59.13
582.622	59.16
582.961	59.27
583.3	59.44
583.639	59.6
583.977	59.65
584.316	59.79
584.654	59.94
584.993	60.08
585.332	60.13
585.67	60.25
586.008	60.4
586.347	60.43
586.685	60.53
587.024	60.7
587.362	60.78
587.7	60.86
588.038	61
588.376	61.04
588.715	61.1
589.053	61.18
589.391	61.27
589.729	61.4
590.067	61.45
590.404	61.42
590.742	61.47
591.08	61.55
591.418	61.56
591.756	61.6
592.093	61.61
592.431	61.69
592.769	61.8
593.106	61.82
593.444	61.96
593.781	62.01
594.119	62.04
594.456	62.08
594.793	62.09
595.131	62.08
595.468	62.13
595.805	62.19
596.143	62.25
596.48	62.24
596.817	62.31
597.154	62.34
597.491	62.48
597.828	62.57
598.165	62.62
598.502	62.72
598.839	62.82
599.176	62.94
599.512	62.98
599.849	63.03
600.186	63.08
600.523	63.13
600.859	63.16
601.196	63.25
601.532	63.31
601.869	63.46
602.205	63.56
602.542	63.59
602.878	63.69
603.215	63.68
603.551	63.73
603.887	63.79
604.223	63.88
604.56	63.88
604.896	63.87
605.232	63.87
605.568	63.94
605.904	63.95
606.24	63.93
606.576	64.05
606.912	64.05
607.248	64.1
607.583	64.16
607.919	64.23
608.255	64.29
608.591	64.3
608.926	64.27
609.262	64.35
609.597	64.4
609.933	64.37
610.268	64.46
610.604	64.57
610.939	64.45
611.275	64.43
611.61	64.49
611.945	64.59
612.281	64.69
612.616	64.74
612.951	64.72
613.286	64.87
613.621	64.85
613.956	64.95
614.291	64.96
614.626	64.93
614.961	64.94
615.296	64.92
615.631	65.01
615.966	65.01
616.3	65.03
616.635	65.11
616.97	65.25
617.304	65.27
617.639	65.24
617.973	65.4
618.308	65.51
618.642	65.49
618.977	65.57
619.311	65.55
619.646	65.55
619.98	65.57
620.314	65.44
620.648	65.47
620.983	65.57
621.317	65.67
621.651	65.79
621.985	65.94
622.319	66.01
622.653	66.09
622.987	66.1
623.321	66.11
623.655	66.14
623.988	66.09
624.322	66.03
624.656	66.14
624.99	66.11
625.323	66.08
625.657	66.08
625.99	66.04
626.324	66.04
626.657	65.98
626.991	66.08
627.324	66.14
627.658	66.09
627.991	65.94
628.324	65.97
628.657	65.95
628.991	65.84
629.324	65.83
629.657	65.83
629.99	65.77
630.323	65.76
630.656	65.77
630.989	65.78
631.322	65.82
631.655	65.8
631.987	65.94
632.32	66.03
632.653	66.02
632.986	65.99
633.318	66.12
633.651	66.13
633.984	66.14
634.316	66.19
634.649	66.16
634.981	66.28
635.313	66.18
635.646	66.21
635.978	66.26
636.31	66.28
636.643	66.2
636.975	66.44
637.307	66.34
637.639	66.31
637.971	66.31
638.303	66.39
638.635	66.28
638.967	66.14
639.299	66.1
639.631	66.11
639.963	66.08
640.295	66.05
640.626	66.13
640.958	66.07
641.29	66.18
641.621	66.18
641.953	66.15
642.285	66.34
642.616	66.42
642.948	66.44
643.279	66.42
643.61	66.48
643.942	66.35
644.273	66.49
644.604	66.53
644.936	66.49
645.267	66.55
645.598	66.69
645.929	66.81
646.26	66.81
646.591	66.99
646.922	67.03
647.253	67.1
647.584	67.22
647.915	67.24
648.245	67.2
648.576	67.35
648.907	67.48
649.238	67.29
649.568	67.33
649.899	67.29
650.229	67.27
650.56	67.31
650.89	67.47
651.221	67.6
651.551	67.57
651.882	67.65
652.212	67.65
652.542	67.57
652.872	67.57
653.203	67.48
653.533	67.51
653.863	67.64
654.193	67.55
654.523	67.52
654.853	67.5
655.183	67.51
655.513	67.38
655.843	67.26
656.172	67.33
656.502	67.4
656.832	67.47
657.162	67.65
657.491	67.69
657.821	67.6
658.15	67.53
658.48	67.67
658.809	67.73
659.139	67.65
659.468	67.67
659.798	67.64
660.127	67.73
660.456	67.58
660.785	67.53
661.115	67.56
661.444	67.53
661.773	67.68
662.102	67.67
662.431	67.8
662.76	67.94
663.089	67.97
