Data from BU26844_Reflection_00008.txt Node
Date: Mon Nov 18 16:36:16 EST 2019
User: vgr7
Spectrometer: USB2G7710
Scans to average: 3
Trigger mode: 4
Integration Time (sec): 2.000000E-2
Electric dark correction enabled: true
Boxcar width: 10
XAxis mode: Wavelengths
Number of Pixels in Spectrum: 2048
>>>>>Begin Spectral Data<<<<<
177.721	-178.29
178.105	-4233.33
178.488	131.49
178.871	-733.33
179.254	89.99
179.636	-139.58
180.019	86.16
180.402	44.44
180.785	143.61
181.168	167.35
181.55	152.79
181.933	140.55
182.316	124.05
182.698	111.98
183.081	78.92
183.463	159.02
183.846	178.48
184.228	141.43
184.611	190.71
184.993	362.54
185.376	3887.88
185.758	-229.88
186.14	-157.76
186.522	-134.47
186.904	-629.37
187.287	1083.94
187.669	-294.58
188.051	-277.09
188.433	-142.5
188.815	-64.94
189.197	-37.41
189.579	-24.79
189.961	-46.97
190.342	-44.76
190.724	-21.44
191.106	-37.99
191.488	-50.25
191.869	-40
192.251	-46.27
192.633	-59.67
193.014	-85.96
193.396	-82.53
193.777	-69.69
194.159	-77.7
194.54	-60.63
194.922	-45.13
195.303	-51.55
195.684	-61.69
196.065	-53.19
196.447	-54.01
196.828	-62.68
197.209	-66.56
197.59	-75.81
197.971	-71.77
198.352	-85.08
198.733	-113.73
199.114	-88.38
199.495	-62.57
199.876	-44.87
200.257	-40.34
200.638	-28.21
201.018	-40.6
201.399	-57.93
201.78	-72.91
202.16	-131.77
202.541	-149.87
202.922	-172.31
203.302	-157.55
203.683	-101.58
204.063	-215.46
204.444	-292.24
204.824	-222.11
205.204	-159.9
205.585	-211.91
205.965	-85.39
206.345	-30.76
206.725	-57.2
207.106	-110.12
207.486	-183.12
207.866	-308.39
208.246	-313
208.626	-663.24
209.006	-73.95
209.386	-72.02
209.766	-48.24
210.145	-15.96
210.525	-21.83
210.905	-34.54
211.285	-31.18
211.664	-12.44
212.044	-3.5
212.424	6.24
212.803	3.21
213.183	1.75
213.562	-0.44
213.942	6.74
214.321	11.04
214.701	4.18
215.08	1.55
215.459	8.41
215.838	6.96
216.218	6.58
216.597	10.12
216.976	1.15
217.355	-1.11
217.734	-7.61
218.113	5.63
218.492	7.34
218.871	11.74
219.25	14.02
219.629	0.98
220.008	-11.9
220.387	-20.31
220.766	-16.26
221.144	-18.31
221.523	-22.47
221.902	-42.37
222.28	-51.48
222.659	-48.87
223.037	-18.08
223.416	-26.07
223.794	-19.26
224.173	-3.24
224.551	6.62
224.929	8.94
225.308	14.02
225.686	12.89
226.064	6.54
226.442	10.05
226.821	8.67
227.199	8.03
227.577	6.09
227.955	7.76
228.333	6.59
228.711	9.33
229.089	12.07
229.467	11.27
229.845	10.17
230.222	10.02
230.6	9.92
230.978	6.97
231.356	7.05
231.733	5.21
232.111	4.76
232.488	4.44
232.866	4.86
233.243	4.9
233.621	5.16
233.998	6.58
234.376	3.74
234.753	3.86
235.13	5.8
235.508	8.25
235.885	8.49
236.262	7.68
236.639	5.54
237.016	3.98
237.393	5.2
237.77	6.7
238.147	5.59
238.524	5.12
238.901	5.22
239.278	5.26
239.655	5.28
240.032	4.2
240.409	4.06
240.785	4.06
241.162	4.13
241.539	4.13
241.915	3.92
242.292	3.82
242.668	4
243.045	3.32
243.421	3.46
243.798	3.05
244.174	3.49
244.551	3.45
244.927	3.19
245.303	3.46
245.679	3.33
246.056	3.27
246.432	3.31
246.808	3.14
247.184	2.85
247.56	2.75
247.936	2.7
248.312	2.7
248.688	2.65
249.064	2.5
249.44	2.33
249.815	2.31
250.191	2.52
250.567	2.52
250.943	2.68
251.318	2.49
251.694	2.76
252.069	2.77
252.445	2.61
252.82	2.81
253.196	2.59
253.571	2.5
253.947	2.46
254.322	2.57
254.697	2.39
255.073	2.2
255.448	2.27
255.823	2.45
256.198	2.48
256.573	2.49
256.948	2.32
257.323	2.41
257.698	2.48
258.073	2.41
258.448	2.35
258.823	2.18
259.198	2.14
259.573	1.99
259.948	1.86
260.322	1.92
260.697	1.8
261.072	1.71
261.446	1.85
261.821	1.74
262.195	1.69
262.57	1.9
262.944	2.07
263.319	1.96
263.693	1.91
264.067	1.87
264.442	1.9
264.816	1.94
265.19	1.98
265.564	1.77
265.938	1.6
266.313	1.53
266.687	1.7
267.061	1.73
267.435	1.79
267.809	1.85
268.183	1.98
268.556	1.96
268.93	2.05
269.304	1.91
269.678	2.31
270.051	2.37
270.425	2.34
270.799	2.35
271.172	2.36
271.546	2.37
271.919	2.35
272.293	2.31
272.666	2.39
273.04	2.44
273.413	2.59
273.787	2.8
274.16	2.78
274.533	2.7
274.906	2.6
275.279	2.58
275.653	2.58
276.026	2.54
276.399	2.58
276.772	2.59
277.145	2.59
277.518	2.44
277.891	2.41
278.263	2.22
278.636	2.15
279.009	2.27
279.382	2.47
279.755	2.51
280.127	2.62
280.5	2.69
280.872	2.8
281.245	2.69
281.617	2.69
281.99	2.71
282.362	2.81
282.735	2.84
283.107	2.72
283.479	2.61
283.852	2.5
284.224	2.61
284.596	2.56
284.968	2.65
285.34	2.64
285.713	2.65
286.085	2.75
286.457	2.83
286.829	2.82
287.201	2.76
287.572	2.69
287.944	2.55
288.316	2.52
288.688	2.41
289.06	2.47
289.431	2.33
289.803	2.29
290.175	2.26
290.546	2.42
290.918	2.59
291.289	2.63
291.661	2.87
292.032	2.88
292.403	3
292.775	3.02
293.146	2.99
293.517	2.94
293.889	2.91
294.26	2.89
294.631	2.91
295.002	2.76
295.373	2.82
295.744	3
296.115	2.96
296.486	2.83
296.857	2.91
297.228	3.13
297.599	3.12
297.97	3.07
298.34	3.15
298.711	3.08
299.082	3.1
299.452	3.04
299.823	3.08
300.194	3.02
300.564	2.98
300.935	3
301.305	2.96
301.676	3.04
302.046	3.09
302.416	3.15
302.787	3.36
303.157	3.49
303.527	3.38
303.897	3.41
304.267	3.61
304.637	3.69
305.008	3.66
305.378	3.91
305.748	3.98
306.117	3.73
306.487	3.86
306.857	3.96
307.227	3.94
307.597	3.96
307.967	3.97
308.336	4.15
308.706	4.28
309.076	4.38
309.445	4.31
309.815	4.34
310.184	4.24
310.554	4.31
310.923	4.28
311.293	4.3
311.662	4.43
312.031	4.42
312.401	4.39
312.77	4.42
313.139	4.43
313.508	4.48
313.877	4.67
314.246	4.7
314.616	4.85
314.985	4.88
315.353	4.73
315.722	4.81
316.091	4.64
316.46	4.51
316.829	4.68
317.198	4.82
317.567	4.86
317.935	4.98
318.304	5.01
318.672	4.95
319.041	5.21
319.41	5.16
319.778	5.22
320.147	5.31
320.515	5.3
320.883	5.25
321.252	5.27
321.62	5.19
321.988	5.28
322.357	5.17
322.725	5.22
323.093	5.42
323.461	5.39
323.829	5.63
324.197	5.87
324.565	5.94
324.933	5.97
325.301	6.01
325.669	6.04
326.037	6.02
326.405	6.11
326.772	6.06
327.14	6.08
327.508	5.99
327.875	5.87
328.243	5.95
328.61	6.06
328.978	6.17
329.346	6.4
329.713	6.36
330.08	6.48
330.448	6.57
330.815	6.55
331.182	6.72
331.55	6.77
331.917	6.84
332.284	6.81
332.651	6.86
333.018	6.99
333.385	7.15
333.752	7.29
334.119	7.32
334.486	7.27
334.853	7.39
335.22	7.54
335.587	7.68
335.954	7.64
336.32	7.61
336.687	7.65
337.054	7.55
337.42	7.5
337.787	7.57
338.153	7.54
338.52	7.57
338.886	7.38
339.253	7.18
339.619	7.2
339.986	7.21
340.352	7.26
340.718	7.12
341.084	7.09
341.451	7.14
341.817	7.32
342.183	7.48
342.549	7.44
342.915	7.57
343.281	7.57
343.647	7.56
344.013	7.58
344.379	7.59
344.745	7.72
345.11	7.86
345.476	7.83
345.842	7.81
346.208	8.01
346.573	8.2
346.939	8.3
347.304	8.23
347.67	8.19
348.035	8.11
348.401	8.16
348.766	8.09
349.132	7.97
349.497	7.92
349.862	7.93
350.228	8.01
350.593	7.91
350.958	7.87
351.323	7.97
351.688	8.02
352.053	8
352.418	7.94
352.783	7.92
353.148	7.88
353.513	7.99
353.878	7.84
354.243	7.81
354.608	7.85
354.972	7.95
355.337	8.01
355.702	8.17
356.066	8.21
356.431	8.18
356.795	8.29
357.16	8.18
357.524	8.13
357.889	8.05
358.253	8.13
358.618	8.3
358.982	8.24
359.346	8.17
359.71	8.13
360.075	8.12
360.439	8.15
360.803	8.17
361.167	8.13
361.531	8.17
361.895	8.12
362.259	8.12
362.623	8.11
362.987	8.09
363.351	8.05
363.714	8.08
364.078	8.06
364.442	8
364.806	8.02
365.169	7.99
365.533	8.01
365.896	7.94
366.26	7.86
366.623	7.83
366.987	7.84
367.35	7.88
367.714	7.87
368.077	7.82
368.44	7.77
368.803	7.74
369.167	7.66
369.53	7.67
369.893	7.6
370.256	7.55
370.619	7.53
370.982	7.36
371.345	7.25
371.708	7.3
372.071	7.18
372.434	7.06
372.797	7.01
373.159	6.97
373.522	6.94
373.885	6.89
374.247	6.86
374.61	6.78
374.973	6.68
375.335	6.64
375.698	6.59
376.06	6.54
376.423	6.45
376.785	6.43
377.147	6.38
377.51	6.33
377.872	6.29
378.234	6.24
378.596	6.29
378.958	6.25
379.321	6.22
379.683	6.28
380.045	6.29
380.407	6.24
380.769	6.21
381.13	6.15
381.492	6.04
381.854	6.07
382.216	6
382.578	5.97
382.939	5.9
383.301	5.86
383.663	5.82
384.024	5.87
384.386	5.84
384.747	5.8
385.109	5.78
385.47	5.72
385.832	5.71
386.193	5.63
386.554	5.59
386.916	5.49
387.277	5.41
387.638	5.42
387.999	5.37
388.36	5.31
388.721	5.29
389.082	5.28
389.443	5.17
389.804	5.15
390.165	5.1
390.526	5.07
390.887	5.04
391.248	5.05
391.609	4.97
391.969	4.92
392.33	4.86
392.691	4.84
393.051	4.84
393.412	4.8
393.772	4.77
394.133	4.74
394.493	4.72
394.854	4.67
395.214	4.61
395.574	4.6
395.935	4.58
396.295	4.59
396.655	4.55
397.015	4.53
397.376	4.52
397.736	4.49
398.096	4.43
398.456	4.38
398.816	4.33
399.176	4.28
399.535	4.25
399.895	4.2
400.255	4.17
400.615	4.11
400.975	4.09
401.334	4.04
401.694	4.05
402.054	4.04
402.413	4.05
402.773	4
403.132	3.96
403.492	3.89
403.851	3.83
404.211	3.81
404.57	3.77
404.929	3.76
405.288	3.74
405.648	3.75
406.007	3.74
406.366	3.7
406.725	3.73
407.084	3.73
407.443	3.75
407.802	3.72
408.161	3.69
408.52	3.65
408.879	3.64
409.238	3.6
409.596	3.57
409.955	3.53
410.314	3.55
410.673	3.56
411.031	3.58
411.39	3.56
411.748	3.54
412.107	3.54
412.465	3.48
412.824	3.49
413.182	3.46
413.54	3.45
413.899	3.45
414.257	3.41
414.615	3.4
414.974	3.38
415.332	3.35
415.69	3.34
416.048	3.33
416.406	3.33
416.764	3.3
417.122	3.29
417.48	3.27
417.838	3.25
418.195	3.22
418.553	3.2
418.911	3.18
419.269	3.15
419.626	3.15
419.984	3.15
420.342	3.13
420.699	3.12
421.057	3.1
421.414	3.09
421.772	3.06
422.129	3.04
422.486	3.03
422.844	3.03
423.201	3
423.558	2.99
423.915	2.98
424.273	2.98
424.63	2.96
424.987	2.96
425.344	2.95
425.701	2.94
426.058	2.93
426.415	2.92
426.772	2.93
427.128	2.92
427.485	2.91
427.842	2.9
428.199	2.9
428.555	2.92
428.912	2.9
429.269	2.91
429.625	2.9
429.982	2.91
430.338	2.89
430.695	2.93
431.051	2.91
431.407	2.91
431.764	2.9
432.12	2.91
432.476	2.92
432.832	2.9
433.189	2.93
433.545	2.93
433.901	2.93
434.257	2.94
434.613	2.96
434.969	2.98
435.325	2.97
435.681	2.97
436.036	2.97
436.392	2.97
436.748	2.97
437.104	2.99
437.459	2.98
437.815	2.99
438.171	2.97
438.526	2.97
438.882	2.97
439.237	2.99
439.593	3
439.948	2.99
440.304	2.98
440.659	2.97
441.014	2.97
441.369	2.97
441.725	2.95
442.08	2.96
442.435	2.96
442.79	2.95
443.145	2.94
443.5	2.94
443.855	2.94
444.21	2.92
444.565	2.93
444.92	2.94
445.275	2.94
445.629	2.94
445.984	2.95
446.339	2.93
446.693	2.91
447.048	2.9
447.403	2.89
447.757	2.88
448.112	2.87
448.466	2.86
448.82	2.87
449.175	2.88
449.529	2.86
449.883	2.85
450.238	2.84
450.592	2.85
450.946	2.84
451.3	2.84
451.654	2.83
452.008	2.82
452.362	2.8
452.716	2.79
453.07	2.77
453.424	2.75
453.778	2.77
454.132	2.75
454.486	2.74
454.839	2.76
455.193	2.76
455.547	2.75
455.9	2.75
456.254	2.76
456.607	2.74
456.961	2.74
457.314	2.75
457.668	2.76
458.021	2.75
458.375	2.74
458.728	2.75
459.081	2.76
459.434	2.74
459.787	2.75
460.141	2.74
460.494	2.77
460.847	2.79
461.2	2.78
461.553	2.8
461.906	2.81
462.259	2.82
462.611	2.85
462.964	2.87
463.317	2.88
463.67	2.88
464.022	2.89
464.375	2.9
464.728	2.9
465.08	2.91
465.433	2.93
465.785	2.95
466.138	2.96
466.49	2.99
466.843	3.01
467.195	3.01
467.547	3.05
467.899	3.06
468.252	3.06
468.604	3.09
468.956	3.11
469.308	3.11
469.66	3.12
470.012	3.14
470.364	3.16
470.716	3.17
471.068	3.18
471.42	3.2
471.772	3.22
472.123	3.23
472.475	3.24
472.827	3.25
473.178	3.26
473.53	3.27
473.882	3.27
474.233	3.29
474.585	3.3
474.936	3.3
475.288	3.3
475.639	3.31
475.99	3.3
476.342	3.31
476.693	3.33
477.044	3.33
477.395	3.31
477.746	3.3
478.097	3.28
478.448	3.28
478.8	3.28
479.15	3.25
479.501	3.24
479.852	3.22
480.203	3.21
480.554	3.19
480.905	3.19
481.255	3.19
481.606	3.18
481.957	3.18
482.307	3.17
482.658	3.16
483.009	3.15
483.359	3.15
483.709	3.14
484.06	3.13
484.41	3.13
484.761	3.13
485.111	3.12
485.461	3.12
485.811	3.12
486.162	3.11
486.512	3.12
486.862	3.11
487.212	3.11
487.562	3.12
487.912	3.12
488.262	3.12
488.612	3.12
488.961	3.12
489.311	3.13
489.661	3.14
490.011	3.14
490.36	3.15
490.71	3.16
491.06	3.16
491.409	3.19
491.759	3.19
492.108	3.2
492.458	3.22
492.807	3.23
493.157	3.27
493.506	3.29
493.855	3.32
494.204	3.35
494.554	3.39
494.903	3.41
495.252	3.46
495.601	3.49
495.95	3.52
496.299	3.56
496.648	3.6
496.997	3.66
497.346	3.71
497.695	3.75
498.043	3.82
498.392	3.87
498.741	3.92
499.09	3.98
499.438	4.05
499.787	4.11
500.135	4.19
500.484	4.25
500.832	4.33
501.181	4.41
501.529	4.52
501.878	4.59
502.226	4.7
502.574	4.81
502.923	4.94
503.271	5.06
503.619	5.16
503.967	5.28
504.315	5.4
504.663	5.57
505.011	5.76
505.359	5.91
505.707	6.07
506.055	6.23
506.403	6.39
506.751	6.59
507.098	6.8
507.446	7
507.794	7.18
508.141	7.39
508.489	7.61
508.837	7.82
509.184	8.07
509.531	8.3
509.879	8.55
510.226	8.78
510.574	9.02
510.921	9.28
511.268	9.51
511.616	9.77
511.963	10.03
512.31	10.29
512.657	10.58
513.004	10.88
513.351	11.17
513.698	11.51
514.045	11.81
514.392	12.15
514.739	12.48
515.086	12.8
515.432	13.11
515.779	13.41
516.126	13.7
516.473	14
516.819	14.3
517.166	14.56
517.512	14.82
517.859	15.1
518.205	15.37
518.552	15.65
518.898	15.9
519.245	16.13
519.591	16.34
519.937	16.55
520.283	16.82
520.629	17.09
520.976	17.36
521.322	17.64
521.668	17.89
522.014	18.15
522.36	18.47
522.706	18.79
523.052	19.14
523.398	19.46
523.743	19.79
524.089	20.11
524.435	20.41
524.781	20.71
525.126	20.98
525.472	21.2
525.817	21.41
526.163	21.61
526.509	21.81
526.854	21.99
527.199	22.18
527.545	22.33
527.89	22.49
528.235	22.64
528.581	22.8
528.926	22.96
529.271	23.13
529.616	23.26
529.961	23.43
530.306	23.58
530.651	23.74
530.996	23.92
531.341	24.09
531.686	24.27
532.031	24.45
532.376	24.61
532.721	24.81
533.065	25.01
533.41	25.21
533.755	25.4
534.099	25.59
534.444	25.77
534.788	25.98
535.133	26.15
535.477	26.33
535.822	26.52
536.166	26.73
536.51	26.96
536.855	27.19
537.199	27.43
537.543	27.65
537.887	27.87
538.231	28.07
538.576	28.28
538.92	28.5
539.264	28.7
539.608	28.89
539.951	29.08
540.295	29.24
540.639	29.37
540.983	29.53
541.327	29.7
541.671	29.82
542.014	29.95
542.358	30.08
542.701	30.22
543.045	30.36
543.389	30.49
543.732	30.63
544.075	30.75
544.419	30.83
544.762	30.98
545.105	31.14
545.449	31.29
545.792	31.43
546.135	31.58
546.478	31.72
546.821	31.87
547.165	32.01
547.508	32.18
547.851	32.4
548.194	32.58
548.536	32.72
548.879	32.93
549.222	33.11
549.565	33.26
549.908	33.44
550.25	33.61
550.593	33.75
550.936	33.83
551.278	34
551.621	34.17
551.963	34.29
552.306	34.38
552.648	34.49
552.991	34.66
553.333	34.78
553.675	34.93
554.017	35.08
554.36	35.14
554.702	35.22
555.044	35.3
555.386	35.42
555.728	35.52
556.07	35.62
556.412	35.69
556.754	35.8
557.096	35.85
557.438	35.92
557.78	36.05
558.121	36.18
558.463	36.3
558.805	36.39
559.147	36.48
559.488	36.59
559.83	36.67
560.171	36.77
560.513	36.84
560.854	36.92
561.196	36.98
561.537	37.07
561.878	37.17
562.22	37.24
562.561	37.25
562.902	37.34
563.243	37.48
563.584	37.55
563.925	37.63
564.266	37.69
564.607	37.75
564.948	37.8
565.289	37.9
565.63	37.92
565.971	37.98
566.312	38.04
566.653	38.12
566.993	38.19
567.334	38.24
567.675	38.29
568.015	38.32
568.356	38.34
568.696	38.42
569.037	38.47
569.377	38.5
569.718	38.55
570.058	38.58
570.398	38.55
570.739	38.62
571.079	38.67
571.419	38.74
571.759	38.82
572.099	38.88
572.439	38.89
572.779	38.95
573.119	39.03
573.459	39.06
573.799	39.04
574.139	39.08
574.479	39.15
574.819	39.23
575.158	39.35
575.498	39.47
575.838	39.49
576.177	39.55
576.517	39.68
576.856	39.78
577.196	39.91
577.535	39.98
577.875	40.05
578.214	40.12
578.553	40.21
578.893	40.28
579.232	40.34
579.571	40.41
579.91	40.45
580.25	40.5
580.589	40.55
580.928	40.71
581.267	40.77
581.606	40.79
581.945	40.84
582.283	40.83
582.622	40.9
582.961	40.9
583.3	40.91
583.639	40.92
583.977	40.97
584.316	40.92
584.654	40.98
584.993	41.01
585.332	40.99
585.67	41
586.008	40.98
586.347	40.99
586.685	41.08
587.024	41.15
587.362	41.17
587.7	41.24
588.038	41.27
588.376	41.33
588.715	41.34
589.053	41.39
589.391	41.45
589.729	41.5
590.067	41.65
590.404	41.67
590.742	41.76
591.08	41.77
591.418	41.87
591.756	41.88
592.093	41.95
592.431	42.02
592.769	42.07
593.106	42.13
593.444	42.16
593.781	42.14
594.119	42.2
594.456	42.16
594.793	42.16
595.131	42.15
595.468	42.17
595.805	42.17
596.143	42.13
596.48	42.11
596.817	42.08
597.154	42.08
597.491	42.18
597.828	42.15
598.165	42.15
598.502	42.16
598.839	42.27
599.176	42.25
599.512	42.27
599.849	42.38
600.186	42.44
600.523	42.51
600.859	42.57
601.196	42.6
601.532	42.7
601.869	42.76
602.205	42.8
602.542	42.79
602.878	42.86
603.215	42.88
603.551	42.94
603.887	42.98
604.223	42.97
604.56	42.93
604.896	43.03
605.232	43.15
605.568	43.17
605.904	43.18
606.24	43.18
606.576	43.17
606.912	43.13
607.248	43.15
607.583	43.21
607.919	43.3
608.255	43.33
608.591	43.37
608.926	43.38
609.262	43.47
609.597	43.56
609.933	43.58
610.268	43.72
610.604	43.72
610.939	43.74
611.275	43.78
611.61	43.9
611.945	43.79
612.281	43.72
612.616	43.76
612.951	43.74
613.286	43.85
613.621	43.93
613.956	43.9
614.291	43.93
614.626	43.91
614.961	43.87
615.296	43.91
615.631	43.92
615.966	43.98
616.3	44.02
616.635	44.07
616.97	44.16
617.304	44.14
617.639	44.23
617.973	44.3
618.308	44.34
618.642	44.33
618.977	44.41
619.311	44.46
619.646	44.48
619.98	44.56
620.314	44.59
620.648	44.63
620.983	44.79
621.317	44.82
621.651	44.82
621.985	44.83
622.319	44.8
622.653	44.84
622.987	44.88
623.321	44.84
623.655	44.84
623.988	44.85
624.322	44.83
624.656	44.77
624.99	44.8
625.323	44.82
625.657	44.82
625.99	44.86
626.324	44.92
626.657	44.95
626.991	44.94
627.324	44.91
627.658	44.92
627.991	44.96
628.324	44.99
628.657	45
628.991	45.07
629.324	45.2
629.657	45.26
629.99	45.25
630.323	45.26
630.656	45.28
630.989	45.24
631.322	45.21
631.655	45.29
631.987	45.36
632.32	45.44
632.653	45.52
632.986	45.54
633.318	45.52
633.651	45.52
633.984	45.49
634.316	45.52
634.649	45.52
634.981	45.51
635.313	45.45
635.646	45.45
635.978	45.44
636.31	45.31
636.643	45.35
636.975	45.37
637.307	45.4
637.639	45.37
637.971	45.39
638.303	45.47
638.635	45.44
638.967	45.34
639.299	45.31
639.631	45.25
639.963	45.18
640.295	45.17
640.626	45.21
640.958	45.28
641.29	45.37
641.621	45.38
641.953	45.37
642.285	45.38
642.616	45.46
642.948	45.43
643.279	45.47
643.61	45.4
643.942	45.46
644.273	45.49
644.604	45.51
644.936	45.54
645.267	45.63
645.598	45.71
645.929	45.83
646.26	45.85
646.591	45.86
646.922	45.96
647.253	46
647.584	46.04
647.915	46.08
648.245	46.07
648.576	46.07
648.907	46
649.238	46.09
649.568	46.01
649.899	46.06
650.229	46.15
650.56	46.21
650.89	46.31
651.221	46.33
651.551	46.39
651.882	46.39
652.212	46.37
652.542	46.35
652.872	46.43
653.203	46.45
653.533	46.59
653.863	46.6
654.193	46.58
654.523	46.54
654.853	46.49
655.183	46.45
655.513	46.48
655.843	46.59
656.172	46.65
656.502	46.77
656.832	46.8
657.162	46.81
657.491	46.77
657.821	46.66
658.15	46.7
658.48	46.67
658.809	46.7
659.139	46.59
659.468	46.53
659.798	46.42
660.127	46.42
660.456	46.39
660.785	46.42
661.115	46.51
661.444	46.61
661.773	46.65
662.102	46.74
662.431	46.8
662.76	46.81
663.089	46.77
663.418	46.76
663.747	46.67
664.076	46.69
664.404	46.72
664.733	46.82
665.062	46.86
665.39	46.91
665.719	46.93
666.048	47.13
666.376	47.28
666.705	47.23
667.033	47.17
667.362	47.06
