Data from BU26846_Reflection_00014.txt Node
Date: Mon Nov 18 16:33:48 EST 2019
User: vgr7
Spectrometer: USB2G7710
Scans to average: 3
Trigger mode: 4
Integration Time (sec): 2.000000E-2
Electric dark correction enabled: true
Boxcar width: 10
XAxis mode: Wavelengths
Number of Pixels in Spectrum: 2048
>>>>>Begin Spectral Data<<<<<
177.721	61.63
178.105	-88.68
178.488	573.28
178.871	-122.93
179.254	-18.21
179.636	-112.33
180.019	7.13
180.402	160.61
180.785	-64.54
181.168	24.03
181.55	-62.33
181.933	35.39
182.316	45.95
182.698	50.2
183.081	62.12
183.463	23.12
183.846	200.69
184.228	143.41
184.611	185.25
184.993	-12.36
185.376	450.52
185.758	128.17
186.14	43.14
186.522	65.9
186.904	12.09
187.287	21.68
187.669	15.83
188.051	28.85
188.433	1.85
188.815	20.91
189.197	-0.82
189.579	45.13
189.961	198.23
190.342	224.65
190.724	-156.51
191.106	481.68
191.488	284.72
191.869	77.31
192.251	93.25
192.633	70.8
193.014	93.23
193.396	90.31
193.777	51.4
194.159	48.48
194.54	23.49
194.922	13.58
195.303	26.07
195.684	20.85
196.065	45.44
196.447	129.76
196.828	193.02
197.209	228.55
197.59	259.71
197.971	106.04
198.352	88.09
198.733	52.21
199.114	92.49
199.495	63.78
199.876	210.55
200.257	23.99
200.638	-34.19
201.018	-34.64
201.399	-31.35
201.78	-25.38
202.16	-55.2
202.541	-77.8
202.922	-109.98
203.302	-86.5
203.683	-110.26
204.063	-135.46
204.444	-73.07
204.824	-73.55
205.204	-79.17
205.585	-90.4
205.965	-81.52
206.345	-80.66
206.725	-109.91
207.106	-139.93
207.486	-177.17
207.866	-265.6
208.246	-315
208.626	-245.47
209.006	-146.15
209.386	-186.38
209.766	-251.2
210.145	-150.25
210.525	-113.03
210.905	-50.25
211.285	-106.84
211.664	-79.47
212.044	-94.32
212.424	-126.74
212.803	-116.96
213.183	-166.81
213.562	-99.54
213.942	-85.51
214.321	-86.05
214.701	-97.49
215.08	-227.01
215.459	-289.32
215.838	-111.28
216.218	-180.22
216.597	-270.72
216.976	-261.94
217.355	-197.67
217.734	-145.74
218.113	-163.75
218.492	-221.63
218.871	-7737.84
219.25	-257.96
219.629	-632.39
220.008	1189.82
220.387	-5143.24
220.766	-327
221.144	-3768.85
221.523	1342.24
221.902	790.81
222.28	1750.35
222.659	-242.23
223.037	-38.12
223.416	-42.02
223.794	-84.96
224.173	-23.49
224.551	-20.87
224.929	-29.06
225.308	-23.42
225.686	-22.46
226.064	-17.22
226.442	-17.66
226.821	-5.12
227.199	-7.12
227.577	-8.91
227.955	-9.74
228.333	-8.46
228.711	-4.74
229.089	-3.16
229.467	-5.73
229.845	-5.26
230.222	-8.21
230.6	-11.49
230.978	-10.16
231.356	-6.7
231.733	-3.07
232.111	-4.15
232.488	-2.74
232.866	-2.26
233.243	-1.69
233.621	-2.56
233.998	0.67
234.376	1.1
234.753	-1.51
235.13	-2.36
235.508	-2.35
235.885	-1.25
236.262	-2.43
236.639	-2.18
237.016	-1.46
237.393	-0.27
237.77	0.58
238.147	1.7
238.524	2.93
238.901	3.64
239.278	3.67
239.655	3.47
240.032	3.46
240.409	2.91
240.785	3.22
241.162	3.49
241.539	3.63
241.915	3.07
242.292	3.58
242.668	3.82
243.045	3.91
243.421	4.11
243.798	3.82
244.174	4.03
244.551	3.94
244.927	3.84
245.303	3.89
245.679	4.08
246.056	3.92
246.432	3.78
246.808	3.57
247.184	3.25
247.56	3.29
247.936	3.3
248.312	3.49
248.688	3.74
249.064	3.68
249.44	3.84
249.815	3.89
250.191	3.73
250.567	3.83
250.943	3.89
251.318	3.78
251.694	4.19
252.069	4.34
252.445	4.4
252.82	4.24
253.196	4.19
253.571	3.84
253.947	4.08
254.322	4.17
254.697	4.04
255.073	4.2
255.448	3.79
255.823	3.84
256.198	3.92
256.573	3.73
256.948	3.86
257.323	3.73
257.698	3.77
258.073	3.65
258.448	3.57
258.823	3.54
259.198	3.35
259.573	3.34
259.948	3.03
260.322	3.02
260.697	3.16
261.072	3.25
261.446	3.4
261.821	3.19
262.195	3.19
262.57	3.17
262.944	3.08
263.319	3.21
263.693	3.04
264.067	3.02
264.442	3.01
264.816	2.99
265.19	2.89
265.564	2.94
265.938	2.82
266.313	2.76
266.687	2.74
267.061	3.06
267.435	2.85
267.809	3
268.183	2.89
268.556	2.84
268.93	2.71
269.304	2.72
269.678	2.91
270.051	2.97
270.425	3.11
270.799	3.26
271.172	3.2
271.546	3.34
271.919	3.16
272.293	3.1
272.666	3.06
273.04	3.1
273.413	2.93
273.787	3.08
274.16	3.06
274.533	3.07
274.906	2.94
275.279	2.95
275.653	2.93
276.026	3.04
276.399	3.02
276.772	3.29
277.145	3.26
277.518	3.34
277.891	3.17
278.263	2.97
278.636	2.91
279.009	3
279.382	3.05
279.755	3.09
280.127	3.24
280.5	3.18
280.872	3.16
281.245	3.19
281.617	3.32
281.99	3.48
282.362	3.5
282.735	3.52
283.107	3.44
283.479	3.48
283.852	3.46
284.224	3.53
284.596	3.31
284.968	3.24
285.34	3.29
285.713	3.33
286.085	3.35
286.457	3.35
286.829	3.42
287.201	3.45
287.572	3.43
287.944	3.32
288.316	3.4
288.688	3.45
289.06	3.47
289.431	3.41
289.803	3.42
290.175	3.45
290.546	3.55
290.918	3.71
291.289	3.89
291.661	3.91
292.032	3.92
292.403	4.03
292.775	4.14
293.146	4.09
293.517	4.06
293.889	4.26
294.26	4.4
294.631	4.32
295.002	4.27
295.373	4.43
295.744	4.43
296.115	4.39
296.486	4.27
296.857	4.34
297.228	4.47
297.599	4.39
297.97	4.5
298.34	4.5
298.711	4.48
299.082	4.31
299.452	4.37
299.823	4.43
300.194	4.32
300.564	4.37
300.935	4.3
301.305	4.31
301.676	4.26
302.046	4.26
302.416	4.42
302.787	4.43
303.157	4.4
303.527	4.59
303.897	4.71
304.267	5.01
304.637	5.01
305.008	4.86
305.378	4.9
305.748	4.94
306.117	4.8
306.487	4.93
306.857	5.08
307.227	5.1
307.597	5.15
307.967	5.45
308.336	5.45
308.706	5.6
309.076	5.81
309.445	5.82
309.815	5.81
310.184	5.77
310.554	5.99
310.923	6.05
311.293	6.04
311.662	6.05
312.031	6.08
312.401	6.12
312.77	6.36
313.139	6.5
313.508	6.58
313.877	6.8
314.246	6.91
314.616	6.92
314.985	7.06
315.353	7.11
315.722	7.31
316.091	7.27
316.46	7.19
316.829	7.33
317.198	7.48
317.567	7.57
317.935	7.7
318.304	7.6
318.672	7.68
319.041	7.83
319.41	7.82
319.778	7.83
320.147	7.99
320.515	7.99
320.883	8.02
321.252	7.96
321.62	8.03
321.988	8.05
322.357	8.07
322.725	8
323.093	8.11
323.461	8.06
323.829	8.14
324.197	8.21
324.565	8.06
324.933	8.09
325.301	8.23
325.669	8.2
326.037	8.33
326.405	8.36
326.772	8.38
327.14	8.63
327.508	8.58
327.875	8.58
328.243	8.59
328.61	8.66
328.978	8.79
329.346	8.81
329.713	8.75
330.08	8.84
330.448	8.97
330.815	8.87
331.182	8.81
331.55	8.87
331.917	9.08
332.284	9.22
332.651	9.25
333.018	9.35
333.385	9.5
333.752	9.52
334.119	9.59
334.486	9.55
334.853	9.36
335.22	9.45
335.587	9.49
335.954	9.49
336.32	9.47
336.687	9.48
337.054	9.49
337.42	9.54
337.787	9.55
338.153	9.55
338.52	9.72
338.886	9.73
339.253	9.67
339.619	9.67
339.986	9.64
340.352	9.67
340.718	9.6
341.084	9.44
341.451	9.5
341.817	9.54
342.183	9.63
342.549	9.81
342.915	9.87
343.281	9.89
343.647	9.89
344.013	9.9
344.379	9.87
344.745	9.91
345.11	9.87
345.476	9.88
345.842	9.85
346.208	9.83
346.573	9.86
346.939	10.05
347.304	9.99
347.67	10.04
348.035	10.06
348.401	10.03
348.766	10.06
349.132	10.03
349.497	10.01
349.862	10.02
350.228	10.01
350.593	9.9
350.958	9.85
351.323	9.93
351.688	9.96
352.053	9.99
352.418	10.06
352.783	10.15
353.148	10.17
353.513	10.22
353.878	10.25
354.243	10.31
354.608	10.27
354.972	10.34
355.337	10.31
355.702	10.24
356.066	10.3
356.431	10.35
356.795	10.39
357.16	10.33
357.524	10.26
357.889	10.21
358.253	10.24
358.618	10.3
358.982	10.16
359.346	10.13
359.71	10.1
360.075	10.03
360.439	9.95
360.803	9.9
361.167	9.82
361.531	9.71
361.895	9.67
362.259	9.57
362.623	9.56
362.987	9.55
363.351	9.55
363.714	9.52
364.078	9.43
364.442	9.31
364.806	9.28
365.169	9.26
365.533	9.2
365.896	9.17
366.26	9.09
366.623	9.13
366.987	9.09
367.35	9.02
367.714	8.98
368.077	8.9
368.44	8.89
368.803	8.85
369.167	8.81
369.53	8.73
369.893	8.81
370.256	8.68
370.619	8.64
370.982	8.62
371.345	8.47
371.708	8.43
372.071	8.4
372.434	8.34
372.797	8.29
373.159	8.16
373.522	8.1
373.885	8.02
374.247	7.93
374.61	7.83
374.973	7.71
375.335	7.65
375.698	7.62
376.06	7.56
376.423	7.5
376.785	7.46
377.147	7.37
377.51	7.2
377.872	7.21
378.234	7.11
378.596	6.96
378.958	6.92
379.321	6.87
379.683	6.82
380.045	6.79
380.407	6.7
380.769	6.71
381.13	6.65
381.492	6.59
381.854	6.54
382.216	6.52
382.578	6.51
382.939	6.44
383.301	6.36
383.663	6.33
384.024	6.31
384.386	6.27
384.747	6.23
385.109	6.23
385.47	6.15
385.832	6.15
386.193	6.17
386.554	6.15
386.916	6.09
387.277	6.06
387.638	6.02
387.999	5.97
388.36	5.93
388.721	5.91
389.082	5.89
389.443	5.82
389.804	5.75
390.165	5.71
390.526	5.7
390.887	5.71
391.248	5.67
391.609	5.6
391.969	5.55
392.33	5.49
392.691	5.44
393.051	5.4
393.412	5.33
393.772	5.26
394.133	5.19
394.493	5.19
394.854	5.13
395.214	5.1
395.574	5.06
395.935	4.95
396.295	4.91
396.655	4.84
397.015	4.85
397.376	4.83
397.736	4.8
398.096	4.74
398.456	4.7
398.816	4.65
399.176	4.6
399.535	4.57
399.895	4.52
400.255	4.49
400.615	4.44
400.975	4.43
401.334	4.41
401.694	4.4
402.054	4.37
402.413	4.32
402.773	4.27
403.132	4.23
403.492	4.23
403.851	4.21
404.211	4.17
404.57	4.12
404.929	4.11
405.288	4.09
405.648	4.04
406.007	4.01
406.366	3.99
406.725	4.01
407.084	4.01
407.443	4.02
407.802	4.02
408.161	4.03
408.52	3.98
408.879	3.98
409.238	3.96
409.596	3.96
409.955	3.95
410.314	3.95
410.673	3.96
411.031	3.95
411.39	3.93
411.748	3.94
412.107	3.98
412.465	3.96
412.824	3.94
413.182	3.97
413.54	3.97
413.899	3.94
414.257	3.93
414.615	3.89
414.974	3.91
415.332	3.87
415.69	3.84
416.048	3.83
416.406	3.82
416.764	3.82
417.122	3.81
417.48	3.8
417.838	3.79
418.195	3.77
418.553	3.78
418.911	3.76
419.269	3.75
419.626	3.74
419.984	3.72
420.342	3.72
420.699	3.7
421.057	3.68
421.414	3.68
421.772	3.67
422.129	3.66
422.486	3.64
422.844	3.64
423.201	3.64
423.558	3.64
423.915	3.62
424.273	3.6
424.63	3.58
424.987	3.58
425.344	3.57
425.701	3.57
426.058	3.54
426.415	3.54
426.772	3.52
427.128	3.49
427.485	3.48
427.842	3.45
428.199	3.45
428.555	3.45
428.912	3.43
429.269	3.42
429.625	3.41
429.982	3.4
430.338	3.4
430.695	3.39
431.051	3.35
431.407	3.34
431.764	3.35
432.12	3.35
432.476	3.36
432.832	3.34
433.189	3.34
433.545	3.35
433.901	3.36
434.257	3.36
434.613	3.38
434.969	3.4
435.325	3.41
435.681	3.41
436.036	3.4
436.392	3.4
436.748	3.41
437.104	3.41
437.459	3.42
437.815	3.42
438.171	3.42
438.526	3.43
438.882	3.44
439.237	3.46
439.593	3.45
439.948	3.42
440.304	3.42
440.659	3.43
441.014	3.43
441.369	3.41
441.725	3.41
442.08	3.41
442.435	3.39
442.79	3.39
443.145	3.39
443.5	3.38
443.855	3.37
444.21	3.34
444.565	3.35
444.92	3.35
445.275	3.34
445.629	3.33
445.984	3.34
446.339	3.32
446.693	3.31
447.048	3.29
447.403	3.31
447.757	3.3
448.112	3.29
448.466	3.28
448.82	3.28
449.175	3.28
449.529	3.26
449.883	3.25
450.238	3.22
450.592	3.23
450.946	3.21
451.3	3.22
451.654	3.22
452.008	3.2
452.362	3.17
452.716	3.16
453.07	3.16
453.424	3.15
453.778	3.14
454.132	3.14
454.486	3.14
454.839	3.11
455.193	3.1
455.547	3.09
455.9	3.1
456.254	3.1
456.607	3.09
456.961	3.09
457.314	3.1
457.668	3.11
458.021	3.1
458.375	3.11
458.728	3.12
459.081	3.12
459.434	3.12
459.787	3.15
460.141	3.16
460.494	3.15
460.847	3.16
461.2	3.17
461.553	3.17
461.906	3.18
462.259	3.2
462.611	3.22
462.964	3.25
463.317	3.26
463.67	3.27
464.022	3.28
464.375	3.28
464.728	3.31
465.08	3.31
465.433	3.33
465.785	3.34
466.138	3.36
466.49	3.36
466.843	3.37
467.195	3.4
467.547	3.42
467.899	3.43
468.252	3.44
468.604	3.46
468.956	3.45
469.308	3.46
469.66	3.45
470.012	3.48
470.364	3.47
470.716	3.48
471.068	3.49
471.42	3.51
471.772	3.54
472.123	3.54
472.475	3.57
472.827	3.58
473.178	3.6
473.53	3.61
473.882	3.63
474.233	3.64
474.585	3.62
474.936	3.61
475.288	3.62
475.639	3.63
475.99	3.61
476.342	3.64
476.693	3.66
477.044	3.67
477.395	3.65
477.746	3.63
478.097	3.63
478.448	3.61
478.8	3.61
479.15	3.57
479.501	3.56
479.852	3.54
480.203	3.53
480.554	3.52
480.905	3.52
481.255	3.5
481.606	3.5
481.957	3.49
482.307	3.49
482.658	3.48
483.009	3.48
483.359	3.48
483.709	3.47
484.06	3.46
484.41	3.45
484.761	3.46
485.111	3.46
485.461	3.46
485.811	3.45
486.162	3.44
486.512	3.45
486.862	3.45
487.212	3.45
487.562	3.45
487.912	3.45
488.262	3.44
488.612	3.45
488.961	3.45
489.311	3.46
489.661	3.46
490.011	3.46
490.36	3.45
490.71	3.46
491.06	3.46
491.409	3.46
491.759	3.47
492.108	3.48
492.458	3.49
492.807	3.49
493.157	3.5
493.506	3.53
493.855	3.53
494.204	3.55
494.554	3.58
494.903	3.58
495.252	3.6
495.601	3.63
495.95	3.66
496.299	3.67
496.648	3.71
496.997	3.75
497.346	3.78
497.695	3.85
498.043	3.89
498.392	3.92
498.741	3.98
499.09	4.01
499.438	4.06
499.787	4.12
500.135	4.18
500.484	4.23
500.832	4.28
501.181	4.36
501.529	4.43
501.878	4.49
502.226	4.59
502.574	4.68
502.923	4.76
503.271	4.85
503.619	4.98
503.967	5.07
504.315	5.17
504.663	5.27
505.011	5.4
505.359	5.53
505.707	5.68
506.055	5.8
506.403	5.93
506.751	6.07
507.098	6.22
507.446	6.4
507.794	6.55
508.141	6.72
508.489	6.88
508.837	7.04
509.184	7.23
509.531	7.41
509.879	7.62
510.226	7.81
510.574	8
510.921	8.16
511.268	8.36
511.616	8.58
511.963	8.8
512.31	9.01
512.657	9.25
513.004	9.53
513.351	9.81
513.698	10.1
514.045	10.37
514.392	10.67
514.739	10.96
515.086	11.3
515.432	11.62
515.779	11.92
516.126	12.24
516.473	12.55
516.819	12.83
517.166	13.1
517.512	13.37
517.859	13.65
518.205	13.93
518.552	14.21
518.898	14.49
519.245	14.75
519.591	15.03
519.937	15.31
520.283	15.59
520.629	15.89
520.976	16.21
521.322	16.54
521.668	16.87
522.014	17.22
522.36	17.56
522.706	17.92
523.052	18.29
523.398	18.68
523.743	19.11
524.089	19.55
524.435	19.96
524.781	20.36
525.126	20.7
525.472	21.02
525.817	21.33
526.163	21.6
526.509	21.85
526.854	22.09
527.199	22.31
527.545	22.5
527.89	22.69
528.235	22.9
528.581	23.12
528.926	23.34
529.271	23.55
529.616	23.77
529.961	23.97
530.306	24.21
530.651	24.45
530.996	24.66
531.341	24.89
531.686	25.13
532.031	25.37
532.376	25.61
532.721	25.87
533.065	26.12
533.41	26.39
533.755	26.69
534.099	26.99
534.444	27.29
534.788	27.61
535.133	27.88
535.477	28.18
535.822	28.46
536.166	28.75
536.51	29.08
536.855	29.42
537.199	29.8
537.543	30.12
537.887	30.48
538.231	30.84
538.576	31.18
538.92	31.51
539.264	31.83
539.608	32.14
539.951	32.42
540.295	32.64
540.639	32.89
540.983	33.13
541.327	33.33
541.671	33.54
542.014	33.77
542.358	33.99
542.701	34.2
543.045	34.41
543.389	34.62
543.732	34.8
544.075	35.02
544.419	35.21
544.762	35.47
545.105	35.66
545.449	35.88
545.792	36.14
546.135	36.38
546.478	36.63
546.821	36.89
547.165	37.17
547.508	37.5
547.851	37.77
548.194	38.04
548.536	38.3
548.879	38.55
549.222	38.81
549.565	39.13
549.908	39.41
550.25	39.67
550.593	39.89
550.936	40.17
551.278	40.39
551.621	40.65
551.963	40.87
552.306	41.09
552.648	41.34
552.991	41.55
553.333	41.77
553.675	42
554.017	42.2
554.36	42.36
554.702	42.54
555.044	42.77
555.386	42.93
555.728	43.18
556.07	43.39
556.412	43.59
556.754	43.76
557.096	43.9
557.438	44.15
557.78	44.45
558.121	44.63
558.463	44.87
558.805	45.03
559.147	45.19
559.488	45.37
559.83	45.55
560.171	45.72
560.513	45.83
560.854	45.88
561.196	46.07
561.537	46.29
561.878	46.43
562.22	46.59
562.561	46.73
562.902	46.82
563.243	46.94
563.584	47.05
563.925	47.08
564.266	47.22
564.607	47.37
564.948	47.49
565.289	47.61
565.63	47.71
565.971	47.83
566.312	47.99
566.653	48.1
566.993	48.16
567.334	48.28
567.675	48.38
568.015	48.59
568.356	48.67
568.696	48.73
569.037	48.88
569.377	48.94
569.718	49.09
570.058	49.24
570.398	49.32
570.739	49.44
571.079	49.57
571.419	49.72
571.759	49.76
572.099	49.87
572.439	49.94
572.779	50.04
573.119	50.15
573.459	50.23
573.799	50.32
574.139	50.42
574.479	50.47
574.819	50.57
575.158	50.62
575.498	50.72
575.838	50.84
576.177	50.86
576.517	50.97
576.856	51.05
577.196	51.18
577.535	51.3
577.875	51.36
578.214	51.49
578.553	51.53
578.893	51.63
579.232	51.66
579.571	51.83
579.91	51.82
580.25	51.89
580.589	51.98
580.928	52.07
581.267	52.24
581.606	52.33
581.945	52.49
582.283	52.64
582.622	52.72
582.961	52.86
583.3	52.97
583.639	53.1
583.977	53.15
584.316	53.21
584.654	53.33
584.993	53.4
585.332	53.55
585.67	53.67
586.008	53.75
586.347	53.8
586.685	53.88
587.024	54.03
587.362	54.08
587.7	54.2
588.038	54.31
588.376	54.31
588.715	54.37
589.053	54.44
589.391	54.52
589.729	54.53
590.067	54.55
590.404	54.65
590.742	54.69
591.08	54.77
591.418	54.81
591.756	54.9
592.093	55.01
592.431	55.02
592.769	55.09
593.106	55.16
593.444	55.25
593.781	55.31
594.119	55.41
594.456	55.54
594.793	55.55
595.131	55.56
595.468	55.64
595.805	55.75
596.143	55.79
596.48	55.84
596.817	55.91
597.154	55.95
597.491	55.96
597.828	55.89
598.165	55.97
598.502	56.06
598.839	56.03
599.176	56.05
599.512	56.18
599.849	56.25
600.186	56.33
600.523	56.38
600.859	56.38
601.196	56.4
601.532	56.43
601.869	56.45
602.205	56.56
602.542	56.55
602.878	56.55
603.215	56.55
603.551	56.55
603.887	56.59
604.223	56.6
604.56	56.61
604.896	56.71
605.232	56.65
605.568	56.65
605.904	56.72
606.24	56.81
606.576	56.81
606.912	56.88
607.248	56.85
607.583	56.9
607.919	56.93
608.255	56.99
608.591	57.01
608.926	57.06
609.262	57.06
609.597	57.16
609.933	57.18
610.268	57.25
610.604	57.29
610.939	57.23
611.275	57.24
611.61	57.31
611.945	57.38
612.281	57.54
612.616	57.53
612.951	57.51
613.286	57.5
613.621	57.53
613.956	57.49
614.291	57.58
614.626	57.63
614.961	57.59
615.296	57.54
615.631	57.6
615.966	57.62
616.3	57.62
616.635	57.64
616.97	57.66
617.304	57.66
617.639	57.7
617.973	57.87
618.308	57.95
618.642	58.02
618.977	58.04
619.311	58
619.646	58.1
619.98	58.2
620.314	58.25
620.648	58.28
620.983	58.27
621.317	58.24
621.651	58.3
621.985	58.42
622.319	58.51
622.653	58.54
622.987	58.54
623.321	58.59
623.655	58.58
623.988	58.66
624.322	58.76
624.656	58.71
624.99	58.68
625.323	58.66
625.657	58.63
625.99	58.67
626.324	58.73
626.657	58.8
626.991	58.8
627.324	58.76
627.658	58.81
627.991	58.86
628.324	58.94
628.657	58.9
628.991	58.86
629.324	58.91
629.657	58.91
629.99	58.91
630.323	58.93
630.656	59
630.989	58.89
631.322	58.88
631.655	58.99
631.987	59.04
632.32	59.1
632.653	59.2
632.986	59.23
633.318	59.15
633.651	59.03
633.984	59.03
634.316	59.04
634.649	59.04
634.981	59.1
635.313	59.11
635.646	59.14
635.978	59.24
636.31	59.23
636.643	59.17
636.975	59.3
637.307	59.31
637.639	59.29
637.971	59.41
638.303	59.49
638.635	59.4
638.967	59.46
639.299	59.47
639.631	59.41
639.963	59.39
640.295	59.45
640.626	59.55
640.958	59.58
641.29	59.65
641.621	59.71
641.953	59.66
642.285	59.74
642.616	59.78
642.948	59.73
643.279	59.8
643.61	59.86
643.942	59.87
644.273	59.94
644.604	60
644.936	60.06
645.267	60
645.598	60.09
645.929	60.16
646.26	60.14
646.591	60.17
646.922	60.1
647.253	60.19
647.584	60.21
647.915	60.2
648.245	60.22
648.576	60.17
648.907	60.11
649.238	60.17
649.568	60.17
649.899	60.26
650.229	60.21
650.56	60.17
650.89	60.17
651.221	60.15
651.551	60.09
651.882	60.06
652.212	60.09
652.542	60.25
652.872	60.09
653.203	60.15
653.533	60.15
653.863	60.29
654.193	60.25
654.523	60.19
654.853	60.19
655.183	60.23
655.513	60.33
655.843	60.35
656.172	60.44
656.502	60.4
656.832	60.39
657.162	60.43
657.491	60.46
657.821	60.48
658.15	60.49
658.48	60.49
658.809	60.47
659.139	60.47
659.468	60.43
659.798	60.43
660.127	60.46
660.456	60.49
660.785	60.56
661.115	60.44
661.444	60.51
661.773	60.59
662.102	60.68
662.431	60.61
662.76	60.56
663.089	60.37
663.418	60.39
663.747	60.44
664.076	60.43
664.404	60.41
664.733	60.43
665.062	60.47
665.39	60.52
