Data from BU26942_Reflection_00004.txt Node
Date: Mon Nov 18 16:50:33 EST 2019
User: vgr7
Spectrometer: USB2G7710
Scans to average: 3
Trigger mode: 4
Integration Time (sec): 2.000000E-2
Electric dark correction enabled: true
Boxcar width: 10
XAxis mode: Wavelengths
Number of Pixels in Spectrum: 2048
>>>>>Begin Spectral Data<<<<<
177.721	24.4
178.105	38.99
178.488	-402.37
178.871	-350.7
179.254	431.36
179.636	-1476.92
180.019	-604.23
180.402	95.65
180.785	-119.63
181.168	-179.7
181.55	-109.85
181.933	131.46
182.316	383.08
182.698	280.93
183.081	266.04
183.463	-207.69
183.846	-32.34
184.228	-29.6
184.611	-254.72
184.993	-491.72
185.376	193.36
185.758	106.36
186.14	125.85
186.522	-69900
186.904	-338.5
187.287	-147.1
187.669	491.06
188.051	301.73
188.433	408.09
188.815	1391.93
189.197	322.62
189.579	151.66
189.961	120.13
190.342	139.79
190.724	159.46
191.106	149.44
191.488	260.18
191.869	114.59
192.251	98.67
192.633	52.99
193.014	-0.18
193.396	39.83
193.777	54.09
194.159	-6.55
194.54	2.94
194.922	-4.44
195.303	-10.21
195.684	-6.48
196.065	16.44
196.447	20.39
196.828	23.66
197.209	47.27
197.59	59.62
197.971	-7.75
198.352	42.73
198.733	9.62
199.114	33.3
199.495	37.88
199.876	28.73
200.257	38.31
200.638	63.36
201.018	66.9
201.399	36.85
201.78	40.93
202.16	63.11
202.541	63.04
202.922	85.98
203.302	39.78
203.683	-2.21
204.063	-73.97
204.444	-172.8
204.824	-139.61
205.204	-109.29
205.585	-119.69
205.965	-118.87
206.345	-130.41
206.725	-300
207.106	-151.88
207.486	-271.4
207.866	-187.95
208.246	-181.27
208.626	-199.1
209.006	-146.06
209.386	-122.02
209.766	-163.49
210.145	-199.31
210.525	-196.7
210.905	-206.11
211.285	-135.18
211.664	-101.03
212.044	-57.62
212.424	-17.05
212.803	-5.65
213.183	-4.83
213.562	-4.13
213.942	-9.35
214.321	3.84
214.701	0.3
215.08	2.3
215.459	3.72
215.838	4.45
216.218	-1.36
216.597	-7.14
216.976	-4.24
217.355	15.72
217.734	27.89
218.113	26.63
218.492	20.48
218.871	25.81
219.25	14.44
219.629	2.83
220.008	-5.94
220.387	-14.3
220.766	-14.64
221.144	-20.96
221.523	-43.84
221.902	-49.56
222.28	-71.07
222.659	-40.68
223.037	-41.44
223.416	-38.27
223.794	-42.41
224.173	-26.06
224.551	-9.13
224.929	-12.35
225.308	-20.17
225.686	-16.14
226.064	-11.51
226.442	-7.8
226.821	-4.64
227.199	-0.77
227.577	1.21
227.955	4.53
228.333	2.7
228.711	1.61
229.089	3.93
229.467	3.72
229.845	3.08
230.222	1.65
230.6	-0.61
230.978	-0.53
231.356	0.91
231.733	3.42
232.111	3.75
232.488	3.14
232.866	2.99
233.243	5.11
233.621	4.45
233.998	4.25
234.376	3.03
234.753	1.44
235.13	3.88
235.508	4.03
235.885	2.72
236.262	2.42
236.639	1.94
237.016	2.54
237.393	4.09
237.77	4.69
238.147	5.13
238.524	4.29
238.901	4.57
239.278	4.73
239.655	5.01
240.032	4.62
240.409	4.17
240.785	4.17
241.162	3.91
241.539	4.73
241.915	5.03
242.292	4.98
242.668	5.58
243.045	5.08
243.421	5.16
243.798	5.14
244.174	5.38
244.551	5.4
244.927	5.13
245.303	5.33
245.679	5.51
246.056	5.61
246.432	5.54
246.808	5.66
247.184	5.55
247.56	5.34
247.936	5.21
248.312	4.93
248.688	5.08
249.064	4.98
249.44	4.78
249.815	4.63
250.191	4.78
250.567	4.8
250.943	4.76
251.318	4.83
251.694	4.95
252.069	4.89
252.445	5.02
252.82	5.2
253.196	5.03
253.571	4.78
253.947	4.71
254.322	5.07
254.697	4.93
255.073	5
255.448	4.83
255.823	4.71
256.198	5.12
256.573	5.17
256.948	5.32
257.323	5.47
257.698	5.46
258.073	5.33
258.448	5.24
258.823	5.08
259.198	4.82
259.573	4.67
259.948	4.67
260.322	4.72
260.697	4.44
261.072	4.36
261.446	4.34
261.821	4.37
262.195	4.45
262.57	4.41
262.944	4.22
263.319	4.39
263.693	4.52
264.067	4.49
264.442	4.36
264.816	4.38
265.19	4.03
265.564	4.02
265.938	3.96
266.313	3.94
266.687	4.05
267.061	4.21
267.435	4.28
267.809	4.33
268.183	4.25
268.556	4.49
268.93	4.4
269.304	4.5
269.678	4.45
270.051	4.34
270.425	4.35
270.799	4.63
271.172	4.61
271.546	4.49
271.919	4.44
272.293	4.51
272.666	4.47
273.04	4.62
273.413	4.59
273.787	4.73
274.16	4.71
274.533	4.79
274.906	4.63
275.279	4.64
275.653	4.64
276.026	4.77
276.399	4.66
276.772	4.79
277.145	4.65
277.518	4.67
277.891	4.65
278.263	4.72
278.636	4.5
279.009	4.38
279.382	4.59
279.755	4.59
280.127	4.76
280.5	4.74
280.872	4.88
281.245	4.93
281.617	5
281.99	5.08
282.362	5.03
282.735	5.01
283.107	4.98
283.479	4.9
283.852	4.79
284.224	4.92
284.596	4.91
284.968	5.07
285.34	5.14
285.713	5.25
286.085	5.2
286.457	5.35
286.829	5.45
287.201	5.53
287.572	5.46
287.944	5.27
288.316	5.25
288.688	5.2
289.06	5.13
289.431	4.97
289.803	5.02
290.175	5.04
290.546	5.31
290.918	5.31
291.289	5.46
291.661	5.37
292.032	5.38
292.403	5.4
292.775	5.41
293.146	5.37
293.517	5.34
293.889	5.48
294.26	5.48
294.631	5.45
295.002	5.23
295.373	5.28
295.744	5.31
296.115	5.31
296.486	5.19
296.857	5.24
297.228	5.28
297.599	5.21
297.97	5.09
298.34	5.02
298.711	5.1
299.082	5.03
299.452	5.15
299.823	5.27
300.194	5.19
300.564	5.09
300.935	5.09
301.305	4.98
301.676	4.79
302.046	4.79
302.416	4.89
302.787	5
303.157	4.99
303.527	5.07
303.897	5.07
304.267	5.2
304.637	5.33
305.008	5.37
305.378	5.43
305.748	5.7
306.117	5.61
306.487	5.7
306.857	5.76
307.227	5.66
307.597	5.41
307.967	5.36
308.336	5.38
308.706	5.4
309.076	5.44
309.445	5.48
309.815	5.45
310.184	5.22
310.554	5.27
310.923	5.3
311.293	5.28
311.662	5.23
312.031	5.16
312.401	5.04
312.77	5.03
313.139	4.88
313.508	4.8
313.877	4.86
314.246	4.82
314.616	4.76
314.985	4.77
315.353	4.92
315.722	5.12
316.091	5.16
316.46	5.04
316.829	5.18
317.198	5.26
317.567	5.23
317.935	5.32
318.304	5.3
318.672	5.21
319.041	5.33
319.41	5.38
319.778	5.37
320.147	5.36
320.515	5.47
320.883	5.47
321.252	5.46
321.62	5.3
321.988	5.21
322.357	5.12
322.725	5.12
323.093	5.15
323.461	5.05
323.829	4.93
324.197	5.01
324.565	4.94
324.933	4.86
325.301	4.84
325.669	4.97
326.037	4.83
326.405	4.86
326.772	4.8
327.14	4.92
327.508	4.92
327.875	4.88
328.243	4.83
328.61	4.86
328.978	4.82
329.346	4.94
329.713	4.84
330.08	4.95
330.448	4.96
330.815	4.72
331.182	4.71
331.55	4.92
331.917	4.88
332.284	4.91
332.651	4.88
333.018	4.8
333.385	4.81
333.752	4.98
334.119	5.02
334.486	5.01
334.853	4.94
335.22	4.91
335.587	4.99
335.954	4.91
336.32	4.83
336.687	4.89
337.054	4.9
337.42	5.03
337.787	5
338.153	5.05
338.52	5.24
338.886	5.23
339.253	5.04
339.619	5.09
339.986	5.04
340.352	5.09
340.718	5.26
341.084	5.23
341.451	5.27
341.817	5.25
342.183	5.27
342.549	5.2
342.915	5.28
343.281	5.21
343.647	5.29
344.013	5.48
344.379	5.32
344.745	5.41
345.11	5.4
345.476	5.4
345.842	5.42
346.208	5.35
346.573	5.31
346.939	5.43
347.304	5.46
347.67	5.39
348.035	5.41
348.401	5.37
348.766	5.29
349.132	5.2
349.497	5.18
349.862	5.24
350.228	5.35
350.593	5.3
350.958	5.32
351.323	5.26
351.688	5.27
352.053	5.44
352.418	5.36
352.783	5.33
353.148	5.27
353.513	5.29
353.878	5.36
354.243	5.48
354.608	5.48
354.972	5.41
355.337	5.54
355.702	5.53
356.066	5.56
356.431	5.58
356.795	5.56
357.16	5.49
357.524	5.4
357.889	5.31
358.253	5.39
358.618	5.41
358.982	5.45
359.346	5.3
359.71	5.24
360.075	5.26
360.439	5.3
360.803	5.31
361.167	5.26
361.531	5.18
361.895	5.14
362.259	5.11
362.623	5.15
362.987	5.13
363.351	5.11
363.714	5.15
364.078	5.11
364.442	5.11
364.806	5.17
365.169	5.13
365.533	5.18
365.896	5.13
366.26	5.08
366.623	5.02
366.987	5.13
367.35	5.19
367.714	5.18
368.077	5.16
368.44	5.18
368.803	5.22
369.167	5.24
369.53	5.19
369.893	5.22
370.256	5.2
370.619	5.18
370.982	5.21
371.345	5.18
371.708	5.29
372.071	5.25
372.434	5.27
372.797	5.25
373.159	5.16
373.522	5.18
373.885	5.24
374.247	5.28
374.61	5.33
374.973	5.25
375.335	5.32
375.698	5.31
376.06	5.28
376.423	5.27
376.785	5.32
377.147	5.41
377.51	5.39
377.872	5.45
378.234	5.45
378.596	5.4
378.958	5.36
379.321	5.34
379.683	5.38
380.045	5.39
380.407	5.42
380.769	5.48
381.13	5.48
381.492	5.49
381.854	5.46
382.216	5.41
382.578	5.44
382.939	5.35
383.301	5.38
383.663	5.4
384.024	5.4
384.386	5.4
384.747	5.38
385.109	5.39
385.47	5.31
385.832	5.32
386.193	5.35
386.554	5.4
386.916	5.4
387.277	5.39
387.638	5.39
387.999	5.4
388.36	5.41
388.721	5.42
389.082	5.39
389.443	5.41
389.804	5.4
390.165	5.37
390.526	5.39
390.887	5.38
391.248	5.4
391.609	5.39
391.969	5.38
392.33	5.39
392.691	5.4
393.051	5.42
393.412	5.41
393.772	5.39
394.133	5.37
394.493	5.37
394.854	5.38
395.214	5.37
395.574	5.38
395.935	5.39
396.295	5.37
396.655	5.38
397.015	5.4
397.376	5.4
397.736	5.43
398.096	5.42
398.456	5.41
398.816	5.4
399.176	5.39
399.535	5.4
399.895	5.38
400.255	5.34
400.615	5.34
400.975	5.32
401.334	5.31
401.694	5.33
402.054	5.28
402.413	5.31
402.773	5.3
403.132	5.29
403.492	5.3
403.851	5.32
404.211	5.27
404.57	5.23
404.929	5.26
405.288	5.26
405.648	5.27
406.007	5.28
406.366	5.26
406.725	5.26
407.084	5.24
407.443	5.24
407.802	5.31
408.161	5.32
408.52	5.35
408.879	5.38
409.238	5.34
409.596	5.34
409.955	5.31
410.314	5.3
410.673	5.3
411.031	5.26
411.39	5.24
411.748	5.27
412.107	5.26
412.465	5.22
412.824	5.21
413.182	5.21
413.54	5.2
413.899	5.2
414.257	5.21
414.615	5.21
414.974	5.19
415.332	5.15
415.69	5.13
416.048	5.15
416.406	5.16
416.764	5.19
417.122	5.19
417.48	5.21
417.838	5.23
418.195	5.24
418.553	5.23
418.911	5.23
419.269	5.25
419.626	5.27
419.984	5.27
420.342	5.26
420.699	5.25
421.057	5.26
421.414	5.27
421.772	5.28
422.129	5.29
422.486	5.3
422.844	5.3
423.201	5.31
423.558	5.29
423.915	5.27
424.273	5.28
424.63	5.29
424.987	5.28
425.344	5.28
425.701	5.28
426.058	5.29
426.415	5.29
426.772	5.28
427.128	5.3
427.485	5.3
427.842	5.31
428.199	5.34
428.555	5.34
428.912	5.34
429.269	5.35
429.625	5.34
429.982	5.32
430.338	5.3
430.695	5.31
431.051	5.3
431.407	5.3
431.764	5.3
432.12	5.32
432.476	5.31
432.832	5.3
433.189	5.29
433.545	5.27
433.901	5.27
434.257	5.27
434.613	5.26
434.969	5.27
435.325	5.27
435.681	5.25
436.036	5.25
436.392	5.26
436.748	5.25
437.104	5.24
437.459	5.25
437.815	5.26
438.171	5.25
438.526	5.26
438.882	5.27
439.237	5.28
439.593	5.27
439.948	5.28
440.304	5.28
440.659	5.28
441.014	5.29
441.369	5.29
441.725	5.28
442.08	5.28
442.435	5.29
442.79	5.29
443.145	5.3
443.5	5.3
443.855	5.29
444.21	5.29
444.565	5.31
444.92	5.32
445.275	5.32
445.629	5.31
445.984	5.31
446.339	5.31
446.693	5.29
447.048	5.29
447.403	5.28
447.757	5.28
448.112	5.28
448.466	5.29
448.82	5.29
449.175	5.31
449.529	5.29
449.883	5.28
450.238	5.25
450.592	5.25
450.946	5.22
451.3	5.23
451.654	5.22
452.008	5.21
452.362	5.21
452.716	5.21
453.07	5.2
453.424	5.19
453.778	5.19
454.132	5.19
454.486	5.16
454.839	5.16
455.193	5.16
455.547	5.15
455.9	5.15
456.254	5.15
456.607	5.16
456.961	5.19
457.314	5.18
457.668	5.2
458.021	5.19
458.375	5.21
458.728	5.21
459.081	5.2
459.434	5.19
459.787	5.18
460.141	5.18
460.494	5.18
460.847	5.2
461.2	5.19
461.553	5.19
461.906	5.2
462.259	5.21
462.611	5.2
462.964	5.22
463.317	5.24
463.67	5.23
464.022	5.22
464.375	5.2
464.728	5.2
465.08	5.18
465.433	5.19
465.785	5.2
466.138	5.2
466.49	5.19
466.843	5.21
467.195	5.24
467.547	5.25
467.899	5.28
468.252	5.28
468.604	5.3
468.956	5.3
469.308	5.31
469.66	5.32
470.012	5.35
470.364	5.36
470.716	5.37
471.068	5.38
471.42	5.41
471.772	5.41
472.123	5.43
472.475	5.49
472.827	5.49
473.178	5.5
473.53	5.49
473.882	5.5
474.233	5.51
474.585	5.47
474.936	5.45
475.288	5.44
475.639	5.44
475.99	5.44
476.342	5.44
476.693	5.46
477.044	5.45
477.395	5.44
477.746	5.43
478.097	5.42
478.448	5.42
478.8	5.39
479.15	5.4
479.501	5.41
479.852	5.4
480.203	5.4
480.554	5.4
480.905	5.42
481.255	5.42
481.606	5.43
481.957	5.46
482.307	5.46
482.658	5.47
483.009	5.48
483.359	5.46
483.709	5.46
484.06	5.45
484.41	5.45
484.761	5.44
485.111	5.44
485.461	5.44
485.811	5.44
486.162	5.44
486.512	5.45
486.862	5.44
487.212	5.44
487.562	5.44
487.912	5.44
488.262	5.43
488.612	5.44
488.961	5.43
489.311	5.42
489.661	5.42
490.011	5.41
490.36	5.4
490.71	5.42
491.06	5.42
491.409	5.43
491.759	5.43
492.108	5.44
492.458	5.44
492.807	5.44
493.157	5.44
493.506	5.45
493.855	5.45
494.204	5.44
494.554	5.46
494.903	5.46
495.252	5.47
495.601	5.48
495.95	5.49
496.299	5.48
496.648	5.5
496.997	5.52
497.346	5.54
497.695	5.57
498.043	5.56
498.392	5.57
498.741	5.55
499.09	5.56
499.438	5.56
499.787	5.58
500.135	5.61
500.484	5.64
500.832	5.66
501.181	5.66
501.529	5.67
501.878	5.69
502.226	5.67
502.574	5.68
502.923	5.69
503.271	5.68
503.619	5.72
503.967	5.71
504.315	5.71
504.663	5.72
505.011	5.7
505.359	5.73
505.707	5.75
506.055	5.76
506.403	5.79
506.751	5.82
507.098	5.81
507.446	5.82
507.794	5.81
508.141	5.81
508.489	5.81
508.837	5.84
509.184	5.85
509.531	5.89
509.879	5.9
510.226	5.92
510.574	5.92
510.921	5.92
511.268	5.94
511.616	5.96
511.963	5.97
512.31	5.99
512.657	5.99
513.004	6.01
513.351	6.03
513.698	6.03
514.045	6.05
514.392	6.07
514.739	6.05
515.086	6.05
515.432	6.06
515.779	6.07
516.126	6.07
516.473	6.09
516.819	6.09
517.166	6.08
517.512	6.06
517.859	6.08
518.205	6.09
518.552	6.11
518.898	6.1
519.245	6.13
519.591	6.15
519.937	6.13
520.283	6.14
520.629	6.14
520.976	6.16
521.322	6.14
521.668	6.16
522.014	6.18
522.36	6.18
522.706	6.19
523.052	6.21
523.398	6.22
523.743	6.21
524.089	6.2
524.435	6.21
524.781	6.23
525.126	6.22
525.472	6.22
525.817	6.22
526.163	6.23
526.509	6.21
526.854	6.21
527.199	6.22
527.545	6.22
527.89	6.22
528.235	6.22
528.581	6.21
528.926	6.21
529.271	6.2
529.616	6.21
529.961	6.21
530.306	6.22
530.651	6.22
530.996	6.24
531.341	6.23
531.686	6.22
532.031	6.22
532.376	6.24
532.721	6.24
533.065	6.23
533.41	6.23
533.755	6.25
534.099	6.24
534.444	6.26
534.788	6.26
535.133	6.26
535.477	6.28
535.822	6.29
536.166	6.28
536.51	6.29
536.855	6.31
537.199	6.31
537.543	6.3
537.887	6.29
538.231	6.28
538.576	6.31
538.92	6.33
539.264	6.33
539.608	6.32
539.951	6.35
540.295	6.35
540.639	6.37
540.983	6.37
541.327	6.36
541.671	6.34
542.014	6.35
542.358	6.36
542.701	6.34
543.045	6.35
543.389	6.37
543.732	6.38
544.075	6.38
544.419	6.38
544.762	6.37
545.105	6.37
545.449	6.39
545.792	6.38
546.135	6.39
546.478	6.39
546.821	6.39
547.165	6.38
547.508	6.4
547.851	6.38
548.194	6.37
548.536	6.39
548.879	6.4
549.222	6.4
549.565	6.41
549.908	6.42
550.25	6.42
550.593	6.42
550.936	6.39
551.278	6.37
551.621	6.38
551.963	6.43
552.306	6.43
552.648	6.43
552.991	6.45
553.333	6.43
553.675	6.42
554.017	6.44
554.36	6.41
554.702	6.42
555.044	6.43
555.386	6.44
555.728	6.45
556.07	6.48
556.412	6.5
556.754	6.5
557.096	6.5
557.438	6.49
557.78	6.51
558.121	6.54
558.463	6.55
558.805	6.54
559.147	6.53
559.488	6.54
559.83	6.55
560.171	6.54
560.513	6.59
560.854	6.61
561.196	6.59
561.537	6.59
561.878	6.55
562.22	6.55
562.561	6.53
562.902	6.53
563.243	6.52
563.584	6.52
563.925	6.51
564.266	6.49
564.607	6.53
564.948	6.52
565.289	6.55
565.63	6.59
565.971	6.59
566.312	6.58
566.653	6.59
566.993	6.56
567.334	6.55
567.675	6.57
568.015	6.55
568.356	6.56
568.696	6.61
569.037	6.64
569.377	6.61
569.718	6.6
570.058	6.6
570.398	6.6
570.739	6.6
571.079	6.61
571.419	6.64
571.759	6.61
572.099	6.65
572.439	6.65
572.779	6.61
573.119	6.64
573.459	6.66
573.799	6.66
574.139	6.67
574.479	6.71
574.819	6.68
575.158	6.69
575.498	6.68
575.838	6.68
576.177	6.66
576.517	6.69
576.856	6.75
577.196	6.74
577.535	6.71
577.875	6.7
578.214	6.68
578.553	6.68
578.893	6.7
579.232	6.65
579.571	6.62
579.91	6.67
580.25	6.66
580.589	6.66
580.928	6.65
581.267	6.65
581.606	6.62
581.945	6.59
582.283	6.58
582.622	6.56
582.961	6.58
583.3	6.6
583.639	6.59
583.977	6.52
584.316	6.52
584.654	6.55
584.993	6.59
585.332	6.59
585.67	6.59
586.008	6.56
586.347	6.56
586.685	6.57
587.024	6.55
587.362	6.54
587.7	6.57
588.038	6.57
588.376	6.61
588.715	6.65
589.053	6.63
589.391	6.66
589.729	6.7
590.067	6.66
590.404	6.69
590.742	6.72
591.08	6.74
591.418	6.75
591.756	6.77
592.093	6.74
592.431	6.79
592.769	6.84
593.106	6.85
593.444	6.87
593.781	6.85
594.119	6.87
594.456	6.84
594.793	6.8
595.131	6.8
595.468	6.8
595.805	6.78
596.143	6.8
596.48	6.78
596.817	6.75
597.154	6.78
597.491	6.74
597.828	6.74
598.165	6.76
598.502	6.73
598.839	6.75
599.176	6.76
599.512	6.75
599.849	6.75
600.186	6.77
600.523	6.77
600.859	6.8
601.196	6.81
601.532	6.84
601.869	6.84
602.205	6.87
602.542	6.9
602.878	6.91
603.215	6.91
603.551	6.91
603.887	6.96
604.223	6.91
604.56	6.98
604.896	6.99
605.232	7.01
605.568	7.05
605.904	7.02
606.24	7.02
606.576	7.01
606.912	7.03
607.248	7.02
607.583	7.05
607.919	7.04
608.255	7.04
608.591	7.06
608.926	7.09
609.262	7.1
609.597	7.1
609.933	7.11
610.268	7.15
610.604	7.16
610.939	7.16
611.275	7.22
611.61	7.16
611.945	7.17
612.281	7.18
612.616	7.15
612.951	7.22
613.286	7.23
613.621	7.19
613.956	7.14
614.291	7.18
614.626	7.14
614.961	7.13
615.296	7.13
615.631	7.12
615.966	7.05
616.3	7.02
616.635	6.99
616.97	7
617.304	6.98
617.639	7.01
617.973	6.98
618.308	6.94
618.642	6.99
618.977	6.98
619.311	6.96
619.646	7
619.98	6.96
620.314	6.97
620.648	7.03
620.983	7.08
621.317	7.08
621.651	7.11
621.985	7.13
622.319	7.15
622.653	7.14
622.987	7.23
623.321	7.26
623.655	7.25
623.988	7.26
624.322	7.25
624.656	7.29
624.99	7.33
625.323	7.38
625.657	7.36
625.99	7.32
626.324	7.31
626.657	7.31
626.991	7.32
627.324	7.29
627.658	7.27
627.991	7.25
628.324	7.22
628.657	7.24
628.991	7.24
629.324	7.21
629.657	7.2
629.99	7.17
630.323	7.19
630.656	7.21
630.989	7.21
631.322	7.24
631.655	7.22
631.987	7.22
632.32	7.24
632.653	7.17
632.986	7.17
633.318	7.16
633.651	7.2
633.984	7.16
634.316	7.19
634.649	7.19
634.981	7.19
635.313	7.24
635.646	7.23
635.978	7.18
636.31	7.19
636.643	7.19
636.975	7.2
637.307	7.12
637.639	7.17
637.971	7.14
638.303	7.13
638.635	7.11
638.967	7.08
639.299	7.02
639.631	7.1
639.963	7.14
640.295	7.15
640.626	7.09
640.958	7.13
641.29	7.18
641.621	7.22
641.953	7.2
642.285	7.22
642.616	7.25
642.948	7.28
643.279	7.31
643.61	7.36
643.942	7.34
644.273	7.3
644.604	7.32
644.936	7.35
645.267	7.36
645.598	7.33
645.929	7.33
646.26	7.34
646.591	7.27
646.922	7.23
647.253	7.21
647.584	7.13
647.915	7.09
648.245	7.04
648.576	7.06
648.907	7.15
649.238	7.13
649.568	7.12
649.899	7.15
650.229	7.13
650.56	7.12
650.89	7.16
651.221	7.3
651.551	7.21
651.882	7.23
652.212	7.21
652.542	7.26
652.872	7.31
653.203	7.3
653.533	7.37
653.863	7.39
654.193	7.45
654.523	7.58
654.853	7.63
655.183	7.6
655.513	7.56
655.843	7.54
656.172	7.55
656.502	7.54
656.832	7.48
657.162	7.54
657.491	7.55
657.821	7.5
658.15	7.48
658.48	7.51
658.809	7.51
659.139	7.47
659.468	7.44
659.798	7.4
660.127	7.45
660.456	7.39
660.785	7.45
661.115	7.43
661.444	7.49
661.773	7.49
662.102	7.47
662.431	7.54
662.76	7.47
663.089	7.5
663.418	7.37
663.747	7.37
664.076	7.36
664.404	7.39
664.733	7.49
665.062	7.45
665.39	7.37
665.719	7.28
666.048	7.35
666.376	7.38
666.705	7.38
667.033	7.34
667.362	7.39
667.69	7.34
668.018	7.42
668.347	7.33
668.675	7.3
669.003	7.39
669.331	7.44
669.659	7.54
669.987	7.52
670.315	7.68
670.643	7.69
670.971	7.65
671.299	7.65
671.627	7.57
671.955	7.5
672.283	7.64
672.61	7.66
672.938	7.65
673.266	7.7
673.593	7.85
673.921	7.85
674.249	7.89
674.576	7.82
674.904	7.77
675.231	7.76
675.558	7.8
675.886	7.72
676.213	7.66
676.54	7.63
676.867	7.56
677.195	7.57
677.522	7.62
677.849	7.6
678.176	7.59
678.503	7.58
