Data from BU26946_Reflection_00001.txt Node
Date: Tue Nov 19 10:51:49 EST 2019
User: vgr7
Spectrometer: USB2G7710
Scans to average: 3
Trigger mode: 4
Integration Time (sec): 2.000000E-2
Electric dark correction enabled: true
Boxcar width: 10
XAxis mode: Wavelengths
Number of Pixels in Spectrum: 2048
>>>>>Begin Spectral Data<<<<<
177.721	13.95
178.105	208.11
178.488	115.48
178.871	452.63
179.254	-614.29
179.636	236.79
180.019	332.56
180.402	-42.86
180.785	-1023.08
181.168	-77.03
181.55	76.88
181.933	11.69
182.316	97.17
182.698	28.98
183.081	16.3
183.463	204.48
183.846	149.69
184.228	106.69
184.611	218.88
184.993	85.45
185.376	653.19
185.758	-113
186.14	-26.15
186.522	11.25
186.904	35.48
187.287	41.79
187.669	32.06
188.051	-11.53
188.433	-42.45
188.815	-48.8
189.197	-44.56
189.579	-18.68
189.961	-33.5
190.342	-8.79
190.724	-24.5
191.106	-31.73
191.488	-40.91
191.869	-24.46
192.251	-16.74
192.633	-15.31
193.014	-19.69
193.396	-30.9
193.777	-25.47
194.159	-36.34
194.54	-53.73
194.922	-66.06
195.303	-84.16
195.684	-88.4
196.065	-64.18
196.447	-76.81
196.828	-84.81
197.209	-79.38
197.59	-92.6
197.971	-83.41
198.352	-106.76
198.733	-91.29
199.114	-67.21
199.495	-42.94
199.876	-36.34
200.257	-46.49
200.638	-40.24
201.018	-48.48
201.399	-37.65
201.78	-20.57
202.16	-22.4
202.541	-9.94
202.922	16.05
203.302	1.11
203.683	-18.97
204.063	3.24
204.444	17.91
204.824	16.96
205.204	31.68
205.585	31.27
205.965	38.5
206.345	26.01
206.725	24.84
207.106	23.05
207.486	18.31
207.866	3.83
208.246	5.87
208.626	0.86
209.006	3.51
209.386	10.18
209.766	7.56
210.145	8.48
210.525	3.57
210.905	-3.67
211.285	6.02
211.664	18.05
212.044	8.14
212.424	4.83
212.803	6.95
213.183	-3.87
213.562	-3.05
213.942	-7.77
214.321	-4.21
214.701	-6.29
215.08	-7.35
215.459	-9.44
215.838	-5.69
216.218	-7.03
216.597	-6.09
216.976	-7.52
217.355	-10.22
217.734	-6.65
218.113	2.4
218.492	12.24
218.871	50.48
219.25	56.87
219.629	48.99
220.008	85.25
220.387	64.65
220.766	57.15
221.144	57.95
221.523	86.45
221.902	118.03
222.28	82.38
222.659	68.05
223.037	63.94
223.416	75.49
223.794	59.36
224.173	58.82
224.551	42.43
224.929	34.36
225.308	25.83
225.686	22.9
226.064	21.73
226.442	21.5
226.821	9.95
227.199	3.41
227.577	4.2
227.955	3.5
228.333	4.62
228.711	4.67
229.089	4.03
229.467	2.35
229.845	2.31
230.222	3.1
230.6	0.97
230.978	1.78
231.356	2.24
231.733	2.69
232.111	2.06
232.488	3.73
232.866	6.57
233.243	8.34
233.621	9.22
233.998	9.93
234.376	9.87
234.753	9.42
235.13	9.93
235.508	10.51
235.885	9.79
236.262	9.73
236.639	10.34
237.016	11.09
237.393	11.06
237.77	11.41
238.147	9.54
238.524	9.35
238.901	8.43
239.278	7.51
239.655	7.34
240.032	6.85
240.409	6.42
240.785	5.27
241.162	4.76
241.539	4.36
241.915	3.74
242.292	3.27
242.668	3.3
243.045	3.86
243.421	4.01
243.798	4.19
244.174	4.14
244.551	4
244.927	4.07
245.303	3.83
245.679	3.68
246.056	3.76
246.432	3.65
246.808	3.61
247.184	3.62
247.56	3.53
247.936	3.65
248.312	3.8
248.688	4.12
249.064	3.96
249.44	3.48
249.815	3.78
250.191	3.84
250.567	3.89
250.943	3.77
251.318	3.61
251.694	3.44
252.069	3.6
252.445	3.52
252.82	3.59
253.196	3.4
253.571	3.26
253.947	3.56
254.322	3.76
254.697	3.88
255.073	3.95
255.448	4.02
255.823	4.14
256.198	3.95
256.573	3.86
256.948	3.98
257.323	4.01
257.698	3.67
258.073	3.67
258.448	3.61
258.823	3.51
259.198	3.52
259.573	3.43
259.948	3.33
260.322	3.37
260.697	3.3
261.072	3.42
261.446	3.51
261.821	3.28
262.195	3.08
262.57	3.12
262.944	3.03
263.319	2.87
263.693	2.69
264.067	2.54
264.442	2.43
264.816	2.35
265.19	2.62
265.564	2.7
265.938	2.71
266.313	2.62
266.687	2.65
267.061	2.69
267.435	3.09
267.809	2.91
268.183	2.8
268.556	2.75
268.93	2.89
269.304	2.89
269.678	3.01
270.051	3.21
270.425	3.26
270.799	3.09
271.172	3.21
271.546	3.41
271.919	3.48
272.293	3.53
272.666	3.45
273.04	3.34
273.413	3.27
273.787	3.23
274.16	3.34
274.533	3.49
274.906	3.36
275.279	3.05
275.653	3.14
276.026	3.14
276.399	3.25
276.772	3.07
277.145	3.06
277.518	3.01
277.891	2.99
278.263	3.06
278.636	3.21
279.009	3.19
279.382	3.11
279.755	3.26
280.127	3.22
280.5	3.23
280.872	3.38
281.245	3.5
281.617	3.52
281.99	3.38
282.362	3.26
282.735	3.41
283.107	3.48
283.479	3.5
283.852	3.54
284.224	3.55
284.596	3.5
284.968	3.47
285.34	3.39
285.713	3.34
286.085	3.2
286.457	3.18
286.829	3.22
287.201	3.21
287.572	3.23
287.944	3.12
288.316	3.18
288.688	3.12
289.06	3.12
289.431	3.03
289.803	3.15
290.175	3.05
290.546	2.94
290.918	2.92
291.289	2.84
291.661	2.8
292.032	2.67
292.403	2.66
292.775	2.71
293.146	2.95
293.517	2.9
293.889	2.86
294.26	2.99
294.631	3.05
295.002	3.08
295.373	3.02
295.744	3.14
296.115	3.19
296.486	3.25
296.857	3.08
297.228	3.01
297.599	2.92
297.97	3.05
298.34	3.15
298.711	3.11
299.082	3.12
299.452	3.22
299.823	3.14
300.194	3.29
300.564	3.14
300.935	3.08
301.305	3.14
301.676	3.13
302.046	3.07
302.416	2.91
302.787	2.99
303.157	3.02
303.527	3.12
303.897	3.05
304.267	2.96
304.637	3.14
305.008	3.31
305.378	3.35
305.748	3.24
306.117	3.19
306.487	3.33
306.857	3.56
307.227	3.57
307.597	3.8
307.967	3.78
308.336	3.82
308.706	3.79
309.076	3.78
309.445	3.91
309.815	3.81
310.184	3.86
310.554	3.71
310.923	3.61
311.293	3.51
311.662	3.51
312.031	3.47
312.401	3.42
312.77	3.38
313.139	3.43
313.508	3.43
313.877	3.34
314.246	3.29
314.616	3.16
314.985	3.05
315.353	3.04
315.722	3.02
316.091	3.07
316.46	3.03
316.829	3.03
317.198	2.93
317.567	3.12
317.935	3.14
318.304	3.45
318.672	3.5
319.041	3.63
319.41	3.7
319.778	3.71
320.147	3.74
320.515	3.8
320.883	3.78
321.252	3.88
321.62	3.92
321.988	3.98
322.357	3.88
322.725	3.88
323.093	3.81
323.461	3.75
323.829	3.71
324.197	3.69
324.565	3.73
324.933	3.68
325.301	3.55
325.669	3.58
326.037	3.39
326.405	3.37
326.772	3.3
327.14	3.18
327.508	3.2
327.875	3.09
328.243	2.98
328.61	2.86
328.978	2.74
329.346	2.72
329.713	2.69
330.08	2.75
330.448	2.82
330.815	2.74
331.182	2.7
331.55	2.76
331.917	2.68
332.284	2.69
332.651	2.72
333.018	2.79
333.385	2.56
333.752	2.5
334.119	2.53
334.486	2.53
334.853	2.71
335.22	2.68
335.587	2.74
335.954	2.75
336.32	2.83
336.687	2.91
337.054	2.99
337.42	2.97
337.787	2.94
338.153	3
338.52	2.95
338.886	2.91
339.253	2.93
339.619	2.98
339.986	2.9
340.352	2.88
340.718	2.8
341.084	2.96
341.451	3.13
341.817	3.24
342.183	3.2
342.549	3.11
342.915	3.13
343.281	3.15
343.647	3.22
344.013	3.17
344.379	3.13
344.745	3.14
345.11	3.15
345.476	3.14
345.842	3.1
346.208	3.18
346.573	3.33
346.939	3.27
347.304	3.33
347.67	3.34
348.035	3.41
348.401	3.42
348.766	3.42
349.132	3.3
349.497	3.21
349.862	3.28
350.228	3.31
350.593	3.3
350.958	3.33
351.323	3.27
351.688	3.33
352.053	3.34
352.418	3.3
352.783	3.26
353.148	3.28
353.513	3.22
353.878	3.14
354.243	3
354.608	3.06
354.972	2.99
355.337	3.04
355.702	3.01
356.066	3.04
356.431	2.95
356.795	2.94
357.16	2.91
357.524	2.94
357.889	2.89
358.253	2.9
358.618	2.85
358.982	2.89
359.346	2.97
359.71	2.98
360.075	3
360.439	3.03
360.803	3.1
361.167	3.1
361.531	3.13
361.895	3.18
362.259	3.19
362.623	3.24
362.987	3.2
363.351	3.14
363.714	3.14
364.078	3.18
364.442	3.22
364.806	3.26
365.169	3.16
365.533	3.18
365.896	3.2
366.26	3.19
366.623	3.18
366.987	3.1
367.35	3.1
367.714	3.07
368.077	3.06
368.44	3.04
368.803	3.07
369.167	3.03
369.53	3.08
369.893	3.08
370.256	3
370.619	3.04
370.982	3.07
371.345	3.13
371.708	3.15
372.071	3.15
372.434	3.1
372.797	3.16
373.159	3.16
373.522	3.2
373.885	3.26
374.247	3.27
374.61	3.31
374.973	3.3
375.335	3.27
375.698	3.21
376.06	3.16
376.423	3.15
376.785	3.23
377.147	3.16
377.51	3.11
377.872	3.17
378.234	3.12
378.596	3.14
378.958	3.06
379.321	3.05
379.683	3.02
380.045	3.01
380.407	3.02
380.769	3.01
381.13	2.91
381.492	2.86
381.854	2.87
382.216	2.84
382.578	2.87
382.939	2.92
383.301	2.95
383.663	2.99
384.024	2.94
384.386	2.9
384.747	2.88
385.109	2.93
385.47	2.91
385.832	2.9
386.193	2.91
386.554	2.9
386.916	2.91
387.277	2.89
387.638	2.94
387.999	2.89
388.36	2.87
388.721	2.91
389.082	2.93
389.443	2.94
389.804	2.96
390.165	2.95
390.526	2.94
390.887	2.95
391.248	2.95
391.609	2.99
391.969	2.98
392.33	3
392.691	2.96
393.051	2.96
393.412	2.97
393.772	3
394.133	3.05
394.493	3.06
394.854	3.05
395.214	3.04
395.574	3.07
395.935	3.09
396.295	3.1
396.655	3.11
397.015	3.1
397.376	3.08
397.736	3.09
398.096	3.1
398.456	3.1
398.816	3.06
399.176	3.04
399.535	3.06
399.895	3.06
400.255	3.08
400.615	3.08
400.975	3.11
401.334	3.08
401.694	3.08
402.054	3.07
402.413	3.1
402.773	3.08
403.132	3.06
403.492	3.05
403.851	3.05
404.211	3.03
404.57	3.04
404.929	3.02
405.288	3.03
405.648	3.01
406.007	3.02
406.366	3.02
406.725	3.02
407.084	3.02
407.443	3.04
407.802	3.02
408.161	3.02
408.52	3.01
408.879	3
409.238	2.98
409.596	2.99
409.955	2.98
410.314	3.01
410.673	3.02
411.031	3.04
411.39	3.05
411.748	3.08
412.107	3.06
412.465	3.05
412.824	3.03
413.182	3.01
413.54	3.02
413.899	3.03
414.257	3.04
414.615	3
414.974	3
415.332	3.02
415.69	3.02
416.048	3.02
416.406	3
416.764	3.01
417.122	2.99
417.48	3.01
417.838	2.99
418.195	2.97
418.553	2.97
418.911	2.97
419.269	2.95
419.626	2.94
419.984	2.95
420.342	2.94
420.699	2.94
421.057	2.93
421.414	2.94
421.772	2.94
422.129	2.95
422.486	2.94
422.844	2.92
423.201	2.93
423.558	2.92
423.915	2.95
424.273	2.94
424.63	2.96
424.987	2.95
425.344	2.96
425.701	2.98
426.058	2.97
426.415	2.98
426.772	2.98
427.128	3.01
427.485	3.01
427.842	3.01
428.199	3.03
428.555	3.02
428.912	3.01
429.269	3
429.625	3.01
429.982	3.01
430.338	3.02
430.695	3
431.051	3
431.407	2.97
431.764	2.97
432.12	2.95
432.476	2.97
432.832	2.97
433.189	2.97
433.545	2.97
433.901	2.96
434.257	2.97
434.613	2.97
434.969	2.96
435.325	2.97
435.681	2.98
436.036	2.98
436.392	3
436.748	3.01
437.104	3
437.459	3.01
437.815	2.99
438.171	3
438.526	3.01
438.882	3.01
439.237	3
439.593	3
439.948	2.99
440.304	2.99
440.659	2.98
441.014	2.98
441.369	2.99
441.725	2.99
442.08	2.98
442.435	2.98
442.79	2.97
443.145	2.97
443.5	2.97
443.855	2.94
444.21	2.93
444.565	2.94
444.92	2.95
445.275	2.95
445.629	2.95
445.984	2.95
446.339	2.96
446.693	2.96
447.048	2.96
447.403	2.95
447.757	2.95
448.112	2.95
448.466	2.96
448.82	2.95
449.175	2.94
449.529	2.92
449.883	2.92
450.238	2.93
450.592	2.93
450.946	2.92
451.3	2.92
451.654	2.92
452.008	2.92
452.362	2.89
452.716	2.9
453.07	2.91
453.424	2.9
453.778	2.9
454.132	2.91
454.486	2.92
454.839	2.92
455.193	2.94
455.547	2.95
455.9	2.95
456.254	2.96
456.607	2.98
456.961	3
457.314	3
457.668	2.99
458.021	2.99
458.375	2.99
458.728	3.01
459.081	3.02
459.434	3.01
459.787	3.02
460.141	3.02
460.494	3.02
460.847	3.03
461.2	3.02
461.553	3.05
461.906	3.04
462.259	3.04
462.611	3.03
462.964	3.03
463.317	3.04
463.67	3.02
464.022	3.01
464.375	2.99
464.728	3
465.08	3
465.433	3.01
465.785	3.03
466.138	3.01
466.49	3.01
466.843	3.03
467.195	3.02
467.547	3.03
467.899	3.04
468.252	3.04
468.604	3.05
468.956	3.04
469.308	3.05
469.66	3.07
470.012	3.08
470.364	3.09
470.716	3.09
471.068	3.11
471.42	3.12
471.772	3.14
472.123	3.16
472.475	3.17
472.827	3.18
473.178	3.18
473.53	3.2
473.882	3.21
474.233	3.2
474.585	3.21
474.936	3.21
475.288	3.2
475.639	3.21
475.99	3.2
476.342	3.2
476.693	3.19
477.044	3.18
477.395	3.17
477.746	3.17
478.097	3.16
478.448	3.14
478.8	3.14
479.15	3.16
479.501	3.15
479.852	3.15
480.203	3.14
480.554	3.15
480.905	3.15
481.255	3.15
481.606	3.16
481.957	3.15
482.307	3.15
482.658	3.15
483.009	3.14
483.359	3.15
483.709	3.14
484.06	3.15
484.41	3.15
484.761	3.16
485.111	3.16
485.461	3.16
485.811	3.17
486.162	3.17
486.512	3.17
486.862	3.17
487.212	3.18
487.562	3.17
487.912	3.17
488.262	3.18
488.612	3.18
488.961	3.18
489.311	3.19
489.661	3.2
490.011	3.2
490.36	3.19
490.71	3.19
491.06	3.19
491.409	3.19
491.759	3.19
492.108	3.19
492.458	3.19
492.807	3.2
493.157	3.2
493.506	3.21
493.855	3.2
494.204	3.19
494.554	3.2
494.903	3.22
495.252	3.22
495.601	3.22
495.95	3.22
496.299	3.21
496.648	3.21
496.997	3.22
497.346	3.23
497.695	3.26
498.043	3.28
498.392	3.28
498.741	3.29
499.09	3.28
499.438	3.29
499.787	3.3
500.135	3.29
500.484	3.28
500.832	3.28
501.181	3.27
501.529	3.28
501.878	3.28
502.226	3.28
502.574	3.28
502.923	3.29
503.271	3.28
503.619	3.29
503.967	3.28
504.315	3.27
504.663	3.26
505.011	3.27
505.359	3.26
505.707	3.27
506.055	3.26
506.403	3.28
506.751	3.28
507.098	3.29
507.446	3.31
507.794	3.32
508.141	3.35
508.489	3.38
508.837	3.37
509.184	3.38
509.531	3.38
509.879	3.38
510.226	3.39
510.574	3.4
510.921	3.4
511.268	3.41
511.616	3.43
511.963	3.45
512.31	3.47
512.657	3.46
513.004	3.46
513.351	3.44
513.698	3.44
514.045	3.43
514.392	3.44
514.739	3.43
515.086	3.44
515.432	3.44
515.779	3.44
516.126	3.46
516.473	3.45
516.819	3.47
517.166	3.47
517.512	3.49
517.859	3.48
518.205	3.48
518.552	3.47
518.898	3.48
519.245	3.47
519.591	3.45
519.937	3.46
520.283	3.47
520.629	3.48
520.976	3.5
521.322	3.5
521.668	3.5
522.014	3.51
522.36	3.5
522.706	3.5
523.052	3.49
523.398	3.48
523.743	3.51
524.089	3.5
524.435	3.49
524.781	3.48
525.126	3.49
525.472	3.51
525.817	3.52
526.163	3.52
526.509	3.53
526.854	3.55
527.199	3.55
527.545	3.55
527.89	3.56
528.235	3.56
528.581	3.57
528.926	3.57
529.271	3.57
529.616	3.58
529.961	3.58
530.306	3.57
530.651	3.57
530.996	3.57
531.341	3.58
531.686	3.6
532.031	3.59
532.376	3.6
532.721	3.58
533.065	3.58
533.41	3.57
533.755	3.56
534.099	3.55
534.444	3.55
534.788	3.54
535.133	3.55
535.477	3.54
535.822	3.55
536.166	3.55
536.51	3.56
536.855	3.55
537.199	3.56
537.543	3.58
537.887	3.57
538.231	3.57
538.576	3.56
538.92	3.56
539.264	3.57
539.608	3.58
539.951	3.57
540.295	3.59
540.639	3.6
540.983	3.61
541.327	3.61
541.671	3.62
542.014	3.64
542.358	3.63
542.701	3.64
543.045	3.64
543.389	3.63
543.732	3.61
544.075	3.62
544.419	3.61
544.762	3.61
545.105	3.62
545.449	3.62
545.792	3.65
546.135	3.64
546.478	3.64
546.821	3.65
547.165	3.67
547.508	3.65
547.851	3.66
548.194	3.65
548.536	3.65
548.879	3.63
549.222	3.61
549.565	3.59
549.908	3.57
550.25	3.58
550.593	3.61
550.936	3.62
551.278	3.63
551.621	3.62
551.963	3.65
552.306	3.63
552.648	3.62
552.991	3.6
553.333	3.59
553.675	3.59
554.017	3.58
554.36	3.57
554.702	3.58
555.044	3.58
555.386	3.59
555.728	3.61
556.07	3.63
556.412	3.65
556.754	3.65
557.096	3.65
557.438	3.6
557.78	3.59
558.121	3.6
558.463	3.58
558.805	3.61
559.147	3.57
559.488	3.56
559.83	3.57
560.171	3.55
560.513	3.56
560.854	3.53
561.196	3.54
561.537	3.58
561.878	3.57
562.22	3.57
562.561	3.54
562.902	3.55
563.243	3.54
563.584	3.55
563.925	3.58
564.266	3.6
564.607	3.62
564.948	3.64
565.289	3.66
565.63	3.67
565.971	3.68
566.312	3.71
566.653	3.72
566.993	3.72
567.334	3.76
567.675	3.79
568.015	3.8
568.356	3.79
568.696	3.77
569.037	3.79
569.377	3.79
569.718	3.8
570.058	3.78
570.398	3.78
570.739	3.78
571.079	3.76
571.419	3.74
571.759	3.75
572.099	3.74
572.439	3.74
572.779	3.73
573.119	3.72
573.459	3.73
573.799	3.72
574.139	3.75
574.479	3.76
574.819	3.73
575.158	3.75
575.498	3.73
575.838	3.73
576.177	3.72
576.517	3.73
576.856	3.74
577.196	3.78
577.535	3.8
577.875	3.79
578.214	3.79
578.553	3.79
578.893	3.79
579.232	3.8
579.571	3.8
579.91	3.83
580.25	3.84
580.589	3.81
580.928	3.79
581.267	3.75
581.606	3.71
581.945	3.74
582.283	3.76
582.622	3.78
582.961	3.77
583.3	3.76
583.639	3.76
583.977	3.77
584.316	3.75
584.654	3.72
584.993	3.75
585.332	3.76
585.67	3.79
586.008	3.8
586.347	3.82
586.685	3.77
587.024	3.78
587.362	3.77
587.7	3.82
588.038	3.86
588.376	3.9
588.715	3.93
589.053	3.93
589.391	3.92
589.729	3.92
590.067	3.93
590.404	3.96
590.742	3.98
591.08	4.02
591.418	4.02
591.756	4.05
592.093	4.07
592.431	4.05
592.769	4.08
593.106	4.09
593.444	4.08
593.781	4.13
594.119	4.12
594.456	4.07
594.793	4.03
595.131	4
595.468	3.98
595.805	3.97
596.143	3.97
596.48	4
596.817	4.02
597.154	4
597.491	3.95
597.828	3.93
598.165	3.93
598.502	3.92
598.839	3.9
599.176	3.87
599.512	3.89
599.849	3.91
600.186	3.87
600.523	3.86
600.859	3.9
601.196	3.89
601.532	3.93
601.869	3.97
602.205	3.99
602.542	3.97
602.878	3.98
603.215	3.97
603.551	3.93
603.887	3.92
604.223	3.92
604.56	3.94
604.896	3.94
605.232	3.89
605.568	3.89
605.904	3.87
606.24	3.89
606.576	3.89
606.912	3.85
607.248	3.89
607.583	3.92
607.919	3.88
608.255	3.88
608.591	3.89
608.926	3.84
609.262	3.83
609.597	3.85
609.933	3.81
610.268	3.8
610.604	3.79
610.939	3.81
611.275	3.83
611.61	3.87
611.945	3.82
612.281	3.85
612.616	3.91
612.951	3.96
613.286	3.92
613.621	3.91
613.956	3.93
614.291	3.93
614.626	3.9
614.961	3.89
615.296	3.9
615.631	3.91
615.966	3.98
616.3	3.98
616.635	3.99
616.97	4.02
617.304	4.05
617.639	4.07
617.973	4.08
618.308	4.11
618.642	4.07
618.977	4.15
619.311	4.18
619.646	4.16
619.98	4.17
620.314	4.21
620.648	4.23
620.983	4.21
621.317	4.21
621.651	4.2
621.985	4.23
622.319	4.2
622.653	4.2
622.987	4.17
623.321	4.2
623.655	4.21
623.988	4.2
624.322	4.2
624.656	4.22
624.99	4.16
625.323	4.12
625.657	4.13
625.99	4.11
626.324	4.1
626.657	4.05
626.991	4.04
627.324	4.04
627.658	4.05
627.991	4.09
628.324	4.11
628.657	4.07
628.991	4.06
629.324	4.08
629.657	4.07
629.99	4.11
630.323	4.13
630.656	4.14
630.989	4.11
631.322	4.13
631.655	4.11
631.987	4.14
632.32	4.2
632.653	4.18
632.986	4.16
633.318	4.15
633.651	4.15
633.984	4.13
634.316	4.12
634.649	4.13
634.981	4.1
635.313	4.06
635.646	4.08
635.978	4.08
636.31	4.09
636.643	4.07
636.975	4.06
637.307	4.04
637.639	4.05
637.971	4.11
638.303	4.07
638.635	4.09
638.967	4.08
639.299	4.06
639.631	4.06
639.963	4.1
640.295	4.09
640.626	4.11
640.958	4.14
641.29	4.11
641.621	4.03
641.953	3.98
642.285	4
642.616	4.03
642.948	4.03
643.279	4
643.61	4.03
643.942	4.05
644.273	4.06
644.604	4.03
644.936	4.01
645.267	4.04
645.598	4.04
645.929	4
646.26	3.94
646.591	3.96
646.922	3.97
647.253	3.98
647.584	4.01
647.915	4.02
648.245	4.06
648.576	4.16
648.907	4.21
649.238	4.16
649.568	4.16
649.899	4.12
650.229	4.23
650.56	4.24
650.89	4.23
651.221	4.16
651.551	4.22
651.882	4.23
652.212	4.22
652.542	4.24
652.872	4.3
653.203	4.36
653.533	4.42
653.863	4.43
654.193	4.41
654.523	4.4
654.853	4.44
655.183	4.48
655.513	4.43
655.843	4.45
656.172	4.53
656.502	4.53
656.832	4.55
657.162	4.48
657.491	4.51
657.821	4.45
658.15	4.51
658.48	4.47
658.809	4.4
659.139	4.37
659.468	4.4
659.798	4.41
660.127	4.41
660.456	4.34
660.785	4.28
661.115	4.31
661.444	4.35
661.773	4.29
662.102	4.27
662.431	4.33
662.76	4.25
663.089	4.23
663.418	4.2
663.747	4.22
664.076	4.22
664.404	4.2
664.733	4.26
665.062	4.26
665.39	4.19
665.719	4.27
666.048	4.28
666.376	4.26
666.705	4.27
667.033	4.29
667.362	4.33
667.69	4.4
668.018	4.37
668.347	4.34
668.675	4.32
669.003	4.27
669.331	4.29
669.659	4.34
669.987	4.35
670.315	4.39
670.643	4.38
670.971	4.38
671.299	4.35
671.627	4.37
671.955	4.33
672.283	4.33
672.61	4.29
672.938	4.38
673.266	4.34
673.593	4.35
673.921	4.31
674.249	4.2
674.576	4.22
674.904	4.22
675.231	4.23
675.558	4.28
675.886	4.31
676.213	4.24
676.54	4.26
676.867	4.28
677.195	4.28
677.522	4.28
677.849	4.24
678.176	4.3
678.503	4.21
678.83	4.25
679.157	4.25
679.484	4.25
679.81	4.22
680.137	4.26
680.464	4.24
680.791	4.23
