Data from BU26938_Reflection_00011.txt Node
Date: Tue Nov 19 10:42:28 EST 2019
User: vgr7
Spectrometer: USB2G7710
Scans to average: 3
Trigger mode: 4
Integration Time (sec): 2.000000E-2
Electric dark correction enabled: true
Boxcar width: 10
XAxis mode: Wavelengths
Number of Pixels in Spectrum: 2048
>>>>>Begin Spectral Data<<<<<
177.721	-135.55
178.105	1061.54
178.488	-336.09
178.871	-2850
179.254	-48.39
179.636	361.36
180.019	349.15
180.402	-152.38
180.785	868.42
181.168	382.44
181.55	190.91
181.933	-20.42
182.316	307.79
182.698	-1964.52
183.081	263.5
183.463	-311.04
183.846	-703.28
184.228	-710.13
184.611	-690.7
184.993	-52.94
185.376	4242.86
185.758	-86.12
186.14	-152.46
186.522	-125.6
186.904	-272.09
187.287	-53.59
187.669	-2.16
188.051	-47.1
188.433	-244.47
188.815	-323.94
189.197	-292.54
189.579	-373.57
189.961	-767
190.342	-188.44
190.724	-439.5
191.106	-576.55
191.488	-284.43
191.869	-183.17
192.251	-135.67
192.633	-147.37
193.014	-102.07
193.396	-65.61
193.777	-70.6
194.159	-57.71
194.54	-30.26
194.922	-34.81
195.303	-41.81
195.684	-41.26
196.065	-25.91
196.447	-11.16
196.828	-4.57
197.209	2.25
197.59	14.31
197.971	11.24
198.352	4.73
198.733	2.74
199.114	-1.44
199.495	16.88
199.876	19.02
200.257	24.84
200.638	18.03
201.018	1.81
201.399	-1.2
201.78	10.43
202.16	11.37
202.541	-15.98
202.922	-10.85
203.302	-17.74
203.683	-14.81
204.063	-21.11
204.444	-27.3
204.824	-20.44
205.204	-9.52
205.585	-36.54
205.965	-25.7
206.345	-43.54
206.725	-45.76
207.106	-13.39
207.486	-20.1
207.866	-13.28
208.246	-3.09
208.626	-30.89
209.006	-21.24
209.386	-22.21
209.766	-31.49
210.145	-15.42
210.525	-56.96
210.905	-38.38
211.285	-7.37
211.664	-16.58
212.044	-56.92
212.424	-22.67
212.803	-71.89
213.183	-105.1
213.562	-46.92
213.942	-39.75
214.321	-45.25
214.701	-56.51
215.08	-71.46
215.459	-73.62
215.838	-114.77
216.218	-138.44
216.597	-97.05
216.976	-86.11
217.355	-122.38
217.734	-114.34
218.113	-93.79
218.492	-61.53
218.871	-56.88
219.25	-54.98
219.629	-49.43
220.008	-15.65
220.387	-4.53
220.766	16.35
221.144	21.33
221.523	21.04
221.902	14.16
222.28	34.07
222.659	42.37
223.037	24.75
223.416	27.92
223.794	39.37
224.173	41.45
224.551	32.98
224.929	26.75
225.308	31.62
225.686	31.12
226.064	14.78
226.442	11.5
226.821	11.77
227.199	5.56
227.577	4.39
227.955	4.01
228.333	-2.07
228.711	-2.83
229.089	-1.2
229.467	0.6
229.845	2.46
230.222	2.84
230.6	4.36
230.978	4.64
231.356	2.93
231.733	4.41
232.111	3.13
232.488	6.17
232.866	6.7
233.243	6.4
233.621	6.89
233.998	10.74
234.376	11.99
234.753	12.52
235.13	14.27
235.508	14.36
235.885	11.96
236.262	12.12
236.639	11.22
237.016	11.67
237.393	10.88
237.77	10.65
238.147	10.12
238.524	8.42
238.901	7.91
239.278	8.31
239.655	7.13
240.032	7.33
240.409	6.81
240.785	6.16
241.162	6.04
241.539	5.82
241.915	4.64
242.292	4.42
242.668	4.12
243.045	3.82
243.421	3.82
243.798	4.31
244.174	4.35
244.551	4.45
244.927	4.15
245.303	4.16
245.679	4.05
246.056	4.11
246.432	4.2
246.808	4.34
247.184	4.31
247.56	4.29
247.936	4.15
248.312	3.91
248.688	4.04
249.064	4.22
249.44	3.9
249.815	4.18
250.191	4.08
250.567	4.19
250.943	4.15
251.318	4.06
251.694	4.13
252.069	4.04
252.445	4.1
252.82	4.24
253.196	4.11
253.571	4.07
253.947	3.71
254.322	3.54
254.697	3.33
255.073	2.83
255.448	2.99
255.823	3.07
256.198	3.17
256.573	3.23
256.948	3.28
257.323	3.61
257.698	3.47
258.073	3.5
258.448	3.59
258.823	3.47
259.198	3.47
259.573	3.25
259.948	3.32
260.322	3.19
260.697	3.23
261.072	3.28
261.446	3.3
261.821	3.28
262.195	3.3
262.57	3.52
262.944	3.9
263.319	3.78
263.693	3.78
264.067	3.88
264.442	4.04
264.816	3.7
265.19	3.55
265.564	3.6
265.938	3.63
266.313	3.38
266.687	3.49
267.061	3.55
267.435	3.83
267.809	3.74
268.183	3.63
268.556	3.53
268.93	3.26
269.304	3.13
269.678	3.43
270.051	3.58
270.425	3.41
270.799	3.06
271.172	3.06
271.546	3.11
271.919	3.1
272.293	3
272.666	3.21
273.04	3.32
273.413	3.24
273.787	3.29
274.16	3.2
274.533	3.22
274.906	3.22
275.279	3.24
275.653	3.33
276.026	3.53
276.399	3.65
276.772	3.89
277.145	4.07
277.518	3.87
277.891	3.9
278.263	4.07
278.636	4.46
279.009	4.57
279.382	4.61
279.755	4.67
280.127	4.66
280.5	4.52
280.872	4.43
281.245	4.48
281.617	4.47
281.99	4.51
282.362	4.67
282.735	4.55
283.107	4.3
283.479	4.23
283.852	4.1
284.224	3.97
284.596	3.98
284.968	3.78
285.34	3.75
285.713	3.58
286.085	3.52
286.457	3.26
286.829	3.27
287.201	3.26
287.572	3.32
287.944	3.38
288.316	3.46
288.688	3.39
289.06	3.41
289.431	3.29
289.803	3.37
290.175	3.17
290.546	3.21
290.918	3.19
291.289	3.17
291.661	3.17
292.032	3.14
292.403	3.11
292.775	3.22
293.146	3.27
293.517	3.46
293.889	3.46
294.26	3.57
294.631	3.59
295.002	3.62
295.373	3.56
295.744	3.55
296.115	3.61
296.486	3.67
296.857	3.7
297.228	3.65
297.599	3.56
297.97	3.78
298.34	3.81
298.711	3.96
299.082	3.82
299.452	3.8
299.823	3.95
300.194	3.9
300.564	3.89
300.935	3.91
301.305	3.88
301.676	3.9
302.046	3.98
302.416	3.94
302.787	3.94
303.157	3.95
303.527	3.94
303.897	3.78
304.267	3.81
304.637	3.69
305.008	3.81
305.378	3.97
305.748	3.81
306.117	3.94
306.487	3.87
306.857	4.07
307.227	4.19
307.597	4.21
307.967	4.25
308.336	4.3
308.706	4.37
309.076	4.34
309.445	4.39
309.815	4.29
310.184	4.29
310.554	4.23
310.923	4.3
311.293	4.27
311.662	4.48
312.031	4.51
312.401	4.65
312.77	4.66
313.139	4.66
313.508	4.74
313.877	4.64
314.246	4.69
314.616	4.79
314.985	4.79
315.353	4.83
315.722	4.95
316.091	5
316.46	4.93
316.829	4.91
317.198	4.96
317.567	5.07
317.935	5.12
318.304	5.34
318.672	5.3
319.041	5.38
319.41	5.42
319.778	5.41
320.147	5.37
320.515	5.49
320.883	5.6
321.252	5.71
321.62	5.71
321.988	5.79
322.357	5.78
322.725	5.9
323.093	5.75
323.461	5.76
323.829	5.77
324.197	5.76
324.565	5.85
324.933	5.68
325.301	5.7
325.669	5.69
326.037	5.64
326.405	5.64
326.772	5.64
327.14	5.49
327.508	5.48
327.875	5.58
328.243	5.58
328.61	5.44
328.978	5.27
329.346	5.31
329.713	5.25
330.08	5.37
330.448	5.33
330.815	5.46
331.182	5.35
331.55	5.27
331.917	5.41
332.284	5.29
332.651	5.39
333.018	5.28
333.385	5.22
333.752	5.31
334.119	5.3
334.486	5.37
334.853	5.45
335.22	5.49
335.587	5.31
335.954	5.39
336.32	5.54
336.687	5.69
337.054	5.71
337.42	5.75
337.787	5.75
338.153	5.75
338.52	5.78
338.886	5.93
339.253	5.95
339.619	6.01
339.986	6.18
340.352	6.22
340.718	6.28
341.084	6.41
341.451	6.42
341.817	6.45
342.183	6.36
342.549	6.42
342.915	6.44
343.281	6.59
343.647	6.57
344.013	6.55
344.379	6.5
344.745	6.6
345.11	6.59
345.476	6.48
345.842	6.37
346.208	6.25
346.573	6.17
346.939	6.2
347.304	6.15
347.67	6.05
348.035	6.12
348.401	6.2
348.766	6.1
349.132	6.07
349.497	6.13
349.862	6.15
350.228	6.17
350.593	6.16
350.958	6.23
351.323	6.21
351.688	6.21
352.053	6.13
352.418	6.13
352.783	6.15
353.148	6.17
353.513	6.17
353.878	6.25
354.243	6.3
354.608	6.36
354.972	6.4
355.337	6.44
355.702	6.39
356.066	6.32
356.431	6.34
356.795	6.27
357.16	6.21
357.524	6.23
357.889	6.14
358.253	6.16
358.618	6.07
358.982	6.05
359.346	6
359.71	6.07
360.075	6.07
360.439	6.06
360.803	6.07
361.167	6.09
361.531	6.06
361.895	6.04
362.259	6.03
362.623	6
362.987	5.98
363.351	5.95
363.714	5.96
364.078	5.97
364.442	6
364.806	6
365.169	5.96
365.533	6
365.896	6
366.26	5.93
366.623	5.95
366.987	5.96
367.35	5.95
367.714	5.88
368.077	5.89
368.44	5.8
368.803	5.77
369.167	5.68
369.53	5.66
369.893	5.6
370.256	5.54
370.619	5.43
370.982	5.34
371.345	5.29
371.708	5.24
372.071	5.18
372.434	5.11
372.797	5.17
373.159	5.06
373.522	5.02
373.885	5
374.247	4.97
374.61	4.9
374.973	4.83
375.335	4.83
375.698	4.7
376.06	4.65
376.423	4.62
376.785	4.65
377.147	4.61
377.51	4.58
377.872	4.55
378.234	4.57
378.596	4.56
378.958	4.62
379.321	4.59
379.683	4.58
380.045	4.58
380.407	4.49
380.769	4.44
381.13	4.45
381.492	4.45
381.854	4.41
382.216	4.41
382.578	4.39
382.939	4.35
383.301	4.41
383.663	4.43
384.024	4.45
384.386	4.47
384.747	4.43
385.109	4.42
385.47	4.4
385.832	4.4
386.193	4.41
386.554	4.32
386.916	4.35
387.277	4.28
387.638	4.25
387.999	4.22
388.36	4.29
388.721	4.25
389.082	4.27
389.443	4.27
389.804	4.25
390.165	4.26
390.526	4.19
390.887	4.11
391.248	4.14
391.609	4.13
391.969	4.1
392.33	4.08
392.691	4.08
393.051	4.09
393.412	4.05
393.772	4.05
394.133	4.03
394.493	4
394.854	4.02
395.214	4.01
395.574	4
395.935	3.98
396.295	3.95
396.655	3.9
397.015	3.86
397.376	3.83
397.736	3.81
398.096	3.8
398.456	3.78
398.816	3.73
399.176	3.7
399.535	3.65
399.895	3.63
400.255	3.62
400.615	3.59
400.975	3.61
401.334	3.59
401.694	3.59
402.054	3.58
402.413	3.54
402.773	3.59
403.132	3.58
403.492	3.57
403.851	3.54
404.211	3.5
404.57	3.55
404.929	3.53
405.288	3.51
405.648	3.53
406.007	3.58
406.366	3.57
406.725	3.57
407.084	3.61
407.443	3.61
407.802	3.58
408.161	3.57
408.52	3.55
408.879	3.55
409.238	3.55
409.596	3.54
409.955	3.55
410.314	3.54
410.673	3.54
411.031	3.54
411.39	3.56
411.748	3.59
412.107	3.57
412.465	3.58
412.824	3.57
413.182	3.56
413.54	3.55
413.899	3.52
414.257	3.49
414.615	3.47
414.974	3.47
415.332	3.46
415.69	3.45
416.048	3.45
416.406	3.43
416.764	3.43
417.122	3.43
417.48	3.4
417.838	3.36
418.195	3.35
418.553	3.33
418.911	3.32
419.269	3.32
419.626	3.31
419.984	3.31
420.342	3.31
420.699	3.3
421.057	3.29
421.414	3.31
421.772	3.32
422.129	3.3
422.486	3.31
422.844	3.3
423.201	3.3
423.558	3.3
423.915	3.31
424.273	3.31
424.63	3.31
424.987	3.32
425.344	3.33
425.701	3.32
426.058	3.32
426.415	3.33
426.772	3.31
427.128	3.31
427.485	3.29
427.842	3.28
428.199	3.29
428.555	3.28
428.912	3.27
429.269	3.26
429.625	3.28
429.982	3.27
430.338	3.3
430.695	3.3
431.051	3.28
431.407	3.26
431.764	3.25
432.12	3.25
432.476	3.27
432.832	3.26
433.189	3.26
433.545	3.26
433.901	3.25
434.257	3.25
434.613	3.24
434.969	3.26
435.325	3.27
435.681	3.28
436.036	3.29
436.392	3.29
436.748	3.29
437.104	3.29
437.459	3.27
437.815	3.25
438.171	3.27
438.526	3.26
438.882	3.27
439.237	3.28
439.593	3.28
439.948	3.26
440.304	3.25
440.659	3.28
441.014	3.3
441.369	3.29
441.725	3.3
442.08	3.31
442.435	3.31
442.79	3.29
443.145	3.28
443.5	3.26
443.855	3.25
444.21	3.25
444.565	3.24
444.92	3.24
445.275	3.25
445.629	3.22
445.984	3.21
446.339	3.22
446.693	3.22
447.048	3.2
447.403	3.2
447.757	3.21
448.112	3.2
448.466	3.19
448.82	3.2
449.175	3.18
449.529	3.19
449.883	3.17
450.238	3.18
450.592	3.18
450.946	3.19
451.3	3.2
451.654	3.21
452.008	3.2
452.362	3.21
452.716	3.2
453.07	3.22
453.424	3.2
453.778	3.18
454.132	3.19
454.486	3.2
454.839	3.21
455.193	3.19
455.547	3.19
455.9	3.2
456.254	3.2
456.607	3.21
456.961	3.22
457.314	3.22
457.668	3.21
458.021	3.18
458.375	3.18
458.728	3.17
459.081	3.18
459.434	3.18
459.787	3.18
460.141	3.18
460.494	3.19
460.847	3.22
461.2	3.23
461.553	3.24
461.906	3.24
462.259	3.22
462.611	3.22
462.964	3.22
463.317	3.2
463.67	3.19
464.022	3.19
464.375	3.16
464.728	3.18
465.08	3.19
465.433	3.22
465.785	3.24
466.138	3.24
466.49	3.23
466.843	3.22
467.195	3.22
467.547	3.22
467.899	3.2
468.252	3.19
468.604	3.21
468.956	3.22
469.308	3.23
469.66	3.25
470.012	3.26
470.364	3.28
470.716	3.29
471.068	3.32
471.42	3.33
471.772	3.33
472.123	3.34
472.475	3.34
472.827	3.36
473.178	3.34
473.53	3.35
473.882	3.37
474.233	3.4
474.585	3.41
474.936	3.42
475.288	3.43
475.639	3.44
475.99	3.42
476.342	3.41
476.693	3.42
477.044	3.41
477.395	3.42
477.746	3.4
478.097	3.41
478.448	3.36
478.8	3.35
479.15	3.35
479.501	3.33
479.852	3.34
480.203	3.34
480.554	3.33
480.905	3.34
481.255	3.31
481.606	3.32
481.957	3.32
482.307	3.32
482.658	3.33
483.009	3.33
483.359	3.33
483.709	3.32
484.06	3.32
484.41	3.33
484.761	3.32
485.111	3.33
485.461	3.33
485.811	3.34
486.162	3.35
486.512	3.36
486.862	3.37
487.212	3.36
487.562	3.36
487.912	3.36
488.262	3.36
488.612	3.38
488.961	3.38
489.311	3.38
489.661	3.39
490.011	3.39
490.36	3.4
490.71	3.4
491.06	3.4
491.409	3.41
491.759	3.41
492.108	3.41
492.458	3.41
492.807	3.4
493.157	3.41
493.506	3.41
493.855	3.41
494.204	3.4
494.554	3.4
494.903	3.41
495.252	3.43
495.601	3.44
495.95	3.44
496.299	3.45
496.648	3.47
496.997	3.49
497.346	3.49
497.695	3.5
498.043	3.52
498.392	3.54
498.741	3.54
499.09	3.58
499.438	3.6
499.787	3.62
500.135	3.65
500.484	3.66
500.832	3.68
501.181	3.72
501.529	3.78
501.878	3.82
502.226	3.85
502.574	3.89
502.923	3.9
503.271	3.92
503.619	3.95
503.967	3.95
504.315	3.99
504.663	4.02
505.011	4.04
505.359	4.07
505.707	4.09
506.055	4.11
506.403	4.12
506.751	4.17
507.098	4.2
507.446	4.24
507.794	4.29
508.141	4.32
508.489	4.34
508.837	4.36
509.184	4.41
509.531	4.42
509.879	4.45
510.226	4.5
510.574	4.55
510.921	4.59
511.268	4.64
511.616	4.7
511.963	4.74
512.31	4.81
512.657	4.87
513.004	4.94
513.351	5.03
513.698	5.13
514.045	5.17
514.392	5.28
514.739	5.37
515.086	5.46
515.432	5.56
515.779	5.66
516.126	5.77
516.473	5.85
516.819	5.99
517.166	6.12
517.512	6.2
517.859	6.32
518.205	6.4
518.552	6.5
518.898	6.55
519.245	6.66
519.591	6.75
519.937	6.86
520.283	6.97
520.629	7.08
520.976	7.2
521.322	7.36
521.668	7.47
522.014	7.62
522.36	7.77
522.706	7.94
523.052	8.09
523.398	8.28
523.743	8.47
524.089	8.66
524.435	8.81
524.781	9
525.126	9.14
525.472	9.34
525.817	9.5
526.163	9.65
526.509	9.77
526.854	9.89
527.199	10
527.545	10.11
527.89	10.22
528.235	10.33
528.581	10.45
528.926	10.56
529.271	10.67
529.616	10.78
529.961	10.89
530.306	11.03
530.651	11.14
530.996	11.28
531.341	11.4
531.686	11.54
532.031	11.69
532.376	11.85
532.721	11.96
533.065	12.11
533.41	12.27
533.755	12.44
534.099	12.59
534.444	12.76
534.788	12.92
535.133	13.08
535.477	13.24
535.822	13.41
536.166	13.59
536.51	13.76
536.855	13.95
537.199	14.15
537.543	14.34
537.887	14.57
538.231	14.75
538.576	14.97
538.92	15.18
539.264	15.38
539.608	15.58
539.951	15.75
540.295	15.92
540.639	16.07
540.983	16.25
541.327	16.43
541.671	16.58
542.014	16.78
542.358	16.94
542.701	17.11
543.045	17.27
543.389	17.43
543.732	17.61
544.075	17.79
544.419	17.96
544.762	18.15
545.105	18.33
545.449	18.56
545.792	18.78
546.135	18.99
546.478	19.2
546.821	19.43
547.165	19.7
547.508	19.93
547.851	20.18
548.194	20.41
548.536	20.64
548.879	20.94
549.222	21.16
549.565	21.42
549.908	21.67
550.25	21.91
550.593	22.19
550.936	22.5
551.278	22.78
551.621	23.06
551.963	23.34
552.306	23.59
552.648	23.8
552.991	24
553.333	24.25
553.675	24.53
554.017	24.71
554.36	24.97
554.702	25.23
555.044	25.51
555.386	25.75
555.728	25.99
556.07	26.2
556.412	26.49
556.754	26.71
557.096	26.98
557.438	27.21
557.78	27.46
558.121	27.72
558.463	27.94
558.805	28.2
559.147	28.44
559.488	28.67
559.83	28.9
560.171	29.19
560.513	29.44
560.854	29.63
561.196	29.9
561.537	30.15
561.878	30.42
562.22	30.64
562.561	30.85
562.902	31.12
563.243	31.41
563.584	31.59
563.925	31.85
564.266	32.06
564.607	32.29
564.948	32.5
565.289	32.66
565.63	32.86
565.971	33.07
566.312	33.26
566.653	33.49
566.993	33.7
567.334	33.88
567.675	34.11
568.015	34.32
568.356	34.51
568.696	34.65
569.037	34.83
569.377	35.03
569.718	35.27
570.058	35.45
570.398	35.61
570.739	35.79
571.079	35.93
571.419	36.11
571.759	36.26
572.099	36.45
572.439	36.59
572.779	36.78
573.119	36.93
573.459	37.14
573.799	37.31
574.139	37.43
574.479	37.6
574.819	37.73
575.158	37.84
575.498	38.03
575.838	38.19
576.177	38.35
576.517	38.48
576.856	38.59
577.196	38.69
577.535	38.82
577.875	38.99
578.214	39.13
578.553	39.31
578.893	39.5
579.232	39.65
579.571	39.82
579.91	39.96
580.25	40.12
580.589	40.22
580.928	40.28
581.267	40.49
581.606	40.57
581.945	40.7
582.283	40.88
582.622	41.02
582.961	41.21
583.3	41.35
583.639	41.52
583.977	41.7
584.316	41.89
584.654	42.04
584.993	42.1
585.332	42.2
585.67	42.29
586.008	42.41
586.347	42.52
586.685	42.66
587.024	42.71
587.362	42.87
587.7	42.96
588.038	43.17
588.376	43.22
588.715	43.39
589.053	43.55
589.391	43.65
589.729	43.67
590.067	43.74
590.404	43.76
590.742	43.86
591.08	44.01
591.418	44.17
591.756	44.25
592.093	44.45
592.431	44.63
592.769	44.71
593.106	44.84
593.444	44.89
593.781	44.99
594.119	45.22
594.456	45.28
594.793	45.36
595.131	45.43
595.468	45.52
595.805	45.63
596.143	45.66
596.48	45.78
596.817	45.86
597.154	45.96
597.491	46.09
597.828	46.17
598.165	46.16
598.502	46.16
598.839	46.24
599.176	46.34
599.512	46.42
599.849	46.59
600.186	46.7
600.523	46.85
600.859	46.96
601.196	46.97
601.532	47.08
601.869	47.2
602.205	47.36
602.542	47.5
602.878	47.56
603.215	47.66
603.551	47.72
603.887	47.85
604.223	47.82
604.56	47.86
604.896	47.97
605.232	48.11
605.568	48.24
605.904	48.28
606.24	48.29
606.576	48.32
606.912	48.3
607.248	48.35
607.583	48.4
607.919	48.44
608.255	48.54
608.591	48.6
608.926	48.66
609.262	48.62
609.597	48.54
609.933	48.63
610.268	48.69
610.604	48.73
610.939	48.76
611.275	48.9
611.61	48.93
611.945	48.89
612.281	48.93
612.616	48.97
612.951	49.13
613.286	49.2
613.621	49.24
613.956	49.42
614.291	49.4
614.626	49.43
614.961	49.47
615.296	49.5
615.631	49.44
615.966	49.44
616.3	49.53
616.635	49.62
616.97	49.57
617.304	49.55
617.639	49.56
617.973	49.66
618.308	49.66
618.642	49.8
618.977	49.92
619.311	49.94
619.646	49.97
619.98	49.92
620.314	49.97
620.648	49.96
620.983	50
621.317	50.09
621.651	50.17
621.985	50.26
622.319	50.35
622.653	50.46
622.987	50.52
623.321	50.58
623.655	50.72
623.988	50.8
624.322	50.87
624.656	50.93
624.99	50.93
625.323	50.99
625.657	50.9
625.99	50.89
626.324	50.97
626.657	50.9
626.991	50.92
627.324	50.98
627.658	51.04
627.991	51
628.324	51.08
628.657	51.05
628.991	51.08
629.324	51.08
629.657	51.1
629.99	51.18
630.323	51.21
630.656	51.24
630.989	51.26
631.322	51.32
631.655	51.4
631.987	51.44
632.32	51.41
632.653	51.54
632.986	51.58
633.318	51.55
633.651	51.7
633.984	51.79
634.316	51.77
634.649	51.91
634.981	51.95
635.313	51.96
635.646	52.05
635.978	52.02
636.31	52.02
636.643	52.05
636.975	52.03
637.307	52.04
637.639	52.09
637.971	52.03
638.303	51.98
638.635	52.01
638.967	52.05
639.299	52.09
639.631	52.12
639.963	52.15
640.295	52.26
640.626	52.25
640.958	52.25
641.29	52.31
641.621	52.33
641.953	52.41
642.285	52.44
642.616	52.43
642.948	52.42
643.279	52.36
643.61	52.41
643.942	52.54
644.273	52.54
644.604	52.55
644.936	52.68
645.267	52.76
645.598	52.73
645.929	52.7
646.26	52.78
646.591	52.72
646.922	52.71
647.253	52.7
647.584	52.77
647.915	52.87
648.245	52.91
648.576	52.84
648.907	52.88
649.238	52.88
649.568	52.84
649.899	52.92
650.229	53.06
650.56	53.16
650.89	53.07
651.221	53.05
651.551	53.09
651.882	53.09
652.212	53.05
652.542	53.07
652.872	53.16
653.203	53.21
653.533	53.23
653.863	53.31
654.193	53.21
654.523	53.13
654.853	53.05
655.183	53.07
655.513	53.16
655.843	53.11
656.172	53.19
656.502	53.32
656.832	53.41
657.162	53.42
657.491	53.37
657.821	53.44
658.15	53.44
658.48	53.4
658.809	53.4
659.139	53.46
659.468	53.5
659.798	53.52
660.127	53.49
660.456	53.52
660.785	53.46
661.115	53.5
661.444	53.65
661.773	53.83
662.102	53.8
662.431	53.78
662.76	53.84
663.089	53.75
663.418	53.7
663.747	53.7
664.076	53.75
664.404	53.82
664.733	53.84
665.062	53.91
665.39	53.97
665.719	53.96
666.048	54.04
666.376	54.07
666.705	54.15
667.033	54.3
667.362	54.37
667.69	54.49
668.018	54.58
668.347	54.5
