Data from BU26938_Reflection_00002.txt Node
Date: Tue Nov 19 10:42:09 EST 2019
User: vgr7
Spectrometer: USB2G7710
Scans to average: 3
Trigger mode: 4
Integration Time (sec): 2.000000E-2
Electric dark correction enabled: true
Boxcar width: 10
XAxis mode: Wavelengths
Number of Pixels in Spectrum: 2048
>>>>>Begin Spectral Data<<<<<
177.721	230.62
178.105	-1476.92
178.488	949.62
178.871	6600
179.254	183.87
179.636	259.09
180.019	72.7
180.402	-9.52
180.785	15.79
181.168	-167.18
181.55	-510.39
181.933	-130.37
182.316	-471.43
182.698	1422.58
183.081	-295.44
183.463	646.01
183.846	1559.02
184.228	960.76
184.611	2379.07
184.993	1076.47
185.376	15814.29
185.758	-455.21
186.14	-477.05
186.522	-262.26
186.904	-523.26
187.287	-228.88
187.669	-200.72
188.051	-221.38
188.433	-491.26
188.815	-540.9
189.197	-399.11
189.579	-392.6
189.961	-959.11
190.342	-209.89
190.724	-371.78
191.106	-447.17
191.488	-188.01
191.869	-111.02
192.251	-95.72
192.633	-107.43
193.014	-100.24
193.396	-84.65
193.777	-68.95
194.159	-69.76
194.54	-83.48
194.922	-96.81
195.303	-107.82
195.684	-112.96
196.065	-105.01
196.447	-77.86
196.828	-50.27
197.209	-41.51
197.59	-39.48
197.971	-53.56
198.352	-57.51
198.733	-53.17
199.114	-52.37
199.495	-59.15
199.876	-65.69
200.257	-56.19
200.638	-32.28
201.018	-23.21
201.399	-19.93
201.78	-12.43
202.16	-14.87
202.541	-20.46
202.922	-9.44
203.302	-1.76
203.683	-3.9
204.063	-26.23
204.444	-28.88
204.824	-48.23
205.204	-52.46
205.585	-92.4
205.965	-75.75
206.345	-65.2
206.725	-59.28
207.106	-47.26
207.486	-51.36
207.866	-49.51
208.246	-50.39
208.626	-109.9
209.006	-140.54
209.386	-173.8
209.766	-210.5
210.145	-182.27
210.525	-421.52
210.905	-398.69
211.285	-209.18
211.664	-188.44
212.044	-223.82
212.424	-158.1
212.803	-181.05
213.183	-208.28
213.562	-126.54
213.942	-97.1
214.321	-131.44
214.701	-140.86
215.08	-219.91
215.459	-160.91
215.838	-183.8
216.218	-173.8
216.597	-129.64
216.976	-133.36
217.355	-116.12
217.734	-93.04
218.113	-83.66
218.492	-77.22
218.871	-80.26
219.25	-93.87
219.629	-93.46
220.008	-73.75
220.387	-91.54
220.766	-79.42
221.144	-82.5
221.523	-104.04
221.902	-88.84
222.28	-67.31
222.659	-52.66
223.037	-41.94
223.416	-51.68
223.794	-39.37
224.173	-35.67
224.551	-34.37
224.929	-36.89
225.308	-38.74
225.686	-39.72
226.064	-42.74
226.442	-31.22
226.821	-23.25
227.199	-16.27
227.577	-13.38
227.955	-14.38
228.333	-14.85
228.711	-14.64
229.089	-13.96
229.467	-10.73
229.845	-13.47
230.222	-8.86
230.6	-9.41
230.978	-9.49
231.356	-7.94
231.733	-8.85
232.111	-9.67
232.488	-8.02
232.866	-3.14
233.243	-0.97
233.621	0.42
233.998	0.32
234.376	1.09
234.753	0.53
235.13	-1.15
235.508	-1.24
235.885	-2.22
236.262	-1.07
236.639	-1.9
237.016	-0.46
237.393	0.1
237.77	0.98
238.147	-0.93
238.524	-0.29
238.901	0.95
239.278	0.61
239.655	1.03
240.032	0.79
240.409	0.64
240.785	-0.01
241.162	-0.21
241.539	-0.85
241.915	-0.46
242.292	-0.3
242.668	0.34
243.045	1.04
243.421	1.22
243.798	1.56
244.174	1.74
244.551	2.01
244.927	2.16
245.303	1.99
245.679	2.04
246.056	2.22
246.432	2.39
246.808	2.17
247.184	2.27
247.56	2.1
247.936	2.44
248.312	2.64
248.688	2.64
249.064	2.67
249.44	2.68
249.815	2.74
250.191	2.81
250.567	2.83
250.943	2.49
251.318	2.25
251.694	2.03
252.069	1.95
252.445	1.75
252.82	1.77
253.196	2.1
253.571	2.1
253.947	2.05
254.322	1.8
254.697	1.7
255.073	1.88
255.448	2.08
255.823	1.97
256.198	1.71
256.573	1.83
256.948	1.85
257.323	1.96
257.698	1.91
258.073	1.76
258.448	1.74
258.823	1.62
259.198	1.75
259.573	1.85
259.948	1.85
260.322	1.95
260.697	1.88
261.072	1.72
261.446	1.71
261.821	1.65
262.195	1.67
262.57	1.87
262.944	1.8
263.319	1.73
263.693	1.53
264.067	1.74
264.442	1.57
264.816	1.63
265.19	1.63
265.564	1.58
265.938	1.59
266.313	1.51
266.687	1.94
267.061	1.99
267.435	2.13
267.809	2.12
268.183	2.09
268.556	1.87
268.93	2.21
269.304	2.18
269.678	2.16
270.051	2.07
270.425	1.98
270.799	1.96
271.172	2.01
271.546	2.31
271.919	2.24
272.293	2.42
272.666	2.37
273.04	2.38
273.413	2.36
273.787	2.43
274.16	2.48
274.533	2.43
274.906	2.36
275.279	2.3
275.653	2.47
276.026	2.54
276.399	2.61
276.772	2.37
277.145	2.42
277.518	2.43
277.891	2.59
278.263	2.7
278.636	2.77
279.009	2.78
279.382	2.52
279.755	2.51
280.127	2.47
280.5	2.56
280.872	2.56
281.245	2.65
281.617	2.79
281.99	2.65
282.362	2.6
282.735	2.59
283.107	2.54
283.479	2.47
283.852	2.43
284.224	2.55
284.596	2.6
284.968	2.57
285.34	2.6
285.713	2.6
286.085	2.46
286.457	2.56
286.829	2.54
287.201	2.65
287.572	2.7
287.944	2.77
288.316	2.77
288.688	2.82
289.06	2.83
289.431	2.7
289.803	2.79
290.175	2.72
290.546	2.78
290.918	2.77
291.289	2.75
291.661	2.83
292.032	2.76
292.403	2.75
292.775	2.91
293.146	2.94
293.517	2.85
293.889	2.91
294.26	2.78
294.631	2.91
295.002	2.99
295.373	2.92
295.744	2.8
296.115	2.9
296.486	2.86
296.857	2.86
297.228	2.88
297.599	2.95
297.97	3.07
298.34	3.13
298.711	3.13
299.082	3.09
299.452	3.1
299.823	3.22
300.194	3.27
300.564	3.15
300.935	3.31
301.305	3.45
301.676	3.4
302.046	3.39
302.416	3.23
302.787	3.19
303.157	3.29
303.527	3.47
303.897	3.29
304.267	3.33
304.637	3.29
305.008	3.26
305.378	3.06
305.748	2.98
306.117	2.92
306.487	3.05
306.857	3.03
307.227	2.94
307.597	2.85
307.967	2.79
308.336	2.68
308.706	2.53
309.076	2.55
309.445	2.67
309.815	2.83
310.184	2.94
310.554	2.76
310.923	2.65
311.293	2.47
311.662	2.55
312.031	2.55
312.401	2.54
312.77	2.54
313.139	2.62
313.508	2.59
313.877	2.61
314.246	2.44
314.616	2.49
314.985	2.45
315.353	2.42
315.722	2.5
316.091	2.65
316.46	2.56
316.829	2.46
317.198	2.47
317.567	2.46
317.935	2.38
318.304	2.59
318.672	2.61
319.041	2.76
319.41	2.66
319.778	2.69
320.147	2.71
320.515	2.81
320.883	2.9
321.252	3.05
321.62	3.02
321.988	3.22
322.357	3.28
322.725	3.29
323.093	3.45
323.461	3.48
323.829	3.42
324.197	3.48
324.565	3.37
324.933	3.29
325.301	3.07
325.669	3.13
326.037	3.11
326.405	3.19
326.772	3.09
327.14	3.16
327.508	3.06
327.875	3.13
328.243	3.13
328.61	2.95
328.978	2.82
329.346	2.79
329.713	2.83
330.08	2.85
330.448	2.9
330.815	2.84
331.182	2.75
331.55	2.82
331.917	2.75
332.284	2.89
332.651	2.92
333.018	3.03
333.385	2.93
333.752	2.86
334.119	2.87
334.486	2.9
334.853	2.77
335.22	2.9
335.587	2.73
335.954	2.74
336.32	2.82
336.687	2.92
337.054	2.99
337.42	2.85
337.787	2.73
338.153	2.72
338.52	2.73
338.886	2.76
339.253	2.68
339.619	2.77
339.986	2.69
340.352	2.74
340.718	2.78
341.084	2.73
341.451	2.85
341.817	2.81
342.183	2.84
342.549	2.85
342.915	2.96
343.281	3.16
343.647	3.08
344.013	3.11
344.379	3.01
344.745	3.03
345.11	3.02
345.476	3.12
345.842	3.09
346.208	3.03
346.573	3.06
346.939	3.08
347.304	3.1
347.67	3.15
348.035	3.1
348.401	3.03
348.766	3.1
349.132	3.01
349.497	3.03
349.862	3.02
350.228	3.12
350.593	3.02
350.958	3.07
351.323	3.04
351.688	3.06
352.053	3.09
352.418	3.05
352.783	3.2
353.148	3.15
353.513	3.18
353.878	3.18
354.243	3.12
354.608	3.18
354.972	3.19
355.337	3.19
355.702	3.18
356.066	3.23
356.431	3.19
356.795	3.14
357.16	3.09
357.524	3.05
357.889	3
358.253	2.97
358.618	2.83
358.982	2.9
359.346	2.9
359.71	2.93
360.075	2.89
360.439	2.84
360.803	2.85
361.167	2.79
361.531	2.76
361.895	2.83
362.259	2.79
362.623	2.79
362.987	2.75
363.351	2.76
363.714	2.76
364.078	2.81
364.442	2.84
364.806	2.85
365.169	2.84
365.533	2.83
365.896	2.87
366.26	2.96
366.623	2.91
366.987	2.92
367.35	2.89
367.714	2.88
368.077	2.87
368.44	2.91
368.803	2.93
369.167	2.91
369.53	2.87
369.893	2.87
370.256	2.87
370.619	2.85
370.982	2.83
371.345	2.87
371.708	2.86
372.071	2.88
372.434	2.85
372.797	2.89
373.159	2.96
373.522	2.95
373.885	2.87
374.247	2.88
374.61	2.92
374.973	2.88
375.335	2.91
375.698	2.91
376.06	2.88
376.423	2.9
376.785	3
377.147	2.97
377.51	2.99
377.872	2.9
378.234	2.95
378.596	3
378.958	2.97
379.321	2.96
379.683	2.98
380.045	3
380.407	3.04
380.769	3.02
381.13	3.06
381.492	3.11
381.854	3.11
382.216	3.13
382.578	3.15
382.939	3.18
383.301	3.13
383.663	3.13
384.024	3.14
384.386	3.1
384.747	3.14
385.109	3.15
385.47	3.23
385.832	3.2
386.193	3.17
386.554	3.14
386.916	3.16
387.277	3.15
387.638	3.17
387.999	3.14
388.36	3.13
388.721	3.08
389.082	3.07
389.443	3.09
389.804	3.08
390.165	3.11
390.526	3.13
390.887	3.16
391.248	3.2
391.609	3.2
391.969	3.18
392.33	3.18
392.691	3.18
393.051	3.16
393.412	3.18
393.772	3.2
394.133	3.23
394.493	3.21
394.854	3.2
395.214	3.2
395.574	3.21
395.935	3.18
396.295	3.14
396.655	3.11
397.015	3.12
397.376	3.09
397.736	3.11
398.096	3.1
398.456	3.09
398.816	3.04
399.176	3.02
399.535	3.02
399.895	3
400.255	3.01
400.615	3
400.975	3
401.334	3
401.694	2.98
402.054	2.98
402.413	3.02
402.773	3.01
403.132	2.99
403.492	3.02
403.851	3.03
404.211	3.03
404.57	3.04
404.929	3
405.288	3
405.648	3
406.007	2.99
406.366	3
406.725	3.04
407.084	3.02
407.443	3
407.802	2.96
408.161	2.97
408.52	3
408.879	2.99
409.238	3
409.596	3
409.955	2.96
410.314	2.96
410.673	2.96
411.031	2.94
411.39	2.98
411.748	2.99
412.107	2.98
412.465	3.03
412.824	3
413.182	3.01
413.54	3.03
413.899	3.04
414.257	3.03
414.615	3.05
414.974	3.03
415.332	3.07
415.69	3.05
416.048	3.02
416.406	3.02
416.764	3.03
417.122	3.03
417.48	3.03
417.838	3.03
418.195	3.02
418.553	3.02
418.911	3.03
419.269	3.04
419.626	3.04
419.984	3.03
420.342	3.03
420.699	3.02
421.057	3.02
421.414	3.02
421.772	3.02
422.129	3.03
422.486	3.06
422.844	3.04
423.201	3.05
423.558	3.05
423.915	3.06
424.273	3.04
424.63	3.04
424.987	3.05
425.344	3.06
425.701	3.07
426.058	3.08
426.415	3.07
426.772	3.05
427.128	3.06
427.485	3.07
427.842	3.09
428.199	3.09
428.555	3.08
428.912	3.06
429.269	3.06
429.625	3.05
429.982	3.04
430.338	3.04
430.695	3.03
431.051	3.03
431.407	2.99
431.764	3
432.12	3.01
432.476	3
432.832	3.01
433.189	3
433.545	3.02
433.901	3.01
434.257	3.01
434.613	3
434.969	2.97
435.325	2.98
435.681	2.97
436.036	2.98
436.392	2.98
436.748	2.99
437.104	3.02
437.459	3.02
437.815	3.03
438.171	3.04
438.526	3.04
438.882	3.08
439.237	3.08
439.593	3.1
439.948	3.11
440.304	3.09
440.659	3.09
441.014	3.07
441.369	3.07
441.725	3.08
442.08	3.07
442.435	3.1
442.79	3.09
443.145	3.1
443.5	3.09
443.855	3.09
444.21	3.09
444.565	3.09
444.92	3.08
445.275	3.09
445.629	3.08
445.984	3.07
446.339	3.05
446.693	3.05
447.048	3.03
447.403	3.04
447.757	3.04
448.112	3.03
448.466	3.04
448.82	3.05
449.175	3.04
449.529	3.05
449.883	3.04
450.238	3.02
450.592	3.03
450.946	3.06
451.3	3.05
451.654	3.04
452.008	3.03
452.362	3.04
452.716	3.05
453.07	3.06
453.424	3.08
453.778	3.08
454.132	3.08
454.486	3.07
454.839	3.06
455.193	3.07
455.547	3.09
455.9	3.12
456.254	3.11
456.607	3.13
456.961	3.13
457.314	3.12
457.668	3.13
458.021	3.12
458.375	3.1
458.728	3.11
459.081	3.11
459.434	3.1
459.787	3.11
460.141	3.11
460.494	3.11
460.847	3.12
461.2	3.13
461.553	3.13
461.906	3.14
462.259	3.14
462.611	3.14
462.964	3.13
463.317	3.13
463.67	3.13
464.022	3.13
464.375	3.14
464.728	3.14
465.08	3.15
465.433	3.15
465.785	3.17
466.138	3.17
466.49	3.18
466.843	3.19
467.195	3.17
467.547	3.16
467.899	3.17
468.252	3.15
468.604	3.15
468.956	3.16
469.308	3.14
469.66	3.15
470.012	3.14
470.364	3.15
470.716	3.13
471.068	3.13
471.42	3.12
471.772	3.14
472.123	3.15
472.475	3.16
472.827	3.14
473.178	3.14
473.53	3.14
473.882	3.15
474.233	3.15
474.585	3.16
474.936	3.15
475.288	3.14
475.639	3.15
475.99	3.15
476.342	3.15
476.693	3.18
477.044	3.19
477.395	3.19
477.746	3.21
478.097	3.22
478.448	3.2
478.8	3.2
479.15	3.18
479.501	3.17
479.852	3.17
480.203	3.21
480.554	3.21
480.905	3.22
481.255	3.22
481.606	3.24
481.957	3.24
482.307	3.25
482.658	3.26
483.009	3.25
483.359	3.26
483.709	3.26
484.06	3.27
484.41	3.27
484.761	3.28
485.111	3.27
485.461	3.27
485.811	3.28
486.162	3.29
486.512	3.31
486.862	3.31
487.212	3.31
487.562	3.31
487.912	3.31
488.262	3.31
488.612	3.3
488.961	3.3
489.311	3.3
489.661	3.31
490.011	3.32
490.36	3.32
490.71	3.32
491.06	3.33
491.409	3.31
491.759	3.32
492.108	3.32
492.458	3.32
492.807	3.32
493.157	3.33
493.506	3.32
493.855	3.3
494.204	3.3
494.554	3.31
494.903	3.31
495.252	3.3
495.601	3.31
495.95	3.34
496.299	3.34
496.648	3.36
496.997	3.34
497.346	3.34
497.695	3.34
498.043	3.33
498.392	3.34
498.741	3.36
499.09	3.36
499.438	3.37
499.787	3.37
500.135	3.37
500.484	3.38
500.832	3.4
501.181	3.42
501.529	3.43
501.878	3.42
502.226	3.43
502.574	3.46
502.923	3.46
503.271	3.46
503.619	3.47
503.967	3.46
504.315	3.47
504.663	3.47
505.011	3.45
505.359	3.44
505.707	3.44
506.055	3.45
506.403	3.46
506.751	3.46
507.098	3.47
507.446	3.47
507.794	3.46
508.141	3.49
508.489	3.47
508.837	3.47
509.184	3.49
509.531	3.48
509.879	3.47
510.226	3.48
510.574	3.49
510.921	3.49
511.268	3.48
511.616	3.5
511.963	3.51
512.31	3.55
512.657	3.55
513.004	3.54
513.351	3.54
513.698	3.54
514.045	3.52
514.392	3.53
514.739	3.53
515.086	3.53
515.432	3.51
515.779	3.52
516.126	3.53
516.473	3.52
516.819	3.53
517.166	3.57
517.512	3.56
517.859	3.55
518.205	3.55
518.552	3.56
518.898	3.55
519.245	3.55
519.591	3.56
519.937	3.56
520.283	3.59
520.629	3.6
520.976	3.6
521.322	3.61
521.668	3.6
522.014	3.62
522.36	3.63
522.706	3.66
523.052	3.68
523.398	3.66
523.743	3.67
524.089	3.69
524.435	3.66
524.781	3.68
525.126	3.69
525.472	3.69
525.817	3.71
526.163	3.71
526.509	3.71
526.854	3.71
527.199	3.72
527.545	3.71
527.89	3.71
528.235	3.71
528.581	3.71
528.926	3.74
529.271	3.74
529.616	3.74
529.961	3.72
530.306	3.72
530.651	3.72
530.996	3.73
531.341	3.73
531.686	3.73
532.031	3.74
532.376	3.73
532.721	3.73
533.065	3.73
533.41	3.74
533.755	3.74
534.099	3.73
534.444	3.72
534.788	3.73
535.133	3.74
535.477	3.75
535.822	3.76
536.166	3.73
536.51	3.73
536.855	3.74
537.199	3.76
537.543	3.78
537.887	3.79
538.231	3.78
538.576	3.79
538.92	3.8
539.264	3.8
539.608	3.8
539.951	3.79
540.295	3.79
540.639	3.8
540.983	3.81
541.327	3.81
541.671	3.84
542.014	3.85
542.358	3.84
542.701	3.85
543.045	3.85
543.389	3.87
543.732	3.88
544.075	3.88
544.419	3.87
544.762	3.85
545.105	3.85
545.449	3.85
545.792	3.85
546.135	3.85
546.478	3.85
546.821	3.86
547.165	3.87
547.508	3.86
547.851	3.85
548.194	3.84
548.536	3.82
548.879	3.8
549.222	3.78
549.565	3.79
549.908	3.79
550.25	3.78
550.593	3.76
550.936	3.78
551.278	3.78
551.621	3.78
551.963	3.81
552.306	3.81
552.648	3.81
552.991	3.8
553.333	3.81
553.675	3.83
554.017	3.81
554.36	3.85
554.702	3.86
555.044	3.84
555.386	3.85
555.728	3.89
556.07	3.91
556.412	3.92
556.754	3.88
557.096	3.86
557.438	3.84
557.78	3.86
558.121	3.83
558.463	3.82
558.805	3.83
559.147	3.83
559.488	3.82
559.83	3.82
560.171	3.82
560.513	3.81
560.854	3.81
561.196	3.85
561.537	3.82
561.878	3.85
562.22	3.84
562.561	3.85
562.902	3.85
563.243	3.86
563.584	3.83
563.925	3.91
564.266	3.9
564.607	3.92
564.948	3.9
565.289	3.91
565.63	3.88
565.971	3.86
566.312	3.85
566.653	3.86
566.993	3.86
567.334	3.86
567.675	3.89
568.015	3.88
568.356	3.85
568.696	3.86
569.037	3.84
569.377	3.82
569.718	3.83
570.058	3.82
570.398	3.8
570.739	3.81
571.079	3.77
571.419	3.78
571.759	3.77
572.099	3.75
572.439	3.76
572.779	3.76
573.119	3.78
573.459	3.79
573.799	3.8
574.139	3.82
574.479	3.83
574.819	3.82
575.158	3.85
575.498	3.85
575.838	3.81
576.177	3.81
576.517	3.85
576.856	3.84
577.196	3.85
577.535	3.84
577.875	3.84
578.214	3.85
578.553	3.86
578.893	3.88
579.232	3.93
579.571	3.91
579.91	3.94
580.25	3.93
580.589	3.94
580.928	3.91
581.267	3.9
581.606	3.88
581.945	3.84
582.283	3.8
582.622	3.79
582.961	3.85
583.3	3.88
583.639	3.87
583.977	3.89
584.316	3.87
584.654	3.87
584.993	3.85
585.332	3.87
585.67	3.85
586.008	3.83
586.347	3.81
586.685	3.78
587.024	3.77
587.362	3.78
587.7	3.83
588.038	3.91
588.376	3.88
588.715	3.89
589.053	3.93
589.391	3.93
589.729	3.94
590.067	3.9
590.404	3.88
590.742	3.88
591.08	3.91
591.418	3.92
591.756	3.94
592.093	3.96
592.431	3.94
592.769	3.96
593.106	3.98
593.444	4
593.781	4.03
594.119	4.02
594.456	4.01
594.793	3.97
595.131	3.93
595.468	3.97
595.805	3.97
596.143	3.99
596.48	4.01
596.817	4.03
597.154	4.04
597.491	4.05
597.828	4.05
598.165	4
598.502	4
598.839	4.02
599.176	4.04
599.512	4.05
599.849	4.08
600.186	4.06
600.523	4.06
600.859	4.07
601.196	4.09
601.532	4.11
601.869	4.14
602.205	4.16
602.542	4.13
602.878	4.13
603.215	4.11
603.551	4.11
603.887	4.1
604.223	4.09
604.56	4.12
604.896	4.16
605.232	4.19
605.568	4.18
605.904	4.17
606.24	4.2
606.576	4.2
606.912	4.17
607.248	4.21
607.583	4.18
607.919	4.15
608.255	4.13
608.591	4.15
608.926	4.14
609.262	4.1
609.597	4.13
609.933	4.15
610.268	4.14
610.604	4.12
610.939	4.12
611.275	4.13
611.61	4.08
611.945	4
612.281	4.01
612.616	4.03
612.951	4.07
613.286	4.06
613.621	4.08
613.956	4.12
614.291	4.1
614.626	4.14
614.961	4.18
615.296	4.23
615.631	4.21
615.966	4.2
616.3	4.19
616.635	4.21
616.97	4.25
617.304	4.25
617.639	4.26
617.973	4.3
618.308	4.32
618.642	4.35
618.977	4.37
619.311	4.39
619.646	4.41
619.98	4.42
620.314	4.4
620.648	4.38
620.983	4.34
621.317	4.31
621.651	4.36
621.985	4.32
622.319	4.3
622.653	4.33
622.987	4.29
623.321	4.38
623.655	4.38
623.988	4.34
624.322	4.33
624.656	4.34
624.99	4.33
625.323	4.33
625.657	4.35
625.99	4.37
626.324	4.36
626.657	4.28
626.991	4.25
627.324	4.23
627.658	4.25
627.991	4.26
628.324	4.29
628.657	4.26
628.991	4.3
629.324	4.33
629.657	4.29
629.99	4.37
630.323	4.33
630.656	4.29
630.989	4.29
631.322	4.3
631.655	4.29
631.987	4.3
632.32	4.25
632.653	4.2
632.986	4.24
633.318	4.25
633.651	4.28
633.984	4.28
634.316	4.28
634.649	4.25
634.981	4.23
635.313	4.23
635.646	4.24
635.978	4.25
636.31	4.25
636.643	4.29
636.975	4.22
637.307	4.26
637.639	4.26
637.971	4.26
638.303	4.26
638.635	4.29
638.967	4.32
639.299	4.31
639.631	4.37
639.963	4.32
640.295	4.3
640.626	4.34
640.958	4.34
641.29	4.4
641.621	4.41
641.953	4.39
642.285	4.38
642.616	4.42
642.948	4.33
643.279	4.3
643.61	4.34
643.942	4.33
644.273	4.37
644.604	4.38
644.936	4.38
645.267	4.4
645.598	4.38
645.929	4.38
646.26	4.41
646.591	4.42
646.922	4.42
647.253	4.41
647.584	4.4
647.915	4.39
648.245	4.42
648.576	4.45
648.907	4.49
649.238	4.49
649.568	4.44
649.899	4.52
650.229	4.54
650.56	4.5
650.89	4.5
651.221	4.44
651.551	4.48
651.882	4.48
652.212	4.5
652.542	4.56
652.872	4.6
653.203	4.61
653.533	4.58
653.863	4.63
654.193	4.59
654.523	4.55
654.853	4.59
655.183	4.6
655.513	4.6
655.843	4.6
656.172	4.67
656.502	4.58
656.832	4.54
657.162	4.55
657.491	4.58
657.821	4.6
658.15	4.64
658.48	4.64
658.809	4.66
659.139	4.67
659.468	4.63
659.798	4.6
660.127	4.58
660.456	4.55
660.785	4.55
661.115	4.62
661.444	4.64
661.773	4.63
662.102	4.56
662.431	4.58
662.76	4.61
663.089	4.52
663.418	4.62
663.747	4.67
664.076	4.69
664.404	4.68
664.733	4.71
665.062	4.67
665.39	4.63
665.719	4.65
666.048	4.62
666.376	4.65
666.705	4.67
667.033	4.68
667.362	4.68
667.69	4.61
668.018	4.59
668.347	4.66
668.675	4.66
669.003	4.66
669.331	4.68
669.659	4.66
669.987	4.76
670.315	4.73
670.643	4.73
670.971	4.67
671.299	4.6
671.627	4.54
671.955	4.5
672.283	4.53
672.61	4.5
672.938	4.58
673.266	4.49
673.593	4.42
673.921	4.54
674.249	4.6
674.576	4.62
674.904	4.54
675.231	4.5
675.558	4.58
675.886	4.62
676.213	4.53
