Data from BU26943_Reflection_00011.txt Node
Date: Tue Nov 19 11:02:35 EST 2019
User: vgr7
Spectrometer: USB2G7710
Scans to average: 3
Trigger mode: 4
Integration Time (sec): 2.000000E-2
Electric dark correction enabled: true
Boxcar width: 10
XAxis mode: Wavelengths
Number of Pixels in Spectrum: 2048
>>>>>Begin Spectral Data<<<<<
177.721	34.39
178.105	67.21
178.488	56.91
178.871	65.96
179.254	22.22
179.636	121.74
180.019	-593.55
180.402	620
180.785	-345.45
181.168	-169.23
181.55	-468.97
181.933	2138.46
182.316	-1873.68
182.698	1303.7
183.081	-350.35
183.463	-353.02
183.846	-205.28
184.228	-212.27
184.611	-157.26
184.993	-189.83
185.376	-209.95
185.758	-129.81
186.14	-156.16
186.522	-139.13
186.904	-106.93
187.287	-80.26
187.669	-54.86
188.051	-59.36
188.433	-57.02
188.815	-53.02
189.197	-65.62
189.579	-56.56
189.961	-48.06
190.342	-49.59
190.724	-49.86
191.106	-49.46
191.488	-38.53
191.869	-46.66
192.251	-42.93
192.633	-42.64
193.014	-36.6
193.396	-48.93
193.777	-46.05
194.159	-41.05
194.54	-43.39
194.922	-59.06
195.303	-64.15
195.684	-84.29
196.065	-81.89
196.447	-69.43
196.828	-62.7
197.209	-58.67
197.59	-62.09
197.971	-63.1
198.352	-59.91
198.733	-61.62
199.114	-47.2
199.495	-67.54
199.876	-66.67
200.257	-72.68
200.638	-63.67
201.018	-67.56
201.399	-62.31
201.78	-66.25
202.16	-82.52
202.541	-82.13
202.922	-65.89
203.302	-63.25
203.683	-62.86
204.063	-69.19
204.444	-74.14
204.824	-82.84
205.204	-60.5
205.585	-58.72
205.965	-61.31
206.345	-62
206.725	-64.83
207.106	-64.84
207.486	-57.44
207.866	-52.38
208.246	-46.54
208.626	-58.11
209.006	-60.38
209.386	-55.52
209.766	-50.66
210.145	-42.92
210.525	-47.39
210.905	-49.48
211.285	-46.31
211.664	-39.71
212.044	-33.02
212.424	-30.01
212.803	-33.76
213.183	-42.21
213.562	-31.72
213.942	-33.1
214.321	-34.94
214.701	-48.65
215.08	-57.52
215.459	-49.12
215.838	-51.23
216.218	-59.37
216.597	-43.04
216.976	-39.56
217.355	-38.59
217.734	-42.34
218.113	-39.04
218.492	-36.44
218.871	-42.69
219.25	-50.12
219.629	-54.02
220.008	-48.76
220.387	-62.01
220.766	-42.27
221.144	-46.02
221.523	-62.26
221.902	-63.99
222.28	-48.71
222.659	-27.95
223.037	-24
223.416	-20.06
223.794	-17.63
224.173	-19.49
224.551	-18.57
224.929	-16.97
225.308	-19.88
225.686	-18.09
226.064	-19.7
226.442	-16.51
226.821	-12.48
227.199	-10.59
227.577	-8.34
227.955	-8.35
228.333	-4.27
228.711	-5.08
229.089	-4.15
229.467	-1.77
229.845	-1.13
230.222	-3.15
230.6	-3.72
230.978	-1.43
231.356	-3.02
231.733	-1.09
232.111	0.2
232.488	0.48
232.866	-0.12
233.243	2.57
233.621	3.81
233.998	4.54
234.376	5.53
234.753	6.27
235.13	6.71
235.508	7.03
235.885	6.57
236.262	4.47
236.639	3.77
237.016	4.02
237.393	4.04
237.77	3.78
238.147	4.19
238.524	4.19
238.901	2.76
239.278	2.78
239.655	2.56
240.032	2.64
240.409	2.37
240.785	2.33
241.162	2.58
241.539	2.59
241.915	2.54
242.292	2.29
242.668	2.27
243.045	2.72
243.421	2.65
243.798	3.15
244.174	3.69
244.551	3.77
244.927	3.7
245.303	3.65
245.679	3.81
246.056	3.67
246.432	3.64
246.808	3.96
247.184	3.99
247.56	3.63
247.936	3.78
248.312	3.85
248.688	4.02
249.064	3.87
249.44	4.01
249.815	4.05
250.191	4.11
250.567	4.1
250.943	4.04
251.318	4.04
251.694	3.76
252.069	3.66
252.445	3.71
252.82	3.95
253.196	3.78
253.571	3.89
253.947	3.74
254.322	3.63
254.697	3.3
255.073	3.31
255.448	3.81
255.823	3.83
256.198	3.81
256.573	3.76
256.948	3.47
257.323	3.28
257.698	3.33
258.073	3.48
258.448	3.47
258.823	3.48
259.198	3.45
259.573	3.36
259.948	3.3
260.322	3.25
260.697	3.18
261.072	3.3
261.446	3.36
261.821	3.39
262.195	3.37
262.57	3.45
262.944	3.47
263.319	3.48
263.693	3.34
264.067	3.22
264.442	3.05
264.816	3.07
265.19	2.96
265.564	3.05
265.938	2.88
266.313	2.66
266.687	2.63
267.061	2.65
267.435	2.85
267.809	2.75
268.183	2.86
268.556	2.76
268.93	2.78
269.304	2.62
269.678	2.94
270.051	3.1
270.425	3.17
270.799	3.1
271.172	2.99
271.546	3.13
271.919	3.24
272.293	3.46
272.666	3.56
273.04	3.53
273.413	3.33
273.787	3.19
274.16	3.36
274.533	3.27
274.906	3.33
275.279	3.22
275.653	3.45
276.026	3.34
276.399	3.34
276.772	3.31
277.145	3.37
277.518	3.08
277.891	2.93
278.263	2.85
278.636	2.94
279.009	2.87
279.382	2.64
279.755	2.56
280.127	2.34
280.5	2.37
280.872	2.61
281.245	2.64
281.617	2.89
281.99	2.82
282.362	2.91
282.735	2.81
283.107	2.88
283.479	2.77
283.852	2.81
284.224	2.91
284.596	2.99
284.968	2.97
285.34	3.07
285.713	3.13
286.085	3.02
286.457	2.94
286.829	2.83
287.201	2.89
287.572	2.85
287.944	3.04
288.316	3.12
288.688	3.18
289.06	3.17
289.431	3.23
289.803	3.33
290.175	3.28
290.546	3.36
290.918	3.3
291.289	3.21
291.661	3.25
292.032	3.12
292.403	3.08
292.775	3.14
293.146	3.15
293.517	3.02
293.889	3.2
294.26	3.29
294.631	3.55
295.002	3.58
295.373	3.69
295.744	3.56
296.115	3.52
296.486	3.39
296.857	3.48
297.228	3.35
297.599	3.41
297.97	3.5
298.34	3.39
298.711	3.42
299.082	3.57
299.452	3.49
299.823	3.62
300.194	3.61
300.564	3.57
300.935	3.6
301.305	3.66
301.676	3.55
302.046	3.49
302.416	3.45
302.787	3.52
303.157	3.48
303.527	3.55
303.897	3.48
304.267	3.48
304.637	3.5
305.008	3.56
305.378	3.53
305.748	3.52
306.117	3.64
306.487	3.75
306.857	3.82
307.227	3.85
307.597	3.8
307.967	3.88
308.336	3.97
308.706	4.03
309.076	4.3
309.445	4.42
309.815	4.42
310.184	4.41
310.554	4.37
310.923	4.36
311.293	4.38
311.662	4.46
312.031	4.48
312.401	4.47
312.77	4.44
313.139	4.46
313.508	4.54
313.877	4.59
314.246	4.52
314.616	4.49
314.985	4.53
315.353	4.71
315.722	4.78
316.091	4.74
316.46	4.73
316.829	4.65
317.198	4.6
317.567	4.74
317.935	4.83
318.304	5.08
318.672	5.26
319.041	5.33
319.41	5.37
319.778	5.53
320.147	5.53
320.515	5.57
320.883	5.51
321.252	5.46
321.62	5.52
321.988	5.71
322.357	5.76
322.725	5.82
323.093	5.68
323.461	5.77
323.829	5.83
324.197	5.8
324.565	5.82
324.933	5.92
325.301	5.91
325.669	5.89
326.037	5.87
326.405	5.86
326.772	5.95
327.14	5.92
327.508	5.84
327.875	5.86
328.243	5.93
328.61	5.95
328.978	5.94
329.346	5.99
329.713	5.97
330.08	5.9
330.448	6.05
330.815	6.15
331.182	5.95
331.55	5.87
331.917	5.84
332.284	5.85
332.651	5.95
333.018	5.85
333.385	5.88
333.752	5.77
334.119	5.66
334.486	5.6
334.853	5.66
335.22	5.61
335.587	5.65
335.954	5.65
336.32	5.75
336.687	5.76
337.054	5.74
337.42	5.6
337.787	5.61
338.153	5.53
338.52	5.59
338.886	5.73
339.253	5.7
339.619	5.85
339.986	5.74
340.352	5.66
340.718	5.74
341.084	5.72
341.451	5.76
341.817	5.87
342.183	5.79
342.549	5.78
342.915	5.93
343.281	5.91
343.647	5.89
344.013	5.75
344.379	5.8
344.745	5.88
345.11	6.01
345.476	6.09
345.842	6.13
346.208	6.14
346.573	6.09
346.939	6.32
347.304	6.3
347.67	6.3
348.035	6.21
348.401	6.21
348.766	6.17
349.132	6.27
349.497	6.29
349.862	6.32
350.228	6.31
350.593	6.25
350.958	6.42
351.323	6.38
351.688	6.48
352.053	6.45
352.418	6.43
352.783	6.43
353.148	6.4
353.513	6.34
353.878	6.26
354.243	6.29
354.608	6.18
354.972	6.23
355.337	6.33
355.702	6.32
356.066	6.31
356.431	6.34
356.795	6.17
357.16	6.14
357.524	6.19
357.889	6.25
358.253	6.23
358.618	6.14
358.982	6.14
359.346	6.17
359.71	6.17
360.075	6.17
360.439	6.1
360.803	6.17
361.167	6.19
361.531	6.29
361.895	6.25
362.259	6.31
362.623	6.21
362.987	6.19
363.351	6.18
363.714	6.18
364.078	6.12
364.442	6.15
364.806	6.15
365.169	6.11
365.533	6.12
365.896	6.11
366.26	6.04
366.623	6.1
366.987	5.99
367.35	5.99
367.714	5.89
368.077	5.86
368.44	5.78
368.803	5.72
369.167	5.55
369.53	5.58
369.893	5.47
370.256	5.48
370.619	5.43
370.982	5.46
371.345	5.45
371.708	5.51
372.071	5.49
372.434	5.45
372.797	5.48
373.159	5.35
373.522	5.31
373.885	5.35
374.247	5.28
374.61	5.23
374.973	5.19
375.335	5.17
375.698	5.19
376.06	5.14
376.423	5.13
376.785	5.13
377.147	5.06
377.51	5.06
377.872	5.02
378.234	5.03
378.596	4.97
378.958	4.97
379.321	4.91
379.683	4.91
380.045	4.88
380.407	4.78
380.769	4.79
381.13	4.78
381.492	4.69
381.854	4.65
382.216	4.7
382.578	4.67
382.939	4.67
383.301	4.6
383.663	4.58
384.024	4.52
384.386	4.51
384.747	4.51
385.109	4.48
385.47	4.5
385.832	4.45
386.193	4.41
386.554	4.36
386.916	4.36
387.277	4.33
387.638	4.35
387.999	4.37
388.36	4.3
388.721	4.3
389.082	4.3
389.443	4.31
389.804	4.26
390.165	4.25
390.526	4.21
390.887	4.18
391.248	4.14
391.609	4.14
391.969	4.14
392.33	4.07
392.691	4.04
393.051	4.02
393.412	4.03
393.772	4.04
394.133	4
394.493	3.98
394.854	3.97
395.214	3.9
395.574	3.86
395.935	3.88
396.295	3.86
396.655	3.86
397.015	3.83
397.376	3.81
397.736	3.81
398.096	3.78
398.456	3.78
398.816	3.78
399.176	3.74
399.535	3.68
399.895	3.7
400.255	3.69
400.615	3.68
400.975	3.64
401.334	3.63
401.694	3.64
402.054	3.63
402.413	3.6
402.773	3.59
403.132	3.63
403.492	3.63
403.851	3.59
404.211	3.55
404.57	3.57
404.929	3.58
405.288	3.55
405.648	3.58
406.007	3.56
406.366	3.57
406.725	3.58
407.084	3.58
407.443	3.58
407.802	3.55
408.161	3.53
408.52	3.55
408.879	3.53
409.238	3.53
409.596	3.51
409.955	3.51
410.314	3.51
410.673	3.45
411.031	3.47
411.39	3.46
411.748	3.47
412.107	3.44
412.465	3.42
412.824	3.41
413.182	3.38
413.54	3.39
413.899	3.37
414.257	3.36
414.615	3.32
414.974	3.32
415.332	3.34
415.69	3.32
416.048	3.3
416.406	3.32
416.764	3.31
417.122	3.3
417.48	3.3
417.838	3.3
418.195	3.29
418.553	3.26
418.911	3.27
419.269	3.27
419.626	3.27
419.984	3.27
420.342	3.26
420.699	3.24
421.057	3.24
421.414	3.24
421.772	3.26
422.129	3.27
422.486	3.27
422.844	3.25
423.201	3.24
423.558	3.24
423.915	3.23
424.273	3.23
424.63	3.23
424.987	3.23
425.344	3.22
425.701	3.23
426.058	3.24
426.415	3.22
426.772	3.22
427.128	3.22
427.485	3.21
427.842	3.22
428.199	3.23
428.555	3.22
428.912	3.21
429.269	3.17
429.625	3.18
429.982	3.2
430.338	3.2
430.695	3.19
431.051	3.19
431.407	3.2
431.764	3.17
432.12	3.19
432.476	3.17
432.832	3.17
433.189	3.16
433.545	3.15
433.901	3.15
434.257	3.13
434.613	3.11
434.969	3.11
435.325	3.09
435.681	3.1
436.036	3.1
436.392	3.1
436.748	3.11
437.104	3.12
437.459	3.11
437.815	3.12
438.171	3.12
438.526	3.1
438.882	3.1
439.237	3.1
439.593	3.1
439.948	3.12
440.304	3.12
440.659	3.12
441.014	3.12
441.369	3.11
441.725	3.12
442.08	3.13
442.435	3.13
442.79	3.13
443.145	3.13
443.5	3.14
443.855	3.14
444.21	3.15
444.565	3.14
444.92	3.15
445.275	3.14
445.629	3.14
445.984	3.14
446.339	3.12
446.693	3.13
447.048	3.11
447.403	3.1
447.757	3.1
448.112	3.1
448.466	3.11
448.82	3.11
449.175	3.12
449.529	3.13
449.883	3.11
450.238	3.12
450.592	3.11
450.946	3.11
451.3	3.1
451.654	3.08
452.008	3.08
452.362	3.05
452.716	3.06
453.07	3.06
453.424	3.06
453.778	3.06
454.132	3.06
454.486	3.06
454.839	3.07
455.193	3.06
455.547	3.07
455.9	3.05
456.254	3.05
456.607	3.05
456.961	3.05
457.314	3.06
457.668	3.07
458.021	3.05
458.375	3.04
458.728	3.04
459.081	3.06
459.434	3.08
459.787	3.07
460.141	3.08
460.494	3.09
460.847	3.1
461.2	3.11
461.553	3.1
461.906	3.12
462.259	3.11
462.611	3.13
462.964	3.13
463.317	3.14
463.67	3.14
464.022	3.13
464.375	3.11
464.728	3.11
465.08	3.13
465.433	3.15
465.785	3.15
466.138	3.16
466.49	3.14
466.843	3.12
467.195	3.14
467.547	3.14
467.899	3.14
468.252	3.14
468.604	3.15
468.956	3.15
469.308	3.14
469.66	3.15
470.012	3.15
470.364	3.15
470.716	3.18
471.068	3.19
471.42	3.22
471.772	3.24
472.123	3.26
472.475	3.27
472.827	3.28
473.178	3.28
473.53	3.29
473.882	3.31
474.233	3.32
474.585	3.31
474.936	3.32
475.288	3.33
475.639	3.33
475.99	3.32
476.342	3.32
476.693	3.32
477.044	3.33
477.395	3.33
477.746	3.31
478.097	3.28
478.448	3.26
478.8	3.26
479.15	3.26
479.501	3.25
479.852	3.23
480.203	3.23
480.554	3.22
480.905	3.23
481.255	3.22
481.606	3.23
481.957	3.23
482.307	3.23
482.658	3.23
483.009	3.24
483.359	3.25
483.709	3.25
484.06	3.25
484.41	3.26
484.761	3.26
485.111	3.27
485.461	3.27
485.811	3.27
486.162	3.27
486.512	3.27
486.862	3.27
487.212	3.28
487.562	3.28
487.912	3.3
488.262	3.3
488.612	3.3
488.961	3.29
489.311	3.29
489.661	3.29
490.011	3.29
490.36	3.29
490.71	3.27
491.06	3.27
491.409	3.26
491.759	3.24
492.108	3.25
492.458	3.26
492.807	3.26
493.157	3.26
493.506	3.26
493.855	3.25
494.204	3.25
494.554	3.24
494.903	3.24
495.252	3.24
495.601	3.22
495.95	3.24
496.299	3.26
496.648	3.28
496.997	3.28
497.346	3.3
497.695	3.31
498.043	3.34
498.392	3.36
498.741	3.39
499.09	3.43
499.438	3.45
499.787	3.46
500.135	3.49
500.484	3.53
500.832	3.56
501.181	3.62
501.529	3.68
501.878	3.75
502.226	3.8
502.574	3.83
502.923	3.89
503.271	3.95
503.619	4
503.967	4.06
504.315	4.12
504.663	4.18
505.011	4.25
505.359	4.32
505.707	4.41
506.055	4.47
506.403	4.53
506.751	4.59
507.098	4.69
507.446	4.77
507.794	4.85
508.141	4.93
508.489	5.02
508.837	5.11
509.184	5.18
509.531	5.27
509.879	5.36
510.226	5.45
510.574	5.55
510.921	5.63
511.268	5.73
511.616	5.85
511.963	5.94
512.31	6.09
512.657	6.2
513.004	6.31
513.351	6.44
513.698	6.61
514.045	6.76
514.392	6.93
514.739	7.1
515.086	7.25
515.432	7.43
515.779	7.59
516.126	7.78
516.473	7.93
516.819	8.1
517.166	8.27
517.512	8.42
517.859	8.57
518.205	8.72
518.552	8.86
518.898	9.01
519.245	9.17
519.591	9.31
519.937	9.48
520.283	9.68
520.629	9.87
520.976	10.03
521.322	10.23
521.668	10.4
522.014	10.58
522.36	10.79
522.706	11
523.052	11.23
523.398	11.46
523.743	11.72
524.089	11.98
524.435	12.25
524.781	12.51
525.126	12.75
525.472	12.96
525.817	13.16
526.163	13.34
526.509	13.52
526.854	13.68
527.199	13.81
527.545	13.94
527.89	14.09
528.235	14.24
528.581	14.4
528.926	14.55
529.271	14.71
529.616	14.88
529.961	15.05
530.306	15.21
530.651	15.36
530.996	15.54
531.341	15.71
531.686	15.88
532.031	16.06
532.376	16.22
532.721	16.41
533.065	16.6
533.41	16.81
533.755	17
534.099	17.22
534.444	17.44
534.788	17.65
535.133	17.87
535.477	18.08
535.822	18.31
536.166	18.57
536.51	18.83
536.855	19.08
537.199	19.34
537.543	19.63
537.887	19.92
538.231	20.21
538.576	20.53
538.92	20.82
539.264	21.11
539.608	21.39
539.951	21.66
540.295	21.91
540.639	22.13
540.983	22.35
541.327	22.55
541.671	22.79
542.014	23.02
542.358	23.23
542.701	23.47
543.045	23.67
543.389	23.86
543.732	24.06
544.075	24.28
544.419	24.5
544.762	24.72
545.105	24.95
545.449	25.2
545.792	25.41
546.135	25.66
546.478	25.89
546.821	26.16
547.165	26.41
547.508	26.64
547.851	26.94
548.194	27.21
548.536	27.51
548.879	27.77
549.222	28.02
549.565	28.29
549.908	28.51
550.25	28.75
550.593	29.04
550.936	29.31
551.278	29.58
551.621	29.82
551.963	30.1
552.306	30.35
552.648	30.61
552.991	30.86
553.333	31.05
553.675	31.32
554.017	31.55
554.36	31.82
554.702	32.11
555.044	32.32
555.386	32.55
555.728	32.75
556.07	32.99
556.412	33.2
556.754	33.43
557.096	33.71
557.438	33.97
557.78	34.18
558.121	34.4
558.463	34.6
558.805	34.82
559.147	35.05
559.488	35.26
559.83	35.46
560.171	35.64
560.513	35.88
560.854	36.03
561.196	36.23
561.537	36.43
561.878	36.56
562.22	36.75
562.561	36.98
562.902	37.18
563.243	37.36
563.584	37.55
563.925	37.73
564.266	37.89
564.607	38.07
564.948	38.22
565.289	38.38
565.63	38.59
565.971	38.76
566.312	38.86
566.653	39.03
566.993	39.14
567.334	39.3
567.675	39.46
568.015	39.65
568.356	39.79
568.696	39.91
569.037	40.08
569.377	40.25
569.718	40.38
570.058	40.58
570.398	40.72
570.739	40.81
571.079	40.95
571.419	41.05
571.759	41.19
572.099	41.31
572.439	41.45
572.779	41.56
573.119	41.66
573.459	41.79
573.799	41.92
574.139	42.05
574.479	42.18
574.819	42.28
575.158	42.38
575.498	42.48
575.838	42.6
576.177	42.68
576.517	42.75
576.856	42.84
577.196	42.89
577.535	42.98
577.875	43.11
578.214	43.21
578.553	43.33
578.893	43.43
579.232	43.52
579.571	43.65
579.91	43.76
580.25	43.93
580.589	44.05
580.928	44.14
581.267	44.21
581.606	44.29
581.945	44.43
582.283	44.54
582.622	44.65
582.961	44.81
583.3	44.94
583.639	45.11
583.977	45.14
584.316	45.24
584.654	45.37
584.993	45.45
585.332	45.56
585.67	45.69
586.008	45.77
586.347	45.94
586.685	46.05
587.024	46.14
587.362	46.12
587.7	46.2
588.038	46.27
588.376	46.35
588.715	46.51
589.053	46.53
589.391	46.57
589.729	46.64
590.067	46.61
590.404	46.67
590.742	46.72
591.08	46.87
591.418	47.01
591.756	47.14
592.093	47.22
592.431	47.33
592.769	47.39
593.106	47.42
593.444	47.46
593.781	47.47
594.119	47.53
594.456	47.7
594.793	47.83
595.131	47.93
595.468	48.09
595.805	48.1
596.143	48.17
596.48	48.27
596.817	48.32
597.154	48.44
597.491	48.5
597.828	48.63
598.165	48.66
598.502	48.63
598.839	48.67
599.176	48.76
599.512	48.8
599.849	48.92
600.186	49.06
600.523	49.1
600.859	49.21
601.196	49.31
601.532	49.33
601.869	49.37
602.205	49.43
602.542	49.43
602.878	49.5
603.215	49.55
603.551	49.58
603.887	49.66
604.223	49.71
604.56	49.74
604.896	49.77
605.232	49.84
605.568	49.94
605.904	49.99
606.24	50.05
606.576	50.11
606.912	50.08
607.248	50.18
607.583	50.29
607.919	50.33
608.255	50.34
608.591	50.36
608.926	50.33
609.262	50.42
609.597	50.47
609.933	50.53
610.268	50.62
610.604	50.65
610.939	50.64
611.275	50.76
611.61	50.84
611.945	50.86
612.281	50.92
612.616	50.93
612.951	50.98
613.286	51.05
613.621	51.08
613.956	51.21
614.291	51.16
614.626	51.14
614.961	51.19
615.296	51.22
615.631	51.31
615.966	51.48
616.3	51.46
616.635	51.45
616.97	51.5
617.304	51.56
617.639	51.63
617.973	51.69
618.308	51.57
618.642	51.62
618.977	51.73
619.311	51.69
619.646	51.75
619.98	51.8
620.314	51.71
620.648	51.73
620.983	51.67
621.317	51.69
621.651	51.79
621.985	51.88
622.319	51.94
622.653	51.99
622.987	51.91
623.321	52
623.655	52.02
623.988	52.02
624.322	52.03
624.656	52.08
624.99	52.11
625.323	52.18
625.657	52.16
625.99	52.1
626.324	52.18
626.657	52.15
626.991	52.12
627.324	52.23
627.658	52.19
627.991	52.32
628.324	52.35
628.657	52.36
628.991	52.27
629.324	52.32
629.657	52.34
629.99	52.39
630.323	52.35
630.656	52.4
630.989	52.44
631.322	52.5
631.655	52.58
631.987	52.62
632.32	52.62
632.653	52.65
632.986	52.73
633.318	52.72
633.651	52.78
633.984	52.82
634.316	52.88
634.649	52.9
634.981	52.9
635.313	52.93
635.646	52.96
635.978	53.04
636.31	53.01
636.643	52.91
636.975	52.92
637.307	52.95
637.639	52.96
637.971	52.89
638.303	52.85
638.635	52.79
638.967	52.81
639.299	52.89
639.631	52.92
639.963	52.94
640.295	53.02
640.626	53.06
640.958	53.14
641.29	53.08
641.621	53.2
641.953	53.2
642.285	53.2
642.616	53.22
642.948	53.32
643.279	53.39
643.61	53.57
643.942	53.6
644.273	53.65
644.604	53.63
644.936	53.72
645.267	53.77
645.598	53.86
645.929	53.87
646.26	53.95
646.591	53.95
646.922	53.98
647.253	54.01
647.584	54.03
647.915	54.02
648.245	54.09
648.576	54.11
648.907	54.08
649.238	54.14
649.568	54.08
649.899	54.01
650.229	54.03
650.56	53.95
650.89	54.06
651.221	54.14
651.551	54.16
651.882	54.21
652.212	54.29
652.542	54.28
652.872	54.35
653.203	54.35
653.533	54.42
653.863	54.35
654.193	54.22
654.523	54.33
654.853	54.42
655.183	54.52
655.513	54.7
655.843	54.83
656.172	54.82
656.502	54.78
656.832	55
657.162	54.95
657.491	54.95
657.821	54.87
658.15	54.91
658.48	55
658.809	54.93
659.139	54.9
659.468	54.92
659.798	54.99
660.127	54.99
660.456	54.87
660.785	55.02
661.115	55.21
661.444	55.21
661.773	55.17
662.102	55.11
662.431	54.97
662.76	54.87
663.089	54.97
663.418	55.1
663.747	55.03
664.076	55.06
664.404	55.18
664.733	55.32
665.062	55.29
665.39	55.3
665.719	55.48
666.048	55.45
