Data from BU26843_Reflection_00015.txt Node
Date: Mon Nov 18 16:31:26 EST 2019
User: vgr7
Spectrometer: USB2G7710
Scans to average: 3
Trigger mode: 4
Integration Time (sec): 2.000000E-2
Electric dark correction enabled: true
Boxcar width: 10
XAxis mode: Wavelengths
Number of Pixels in Spectrum: 2048
>>>>>Begin Spectral Data<<<<<
177.721	-53.73
178.105	-443.86
178.488	736.59
178.871	244.54
179.254	91.99
179.636	157.29
180.019	37.72
180.402	120.69
180.785	-41.08
181.168	-91.82
181.55	-144.22
181.933	22.1
182.316	33.97
182.698	52.5
183.081	16.91
183.463	-25.41
183.846	148.31
184.228	151.78
184.611	238.67
184.993	-260.15
185.376	-163.98
185.758	-120.31
186.14	-114.73
186.522	-201.53
186.904	-159.7
187.287	-247.16
187.669	-69.65
188.051	-108.43
188.433	-66.85
188.815	-73.45
189.197	-80.94
189.579	-76.56
189.961	-72.13
190.342	-62.05
190.724	-46.52
191.106	-64.91
191.488	-62.03
191.869	-58.75
192.251	-63.32
192.633	-55.83
193.014	-69.73
193.396	-80.14
193.777	-82.99
194.159	-103.72
194.54	-72.4
194.922	-88.74
195.303	-89.14
195.684	-83.03
196.065	-55.25
196.447	-21.62
196.828	-20.11
197.209	-24.42
197.59	-42.2
197.971	-43.8
198.352	-20.25
198.733	-22.07
199.114	-13.32
199.495	-9.3
199.876	7.06
200.257	-14.97
200.638	7.76
201.018	13.31
201.399	6.71
201.78	18.26
202.16	1.15
202.541	-40.4
202.922	-26.66
203.302	-63.46
203.683	-75.78
204.063	-83.74
204.444	-91.59
204.824	-94.33
205.204	-132.6
205.585	-114.69
205.965	-185.49
206.345	-302.91
206.725	-377.95
207.106	-543.85
207.486	-429.01
207.866	-324.24
208.246	-231.54
208.626	-195.97
209.006	-153.09
209.386	-141.62
209.766	-178.92
210.145	-115.03
210.525	-92.3
210.905	-92.18
211.285	-72.86
211.664	-55.92
212.044	-60.08
212.424	-43.5
212.803	-50.2
213.183	-33.07
213.562	-27.4
213.942	-24.79
214.321	-23.24
214.701	-18.22
215.08	-11.84
215.459	-11.15
215.838	-13.69
216.218	-17.16
216.597	-9.93
216.976	-5.25
217.355	-3.67
217.734	-3.91
218.113	-3.41
218.492	-3.07
218.871	-5.09
219.25	6.26
219.629	0.09
220.008	8.46
220.387	-2.27
220.766	4.62
221.144	-3.03
221.523	-6.33
221.902	-16.46
222.28	-28.12
222.659	-18.68
223.037	-12.82
223.416	-19.41
223.794	-18.72
224.173	-15.68
224.551	-15.7
224.929	-23.55
225.308	-23.55
225.686	-17.26
226.064	-15.73
226.442	-9.49
226.821	-6.45
227.199	-6.88
227.577	-5.54
227.955	-8.7
228.333	-7.19
228.711	-4.1
229.089	-0.75
229.467	-2.18
229.845	-1.87
230.222	-1.37
230.6	-4.02
230.978	-4.67
231.356	-0.81
231.733	-0.71
232.111	0.15
232.488	-0.2
232.866	0.57
233.243	0.26
233.621	0.72
233.998	2.87
234.376	1.07
234.753	0.47
235.13	-0.53
235.508	0.28
235.885	1.03
236.262	0.63
236.639	0.42
237.016	0.81
237.393	2.23
237.77	2.73
238.147	3.19
238.524	3.61
238.901	4.54
239.278	5.09
239.655	5.75
240.032	5.04
240.409	4.73
240.785	4.93
241.162	5.69
241.539	6.04
241.915	5.62
242.292	5.24
242.668	5.13
243.045	5.49
243.421	5.33
243.798	5.27
244.174	4.98
244.551	4.77
244.927	4.83
245.303	4.87
245.679	4.88
246.056	4.98
246.432	5.19
246.808	5.11
247.184	4.69
247.56	4.35
247.936	4.27
248.312	4.31
248.688	4.62
249.064	4.59
249.44	4.33
249.815	4.22
250.191	4.39
250.567	4.61
250.943	4.37
251.318	4.54
251.694	4.39
252.069	4.83
252.445	4.87
252.82	4.59
253.196	4.39
253.571	4.38
253.947	4.34
254.322	4.21
254.697	4.21
255.073	4.14
255.448	4.37
255.823	4.42
256.198	4.47
256.573	4.21
256.948	4.14
257.323	4.31
257.698	4.31
258.073	4.43
258.448	4.25
258.823	4.44
259.198	4.16
259.573	4.2
259.948	4.13
260.322	4.1
260.697	4.02
261.072	4.02
261.446	4.05
261.821	3.97
262.195	4.05
262.57	3.82
262.944	3.84
263.319	3.94
263.693	4.05
264.067	4.18
264.442	4.15
264.816	3.9
265.19	3.8
265.564	3.87
265.938	3.69
266.313	3.62
266.687	3.56
267.061	3.85
267.435	4.05
267.809	3.96
268.183	4.09
268.556	4.22
268.93	4.23
269.304	4.08
269.678	4.3
270.051	4.25
270.425	4.44
270.799	4.61
271.172	4.53
271.546	4.45
271.919	4.32
272.293	4.4
272.666	4.58
273.04	4.74
273.413	4.65
273.787	4.68
274.16	4.63
274.533	4.7
274.906	4.59
275.279	4.45
275.653	4.57
276.026	4.59
276.399	4.68
276.772	4.69
277.145	4.83
277.518	4.8
277.891	4.65
278.263	4.75
278.636	4.53
279.009	4.57
279.382	4.81
279.755	4.82
280.127	4.94
280.5	5
280.872	4.88
281.245	4.7
281.617	4.73
281.99	4.85
282.362	4.77
282.735	4.63
283.107	4.56
283.479	4.4
283.852	4.35
284.224	4.39
284.596	4.29
284.968	4.28
285.34	4.23
285.713	4.23
286.085	4.24
286.457	4.35
286.829	4.23
287.201	4.14
287.572	4.03
287.944	3.91
288.316	3.85
288.688	3.76
289.06	3.88
289.431	3.82
289.803	3.81
290.175	3.81
290.546	3.86
290.918	3.83
291.289	3.88
291.661	4.03
292.032	3.95
292.403	4.17
292.775	4.26
293.146	4.19
293.517	4.33
293.889	4.4
294.26	4.54
294.631	4.7
295.002	4.74
295.373	4.95
295.744	4.99
296.115	5.08
296.486	5.08
296.857	5.32
297.228	5.46
297.599	5.5
297.97	5.63
298.34	5.75
298.711	5.94
299.082	6.1
299.452	6.04
299.823	6.19
300.194	6.09
300.564	6.11
300.935	6.31
301.305	6.31
301.676	6.39
302.046	6.33
302.416	6.53
302.787	6.56
303.157	6.48
303.527	6.49
303.897	6.51
304.267	6.8
304.637	6.57
305.008	6.66
305.378	6.88
305.748	6.84
306.117	6.81
306.487	6.84
306.857	6.73
307.227	6.75
307.597	6.81
307.967	7.03
308.336	7.14
308.706	7.15
309.076	7.2
309.445	7.1
309.815	7.11
310.184	6.91
310.554	7.01
310.923	7.1
311.293	7.21
311.662	7.21
312.031	7.09
312.401	7.25
312.77	7.34
313.139	7.31
313.508	7.42
313.877	7.45
314.246	7.52
314.616	7.65
314.985	7.82
315.353	7.82
315.722	7.93
316.091	7.96
316.46	7.97
316.829	8.16
317.198	8.34
317.567	8.53
317.935	8.64
318.304	8.72
318.672	8.6
319.041	8.66
319.41	8.85
319.778	8.96
320.147	9.13
320.515	9.16
320.883	9.11
321.252	9.06
321.62	9.29
321.988	9.43
322.357	9.36
322.725	9.41
323.093	9.51
323.461	9.61
323.829	9.77
324.197	9.83
324.565	9.82
324.933	9.81
325.301	9.93
325.669	9.99
326.037	10.09
326.405	10.4
326.772	10.47
327.14	10.51
327.508	10.61
327.875	10.53
328.243	10.62
328.61	10.92
328.978	11
329.346	11.05
329.713	10.94
330.08	11.06
330.448	10.93
330.815	10.9
331.182	10.87
331.55	10.85
331.917	11.09
332.284	11.26
332.651	11.29
333.018	11.32
333.385	11.41
333.752	11.5
334.119	11.59
334.486	11.57
334.853	11.58
335.22	11.77
335.587	11.83
335.954	11.79
336.32	11.68
336.687	11.87
337.054	11.87
337.42	11.94
337.787	12.09
338.153	12.22
338.52	12.34
338.886	12.24
339.253	12.21
339.619	12.1
339.986	12.1
340.352	12.17
340.718	12.2
341.084	12.24
341.451	12.18
341.817	12.17
342.183	12.28
342.549	12.3
342.915	12.28
343.281	12.42
343.647	12.53
344.013	12.58
344.379	12.46
344.745	12.56
345.11	12.49
345.476	12.47
345.842	12.5
346.208	12.5
346.573	12.69
346.939	12.8
347.304	12.89
347.67	12.78
348.035	12.83
348.401	12.76
348.766	12.83
349.132	12.89
349.497	12.89
349.862	12.89
350.228	12.88
350.593	12.67
350.958	12.54
351.323	12.5
351.688	12.54
352.053	12.55
352.418	12.55
352.783	12.67
353.148	12.62
353.513	12.7
353.878	12.68
354.243	12.53
354.608	12.48
354.972	12.44
355.337	12.45
355.702	12.47
356.066	12.48
356.431	12.35
356.795	12.31
357.16	12.16
357.524	12.1
357.889	12.14
358.253	12.27
358.618	12.26
358.982	12.18
359.346	12.1
359.71	12.13
360.075	12.08
360.439	12
360.803	11.98
361.167	11.82
361.531	11.75
361.895	11.7
362.259	11.65
362.623	11.58
362.987	11.56
363.351	11.55
363.714	11.54
364.078	11.55
364.442	11.52
364.806	11.6
365.169	11.53
365.533	11.46
365.896	11.38
366.26	11.34
366.623	11.34
366.987	11.28
367.35	11.24
367.714	11.1
368.077	11.02
368.44	10.98
368.803	11
369.167	10.95
369.53	10.91
369.893	10.86
370.256	10.91
370.619	10.8
370.982	10.61
371.345	10.49
371.708	10.4
372.071	10.26
372.434	10.18
372.797	10.11
373.159	9.97
373.522	9.92
373.885	9.84
374.247	9.72
374.61	9.68
374.973	9.57
375.335	9.45
375.698	9.4
376.06	9.28
376.423	9.18
376.785	9.13
377.147	9.05
377.51	8.97
377.872	8.84
378.234	8.78
378.596	8.8
378.958	8.7
379.321	8.61
379.683	8.59
380.045	8.48
380.407	8.39
380.769	8.33
381.13	8.26
381.492	8.17
381.854	8.11
382.216	8.01
382.578	7.97
382.939	7.96
383.301	7.9
383.663	7.83
384.024	7.78
384.386	7.75
384.747	7.76
385.109	7.69
385.47	7.62
385.832	7.51
386.193	7.46
386.554	7.42
386.916	7.37
387.277	7.33
387.638	7.34
387.999	7.29
388.36	7.28
388.721	7.2
389.082	7.2
389.443	7.14
389.804	7.09
390.165	7.01
390.526	6.96
390.887	6.94
391.248	6.96
391.609	6.92
391.969	6.84
392.33	6.77
392.691	6.74
393.051	6.68
393.412	6.7
393.772	6.63
394.133	6.59
394.493	6.59
394.854	6.51
395.214	6.43
395.574	6.44
395.935	6.38
396.295	6.37
396.655	6.3
397.015	6.23
397.376	6.21
397.736	6.16
398.096	6.12
398.456	6.07
398.816	6
399.176	5.94
399.535	5.88
399.895	5.85
400.255	5.82
400.615	5.79
400.975	5.75
401.334	5.67
401.694	5.64
402.054	5.55
402.413	5.52
402.773	5.48
403.132	5.4
403.492	5.38
403.851	5.3
404.211	5.25
404.57	5.25
404.929	5.22
405.288	5.18
405.648	5.14
406.007	5.1
406.366	5.07
406.725	5.07
407.084	5.05
407.443	5.01
407.802	4.97
408.161	4.94
408.52	4.9
408.879	4.9
409.238	4.87
409.596	4.85
409.955	4.85
410.314	4.85
410.673	4.82
411.031	4.77
411.39	4.79
411.748	4.79
412.107	4.77
412.465	4.72
412.824	4.71
413.182	4.69
413.54	4.66
413.899	4.66
414.257	4.65
414.615	4.64
414.974	4.63
415.332	4.6
415.69	4.57
416.048	4.54
416.406	4.54
416.764	4.5
417.122	4.5
417.48	4.47
417.838	4.45
418.195	4.45
418.553	4.44
418.911	4.4
419.269	4.38
419.626	4.37
419.984	4.36
420.342	4.35
420.699	4.34
421.057	4.32
421.414	4.29
421.772	4.27
422.129	4.27
422.486	4.26
422.844	4.26
423.201	4.24
423.558	4.24
423.915	4.21
424.273	4.22
424.63	4.2
424.987	4.18
425.344	4.17
425.701	4.16
426.058	4.14
426.415	4.14
426.772	4.12
427.128	4.09
427.485	4.08
427.842	4.05
428.199	4.04
428.555	4.01
428.912	4.02
429.269	4.02
429.625	3.98
429.982	3.95
430.338	3.94
430.695	3.94
431.051	3.93
431.407	3.93
431.764	3.91
432.12	3.9
432.476	3.89
432.832	3.9
433.189	3.9
433.545	3.92
433.901	3.91
434.257	3.9
434.613	3.91
434.969	3.91
435.325	3.92
435.681	3.93
436.036	3.94
436.392	3.95
436.748	3.93
437.104	3.91
437.459	3.89
437.815	3.91
438.171	3.89
438.526	3.89
438.882	3.9
439.237	3.9
439.593	3.91
439.948	3.94
440.304	3.93
440.659	3.91
441.014	3.91
441.369	3.9
441.725	3.9
442.08	3.91
442.435	3.89
442.79	3.9
443.145	3.91
443.5	3.9
443.855	3.89
444.21	3.87
444.565	3.9
444.92	3.91
445.275	3.88
445.629	3.91
445.984	3.9
446.339	3.89
446.693	3.88
447.048	3.86
447.403	3.83
447.757	3.81
448.112	3.79
448.466	3.77
448.82	3.77
449.175	3.77
449.529	3.75
449.883	3.74
450.238	3.72
450.592	3.69
450.946	3.67
451.3	3.66
451.654	3.65
452.008	3.64
452.362	3.61
452.716	3.61
453.07	3.59
453.424	3.58
453.778	3.58
454.132	3.56
454.486	3.55
454.839	3.55
455.193	3.55
455.547	3.55
455.9	3.55
456.254	3.55
456.607	3.54
456.961	3.54
457.314	3.56
457.668	3.58
458.021	3.57
458.375	3.57
458.728	3.58
459.081	3.58
459.434	3.58
459.787	3.6
460.141	3.59
460.494	3.6
460.847	3.6
461.2	3.59
461.553	3.62
461.906	3.63
462.259	3.65
462.611	3.67
462.964	3.7
463.317	3.71
463.67	3.73
464.022	3.75
464.375	3.76
464.728	3.77
465.08	3.78
465.433	3.82
465.785	3.84
466.138	3.86
466.49	3.88
466.843	3.9
467.195	3.91
467.547	3.95
467.899	3.93
468.252	3.94
468.604	3.96
468.956	3.96
469.308	3.99
469.66	3.99
470.012	4.02
470.364	4.02
470.716	4.03
471.068	4.05
471.42	4.06
471.772	4.08
472.123	4.09
472.475	4.09
472.827	4.09
473.178	4.12
473.53	4.13
473.882	4.12
474.233	4.14
474.585	4.13
474.936	4.14
475.288	4.17
475.639	4.18
475.99	4.18
476.342	4.19
476.693	4.19
477.044	4.2
477.395	4.17
477.746	4.16
478.097	4.15
478.448	4.16
478.8	4.15
479.15	4.12
479.501	4.12
479.852	4.11
480.203	4.12
480.554	4.09
480.905	4.08
481.255	4.07
481.606	4.06
481.957	4.05
482.307	4.05
482.658	4.04
483.009	4.04
483.359	4.04
483.709	4.03
484.06	4.01
484.41	4.01
484.761	4
485.111	3.99
485.461	3.99
485.811	3.98
486.162	3.98
486.512	3.98
486.862	3.98
487.212	3.97
487.562	3.95
487.912	3.95
488.262	3.94
488.612	3.94
488.961	3.94
489.311	3.94
489.661	3.93
490.011	3.93
490.36	3.92
490.71	3.92
491.06	3.91
491.409	3.94
491.759	3.94
492.108	3.96
492.458	3.97
492.807	3.98
493.157	3.99
493.506	4
493.855	4.02
494.204	4.03
494.554	4.05
494.903	4.08
495.252	4.1
495.601	4.13
495.95	4.17
496.299	4.2
496.648	4.25
496.997	4.29
497.346	4.32
497.695	4.39
498.043	4.44
498.392	4.49
498.741	4.54
499.09	4.55
499.438	4.61
499.787	4.68
500.135	4.75
500.484	4.83
500.832	4.9
501.181	4.98
501.529	5.04
501.878	5.13
502.226	5.22
502.574	5.32
502.923	5.4
503.271	5.49
503.619	5.58
503.967	5.68
504.315	5.78
504.663	5.9
505.011	5.99
505.359	6.12
505.707	6.26
506.055	6.35
506.403	6.51
506.751	6.64
507.098	6.74
507.446	6.87
507.794	6.98
508.141	7.12
508.489	7.24
508.837	7.38
509.184	7.53
509.531	7.68
509.879	7.83
510.226	7.99
510.574	8.14
510.921	8.29
511.268	8.44
511.616	8.61
511.963	8.74
512.31	8.89
512.657	9.04
513.004	9.2
513.351	9.36
513.698	9.54
514.045	9.69
514.392	9.89
514.739	10.07
515.086	10.26
515.432	10.43
515.779	10.61
516.126	10.79
516.473	10.96
516.819	11.12
517.166	11.28
517.512	11.43
517.859	11.59
518.205	11.73
518.552	11.86
518.898	11.97
519.245	12.13
519.591	12.29
519.937	12.4
520.283	12.53
520.629	12.7
520.976	12.88
521.322	13.09
521.668	13.27
522.014	13.42
522.36	13.61
522.706	13.8
523.052	14.03
523.398	14.24
523.743	14.45
524.089	14.66
524.435	14.87
524.781	15.07
525.126	15.26
525.472	15.43
525.817	15.63
526.163	15.81
526.509	15.96
526.854	16.1
527.199	16.26
527.545	16.42
527.89	16.56
528.235	16.69
528.581	16.81
528.926	16.96
529.271	17.14
529.616	17.27
529.961	17.42
530.306	17.58
530.651	17.75
530.996	17.94
531.341	18.14
531.686	18.33
532.031	18.55
532.376	18.76
532.721	19.01
533.065	19.23
533.41	19.47
533.755	19.73
534.099	19.99
534.444	20.27
534.788	20.54
535.133	20.78
535.477	21.07
535.822	21.36
536.166	21.65
536.51	21.98
536.855	22.39
537.199	22.77
537.543	23.17
537.887	23.59
538.231	23.95
538.576	24.34
538.92	24.71
539.264	25.06
539.608	25.41
539.951	25.75
540.295	26.06
540.639	26.36
540.983	26.66
541.327	26.97
541.671	27.26
542.014	27.55
542.358	27.85
542.701	28.18
543.045	28.48
543.389	28.8
543.732	29.1
544.075	29.4
544.419	29.71
544.762	30.03
545.105	30.33
545.449	30.72
545.792	31.07
546.135	31.46
546.478	31.91
546.821	32.35
547.165	32.74
547.508	33.22
547.851	33.71
548.194	34.13
548.536	34.58
548.879	35.02
549.222	35.49
549.565	35.91
549.908	36.29
550.25	36.75
550.593	37.15
550.936	37.56
551.278	37.99
551.621	38.43
551.963	38.84
552.306	39.28
552.648	39.65
552.991	40.1
553.333	40.51
553.675	40.81
554.017	41.14
554.36	41.52
554.702	41.8
555.044	42.11
555.386	42.49
555.728	42.81
556.07	43.2
556.412	43.57
556.754	43.95
557.096	44.3
557.438	44.67
557.78	45.06
558.121	45.47
558.463	45.8
558.805	46.15
559.147	46.48
559.488	46.79
559.83	47.15
560.171	47.43
560.513	47.79
560.854	48.19
561.196	48.48
561.537	48.8
561.878	49.12
562.22	49.39
562.561	49.65
562.902	49.93
563.243	50.11
563.584	50.29
563.925	50.58
564.266	50.87
564.607	51.14
564.948	51.3
565.289	51.51
565.63	51.77
565.971	52.01
566.312	52.22
566.653	52.42
566.993	52.62
567.334	52.87
567.675	53.07
568.015	53.25
568.356	53.47
568.696	53.69
569.037	53.91
569.377	54.15
569.718	54.39
570.058	54.65
570.398	54.88
570.739	55.07
571.079	55.26
571.419	55.42
571.759	55.54
572.099	55.76
572.439	55.96
572.779	56.13
573.119	56.25
573.459	56.47
573.799	56.65
574.139	56.82
574.479	56.93
574.819	57.11
575.158	57.28
575.498	57.41
575.838	57.54
576.177	57.71
576.517	57.78
576.856	57.86
577.196	57.99
577.535	58.16
577.875	58.34
578.214	58.52
578.553	58.63
578.893	58.83
579.232	58.99
579.571	59.1
579.91	59.21
580.25	59.41
580.589	59.52
580.928	59.63
581.267	59.78
581.606	59.9
581.945	59.95
582.283	59.99
582.622	60.06
582.961	60.18
583.3	60.31
583.639	60.49
583.977	60.56
584.316	60.62
584.654	60.78
584.993	60.86
585.332	60.91
585.67	61.08
586.008	61.24
586.347	61.32
586.685	61.43
587.024	61.56
587.362	61.64
587.7	61.72
588.038	61.85
588.376	61.86
588.715	62.01
589.053	62.09
589.391	62.17
589.729	62.27
590.067	62.36
590.404	62.38
590.742	62.49
591.08	62.57
591.418	62.64
591.756	62.68
592.093	62.72
592.431	62.79
592.769	62.82
593.106	62.77
593.444	62.82
593.781	62.83
594.119	62.9
594.456	62.98
594.793	63.06
595.131	63.05
595.468	63.16
595.805	63.1
596.143	63.12
596.48	63.21
596.817	63.31
597.154	63.34
597.491	63.35
597.828	63.38
598.165	63.55
598.502	63.63
598.839	63.67
599.176	63.8
599.512	63.81
599.849	63.9
600.186	64.04
600.523	64.04
600.859	64.11
601.196	64.13
601.532	64.22
601.869	64.19
602.205	64.31
602.542	64.3
602.878	64.4
603.215	64.47
603.551	64.5
603.887	64.53
604.223	64.61
604.56	64.69
604.896	64.72
605.232	64.7
605.568	64.75
605.904	64.73
606.24	64.78
606.576	64.9
606.912	64.86
607.248	64.85
607.583	64.96
607.919	65.03
608.255	65.07
608.591	65.07
608.926	65.2
609.262	65.23
609.597	65.3
609.933	65.37
610.268	65.44
610.604	65.54
610.939	65.54
611.275	65.56
611.61	65.65
611.945	65.78
612.281	65.75
612.616	65.82
612.951	65.94
613.286	66.04
613.621	66.04
613.956	66.23
614.291	66.29
614.626	66.34
614.961	66.36
615.296	66.49
615.631	66.46
615.966	66.41
616.3	66.38
616.635	66.4
616.97	66.47
617.304	66.51
617.639	66.54
617.973	66.63
618.308	66.62
618.642	66.58
618.977	66.56
619.311	66.64
619.646	66.59
619.98	66.56
620.314	66.43
620.648	66.44
620.983	66.51
621.317	66.61
621.651	66.69
621.985	66.74
622.319	66.77
622.653	66.9
622.987	66.93
623.321	66.99
623.655	67.01
623.988	67.06
624.322	66.97
624.656	66.97
624.99	67
625.323	66.98
625.657	66.96
625.99	67.02
626.324	66.98
626.657	66.99
626.991	67.09
627.324	67.18
627.658	67.18
627.991	67.13
628.324	67.15
628.657	67.13
628.991	67.11
629.324	67.09
629.657	67.04
629.99	66.95
630.323	66.99
630.656	67.06
630.989	67.02
631.322	67.2
631.655	67.18
631.987	67.18
632.32	67.31
632.653	67.36
632.986	67.24
633.318	67.35
633.651	67.47
633.984	67.46
634.316	67.52
634.649	67.55
634.981	67.56
635.313	67.55
635.646	67.52
635.978	67.62
636.31	67.56
636.643	67.59
636.975	67.85
637.307	67.84
637.639	67.91
637.971	67.9
638.303	67.85
638.635	67.86
638.967	67.87
639.299	67.82
639.631	67.76
639.963	67.81
640.295	67.77
640.626	67.69
640.958	67.62
641.29	67.77
641.621	67.71
641.953	67.74
642.285	67.71
642.616	67.8
642.948	67.76
643.279	67.84
643.61	67.85
643.942	67.69
644.273	67.72
644.604	67.69
644.936	67.57
645.267	67.51
645.598	67.55
645.929	67.61
646.26	67.65
646.591	67.93
646.922	67.88
647.253	67.98
647.584	68.06
647.915	68.18
648.245	68
648.576	68.07
648.907	68.2
649.238	68.2
649.568	68.13
649.899	68.18
650.229	68.2
650.56	68.19
650.89	68.31
651.221	68.38
651.551	68.31
651.882	68.47
652.212	68.54
652.542	68.46
652.872	68.56
653.203	68.57
653.533	68.49
653.863	68.55
654.193	68.51
654.523	68.48
654.853	68.52
655.183	68.58
655.513	68.56
655.843	68.49
656.172	68.51
656.502	68.59
656.832	68.63
657.162	68.72
657.491	68.83
657.821	68.83
658.15	68.81
658.48	68.89
658.809	68.91
659.139	69
659.468	69.05
659.798	68.94
660.127	68.9
660.456	68.76
660.785	68.74
661.115	68.74
661.444	68.73
661.773	68.82
662.102	68.89
662.431	68.96
662.76	68.95
663.089	68.92
663.418	69
663.747	68.84
664.076	68.87
