Data from BU26932_Reflection_00012.txt Node
Date: Tue Nov 19 10:44:40 EST 2019
User: vgr7
Spectrometer: USB2G7710
Scans to average: 3
Trigger mode: 4
Integration Time (sec): 2.000000E-2
Electric dark correction enabled: true
Boxcar width: 10
XAxis mode: Wavelengths
Number of Pixels in Spectrum: 2048
>>>>>Begin Spectral Data<<<<<
177.721	71.94
178.105	57.22
178.488	-0.2
178.871	180.65
179.254	-1600
179.636	-502.27
180.019	-68.71
180.402	-114.29
180.785	-727.27
181.168	9.09
181.55	42.4
181.933	42.62
182.316	-26.73
182.698	-35.39
183.081	-137.61
183.463	-93.24
183.846	-13.27
184.228	-6.46
184.611	29.99
184.993	56.48
185.376	52.37
185.758	42.81
186.14	26.55
186.522	15.01
186.904	24.95
187.287	19.71
187.669	21.5
188.051	10.45
188.433	9.41
188.815	18.31
189.197	6.37
189.579	3.1
189.961	1.33
190.342	6.98
190.724	11.23
191.106	23.76
191.488	25.58
191.869	17.71
192.251	15.56
192.633	8.3
193.014	0.28
193.396	-4
193.777	-8.84
194.159	8.55
194.54	15.11
194.922	10.63
195.303	7.89
195.684	11.97
196.065	11.74
196.447	11.42
196.828	-1.03
197.209	7.23
197.59	11.42
197.971	0.35
198.352	3.96
198.733	2.28
199.114	9.39
199.495	20.51
199.876	13.49
200.257	13.95
200.638	12.73
201.018	20.84
201.399	22.7
201.78	37.47
202.16	13.65
202.541	12.77
202.922	10.01
203.302	13.1
203.683	19.5
204.063	8.07
204.444	8.69
204.824	12.99
205.204	17.27
205.585	8.52
205.965	9.04
206.345	7.38
206.725	13.58
207.106	2.72
207.486	-7.99
207.866	2.58
208.246	6.03
208.626	-10.25
209.006	-13.33
209.386	-10.62
209.766	-6.52
210.145	19.75
210.525	20.12
210.905	35.43
211.285	50.69
211.664	42.04
212.044	48.75
212.424	48.56
212.803	48.26
213.183	48.54
213.562	60.19
213.942	73.44
214.321	67.41
214.701	51.7
215.08	48.42
215.459	47.09
215.838	40.32
216.218	41.83
216.597	43.56
216.976	39.66
217.355	45.77
217.734	31.63
218.113	21.49
218.492	17.21
218.871	8.28
219.25	6.65
219.629	2.95
220.008	-3.67
220.387	-9.38
220.766	-9.25
221.144	-12.57
221.523	-21.89
221.902	-25.53
222.28	-16.69
222.659	-4.33
223.037	-9.38
223.416	-12.11
223.794	-6.67
224.173	-10.65
224.551	-13.66
224.929	-11.96
225.308	-15.06
225.686	-8.61
226.064	-9.79
226.442	-7.21
226.821	-8.17
227.199	-11.82
227.577	-8.03
227.955	-2.04
228.333	2.43
228.711	4.44
229.089	4.07
229.467	8.34
229.845	8.54
230.222	9.21
230.6	9.56
230.978	13.22
231.356	17.41
231.733	16.85
232.111	14.81
232.488	15.54
232.866	16.2
233.243	17.98
233.621	16.12
233.998	16.03
234.376	14.65
234.753	14.07
235.13	12.31
235.508	12.05
235.885	11.32
236.262	10.2
236.639	9.89
237.016	9.93
237.393	8.57
237.77	8.27
238.147	7.11
238.524	5.67
238.901	5.15
239.278	3.6
239.655	2.25
240.032	1.95
240.409	2.06
240.785	1.69
241.162	1.56
241.539	2.23
241.915	2.37
242.292	2.76
242.668	3.42
243.045	4.13
243.421	4.37
243.798	4.39
244.174	4.24
244.551	4.16
244.927	4.43
245.303	4.17
245.679	4.52
246.056	4.5
246.432	4.6
246.808	4.64
247.184	4.85
247.56	5.07
247.936	5.4
248.312	5.42
248.688	5.44
249.064	5.4
249.44	5.1
249.815	5.01
250.191	5
250.567	5
250.943	4.87
251.318	4.68
251.694	4.67
252.069	4.88
252.445	4.76
252.82	4.95
253.196	5.25
253.571	4.97
253.947	5.18
254.322	4.96
254.697	4.87
255.073	4.64
255.448	4.51
255.823	4.41
256.198	4.27
256.573	4.19
256.948	4.2
257.323	4.52
257.698	4.5
258.073	4.59
258.448	4.63
258.823	4.6
259.198	4.64
259.573	4.53
259.948	4.52
260.322	4.63
260.697	4.54
261.072	4.41
261.446	4.51
261.821	4.49
262.195	4.52
262.57	4.57
262.944	4.6
263.319	4.57
263.693	4.51
264.067	4.48
264.442	4.57
264.816	4.51
265.19	4.28
265.564	4.35
265.938	4.09
266.313	3.88
266.687	3.85
267.061	3.9
267.435	4.08
267.809	3.98
268.183	3.78
268.556	3.75
268.93	3.97
269.304	3.71
269.678	3.66
270.051	3.78
270.425	3.7
270.799	3.54
271.172	3.62
271.546	3.69
271.919	3.76
272.293	3.69
272.666	3.84
273.04	3.87
273.413	3.79
273.787	3.96
274.16	3.84
274.533	4.06
274.906	4.09
275.279	4.01
275.653	4.11
276.026	4.17
276.399	3.92
276.772	3.81
277.145	3.88
277.518	3.68
277.891	3.52
278.263	3.59
278.636	3.76
279.009	3.69
279.382	3.64
279.755	3.62
280.127	3.69
280.5	3.52
280.872	3.57
281.245	3.65
281.617	3.55
281.99	3.6
282.362	3.52
282.735	3.46
283.107	3.53
283.479	3.4
283.852	3.49
284.224	3.59
284.596	3.64
284.968	3.62
285.34	3.67
285.713	3.7
286.085	3.5
286.457	3.61
286.829	3.65
287.201	3.62
287.572	3.59
287.944	3.59
288.316	3.65
288.688	3.66
289.06	3.56
289.431	3.75
289.803	3.88
290.175	3.8
290.546	3.75
290.918	3.73
291.289	3.72
291.661	3.71
292.032	3.77
292.403	3.7
292.775	3.86
293.146	4.02
293.517	4.06
293.889	4.15
294.26	4.13
294.631	4.18
295.002	4.21
295.373	4.19
295.744	4.15
296.115	4.16
296.486	4.3
296.857	4.44
297.228	4.33
297.599	4.23
297.97	4.34
298.34	4.34
298.711	4.39
299.082	4.39
299.452	4.43
299.823	4.42
300.194	4.43
300.564	4.39
300.935	4.34
301.305	4.32
301.676	4.4
302.046	4.32
302.416	4.26
302.787	4.31
303.157	4.32
303.527	4.47
303.897	4.5
304.267	4.48
304.637	4.39
305.008	4.44
305.378	4.64
305.748	4.56
306.117	4.73
306.487	4.66
306.857	4.85
307.227	4.94
307.597	4.96
307.967	5.12
308.336	5.3
308.706	5.38
309.076	5.6
309.445	5.74
309.815	5.86
310.184	5.86
310.554	5.83
310.923	5.89
311.293	5.94
311.662	5.91
312.031	5.92
312.401	6.07
312.77	6.2
313.139	6.21
313.508	6.26
313.877	6.32
314.246	6.37
314.616	6.43
314.985	6.37
315.353	6.47
315.722	6.53
316.091	6.45
316.46	6.51
316.829	6.53
317.198	6.55
317.567	6.7
317.935	6.92
318.304	7.19
318.672	7.33
319.041	7.5
319.41	7.79
319.778	7.82
320.147	7.85
320.515	7.87
320.883	7.82
321.252	7.87
321.62	7.81
321.988	8.03
322.357	8.19
322.725	8.3
323.093	8.35
323.461	8.4
323.829	8.34
324.197	8.32
324.565	8.32
324.933	8.27
325.301	8.16
325.669	8.22
326.037	8.17
326.405	8.21
326.772	8.16
327.14	8.02
327.508	7.98
327.875	8.04
328.243	8.06
328.61	8.24
328.978	8.35
329.346	8.51
329.713	8.48
330.08	8.53
330.448	8.55
330.815	8.55
331.182	8.53
331.55	8.65
331.917	8.7
332.284	8.82
332.651	8.94
333.018	9.02
333.385	9.09
333.752	9.09
334.119	9.2
334.486	9.22
334.853	9.29
335.22	9.31
335.587	9.35
335.954	9.27
336.32	9.26
336.687	9.22
337.054	9.2
337.42	9.27
337.787	9.14
338.153	9.31
338.52	9.37
338.886	9.52
339.253	9.61
339.619	9.71
339.986	9.56
340.352	9.56
340.718	9.68
341.084	9.62
341.451	9.72
341.817	9.57
342.183	9.51
342.549	9.5
342.915	9.52
343.281	9.5
343.647	9.62
344.013	9.67
344.379	9.75
344.745	9.78
345.11	9.7
345.476	9.81
345.842	9.67
346.208	9.72
346.573	9.75
346.939	9.77
347.304	9.77
347.67	9.76
348.035	9.8
348.401	9.78
348.766	9.7
349.132	9.72
349.497	9.77
349.862	9.82
350.228	9.9
350.593	9.91
350.958	10.04
351.323	9.96
351.688	9.98
352.053	9.89
352.418	9.81
352.783	9.92
353.148	9.85
353.513	9.97
353.878	9.9
354.243	9.83
354.608	9.85
354.972	9.84
355.337	9.98
355.702	9.96
356.066	9.9
356.431	10.02
356.795	9.97
357.16	9.98
357.524	9.94
357.889	9.92
358.253	9.93
358.618	9.87
358.982	9.85
359.346	9.8
359.71	9.82
360.075	9.9
360.439	9.86
360.803	9.91
361.167	9.75
361.531	9.75
361.895	9.69
362.259	9.6
362.623	9.6
362.987	9.45
363.351	9.44
363.714	9.43
364.078	9.4
364.442	9.31
364.806	9.25
365.169	9.27
365.533	9.19
365.896	9.17
366.26	9.13
366.623	9.15
366.987	9.05
367.35	9.04
367.714	8.9
368.077	8.89
368.44	8.79
368.803	8.83
369.167	8.77
369.53	8.75
369.893	8.68
370.256	8.55
370.619	8.54
370.982	8.48
371.345	8.38
371.708	8.28
372.071	8.26
372.434	8.22
372.797	8.14
373.159	8.12
373.522	8.02
373.885	7.93
374.247	7.85
374.61	7.82
374.973	7.78
375.335	7.74
375.698	7.6
376.06	7.61
376.423	7.51
376.785	7.5
377.147	7.49
377.51	7.43
377.872	7.39
378.234	7.4
378.596	7.35
378.958	7.37
379.321	7.34
379.683	7.27
380.045	7.2
380.407	7.13
380.769	7.09
381.13	7.06
381.492	6.97
381.854	6.93
382.216	6.91
382.578	6.83
382.939	6.79
383.301	6.74
383.663	6.63
384.024	6.66
384.386	6.59
384.747	6.49
385.109	6.53
385.47	6.52
385.832	6.47
386.193	6.38
386.554	6.31
386.916	6.24
387.277	6.24
387.638	6.2
387.999	6.18
388.36	6.14
388.721	6.11
389.082	6.12
389.443	6.09
389.804	6.08
390.165	6.03
390.526	6.02
390.887	6.01
391.248	6.02
391.609	5.94
391.969	5.92
392.33	5.9
392.691	5.82
393.051	5.76
393.412	5.73
393.772	5.74
394.133	5.7
394.493	5.67
394.854	5.62
395.214	5.58
395.574	5.52
395.935	5.45
396.295	5.39
396.655	5.29
397.015	5.21
397.376	5.12
397.736	5.06
398.096	5
398.456	4.96
398.816	4.86
399.176	4.8
399.535	4.72
399.895	4.64
400.255	4.62
400.615	4.6
400.975	4.54
401.334	4.49
401.694	4.45
402.054	4.41
402.413	4.4
402.773	4.38
403.132	4.32
403.492	4.33
403.851	4.31
404.211	4.33
404.57	4.33
404.929	4.31
405.288	4.29
405.648	4.3
406.007	4.28
406.366	4.25
406.725	4.23
407.084	4.2
407.443	4.22
407.802	4.21
408.161	4.19
408.52	4.17
408.879	4.16
409.238	4.15
409.596	4.15
409.955	4.13
410.314	4.11
410.673	4.14
411.031	4.09
411.39	4.06
411.748	4.05
412.107	4.04
412.465	4.02
412.824	4.02
413.182	3.97
413.54	3.95
413.899	3.97
414.257	3.97
414.615	3.99
414.974	3.94
415.332	3.92
415.69	3.9
416.048	3.88
416.406	3.84
416.764	3.83
417.122	3.8
417.48	3.8
417.838	3.78
418.195	3.77
418.553	3.77
418.911	3.76
419.269	3.73
419.626	3.71
419.984	3.69
420.342	3.68
420.699	3.67
421.057	3.65
421.414	3.63
421.772	3.61
422.129	3.58
422.486	3.57
422.844	3.54
423.201	3.53
423.558	3.52
423.915	3.51
424.273	3.5
424.63	3.5
424.987	3.5
425.344	3.49
425.701	3.48
426.058	3.46
426.415	3.43
426.772	3.43
427.128	3.44
427.485	3.44
427.842	3.42
428.199	3.42
428.555	3.42
428.912	3.39
429.269	3.38
429.625	3.38
429.982	3.39
430.338	3.4
430.695	3.4
431.051	3.41
431.407	3.41
431.764	3.39
432.12	3.4
432.476	3.37
432.832	3.37
433.189	3.36
433.545	3.37
433.901	3.37
434.257	3.37
434.613	3.36
434.969	3.35
435.325	3.36
435.681	3.37
436.036	3.38
436.392	3.42
436.748	3.43
437.104	3.44
437.459	3.43
437.815	3.43
438.171	3.44
438.526	3.42
438.882	3.4
439.237	3.42
439.593	3.42
439.948	3.43
440.304	3.43
440.659	3.44
441.014	3.41
441.369	3.43
441.725	3.42
442.08	3.41
442.435	3.4
442.79	3.37
443.145	3.37
443.5	3.35
443.855	3.33
444.21	3.32
444.565	3.31
444.92	3.31
445.275	3.3
445.629	3.28
445.984	3.29
446.339	3.3
446.693	3.28
447.048	3.26
447.403	3.25
447.757	3.24
448.112	3.22
448.466	3.23
448.82	3.2
449.175	3.2
449.529	3.2
449.883	3.2
450.238	3.2
450.592	3.18
450.946	3.18
451.3	3.18
451.654	3.17
452.008	3.18
452.362	3.17
452.716	3.18
453.07	3.18
453.424	3.16
453.778	3.13
454.132	3.14
454.486	3.14
454.839	3.14
455.193	3.15
455.547	3.16
455.9	3.16
456.254	3.18
456.607	3.17
456.961	3.17
457.314	3.16
457.668	3.18
458.021	3.17
458.375	3.16
458.728	3.16
459.081	3.17
459.434	3.16
459.787	3.18
460.141	3.18
460.494	3.2
460.847	3.22
461.2	3.23
461.553	3.24
461.906	3.25
462.259	3.25
462.611	3.26
462.964	3.27
463.317	3.29
463.67	3.32
464.022	3.34
464.375	3.35
464.728	3.38
465.08	3.38
465.433	3.41
465.785	3.45
466.138	3.48
466.49	3.48
466.843	3.5
467.195	3.51
467.547	3.52
467.899	3.53
468.252	3.54
468.604	3.57
468.956	3.59
469.308	3.61
469.66	3.64
470.012	3.64
470.364	3.64
470.716	3.66
471.068	3.66
471.42	3.68
471.772	3.69
472.123	3.7
472.475	3.73
472.827	3.73
473.178	3.75
473.53	3.76
473.882	3.78
474.233	3.76
474.585	3.76
474.936	3.75
475.288	3.73
475.639	3.73
475.99	3.73
476.342	3.72
476.693	3.71
477.044	3.69
477.395	3.68
477.746	3.65
478.097	3.63
478.448	3.61
478.8	3.58
479.15	3.57
479.501	3.54
479.852	3.53
480.203	3.52
480.554	3.51
480.905	3.49
481.255	3.49
481.606	3.49
481.957	3.49
482.307	3.47
482.658	3.47
483.009	3.47
483.359	3.46
483.709	3.46
484.06	3.45
484.41	3.46
484.761	3.46
485.111	3.47
485.461	3.48
485.811	3.47
486.162	3.48
486.512	3.48
486.862	3.48
487.212	3.47
487.562	3.47
487.912	3.47
488.262	3.47
488.612	3.47
488.961	3.47
489.311	3.47
489.661	3.48
490.011	3.47
490.36	3.48
490.71	3.5
491.06	3.5
491.409	3.52
491.759	3.52
492.108	3.53
492.458	3.55
492.807	3.56
493.157	3.59
493.506	3.6
493.855	3.63
494.204	3.67
494.554	3.7
494.903	3.75
495.252	3.79
495.601	3.83
495.95	3.87
496.299	3.91
496.648	3.95
496.997	4.01
497.346	4.09
497.695	4.14
498.043	4.17
498.392	4.22
498.741	4.27
499.09	4.34
499.438	4.4
499.787	4.47
500.135	4.53
500.484	4.61
500.832	4.69
501.181	4.77
501.529	4.87
501.878	4.98
502.226	5.08
502.574	5.17
502.923	5.26
503.271	5.37
503.619	5.5
503.967	5.64
504.315	5.78
504.663	5.9
505.011	6.04
505.359	6.18
505.707	6.32
506.055	6.47
506.403	6.63
506.751	6.78
507.098	6.93
507.446	7.09
507.794	7.23
508.141	7.41
508.489	7.59
508.837	7.77
509.184	7.94
509.531	8.11
509.879	8.31
510.226	8.53
510.574	8.74
510.921	8.94
511.268	9.14
511.616	9.36
511.963	9.57
512.31	9.8
512.657	10.07
513.004	10.37
513.351	10.63
513.698	10.91
514.045	11.2
514.392	11.53
514.739	11.83
515.086	12.17
515.432	12.49
515.779	12.78
516.126	13.09
516.473	13.4
516.819	13.71
517.166	13.97
517.512	14.22
517.859	14.48
518.205	14.76
518.552	15.02
518.898	15.28
519.245	15.57
519.591	15.83
519.937	16.11
520.283	16.39
520.629	16.68
520.976	16.99
521.322	17.29
521.668	17.63
522.014	17.95
522.36	18.25
522.706	18.59
523.052	18.95
523.398	19.34
523.743	19.74
524.089	20.12
524.435	20.51
524.781	20.86
525.126	21.18
525.472	21.52
525.817	21.82
526.163	22.08
526.509	22.3
526.854	22.54
527.199	22.74
527.545	22.94
527.89	23.14
528.235	23.36
528.581	23.56
528.926	23.75
529.271	23.98
529.616	24.19
529.961	24.39
530.306	24.63
530.651	24.83
530.996	25.04
531.341	25.27
531.686	25.51
532.031	25.79
532.376	26.05
532.721	26.27
533.065	26.52
533.41	26.77
533.755	27.07
534.099	27.31
534.444	27.61
534.788	27.85
535.133	28.09
535.477	28.35
535.822	28.62
536.166	28.89
536.51	29.19
536.855	29.48
537.199	29.78
537.543	30.05
537.887	30.37
538.231	30.69
538.576	31.01
538.92	31.26
539.264	31.5
539.608	31.75
539.951	31.99
540.295	32.21
540.639	32.44
540.983	32.62
541.327	32.86
541.671	33.01
542.014	33.23
542.358	33.44
542.701	33.62
543.045	33.81
543.389	33.99
543.732	34.16
544.075	34.36
544.419	34.58
544.762	34.76
545.105	34.92
545.449	35.12
545.792	35.31
546.135	35.56
546.478	35.8
546.821	36.04
547.165	36.26
547.508	36.46
547.851	36.65
548.194	36.87
548.536	37.07
548.879	37.35
549.222	37.55
549.565	37.72
549.908	37.91
550.25	38.11
550.593	38.34
550.936	38.54
551.278	38.72
551.621	38.92
551.963	39.19
552.306	39.44
552.648	39.66
552.991	39.8
553.333	39.94
553.675	40.08
554.017	40.24
554.36	40.4
554.702	40.58
555.044	40.77
555.386	40.89
555.728	41.05
556.07	41.15
556.412	41.29
556.754	41.45
557.096	41.61
557.438	41.83
557.78	41.97
558.121	42.15
558.463	42.34
558.805	42.5
559.147	42.63
559.488	42.76
559.83	42.83
560.171	42.96
560.513	43.13
560.854	43.23
561.196	43.37
561.537	43.53
561.878	43.63
562.22	43.74
562.561	43.88
562.902	43.96
563.243	44.07
563.584	44.18
563.925	44.31
564.266	44.47
564.607	44.52
564.948	44.64
565.289	44.71
565.63	44.79
565.971	44.89
566.312	44.97
566.653	45.06
566.993	45.17
567.334	45.26
567.675	45.32
568.015	45.49
568.356	45.58
568.696	45.65
569.037	45.76
569.377	45.85
569.718	45.95
570.058	46.06
570.398	46.15
570.739	46.28
571.079	46.36
571.419	46.38
571.759	46.48
572.099	46.57
572.439	46.66
572.779	46.73
573.119	46.77
573.459	46.88
573.799	46.92
574.139	47.05
574.479	47.13
574.819	47.23
575.158	47.29
575.498	47.38
575.838	47.5
576.177	47.61
576.517	47.68
576.856	47.75
577.196	47.79
577.535	47.86
577.875	47.94
578.214	48.07
578.553	48.21
578.893	48.31
579.232	48.32
579.571	48.4
579.91	48.46
580.25	48.53
580.589	48.56
580.928	48.65
581.267	48.69
581.606	48.78
581.945	48.87
582.283	48.91
582.622	48.95
582.961	48.98
583.3	49.01
583.639	49.11
583.977	49.11
584.316	49.24
584.654	49.3
584.993	49.41
585.332	49.48
585.67	49.51
586.008	49.59
586.347	49.73
586.685	49.77
587.024	49.85
587.362	49.83
587.7	50.01
588.038	50.13
588.376	50.21
588.715	50.29
589.053	50.37
589.391	50.41
589.729	50.41
590.067	50.38
590.404	50.47
590.742	50.58
591.08	50.71
591.418	50.7
591.756	50.77
592.093	50.73
592.431	50.76
592.769	50.81
593.106	50.84
593.444	50.85
593.781	50.92
594.119	50.99
594.456	51.12
594.793	51.09
595.131	51.09
595.468	51.04
595.805	51.06
596.143	51.05
596.48	51.15
596.817	51.26
597.154	51.4
597.491	51.41
597.828	51.38
598.165	51.44
598.502	51.53
598.839	51.57
599.176	51.57
599.512	51.6
599.849	51.65
600.186	51.65
600.523	51.7
600.859	51.69
601.196	51.72
601.532	51.75
601.869	51.74
602.205	51.78
602.542	51.89
602.878	51.91
603.215	51.99
603.551	52
603.887	52.02
604.223	52.04
604.56	52.01
604.896	52.08
605.232	52.09
605.568	52.14
605.904	52.13
606.24	52.24
606.576	52.29
606.912	52.26
607.248	52.28
607.583	52.33
607.919	52.38
608.255	52.35
608.591	52.38
608.926	52.42
609.262	52.42
609.597	52.39
609.933	52.42
610.268	52.41
610.604	52.39
610.939	52.39
611.275	52.44
611.61	52.57
611.945	52.56
612.281	52.63
612.616	52.69
612.951	52.71
613.286	52.71
613.621	52.71
613.956	52.81
614.291	52.85
614.626	52.87
614.961	52.92
615.296	53
615.631	53.01
615.966	53.02
616.3	53.12
616.635	53.14
616.97	53.15
617.304	53.18
617.639	53.18
617.973	53.25
618.308	53.19
618.642	53.09
618.977	53.11
619.311	53.17
619.646	53.08
619.98	53.15
620.314	53.18
620.648	53.15
620.983	53.14
621.317	53.21
621.651	53.3
621.985	53.3
622.319	53.29
622.653	53.35
622.987	53.39
623.321	53.4
623.655	53.48
623.988	53.5
624.322	53.57
624.656	53.61
624.99	53.56
625.323	53.66
625.657	53.72
625.99	53.73
626.324	53.66
626.657	53.79
626.991	53.79
627.324	53.8
627.658	53.78
627.991	53.83
628.324	53.82
628.657	53.8
628.991	53.86
629.324	53.92
629.657	53.92
629.99	53.96
630.323	53.91
630.656	53.91
630.989	53.89
631.322	53.9
631.655	53.88
631.987	54.02
632.32	53.99
632.653	54.1
632.986	54.16
633.318	54.22
633.651	54.16
633.984	54.21
634.316	54.18
634.649	54.34
634.981	54.32
635.313	54.42
635.646	54.44
635.978	54.43
636.31	54.46
636.643	54.46
636.975	54.53
637.307	54.68
637.639	54.72
637.971	54.83
638.303	54.84
638.635	54.93
638.967	54.88
639.299	54.96
639.631	54.81
639.963	54.83
640.295	54.8
640.626	54.92
640.958	54.96
641.29	55.04
641.621	54.98
641.953	55.07
642.285	55.02
642.616	54.98
642.948	55
643.279	55.02
643.61	55.05
643.942	54.97
644.273	54.92
644.604	55.03
644.936	55.03
645.267	55.07
645.598	55.05
645.929	55.01
646.26	55.05
646.591	55.2
646.922	55.21
647.253	55.25
647.584	55.13
647.915	55.21
648.245	55.21
648.576	55.31
648.907	55.23
649.238	55.3
649.568	55.33
649.899	55.4
650.229	55.38
650.56	55.33
650.89	55.38
651.221	55.46
651.551	55.39
651.882	55.41
652.212	55.35
652.542	55.3
652.872	55.32
653.203	55.3
653.533	55.28
653.863	55.22
654.193	55.25
654.523	55.31
654.853	55.34
655.183	55.5
655.513	55.48
655.843	55.55
656.172	55.46
656.502	55.51
656.832	55.52
657.162	55.57
657.491	55.57
657.821	55.59
658.15	55.59
658.48	55.59
658.809	55.59
659.139	55.72
659.468	55.88
659.798	55.9
660.127	55.91
660.456	55.91
660.785	56
661.115	56.09
661.444	56.11
661.773	56.07
662.102	55.87
662.431	55.79
662.76	55.92
663.089	55.93
663.418	55.93
663.747	55.98
664.076	55.96
664.404	56.13
664.733	56.15
665.062	56.11
665.39	56.01
665.719	56
666.048	55.85
666.376	55.78
666.705	55.85
667.033	55.84
667.362	55.86
667.69	55.94
668.018	55.88
668.347	55.78
668.675	55.79
669.003	55.86
