Data from BU26850_Reflection_00004.txt Node
Date: Mon Nov 18 16:45:29 EST 2019
User: vgr7
Spectrometer: USB2G7710
Scans to average: 3
Trigger mode: 4
Integration Time (sec): 2.000000E-2
Electric dark correction enabled: true
Boxcar width: 10
XAxis mode: Wavelengths
Number of Pixels in Spectrum: 2048
>>>>>Begin Spectral Data<<<<<
177.721	-147.68
178.105	-48.41
178.488	-48.02
178.871	37
179.254	126.83
179.636	23.86
180.019	18.27
180.402	153.85
180.785	114.52
181.168	165.02
181.55	633.74
181.933	434.74
182.316	700
182.698	470.3
183.081	569.88
183.463	-1964.94
183.846	-343.1
184.228	-328.57
184.611	572.34
184.993	1656.96
185.376	-187.47
185.758	-110.7
186.14	-107.23
186.522	-53.45
186.904	-114.1
187.287	-193.89
187.669	-90.69
188.051	-80.72
188.433	-39.67
188.815	-25.94
189.197	-19.21
189.579	6.06
189.961	0.38
190.342	8.17
190.724	30.9
191.106	26.25
191.488	19.56
191.869	3.18
192.251	2.98
192.633	-5.94
193.014	-6.74
193.396	-26.84
193.777	-31.65
194.159	-27.03
194.54	-29.69
194.922	-30.22
195.303	-27.74
195.684	-23.36
196.065	-22.57
196.447	-28.09
196.828	-24.9
197.209	-27.84
197.59	-29.96
197.971	-23.96
198.352	-12.16
198.733	-17.99
199.114	-27.5
199.495	-24.9
199.876	-17.08
200.257	-23.88
200.638	-16.73
201.018	-18.21
201.399	-19.04
201.78	-25.58
202.16	-33.2
202.541	-48.54
202.922	-63.9
203.302	-67.18
203.683	-81.79
204.063	-105.79
204.444	-109.01
204.824	-124.72
205.204	-123.33
205.585	-152.09
205.965	-136.58
206.345	-151
206.725	-185.08
207.106	-158.18
207.486	-178.29
207.866	-178.09
208.246	-179.35
208.626	-225.08
209.006	-150.56
209.386	-163.92
209.766	-164.14
210.145	-205.88
210.525	-141.48
210.905	-125.36
211.285	-103.15
211.664	-104.91
212.044	-88.83
212.424	-92.56
212.803	-102.22
213.183	-99.91
213.562	-73
213.942	-67.04
214.321	-68.94
214.701	-69.83
215.08	-83.46
215.459	-63.57
215.838	-66.9
216.218	-53.18
216.597	-40.1
216.976	-35.5
217.355	-28.67
217.734	-14.29
218.113	-13.05
218.492	-8.44
218.871	-5.65
219.25	-2.93
219.629	-5.58
220.008	1.58
220.387	9.58
220.766	29.02
221.144	23.88
221.523	18.48
221.902	36.08
222.28	7.5
222.659	10.01
223.037	11.06
223.416	9.22
223.794	12.12
224.173	10.8
224.551	13.21
224.929	5.39
225.308	14.17
225.686	6.99
226.064	10.73
226.442	2.42
226.821	4.21
227.199	4.21
227.577	4.19
227.955	-1.51
228.333	-7.33
228.711	-6.5
229.089	-1.66
229.467	-3.13
229.845	-4.55
230.222	0.69
230.6	-1.68
230.978	-2.02
231.356	0.04
231.733	-0.37
232.111	-1.13
232.488	-0.53
232.866	0.93
233.243	-1.06
233.621	-1.11
233.998	0.27
234.376	1.64
234.753	1.58
235.13	1.2
235.508	1.44
235.885	2.18
236.262	2.7
236.639	1.74
237.016	1.36
237.393	2.68
237.77	2.78
238.147	2.41
238.524	3.23
238.901	4.56
239.278	3.98
239.655	5.45
240.032	6.14
240.409	6.26
240.785	5.66
241.162	5.54
241.539	5.54
241.915	5.2
242.292	5.43
242.668	5.72
243.045	5.61
243.421	5.6
243.798	5.2
244.174	4.91
244.551	4.92
244.927	4.98
245.303	4.89
245.679	4.56
246.056	4.46
246.432	4.33
246.808	4.21
247.184	4.07
247.56	3.76
247.936	3.47
248.312	3.07
248.688	3.46
249.064	3.42
249.44	3.37
249.815	3.17
250.191	3.04
250.567	2.8
250.943	2.61
251.318	2.48
251.694	2.39
252.069	2.43
252.445	2.31
252.82	1.94
253.196	2.07
253.571	2.54
253.947	2.44
254.322	2.64
254.697	2.21
255.073	1.79
255.448	1.66
255.823	1.77
256.198	1.95
256.573	1.62
256.948	1.79
257.323	2.17
257.698	2.38
258.073	2.38
258.448	2.36
258.823	2.61
259.198	2.76
259.573	3.01
259.948	3.1
260.322	2.98
260.697	3.14
261.072	3.02
261.446	2.89
261.821	2.95
262.195	2.9
262.57	2.99
262.944	3.09
263.319	3.1
263.693	3.11
264.067	3.17
264.442	3.44
264.816	3.3
265.19	2.86
265.564	3.04
265.938	2.93
266.313	2.99
266.687	2.83
267.061	2.83
267.435	2.82
267.809	2.69
268.183	2.94
268.556	2.8
268.93	3
269.304	3.1
269.678	3.17
270.051	3.17
270.425	3.31
270.799	3.34
271.172	3.41
271.546	3.36
271.919	3.44
272.293	3.25
272.666	3.45
273.04	3.68
273.413	3.41
273.787	3.38
274.16	3.23
274.533	3.13
274.906	3.07
275.279	3.01
275.653	3.11
276.026	3.12
276.399	3.25
276.772	3.27
277.145	3.08
277.518	3.03
277.891	3.09
278.263	2.93
278.636	2.85
279.009	2.7
279.382	2.73
279.755	2.76
280.127	2.82
280.5	2.77
280.872	2.66
281.245	2.77
281.617	2.82
281.99	2.98
282.362	3.12
282.735	3.04
283.107	3.05
283.479	3.05
283.852	2.92
284.224	2.83
284.596	2.68
284.968	2.75
285.34	2.85
285.713	2.73
286.085	2.83
286.457	3.06
286.829	3.14
287.201	3.15
287.572	2.85
287.944	2.8
288.316	2.83
288.688	2.77
289.06	2.75
289.431	2.78
289.803	2.81
290.175	2.76
290.546	2.95
290.918	2.89
291.289	2.83
291.661	2.93
292.032	3.01
292.403	3.16
292.775	3.3
293.146	3.17
293.517	3.26
293.889	3.27
294.26	3.03
294.631	3.11
295.002	3.04
295.373	3.3
295.744	3.25
296.115	3.18
296.486	3.14
296.857	3.18
297.228	3.15
297.599	3.2
297.97	3.29
298.34	3.26
298.711	3.37
299.082	3.36
299.452	3.42
299.823	3.45
300.194	3.32
300.564	3.19
300.935	3.3
301.305	3.23
301.676	3.19
302.046	3.28
302.416	3.31
302.787	3.36
303.157	3.31
303.527	3.44
303.897	3.56
304.267	3.64
304.637	3.54
305.008	3.66
305.378	3.58
305.748	3.64
306.117	3.51
306.487	3.45
306.857	3.51
307.227	3.34
307.597	3.15
307.967	3.27
308.336	3.28
308.706	3.19
309.076	3.32
309.445	3.29
309.815	3.4
310.184	3.09
310.554	3.12
310.923	3.04
311.293	2.98
311.662	2.94
312.031	2.97
312.401	3.02
312.77	3.01
313.139	3.07
313.508	2.93
313.877	2.88
314.246	2.82
314.616	2.85
314.985	2.95
315.353	3.04
315.722	2.93
316.091	2.9
316.46	2.83
316.829	2.83
317.198	2.86
317.567	2.72
317.935	3
318.304	3
318.672	2.96
319.041	3.07
319.41	2.89
319.778	2.76
320.147	2.71
320.515	2.66
320.883	2.49
321.252	2.57
321.62	2.75
321.988	2.77
322.357	2.53
322.725	2.5
323.093	2.67
323.461	2.75
323.829	2.62
324.197	2.68
324.565	2.67
324.933	2.68
325.301	2.66
325.669	2.65
326.037	2.61
326.405	2.7
326.772	2.59
327.14	2.74
327.508	2.93
327.875	3
328.243	3.08
328.61	3.18
328.978	3.23
329.346	3.19
329.713	3.24
330.08	3.37
330.448	3.19
330.815	3.04
331.182	2.99
331.55	3.09
331.917	3.21
332.284	3.09
332.651	3.08
333.018	3.11
333.385	3.03
333.752	3.16
334.119	3.19
334.486	3.13
334.853	3.1
335.22	3.1
335.587	2.92
335.954	2.94
336.32	2.89
336.687	2.92
337.054	2.88
337.42	2.79
337.787	2.89
338.153	2.94
338.52	3
338.886	2.94
339.253	2.95
339.619	2.87
339.986	2.97
340.352	2.93
340.718	3.01
341.084	2.93
341.451	2.83
341.817	2.78
342.183	2.94
342.549	2.87
342.915	2.84
343.281	2.94
343.647	2.76
344.013	2.75
344.379	2.56
344.745	2.6
345.11	2.63
345.476	2.53
345.842	2.57
346.208	2.41
346.573	2.47
346.939	2.6
347.304	2.57
347.67	2.47
348.035	2.54
348.401	2.47
348.766	2.59
349.132	2.56
349.497	2.52
349.862	2.49
350.228	2.54
350.593	2.59
350.958	2.56
351.323	2.67
351.688	2.67
352.053	2.76
352.418	2.67
352.783	2.68
353.148	2.74
353.513	2.69
353.878	2.74
354.243	2.74
354.608	2.65
354.972	2.66
355.337	2.72
355.702	2.81
356.066	2.89
356.431	2.87
356.795	2.98
357.16	3.05
357.524	3
357.889	2.98
358.253	2.9
358.618	2.94
358.982	2.94
359.346	2.95
359.71	2.93
360.075	2.96
360.439	2.95
360.803	2.93
361.167	2.96
361.531	2.98
361.895	2.91
362.259	2.85
362.623	2.88
362.987	2.91
363.351	2.9
363.714	2.87
364.078	2.85
364.442	2.76
364.806	2.71
365.169	2.67
365.533	2.64
365.896	2.66
366.26	2.65
366.623	2.62
366.987	2.63
367.35	2.66
367.714	2.71
368.077	2.66
368.44	2.66
368.803	2.61
369.167	2.58
369.53	2.65
369.893	2.79
370.256	2.76
370.619	2.72
370.982	2.67
371.345	2.63
371.708	2.64
372.071	2.68
372.434	2.64
372.797	2.69
373.159	2.69
373.522	2.69
373.885	2.77
374.247	2.8
374.61	2.82
374.973	2.73
375.335	2.7
375.698	2.74
376.06	2.77
376.423	2.78
376.785	2.85
377.147	2.81
377.51	2.71
377.872	2.75
378.234	2.76
378.596	2.74
378.958	2.76
379.321	2.78
379.683	2.77
380.045	2.84
380.407	2.79
380.769	2.86
381.13	2.87
381.492	2.81
381.854	2.82
382.216	2.82
382.578	2.86
382.939	2.83
383.301	2.85
383.663	2.82
384.024	2.85
384.386	2.87
384.747	2.92
385.109	2.98
385.47	2.96
385.832	2.96
386.193	2.98
386.554	2.95
386.916	2.97
387.277	3
387.638	3.01
387.999	3.02
388.36	2.96
388.721	2.93
389.082	2.91
389.443	2.88
389.804	2.87
390.165	2.86
390.526	2.88
390.887	2.83
391.248	2.89
391.609	2.9
391.969	2.9
392.33	2.86
392.691	2.83
393.051	2.8
393.412	2.79
393.772	2.74
394.133	2.77
394.493	2.76
394.854	2.72
395.214	2.69
395.574	2.7
395.935	2.69
396.295	2.75
396.655	2.76
397.015	2.74
397.376	2.76
397.736	2.79
398.096	2.81
398.456	2.83
398.816	2.79
399.176	2.76
399.535	2.75
399.895	2.74
400.255	2.77
400.615	2.78
400.975	2.78
401.334	2.79
401.694	2.78
402.054	2.77
402.413	2.79
402.773	2.78
403.132	2.76
403.492	2.78
403.851	2.74
404.211	2.77
404.57	2.79
404.929	2.8
405.288	2.8
405.648	2.77
406.007	2.76
406.366	2.78
406.725	2.76
407.084	2.78
407.443	2.82
407.802	2.82
408.161	2.82
408.52	2.8
408.879	2.8
409.238	2.81
409.596	2.8
409.955	2.82
410.314	2.83
410.673	2.86
411.031	2.87
411.39	2.88
411.748	2.87
412.107	2.9
412.465	2.87
412.824	2.82
413.182	2.86
413.54	2.91
413.899	2.92
414.257	2.98
414.615	2.95
414.974	2.97
415.332	2.96
415.69	2.95
416.048	2.96
416.406	2.98
416.764	2.97
417.122	2.97
417.48	2.92
417.838	2.95
418.195	2.96
418.553	2.95
418.911	2.95
419.269	2.97
419.626	2.97
419.984	2.97
420.342	2.99
420.699	2.97
421.057	2.95
421.414	2.93
421.772	2.93
422.129	2.94
422.486	2.94
422.844	2.94
423.201	2.95
423.558	2.96
423.915	2.96
424.273	2.96
424.63	2.98
424.987	3
425.344	3
425.701	3
426.058	3
426.415	3
426.772	2.98
427.128	2.98
427.485	2.98
427.842	2.97
428.199	3
428.555	3
428.912	3.03
429.269	3.03
429.625	3
429.982	2.99
430.338	2.97
430.695	2.98
431.051	2.97
431.407	2.97
431.764	2.96
432.12	2.96
432.476	2.96
432.832	2.96
433.189	2.97
433.545	2.97
433.901	2.96
434.257	2.96
434.613	2.96
434.969	2.95
435.325	2.96
435.681	2.97
436.036	2.96
436.392	2.95
436.748	2.96
437.104	2.96
437.459	2.98
437.815	3
438.171	2.99
438.526	3
438.882	3
439.237	3
439.593	3
439.948	3
440.304	3.01
440.659	3
441.014	3.01
441.369	3.01
441.725	3
442.08	3.02
442.435	3.03
442.79	3.02
443.145	3.01
443.5	3.02
443.855	3.02
444.21	3.02
444.565	3.02
444.92	3.02
445.275	3.02
445.629	3.02
445.984	3.02
446.339	3.02
446.693	3
447.048	2.99
447.403	2.98
447.757	2.97
448.112	2.97
448.466	2.96
448.82	2.98
449.175	2.99
449.529	2.97
449.883	2.96
450.238	2.95
450.592	2.97
450.946	2.96
451.3	2.97
451.654	2.96
452.008	2.97
452.362	2.95
452.716	2.94
453.07	2.96
453.424	2.96
453.778	2.95
454.132	2.97
454.486	2.98
454.839	2.98
455.193	3
455.547	2.99
455.9	2.99
456.254	2.98
456.607	2.97
456.961	2.97
457.314	2.96
457.668	2.99
458.021	2.97
458.375	2.99
458.728	2.99
459.081	2.98
459.434	2.96
459.787	2.97
460.141	2.97
460.494	2.97
460.847	2.97
461.2	2.96
461.553	2.95
461.906	2.95
462.259	2.94
462.611	2.95
462.964	2.96
463.317	2.97
463.67	2.96
464.022	2.98
464.375	3
464.728	3.01
465.08	3
465.433	3
465.785	2.97
466.138	2.96
466.49	2.96
466.843	2.96
467.195	2.96
467.547	2.98
467.899	2.95
468.252	2.95
468.604	2.97
468.956	2.98
469.308	3
469.66	2.98
470.012	2.98
470.364	2.99
470.716	2.98
471.068	2.98
471.42	2.97
471.772	2.98
472.123	2.98
472.475	3
472.827	3
473.178	3.03
473.53	3.04
473.882	3.03
474.233	3.05
474.585	3.02
474.936	3.01
475.288	3.02
475.639	3.05
475.99	3.05
476.342	3.03
476.693	3.03
477.044	3.06
477.395	3.05
477.746	3.04
478.097	3.04
478.448	3.04
478.8	3.05
479.15	3.04
479.501	3.03
479.852	3.03
480.203	3.05
480.554	3.05
480.905	3.07
481.255	3.08
481.606	3.09
481.957	3.1
482.307	3.1
482.658	3.1
483.009	3.1
483.359	3.09
483.709	3.1
484.06	3.1
484.41	3.1
484.761	3.1
485.111	3.09
485.461	3.1
485.811	3.1
486.162	3.09
486.512	3.09
486.862	3.1
487.212	3.09
487.562	3.1
487.912	3.09
488.262	3.08
488.612	3.07
488.961	3.07
489.311	3.07
489.661	3.06
490.011	3.06
490.36	3.06
490.71	3.07
491.06	3.07
491.409	3.07
491.759	3.07
492.108	3.08
492.458	3.08
492.807	3.07
493.157	3.08
493.506	3.09
493.855	3.08
494.204	3.07
494.554	3.08
494.903	3.07
495.252	3.07
495.601	3.09
495.95	3.09
496.299	3.09
496.648	3.09
496.997	3.1
497.346	3.09
497.695	3.1
498.043	3.11
498.392	3.1
498.741	3.09
499.09	3.08
499.438	3.07
499.787	3.09
500.135	3.11
500.484	3.08
500.832	3.09
501.181	3.09
501.529	3.1
501.878	3.11
502.226	3.12
502.574	3.11
502.923	3.09
503.271	3.11
503.619	3.12
503.967	3.13
504.315	3.13
504.663	3.17
505.011	3.16
505.359	3.15
505.707	3.19
506.055	3.17
506.403	3.17
506.751	3.17
507.098	3.17
507.446	3.18
507.794	3.2
508.141	3.21
508.489	3.22
508.837	3.23
509.184	3.22
509.531	3.2
509.879	3.23
510.226	3.25
510.574	3.25
510.921	3.26
511.268	3.25
511.616	3.23
511.963	3.22
512.31	3.21
512.657	3.22
513.004	3.2
513.351	3.23
513.698	3.24
514.045	3.23
514.392	3.24
514.739	3.23
515.086	3.24
515.432	3.24
515.779	3.22
516.126	3.22
516.473	3.23
516.819	3.26
517.166	3.25
517.512	3.25
517.859	3.23
518.205	3.24
518.552	3.25
518.898	3.27
519.245	3.25
519.591	3.27
519.937	3.25
520.283	3.25
520.629	3.24
520.976	3.26
521.322	3.27
521.668	3.26
522.014	3.28
522.36	3.28
522.706	3.27
523.052	3.29
523.398	3.29
523.743	3.3
524.089	3.28
524.435	3.27
524.781	3.28
525.126	3.29
525.472	3.3
525.817	3.29
526.163	3.3
526.509	3.31
526.854	3.33
527.199	3.35
527.545	3.34
527.89	3.35
528.235	3.35
528.581	3.35
528.926	3.36
529.271	3.34
529.616	3.34
529.961	3.34
530.306	3.35
530.651	3.35
530.996	3.35
531.341	3.35
531.686	3.36
532.031	3.36
532.376	3.35
532.721	3.36
533.065	3.37
533.41	3.36
533.755	3.35
534.099	3.34
534.444	3.34
534.788	3.35
535.133	3.34
535.477	3.34
535.822	3.34
536.166	3.33
536.51	3.34
536.855	3.36
537.199	3.37
537.543	3.36
537.887	3.36
538.231	3.34
538.576	3.36
538.92	3.35
539.264	3.35
539.608	3.34
539.951	3.32
540.295	3.33
540.639	3.35
540.983	3.35
541.327	3.34
541.671	3.35
542.014	3.34
542.358	3.34
542.701	3.35
543.045	3.36
543.389	3.35
543.732	3.35
544.075	3.34
544.419	3.33
544.762	3.33
545.105	3.33
545.449	3.36
545.792	3.35
546.135	3.34
546.478	3.35
546.821	3.37
547.165	3.39
547.508	3.39
547.851	3.39
548.194	3.37
548.536	3.4
548.879	3.38
549.222	3.41
549.565	3.45
549.908	3.46
550.25	3.46
550.593	3.47
550.936	3.45
551.278	3.45
551.621	3.47
551.963	3.45
552.306	3.44
552.648	3.42
552.991	3.45
553.333	3.48
553.675	3.43
554.017	3.44
554.36	3.42
554.702	3.43
555.044	3.4
555.386	3.41
555.728	3.36
556.07	3.41
556.412	3.34
556.754	3.27
557.096	3.24
557.438	3.22
557.78	3.25
558.121	3.31
558.463	3.33
558.805	3.36
559.147	3.39
559.488	3.42
559.83	3.46
560.171	3.46
560.513	3.47
560.854	3.48
561.196	3.48
561.537	3.5
561.878	3.46
562.22	3.49
562.561	3.48
562.902	3.51
563.243	3.48
563.584	3.51
563.925	3.56
564.266	3.59
564.607	3.57
564.948	3.57
565.289	3.55
565.63	3.53
565.971	3.5
566.312	3.5
566.653	3.5
566.993	3.46
567.334	3.45
567.675	3.4
568.015	3.42
568.356	3.41
568.696	3.4
569.037	3.37
569.377	3.4
569.718	3.4
570.058	3.4
570.398	3.38
570.739	3.4
571.079	3.39
571.419	3.37
571.759	3.39
572.099	3.39
572.439	3.39
572.779	3.39
573.119	3.39
573.459	3.38
573.799	3.38
574.139	3.39
574.479	3.37
574.819	3.4
575.158	3.39
575.498	3.4
575.838	3.41
576.177	3.44
576.517	3.42
576.856	3.41
577.196	3.42
577.535	3.4
577.875	3.41
578.214	3.4
578.553	3.42
578.893	3.41
579.232	3.4
579.571	3.38
579.91	3.38
580.25	3.34
580.589	3.34
580.928	3.37
581.267	3.4
581.606	3.4
581.945	3.4
582.283	3.39
582.622	3.39
582.961	3.4
583.3	3.44
583.639	3.47
583.977	3.5
584.316	3.54
584.654	3.55
584.993	3.54
585.332	3.52
585.67	3.52
586.008	3.51
586.347	3.52
586.685	3.52
587.024	3.52
587.362	3.57
587.7	3.59
588.038	3.59
588.376	3.57
588.715	3.58
589.053	3.58
589.391	3.62
589.729	3.63
590.067	3.59
590.404	3.57
590.742	3.56
591.08	3.54
591.418	3.53
591.756	3.55
592.093	3.51
592.431	3.56
592.769	3.53
593.106	3.55
593.444	3.52
593.781	3.55
594.119	3.55
594.456	3.53
594.793	3.52
595.131	3.46
595.468	3.47
595.805	3.46
596.143	3.46
596.48	3.43
596.817	3.41
597.154	3.44
597.491	3.42
597.828	3.38
598.165	3.36
598.502	3.3
598.839	3.3
599.176	3.34
599.512	3.31
599.849	3.33
600.186	3.32
600.523	3.34
600.859	3.32
601.196	3.3
601.532	3.32
601.869	3.31
602.205	3.34
602.542	3.34
602.878	3.37
603.215	3.37
603.551	3.39
603.887	3.41
604.223	3.4
604.56	3.45
604.896	3.46
605.232	3.52
605.568	3.54
605.904	3.52
606.24	3.5
606.576	3.49
606.912	3.5
607.248	3.51
607.583	3.55
607.919	3.54
608.255	3.53
608.591	3.53
608.926	3.54
609.262	3.56
609.597	3.58
609.933	3.57
610.268	3.56
610.604	3.57
610.939	3.57
611.275	3.56
611.61	3.53
611.945	3.55
612.281	3.53
612.616	3.58
612.951	3.6
613.286	3.6
613.621	3.63
613.956	3.62
614.291	3.64
614.626	3.57
614.961	3.58
615.296	3.6
615.631	3.6
615.966	3.57
616.3	3.51
616.635	3.47
616.97	3.48
617.304	3.53
617.639	3.49
617.973	3.46
618.308	3.42
618.642	3.38
618.977	3.35
619.311	3.31
619.646	3.27
619.98	3.24
620.314	3.27
620.648	3.26
620.983	3.27
621.317	3.32
621.651	3.33
621.985	3.35
622.319	3.35
622.653	3.31
622.987	3.34
623.321	3.37
623.655	3.4
623.988	3.41
624.322	3.37
624.656	3.38
624.99	3.43
625.323	3.45
625.657	3.47
625.99	3.52
626.324	3.56
626.657	3.52
626.991	3.54
627.324	3.51
627.658	3.52
627.991	3.53
628.324	3.47
628.657	3.51
628.991	3.49
629.324	3.49
629.657	3.54
629.99	3.57
630.323	3.58
630.656	3.58
630.989	3.6
631.322	3.63
631.655	3.64
631.987	3.62
632.32	3.62
632.653	3.57
632.986	3.57
633.318	3.56
633.651	3.6
633.984	3.59
634.316	3.61
634.649	3.58
634.981	3.51
635.313	3.53
635.646	3.49
635.978	3.55
636.31	3.51
636.643	3.52
636.975	3.48
637.307	3.44
637.639	3.43
637.971	3.28
638.303	3.19
638.635	3.15
638.967	3.16
639.299	3.2
639.631	3.25
639.963	3.14
640.295	3.06
640.626	3.1
640.958	3.15
641.29	3.2
641.621	3.26
641.953	3.32
642.285	3.31
642.616	3.35
642.948	3.27
643.279	3.33
643.61	3.31
643.942	3.31
644.273	3.37
644.604	3.36
644.936	3.39
645.267	3.44
645.598	3.53
645.929	3.5
646.26	3.51
646.591	3.53
646.922	3.56
647.253	3.7
647.584	3.69
647.915	3.55
648.245	3.49
648.576	3.44
648.907	3.43
649.238	3.49
649.568	3.44
649.899	3.51
650.229	3.48
650.56	3.46
650.89	3.47
651.221	3.42
651.551	3.38
651.882	3.45
652.212	3.49
652.542	3.4
652.872	3.37
653.203	3.36
653.533	3.37
653.863	3.41
654.193	3.35
654.523	3.32
654.853	3.47
655.183	3.42
655.513	3.47
655.843	3.41
656.172	3.36
656.502	3.41
656.832	3.42
657.162	3.49
657.491	3.55
657.821	3.54
658.15	3.5
658.48	3.56
658.809	3.52
659.139	3.48
659.468	3.49
659.798	3.56
660.127	3.62
660.456	3.62
660.785	3.61
661.115	3.59
661.444	3.61
661.773	3.6
662.102	3.62
662.431	3.6
662.76	3.68
663.089	3.64
663.418	3.63
663.747	3.58
664.076	3.51
664.404	3.4
664.733	3.43
665.062	3.45
665.39	3.45
665.719	3.47
666.048	3.55
666.376	3.59
666.705	3.52
667.033	3.38
667.362	3.42
667.69	3.43
668.018	3.44
668.347	3.49
668.675	3.45
669.003	3.43
669.331	3.52
669.659	3.53
669.987	3.55
670.315	3.56
670.643	3.55
670.971	3.53
671.299	3.62
671.627	3.7
671.955	3.73
672.283	3.73
672.61	3.71
672.938	3.66
673.266	3.75
673.593	3.82
673.921	3.85
674.249	3.84
674.576	3.87
674.904	3.92
675.231	3.84
675.558	3.85
675.886	3.9
676.213	3.82
676.54	3.8
676.867	3.82
677.195	3.81
677.522	3.84
677.849	3.88
678.176	3.84
678.503	3.82
678.83	3.76
679.157	3.7
679.484	3.74
