Data from BU26944_Reflection_00012.txt Node
Date: Tue Nov 19 10:54:52 EST 2019
User: vgr7
Spectrometer: USB2G7710
Scans to average: 3
Trigger mode: 4
Integration Time (sec): 2.000000E-2
Electric dark correction enabled: true
Boxcar width: 10
XAxis mode: Wavelengths
Number of Pixels in Spectrum: 2048
>>>>>Begin Spectral Data<<<<<
177.721	230.17
178.105	122.12
178.488	77.57
178.871	257.14
179.254	-2340
179.636	-246.47
180.019	-78.5
180.402	-750
180.785	74.12
181.168	87.6
181.55	27.04
181.933	2.31
182.316	-33.25
182.698	1.98
183.081	-6.65
183.463	20.74
183.846	-12.54
184.228	17.74
184.611	-413.51
184.993	-248.57
185.376	-493.98
185.758	979.52
186.14	584.21
186.522	-189.1
186.904	-68.67
187.287	-148.5
187.669	-84
188.051	-35.32
188.433	-63.33
188.815	-17.98
189.197	4.43
189.579	-8.58
189.961	-36.75
190.342	-32.45
190.724	-30.12
191.106	-42.34
191.488	-49.78
191.869	-37.65
192.251	-31.38
192.633	-45.99
193.014	-27.03
193.396	-24.53
193.777	-6.67
194.159	-6.23
194.54	-11.04
194.922	-33.04
195.303	-25.48
195.684	-36.85
196.065	-27.48
196.447	-19.3
196.828	-16.85
197.209	-28.07
197.59	-18.79
197.971	-20.03
198.352	-28.42
198.733	-42.05
199.114	-41.08
199.495	-19.06
199.876	-49.06
200.257	-31.17
200.638	-5.76
201.018	-17.65
201.399	-19.13
201.78	-21.42
202.16	-14.21
202.541	-13.26
202.922	2.14
203.302	-1.8
203.683	-11.85
204.063	-27.44
204.444	-21.57
204.824	-26.26
205.204	-23.41
205.585	-36.24
205.965	-25.07
206.345	-7.56
206.725	-4.42
207.106	21.62
207.486	18.83
207.866	47.22
208.246	30.02
208.626	-14.59
209.006	-26.15
209.386	-12.32
209.766	-17.11
210.145	-32.76
210.525	-38.33
210.905	-46.57
211.285	-23.99
211.664	4.32
212.044	8.39
212.424	18.19
212.803	1.87
213.183	11.26
213.562	10.82
213.942	9.56
214.321	-11.04
214.701	-12.65
215.08	-22.83
215.459	-34.58
215.838	-55.78
216.218	-98.12
216.597	-67.57
216.976	-56.15
217.355	-54.75
217.734	-44.35
218.113	-42.86
218.492	-47.03
218.871	-33.82
219.25	-26.92
219.629	-73.97
220.008	-57.97
220.387	-88.24
220.766	-25.15
221.144	-55.19
221.523	-48.7
221.902	-62.59
222.28	-12.55
222.659	14.81
223.037	8.17
223.416	10.16
223.794	15.91
224.173	7.36
224.551	8.97
224.929	5.61
225.308	1.21
225.686	-10.23
226.064	-7.26
226.442	-2.73
226.821	-9.28
227.199	-10.54
227.577	-8.77
227.955	-7.4
228.333	-6.26
228.711	-4.59
229.089	-3.41
229.467	-3.13
229.845	-0.95
230.222	-2.02
230.6	-5.35
230.978	-3.62
231.356	-3.05
231.733	-2.57
232.111	-1.36
232.488	1.17
232.866	4.47
233.243	3.4
233.621	6.97
233.998	9.25
234.376	9.25
234.753	12.61
235.13	11.28
235.508	11.05
235.885	9.04
236.262	7.44
236.639	6.89
237.016	6.6
237.393	5.61
237.77	6.57
238.147	5.5
238.524	5.4
238.901	4.79
239.278	3.97
239.655	3.57
240.032	3.76
240.409	3.15
240.785	2.75
241.162	3.35
241.539	2.69
241.915	1.72
242.292	2.28
242.668	2.37
243.045	2.79
243.421	3.02
243.798	3.54
244.174	3.74
244.551	3.7
244.927	3.7
245.303	3.62
245.679	3.62
246.056	3.68
246.432	3.58
246.808	3.76
247.184	4.05
247.56	4.16
247.936	4.23
248.312	4.34
248.688	4.29
249.064	4.45
249.44	4.36
249.815	4.45
250.191	4.19
250.567	4.06
250.943	4.15
251.318	3.9
251.694	3.77
252.069	3.69
252.445	3.54
252.82	3.77
253.196	4.1
253.571	4.06
253.947	3.76
254.322	3.68
254.697	3.53
255.073	3.63
255.448	3.57
255.823	3.5
256.198	3.35
256.573	3.35
256.948	3.42
257.323	3.7
257.698	3.76
258.073	3.89
258.448	4.04
258.823	3.84
259.198	4.16
259.573	3.94
259.948	4.05
260.322	4.06
260.697	4.07
261.072	4
261.446	3.97
261.821	4.21
262.195	4.38
262.57	4.31
262.944	4.19
263.319	4.16
263.693	4.16
264.067	4.07
264.442	4.13
264.816	4
265.19	3.85
265.564	3.83
265.938	3.71
266.313	3.58
266.687	3.73
267.061	3.51
267.435	3.81
267.809	3.75
268.183	3.62
268.556	3.51
268.93	3.57
269.304	3.43
269.678	3.43
270.051	3.35
270.425	3.56
270.799	3.53
271.172	3.66
271.546	3.6
271.919	3.66
272.293	3.63
272.666	3.78
273.04	3.92
273.413	3.91
273.787	4.01
274.16	3.99
274.533	3.91
274.906	3.94
275.279	3.81
275.653	3.88
276.026	4.05
276.399	4.07
276.772	4.16
277.145	4.33
277.518	4.17
277.891	4.21
278.263	4.2
278.636	4.33
279.009	4.39
279.382	4.39
279.755	4.46
280.127	4.52
280.5	4.31
280.872	4.32
281.245	4.4
281.617	4.33
281.99	4.29
282.362	4.19
282.735	4.13
283.107	4.19
283.479	4.23
283.852	4.18
284.224	4.24
284.596	4.1
284.968	4.02
285.34	4.07
285.713	4.1
286.085	3.97
286.457	3.9
286.829	3.69
287.201	3.68
287.572	3.78
287.944	3.79
288.316	3.94
288.688	3.94
289.06	3.99
289.431	4.03
289.803	4.12
290.175	4.24
290.546	4.37
290.918	4.42
291.289	4.21
291.661	4.26
292.032	4.23
292.403	4.15
292.775	4.21
293.146	4.21
293.517	4.13
293.889	4.25
294.26	4.37
294.631	4.58
295.002	4.6
295.373	4.53
295.744	4.47
296.115	4.38
296.486	4.42
296.857	4.31
297.228	4.33
297.599	4.18
297.97	4.23
298.34	4.2
298.711	4.24
299.082	4.45
299.452	4.61
299.823	4.69
300.194	4.94
300.564	5.02
300.935	5.2
301.305	5.29
301.676	5.35
302.046	5.35
302.416	5.43
302.787	5.57
303.157	5.56
303.527	5.72
303.897	5.82
304.267	5.93
304.637	6.13
305.008	6.27
305.378	6.32
305.748	6.36
306.117	6.36
306.487	6.48
306.857	6.48
307.227	6.44
307.597	6.43
307.967	6.38
308.336	6.36
308.706	6.34
309.076	6.51
309.445	6.54
309.815	6.65
310.184	6.53
310.554	6.45
310.923	6.55
311.293	6.56
311.662	6.55
312.031	6.6
312.401	6.48
312.77	6.47
313.139	6.73
313.508	6.7
313.877	6.73
314.246	6.76
314.616	6.83
314.985	6.89
315.353	6.99
315.722	7.18
316.091	7.42
316.46	7.39
316.829	7.3
317.198	7.46
317.567	7.55
317.935	7.82
318.304	8.08
318.672	8.35
319.041	8.39
319.41	8.53
319.778	8.61
320.147	8.95
320.515	8.86
320.883	8.97
321.252	9.27
321.62	9.51
321.988	9.45
322.357	9.68
322.725	9.74
323.093	9.78
323.461	9.85
323.829	9.9
324.197	10.09
324.565	10.22
324.933	10.15
325.301	10.11
325.669	10.08
326.037	10.17
326.405	10.21
326.772	10.24
327.14	10.27
327.508	10.29
327.875	10.24
328.243	10.38
328.61	10.46
328.978	10.33
329.346	10.41
329.713	10.45
330.08	10.33
330.448	10.38
330.815	10.48
331.182	10.27
331.55	10.13
331.917	10.11
332.284	10.14
332.651	10.17
333.018	10.28
333.385	10.34
333.752	10.23
334.119	10.24
334.486	10.3
334.853	10.34
335.22	10.32
335.587	10.32
335.954	10.29
336.32	10.19
336.687	10.35
337.054	10.33
337.42	10.4
337.787	10.35
338.153	10.47
338.52	10.56
338.886	10.74
339.253	10.77
339.619	10.93
339.986	10.95
340.352	11
340.718	11.12
341.084	11.06
341.451	11.19
341.817	11.15
342.183	11.21
342.549	11.28
342.915	11.33
343.281	11.39
343.647	11.45
344.013	11.44
344.379	11.42
344.745	11.44
345.11	11.43
345.476	11.56
345.842	11.51
346.208	11.44
346.573	11.49
346.939	11.5
347.304	11.44
347.67	11.34
348.035	11.34
348.401	11.24
348.766	11.26
349.132	11.28
349.497	11.33
349.862	11.4
350.228	11.37
350.593	11.4
350.958	11.43
351.323	11.43
351.688	11.41
352.053	11.38
352.418	11.39
352.783	11.46
353.148	11.44
353.513	11.38
353.878	11.36
354.243	11.23
354.608	11.37
354.972	11.39
355.337	11.56
355.702	11.53
356.066	11.48
356.431	11.55
356.795	11.53
357.16	11.45
357.524	11.37
357.889	11.3
358.253	11.24
358.618	11.24
358.982	11.26
359.346	11.26
359.71	11.24
360.075	11.21
360.439	11.2
360.803	11.26
361.167	11.19
361.531	11.23
361.895	11.21
362.259	11.17
362.623	11.05
362.987	10.9
363.351	10.88
363.714	10.89
364.078	10.82
364.442	10.71
364.806	10.68
365.169	10.65
365.533	10.62
365.896	10.57
366.26	10.38
366.623	10.35
366.987	10.34
367.35	10.31
367.714	10.23
368.077	10.21
368.44	10.05
368.803	9.99
369.167	9.85
369.53	9.87
369.893	9.73
370.256	9.68
370.619	9.64
370.982	9.53
371.345	9.39
371.708	9.27
372.071	9.22
372.434	9.15
372.797	9.07
373.159	8.99
373.522	8.91
373.885	8.95
374.247	8.84
374.61	8.81
374.973	8.71
375.335	8.66
375.698	8.48
376.06	8.42
376.423	8.39
376.785	8.36
377.147	8.24
377.51	8.17
377.872	8.07
378.234	8.08
378.596	8.09
378.958	8.09
379.321	8.07
379.683	8.03
380.045	7.97
380.407	7.91
380.769	7.92
381.13	7.86
381.492	7.8
381.854	7.72
382.216	7.66
382.578	7.64
382.939	7.53
383.301	7.51
383.663	7.46
384.024	7.4
384.386	7.33
384.747	7.3
385.109	7.27
385.47	7.25
385.832	7.16
386.193	7.09
386.554	6.99
386.916	6.91
387.277	6.83
387.638	6.81
387.999	6.8
388.36	6.77
388.721	6.71
389.082	6.7
389.443	6.67
389.804	6.59
390.165	6.55
390.526	6.52
390.887	6.5
391.248	6.48
391.609	6.47
391.969	6.4
392.33	6.35
392.691	6.29
393.051	6.26
393.412	6.23
393.772	6.22
394.133	6.17
394.493	6.14
394.854	6.11
395.214	6.08
395.574	6.01
395.935	5.93
396.295	5.91
396.655	5.81
397.015	5.74
397.376	5.7
397.736	5.64
398.096	5.61
398.456	5.51
398.816	5.47
399.176	5.41
399.535	5.39
399.895	5.34
400.255	5.33
400.615	5.3
400.975	5.28
401.334	5.23
401.694	5.21
402.054	5.16
402.413	5.16
402.773	5.09
403.132	5.06
403.492	5.04
403.851	5.03
404.211	5.04
404.57	5.04
404.929	4.99
405.288	4.96
405.648	4.92
406.007	4.94
406.366	4.9
406.725	4.85
407.084	4.82
407.443	4.81
407.802	4.79
408.161	4.75
408.52	4.72
408.879	4.69
409.238	4.68
409.596	4.7
409.955	4.65
410.314	4.65
410.673	4.63
411.031	4.59
411.39	4.54
411.748	4.49
412.107	4.47
412.465	4.44
412.824	4.42
413.182	4.4
413.54	4.38
413.899	4.35
414.257	4.34
414.615	4.32
414.974	4.34
415.332	4.29
415.69	4.28
416.048	4.26
416.406	4.22
416.764	4.19
417.122	4.14
417.48	4.14
417.838	4.14
418.195	4.12
418.553	4.12
418.911	4.13
419.269	4.13
419.626	4.13
419.984	4.13
420.342	4.13
420.699	4.12
421.057	4.09
421.414	4.08
421.772	4.08
422.129	4.05
422.486	4.03
422.844	4.03
423.201	4.02
423.558	4.01
423.915	4.01
424.273	3.99
424.63	3.99
424.987	3.99
425.344	3.97
425.701	3.97
426.058	3.96
426.415	3.93
426.772	3.89
427.128	3.87
427.485	3.86
427.842	3.84
428.199	3.85
428.555	3.85
428.912	3.84
429.269	3.8
429.625	3.77
429.982	3.75
430.338	3.74
430.695	3.72
431.051	3.72
431.407	3.71
431.764	3.72
432.12	3.72
432.476	3.69
432.832	3.7
433.189	3.67
433.545	3.66
433.901	3.68
434.257	3.7
434.613	3.7
434.969	3.7
435.325	3.69
435.681	3.67
436.036	3.66
436.392	3.67
436.748	3.68
437.104	3.72
437.459	3.73
437.815	3.73
438.171	3.72
438.526	3.7
438.882	3.7
439.237	3.71
439.593	3.7
439.948	3.7
440.304	3.68
440.659	3.68
441.014	3.68
441.369	3.68
441.725	3.67
442.08	3.66
442.435	3.67
442.79	3.66
443.145	3.66
443.5	3.64
443.855	3.64
444.21	3.62
444.565	3.61
444.92	3.59
445.275	3.58
445.629	3.58
445.984	3.59
446.339	3.58
446.693	3.57
447.048	3.56
447.403	3.56
447.757	3.55
448.112	3.54
448.466	3.54
448.82	3.51
449.175	3.52
449.529	3.5
449.883	3.48
450.238	3.47
450.592	3.48
450.946	3.49
451.3	3.46
451.654	3.45
452.008	3.45
452.362	3.44
452.716	3.44
453.07	3.43
453.424	3.42
453.778	3.42
454.132	3.42
454.486	3.42
454.839	3.43
455.193	3.44
455.547	3.43
455.9	3.43
456.254	3.44
456.607	3.42
456.961	3.43
457.314	3.43
457.668	3.42
458.021	3.41
458.375	3.38
458.728	3.39
459.081	3.38
459.434	3.38
459.787	3.39
460.141	3.4
460.494	3.4
460.847	3.41
461.2	3.41
461.553	3.42
461.906	3.43
462.259	3.41
462.611	3.41
462.964	3.41
463.317	3.41
463.67	3.41
464.022	3.43
464.375	3.43
464.728	3.44
465.08	3.45
465.433	3.46
465.785	3.5
466.138	3.52
466.49	3.54
466.843	3.57
467.195	3.58
467.547	3.57
467.899	3.58
468.252	3.6
468.604	3.62
468.956	3.59
469.308	3.59
469.66	3.63
470.012	3.64
470.364	3.66
470.716	3.69
471.068	3.71
471.42	3.75
471.772	3.76
472.123	3.78
472.475	3.8
472.827	3.8
473.178	3.81
473.53	3.82
473.882	3.82
474.233	3.82
474.585	3.82
474.936	3.85
475.288	3.85
475.639	3.87
475.99	3.86
476.342	3.89
476.693	3.9
477.044	3.88
477.395	3.87
477.746	3.87
478.097	3.86
478.448	3.85
478.8	3.84
479.15	3.84
479.501	3.84
479.852	3.85
480.203	3.87
480.554	3.87
480.905	3.86
481.255	3.87
481.606	3.86
481.957	3.86
482.307	3.85
482.658	3.85
483.009	3.84
483.359	3.85
483.709	3.84
484.06	3.84
484.41	3.85
484.761	3.85
485.111	3.86
485.461	3.86
485.811	3.85
486.162	3.86
486.512	3.85
486.862	3.85
487.212	3.84
487.562	3.83
487.912	3.82
488.262	3.82
488.612	3.8
488.961	3.8
489.311	3.8
489.661	3.81
490.011	3.8
490.36	3.8
490.71	3.78
491.06	3.79
491.409	3.79
491.759	3.79
492.108	3.79
492.458	3.78
492.807	3.78
493.157	3.79
493.506	3.78
493.855	3.79
494.204	3.8
494.554	3.8
494.903	3.83
495.252	3.85
495.601	3.86
495.95	3.9
496.299	3.91
496.648	3.94
496.997	3.95
497.346	3.96
497.695	3.99
498.043	4.04
498.392	4.07
498.741	4.11
499.09	4.15
499.438	4.18
499.787	4.22
500.135	4.27
500.484	4.3
500.832	4.35
501.181	4.4
501.529	4.45
501.878	4.5
502.226	4.56
502.574	4.6
502.923	4.67
503.271	4.72
503.619	4.8
503.967	4.85
504.315	4.93
504.663	5.01
505.011	5.05
505.359	5.09
505.707	5.17
506.055	5.24
506.403	5.31
506.751	5.38
507.098	5.47
507.446	5.54
507.794	5.61
508.141	5.67
508.489	5.76
508.837	5.84
509.184	5.93
509.531	6.01
509.879	6.08
510.226	6.15
510.574	6.24
510.921	6.3
511.268	6.4
511.616	6.49
511.963	6.58
512.31	6.7
512.657	6.81
513.004	6.9
513.351	7
513.698	7.12
514.045	7.24
514.392	7.35
514.739	7.46
515.086	7.6
515.432	7.77
515.779	7.87
516.126	8.01
516.473	8.1
516.819	8.24
517.166	8.41
517.512	8.53
517.859	8.66
518.205	8.78
518.552	8.87
518.898	8.98
519.245	9.12
519.591	9.22
519.937	9.33
520.283	9.47
520.629	9.59
520.976	9.72
521.322	9.87
521.668	10.01
522.014	10.16
522.36	10.33
522.706	10.46
523.052	10.62
523.398	10.78
523.743	10.99
524.089	11.16
524.435	11.3
524.781	11.48
525.126	11.64
525.472	11.8
525.817	11.94
526.163	12.08
526.509	12.19
526.854	12.31
527.199	12.41
527.545	12.5
527.89	12.59
528.235	12.71
528.581	12.8
528.926	12.9
529.271	13.01
529.616	13.09
529.961	13.19
530.306	13.3
530.651	13.41
530.996	13.53
531.341	13.65
531.686	13.78
532.031	13.9
532.376	14.02
532.721	14.15
533.065	14.29
533.41	14.42
533.755	14.55
534.099	14.7
534.444	14.86
534.788	15.01
535.133	15.18
535.477	15.3
535.822	15.46
536.166	15.63
536.51	15.82
536.855	16.03
537.199	16.26
537.543	16.47
537.887	16.69
538.231	16.89
538.576	17.09
538.92	17.3
539.264	17.49
539.608	17.68
539.951	17.84
540.295	18.01
540.639	18.16
540.983	18.35
541.327	18.5
541.671	18.66
542.014	18.84
542.358	18.99
542.701	19.17
543.045	19.36
543.389	19.53
543.732	19.66
544.075	19.81
544.419	19.98
544.762	20.15
545.105	20.32
545.449	20.52
545.792	20.73
546.135	20.93
546.478	21.17
546.821	21.38
547.165	21.65
547.508	21.9
547.851	22.16
548.194	22.4
548.536	22.66
548.879	22.94
549.222	23.19
549.565	23.48
549.908	23.72
550.25	23.95
550.593	24.21
550.936	24.53
551.278	24.82
551.621	25.09
551.963	25.36
552.306	25.61
552.648	25.88
552.991	26.1
553.333	26.36
553.675	26.62
554.017	26.87
554.36	27.06
554.702	27.34
555.044	27.6
555.386	27.87
555.728	28.13
556.07	28.34
556.412	28.57
556.754	28.79
557.096	29.05
557.438	29.33
557.78	29.63
558.121	29.93
558.463	30.2
558.805	30.5
559.147	30.82
559.488	31.1
559.83	31.4
560.171	31.7
560.513	32.03
560.854	32.3
561.196	32.52
561.537	32.8
561.878	33.06
562.22	33.36
562.561	33.61
562.902	33.83
563.243	34.12
563.584	34.36
563.925	34.68
564.266	34.94
564.607	35.17
564.948	35.4
565.289	35.65
565.63	35.89
565.971	36.13
566.312	36.32
566.653	36.62
566.993	36.85
567.334	37.12
567.675	37.32
568.015	37.56
568.356	37.88
568.696	38.14
569.037	38.42
569.377	38.66
569.718	38.91
570.058	39.18
570.398	39.41
570.739	39.66
571.079	39.85
571.419	40.08
571.759	40.32
572.099	40.55
572.439	40.71
572.779	40.93
573.119	41.09
573.459	41.28
573.799	41.45
574.139	41.59
574.479	41.77
574.819	41.97
575.158	42.16
575.498	42.25
575.838	42.44
576.177	42.52
576.517	42.68
576.856	42.8
577.196	42.97
577.535	43.14
577.875	43.31
578.214	43.52
578.553	43.67
578.893	43.84
579.232	44.03
579.571	44.24
579.91	44.39
580.25	44.65
580.589	44.89
580.928	45.01
581.267	45.18
581.606	45.3
581.945	45.45
582.283	45.61
582.622	45.82
582.961	45.99
583.3	46.21
583.639	46.37
583.977	46.57
584.316	46.72
584.654	46.87
584.993	47.04
585.332	47.14
585.67	47.34
586.008	47.46
586.347	47.57
586.685	47.71
587.024	47.89
587.362	47.95
587.7	48.01
588.038	48.15
588.376	48.29
588.715	48.45
589.053	48.6
589.391	48.78
589.729	48.94
590.067	49.06
590.404	49.11
590.742	49.22
591.08	49.33
591.418	49.47
591.756	49.56
592.093	49.66
592.431	49.78
592.769	49.83
593.106	49.93
593.444	50.04
593.781	50.07
594.119	50.15
594.456	50.24
594.793	50.32
595.131	50.38
595.468	50.5
595.805	50.57
596.143	50.62
596.48	50.62
596.817	50.64
597.154	50.72
597.491	50.81
597.828	50.9
598.165	50.95
598.502	51.02
598.839	51.1
599.176	51.27
599.512	51.37
599.849	51.5
600.186	51.66
600.523	51.69
600.859	51.87
601.196	51.85
601.532	51.99
601.869	52.07
602.205	52.12
602.542	52.18
602.878	52.25
603.215	52.34
603.551	52.44
603.887	52.51
604.223	52.56
604.56	52.63
604.896	52.7
605.232	52.79
605.568	52.89
605.904	52.91
606.24	52.87
606.576	52.92
606.912	52.99
607.248	52.96
607.583	53.07
607.919	53.13
608.255	53.25
608.591	53.26
608.926	53.33
609.262	53.48
609.597	53.55
609.933	53.57
610.268	53.59
610.604	53.59
610.939	53.64
611.275	53.73
611.61	53.79
611.945	53.79
612.281	53.8
612.616	53.8
612.951	53.98
613.286	54.08
613.621	54.11
613.956	54.18
614.291	54.27
614.626	54.33
614.961	54.29
615.296	54.37
615.631	54.38
615.966	54.39
616.3	54.38
616.635	54.33
616.97	54.38
617.304	54.38
617.639	54.43
617.973	54.53
618.308	54.55
618.642	54.56
618.977	54.54
619.311	54.57
619.646	54.62
619.98	54.6
620.314	54.58
620.648	54.59
620.983	54.63
621.317	54.72
621.651	54.76
621.985	54.86
622.319	54.91
622.653	54.93
622.987	54.99
623.321	55.11
623.655	55.16
623.988	55.22
624.322	55.28
624.656	55.38
624.99	55.45
625.323	55.53
625.657	55.6
625.99	55.73
626.324	55.78
626.657	55.79
626.991	55.83
627.324	55.91
627.658	56
627.991	56.02
628.324	56
628.657	56
628.991	56.03
629.324	56.07
629.657	56.18
629.99	56.21
630.323	56.16
630.656	56.27
630.989	56.31
631.322	56.38
631.655	56.35
631.987	56.28
632.32	56.2
632.653	56.2
632.986	56.23
633.318	56.33
633.651	56.41
633.984	56.5
634.316	56.44
634.649	56.46
634.981	56.38
635.313	56.48
635.646	56.54
635.978	56.51
636.31	56.4
636.643	56.35
636.975	56.39
637.307	56.41
637.639	56.34
637.971	56.25
638.303	56.23
638.635	56.23
638.967	56.37
639.299	56.45
639.631	56.48
639.963	56.43
640.295	56.39
640.626	56.3
640.958	56.28
641.29	56.39
641.621	56.28
641.953	56.41
642.285	56.3
642.616	56.37
642.948	56.37
643.279	56.6
643.61	56.61
643.942	56.62
644.273	56.67
644.604	56.76
644.936	56.86
645.267	56.96
645.598	57.1
645.929	57.04
646.26	56.98
646.591	56.93
646.922	56.96
647.253	57
647.584	57.01
647.915	56.98
648.245	57.06
648.576	57.2
648.907	57.22
649.238	57.25
649.568	57.15
649.899	57.31
650.229	57.23
650.56	57.28
650.89	57.29
651.221	57.34
651.551	57.35
651.882	57.43
652.212	57.48
652.542	57.43
652.872	57.39
653.203	57.48
653.533	57.6
653.863	57.55
654.193	57.44
654.523	57.53
654.853	57.58
655.183	57.56
655.513	57.57
655.843	57.67
656.172	57.8
656.502	57.84
656.832	57.76
657.162	57.84
657.491	57.9
657.821	57.91
658.15	57.95
658.48	57.92
658.809	57.82
659.139	57.84
659.468	57.76
659.798	57.86
660.127	57.91
660.456	57.93
660.785	58.03
661.115	58.08
661.444	58.15
661.773	58.13
662.102	58.2
662.431	58.18
662.76	58.21
663.089	58.15
663.418	58.18
663.747	58.21
664.076	58.12
664.404	58.11
664.733	58.11
665.062	58.1
665.39	58.07
