Data from BU26844_Reflection_00001.txt Node
Date: Mon Nov 18 16:35:57 EST 2019
User: vgr7
Spectrometer: USB2G7710
Scans to average: 3
Trigger mode: 4
Integration Time (sec): 2.000000E-2
Electric dark correction enabled: true
Boxcar width: 10
XAxis mode: Wavelengths
Number of Pixels in Spectrum: 2048
>>>>>Begin Spectral Data<<<<<
177.721	-370.95
178.105	-4233.33
178.488	-112.81
178.871	-5983.33
179.254	25.61
179.636	704.17
180.019	-115.12
180.402	47.22
180.785	-22.69
181.168	13.24
181.55	39.67
181.933	68.38
182.316	109.62
182.698	80.27
183.081	46.44
183.463	81.71
183.846	96.89
184.228	89.8
184.611	141.53
184.993	371.39
185.376	5069.7
185.758	-317.96
186.14	-299.46
186.522	-381.62
186.904	-896.7
187.287	1216.47
187.669	-333.45
188.051	-350.45
188.433	-227.66
188.815	-119.6
189.197	-108.93
189.579	-87.35
189.961	-127.02
190.342	-116.1
190.724	-93.29
191.106	-93.77
191.488	-95.89
191.869	-86.02
192.251	-82.9
192.633	-85.8
193.014	-86.83
193.396	-72.63
193.777	-66.06
194.159	-64.18
194.54	-53.88
194.922	-57.89
195.303	-50.98
195.684	-58.37
196.065	-56.18
196.447	-67.14
196.828	-90.48
197.209	-99.53
197.59	-98.15
197.971	-82.84
198.352	-99.16
198.733	-118.82
199.114	-107.25
199.495	-99.04
199.876	-83.42
200.257	-74.44
200.638	-71.68
201.018	-93.23
201.399	-127.52
201.78	-138.15
202.16	-199.65
202.541	-217.16
202.922	-267.3
203.302	-286.64
203.683	-230.86
204.063	-454.07
204.444	-521.15
204.824	-387.09
205.204	-238.16
205.585	-352.48
205.965	-296.35
206.345	-223.51
206.725	-257.2
207.106	-311.44
207.486	-346.3
207.866	-593.16
208.246	-520.55
208.626	-672.59
209.006	-113.03
209.386	-133.74
209.766	-112.51
210.145	-52.35
210.525	-71.92
210.905	-49.37
211.285	-37.63
211.664	-25.65
212.044	2.03
212.424	-9.75
212.803	-27.68
213.183	-41.26
213.562	-38.39
213.942	-16.3
214.321	-18.06
214.701	-20.89
215.08	-29.68
215.459	-26.24
215.838	-24.56
216.218	-27.67
216.597	-25.4
216.976	-31.34
217.355	-27.2
217.734	-29.47
218.113	-27.91
218.492	-23.79
218.871	-27.51
219.25	-23.14
219.629	-25.16
220.008	-28.55
220.387	-36.55
220.766	-45.09
221.144	-48.24
221.523	-48.33
221.902	-63.56
222.28	-69.96
222.659	-67
223.037	-47.05
223.416	-62.85
223.794	-79.02
224.173	-72
224.551	-70.98
224.929	-61.19
225.308	-44.29
225.686	-35.15
226.064	-25.83
226.442	-24.13
226.821	-12.99
227.199	-19.2
227.577	-16.62
227.955	-18.27
228.333	-18.12
228.711	-12.96
229.089	-7.89
229.467	-11.35
229.845	-12.16
230.222	-7.91
230.6	-9.39
230.978	-10.74
231.356	-6.93
231.733	-5.81
232.111	-4.85
232.488	-1.08
232.866	-2.41
233.243	-1.74
233.621	-2.94
233.998	-2.91
234.376	-1.92
234.753	-5.2
235.13	-2.71
235.508	-1.66
235.885	-0.03
236.262	-0.25
236.639	-0.85
237.016	-1.24
237.393	1.36
237.77	2.67
238.147	2.43
238.524	2.99
238.901	3.8
239.278	3.32
239.655	3.66
240.032	3.08
240.409	2.76
240.785	2.84
241.162	2.99
241.539	3.01
241.915	2.36
242.292	2.49
242.668	2.73
243.045	2.67
243.421	2.75
243.798	2.77
244.174	2.97
244.551	3.32
244.927	3.15
245.303	3.23
245.679	3.04
246.056	2.92
246.432	2.94
246.808	2.92
247.184	2.75
247.56	2.71
247.936	2.94
248.312	2.89
248.688	3.23
249.064	2.97
249.44	2.95
249.815	3.19
250.191	3.18
250.567	3.27
250.943	3.26
251.318	3.47
251.694	3.39
252.069	3.38
252.445	3.19
252.82	3.19
253.196	2.98
253.571	3.1
253.947	3.27
254.322	3.3
254.697	3.14
255.073	3.12
255.448	3.1
255.823	3.02
256.198	3.11
256.573	2.79
256.948	2.88
257.323	3.06
257.698	2.93
258.073	3.01
258.448	3.04
258.823	2.96
259.198	2.63
259.573	2.68
259.948	2.64
260.322	2.79
260.697	2.77
261.072	2.82
261.446	2.77
261.821	2.68
262.195	2.71
262.57	2.6
262.944	2.57
263.319	2.52
263.693	2.44
264.067	2.54
264.442	2.55
264.816	2.66
265.19	2.47
265.564	2.49
265.938	2.32
266.313	2.27
266.687	2.41
267.061	2.65
267.435	2.6
267.809	2.71
268.183	2.44
268.556	2.48
268.93	2.36
269.304	2.52
269.678	2.61
270.051	2.55
270.425	2.62
270.799	2.74
271.172	2.72
271.546	2.72
271.919	2.53
272.293	2.58
272.666	2.63
273.04	2.61
273.413	2.61
273.787	2.6
274.16	2.69
274.533	2.52
274.906	2.42
275.279	2.56
275.653	2.48
276.026	2.5
276.399	2.44
276.772	2.71
277.145	2.61
277.518	2.72
277.891	2.9
278.263	2.93
278.636	2.94
279.009	2.96
279.382	3.04
279.755	3.17
280.127	3.32
280.5	3.19
280.872	3.21
281.245	3.23
281.617	3.45
281.99	3.4
282.362	3.5
282.735	3.55
283.107	3.45
283.479	3.56
283.852	3.69
284.224	3.69
284.596	3.58
284.968	3.68
285.34	3.52
285.713	3.38
286.085	3.41
286.457	3.42
286.829	3.54
287.201	3.54
287.572	3.38
287.944	3.26
288.316	3.32
288.688	3.31
289.06	3.36
289.431	3.2
289.803	3.15
290.175	3.19
290.546	3.26
290.918	3.22
291.289	3.22
291.661	3.2
292.032	3.32
292.403	3.33
292.775	3.33
293.146	3.38
293.517	3.37
293.889	3.51
294.26	3.49
294.631	3.49
295.002	3.42
295.373	3.52
295.744	3.63
296.115	3.52
296.486	3.54
296.857	3.58
297.228	3.72
297.599	3.71
297.97	3.77
298.34	3.69
298.711	3.76
299.082	3.7
299.452	3.73
299.823	3.71
300.194	3.75
300.564	3.65
300.935	3.76
301.305	3.78
301.676	3.82
302.046	3.8
302.416	3.8
302.787	3.96
303.157	4.07
303.527	4.04
303.897	4.26
304.267	4.37
304.637	4.37
305.008	4.39
305.378	4.46
305.748	4.44
306.117	4.37
306.487	4.41
306.857	4.43
307.227	4.45
307.597	4.48
307.967	4.33
308.336	4.39
308.706	4.18
309.076	4.22
309.445	4.06
309.815	4.03
310.184	4.11
310.554	4.12
310.923	4.09
311.293	4.03
311.662	3.95
312.031	3.98
312.401	3.85
312.77	3.82
313.139	3.9
313.508	3.77
313.877	3.82
314.246	3.93
314.616	3.99
314.985	3.96
315.353	3.96
315.722	4.18
316.091	4.2
316.46	4.26
316.829	4.29
317.198	4.42
317.567	4.32
317.935	4.12
318.304	4
318.672	3.99
319.041	4.13
319.41	4.19
319.778	4.05
320.147	4.18
320.515	4.19
320.883	4.04
321.252	4.26
321.62	4.38
321.988	4.33
322.357	4.34
322.725	4.14
323.093	4.13
323.461	4
323.829	4.01
324.197	3.96
324.565	4.07
324.933	4.12
325.301	4.27
325.669	4.39
326.037	4.4
326.405	4.29
326.772	4.23
327.14	4.27
327.508	4.43
327.875	4.33
328.243	4.23
328.61	4.23
328.978	4.18
329.346	4.18
329.713	4.08
330.08	4.16
330.448	4.19
330.815	4.08
331.182	4.09
331.55	4.05
331.917	4.26
332.284	4.23
332.651	4.09
333.018	4.16
333.385	4.09
333.752	4.07
334.119	4.22
334.486	4.21
334.853	4.13
335.22	4.02
335.587	4.19
335.954	4.22
336.32	4.22
336.687	4.23
337.054	4.16
337.42	4.26
337.787	4.2
338.153	4.33
338.52	4.45
338.886	4.33
339.253	4.27
339.619	4.11
339.986	4.03
340.352	4.09
340.718	4.01
341.084	4.04
341.451	4.13
341.817	4.19
342.183	4.18
342.549	4.23
342.915	4.38
343.281	4.24
343.647	4.16
344.013	4.16
344.379	4.19
344.745	4.12
345.11	4.06
345.476	3.9
345.842	3.88
346.208	3.82
346.573	3.92
346.939	4.03
347.304	4.06
347.67	4.06
348.035	3.99
348.401	3.99
348.766	4.04
349.132	3.98
349.497	3.79
349.862	3.91
350.228	3.85
350.593	3.7
350.958	3.74
351.323	3.82
351.688	3.93
352.053	3.9
352.418	4.07
352.783	4.04
353.148	4.16
353.513	4.24
353.878	4.23
354.243	4.25
354.608	4.26
354.972	4.33
355.337	4.37
355.702	4.43
356.066	4.49
356.431	4.4
356.795	4.41
357.16	4.47
357.524	4.36
357.889	4.33
358.253	4.4
358.618	4.44
358.982	4.45
359.346	4.34
359.71	4.31
360.075	4.22
360.439	4.24
360.803	4.24
361.167	4.18
361.531	4.18
361.895	4.19
362.259	4.15
362.623	4.09
362.987	4.08
363.351	4.11
363.714	4.09
364.078	4.1
364.442	4.05
364.806	4.09
365.169	4.08
365.533	4.1
365.896	4.05
366.26	4.05
366.623	4.05
366.987	4.14
367.35	4.17
367.714	4.15
368.077	4.05
368.44	4.11
368.803	4.13
369.167	4.09
369.53	4
369.893	4.05
370.256	4.1
370.619	4.04
370.982	3.96
371.345	3.99
371.708	3.99
372.071	4.09
372.434	4.03
372.797	4.07
373.159	4.07
373.522	4.1
373.885	4.08
374.247	4.09
374.61	4.03
374.973	4
375.335	4.07
375.698	4.17
376.06	4.12
376.423	4.06
376.785	4.12
377.147	4.21
377.51	4.22
377.872	4.2
378.234	4.24
378.596	4.3
378.958	4.26
379.321	4.26
379.683	4.26
380.045	4.2
380.407	4.21
380.769	4.22
381.13	4.21
381.492	4.21
381.854	4.21
382.216	4.26
382.578	4.28
382.939	4.21
383.301	4.22
383.663	4.2
384.024	4.22
384.386	4.23
384.747	4.19
385.109	4.17
385.47	4.16
385.832	4.14
386.193	4.12
386.554	4.13
386.916	4.13
387.277	4.08
387.638	4.17
387.999	4.17
388.36	4.19
388.721	4.17
389.082	4.17
389.443	4.15
389.804	4.11
390.165	4.1
390.526	4.17
390.887	4.17
391.248	4.2
391.609	4.2
391.969	4.21
392.33	4.23
392.691	4.23
393.051	4.26
393.412	4.29
393.772	4.32
394.133	4.31
394.493	4.32
394.854	4.34
395.214	4.3
395.574	4.27
395.935	4.26
396.295	4.3
396.655	4.29
397.015	4.32
397.376	4.37
397.736	4.36
398.096	4.35
398.456	4.34
398.816	4.35
399.176	4.3
399.535	4.27
399.895	4.25
400.255	4.22
400.615	4.21
400.975	4.2
401.334	4.18
401.694	4.23
402.054	4.23
402.413	4.26
402.773	4.28
403.132	4.31
403.492	4.33
403.851	4.3
404.211	4.3
404.57	4.27
404.929	4.26
405.288	4.24
405.648	4.22
406.007	4.23
406.366	4.2
406.725	4.22
407.084	4.25
407.443	4.27
407.802	4.28
408.161	4.27
408.52	4.27
408.879	4.25
409.238	4.24
409.596	4.24
409.955	4.21
410.314	4.23
410.673	4.2
411.031	4.16
411.39	4.2
411.748	4.17
412.107	4.18
412.465	4.18
412.824	4.21
413.182	4.2
413.54	4.21
413.899	4.22
414.257	4.24
414.615	4.22
414.974	4.21
415.332	4.2
415.69	4.23
416.048	4.22
416.406	4.23
416.764	4.23
417.122	4.22
417.48	4.21
417.838	4.2
418.195	4.21
418.553	4.23
418.911	4.22
419.269	4.24
419.626	4.23
419.984	4.23
420.342	4.23
420.699	4.23
421.057	4.23
421.414	4.23
421.772	4.23
422.129	4.24
422.486	4.24
422.844	4.26
423.201	4.23
423.558	4.24
423.915	4.24
424.273	4.24
424.63	4.24
424.987	4.24
425.344	4.22
425.701	4.22
426.058	4.22
426.415	4.21
426.772	4.2
427.128	4.2
427.485	4.2
427.842	4.2
428.199	4.2
428.555	4.19
428.912	4.19
429.269	4.19
429.625	4.19
429.982	4.17
430.338	4.18
430.695	4.21
431.051	4.19
431.407	4.2
431.764	4.18
432.12	4.18
432.476	4.21
432.832	4.22
433.189	4.21
433.545	4.21
433.901	4.21
434.257	4.22
434.613	4.22
434.969	4.21
435.325	4.21
435.681	4.21
436.036	4.23
436.392	4.22
436.748	4.24
437.104	4.23
437.459	4.23
437.815	4.21
438.171	4.22
438.526	4.25
438.882	4.25
439.237	4.28
439.593	4.29
439.948	4.27
440.304	4.29
440.659	4.29
441.014	4.3
441.369	4.31
441.725	4.29
442.08	4.29
442.435	4.29
442.79	4.3
443.145	4.3
443.5	4.3
443.855	4.31
444.21	4.3
444.565	4.32
444.92	4.32
445.275	4.31
445.629	4.33
445.984	4.31
446.339	4.3
446.693	4.28
447.048	4.27
447.403	4.27
447.757	4.27
448.112	4.27
448.466	4.25
448.82	4.25
449.175	4.28
449.529	4.28
449.883	4.28
450.238	4.26
450.592	4.26
450.946	4.24
451.3	4.22
451.654	4.21
452.008	4.21
452.362	4.21
452.716	4.22
453.07	4.18
453.424	4.17
453.778	4.17
454.132	4.16
454.486	4.16
454.839	4.17
455.193	4.17
455.547	4.18
455.9	4.19
456.254	4.19
456.607	4.17
456.961	4.17
457.314	4.16
457.668	4.18
458.021	4.2
458.375	4.21
458.728	4.24
459.081	4.23
459.434	4.21
459.787	4.23
460.141	4.24
460.494	4.26
460.847	4.27
461.2	4.28
461.553	4.3
461.906	4.3
462.259	4.3
462.611	4.29
462.964	4.31
463.317	4.3
463.67	4.31
464.022	4.33
464.375	4.34
464.728	4.37
465.08	4.36
465.433	4.38
465.785	4.39
466.138	4.38
466.49	4.4
466.843	4.42
467.195	4.41
467.547	4.41
467.899	4.39
468.252	4.4
468.604	4.42
468.956	4.41
469.308	4.41
469.66	4.4
470.012	4.4
470.364	4.39
470.716	4.4
471.068	4.4
471.42	4.39
471.772	4.4
472.123	4.41
472.475	4.41
472.827	4.39
473.178	4.41
473.53	4.4
473.882	4.38
474.233	4.4
474.585	4.4
474.936	4.4
475.288	4.42
475.639	4.43
475.99	4.43
476.342	4.44
476.693	4.48
477.044	4.51
477.395	4.52
477.746	4.52
478.097	4.53
478.448	4.53
478.8	4.52
479.15	4.51
479.501	4.51
479.852	4.52
480.203	4.52
480.554	4.52
480.905	4.54
481.255	4.54
481.606	4.55
481.957	4.55
482.307	4.55
482.658	4.53
483.009	4.53
483.359	4.53
483.709	4.53
484.06	4.52
484.41	4.52
484.761	4.51
485.111	4.52
485.461	4.52
485.811	4.52
486.162	4.52
486.512	4.54
486.862	4.54
487.212	4.54
487.562	4.55
487.912	4.54
488.262	4.53
488.612	4.53
488.961	4.53
489.311	4.53
489.661	4.53
490.011	4.54
490.36	4.54
490.71	4.54
491.06	4.56
491.409	4.57
491.759	4.56
492.108	4.56
492.458	4.57
492.807	4.57
493.157	4.58
493.506	4.61
493.855	4.59
494.204	4.58
494.554	4.59
494.903	4.56
495.252	4.58
495.601	4.6
495.95	4.62
496.299	4.62
496.648	4.63
496.997	4.63
497.346	4.67
497.695	4.67
498.043	4.68
498.392	4.67
498.741	4.67
499.09	4.66
499.438	4.69
499.787	4.68
500.135	4.71
500.484	4.7
500.832	4.68
501.181	4.7
501.529	4.71
501.878	4.7
502.226	4.73
502.574	4.74
502.923	4.74
503.271	4.72
503.619	4.73
503.967	4.73
504.315	4.71
504.663	4.7
505.011	4.72
505.359	4.72
505.707	4.75
506.055	4.75
506.403	4.81
506.751	4.78
507.098	4.79
507.446	4.79
507.794	4.81
508.141	4.82
508.489	4.84
508.837	4.85
509.184	4.86
509.531	4.86
509.879	4.87
510.226	4.89
510.574	4.88
510.921	4.89
511.268	4.91
511.616	4.94
511.963	4.95
512.31	4.94
512.657	4.95
513.004	4.95
513.351	4.96
513.698	4.96
514.045	4.98
514.392	4.98
514.739	4.99
515.086	4.98
515.432	4.98
515.779	4.97
516.126	4.98
516.473	4.99
516.819	5
517.166	4.99
517.512	4.99
517.859	5.01
518.205	5
518.552	5.02
518.898	5.01
519.245	5.02
519.591	5.01
519.937	4.99
520.283	5
520.629	4.98
520.976	5
521.322	4.99
521.668	5
522.014	5.01
522.36	5.01
522.706	5.02
523.052	5.03
523.398	5.04
523.743	5.03
524.089	5.03
524.435	5.04
524.781	5.07
525.126	5.08
525.472	5.1
525.817	5.09
526.163	5.12
526.509	5.13
526.854	5.15
527.199	5.16
527.545	5.15
527.89	5.16
528.235	5.15
528.581	5.16
528.926	5.17
529.271	5.17
529.616	5.17
529.961	5.18
530.306	5.17
530.651	5.16
530.996	5.18
531.341	5.18
531.686	5.19
532.031	5.17
532.376	5.19
532.721	5.19
533.065	5.19
533.41	5.18
533.755	5.17
534.099	5.17
534.444	5.17
534.788	5.19
535.133	5.17
535.477	5.17
535.822	5.16
536.166	5.16
536.51	5.14
536.855	5.16
537.199	5.16
537.543	5.17
537.887	5.18
538.231	5.19
538.576	5.19
538.92	5.2
539.264	5.2
539.608	5.17
539.951	5.16
540.295	5.16
540.639	5.16
540.983	5.15
541.327	5.17
541.671	5.16
542.014	5.16
542.358	5.18
542.701	5.19
543.045	5.2
543.389	5.2
543.732	5.21
544.075	5.21
544.419	5.2
544.762	5.2
545.105	5.19
545.449	5.18
545.792	5.2
546.135	5.19
546.478	5.2
546.821	5.21
547.165	5.21
547.508	5.23
547.851	5.23
548.194	5.24
548.536	5.22
548.879	5.24
549.222	5.23
549.565	5.22
549.908	5.24
550.25	5.26
550.593	5.27
550.936	5.27
551.278	5.25
551.621	5.29
551.963	5.3
552.306	5.32
552.648	5.29
552.991	5.28
553.333	5.31
553.675	5.3
554.017	5.31
554.36	5.33
554.702	5.34
555.044	5.34
555.386	5.35
555.728	5.35
556.07	5.38
556.412	5.37
556.754	5.38
557.096	5.34
557.438	5.3
557.78	5.31
558.121	5.3
558.463	5.3
558.805	5.3
559.147	5.3
559.488	5.29
559.83	5.32
560.171	5.33
560.513	5.3
560.854	5.3
561.196	5.26
561.537	5.28
561.878	5.25
562.22	5.22
562.561	5.21
562.902	5.22
563.243	5.21
563.584	5.25
563.925	5.24
564.266	5.28
564.607	5.3
564.948	5.3
565.289	5.31
565.63	5.3
565.971	5.29
566.312	5.29
566.653	5.31
566.993	5.31
567.334	5.25
567.675	5.27
568.015	5.28
568.356	5.3
568.696	5.3
569.037	5.33
569.377	5.36
569.718	5.37
570.058	5.37
570.398	5.36
570.739	5.36
571.079	5.37
571.419	5.36
571.759	5.37
572.099	5.38
572.439	5.39
572.779	5.4
573.119	5.43
573.459	5.46
573.799	5.49
574.139	5.47
574.479	5.52
574.819	5.53
575.158	5.52
575.498	5.51
575.838	5.47
576.177	5.45
576.517	5.44
576.856	5.45
577.196	5.44
577.535	5.45
577.875	5.45
578.214	5.45
578.553	5.48
578.893	5.45
579.232	5.43
579.571	5.42
579.91	5.41
580.25	5.36
580.589	5.33
580.928	5.29
581.267	5.33
581.606	5.28
581.945	5.27
582.283	5.26
582.622	5.3
582.961	5.32
583.3	5.32
583.639	5.35
583.977	5.36
584.316	5.38
584.654	5.34
584.993	5.35
585.332	5.36
585.67	5.35
586.008	5.38
586.347	5.36
586.685	5.38
587.024	5.39
587.362	5.44
587.7	5.43
588.038	5.45
588.376	5.44
588.715	5.48
589.053	5.54
589.391	5.57
589.729	5.58
590.067	5.6
590.404	5.57
590.742	5.58
591.08	5.54
591.418	5.54
591.756	5.58
592.093	5.56
592.431	5.54
592.769	5.53
593.106	5.56
593.444	5.56
593.781	5.56
594.119	5.56
594.456	5.56
594.793	5.57
595.131	5.54
595.468	5.53
595.805	5.51
596.143	5.44
596.48	5.48
596.817	5.49
597.154	5.52
597.491	5.56
597.828	5.54
598.165	5.59
598.502	5.59
598.839	5.59
599.176	5.59
599.512	5.6
599.849	5.57
600.186	5.57
600.523	5.63
600.859	5.64
601.196	5.63
601.532	5.63
601.869	5.62
602.205	5.67
602.542	5.72
602.878	5.75
603.215	5.77
603.551	5.74
603.887	5.69
604.223	5.66
604.56	5.66
604.896	5.65
605.232	5.65
605.568	5.64
605.904	5.61
606.24	5.65
606.576	5.67
606.912	5.68
607.248	5.69
607.583	5.68
607.919	5.69
608.255	5.7
608.591	5.68
608.926	5.68
609.262	5.68
609.597	5.65
609.933	5.68
610.268	5.72
610.604	5.73
610.939	5.75
611.275	5.72
611.61	5.73
611.945	5.74
612.281	5.74
612.616	5.79
612.951	5.84
613.286	5.83
613.621	5.79
613.956	5.77
614.291	5.77
614.626	5.75
614.961	5.73
615.296	5.74
615.631	5.75
615.966	5.75
616.3	5.74
616.635	5.78
616.97	5.72
617.304	5.69
617.639	5.7
617.973	5.72
618.308	5.71
618.642	5.72
618.977	5.7
619.311	5.69
619.646	5.64
619.98	5.65
620.314	5.71
620.648	5.78
620.983	5.83
621.317	5.82
621.651	5.8
621.985	5.81
622.319	5.83
622.653	5.87
622.987	5.87
623.321	5.89
623.655	5.88
623.988	5.92
624.322	5.83
624.656	5.85
624.99	5.88
625.323	5.89
625.657	5.91
625.99	5.95
626.324	6.02
626.657	6.04
626.991	6.02
627.324	5.96
627.658	5.96
627.991	5.95
628.324	5.94
628.657	5.93
628.991	5.91
629.324	5.92
629.657	5.91
629.99	5.95
630.323	5.98
630.656	6
630.989	6.03
631.322	6.13
631.655	6.12
631.987	6.1
632.32	6.16
632.653	6.1
632.986	6.12
633.318	6.01
633.651	6
633.984	5.99
634.316	6.01
634.649	5.97
634.981	5.98
635.313	5.97
635.646	5.99
635.978	6.03
636.31	6.03
636.643	6.04
636.975	6
637.307	5.92
637.639	5.86
637.971	5.83
638.303	5.81
638.635	5.83
638.967	5.86
639.299	5.92
639.631	5.92
639.963	5.8
640.295	5.86
640.626	5.89
640.958	5.9
641.29	5.97
641.621	5.96
641.953	5.92
642.285	5.96
642.616	6.02
642.948	5.99
643.279	5.96
643.61	5.98
643.942	6.01
644.273	6.05
644.604	6.06
644.936	6.05
645.267	6.07
645.598	6.04
645.929	6.11
646.26	6.02
646.591	6.05
646.922	6.11
647.253	6.09
647.584	6.09
647.915	6.07
648.245	5.99
648.576	6.08
648.907	6.13
649.238	6.07
649.568	6.03
649.899	6.01
650.229	6.03
650.56	5.99
650.89	5.96
651.221	5.98
651.551	5.95
651.882	5.93
652.212	5.95
652.542	5.94
652.872	5.82
653.203	5.8
653.533	5.78
653.863	5.84
654.193	5.84
654.523	5.83
654.853	5.81
655.183	5.86
655.513	5.83
655.843	5.83
656.172	5.9
656.502	5.93
656.832	5.97
657.162	5.96
657.491	5.96
657.821	6.02
658.15	5.97
658.48	6.06
658.809	6.11
659.139	6.06
659.468	6.01
659.798	6.08
660.127	6.14
660.456	6.19
660.785	6.17
661.115	6.22
661.444	6.2
661.773	6.27
662.102	6.22
662.431	6.22
662.76	6.18
663.089	6.15
663.418	6.16
663.747	6.15
664.076	6.19
664.404	6.21
664.733	6.27
665.062	6.36
665.39	6.34
665.719	6.3
666.048	6.42
666.376	6.46
666.705	6.43
667.033	6.38
667.362	6.41
667.69	6.48
668.018	6.49
668.347	6.52
668.675	6.51
669.003	6.52
669.331	6.57
669.659	6.63
669.987	6.62
670.315	6.62
670.643	6.61
670.971	6.57
671.299	6.64
671.627	6.58
671.955	6.56
672.283	6.61
672.61	6.61
672.938	6.45
673.266	6.52
673.593	6.59
673.921	6.59
674.249	6.48
674.576	6.35
674.904	6.36
675.231	6.31
675.558	6.33
675.886	6.35
676.213	6.26
676.54	6.16
