Data from BU26844_Reflection_00005.txt Node
Date: Mon Nov 18 16:36:09 EST 2019
User: vgr7
Spectrometer: USB2G7710
Scans to average: 3
Trigger mode: 4
Integration Time (sec): 2.000000E-2
Electric dark correction enabled: true
Boxcar width: 10
XAxis mode: Wavelengths
Number of Pixels in Spectrum: 2048
>>>>>Begin Spectral Data<<<<<
177.721	-606.42
178.105	-11900
178.488	161.89
178.871	-1150
179.254	52.79
179.636	443.75
180.019	-11.82
180.402	108.33
180.785	-4.21
181.168	-19.86
181.55	41.18
181.933	77.32
182.316	102.06
182.698	114.8
183.081	98.29
183.463	132.42
183.846	148.95
184.228	140.15
184.611	195.08
184.993	462.83
185.376	6372.73
185.758	-444.04
186.14	-430.36
186.522	-436.12
186.904	-1296.04
187.287	1678.31
187.669	-419.43
188.051	-513.9
188.433	-296.59
188.815	-179.17
189.197	-174.38
189.579	-118.46
189.961	-163.02
190.342	-166.58
190.724	-108.79
191.106	-119.17
191.488	-128.18
191.869	-105.26
192.251	-115.9
192.633	-114.57
193.014	-142.82
193.396	-109.44
193.777	-96.8
194.159	-87.19
194.54	-76.18
194.922	-71.38
195.303	-79.69
195.684	-97.08
196.065	-70.76
196.447	-73.04
196.828	-79.06
197.209	-77.76
197.59	-88.9
197.971	-86.97
198.352	-81.62
198.733	-133.44
199.114	-98.56
199.495	-75.57
199.876	-77.63
200.257	-71.89
200.638	-59.87
201.018	-43.07
201.399	-89.7
201.78	-82.89
202.16	-124.74
202.541	-130.05
202.922	-136.61
203.302	-152.41
203.683	-118.42
204.063	-251.21
204.444	-377.91
204.824	-428.62
205.204	-349.28
205.585	-514.46
205.965	-324.66
206.345	-360.32
206.725	-366.67
207.106	-629.37
207.486	-883.26
207.866	-1350.33
208.246	-1327.67
208.626	-2021.5
209.006	-495.4
209.386	-500
209.766	-509.25
210.145	-279.91
210.525	-324.86
210.905	-287.15
211.285	-208.39
211.664	-177.31
212.044	-164.09
212.424	-139.89
212.803	-109.18
213.183	-94.68
213.562	-95.97
213.942	-77.09
214.321	-55.42
214.701	-49.87
215.08	-34.25
215.459	-22.5
215.838	-21.97
216.218	-14.33
216.597	-10.56
216.976	-11.91
217.355	-6.91
217.734	-6.25
218.113	-16
218.492	-29.44
218.871	-33.22
219.25	-39.47
219.629	-49.87
220.008	-53.96
220.387	-48.25
220.766	-58.85
221.144	-71.66
221.523	-66.57
221.902	-72.77
222.28	-71.45
222.659	-69.91
223.037	-56.71
223.416	-76.96
223.794	-85.66
224.173	-74.95
224.551	-56.85
224.929	-59.39
225.308	-54.6
225.686	-51.62
226.064	-40.06
226.442	-34.1
226.821	-30.23
227.199	-28.14
227.577	-25.37
227.955	-22.76
228.333	-23.89
228.711	-18.94
229.089	-12.31
229.467	-13.39
229.845	-12.77
230.222	-12.47
230.6	-11.7
230.978	-11.27
231.356	-7.41
231.733	-6.89
232.111	-5.49
232.488	-5.96
232.866	-5.09
233.243	-1.58
233.621	-3.53
233.998	-1.1
234.376	-0.51
234.753	-1.1
235.13	-1.2
235.508	0.97
235.885	1.57
236.262	1.61
236.639	1.04
237.016	-0.42
237.393	2.47
237.77	2.32
238.147	3.14
238.524	3.63
238.901	3.7
239.278	3.3
239.655	4.51
240.032	4.96
240.409	4.46
240.785	3.84
241.162	3.43
241.539	4.2
241.915	4.23
242.292	4.3
242.668	4.32
243.045	4.76
243.421	4.43
243.798	4.05
244.174	3.72
244.551	3.73
244.927	3.54
245.303	3.33
245.679	3.49
246.056	3.45
246.432	3.43
246.808	3.5
247.184	3.48
247.56	3.26
247.936	3.23
248.312	3.33
248.688	3.61
249.064	3.78
249.44	3.64
249.815	3.64
250.191	3.58
250.567	3.5
250.943	3.39
251.318	3.46
251.694	3.76
252.069	4.09
252.445	4.08
252.82	4.21
253.196	4.12
253.571	4.03
253.947	3.89
254.322	3.93
254.697	3.59
255.073	3.15
255.448	3.04
255.823	2.96
256.198	3.06
256.573	3.41
256.948	3.32
257.323	3.34
257.698	3.25
258.073	3.46
258.448	3.49
258.823	3.26
259.198	3.26
259.573	3.13
259.948	3.03
260.322	3.11
260.697	3.22
261.072	3.25
261.446	3.26
261.821	3.38
262.195	3.57
262.57	3.69
262.944	3.9
263.319	3.93
263.693	3.83
264.067	3.9
264.442	3.72
264.816	3.62
265.19	3.72
265.564	3.84
265.938	3.6
266.313	3.67
266.687	3.88
267.061	3.92
267.435	3.68
267.809	3.72
268.183	3.6
268.556	3.46
268.93	3.45
269.304	3.37
269.678	3.36
270.051	3.12
270.425	3.08
270.799	3.25
271.172	3.15
271.546	3.14
271.919	3.07
272.293	3.05
272.666	3.02
273.04	3.04
273.413	2.98
273.787	2.99
274.16	2.92
274.533	2.67
274.906	2.54
275.279	2.69
275.653	2.74
276.026	2.79
276.399	2.75
276.772	2.69
277.145	2.65
277.518	2.6
277.891	2.59
278.263	2.5
278.636	2.39
279.009	2.52
279.382	2.64
279.755	2.68
280.127	2.68
280.5	2.73
280.872	2.66
281.245	2.68
281.617	2.85
281.99	2.92
282.362	3.03
282.735	2.99
283.107	3.05
283.479	3.12
283.852	3.11
284.224	3.23
284.596	3.27
284.968	3.34
285.34	3.4
285.713	3.43
286.085	3.54
286.457	3.48
286.829	3.45
287.201	3.47
287.572	3.42
287.944	3.29
288.316	3.29
288.688	3.25
289.06	3.3
289.431	3.36
289.803	3.37
290.175	3.42
290.546	3.62
290.918	3.62
291.289	3.53
291.661	3.62
292.032	3.55
292.403	3.6
292.775	3.77
293.146	3.68
293.517	3.6
293.889	3.6
294.26	3.62
294.631	3.7
295.002	3.59
295.373	3.63
295.744	3.68
296.115	3.69
296.486	3.66
296.857	3.63
297.228	3.56
297.599	3.58
297.97	3.64
298.34	3.53
298.711	3.6
299.082	3.53
299.452	3.54
299.823	3.66
300.194	3.81
300.564	3.6
300.935	3.7
301.305	3.75
301.676	3.84
302.046	3.86
302.416	3.93
302.787	4.05
303.157	4.1
303.527	4.28
303.897	4.22
304.267	4.38
304.637	4.4
305.008	4.44
305.378	4.33
305.748	4.39
306.117	4.23
306.487	4.14
306.857	4.38
307.227	4.31
307.597	4.22
307.967	4.13
308.336	4.25
308.706	4.06
309.076	4.06
309.445	4.08
309.815	3.95
310.184	3.79
310.554	3.76
310.923	3.6
311.293	3.59
311.662	3.71
312.031	3.61
312.401	3.69
312.77	3.67
313.139	3.8
313.508	3.73
313.877	3.86
314.246	3.85
314.616	3.74
314.985	3.72
315.353	3.68
315.722	3.62
316.091	3.54
316.46	3.65
316.829	3.83
317.198	3.72
317.567	3.69
317.935	3.62
318.304	3.43
318.672	3.55
319.041	3.54
319.41	3.47
319.778	3.54
320.147	3.33
320.515	3.27
320.883	3.16
321.252	3.25
321.62	3.37
321.988	3.35
322.357	3.25
322.725	3.39
323.093	3.36
323.461	3.37
323.829	3.4
324.197	3.49
324.565	3.43
324.933	3.46
325.301	3.56
325.669	3.71
326.037	3.9
326.405	3.9
326.772	3.87
327.14	3.98
327.508	3.92
327.875	4
328.243	4.04
328.61	4.03
328.978	3.94
329.346	3.89
329.713	3.95
330.08	4.01
330.448	3.98
330.815	3.97
331.182	3.92
331.55	3.92
331.917	3.72
332.284	3.73
332.651	3.69
333.018	3.84
333.385	3.82
333.752	3.83
334.119	3.92
334.486	3.8
334.853	3.76
335.22	3.74
335.587	3.71
335.954	3.82
336.32	3.83
336.687	3.94
337.054	3.9
337.42	3.97
337.787	3.99
338.153	3.97
338.52	4.05
338.886	4.02
339.253	3.99
339.619	4.16
339.986	4.11
340.352	4.25
340.718	4.11
341.084	4.08
341.451	4.04
341.817	4.05
342.183	4.11
342.549	4.04
342.915	4.17
343.281	4.18
343.647	4.13
344.013	4.21
344.379	4.18
344.745	4.22
345.11	4.18
345.476	4.18
345.842	4.2
346.208	4.12
346.573	4.21
346.939	4.32
347.304	4.22
347.67	4.24
348.035	4.16
348.401	4.21
348.766	4.2
349.132	4.18
349.497	4.04
349.862	4.14
350.228	4.13
350.593	4.07
350.958	4.16
351.323	4.13
351.688	4.11
352.053	4.13
352.418	4.17
352.783	4.16
353.148	4.19
353.513	4.17
353.878	4.17
354.243	4.15
354.608	4.07
354.972	4.15
355.337	4.2
355.702	4.23
356.066	4.27
356.431	4.31
356.795	4.39
357.16	4.45
357.524	4.38
357.889	4.4
358.253	4.4
358.618	4.39
358.982	4.35
359.346	4.33
359.71	4.24
360.075	4.18
360.439	4.18
360.803	4.14
361.167	4.06
361.531	4.1
361.895	4.05
362.259	4.08
362.623	4.05
362.987	4
363.351	3.97
363.714	3.89
364.078	3.89
364.442	3.87
364.806	3.94
365.169	3.97
365.533	3.97
365.896	4.01
366.26	4.01
366.623	4.04
366.987	4.03
367.35	4.07
367.714	4.14
368.077	4.13
368.44	4.15
368.803	4.24
369.167	4.24
369.53	4.25
369.893	4.28
370.256	4.27
370.619	4.27
370.982	4.31
371.345	4.29
371.708	4.28
372.071	4.23
372.434	4.2
372.797	4.19
373.159	4.15
373.522	4.16
373.885	4.16
374.247	4.19
374.61	4.23
374.973	4.24
375.335	4.18
375.698	4.25
376.06	4.23
376.423	4.23
376.785	4.28
377.147	4.36
377.51	4.36
377.872	4.39
378.234	4.37
378.596	4.33
378.958	4.4
379.321	4.39
379.683	4.48
380.045	4.45
380.407	4.41
380.769	4.4
381.13	4.38
381.492	4.35
381.854	4.34
382.216	4.33
382.578	4.32
382.939	4.35
383.301	4.3
383.663	4.29
384.024	4.23
384.386	4.21
384.747	4.17
385.109	4.18
385.47	4.13
385.832	4.19
386.193	4.26
386.554	4.24
386.916	4.24
387.277	4.19
387.638	4.25
387.999	4.24
388.36	4.28
388.721	4.29
389.082	4.29
389.443	4.29
389.804	4.27
390.165	4.27
390.526	4.26
390.887	4.28
391.248	4.34
391.609	4.38
391.969	4.4
392.33	4.42
392.691	4.4
393.051	4.42
393.412	4.39
393.772	4.37
394.133	4.37
394.493	4.35
394.854	4.35
395.214	4.33
395.574	4.34
395.935	4.31
396.295	4.32
396.655	4.29
397.015	4.3
397.376	4.31
397.736	4.31
398.096	4.35
398.456	4.34
398.816	4.31
399.176	4.28
399.535	4.23
399.895	4.2
400.255	4.16
400.615	4.17
400.975	4.19
401.334	4.18
401.694	4.16
402.054	4.19
402.413	4.21
402.773	4.18
403.132	4.19
403.492	4.19
403.851	4.23
404.211	4.26
404.57	4.23
404.929	4.28
405.288	4.22
405.648	4.16
406.007	4.15
406.366	4.15
406.725	4.18
407.084	4.26
407.443	4.26
407.802	4.3
408.161	4.29
408.52	4.27
408.879	4.26
409.238	4.31
409.596	4.32
409.955	4.29
410.314	4.31
410.673	4.31
411.031	4.32
411.39	4.27
411.748	4.28
412.107	4.29
412.465	4.25
412.824	4.29
413.182	4.29
413.54	4.29
413.899	4.3
414.257	4.27
414.615	4.24
414.974	4.27
415.332	4.25
415.69	4.24
416.048	4.22
416.406	4.22
416.764	4.21
417.122	4.2
417.48	4.22
417.838	4.2
418.195	4.21
418.553	4.2
418.911	4.22
419.269	4.2
419.626	4.19
419.984	4.19
420.342	4.2
420.699	4.22
421.057	4.22
421.414	4.21
421.772	4.23
422.129	4.22
422.486	4.21
422.844	4.22
423.201	4.22
423.558	4.23
423.915	4.23
424.273	4.23
424.63	4.23
424.987	4.23
425.344	4.24
425.701	4.24
426.058	4.23
426.415	4.22
426.772	4.22
427.128	4.22
427.485	4.21
427.842	4.2
428.199	4.2
428.555	4.2
428.912	4.2
429.269	4.19
429.625	4.17
429.982	4.17
430.338	4.17
430.695	4.17
431.051	4.17
431.407	4.17
431.764	4.16
432.12	4.14
432.476	4.14
432.832	4.12
433.189	4.14
433.545	4.15
433.901	4.13
434.257	4.15
434.613	4.17
434.969	4.17
435.325	4.16
435.681	4.16
436.036	4.17
436.392	4.18
436.748	4.18
437.104	4.18
437.459	4.15
437.815	4.15
438.171	4.13
438.526	4.14
438.882	4.14
439.237	4.15
439.593	4.16
439.948	4.16
440.304	4.19
440.659	4.17
441.014	4.17
441.369	4.19
441.725	4.17
442.08	4.17
442.435	4.18
442.79	4.18
443.145	4.17
443.5	4.16
443.855	4.14
444.21	4.15
444.565	4.17
444.92	4.17
445.275	4.19
445.629	4.21
445.984	4.22
446.339	4.21
446.693	4.19
447.048	4.18
447.403	4.17
447.757	4.16
448.112	4.16
448.466	4.15
448.82	4.13
449.175	4.13
449.529	4.12
449.883	4.11
450.238	4.12
450.592	4.13
450.946	4.13
451.3	4.12
451.654	4.1
452.008	4.12
452.362	4.11
452.716	4.08
453.07	4.07
453.424	4.06
453.778	4.06
454.132	4.06
454.486	4.07
454.839	4.05
455.193	4.04
455.547	4.05
455.9	4.05
456.254	4.07
456.607	4.08
456.961	4.09
457.314	4.08
457.668	4.08
458.021	4.06
458.375	4.08
458.728	4.11
459.081	4.11
459.434	4.08
459.787	4.1
460.141	4.11
460.494	4.12
460.847	4.12
461.2	4.11
461.553	4.13
461.906	4.13
462.259	4.16
462.611	4.19
462.964	4.2
463.317	4.21
463.67	4.2
464.022	4.21
464.375	4.19
464.728	4.23
465.08	4.24
465.433	4.27
465.785	4.26
466.138	4.25
466.49	4.26
466.843	4.27
467.195	4.28
467.547	4.27
467.899	4.27
468.252	4.29
468.604	4.3
468.956	4.31
469.308	4.32
469.66	4.32
470.012	4.32
470.364	4.34
470.716	4.34
471.068	4.36
471.42	4.36
471.772	4.38
472.123	4.39
472.475	4.4
472.827	4.4
473.178	4.41
473.53	4.41
473.882	4.43
474.233	4.43
474.585	4.43
474.936	4.44
475.288	4.44
475.639	4.47
475.99	4.49
476.342	4.48
476.693	4.5
477.044	4.5
477.395	4.48
477.746	4.47
478.097	4.45
478.448	4.43
478.8	4.45
479.15	4.45
479.501	4.44
479.852	4.44
480.203	4.42
480.554	4.45
480.905	4.46
481.255	4.46
481.606	4.45
481.957	4.46
482.307	4.46
482.658	4.45
483.009	4.45
483.359	4.45
483.709	4.45
484.06	4.44
484.41	4.44
484.761	4.45
485.111	4.45
485.461	4.45
485.811	4.45
486.162	4.44
486.512	4.44
486.862	4.45
487.212	4.45
487.562	4.45
487.912	4.44
488.262	4.43
488.612	4.43
488.961	4.44
489.311	4.43
489.661	4.43
490.011	4.44
490.36	4.43
490.71	4.43
491.06	4.43
491.409	4.44
491.759	4.44
492.108	4.45
492.458	4.45
492.807	4.45
493.157	4.48
493.506	4.49
493.855	4.5
494.204	4.49
494.554	4.51
494.903	4.51
495.252	4.52
495.601	4.52
495.95	4.54
496.299	4.55
496.648	4.56
496.997	4.57
497.346	4.58
497.695	4.6
498.043	4.6
498.392	4.61
498.741	4.63
499.09	4.64
499.438	4.64
499.787	4.65
500.135	4.68
500.484	4.69
500.832	4.72
501.181	4.71
501.529	4.74
501.878	4.75
502.226	4.78
502.574	4.8
502.923	4.82
503.271	4.83
503.619	4.84
503.967	4.86
504.315	4.89
504.663	4.91
505.011	4.91
505.359	4.94
505.707	4.96
506.055	4.98
506.403	4.98
506.751	5.02
507.098	5.04
507.446	5.05
507.794	5.03
508.141	5.03
508.489	5.05
508.837	5.07
509.184	5.08
509.531	5.09
509.879	5.13
510.226	5.15
510.574	5.17
510.921	5.2
511.268	5.22
511.616	5.23
511.963	5.24
512.31	5.27
512.657	5.28
513.004	5.29
513.351	5.3
513.698	5.34
514.045	5.34
514.392	5.32
514.739	5.34
515.086	5.39
515.432	5.4
515.779	5.39
516.126	5.4
516.473	5.42
516.819	5.44
517.166	5.43
517.512	5.44
517.859	5.44
518.205	5.43
518.552	5.46
518.898	5.48
519.245	5.49
519.591	5.48
519.937	5.48
520.283	5.48
520.629	5.46
520.976	5.45
521.322	5.48
521.668	5.49
522.014	5.49
522.36	5.49
522.706	5.49
523.052	5.5
523.398	5.53
523.743	5.54
524.089	5.53
524.435	5.54
524.781	5.56
525.126	5.56
525.472	5.57
525.817	5.56
526.163	5.55
526.509	5.56
526.854	5.57
527.199	5.58
527.545	5.6
527.89	5.62
528.235	5.62
528.581	5.61
528.926	5.63
529.271	5.64
529.616	5.63
529.961	5.64
530.306	5.64
530.651	5.64
530.996	5.65
531.341	5.65
531.686	5.65
532.031	5.64
532.376	5.66
532.721	5.67
533.065	5.67
533.41	5.68
533.755	5.69
534.099	5.69
534.444	5.69
534.788	5.69
535.133	5.69
535.477	5.7
535.822	5.69
536.166	5.69
536.51	5.69
536.855	5.69
537.199	5.7
537.543	5.72
537.887	5.73
538.231	5.71
538.576	5.75
538.92	5.75
539.264	5.74
539.608	5.74
539.951	5.74
540.295	5.73
540.639	5.73
540.983	5.71
541.327	5.72
541.671	5.71
542.014	5.71
542.358	5.7
542.701	5.71
543.045	5.72
543.389	5.72
543.732	5.73
544.075	5.74
544.419	5.74
544.762	5.73
545.105	5.72
545.449	5.73
545.792	5.7
546.135	5.69
546.478	5.71
546.821	5.7
547.165	5.69
547.508	5.7
547.851	5.7
548.194	5.69
548.536	5.68
548.879	5.71
549.222	5.72
549.565	5.73
549.908	5.74
550.25	5.73
550.593	5.71
550.936	5.69
551.278	5.7
551.621	5.72
551.963	5.73
552.306	5.72
552.648	5.72
552.991	5.76
553.333	5.78
553.675	5.78
554.017	5.8
554.36	5.84
554.702	5.84
555.044	5.86
555.386	5.87
555.728	5.87
556.07	5.84
556.412	5.82
556.754	5.85
557.096	5.82
557.438	5.83
557.78	5.86
558.121	5.86
558.463	5.87
558.805	5.86
559.147	5.83
559.488	5.79
559.83	5.81
560.171	5.79
560.513	5.77
560.854	5.75
561.196	5.74
561.537	5.72
561.878	5.71
562.22	5.7
562.561	5.72
562.902	5.75
563.243	5.76
563.584	5.78
563.925	5.77
564.266	5.79
564.607	5.79
564.948	5.78
565.289	5.79
565.63	5.77
565.971	5.77
566.312	5.83
566.653	5.87
566.993	5.87
567.334	5.84
567.675	5.85
568.015	5.88
568.356	5.88
568.696	5.9
569.037	5.92
569.377	5.93
569.718	5.96
570.058	5.92
570.398	5.9
570.739	5.9
571.079	5.91
571.419	5.9
571.759	5.9
572.099	5.89
572.439	5.91
572.779	5.94
573.119	5.96
573.459	5.92
573.799	5.94
574.139	5.95
574.479	5.98
574.819	5.98
575.158	5.99
575.498	5.98
575.838	5.98
576.177	5.94
576.517	5.92
576.856	5.94
577.196	5.99
577.535	5.99
577.875	5.99
578.214	5.98
578.553	6
578.893	6.01
579.232	6.02
579.571	6.02
579.91	6
580.25	5.99
580.589	5.99
580.928	5.97
581.267	5.93
581.606	5.93
581.945	5.95
582.283	5.96
582.622	5.97
582.961	5.93
583.3	5.99
583.639	6.04
583.977	6.02
584.316	5.98
584.654	5.99
584.993	6.02
585.332	6.02
585.67	6.02
586.008	6
586.347	6.01
586.685	6.01
587.024	6.02
587.362	6.04
587.7	6.04
588.038	6.1
588.376	6.11
588.715	6.09
589.053	6.13
589.391	6.11
589.729	6.17
590.067	6.18
590.404	6.17
590.742	6.14
591.08	6.12
591.418	6.14
591.756	6.15
592.093	6.15
592.431	6.18
592.769	6.19
593.106	6.22
593.444	6.2
593.781	6.18
594.119	6.21
594.456	6.16
594.793	6.16
595.131	6.15
595.468	6.12
595.805	6.14
596.143	6.11
596.48	6.1
596.817	6.07
597.154	6.11
597.491	6.09
597.828	6.08
598.165	6.1
598.502	6.06
598.839	6.07
599.176	6.09
599.512	6.08
599.849	6.1
600.186	6.07
600.523	6.14
600.859	6.19
601.196	6.2
601.532	6.21
601.869	6.22
602.205	6.2
602.542	6.26
602.878	6.27
603.215	6.23
603.551	6.22
603.887	6.2
604.223	6.18
604.56	6.23
604.896	6.24
605.232	6.25
605.568	6.26
605.904	6.23
606.24	6.24
606.576	6.24
606.912	6.23
607.248	6.28
607.583	6.29
607.919	6.27
608.255	6.25
608.591	6.26
608.926	6.29
609.262	6.31
609.597	6.31
609.933	6.34
610.268	6.38
610.604	6.46
610.939	6.47
611.275	6.49
611.61	6.46
611.945	6.47
612.281	6.44
612.616	6.48
612.951	6.53
613.286	6.49
613.621	6.46
613.956	6.48
614.291	6.48
614.626	6.4
614.961	6.38
615.296	6.37
615.631	6.39
615.966	6.36
616.3	6.39
616.635	6.34
616.97	6.32
617.304	6.34
617.639	6.33
617.973	6.33
618.308	6.32
618.642	6.31
618.977	6.32
619.311	6.3
619.646	6.27
619.98	6.23
620.314	6.25
620.648	6.28
620.983	6.27
621.317	6.29
621.651	6.34
621.985	6.35
622.319	6.36
622.653	6.35
622.987	6.35
623.321	6.31
623.655	6.35
623.988	6.38
624.322	6.32
624.656	6.32
624.99	6.31
625.323	6.32
625.657	6.32
625.99	6.39
626.324	6.44
626.657	6.47
626.991	6.51
627.324	6.5
627.658	6.53
627.991	6.52
628.324	6.52
628.657	6.52
628.991	6.52
629.324	6.51
629.657	6.53
629.99	6.54
630.323	6.57
630.656	6.53
630.989	6.52
631.322	6.53
631.655	6.55
631.987	6.57
632.32	6.56
632.653	6.56
632.986	6.52
633.318	6.48
633.651	6.52
633.984	6.51
634.316	6.53
634.649	6.53
634.981	6.54
635.313	6.48
635.646	6.46
635.978	6.53
636.31	6.49
636.643	6.47
636.975	6.49
637.307	6.46
637.639	6.44
637.971	6.41
638.303	6.47
638.635	6.39
638.967	6.36
639.299	6.42
639.631	6.38
639.963	6.31
640.295	6.4
640.626	6.35
640.958	6.35
641.29	6.34
641.621	6.29
641.953	6.27
642.285	6.28
642.616	6.28
642.948	6.15
643.279	6.24
643.61	6.26
643.942	6.26
644.273	6.27
644.604	6.33
644.936	6.37
645.267	6.27
645.598	6.3
645.929	6.38
646.26	6.4
646.591	6.46
646.922	6.42
647.253	6.39
647.584	6.44
647.915	6.46
648.245	6.52
648.576	6.57
648.907	6.63
649.238	6.68
649.568	6.73
649.899	6.8
650.229	6.75
650.56	6.75
650.89	6.72
651.221	6.73
651.551	6.73
651.882	6.71
652.212	6.82
652.542	6.81
652.872	6.77
653.203	6.72
653.533	6.74
653.863	6.86
654.193	6.83
654.523	6.78
654.853	6.77
655.183	6.8
655.513	6.8
655.843	6.79
656.172	6.81
656.502	6.82
656.832	6.81
657.162	6.86
657.491	6.89
657.821	6.89
658.15	6.88
658.48	6.89
658.809	6.88
659.139	6.87
659.468	6.84
659.798	6.89
660.127	6.86
660.456	6.86
660.785	6.8
661.115	6.84
661.444	6.9
661.773	6.94
662.102	6.85
662.431	6.87
662.76	6.87
663.089	6.86
663.418	6.85
663.747	6.96
664.076	6.88
664.404	6.86
664.733	6.92
665.062	6.93
665.39	6.92
665.719	6.98
666.048	6.97
666.376	7.04
666.705	6.99
667.033	7.07
667.362	7.1
667.69	7.15
668.018	7.16
668.347	7.09
668.675	7.08
669.003	7.12
669.331	7.21
669.659	7.19
669.987	7.13
670.315	7.1
670.643	6.93
670.971	6.94
671.299	7.02
671.627	6.96
671.955	6.94
672.283	6.92
672.61	6.86
672.938	6.85
673.266	6.94
673.593	7.01
673.921	7.03
674.249	6.98
674.576	7
674.904	7.05
675.231	7
675.558	7.05
