Data from BU26850_Reflection_00011.txt Node
Date: Mon Nov 18 16:45:45 EST 2019
User: vgr7
Spectrometer: USB2G7710
Scans to average: 3
Trigger mode: 4
Integration Time (sec): 2.000000E-2
Electric dark correction enabled: true
Boxcar width: 10
XAxis mode: Wavelengths
Number of Pixels in Spectrum: 2048
>>>>>Begin Spectral Data<<<<<
177.721	-9.92
178.105	89.4
178.488	131.27
178.871	41.84
179.254	62.43
179.636	-59.9
180.019	-24.61
180.402	207.69
180.785	39.01
181.168	16.41
181.55	44.79
181.933	182.11
182.316	294.37
182.698	244.9
183.081	193.98
183.463	-172.73
183.846	-197.82
184.228	-231.54
184.611	189.36
184.993	821.52
185.376	-128.5
185.758	-291.3
186.14	-145.48
186.522	-102.37
186.904	-57.35
187.287	-71.68
187.669	-0.06
188.051	29.61
188.433	17.63
188.815	28.42
189.197	11.26
189.579	12.83
189.961	2.43
190.342	-9.11
190.724	6.15
191.106	-2.57
191.488	-15.48
191.869	-9.36
192.251	-19.58
192.633	-27.24
193.014	-24.43
193.396	-38.44
193.777	-36.33
194.159	-41.41
194.54	-45.45
194.922	-52.86
195.303	-39.7
195.684	-45.88
196.065	-41.09
196.447	-45.75
196.828	-51.98
197.209	-41.39
197.59	-50.72
197.971	-41.87
198.352	-23.69
198.733	-17.14
199.114	-20.29
199.495	-13.01
199.876	-12.34
200.257	-5.73
200.638	2.48
201.018	4.17
201.399	9.45
201.78	8.63
202.16	10.12
202.541	18.28
202.922	18.95
203.302	12.5
203.683	13.47
204.063	-25.44
204.444	-26.86
204.824	-39.03
205.204	-36.88
205.585	-23.54
205.965	-25.04
206.345	-46.18
206.725	-63.64
207.106	-70.53
207.486	-86.48
207.866	-87.68
208.246	-108.69
208.626	-121.58
209.006	-89.12
209.386	-124.38
209.766	-101.87
210.145	-126.71
210.525	-92.64
210.905	-81.79
211.285	-57.26
211.664	-49.34
212.044	-28.25
212.424	-14.99
212.803	-3.65
213.183	3.7
213.562	8.21
213.942	2.86
214.321	-2.71
214.701	-11.07
215.08	-7.73
215.459	-4.66
215.838	6.46
216.218	19.46
216.597	22.59
216.976	21.88
217.355	29.7
217.734	20.95
218.113	23.16
218.492	23.17
218.871	22.13
219.25	23.58
219.629	28.31
220.008	38.43
220.387	38.45
220.766	38.3
221.144	41.02
221.523	43.92
221.902	59.96
222.28	54.05
222.659	53.12
223.037	64.32
223.416	56.94
223.794	41.56
224.173	33.65
224.551	28.5
224.929	22.17
225.308	25.45
225.686	29.6
226.064	23.04
226.442	21.27
226.821	20.22
227.199	13.43
227.577	6.04
227.955	1.67
228.333	0.94
228.711	3.57
229.089	3.41
229.467	0.73
229.845	0.27
230.222	0.11
230.6	-1.4
230.978	-2.8
231.356	2.01
231.733	1.09
232.111	3.8
232.488	7.35
232.866	7.92
233.243	6.39
233.621	3.24
233.998	4.72
234.376	3.38
234.753	3.13
235.13	5.17
235.508	6.01
235.885	5.54
236.262	4.16
236.639	4.18
237.016	2.98
237.393	4.55
237.77	5.11
238.147	6.76
238.524	7.29
238.901	7.69
239.278	6.69
239.655	7.68
240.032	6.78
240.409	5.86
240.785	6.29
241.162	7.01
241.539	7.31
241.915	7.18
242.292	6.95
242.668	7.39
243.045	6.69
243.421	6.83
243.798	6.31
244.174	5.96
244.551	5.78
244.927	5.73
245.303	5.63
245.679	5.81
246.056	5.44
246.432	5.43
246.808	5.34
247.184	5.01
247.56	4.73
247.936	4.6
248.312	4.21
248.688	4.48
249.064	4.31
249.44	4.62
249.815	4.7
250.191	4.81
250.567	4.57
250.943	4.72
251.318	4.59
251.694	4.9
252.069	5.02
252.445	4.97
252.82	5.11
253.196	4.86
253.571	4.43
253.947	4.35
254.322	4.7
254.697	4.53
255.073	4.66
255.448	4.82
255.823	5.18
256.198	5.48
256.573	5.17
256.948	4.92
257.323	4.67
257.698	4.56
258.073	4.49
258.448	4.6
258.823	4.65
259.198	4.57
259.573	4.36
259.948	4.57
260.322	4.77
260.697	4.59
261.072	4.6
261.446	4.71
261.821	4.79
262.195	4.73
262.57	4.7
262.944	4.73
263.319	4.59
263.693	4.4
264.067	4.44
264.442	4.56
264.816	4.65
265.19	4.62
265.564	4.62
265.938	4.75
266.313	4.63
266.687	4.59
267.061	4.63
267.435	4.77
267.809	4.63
268.183	4.41
268.556	4.53
268.93	4.82
269.304	4.84
269.678	4.84
270.051	4.73
270.425	4.98
270.799	5
271.172	4.95
271.546	5.04
271.919	4.89
272.293	4.87
272.666	4.73
273.04	4.75
273.413	4.62
273.787	4.64
274.16	4.68
274.533	4.82
274.906	4.81
275.279	4.81
275.653	4.99
276.026	4.89
276.399	4.8
276.772	4.87
277.145	4.84
277.518	4.91
277.891	4.95
278.263	4.87
278.636	4.91
279.009	5.09
279.382	5.24
279.755	5.22
280.127	5.23
280.5	5.42
280.872	5.46
281.245	5.48
281.617	5.54
281.99	5.69
282.362	5.67
282.735	5.57
283.107	5.64
283.479	5.57
283.852	5.76
284.224	5.83
284.596	5.51
284.968	5.55
285.34	5.61
285.713	5.47
286.085	5.52
286.457	5.57
286.829	5.56
287.201	5.38
287.572	5.39
287.944	5.34
288.316	5.32
288.688	5.3
289.06	5.32
289.431	5.34
289.803	5.19
290.175	5.12
290.546	5.45
290.918	5.4
291.289	5.5
291.661	5.53
292.032	5.67
292.403	5.98
292.775	6.07
293.146	6.08
293.517	6.23
293.889	6.2
294.26	6.24
294.631	6.24
295.002	6.44
295.373	6.61
295.744	6.76
296.115	6.81
296.486	6.71
296.857	6.9
297.228	6.97
297.599	7.08
297.97	7.15
298.34	7.05
298.711	7.18
299.082	7.22
299.452	7.3
299.823	7.32
300.194	7.4
300.564	7.4
300.935	7.43
301.305	7.43
301.676	7.51
302.046	7.69
302.416	7.93
302.787	7.82
303.157	7.82
303.527	7.98
303.897	8.04
304.267	8.4
304.637	8.52
305.008	8.49
305.378	8.64
305.748	8.74
306.117	8.84
306.487	8.85
306.857	8.93
307.227	9.07
307.597	9.1
307.967	9.04
308.336	9.22
308.706	9.29
309.076	9.43
309.445	9.52
309.815	9.48
310.184	9.5
310.554	9.73
310.923	9.75
311.293	9.79
311.662	9.89
312.031	9.79
312.401	9.77
312.77	9.85
313.139	9.97
313.508	10.05
313.877	10.2
314.246	10.29
314.616	10.32
314.985	10.25
315.353	10.29
315.722	10.29
316.091	10.21
316.46	10.19
316.829	10.44
317.198	10.64
317.567	10.67
317.935	10.87
318.304	10.92
318.672	11.23
319.041	11.22
319.41	11.38
319.778	11.63
320.147	11.69
320.515	11.7
320.883	11.8
321.252	11.92
321.62	12.02
321.988	12.22
322.357	12.16
322.725	12.34
323.093	12.54
323.461	12.6
323.829	12.77
324.197	13
324.565	13.01
324.933	12.94
325.301	13.1
325.669	13.18
326.037	13.26
326.405	13.25
326.772	13.33
327.14	13.46
327.508	13.5
327.875	13.56
328.243	13.88
328.61	13.77
328.978	13.82
329.346	13.83
329.713	13.89
330.08	14.13
330.448	14.04
330.815	14.03
331.182	14.1
331.55	14.15
331.917	14.19
332.284	14.33
332.651	14.43
333.018	14.52
333.385	14.37
333.752	14.34
334.119	14.29
334.486	14.15
334.853	14.11
335.22	14.16
335.587	14.36
335.954	14.17
336.32	14.18
336.687	14.18
337.054	14.18
337.42	14.05
337.787	14.05
338.153	14.11
338.52	14.31
338.886	14.38
339.253	14.33
339.619	14.32
339.986	14.26
340.352	14.24
340.718	14.18
341.084	14.26
341.451	14.36
341.817	14.59
342.183	14.75
342.549	14.77
342.915	14.91
343.281	14.86
343.647	15.08
344.013	15.22
344.379	15.18
344.745	15.28
345.11	15.39
345.476	15.36
345.842	15.51
346.208	15.5
346.573	15.53
346.939	15.71
347.304	15.69
347.67	15.73
348.035	15.72
348.401	15.75
348.766	15.83
349.132	15.83
349.497	15.74
349.862	15.86
350.228	15.99
350.593	15.86
350.958	15.85
351.323	15.75
351.688	15.74
352.053	15.83
352.418	15.78
352.783	15.92
353.148	16.04
353.513	15.94
353.878	15.87
354.243	15.92
354.608	15.89
354.972	16.01
355.337	16.11
355.702	16.21
356.066	16.28
356.431	16.24
356.795	16.26
357.16	16.23
357.524	16.13
357.889	16.07
358.253	16.11
358.618	16.15
358.982	16.11
359.346	16.08
359.71	16.07
360.075	16
360.439	15.95
360.803	15.9
361.167	15.93
361.531	15.98
361.895	15.97
362.259	15.91
362.623	15.91
362.987	15.82
363.351	15.71
363.714	15.68
364.078	15.63
364.442	15.57
364.806	15.56
365.169	15.51
365.533	15.44
365.896	15.39
366.26	15.37
366.623	15.36
366.987	15.35
367.35	15.35
367.714	15.38
368.077	15.26
368.44	15.2
368.803	15.15
369.167	15.03
369.53	15.02
369.893	15.01
370.256	14.91
370.619	14.87
370.982	14.76
371.345	14.71
371.708	14.69
372.071	14.61
372.434	14.51
372.797	14.52
373.159	14.41
373.522	14.37
373.885	14.21
374.247	14.18
374.61	14.13
374.973	14
375.335	13.97
375.698	13.91
376.06	13.81
376.423	13.73
376.785	13.72
377.147	13.63
377.51	13.53
377.872	13.46
378.234	13.4
378.596	13.39
378.958	13.22
379.321	13.12
379.683	13.15
380.045	13.09
380.407	12.92
380.769	12.87
381.13	12.75
381.492	12.76
381.854	12.67
382.216	12.56
382.578	12.48
382.939	12.37
383.301	12.35
383.663	12.32
384.024	12.27
384.386	12.15
384.747	12.1
385.109	12.12
385.47	12.01
385.832	11.96
386.193	11.9
386.554	11.88
386.916	11.86
387.277	11.71
387.638	11.73
387.999	11.7
388.36	11.67
388.721	11.64
389.082	11.58
389.443	11.55
389.804	11.47
390.165	11.43
390.526	11.35
390.887	11.26
391.248	11.19
391.609	11.11
391.969	11.09
392.33	11
392.691	10.92
393.051	10.86
393.412	10.84
393.772	10.77
394.133	10.7
394.493	10.61
394.854	10.57
395.214	10.45
395.574	10.39
395.935	10.31
396.295	10.24
396.655	10.09
397.015	9.96
397.376	9.87
397.736	9.81
398.096	9.75
398.456	9.69
398.816	9.6
399.176	9.5
399.535	9.39
399.895	9.28
400.255	9.17
400.615	9.14
400.975	9.01
401.334	8.96
401.694	8.92
402.054	8.87
402.413	8.76
402.773	8.66
403.132	8.6
403.492	8.54
403.851	8.47
404.211	8.48
404.57	8.45
404.929	8.43
405.288	8.38
405.648	8.32
406.007	8.28
406.366	8.27
406.725	8.27
407.084	8.24
407.443	8.24
407.802	8.23
408.161	8.16
408.52	8.1
408.879	8.06
409.238	8.03
409.596	7.98
409.955	8
410.314	8.01
410.673	7.97
411.031	7.94
411.39	7.91
411.748	7.89
412.107	7.86
412.465	7.83
412.824	7.79
413.182	7.77
413.54	7.75
413.899	7.68
414.257	7.66
414.615	7.64
414.974	7.61
415.332	7.55
415.69	7.5
416.048	7.47
416.406	7.45
416.764	7.38
417.122	7.37
417.48	7.34
417.838	7.31
418.195	7.26
418.553	7.25
418.911	7.22
419.269	7.2
419.626	7.2
419.984	7.16
420.342	7.14
420.699	7.1
421.057	7.05
421.414	7.03
421.772	6.98
422.129	6.94
422.486	6.9
422.844	6.87
423.201	6.85
423.558	6.84
423.915	6.8
424.273	6.79
424.63	6.75
424.987	6.72
425.344	6.69
425.701	6.68
426.058	6.65
426.415	6.62
426.772	6.57
427.128	6.51
427.485	6.48
427.842	6.43
428.199	6.4
428.555	6.38
428.912	6.38
429.269	6.34
429.625	6.29
429.982	6.27
430.338	6.23
430.695	6.21
431.051	6.2
431.407	6.19
431.764	6.18
432.12	6.18
432.476	6.16
432.832	6.14
433.189	6.12
433.545	6.11
433.901	6.1
434.257	6.08
434.613	6.08
434.969	6.08
435.325	6.09
435.681	6.1
436.036	6.1
436.392	6.08
436.748	6.1
437.104	6.11
437.459	6.11
437.815	6.13
438.171	6.14
438.526	6.14
438.882	6.14
439.237	6.13
439.593	6.13
439.948	6.12
440.304	6.13
440.659	6.16
441.014	6.15
441.369	6.15
441.725	6.15
442.08	6.16
442.435	6.14
442.79	6.14
443.145	6.13
443.5	6.1
443.855	6.08
444.21	6.07
444.565	6.06
444.92	6.05
445.275	6.04
445.629	6.02
445.984	5.99
446.339	5.96
446.693	5.94
447.048	5.92
447.403	5.89
447.757	5.88
448.112	5.83
448.466	5.81
448.82	5.78
449.175	5.77
449.529	5.73
449.883	5.71
450.238	5.68
450.592	5.66
450.946	5.63
451.3	5.6
451.654	5.56
452.008	5.56
452.362	5.57
452.716	5.54
453.07	5.51
453.424	5.5
453.778	5.49
454.132	5.48
454.486	5.46
454.839	5.46
455.193	5.45
455.547	5.46
455.9	5.48
456.254	5.49
456.607	5.48
456.961	5.48
457.314	5.51
457.668	5.49
458.021	5.5
458.375	5.51
458.728	5.54
459.081	5.55
459.434	5.53
459.787	5.54
460.141	5.55
460.494	5.58
460.847	5.6
461.2	5.59
461.553	5.59
461.906	5.61
462.259	5.64
462.611	5.65
462.964	5.68
463.317	5.71
463.67	5.72
464.022	5.75
464.375	5.77
464.728	5.81
465.08	5.85
465.433	5.9
465.785	5.93
466.138	5.96
466.49	6.01
466.843	6.05
467.195	6.08
467.547	6.12
467.899	6.15
468.252	6.19
468.604	6.27
468.956	6.32
469.308	6.35
469.66	6.37
470.012	6.4
470.364	6.44
470.716	6.46
471.068	6.48
471.42	6.52
471.772	6.56
472.123	6.57
472.475	6.59
472.827	6.6
473.178	6.62
473.53	6.61
473.882	6.63
474.233	6.65
474.585	6.66
474.936	6.65
475.288	6.67
475.639	6.66
475.99	6.63
476.342	6.64
476.693	6.65
477.044	6.68
477.395	6.68
477.746	6.64
478.097	6.62
478.448	6.61
478.8	6.57
479.15	6.53
479.501	6.51
479.852	6.49
480.203	6.46
480.554	6.44
480.905	6.44
481.255	6.42
481.606	6.43
481.957	6.41
482.307	6.41
482.658	6.39
483.009	6.38
483.359	6.38
483.709	6.37
484.06	6.35
484.41	6.34
484.761	6.32
485.111	6.32
485.461	6.32
485.811	6.32
486.162	6.31
486.512	6.32
486.862	6.32
487.212	6.32
487.562	6.32
487.912	6.32
488.262	6.31
488.612	6.3
488.961	6.3
489.311	6.31
489.661	6.31
490.011	6.31
490.36	6.33
490.71	6.33
491.06	6.33
491.409	6.36
491.759	6.37
492.108	6.4
492.458	6.42
492.807	6.43
493.157	6.46
493.506	6.51
493.855	6.54
494.204	6.59
494.554	6.63
494.903	6.67
495.252	6.71
495.601	6.8
495.95	6.88
496.299	6.94
496.648	7
496.997	7.08
497.346	7.15
497.695	7.24
498.043	7.33
498.392	7.44
498.741	7.51
499.09	7.62
499.438	7.72
499.787	7.85
500.135	7.98
500.484	8.08
500.832	8.21
501.181	8.31
501.529	8.44
501.878	8.61
502.226	8.78
502.574	8.94
502.923	9.09
503.271	9.26
503.619	9.43
503.967	9.59
504.315	9.78
504.663	10.01
505.011	10.21
505.359	10.39
505.707	10.59
506.055	10.8
506.403	10.99
506.751	11.19
507.098	11.4
507.446	11.59
507.794	11.81
508.141	12.01
508.489	12.26
508.837	12.48
509.184	12.72
509.531	12.95
509.879	13.19
510.226	13.44
510.574	13.64
510.921	13.89
511.268	14.11
511.616	14.34
511.963	14.57
512.31	14.8
512.657	15.06
513.004	15.35
513.351	15.66
513.698	15.98
514.045	16.26
514.392	16.54
514.739	16.85
515.086	17.16
515.432	17.48
515.779	17.75
516.126	18.02
516.473	18.28
516.819	18.56
517.166	18.81
517.512	19.03
517.859	19.29
518.205	19.5
518.552	19.76
518.898	19.99
519.245	20.23
519.591	20.45
519.937	20.66
520.283	20.87
520.629	21.11
520.976	21.33
521.322	21.58
521.668	21.83
522.014	22.13
522.36	22.38
522.706	22.66
523.052	22.95
523.398	23.26
523.743	23.57
524.089	23.85
524.435	24.16
524.781	24.47
525.126	24.74
525.472	25
525.817	25.24
526.163	25.45
526.509	25.66
526.854	25.84
527.199	26.06
527.545	26.23
527.89	26.38
528.235	26.57
528.581	26.74
528.926	26.9
529.271	27.05
529.616	27.22
529.961	27.38
530.306	27.57
530.651	27.76
530.996	27.96
531.341	28.17
531.686	28.35
532.031	28.54
532.376	28.74
532.721	28.97
533.065	29.16
533.41	29.36
533.755	29.56
534.099	29.78
534.444	29.98
534.788	30.18
535.133	30.39
535.477	30.61
535.822	30.83
536.166	31.07
536.51	31.33
536.855	31.61
537.199	31.9
537.543	32.18
537.887	32.43
538.231	32.69
538.576	32.92
538.92	33.21
539.264	33.49
539.608	33.73
539.951	33.95
540.295	34.21
540.639	34.46
540.983	34.66
541.327	34.88
541.671	35.06
542.014	35.24
542.358	35.44
542.701	35.63
543.045	35.81
543.389	36.02
543.732	36.22
544.075	36.41
544.419	36.59
544.762	36.81
545.105	37.03
545.449	37.27
545.792	37.54
546.135	37.77
546.478	38.02
546.821	38.29
547.165	38.52
547.508	38.69
547.851	38.9
548.194	39.14
548.536	39.35
548.879	39.61
549.222	39.94
549.565	40.18
549.908	40.44
550.25	40.7
550.593	40.95
550.936	41.18
551.278	41.46
551.621	41.76
551.963	42
552.306	42.3
552.648	42.52
552.991	42.71
553.333	42.97
553.675	43.17
554.017	43.38
554.36	43.64
554.702	43.93
555.044	44.18
555.386	44.44
555.728	44.72
556.07	45
556.412	45.19
556.754	45.44
557.096	45.67
557.438	45.93
557.78	46.2
558.121	46.44
558.463	46.69
558.805	46.83
559.147	47.03
559.488	47.15
559.83	47.37
560.171	47.59
560.513	47.74
560.854	47.95
561.196	48.1
561.537	48.25
561.878	48.45
562.22	48.57
562.561	48.74
562.902	48.94
563.243	49.08
563.584	49.22
563.925	49.39
564.266	49.55
564.607	49.7
564.948	49.75
565.289	49.87
565.63	49.92
565.971	50.06
566.312	50.22
566.653	50.37
566.993	50.51
567.334	50.62
567.675	50.77
568.015	50.86
568.356	51.02
568.696	51.23
569.037	51.28
569.377	51.5
569.718	51.63
570.058	51.72
570.398	51.84
570.739	51.92
571.079	51.99
571.419	52.09
571.759	52.22
572.099	52.36
572.439	52.49
572.779	52.65
573.119	52.75
573.459	52.85
573.799	52.94
574.139	53.03
574.479	53.12
574.819	53.19
575.158	53.29
575.498	53.31
575.838	53.35
576.177	53.44
576.517	53.51
576.856	53.58
577.196	53.63
577.535	53.63
577.875	53.81
578.214	53.92
578.553	54
578.893	54.03
579.232	54.12
579.571	54.21
579.91	54.28
580.25	54.35
580.589	54.42
580.928	54.52
581.267	54.62
581.606	54.73
581.945	54.89
582.283	54.97
582.622	55.13
582.961	55.21
583.3	55.33
583.639	55.36
583.977	55.4
584.316	55.49
584.654	55.6
584.993	55.67
585.332	55.66
585.67	55.79
586.008	55.89
586.347	55.99
586.685	56.05
587.024	56.01
587.362	56.09
587.7	56.15
588.038	56.17
588.376	56.2
588.715	56.35
589.053	56.38
589.391	56.41
589.729	56.41
590.067	56.43
590.404	56.47
590.742	56.57
591.08	56.59
591.418	56.65
591.756	56.67
592.093	56.62
592.431	56.74
592.769	56.73
593.106	56.77
593.444	56.8
593.781	56.86
594.119	56.98
594.456	56.99
594.793	56.96
595.131	57
595.468	56.97
595.805	56.92
596.143	56.9
596.48	56.96
596.817	57.01
597.154	57.08
597.491	57.16
597.828	57.2
598.165	57.32
598.502	57.31
598.839	57.36
599.176	57.46
599.512	57.52
599.849	57.52
600.186	57.53
600.523	57.54
600.859	57.59
601.196	57.64
601.532	57.66
601.869	57.78
602.205	57.88
602.542	57.99
602.878	57.97
603.215	58
603.551	58.04
603.887	58.05
604.223	58.07
604.56	58.04
604.896	58.04
605.232	57.95
605.568	58.03
605.904	58.05
606.24	58.07
606.576	58.08
606.912	58.18
607.248	58.29
607.583	58.38
607.919	58.39
608.255	58.36
608.591	58.44
608.926	58.4
609.262	58.4
609.597	58.43
609.933	58.48
610.268	58.54
610.604	58.61
610.939	58.77
611.275	58.73
611.61	58.82
611.945	58.82
612.281	58.99
612.616	59.04
612.951	59.12
613.286	59.12
613.621	59.19
613.956	59.19
614.291	59.13
614.626	59.12
614.961	59.12
615.296	59.16
615.631	59.13
615.966	59.2
616.3	59.24
616.635	59.19
616.97	59.23
617.304	59.18
617.639	59.08
617.973	59.04
618.308	59.16
618.642	59.19
618.977	59.22
619.311	59.22
619.646	59.16
619.98	59.15
620.314	59.22
620.648	59.16
620.983	59.2
621.317	59.23
621.651	59.19
621.985	59.22
622.319	59.3
622.653	59.33
622.987	59.35
623.321	59.35
623.655	59.35
623.988	59.39
624.322	59.44
624.656	59.48
624.99	59.47
625.323	59.39
625.657	59.36
625.99	59.39
626.324	59.45
626.657	59.53
626.991	59.53
627.324	59.51
627.658	59.52
627.991	59.55
628.324	59.6
628.657	59.62
628.991	59.63
629.324	59.7
629.657	59.71
629.99	59.75
630.323	59.8
630.656	59.85
630.989	59.84
631.322	59.88
631.655	59.83
631.987	59.84
632.32	59.97
632.653	59.97
632.986	59.93
633.318	59.89
633.651	59.91
633.984	60
634.316	59.99
634.649	60.03
634.981	59.98
635.313	59.91
635.646	60.03
635.978	60.08
636.31	60.09
636.643	60.09
636.975	60.13
637.307	60.02
637.639	60.19
637.971	60.29
638.303	60.33
638.635	60.44
638.967	60.36
639.299	60.33
639.631	60.33
639.963	60.39
640.295	60.48
640.626	60.41
640.958	60.51
641.29	60.52
641.621	60.47
641.953	60.61
642.285	60.73
642.616	60.62
642.948	60.61
643.279	60.48
643.61	60.57
643.942	60.52
644.273	60.59
644.604	60.57
644.936	60.51
645.267	60.47
645.598	60.44
645.929	60.55
646.26	60.45
646.591	60.37
646.922	60.32
647.253	60.2
647.584	60.21
647.915	60.1
648.245	60.07
648.576	60.15
648.907	60.13
649.238	60.17
649.568	60.17
649.899	60.17
650.229	60.35
650.56	60.29
650.89	60.25
651.221	60.34
651.551	60.23
651.882	60.15
652.212	60.18
652.542	60.24
652.872	60.22
653.203	60.33
653.533	60.37
653.863	60.38
654.193	60.36
654.523	60.48
654.853	60.41
655.183	60.47
655.513	60.52
655.843	60.47
656.172	60.4
656.502	60.47
656.832	60.51
657.162	60.52
657.491	60.64
657.821	60.73
658.15	60.88
658.48	60.87
658.809	60.91
659.139	60.82
659.468	60.87
659.798	60.88
660.127	60.83
660.456	61.05
660.785	61.09
661.115	61.14
661.444	61.12
661.773	61.21
662.102	61.25
662.431	61.25
