Data from BU26843_Reflection_00011.txt Node
Date: Mon Nov 18 16:31:17 EST 2019
User: vgr7
Spectrometer: USB2G7710
Scans to average: 3
Trigger mode: 4
Integration Time (sec): 2.000000E-2
Electric dark correction enabled: true
Boxcar width: 10
XAxis mode: Wavelengths
Number of Pixels in Spectrum: 2048
>>>>>Begin Spectral Data<<<<<
177.721	20.18
178.105	-110.53
178.488	-396.24
178.871	-284.96
179.254	-98.2
179.636	-275
180.019	17.3
180.402	34.48
180.785	46.35
181.168	85.85
181.55	139.6
181.933	153.93
182.316	149.52
182.698	262.85
183.081	279.71
183.463	733.66
183.846	737.68
184.228	197.09
184.611	148
184.993	-290.8
185.376	-101.34
185.758	-131.76
186.14	-199.63
186.522	-76.68
186.904	19.24
187.287	-38.25
187.669	-15.31
188.051	-110.02
188.433	-28.89
188.815	-19.21
189.197	-13.52
189.579	-20.55
189.961	-37.04
190.342	-39.41
190.724	-35.25
191.106	-55.72
191.488	-71.56
191.869	-75.31
192.251	-105.51
192.633	-89.1
193.014	-82.44
193.396	-83.54
193.777	-86.58
194.159	-95.71
194.54	-90.55
194.922	-126
195.303	-125.09
195.684	-121.75
196.065	-102.32
196.447	-163.65
196.828	-158.77
197.209	-152.43
197.59	-158.47
197.971	-88.48
198.352	-82.36
198.733	-92.06
199.114	-99.2
199.495	-87.73
199.876	-70.7
200.257	-49.29
200.638	-20.75
201.018	-33.49
201.399	-54.4
201.78	-60.8
202.16	-63.7
202.541	-109.13
202.922	-111.6
203.302	-136.2
203.683	-144.04
204.063	-125.11
204.444	-79.45
204.824	-84.1
205.204	-63.5
205.585	-84.9
205.965	-163.53
206.345	-217.76
206.725	-269.23
207.106	-356.27
207.486	-242.18
207.866	-197.12
208.246	-179.07
208.626	-188.21
209.006	-127.54
209.386	-135.15
209.766	-130.45
210.145	-98.49
210.525	-63.79
210.905	-53.85
211.285	-34.2
211.664	-28.92
212.044	-40.97
212.424	-38.49
212.803	-42.19
213.183	-48.11
213.562	-37.38
213.942	-26.61
214.321	-18.83
214.701	-14.08
215.08	0.19
215.459	1.14
215.838	2.07
216.218	10.84
216.597	13.52
216.976	3.63
217.355	10.07
217.734	10.29
218.113	13.72
218.492	3.5
218.871	-1.51
219.25	0.86
219.629	-2.45
220.008	0.05
220.387	-3.64
220.766	4.3
221.144	15.99
221.523	5.91
221.902	-0.19
222.28	-7.36
222.659	1.78
223.037	-7.88
223.416	-12.82
223.794	-18.12
224.173	-15.03
224.551	-0.13
224.929	0.78
225.308	-1.61
225.686	-5.1
226.064	-1.22
226.442	5.71
226.821	11.4
227.199	9.94
227.577	6.71
227.955	5.92
228.333	3.53
228.711	4.39
229.089	2.56
229.467	4.98
229.845	4.26
230.222	3.35
230.6	1.33
230.978	1.62
231.356	2.05
231.733	2.49
232.111	3.55
232.488	3.57
232.866	4.66
233.243	5.91
233.621	7.53
233.998	8.77
234.376	6.58
234.753	5.55
235.13	5.92
235.508	7.67
235.885	7.96
236.262	8.27
236.639	8.14
237.016	8.03
237.393	8.43
237.77	9.36
238.147	9.84
238.524	9.19
238.901	8.88
239.278	9.31
239.655	9.77
240.032	9
240.409	8.65
240.785	8.63
241.162	8.27
241.539	7.82
241.915	6.97
242.292	6.83
242.668	7
243.045	7.03
243.421	7.01
243.798	6.41
244.174	6.2
244.551	6.25
244.927	6.11
245.303	6.03
245.679	5.88
246.056	5.64
246.432	5.95
246.808	5.88
247.184	5.6
247.56	5.32
247.936	5.18
248.312	4.87
248.688	4.91
249.064	4.88
249.44	4.66
249.815	4.61
250.191	4.74
250.567	4.67
250.943	4.34
251.318	4.01
251.694	4.27
252.069	4.44
252.445	4.39
252.82	4.5
253.196	4.18
253.571	3.99
253.947	4.06
254.322	3.78
254.697	3.59
255.073	3.54
255.448	3.43
255.823	3.57
256.198	3.52
256.573	3.56
256.948	3.72
257.323	3.96
257.698	4.2
258.073	4.19
258.448	4.06
258.823	4.18
259.198	4.23
259.573	4.28
259.948	4.09
260.322	4.05
260.697	3.97
261.072	3.99
261.446	3.9
261.821	3.73
262.195	3.73
262.57	3.8
262.944	3.88
263.319	3.95
263.693	3.82
264.067	4.01
264.442	4.13
264.816	4.2
265.19	4.1
265.564	3.91
265.938	3.81
266.313	3.9
266.687	3.93
267.061	3.9
267.435	3.75
267.809	3.73
268.183	3.76
268.556	3.77
268.93	3.9
269.304	4.05
269.678	4.31
270.051	4.2
270.425	4.23
270.799	4.26
271.172	4.16
271.546	4.19
271.919	4.09
272.293	3.98
272.666	3.91
273.04	3.89
273.413	3.81
273.787	3.86
274.16	3.79
274.533	3.7
274.906	3.72
275.279	3.65
275.653	3.53
276.026	3.56
276.399	3.38
276.772	3.21
277.145	3.15
277.518	3.15
277.891	3.39
278.263	3.38
278.636	3.19
279.009	3.27
279.382	3.46
279.755	3.57
280.127	3.72
280.5	3.66
280.872	3.77
281.245	3.78
281.617	3.99
281.99	4.14
282.362	4.14
282.735	4.08
283.107	4.07
283.479	4.3
283.852	4.22
284.224	4.28
284.596	4.35
284.968	4.37
285.34	4.4
285.713	4.31
286.085	4.37
286.457	4.47
286.829	4.51
287.201	4.44
287.572	4.46
287.944	4.34
288.316	4.4
288.688	4.36
289.06	4.45
289.431	4.41
289.803	4.42
290.175	4.54
290.546	4.8
290.918	4.98
291.289	4.91
291.661	5.04
292.032	5.2
292.403	5.27
292.775	5.34
293.146	5.25
293.517	5.29
293.889	5.28
294.26	5.41
294.631	5.4
295.002	5.36
295.373	5.21
295.744	5.19
296.115	5.19
296.486	5.13
296.857	5.1
297.228	5.03
297.599	5.1
297.97	4.96
298.34	4.82
298.711	4.75
299.082	4.75
299.452	4.79
299.823	4.78
300.194	4.85
300.564	4.77
300.935	4.87
301.305	4.81
301.676	4.72
302.046	4.61
302.416	4.72
302.787	4.62
303.157	4.73
303.527	4.76
303.897	4.75
304.267	4.98
304.637	5.16
305.008	5.34
305.378	5.39
305.748	5.52
306.117	5.59
306.487	5.74
306.857	5.92
307.227	5.87
307.597	5.96
307.967	5.88
308.336	5.94
308.706	6.02
309.076	6.19
309.445	6.25
309.815	6.21
310.184	6.1
310.554	6.3
310.923	6.46
311.293	6.52
311.662	6.66
312.031	6.56
312.401	6.5
312.77	6.6
313.139	6.58
313.508	6.8
313.877	6.92
314.246	6.89
314.616	6.78
314.985	6.9
315.353	6.81
315.722	6.87
316.091	6.96
316.46	6.93
316.829	6.89
317.198	7.17
317.567	7.39
317.935	7.64
318.304	7.73
318.672	7.7
319.041	7.8
319.41	7.76
319.778	7.77
320.147	7.81
320.515	7.67
320.883	7.76
321.252	7.79
321.62	7.67
321.988	7.77
322.357	7.97
322.725	7.95
323.093	8.06
323.461	8.06
323.829	8.14
324.197	8.16
324.565	8.3
324.933	8.24
325.301	8.17
325.669	8.11
326.037	8.15
326.405	8.2
326.772	8.21
327.14	8.3
327.508	8.55
327.875	8.51
328.243	8.58
328.61	8.44
328.978	8.47
329.346	8.67
329.713	8.64
330.08	8.75
330.448	8.76
330.815	8.84
331.182	9
331.55	8.86
331.917	9.02
332.284	9.04
332.651	8.99
333.018	9.1
333.385	9.18
333.752	9.13
334.119	9.15
334.486	9.1
334.853	9.19
335.22	9.22
335.587	9.24
335.954	9.18
336.32	9.36
336.687	9.24
337.054	9.16
337.42	9.25
337.787	9.23
338.153	9.22
338.52	9.22
338.886	9.18
339.253	9.22
339.619	9.23
339.986	9.18
340.352	9.3
340.718	9.24
341.084	9.26
341.451	9.33
341.817	9.37
342.183	9.48
342.549	9.35
342.915	9.29
343.281	9.41
343.647	9.4
344.013	9.37
344.379	9.4
344.745	9.46
345.11	9.45
345.476	9.41
345.842	9.43
346.208	9.46
346.573	9.57
346.939	9.76
347.304	9.63
347.67	9.61
348.035	9.49
348.401	9.52
348.766	9.56
349.132	9.51
349.497	9.4
349.862	9.49
350.228	9.55
350.593	9.53
350.958	9.52
351.323	9.62
351.688	9.7
352.053	9.67
352.418	9.73
352.783	9.76
353.148	9.73
353.513	9.77
353.878	9.78
354.243	9.78
354.608	9.61
354.972	9.67
355.337	9.72
355.702	9.77
356.066	9.78
356.431	9.65
356.795	9.75
357.16	9.8
357.524	9.65
357.889	9.62
358.253	9.6
358.618	9.59
358.982	9.48
359.346	9.37
359.71	9.36
360.075	9.22
360.439	9.12
360.803	9.05
361.167	9.05
361.531	8.98
361.895	8.89
362.259	8.94
362.623	8.88
362.987	8.78
363.351	8.73
363.714	8.72
364.078	8.78
364.442	8.68
364.806	8.61
365.169	8.6
365.533	8.55
365.896	8.5
366.26	8.41
366.623	8.41
366.987	8.31
367.35	8.29
367.714	8.27
368.077	8.23
368.44	8.24
368.803	8.08
369.167	8.06
369.53	7.96
369.893	7.91
370.256	7.9
370.619	7.86
370.982	7.77
371.345	7.67
371.708	7.6
372.071	7.51
372.434	7.44
372.797	7.37
373.159	7.25
373.522	7.13
373.885	7.14
374.247	7.07
374.61	7.12
374.973	7.04
375.335	6.99
375.698	7
376.06	6.89
376.423	6.84
376.785	6.8
377.147	6.79
377.51	6.72
377.872	6.71
378.234	6.69
378.596	6.68
378.958	6.56
379.321	6.46
379.683	6.43
380.045	6.42
380.407	6.35
380.769	6.31
381.13	6.29
381.492	6.19
381.854	6.13
382.216	6.05
382.578	6.02
382.939	5.93
383.301	5.84
383.663	5.85
384.024	5.84
384.386	5.82
384.747	5.8
385.109	5.76
385.47	5.69
385.832	5.62
386.193	5.59
386.554	5.63
386.916	5.6
387.277	5.61
387.638	5.6
387.999	5.62
388.36	5.61
388.721	5.6
389.082	5.59
389.443	5.55
389.804	5.51
390.165	5.47
390.526	5.48
390.887	5.46
391.248	5.48
391.609	5.41
391.969	5.35
392.33	5.31
392.691	5.28
393.051	5.26
393.412	5.26
393.772	5.21
394.133	5.18
394.493	5.17
394.854	5.1
395.214	5.06
395.574	5
395.935	4.96
396.295	4.98
396.655	4.92
397.015	4.9
397.376	4.87
397.736	4.84
398.096	4.83
398.456	4.78
398.816	4.74
399.176	4.72
399.535	4.67
399.895	4.65
400.255	4.62
400.615	4.58
400.975	4.54
401.334	4.53
401.694	4.5
402.054	4.46
402.413	4.44
402.773	4.41
403.132	4.37
403.492	4.35
403.851	4.32
404.211	4.32
404.57	4.33
404.929	4.32
405.288	4.29
405.648	4.24
406.007	4.28
406.366	4.24
406.725	4.26
407.084	4.29
407.443	4.27
407.802	4.26
408.161	4.22
408.52	4.21
408.879	4.23
409.238	4.21
409.596	4.22
409.955	4.23
410.314	4.24
410.673	4.23
411.031	4.23
411.39	4.19
411.748	4.18
412.107	4.15
412.465	4.17
412.824	4.18
413.182	4.16
413.54	4.1
413.899	4.1
414.257	4.06
414.615	4.04
414.974	4.04
415.332	4.03
415.69	4.02
416.048	3.99
416.406	3.96
416.764	3.93
417.122	3.92
417.48	3.89
417.838	3.89
418.195	3.89
418.553	3.87
418.911	3.84
419.269	3.83
419.626	3.83
419.984	3.8
420.342	3.78
420.699	3.76
421.057	3.78
421.414	3.76
421.772	3.74
422.129	3.74
422.486	3.72
422.844	3.72
423.201	3.73
423.558	3.72
423.915	3.7
424.273	3.7
424.63	3.66
424.987	3.65
425.344	3.64
425.701	3.62
426.058	3.62
426.415	3.62
426.772	3.62
427.128	3.6
427.485	3.6
427.842	3.6
428.199	3.62
428.555	3.59
428.912	3.6
429.269	3.6
429.625	3.56
429.982	3.55
430.338	3.53
430.695	3.54
431.051	3.53
431.407	3.54
431.764	3.55
432.12	3.56
432.476	3.56
432.832	3.55
433.189	3.54
433.545	3.55
433.901	3.55
434.257	3.53
434.613	3.54
434.969	3.54
435.325	3.54
435.681	3.55
436.036	3.53
436.392	3.51
436.748	3.52
437.104	3.53
437.459	3.51
437.815	3.49
438.171	3.48
438.526	3.5
438.882	3.49
439.237	3.5
439.593	3.54
439.948	3.52
440.304	3.53
440.659	3.55
441.014	3.53
441.369	3.52
441.725	3.52
442.08	3.52
442.435	3.53
442.79	3.51
443.145	3.51
443.5	3.53
443.855	3.53
444.21	3.52
444.565	3.53
444.92	3.56
445.275	3.56
445.629	3.56
445.984	3.55
446.339	3.55
446.693	3.53
447.048	3.49
447.403	3.49
447.757	3.48
448.112	3.46
448.466	3.47
448.82	3.47
449.175	3.48
449.529	3.48
449.883	3.46
450.238	3.46
450.592	3.45
450.946	3.46
451.3	3.46
451.654	3.46
452.008	3.46
452.362	3.44
452.716	3.45
453.07	3.43
453.424	3.42
453.778	3.42
454.132	3.41
454.486	3.42
454.839	3.42
455.193	3.43
455.547	3.43
455.9	3.43
456.254	3.43
456.607	3.44
456.961	3.44
457.314	3.42
457.668	3.43
458.021	3.41
458.375	3.41
458.728	3.42
459.081	3.43
459.434	3.42
459.787	3.43
460.141	3.42
460.494	3.44
460.847	3.45
461.2	3.46
461.553	3.47
461.906	3.48
462.259	3.49
462.611	3.49
462.964	3.49
463.317	3.49
463.67	3.49
464.022	3.47
464.375	3.46
464.728	3.47
465.08	3.48
465.433	3.52
465.785	3.5
466.138	3.51
466.49	3.52
466.843	3.54
467.195	3.55
467.547	3.56
467.899	3.55
468.252	3.55
468.604	3.56
468.956	3.57
469.308	3.58
469.66	3.57
470.012	3.59
470.364	3.61
470.716	3.64
471.068	3.64
471.42	3.65
471.772	3.67
472.123	3.69
472.475	3.69
472.827	3.69
473.178	3.73
473.53	3.71
473.882	3.69
474.233	3.7
474.585	3.69
474.936	3.68
475.288	3.7
475.639	3.7
475.99	3.71
476.342	3.7
476.693	3.72
477.044	3.73
477.395	3.7
477.746	3.69
478.097	3.67
478.448	3.71
478.8	3.71
479.15	3.69
479.501	3.68
479.852	3.67
480.203	3.66
480.554	3.64
480.905	3.64
481.255	3.67
481.606	3.67
481.957	3.67
482.307	3.67
482.658	3.67
483.009	3.67
483.359	3.66
483.709	3.67
484.06	3.65
484.41	3.66
484.761	3.65
485.111	3.64
485.461	3.63
485.811	3.62
486.162	3.61
486.512	3.63
486.862	3.62
487.212	3.62
487.562	3.63
487.912	3.64
488.262	3.62
488.612	3.6
488.961	3.59
489.311	3.59
489.661	3.6
490.011	3.61
490.36	3.6
490.71	3.6
491.06	3.59
491.409	3.6
491.759	3.6
492.108	3.61
492.458	3.63
492.807	3.64
493.157	3.66
493.506	3.68
493.855	3.67
494.204	3.7
494.554	3.71
494.903	3.72
495.252	3.73
495.601	3.76
495.95	3.8
496.299	3.81
496.648	3.82
496.997	3.82
497.346	3.83
497.695	3.86
498.043	3.89
498.392	3.92
498.741	3.95
499.09	3.96
499.438	4
499.787	4.04
500.135	4.09
500.484	4.11
500.832	4.15
501.181	4.21
501.529	4.26
501.878	4.31
502.226	4.38
502.574	4.44
502.923	4.49
503.271	4.54
503.619	4.6
503.967	4.67
504.315	4.75
504.663	4.83
505.011	4.89
505.359	4.97
505.707	5.05
506.055	5.12
506.403	5.22
506.751	5.29
507.098	5.35
507.446	5.43
507.794	5.55
508.141	5.63
508.489	5.73
508.837	5.8
509.184	5.87
509.531	5.95
509.879	6.04
510.226	6.16
510.574	6.24
510.921	6.33
511.268	6.43
511.616	6.55
511.963	6.65
512.31	6.75
512.657	6.84
513.004	6.94
513.351	7.06
513.698	7.19
514.045	7.33
514.392	7.43
514.739	7.55
515.086	7.66
515.432	7.76
515.779	7.85
516.126	7.96
516.473	8.1
516.819	8.21
517.166	8.32
517.512	8.41
517.859	8.54
518.205	8.65
518.552	8.74
518.898	8.82
519.245	8.92
519.591	9.02
519.937	9.14
520.283	9.24
520.629	9.36
520.976	9.46
521.322	9.57
521.668	9.72
522.014	9.83
522.36	9.95
522.706	10.1
523.052	10.29
523.398	10.46
523.743	10.62
524.089	10.8
524.435	10.96
524.781	11.13
525.126	11.27
525.472	11.41
525.817	11.56
526.163	11.69
526.509	11.78
526.854	11.9
527.199	12
527.545	12.11
527.89	12.23
528.235	12.35
528.581	12.45
528.926	12.59
529.271	12.71
529.616	12.84
529.961	12.95
530.306	13.07
530.651	13.2
530.996	13.34
531.341	13.49
531.686	13.64
532.031	13.8
532.376	13.97
532.721	14.15
533.065	14.33
533.41	14.52
533.755	14.75
534.099	14.96
534.444	15.16
534.788	15.36
535.133	15.56
535.477	15.77
535.822	16.02
536.166	16.23
536.51	16.51
536.855	16.82
537.199	17.11
537.543	17.41
537.887	17.74
538.231	18.04
538.576	18.36
538.92	18.67
539.264	18.99
539.608	19.27
539.951	19.55
540.295	19.8
540.639	20.07
540.983	20.32
541.327	20.55
541.671	20.81
542.014	21.07
542.358	21.3
542.701	21.57
543.045	21.81
543.389	22.08
543.732	22.33
544.075	22.59
544.419	22.87
544.762	23.15
545.105	23.43
545.449	23.76
545.792	24.07
546.135	24.42
546.478	24.75
546.821	25.11
547.165	25.46
547.508	25.83
547.851	26.2
548.194	26.58
548.536	27
548.879	27.4
549.222	27.82
549.565	28.18
549.908	28.58
550.25	28.99
550.593	29.39
550.936	29.8
551.278	30.2
551.621	30.61
551.963	31.03
552.306	31.44
552.648	31.82
552.991	32.16
553.333	32.53
553.675	32.86
554.017	33.18
554.36	33.5
554.702	33.85
555.044	34.16
555.386	34.52
555.728	34.86
556.07	35.22
556.412	35.56
556.754	35.97
557.096	36.31
557.438	36.68
557.78	37.04
558.121	37.39
558.463	37.72
558.805	38.08
559.147	38.41
559.488	38.72
559.83	39.04
560.171	39.38
560.513	39.75
560.854	40.1
561.196	40.48
561.537	40.79
561.878	41.11
562.22	41.41
562.561	41.62
562.902	41.9
563.243	42.12
563.584	42.3
563.925	42.54
564.266	42.78
564.607	43.05
564.948	43.28
565.289	43.48
565.63	43.74
565.971	43.94
566.312	44.16
566.653	44.37
566.993	44.61
567.334	44.87
567.675	45.06
568.015	45.26
568.356	45.44
568.696	45.74
569.037	45.98
569.377	46.21
569.718	46.5
570.058	46.7
570.398	46.99
570.739	47.26
571.079	47.5
571.419	47.69
571.759	47.87
572.099	48.04
572.439	48.26
572.779	48.47
573.119	48.65
573.459	48.88
573.799	49.07
574.139	49.28
574.479	49.4
574.819	49.53
575.158	49.73
575.498	49.97
575.838	50.08
576.177	50.26
576.517	50.37
576.856	50.52
577.196	50.7
577.535	50.84
577.875	51.04
578.214	51.21
578.553	51.36
578.893	51.52
579.232	51.74
579.571	51.88
579.91	51.99
580.25	52.17
580.589	52.24
580.928	52.43
581.267	52.53
581.606	52.65
581.945	52.81
582.283	52.95
582.622	52.97
582.961	53.16
583.3	53.3
583.639	53.45
583.977	53.58
584.316	53.72
584.654	53.91
584.993	54.04
585.332	54.18
585.67	54.34
586.008	54.55
586.347	54.63
586.685	54.77
587.024	54.92
587.362	55.01
587.7	55.2
588.038	55.34
588.376	55.38
588.715	55.53
589.053	55.62
589.391	55.68
589.729	55.89
590.067	55.86
590.404	55.9
590.742	56.03
591.08	56.07
591.418	56.13
591.756	56.14
592.093	56.15
592.431	56.21
592.769	56.32
593.106	56.24
593.444	56.33
593.781	56.42
594.119	56.52
594.456	56.61
594.793	56.63
595.131	56.66
595.468	56.71
595.805	56.74
596.143	56.9
596.48	56.93
596.817	56.98
597.154	57.07
597.491	57.16
597.828	57.25
598.165	57.36
598.502	57.5
598.839	57.58
599.176	57.7
599.512	57.83
599.849	57.9
600.186	58.07
600.523	58.15
600.859	58.16
601.196	58.19
601.532	58.28
601.869	58.35
602.205	58.49
602.542	58.6
602.878	58.7
603.215	58.71
603.551	58.75
603.887	58.81
604.223	58.86
604.56	58.94
604.896	58.96
605.232	58.98
605.568	58.99
605.904	59.05
606.24	59.09
606.576	59.18
606.912	59.21
607.248	59.19
607.583	59.29
607.919	59.37
608.255	59.42
608.591	59.41
608.926	59.53
609.262	59.53
609.597	59.58
609.933	59.59
610.268	59.58
610.604	59.67
610.939	59.69
611.275	59.77
611.61	59.8
611.945	59.92
612.281	60.02
612.616	60.08
612.951	60.14
613.286	60.23
613.621	60.24
613.956	60.4
614.291	60.42
614.626	60.39
614.961	60.52
615.296	60.51
615.631	60.6
615.966	60.54
616.3	60.55
616.635	60.66
616.97	60.74
617.304	60.78
617.639	60.9
617.973	60.97
618.308	61.01
618.642	61
618.977	60.97
619.311	61.01
619.646	61.03
619.98	60.98
620.314	60.91
620.648	60.96
620.983	60.99
621.317	61.07
621.651	61.16
621.985	61.21
622.319	61.39
622.653	61.42
622.987	61.53
623.321	61.57
623.655	61.62
623.988	61.67
624.322	61.75
624.656	61.77
624.99	61.8
625.323	61.72
625.657	61.75
625.99	61.86
626.324	61.79
626.657	61.87
626.991	62.01
627.324	62.1
627.658	62.08
627.991	62.06
628.324	62.1
628.657	62.08
628.991	62.06
629.324	62.03
629.657	62.09
629.99	61.99
630.323	62.08
630.656	62.09
630.989	62.17
631.322	62.09
631.655	62.06
631.987	62.06
632.32	62.17
632.653	62.17
632.986	62.11
633.318	62.22
633.651	62.19
633.984	62.1
634.316	62.08
634.649	62.03
634.981	62.06
635.313	62.09
635.646	62.1
635.978	62.07
636.31	62.05
636.643	61.97
636.975	62.2
637.307	62.13
637.639	62.18
637.971	62.15
638.303	62.25
638.635	62.35
638.967	62.34
639.299	62.47
639.631	62.53
639.963	62.58
640.295	62.65
640.626	62.69
640.958	62.76
641.29	62.98
641.621	63.01
641.953	62.94
642.285	62.89
642.616	63.07
642.948	63.14
643.279	63.17
643.61	63.29
643.942	63.23
644.273	63.19
644.604	63.18
644.936	63.06
645.267	63.07
645.598	63.03
645.929	63.07
646.26	63.09
646.591	63.13
646.922	63.1
647.253	63.06
647.584	63.07
647.915	63.02
648.245	62.91
648.576	62.99
648.907	63.07
649.238	63.13
649.568	63.07
649.899	63.05
650.229	63.15
650.56	63.11
650.89	63.15
651.221	63.31
651.551	63.2
651.882	63.24
652.212	63.26
652.542	63.16
652.872	63.18
653.203	63.13
653.533	63.19
653.863	63.16
654.193	63.2
654.523	63.29
654.853	63.35
655.183	63.41
655.513	63.3
655.843	63.33
656.172	63.38
656.502	63.52
656.832	63.65
657.162	63.6
657.491	63.64
657.821	63.62
658.15	63.6
658.48	63.73
658.809	63.83
659.139	63.82
659.468	63.88
659.798	63.9
660.127	63.89
660.456	63.77
660.785	63.85
661.115	63.85
661.444	63.77
661.773	63.87
662.102	63.89
662.431	64.06
662.76	64.13
663.089	64.1
663.418	63.97
663.747	63.94
664.076	64.03
664.404	64.04
664.733	64.11
665.062	64.16
665.39	64.05
665.719	63.99
666.048	64.12
666.376	64.18
666.705	64.27
667.033	64.17
667.362	64.33
667.69	64.32
668.018	64.35
668.347	64.45
