Data from BU26944_Reflection_00007.txt Node
Date: Tue Nov 19 10:54:41 EST 2019
User: vgr7
Spectrometer: USB2G7710
Scans to average: 3
Trigger mode: 4
Integration Time (sec): 2.000000E-2
Electric dark correction enabled: true
Boxcar width: 10
XAxis mode: Wavelengths
Number of Pixels in Spectrum: 2048
>>>>>Begin Spectral Data<<<<<
177.721	11.94
178.105	69.03
178.488	33.29
178.871	274.29
179.254	-1080
179.636	-9.96
180.019	-26.77
180.402	-450
180.785	-28.24
181.168	-21.18
181.55	84.98
181.933	129.56
182.316	50.81
182.698	23.19
183.081	-1.9
183.463	-12.14
183.846	21.22
184.228	60.15
184.611	-372.97
184.993	-188.57
185.376	-302.26
185.758	310.84
186.14	568.42
186.522	-338.39
186.904	-209.64
187.287	-139.48
187.669	4.8
188.051	43.84
188.433	22.19
188.815	3.43
189.197	11.81
189.579	36.54
189.961	51.72
190.342	46.5
190.724	51.49
191.106	31.25
191.488	16.41
191.869	39.56
192.251	45.22
192.633	76.44
193.014	110.05
193.396	138.63
193.777	103.71
194.159	100.24
194.54	167.69
194.922	140.53
195.303	133.15
195.684	105.33
196.065	82.59
196.447	108.52
196.828	119.69
197.209	120.24
197.59	98.39
197.971	95.87
198.352	102.23
198.733	83.34
199.114	75.4
199.495	74.64
199.876	78.58
200.257	77.66
200.638	52.5
201.018	29.36
201.399	21.65
201.78	9.91
202.16	-0
202.541	-23.16
202.922	-18.47
203.302	-10.78
203.683	1.82
204.063	7.57
204.444	21.39
204.824	23.87
205.204	15.61
205.585	22.03
205.965	36.4
206.345	32.08
206.725	56.12
207.106	73.06
207.486	100.42
207.866	114.1
208.246	91.95
208.626	90.52
209.006	85.47
209.386	109.68
209.766	114.07
210.145	138.1
210.525	192.95
210.905	175.89
211.285	146.59
211.664	119.31
212.044	116.36
212.424	91.47
212.803	108.64
213.183	94.2
213.562	104.26
213.942	78.85
214.321	72.24
214.701	96.2
215.08	76.93
215.459	92.34
215.838	96.05
216.218	146.31
216.597	178.89
216.976	171.87
217.355	130.7
217.734	170.43
218.113	121.47
218.492	95.53
218.871	93.82
219.25	102.83
219.629	123.15
220.008	155.71
220.387	166.39
220.766	157.26
221.144	213.27
221.523	227.56
221.902	191.58
222.28	148.29
222.659	80.74
223.037	88.92
223.416	44.7
223.794	29.47
224.173	14.5
224.551	2.7
224.929	-6.27
225.308	-8.55
225.686	-3.89
226.064	-6.88
226.442	-8.49
226.821	-10.68
227.199	-11.29
227.577	-10.3
227.955	-11.21
228.333	-9.08
228.711	-11.28
229.089	-11.34
229.467	-11.38
229.845	-10.9
230.222	-9.63
230.6	-5.5
230.978	-4.04
231.356	-5.35
231.733	-2.17
232.111	0.74
232.488	4.4
232.866	6.6
233.243	7.79
233.621	6.46
233.998	7.12
234.376	8.33
234.753	10.86
235.13	8.99
235.508	8.47
235.885	9.86
236.262	7.71
236.639	7.31
237.016	7.15
237.393	7.51
237.77	7.65
238.147	7.19
238.524	6.4
238.901	6.58
239.278	7.54
239.655	6.73
240.032	6.41
240.409	5.97
240.785	6.19
241.162	6.08
241.539	5.96
241.915	6.16
242.292	6.14
242.668	6.36
243.045	7.03
243.421	7.42
243.798	7.2
244.174	7.37
244.551	7.03
244.927	6.65
245.303	6.41
245.679	6.23
246.056	6.23
246.432	6.1
246.808	6.2
247.184	5.99
247.56	5.84
247.936	5.94
248.312	6.03
248.688	5.98
249.064	5.79
249.44	5.74
249.815	5.81
250.191	5.67
250.567	5.31
250.943	5.14
251.318	4.8
251.694	4.74
252.069	4.94
252.445	5.17
252.82	5.65
253.196	5.8
253.571	6.04
253.947	5.97
254.322	5.95
254.697	5.6
255.073	5.56
255.448	5.41
255.823	5.05
256.198	4.75
256.573	4.37
256.948	4.46
257.323	4.36
257.698	4.22
258.073	4.09
258.448	4.16
258.823	4.09
259.198	4
259.573	3.8
259.948	3.75
260.322	3.67
260.697	3.47
261.072	3.39
261.446	3.38
261.821	3.35
262.195	3.27
262.57	3.36
262.944	3.21
263.319	3.26
263.693	3.39
264.067	3.34
264.442	3.32
264.816	3.21
265.19	3.31
265.564	2.99
265.938	2.91
266.313	2.82
266.687	2.87
267.061	3.02
267.435	3.32
267.809	3.13
268.183	2.96
268.556	3.05
268.93	3.23
269.304	3.06
269.678	3.21
270.051	3.4
270.425	3.49
270.799	3.55
271.172	3.7
271.546	3.68
271.919	3.62
272.293	3.73
272.666	3.69
273.04	3.68
273.413	3.81
273.787	3.9
274.16	3.79
274.533	3.66
274.906	3.63
275.279	3.4
275.653	3.54
276.026	3.65
276.399	3.53
276.772	3.47
277.145	3.58
277.518	3.31
277.891	3.22
278.263	3.21
278.636	3.5
279.009	3.43
279.382	3.38
279.755	3.42
280.127	3.48
280.5	3.58
280.872	3.61
281.245	3.64
281.617	3.67
281.99	3.92
282.362	3.96
282.735	3.95
283.107	4.01
283.479	4.08
283.852	4.18
284.224	4.28
284.596	4.11
284.968	3.98
285.34	4.1
285.713	4.21
286.085	4.13
286.457	4.02
286.829	4.01
287.201	3.93
287.572	3.98
287.944	3.88
288.316	3.86
288.688	3.89
289.06	3.96
289.431	4.1
289.803	4.02
290.175	3.96
290.546	3.96
290.918	3.99
291.289	3.71
291.661	3.67
292.032	3.51
292.403	3.57
292.775	3.63
293.146	3.7
293.517	3.58
293.889	3.6
294.26	3.59
294.631	3.49
295.002	3.6
295.373	3.58
295.744	3.66
296.115	3.71
296.486	3.65
296.857	3.6
297.228	3.52
297.599	3.55
297.97	3.65
298.34	3.74
298.711	3.85
299.082	3.96
299.452	3.95
299.823	4
300.194	4.06
300.564	4.01
300.935	4
301.305	4.04
301.676	3.98
302.046	3.96
302.416	4.06
302.787	4.12
303.157	4.21
303.527	4.39
303.897	4.36
304.267	4.42
304.637	4.53
305.008	4.49
305.378	4.5
305.748	4.52
306.117	4.49
306.487	4.41
306.857	4.49
307.227	4.57
307.597	4.64
307.967	4.64
308.336	4.73
308.706	4.84
309.076	4.93
309.445	5.05
309.815	5.15
310.184	5.11
310.554	5.08
310.923	5.01
311.293	4.89
311.662	4.9
312.031	4.97
312.401	4.99
312.77	5.08
313.139	5.04
313.508	5.02
313.877	5.03
314.246	5.06
314.616	5.12
314.985	5.05
315.353	5.09
315.722	5.17
316.091	5.31
316.46	5.35
316.829	5.41
317.198	5.38
317.567	5.34
317.935	5.42
318.304	5.58
318.672	5.79
319.041	5.86
319.41	5.99
319.778	6.11
320.147	6.12
320.515	6.19
320.883	6.35
321.252	6.44
321.62	6.47
321.988	6.58
322.357	6.61
322.725	6.85
323.093	6.96
323.461	6.96
323.829	6.97
324.197	7.03
324.565	6.84
324.933	6.93
325.301	7.01
325.669	7.1
326.037	7.07
326.405	6.94
326.772	6.96
327.14	6.95
327.508	6.8
327.875	6.76
328.243	6.69
328.61	6.73
328.978	6.78
329.346	7.03
329.713	6.99
330.08	7.11
330.448	7.08
330.815	7.12
331.182	7.11
331.55	6.99
331.917	6.85
332.284	7.11
332.651	7.14
333.018	7.08
333.385	7.1
333.752	7.21
334.119	7.26
334.486	7.34
334.853	7.34
335.22	7.51
335.587	7.66
335.954	7.73
336.32	7.65
336.687	7.67
337.054	7.51
337.42	7.63
337.787	7.54
338.153	7.47
338.52	7.39
338.886	7.5
339.253	7.5
339.619	7.53
339.986	7.49
340.352	7.61
340.718	7.67
341.084	7.76
341.451	7.64
341.817	7.71
342.183	7.75
342.549	7.82
342.915	7.7
343.281	7.71
343.647	7.67
344.013	7.67
344.379	7.62
344.745	7.68
345.11	7.56
345.476	7.62
345.842	7.62
346.208	7.67
346.573	7.7
346.939	7.81
347.304	7.84
347.67	7.79
348.035	7.62
348.401	7.61
348.766	7.54
349.132	7.6
349.497	7.57
349.862	7.57
350.228	7.47
350.593	7.49
350.958	7.58
351.323	7.73
351.688	7.79
352.053	7.85
352.418	7.88
352.783	7.92
353.148	7.9
353.513	7.88
353.878	7.89
354.243	7.87
354.608	7.88
354.972	7.85
355.337	7.93
355.702	7.96
356.066	8.02
356.431	7.98
356.795	7.96
357.16	8
357.524	7.97
357.889	7.96
358.253	7.9
358.618	7.72
358.982	7.59
359.346	7.5
359.71	7.42
360.075	7.36
360.439	7.3
360.803	7.18
361.167	7.13
361.531	7.08
361.895	7
362.259	6.94
362.623	6.91
362.987	6.8
363.351	6.81
363.714	6.71
364.078	6.71
364.442	6.67
364.806	6.66
365.169	6.61
365.533	6.61
365.896	6.7
366.26	6.69
366.623	6.66
366.987	6.71
367.35	6.71
367.714	6.67
368.077	6.68
368.44	6.72
368.803	6.78
369.167	6.78
369.53	6.74
369.893	6.69
370.256	6.68
370.619	6.68
370.982	6.57
371.345	6.64
371.708	6.5
372.071	6.45
372.434	6.38
372.797	6.37
373.159	6.28
373.522	6.18
373.885	6.18
374.247	6.16
374.61	6.12
374.973	6.09
375.335	6.03
375.698	5.95
376.06	5.94
376.423	5.84
376.785	5.79
377.147	5.77
377.51	5.73
377.872	5.72
378.234	5.7
378.596	5.67
378.958	5.56
379.321	5.62
379.683	5.64
380.045	5.55
380.407	5.46
380.769	5.47
381.13	5.43
381.492	5.37
381.854	5.34
382.216	5.32
382.578	5.3
382.939	5.3
383.301	5.32
383.663	5.29
384.024	5.28
384.386	5.24
384.747	5.22
385.109	5.16
385.47	5.13
385.832	5.05
386.193	5.01
386.554	5.02
386.916	5.02
387.277	4.96
387.638	4.99
387.999	4.94
388.36	4.88
388.721	4.88
389.082	4.87
389.443	4.84
389.804	4.81
390.165	4.8
390.526	4.8
390.887	4.71
391.248	4.7
391.609	4.7
391.969	4.7
392.33	4.67
392.691	4.65
393.051	4.62
393.412	4.61
393.772	4.61
394.133	4.58
394.493	4.5
394.854	4.49
395.214	4.43
395.574	4.41
395.935	4.41
396.295	4.36
396.655	4.34
397.015	4.33
397.376	4.3
397.736	4.21
398.096	4.14
398.456	4.16
398.816	4.12
399.176	4.07
399.535	4
399.895	3.98
400.255	3.96
400.615	3.91
400.975	3.92
401.334	3.92
401.694	3.89
402.054	3.9
402.413	3.86
402.773	3.84
403.132	3.85
403.492	3.83
403.851	3.82
404.211	3.78
404.57	3.73
404.929	3.73
405.288	3.77
405.648	3.79
406.007	3.77
406.366	3.75
406.725	3.75
407.084	3.75
407.443	3.75
407.802	3.72
408.161	3.74
408.52	3.7
408.879	3.69
409.238	3.68
409.596	3.66
409.955	3.64
410.314	3.62
410.673	3.59
411.031	3.59
411.39	3.58
411.748	3.6
412.107	3.62
412.465	3.59
412.824	3.57
413.182	3.54
413.54	3.53
413.899	3.54
414.257	3.55
414.615	3.54
414.974	3.51
415.332	3.53
415.69	3.49
416.048	3.47
416.406	3.44
416.764	3.42
417.122	3.38
417.48	3.39
417.838	3.37
418.195	3.38
418.553	3.37
418.911	3.36
419.269	3.34
419.626	3.34
419.984	3.33
420.342	3.33
420.699	3.32
421.057	3.3
421.414	3.29
421.772	3.25
422.129	3.25
422.486	3.25
422.844	3.25
423.201	3.25
423.558	3.25
423.915	3.26
424.273	3.26
424.63	3.28
424.987	3.29
425.344	3.3
425.701	3.28
426.058	3.28
426.415	3.26
426.772	3.25
427.128	3.25
427.485	3.24
427.842	3.23
428.199	3.23
428.555	3.24
428.912	3.23
429.269	3.24
429.625	3.23
429.982	3.23
430.338	3.21
430.695	3.2
431.051	3.2
431.407	3.19
431.764	3.19
432.12	3.19
432.476	3.19
432.832	3.17
433.189	3.17
433.545	3.17
433.901	3.17
434.257	3.16
434.613	3.14
434.969	3.14
435.325	3.14
435.681	3.12
436.036	3.12
436.392	3.12
436.748	3.13
437.104	3.14
437.459	3.13
437.815	3.13
438.171	3.15
438.526	3.15
438.882	3.15
439.237	3.15
439.593	3.14
439.948	3.13
440.304	3.13
440.659	3.14
441.014	3.15
441.369	3.16
441.725	3.15
442.08	3.16
442.435	3.16
442.79	3.15
443.145	3.18
443.5	3.17
443.855	3.17
444.21	3.17
444.565	3.16
444.92	3.17
445.275	3.16
445.629	3.17
445.984	3.15
446.339	3.13
446.693	3.12
447.048	3.11
447.403	3.1
447.757	3.1
448.112	3.09
448.466	3.09
448.82	3.08
449.175	3.1
449.529	3.1
449.883	3.1
450.238	3.1
450.592	3.09
450.946	3.1
451.3	3.1
451.654	3.06
452.008	3.05
452.362	3.04
452.716	3.05
453.07	3.02
453.424	3.03
453.778	3.04
454.132	3.02
454.486	3.01
454.839	3.03
455.193	3.03
455.547	3.05
455.9	3.03
456.254	3.03
456.607	3.02
456.961	3.02
457.314	3.01
457.668	3
458.021	3
458.375	2.98
458.728	3
459.081	3.01
459.434	3.02
459.787	3.03
460.141	3.03
460.494	3.04
460.847	3.04
461.2	3.06
461.553	3.08
461.906	3.08
462.259	3.08
462.611	3.06
462.964	3.06
463.317	3.06
463.67	3.06
464.022	3.07
464.375	3.06
464.728	3.05
465.08	3.06
465.433	3.06
465.785	3.07
466.138	3.06
466.49	3.07
466.843	3.07
467.195	3.08
467.547	3.06
467.899	3.09
468.252	3.11
468.604	3.09
468.956	3.1
469.308	3.11
469.66	3.13
470.012	3.15
470.364	3.15
470.716	3.18
471.068	3.2
471.42	3.21
471.772	3.24
472.123	3.25
472.475	3.25
472.827	3.27
473.178	3.29
473.53	3.3
473.882	3.32
474.233	3.33
474.585	3.3
474.936	3.32
475.288	3.31
475.639	3.3
475.99	3.32
476.342	3.3
476.693	3.3
477.044	3.29
477.395	3.3
477.746	3.28
478.097	3.28
478.448	3.26
478.8	3.25
479.15	3.23
479.501	3.23
479.852	3.21
480.203	3.21
480.554	3.2
480.905	3.19
481.255	3.18
481.606	3.18
481.957	3.2
482.307	3.19
482.658	3.19
483.009	3.18
483.359	3.18
483.709	3.18
484.06	3.19
484.41	3.2
484.761	3.19
485.111	3.19
485.461	3.19
485.811	3.19
486.162	3.19
486.512	3.19
486.862	3.19
487.212	3.21
487.562	3.19
487.912	3.2
488.262	3.21
488.612	3.21
488.961	3.21
489.311	3.22
489.661	3.22
490.011	3.21
490.36	3.21
490.71	3.2
491.06	3.22
491.409	3.21
491.759	3.21
492.108	3.21
492.458	3.22
492.807	3.22
493.157	3.24
493.506	3.24
493.855	3.24
494.204	3.24
494.554	3.23
494.903	3.27
495.252	3.26
495.601	3.26
495.95	3.28
496.299	3.3
496.648	3.28
496.997	3.3
497.346	3.34
497.695	3.37
498.043	3.42
498.392	3.41
498.741	3.43
499.09	3.44
499.438	3.45
499.787	3.47
500.135	3.5
500.484	3.53
500.832	3.57
501.181	3.6
501.529	3.64
501.878	3.68
502.226	3.71
502.574	3.75
502.923	3.78
503.271	3.8
503.619	3.82
503.967	3.86
504.315	3.88
504.663	3.91
505.011	3.95
505.359	3.95
505.707	3.99
506.055	4.04
506.403	4.08
506.751	4.12
507.098	4.14
507.446	4.18
507.794	4.22
508.141	4.25
508.489	4.3
508.837	4.34
509.184	4.38
509.531	4.43
509.879	4.48
510.226	4.55
510.574	4.62
510.921	4.67
511.268	4.73
511.616	4.78
511.963	4.83
512.31	4.88
512.657	4.96
513.004	5.02
513.351	5.08
513.698	5.16
514.045	5.24
514.392	5.34
514.739	5.42
515.086	5.5
515.432	5.58
515.779	5.64
516.126	5.74
516.473	5.82
516.819	5.9
517.166	5.97
517.512	6.04
517.859	6.08
518.205	6.13
518.552	6.21
518.898	6.3
519.245	6.38
519.591	6.46
519.937	6.53
520.283	6.63
520.629	6.71
520.976	6.81
521.322	6.9
521.668	7.01
522.014	7.12
522.36	7.24
522.706	7.35
523.052	7.5
523.398	7.62
523.743	7.74
524.089	7.86
524.435	8.01
524.781	8.15
525.126	8.28
525.472	8.41
525.817	8.49
526.163	8.58
526.509	8.67
526.854	8.76
527.199	8.85
527.545	8.92
527.89	9
528.235	9.08
528.581	9.16
528.926	9.23
529.271	9.3
529.616	9.39
529.961	9.48
530.306	9.55
530.651	9.63
530.996	9.73
531.341	9.83
531.686	9.93
532.031	10.03
532.376	10.12
532.721	10.22
533.065	10.35
533.41	10.48
533.755	10.6
534.099	10.72
534.444	10.84
534.788	10.98
535.133	11.12
535.477	11.23
535.822	11.38
536.166	11.53
536.51	11.7
536.855	11.87
537.199	12.01
537.543	12.2
537.887	12.4
538.231	12.57
538.576	12.76
538.92	12.94
539.264	13.11
539.608	13.29
539.951	13.44
540.295	13.58
540.639	13.73
540.983	13.89
541.327	14.04
541.671	14.17
542.014	14.33
542.358	14.49
542.701	14.65
543.045	14.8
543.389	14.96
543.732	15.1
544.075	15.26
544.419	15.44
544.762	15.61
545.105	15.78
545.449	16.01
545.792	16.2
546.135	16.4
546.478	16.6
546.821	16.85
547.165	17.09
547.508	17.34
547.851	17.59
548.194	17.83
548.536	18.08
548.879	18.35
549.222	18.6
549.565	18.84
549.908	19.08
550.25	19.35
550.593	19.66
550.936	19.94
551.278	20.23
551.621	20.49
551.963	20.78
552.306	21.07
552.648	21.33
552.991	21.61
553.333	21.89
553.675	22.16
554.017	22.39
554.36	22.66
554.702	22.91
555.044	23.18
555.386	23.45
555.728	23.74
556.07	23.98
556.412	24.2
556.754	24.47
557.096	24.77
557.438	25.11
557.78	25.38
558.121	25.69
558.463	25.97
558.805	26.3
559.147	26.58
559.488	26.88
559.83	27.17
560.171	27.43
560.513	27.68
560.854	28.04
561.196	28.34
561.537	28.64
561.878	28.97
562.22	29.26
562.561	29.55
562.902	29.79
563.243	30.12
563.584	30.43
563.925	30.72
564.266	31.01
564.607	31.23
564.948	31.46
565.289	31.68
565.63	31.94
565.971	32.2
566.312	32.47
566.653	32.69
566.993	32.95
567.334	33.23
567.675	33.5
568.015	33.72
568.356	34.02
568.696	34.3
569.037	34.53
569.377	34.71
569.718	34.94
570.058	35.19
570.398	35.45
570.739	35.7
571.079	35.95
571.419	36.15
571.759	36.42
572.099	36.64
572.439	36.9
572.779	37.14
573.119	37.34
573.459	37.54
573.799	37.75
574.139	37.93
574.479	38.14
574.819	38.39
575.158	38.57
575.498	38.72
575.838	38.94
576.177	39.13
576.517	39.42
576.856	39.64
577.196	39.9
577.535	40.05
577.875	40.21
578.214	40.4
578.553	40.61
578.893	40.78
579.232	41.01
579.571	41.21
579.91	41.4
580.25	41.61
580.589	41.81
580.928	42
581.267	42.25
581.606	42.38
581.945	42.54
582.283	42.75
582.622	42.97
582.961	43.1
583.3	43.29
583.639	43.48
583.977	43.7
584.316	43.79
584.654	44.02
584.993	44.31
585.332	44.48
585.67	44.63
586.008	44.75
586.347	44.88
586.685	45.04
587.024	45.17
587.362	45.3
587.7	45.45
588.038	45.64
588.376	45.75
588.715	45.89
589.053	45.99
589.391	46.11
589.729	46.26
590.067	46.44
590.404	46.54
590.742	46.63
591.08	46.69
591.418	46.88
591.756	47.02
592.093	47.06
592.431	47.19
592.769	47.35
593.106	47.47
593.444	47.6
593.781	47.65
594.119	47.84
594.456	47.95
594.793	47.99
595.131	48.02
595.468	48.09
595.805	48.23
596.143	48.33
596.48	48.43
596.817	48.46
597.154	48.54
597.491	48.59
597.828	48.7
598.165	48.84
598.502	48.95
598.839	49
599.176	49.16
599.512	49.27
599.849	49.34
600.186	49.52
600.523	49.54
600.859	49.67
601.196	49.71
601.532	49.78
601.869	49.83
602.205	49.93
602.542	50.03
602.878	50.11
603.215	50.13
603.551	50.22
603.887	50.31
604.223	50.37
604.56	50.43
604.896	50.52
605.232	50.54
605.568	50.64
605.904	50.68
606.24	50.77
606.576	50.87
606.912	50.98
607.248	50.97
607.583	51.1
607.919	51.16
608.255	51.19
608.591	51.29
608.926	51.47
609.262	51.63
609.597	51.69
609.933	51.65
610.268	51.84
610.604	51.83
610.939	51.88
611.275	51.95
611.61	52.04
611.945	52.09
612.281	52.15
612.616	52.11
612.951	52.18
613.286	52.21
613.621	52.31
613.956	52.4
614.291	52.54
614.626	52.61
614.961	52.68
615.296	52.81
615.631	52.86
615.966	52.86
616.3	52.88
616.635	52.85
616.97	52.95
617.304	53.01
617.639	53.13
617.973	53.15
618.308	53.14
618.642	53.21
618.977	53.25
619.311	53.29
619.646	53.39
619.98	53.46
620.314	53.43
620.648	53.4
620.983	53.39
621.317	53.4
621.651	53.43
621.985	53.51
622.319	53.52
622.653	53.59
622.987	53.71
623.321	53.71
623.655	53.78
623.988	53.81
624.322	53.86
624.656	53.9
624.99	53.98
625.323	54.07
625.657	54.09
625.99	54.05
626.324	54.09
626.657	54.14
626.991	54.12
627.324	54.21
627.658	54.2
627.991	54.24
628.324	54.23
628.657	54.35
628.991	54.47
629.324	54.49
629.657	54.52
629.99	54.53
630.323	54.54
630.656	54.61
630.989	54.64
631.322	54.61
631.655	54.58
631.987	54.6
632.32	54.59
632.653	54.7
632.986	54.71
633.318	54.76
633.651	54.74
633.984	54.85
634.316	54.83
634.649	54.92
634.981	54.93
635.313	55.03
635.646	54.95
635.978	54.88
636.31	54.81
636.643	54.81
636.975	54.74
637.307	54.79
637.639	54.81
637.971	54.8
638.303	54.78
638.635	54.81
638.967	54.9
639.299	54.87
639.631	54.79
639.963	54.9
640.295	54.99
640.626	54.97
640.958	55
641.29	55.1
641.621	55.06
641.953	55.09
642.285	55.13
642.616	55.19
642.948	55.18
643.279	55.28
643.61	55.37
643.942	55.46
644.273	55.4
644.604	55.44
644.936	55.52
645.267	55.67
645.598	55.71
645.929	55.65
646.26	55.71
646.591	55.71
646.922	55.73
647.253	55.66
647.584	55.71
647.915	55.69
648.245	55.71
648.576	55.7
648.907	55.71
649.238	55.73
649.568	55.66
649.899	55.77
650.229	55.87
650.56	55.76
650.89	55.78
651.221	55.92
651.551	55.87
651.882	55.92
652.212	55.83
652.542	55.86
652.872	55.9
653.203	55.93
653.533	56.01
653.863	56.03
654.193	56.12
654.523	56.09
654.853	56.1
655.183	56.07
655.513	56.12
655.843	56.23
656.172	56.29
656.502	56.39
656.832	56.39
657.162	56.36
657.491	56.4
657.821	56.32
658.15	56.34
658.48	56.5
658.809	56.53
659.139	56.67
659.468	56.76
659.798	56.75
660.127	56.74
660.456	56.74
660.785	56.8
661.115	56.75
661.444	56.9
661.773	56.96
662.102	56.99
662.431	57.14
662.76	57.07
663.089	57.08
663.418	57.01
663.747	56.99
664.076	57
664.404	56.99
664.733	57.07
665.062	57.09
665.39	57.01
665.719	57.02
666.048	56.97
666.376	56.95
666.705	57.07
667.033	57.05
667.362	57.09
667.69	57.01
668.018	57.06
668.347	56.96
668.675	57
669.003	57.06
669.331	56.98
669.659	56.96
669.987	56.88
