Data from BU26846_Reflection_00002.txt Node
Date: Mon Nov 18 16:33:20 EST 2019
User: vgr7
Spectrometer: USB2G7710
Scans to average: 3
Trigger mode: 4
Integration Time (sec): 2.000000E-2
Electric dark correction enabled: true
Boxcar width: 10
XAxis mode: Wavelengths
Number of Pixels in Spectrum: 2048
>>>>>Begin Spectral Data<<<<<
177.721	100.77
178.105	-201.89
178.488	1970.23
178.871	-142.04
179.254	-9.63
179.636	-199.66
180.019	-14.45
180.402	100
180.785	210.08
181.168	140.64
181.55	89.28
181.933	68.17
182.316	52.18
182.698	24.86
183.081	-0.23
183.463	-19.65
183.846	-39.59
184.228	-31.89
184.611	96.72
184.993	560.67
185.376	-693.81
185.758	508.45
186.14	61.68
186.522	18.39
186.904	29.54
187.287	32.14
187.669	-7.84
188.051	37.85
188.433	15.37
188.815	-17.68
189.197	-13.91
189.579	-9.03
189.961	62.67
190.342	216.15
190.724	-186.57
191.106	779.39
191.488	162.17
191.869	72.21
192.251	58.81
192.633	48.91
193.014	38.64
193.396	35.32
193.777	30.21
194.159	28.51
194.54	7.22
194.922	6.8
195.303	36.25
195.684	56.87
196.065	85.19
196.447	132.11
196.828	220.32
197.209	239.68
197.59	256.14
197.971	171.7
198.352	170.74
198.733	148.3
199.114	184.9
199.495	308.28
199.876	-1221.61
200.257	-709.98
200.638	-316.77
201.018	-361.44
201.399	-216.18
201.78	-97.96
202.16	-133.54
202.541	-118.24
202.922	-150.08
203.302	-140.3
203.683	-168.1
204.063	-198.28
204.444	-141.85
204.824	-137.07
205.204	-143.64
205.585	-158.1
205.965	-117.5
206.345	-106.51
206.725	-119.82
207.106	-153.92
207.486	-167.2
207.866	-173.6
208.246	-218.22
208.626	-210.61
209.006	-128.09
209.386	-146.69
209.766	-186.2
210.145	-141.17
210.525	-97.52
210.905	-5.6
211.285	0.38
211.664	30.92
212.044	2.21
212.424	-2.42
212.803	-22.99
213.183	15.1
213.562	-14.35
213.942	25.03
214.321	-16.28
214.701	-19.67
215.08	-64.96
215.459	-67.97
215.838	-22.65
216.218	-38.51
216.597	-47.58
216.976	-29.27
217.355	-5.12
217.734	-36.94
218.113	5.8
218.492	-21.18
218.871	-1818.92
219.25	-55.05
219.629	-83.1
220.008	22.16
220.387	-1008.11
220.766	-20.88
221.144	-1752.46
221.523	503.73
221.902	281.06
222.28	932.17
222.659	-86.81
223.037	-53.52
223.416	-75.65
223.794	-89.97
224.173	-48.7
224.551	-40.36
224.929	-37.38
225.308	-33.67
225.686	-23.01
226.064	-16.79
226.442	-19.36
226.821	-15.5
227.199	-10.6
227.577	-15.4
227.955	-15.31
228.333	-11.99
228.711	-9.16
229.089	-0.45
229.467	-1.6
229.845	-2.5
230.222	2.26
230.6	-1.3
230.978	3.03
231.356	5.62
231.733	4.9
232.111	3.88
232.488	9.27
232.866	9.75
233.243	10.7
233.621	7.49
233.998	7.95
234.376	9.24
234.753	10.76
235.13	9.7
235.508	10.96
235.885	12.07
236.262	10.13
236.639	9.12
237.016	6.87
237.393	7.62
237.77	7.95
238.147	6.77
238.524	7.51
238.901	7.3
239.278	6.34
239.655	6.77
240.032	6.68
240.409	4.85
240.785	4.97
241.162	4.68
241.539	5.27
241.915	4.9
242.292	4.6
242.668	4.17
243.045	4.28
243.421	4.38
243.798	4.1
244.174	4.27
244.551	4.24
244.927	4.18
245.303	4.01
245.679	3.99
246.056	3.81
246.432	3.63
246.808	3.52
247.184	3.3
247.56	3.13
247.936	2.98
248.312	3
248.688	2.79
249.064	2.8
249.44	2.65
249.815	2.61
250.191	2.86
250.567	2.76
250.943	2.58
251.318	2.62
251.694	2.69
252.069	2.77
252.445	2.66
252.82	2.77
253.196	2.76
253.571	2.63
253.947	2.44
254.322	2.6
254.697	2.78
255.073	2.82
255.448	2.6
255.823	2.72
256.198	2.66
256.573	2.74
256.948	2.89
257.323	3.07
257.698	3.14
258.073	2.98
258.448	3.07
258.823	3.14
259.198	2.95
259.573	2.9
259.948	2.85
260.322	2.98
260.697	2.85
261.072	2.82
261.446	2.95
261.821	3.24
262.195	3.19
262.57	2.95
262.944	2.99
263.319	3.07
263.693	3.07
264.067	3.08
264.442	3.04
264.816	2.98
265.19	2.99
265.564	3
265.938	3.06
266.313	2.93
266.687	2.91
267.061	3.19
267.435	3.36
267.809	3.37
268.183	3.22
268.556	3.41
268.93	3.48
269.304	3.46
269.678	3.37
270.051	3.26
270.425	3.45
270.799	3.62
271.172	3.71
271.546	3.63
271.919	3.71
272.293	3.78
272.666	3.9
273.04	3.89
273.413	3.82
273.787	3.75
274.16	3.77
274.533	3.75
274.906	3.58
275.279	3.58
275.653	3.58
276.026	3.65
276.399	3.49
276.772	3.48
277.145	3.39
277.518	3.44
277.891	3.7
278.263	3.59
278.636	3.31
279.009	3.22
279.382	3.33
279.755	3.38
280.127	3.51
280.5	3.41
280.872	3.46
281.245	3.4
281.617	3.49
281.99	3.74
282.362	3.67
282.735	3.7
283.107	3.55
283.479	3.53
283.852	3.52
284.224	3.55
284.596	3.6
284.968	3.62
285.34	3.59
285.713	3.53
286.085	3.63
286.457	3.74
286.829	3.77
287.201	3.73
287.572	3.59
287.944	3.44
288.316	3.51
288.688	3.42
289.06	3.46
289.431	3.49
289.803	3.36
290.175	3.48
290.546	3.59
290.918	3.65
291.289	3.73
291.661	3.81
292.032	3.97
292.403	3.97
292.775	4.08
293.146	4.03
293.517	3.98
293.889	3.97
294.26	4.02
294.631	4.03
295.002	4.05
295.373	4.14
295.744	4.24
296.115	4.22
296.486	4.16
296.857	4.27
297.228	4.23
297.599	4.27
297.97	4.28
298.34	4.27
298.711	4.32
299.082	4.27
299.452	4.39
299.823	4.4
300.194	4.3
300.564	4.22
300.935	4.33
301.305	4.41
301.676	4.4
302.046	4.38
302.416	4.41
302.787	4.4
303.157	4.31
303.527	4.21
303.897	4.17
304.267	4.42
304.637	4.51
305.008	4.54
305.378	4.5
305.748	4.57
306.117	4.43
306.487	4.45
306.857	4.58
307.227	4.35
307.597	4.22
307.967	4.26
308.336	4.3
308.706	4.28
309.076	4.28
309.445	4.28
309.815	4.33
310.184	4.29
310.554	4.29
310.923	4.4
311.293	4.5
311.662	4.49
312.031	4.35
312.401	4.28
312.77	4.34
313.139	4.45
313.508	4.38
313.877	4.48
314.246	4.57
314.616	4.44
314.985	4.51
315.353	4.52
315.722	4.63
316.091	4.55
316.46	4.51
316.829	4.45
317.198	4.37
317.567	4.23
317.935	4.26
318.304	4.17
318.672	4.13
319.041	4.16
319.41	4.18
319.778	4.2
320.147	4.18
320.515	4.18
320.883	4
321.252	4
321.62	3.82
321.988	3.72
322.357	3.71
322.725	3.58
323.093	3.62
323.461	3.66
323.829	3.85
324.197	3.95
324.565	3.97
324.933	4.1
325.301	4.36
325.669	4.42
326.037	4.57
326.405	4.68
326.772	4.62
327.14	4.75
327.508	4.8
327.875	4.72
328.243	4.64
328.61	4.73
328.978	4.73
329.346	4.85
329.713	4.89
330.08	5.01
330.448	5
330.815	4.96
331.182	4.97
331.55	4.78
331.917	4.75
332.284	4.89
332.651	4.86
333.018	4.7
333.385	4.56
333.752	4.54
334.119	4.49
334.486	4.49
334.853	4.32
335.22	4.26
335.587	4.32
335.954	4.41
336.32	4.39
336.687	4.39
337.054	4.37
337.42	4.38
337.787	4.41
338.153	4.54
338.52	4.6
338.886	4.47
339.253	4.55
339.619	4.54
339.986	4.52
340.352	4.48
340.718	4.47
341.084	4.52
341.451	4.6
341.817	4.6
342.183	4.59
342.549	4.68
342.915	4.73
343.281	4.72
343.647	4.68
344.013	4.68
344.379	4.62
344.745	4.65
345.11	4.67
345.476	4.48
345.842	4.48
346.208	4.41
346.573	4.47
346.939	4.49
347.304	4.45
347.67	4.25
348.035	4.3
348.401	4.26
348.766	4.26
349.132	4.21
349.497	4.25
349.862	4.31
350.228	4.29
350.593	4.18
350.958	4.13
351.323	4.22
351.688	4.22
352.053	4.25
352.418	4.23
352.783	4.24
353.148	4.34
353.513	4.36
353.878	4.47
354.243	4.43
354.608	4.44
354.972	4.51
355.337	4.63
355.702	4.65
356.066	4.75
356.431	4.76
356.795	4.81
357.16	4.77
357.524	4.66
357.889	4.61
358.253	4.69
358.618	4.79
358.982	4.66
359.346	4.61
359.71	4.62
360.075	4.6
360.439	4.56
360.803	4.55
361.167	4.51
361.531	4.42
361.895	4.4
362.259	4.39
362.623	4.32
362.987	4.33
363.351	4.32
363.714	4.32
364.078	4.23
364.442	4.11
364.806	4.1
365.169	4.15
365.533	4.18
365.896	4.17
366.26	4.1
366.623	4.13
366.987	4.14
367.35	4.14
367.714	4.22
368.077	4.26
368.44	4.25
368.803	4.29
369.167	4.27
369.53	4.23
369.893	4.23
370.256	4.26
370.619	4.22
370.982	4.2
371.345	4.13
371.708	4.2
372.071	4.21
372.434	4.2
372.797	4.22
373.159	4.21
373.522	4.21
373.885	4.27
374.247	4.33
374.61	4.4
374.973	4.37
375.335	4.31
375.698	4.28
376.06	4.3
376.423	4.3
376.785	4.34
377.147	4.4
377.51	4.4
377.872	4.46
378.234	4.5
378.596	4.49
378.958	4.53
379.321	4.57
379.683	4.62
380.045	4.62
380.407	4.61
380.769	4.61
381.13	4.64
381.492	4.61
381.854	4.59
382.216	4.57
382.578	4.57
382.939	4.59
383.301	4.57
383.663	4.56
384.024	4.55
384.386	4.57
384.747	4.58
385.109	4.56
385.47	4.54
385.832	4.52
386.193	4.55
386.554	4.54
386.916	4.51
387.277	4.49
387.638	4.51
387.999	4.56
388.36	4.57
388.721	4.54
389.082	4.58
389.443	4.54
389.804	4.54
390.165	4.55
390.526	4.57
390.887	4.56
391.248	4.56
391.609	4.56
391.969	4.57
392.33	4.58
392.691	4.59
393.051	4.61
393.412	4.62
393.772	4.58
394.133	4.6
394.493	4.62
394.854	4.61
395.214	4.61
395.574	4.63
395.935	4.65
396.295	4.7
396.655	4.65
397.015	4.67
397.376	4.65
397.736	4.68
398.096	4.67
398.456	4.67
398.816	4.72
399.176	4.71
399.535	4.69
399.895	4.67
400.255	4.69
400.615	4.67
400.975	4.67
401.334	4.7
401.694	4.69
402.054	4.67
402.413	4.67
402.773	4.68
403.132	4.63
403.492	4.6
403.851	4.6
404.211	4.62
404.57	4.62
404.929	4.67
405.288	4.62
405.648	4.61
406.007	4.64
406.366	4.6
406.725	4.61
407.084	4.64
407.443	4.63
407.802	4.64
408.161	4.61
408.52	4.58
408.879	4.56
409.238	4.57
409.596	4.58
409.955	4.61
410.314	4.6
410.673	4.6
411.031	4.64
411.39	4.6
411.748	4.63
412.107	4.62
412.465	4.62
412.824	4.66
413.182	4.68
413.54	4.68
413.899	4.71
414.257	4.74
414.615	4.72
414.974	4.75
415.332	4.76
415.69	4.78
416.048	4.78
416.406	4.8
416.764	4.78
417.122	4.79
417.48	4.74
417.838	4.76
418.195	4.79
418.553	4.79
418.911	4.81
419.269	4.81
419.626	4.83
419.984	4.81
420.342	4.81
420.699	4.79
421.057	4.79
421.414	4.78
421.772	4.77
422.129	4.78
422.486	4.77
422.844	4.77
423.201	4.77
423.558	4.8
423.915	4.81
424.273	4.83
424.63	4.82
424.987	4.85
425.344	4.85
425.701	4.84
426.058	4.84
426.415	4.83
426.772	4.82
427.128	4.81
427.485	4.82
427.842	4.82
428.199	4.85
428.555	4.85
428.912	4.86
429.269	4.87
429.625	4.85
429.982	4.85
430.338	4.87
430.695	4.86
431.051	4.85
431.407	4.84
431.764	4.83
432.12	4.84
432.476	4.82
432.832	4.8
433.189	4.79
433.545	4.8
433.901	4.8
434.257	4.78
434.613	4.78
434.969	4.77
435.325	4.78
435.681	4.75
436.036	4.76
436.392	4.78
436.748	4.78
437.104	4.78
437.459	4.8
437.815	4.8
438.171	4.82
438.526	4.81
438.882	4.81
439.237	4.82
439.593	4.83
439.948	4.83
440.304	4.84
440.659	4.85
441.014	4.85
441.369	4.83
441.725	4.83
442.08	4.84
442.435	4.83
442.79	4.84
443.145	4.86
443.5	4.84
443.855	4.83
444.21	4.83
444.565	4.84
444.92	4.83
445.275	4.83
445.629	4.83
445.984	4.82
446.339	4.83
446.693	4.81
447.048	4.79
447.403	4.8
447.757	4.79
448.112	4.8
448.466	4.8
448.82	4.82
449.175	4.82
449.529	4.82
449.883	4.84
450.238	4.84
450.592	4.84
450.946	4.85
451.3	4.85
451.654	4.86
452.008	4.88
452.362	4.86
452.716	4.85
453.07	4.86
453.424	4.89
453.778	4.87
454.132	4.9
454.486	4.91
454.839	4.9
455.193	4.9
455.547	4.88
455.9	4.89
456.254	4.88
456.607	4.88
456.961	4.87
457.314	4.87
457.668	4.88
458.021	4.87
458.375	4.87
458.728	4.88
459.081	4.88
459.434	4.87
459.787	4.9
460.141	4.91
460.494	4.91
460.847	4.91
461.2	4.92
461.553	4.92
461.906	4.92
462.259	4.95
462.611	4.96
462.964	4.98
463.317	4.96
463.67	4.98
464.022	4.99
464.375	5
464.728	5
465.08	4.99
465.433	5
465.785	5.01
466.138	5
466.49	4.99
466.843	5
467.195	4.99
467.547	4.98
467.899	4.99
468.252	4.98
468.604	4.99
468.956	4.99
469.308	4.98
469.66	4.95
470.012	4.96
470.364	4.95
470.716	4.95
471.068	4.94
471.42	4.95
471.772	4.94
472.123	4.95
472.475	4.95
472.827	4.93
473.178	4.94
473.53	4.94
473.882	4.94
474.233	4.91
474.585	4.9
474.936	4.91
475.288	4.9
475.639	4.89
475.99	4.89
476.342	4.9
476.693	4.92
477.044	4.94
477.395	4.94
477.746	4.96
478.097	4.96
478.448	4.95
478.8	4.95
479.15	4.93
479.501	4.94
479.852	4.95
480.203	4.97
480.554	4.99
480.905	5
481.255	5.04
481.606	5.08
481.957	5.08
482.307	5.09
482.658	5.09
483.009	5.1
483.359	5.11
483.709	5.11
484.06	5.11
484.41	5.11
484.761	5.11
485.111	5.11
485.461	5.12
485.811	5.13
486.162	5.14
486.512	5.16
486.862	5.15
487.212	5.16
487.562	5.16
487.912	5.15
488.262	5.16
488.612	5.15
488.961	5.13
489.311	5.13
489.661	5.13
490.011	5.13
490.36	5.13
490.71	5.13
491.06	5.12
491.409	5.12
491.759	5.11
492.108	5.12
492.458	5.12
492.807	5.12
493.157	5.13
493.506	5.13
493.855	5.13
494.204	5.12
494.554	5.12
494.903	5.11
495.252	5.1
495.601	5.11
495.95	5.1
496.299	5.11
496.648	5.1
496.997	5.09
497.346	5.09
497.695	5.1
498.043	5.11
498.392	5.11
498.741	5.12
499.09	5.13
499.438	5.13
499.787	5.15
500.135	5.16
500.484	5.16
500.832	5.16
501.181	5.16
501.529	5.16
501.878	5.2
502.226	5.24
502.574	5.24
502.923	5.22
503.271	5.21
503.619	5.22
503.967	5.24
504.315	5.24
504.663	5.24
505.011	5.24
505.359	5.24
505.707	5.26
506.055	5.27
506.403	5.29
506.751	5.28
507.098	5.27
507.446	5.27
507.794	5.27
508.141	5.27
508.489	5.28
508.837	5.29
509.184	5.29
509.531	5.28
509.879	5.3
510.226	5.31
510.574	5.33
510.921	5.34
511.268	5.34
511.616	5.35
511.963	5.35
512.31	5.34
512.657	5.36
513.004	5.37
513.351	5.36
513.698	5.37
514.045	5.37
514.392	5.38
514.739	5.36
515.086	5.36
515.432	5.38
515.779	5.38
516.126	5.39
516.473	5.4
516.819	5.41
517.166	5.42
517.512	5.42
517.859	5.44
518.205	5.44
518.552	5.44
518.898	5.44
519.245	5.45
519.591	5.47
519.937	5.44
520.283	5.45
520.629	5.45
520.976	5.45
521.322	5.47
521.668	5.46
522.014	5.48
522.36	5.49
522.706	5.49
523.052	5.5
523.398	5.5
523.743	5.48
524.089	5.49
524.435	5.49
524.781	5.5
525.126	5.5
525.472	5.51
525.817	5.51
526.163	5.52
526.509	5.52
526.854	5.51
527.199	5.52
527.545	5.53
527.89	5.54
528.235	5.54
528.581	5.54
528.926	5.54
529.271	5.54
529.616	5.53
529.961	5.53
530.306	5.54
530.651	5.53
530.996	5.55
531.341	5.55
531.686	5.56
532.031	5.54
532.376	5.56
532.721	5.55
533.065	5.55
533.41	5.55
533.755	5.55
534.099	5.56
534.444	5.56
534.788	5.56
535.133	5.55
535.477	5.54
535.822	5.55
536.166	5.55
536.51	5.56
536.855	5.57
537.199	5.58
537.543	5.58
537.887	5.61
538.231	5.59
538.576	5.57
538.92	5.57
539.264	5.58
539.608	5.58
539.951	5.58
540.295	5.58
540.639	5.6
540.983	5.61
541.327	5.61
541.671	5.61
542.014	5.6
542.358	5.62
542.701	5.64
543.045	5.64
543.389	5.66
543.732	5.67
544.075	5.67
544.419	5.67
544.762	5.67
545.105	5.67
545.449	5.68
545.792	5.7
546.135	5.7
546.478	5.72
546.821	5.72
547.165	5.71
547.508	5.72
547.851	5.7
548.194	5.68
548.536	5.69
548.879	5.7
549.222	5.69
549.565	5.7
549.908	5.67
550.25	5.67
550.593	5.67
550.936	5.67
551.278	5.68
551.621	5.71
551.963	5.71
552.306	5.69
552.648	5.7
552.991	5.71
553.333	5.7
553.675	5.69
554.017	5.72
554.36	5.76
554.702	5.78
555.044	5.76
555.386	5.79
555.728	5.8
556.07	5.82
556.412	5.83
556.754	5.82
557.096	5.83
557.438	5.86
557.78	5.86
558.121	5.86
558.463	5.87
558.805	5.86
559.147	5.86
559.488	5.89
559.83	5.91
560.171	5.91
560.513	5.93
560.854	5.93
561.196	5.94
561.537	5.95
561.878	5.92
562.22	5.97
562.561	5.97
562.902	5.97
563.243	5.97
563.584	6
563.925	6.02
564.266	6.01
564.607	5.99
564.948	5.99
565.289	5.98
565.63	5.99
565.971	5.96
566.312	5.97
566.653	5.98
566.993	5.96
567.334	5.93
567.675	5.93
568.015	5.92
568.356	5.92
568.696	5.91
569.037	5.94
569.377	5.92
569.718	5.93
570.058	5.94
570.398	5.9
570.739	5.91
571.079	5.91
571.419	5.92
571.759	5.93
572.099	5.92
572.439	5.92
572.779	5.9
573.119	5.94
573.459	5.95
573.799	5.93
574.139	5.94
574.479	5.96
574.819	5.93
575.158	5.94
575.498	5.91
575.838	5.93
576.177	5.91
576.517	5.91
576.856	5.91
577.196	5.89
577.535	5.92
577.875	5.92
578.214	5.88
578.553	5.93
578.893	5.92
579.232	5.95
579.571	5.98
579.91	6
580.25	5.99
580.589	5.98
580.928	6.02
581.267	6.02
581.606	6.02
581.945	6.06
582.283	6.07
582.622	6.08
582.961	6.09
583.3	6.11
583.639	6.15
583.977	6.18
584.316	6.2
584.654	6.21
584.993	6.18
585.332	6.21
585.67	6.17
586.008	6.17
586.347	6.16
586.685	6.12
587.024	6.13
587.362	6.14
587.7	6.14
588.038	6.11
588.376	6.13
588.715	6.15
589.053	6.16
589.391	6.17
589.729	6.2
590.067	6.18
590.404	6.16
590.742	6.17
591.08	6.13
591.418	6.16
591.756	6.2
592.093	6.23
592.431	6.25
592.769	6.27
593.106	6.3
593.444	6.25
593.781	6.29
594.119	6.31
594.456	6.26
594.793	6.26
595.131	6.27
595.468	6.29
595.805	6.28
596.143	6.28
596.48	6.27
596.817	6.26
597.154	6.29
597.491	6.31
597.828	6.28
598.165	6.29
598.502	6.28
598.839	6.22
599.176	6.23
599.512	6.25
599.849	6.25
600.186	6.25
600.523	6.34
600.859	6.32
601.196	6.28
601.532	6.32
601.869	6.34
602.205	6.32
602.542	6.29
602.878	6.35
603.215	6.34
603.551	6.38
603.887	6.41
604.223	6.39
604.56	6.39
604.896	6.38
605.232	6.38
605.568	6.4
605.904	6.41
606.24	6.45
606.576	6.46
606.912	6.49
607.248	6.5
607.583	6.47
607.919	6.52
608.255	6.57
608.591	6.6
608.926	6.61
609.262	6.67
609.597	6.7
609.933	6.68
610.268	6.71
610.604	6.7
610.939	6.7
611.275	6.7
611.61	6.7
611.945	6.79
612.281	6.76
612.616	6.74
612.951	6.75
613.286	6.71
613.621	6.71
613.956	6.66
614.291	6.66
614.626	6.67
614.961	6.6
615.296	6.58
615.631	6.58
615.966	6.58
616.3	6.52
616.635	6.52
616.97	6.53
617.304	6.49
617.639	6.52
617.973	6.49
618.308	6.54
618.642	6.56
618.977	6.55
619.311	6.6
619.646	6.66
619.98	6.65
620.314	6.66
620.648	6.62
620.983	6.65
621.317	6.64
621.651	6.68
621.985	6.69
622.319	6.7
622.653	6.69
622.987	6.74
623.321	6.76
623.655	6.78
623.988	6.82
624.322	6.79
624.656	6.8
624.99	6.85
625.323	6.86
625.657	6.86
625.99	6.85
626.324	6.86
626.657	6.82
626.991	6.84
627.324	6.84
627.658	6.86
627.991	6.87
628.324	6.88
628.657	6.85
628.991	6.91
629.324	6.92
629.657	6.89
629.99	6.84
630.323	6.92
630.656	6.95
630.989	6.93
631.322	6.97
631.655	6.94
631.987	6.98
632.32	6.94
632.653	6.96
632.986	6.95
633.318	6.95
633.651	6.97
633.984	7.02
634.316	7
634.649	7
634.981	6.99
635.313	6.98
635.646	6.97
635.978	6.99
636.31	6.96
636.643	6.92
636.975	6.9
637.307	6.8
637.639	6.81
637.971	6.8
638.303	6.81
638.635	6.79
638.967	6.77
639.299	6.79
639.631	6.72
639.963	6.72
640.295	6.75
640.626	6.78
640.958	6.8
641.29	6.82
641.621	6.82
641.953	6.79
642.285	6.83
642.616	6.94
642.948	6.87
643.279	6.95
643.61	7.07
643.942	7.1
644.273	7.13
644.604	7.09
644.936	7.05
645.267	7.08
645.598	7.16
645.929	7.13
646.26	7.12
646.591	7.16
646.922	7.14
647.253	7.15
647.584	7.11
647.915	7.04
648.245	7.07
648.576	7.13
648.907	7.18
649.238	7.18
649.568	7.1
649.899	7.13
650.229	7.13
650.56	7.05
650.89	7.06
651.221	7.1
651.551	7.1
651.882	7.13
652.212	7.16
652.542	7.13
652.872	7.05
653.203	7.05
653.533	7.09
653.863	7.15
654.193	7.16
654.523	7.21
654.853	7.24
655.183	7.23
655.513	7.16
655.843	7.17
656.172	7.16
656.502	7.16
656.832	7.11
657.162	7.14
657.491	7.22
657.821	7.26
658.15	7.3
658.48	7.27
658.809	7.29
659.139	7.28
659.468	7.26
659.798	7.32
660.127	7.31
660.456	7.36
660.785	7.37
661.115	7.37
661.444	7.36
661.773	7.34
662.102	7.35
662.431	7.42
662.76	7.41
663.089	7.39
663.418	7.4
663.747	7.48
664.076	7.5
664.404	7.54
664.733	7.57
665.062	7.51
665.39	7.51
665.719	7.51
666.048	7.43
666.376	7.44
666.705	7.48
667.033	7.53
667.362	7.55
667.69	7.59
668.018	7.6
668.347	7.55
668.675	7.62
669.003	7.64
669.331	7.65
669.659	7.68
669.987	7.66
670.315	7.63
670.643	7.6
670.971	7.56
671.299	7.55
671.627	7.54
671.955	7.61
672.283	7.62
672.61	7.6
672.938	7.65
673.266	7.68
673.593	7.77
673.921	7.79
674.249	7.8
674.576	7.7
674.904	7.75
675.231	7.77
675.558	7.79
675.886	7.8
676.213	7.68
676.54	7.78
676.867	7.89
677.195	7.94
677.522	7.87
677.849	7.89
678.176	7.86
