Data from BU26932_Reflection_00008.txt Node
Date: Tue Nov 19 10:44:32 EST 2019
User: vgr7
Spectrometer: USB2G7710
Scans to average: 3
Trigger mode: 4
Integration Time (sec): 2.000000E-2
Electric dark correction enabled: true
Boxcar width: 10
XAxis mode: Wavelengths
Number of Pixels in Spectrum: 2048
>>>>>Begin Spectral Data<<<<<
177.721	82.06
178.105	140.11
178.488	128.13
178.871	254.84
179.254	-800
179.636	-990.91
180.019	642.94
180.402	-114.29
180.785	72.73
181.168	26.83
181.55	10.14
181.933	-465.57
182.316	-114.29
182.698	-50.32
183.081	-105.54
183.463	-131.37
183.846	-130.91
184.228	-140.67
184.611	-105.05
184.993	-49.57
185.376	-32.2
185.758	-28.86
186.14	-23.98
186.522	-20.84
186.904	-29.56
187.287	-37.08
187.669	-27.26
188.051	-19.71
188.433	-33.65
188.815	-35.39
189.197	-41.72
189.579	-37.05
189.961	-35.7
190.342	-27.92
190.724	-35.07
191.106	-14.63
191.488	4.32
191.869	13.32
192.251	22.02
192.633	35.72
193.014	29.27
193.396	19.19
193.777	33.09
194.159	42.96
194.54	40.17
194.922	31.56
195.303	32.48
195.684	25.74
196.065	25.55
196.447	35.55
196.828	48.68
197.209	67.1
197.59	70.87
197.971	53.55
198.352	50.87
198.733	53.07
199.114	42.18
199.495	41.56
199.876	47.2
200.257	34.52
200.638	29.11
201.018	31.15
201.399	51.23
201.78	38.53
202.16	41.64
202.541	37.79
202.922	64.31
203.302	48.72
203.683	50.7
204.063	33.43
204.444	47.49
204.824	39.33
205.204	23.77
205.585	22.97
205.965	24.36
206.345	26.43
206.725	38.15
207.106	34.35
207.486	23.23
207.866	6.41
208.246	6.77
208.626	-2.74
209.006	-7.19
209.386	-12.17
209.766	-17.92
210.145	-8.08
210.525	-15.29
210.905	-11.78
211.285	-7.64
211.664	5.11
212.044	15.79
212.424	6.55
212.803	-1.42
213.183	1.55
213.562	6.21
213.942	5.43
214.321	3.39
214.701	-15.57
215.08	-15.03
215.459	-9.3
215.838	-3.32
216.218	-2
216.597	7.05
216.976	10.88
217.355	6.22
217.734	8.33
218.113	3.63
218.492	6.72
218.871	5.69
219.25	4.73
219.629	3.51
220.008	0.11
220.387	-6.34
220.766	-4.45
221.144	0.98
221.523	-4.67
221.902	-1.24
222.28	2.74
222.659	21.85
223.037	27.79
223.416	24.72
223.794	30.27
224.173	28.54
224.551	25.17
224.929	22.32
225.308	21.47
225.686	13.8
226.064	10.39
226.442	12.08
226.821	13.68
227.199	12.46
227.577	13.19
227.955	14.64
228.333	13.18
228.711	13.94
229.089	10.37
229.467	8.56
229.845	6.24
230.222	6.71
230.6	2.98
230.978	4.18
231.356	5.13
231.733	7.61
232.111	7.78
232.488	7.93
232.866	7.07
233.243	9.24
233.621	10.75
233.998	11.31
234.376	11.93
234.753	10.29
235.13	9.74
235.508	8.09
235.885	7.8
236.262	7.68
236.639	7.67
237.016	8.31
237.393	10.58
237.77	11.5
238.147	9.98
238.524	9.61
238.901	7.88
239.278	7.25
239.655	5.92
240.032	6.17
240.409	5.86
240.785	5.46
241.162	5.06
241.539	4.92
241.915	4.94
242.292	4.53
242.668	4.65
243.045	5.23
243.421	5.48
243.798	5.9
244.174	6.15
244.551	6.1
244.927	6.09
245.303	5.75
245.679	5.57
246.056	5.63
246.432	5.51
246.808	5.79
247.184	5.77
247.56	5.73
247.936	5.84
248.312	6.13
248.688	6.54
249.064	6.43
249.44	6.46
249.815	6.46
250.191	6.45
250.567	6.4
250.943	6.36
251.318	6.26
251.694	6.02
252.069	5.85
252.445	5.99
252.82	6.19
253.196	6.06
253.571	6.11
253.947	6.23
254.322	6.25
254.697	6.04
255.073	6
255.448	5.95
255.823	5.63
256.198	5.3
256.573	5.3
256.948	5.59
257.323	5.59
257.698	5.54
258.073	5.64
258.448	5.7
258.823	5.6
259.198	5.61
259.573	5.47
259.948	5.51
260.322	5.43
260.697	5.52
261.072	5.54
261.446	5.53
261.821	5.35
262.195	5.43
262.57	5.51
262.944	5.59
263.319	5.69
263.693	5.7
264.067	5.64
264.442	5.5
264.816	5.21
265.19	5.08
265.564	5.08
265.938	5.07
266.313	4.8
266.687	4.56
267.061	4.57
267.435	4.67
267.809	4.76
268.183	4.67
268.556	4.45
268.93	4.48
269.304	4.55
269.678	4.6
270.051	4.6
270.425	4.39
270.799	4.41
271.172	4.48
271.546	4.58
271.919	4.7
272.293	4.67
272.666	4.78
273.04	5.02
273.413	5.08
273.787	5.03
274.16	5.23
274.533	5.41
274.906	5.46
275.279	5.43
275.653	5.39
276.026	5.4
276.399	5.25
276.772	5.26
277.145	5.16
277.518	5.25
277.891	5.23
278.263	5.45
278.636	5.53
279.009	5.45
279.382	5.45
279.755	5.43
280.127	5.38
280.5	5.35
280.872	5.3
281.245	5.26
281.617	5.22
281.99	5.27
282.362	5.27
282.735	5.19
283.107	5.1
283.479	5.17
283.852	5.09
284.224	5.34
284.596	5.31
284.968	5.42
285.34	5.37
285.713	5.37
286.085	5.21
286.457	5.24
286.829	5.22
287.201	5.25
287.572	5.25
287.944	5.42
288.316	5.45
288.688	5.46
289.06	5.5
289.431	5.64
289.803	5.66
290.175	5.6
290.546	5.67
290.918	5.84
291.289	5.83
291.661	5.95
292.032	5.9
292.403	5.9
292.775	5.93
293.146	5.95
293.517	5.96
293.889	6.19
294.26	6.14
294.631	6.33
295.002	6.52
295.373	6.59
295.744	6.54
296.115	6.59
296.486	6.63
296.857	6.68
297.228	6.65
297.599	6.66
297.97	6.83
298.34	6.83
298.711	6.96
299.082	7.06
299.452	7.17
299.823	7.22
300.194	7.41
300.564	7.48
300.935	7.64
301.305	7.75
301.676	7.75
302.046	7.99
302.416	7.92
302.787	7.89
303.157	7.97
303.527	8.13
303.897	8.21
304.267	8.36
304.637	8.47
305.008	8.6
305.378	8.75
305.748	8.88
306.117	9.1
306.487	9.27
306.857	9.42
307.227	9.63
307.597	9.66
307.967	9.79
308.336	9.8
308.706	9.9
309.076	10.02
309.445	10.18
309.815	10.22
310.184	10.32
310.554	10.35
310.923	10.4
311.293	10.44
311.662	10.64
312.031	10.76
312.401	10.8
312.77	10.95
313.139	11.02
313.508	11.05
313.877	11.17
314.246	11.12
314.616	11.18
314.985	11.25
315.353	11.45
315.722	11.47
316.091	11.73
316.46	11.84
316.829	11.89
317.198	11.9
317.567	12
317.935	12.2
318.304	12.56
318.672	12.79
319.041	12.96
319.41	13
319.778	12.95
320.147	13.15
320.515	13.3
320.883	13.4
321.252	13.48
321.62	13.25
321.988	13.32
322.357	13.41
322.725	13.34
323.093	13.36
323.461	13.55
323.829	13.58
324.197	13.65
324.565	13.68
324.933	13.74
325.301	13.55
325.669	13.55
326.037	13.36
326.405	13.36
326.772	13.5
327.14	13.54
327.508	13.77
327.875	13.75
328.243	13.8
328.61	13.91
328.978	14.13
329.346	14.35
329.713	14.55
330.08	14.65
330.448	14.72
330.815	14.89
331.182	14.85
331.55	14.86
331.917	14.87
332.284	15.04
332.651	14.94
333.018	15.18
333.385	15.45
333.752	15.64
334.119	15.72
334.486	15.74
334.853	15.71
335.22	15.59
335.587	15.62
335.954	15.35
336.32	15.3
336.687	15.23
337.054	15.31
337.42	15.3
337.787	15.3
338.153	15.37
338.52	15.45
338.886	15.55
339.253	15.5
339.619	15.5
339.986	15.47
340.352	15.64
340.718	15.73
341.084	15.66
341.451	15.57
341.817	15.58
342.183	15.5
342.549	15.67
342.915	15.67
343.281	15.6
343.647	15.79
344.013	15.89
344.379	15.81
344.745	15.87
345.11	15.9
345.476	15.88
345.842	15.99
346.208	15.93
346.573	15.87
346.939	15.96
347.304	16
347.67	16.08
348.035	16.15
348.401	16.12
348.766	16.16
349.132	16.24
349.497	16.32
349.862	16.35
350.228	16.13
350.593	16.14
350.958	16.35
351.323	16.29
351.688	16.26
352.053	16.32
352.418	16.33
352.783	16.22
353.148	16.19
353.513	16.05
353.878	16.02
354.243	15.94
354.608	16.02
354.972	15.97
355.337	15.95
355.702	16
356.066	16.02
356.431	15.89
356.795	15.91
357.16	15.78
357.524	15.83
357.889	15.96
358.253	16.05
358.618	15.97
358.982	15.99
359.346	15.95
359.71	15.91
360.075	15.85
360.439	15.85
360.803	15.82
361.167	15.87
361.531	15.82
361.895	15.81
362.259	15.79
362.623	15.78
362.987	15.69
363.351	15.51
363.714	15.4
364.078	15.4
364.442	15.37
364.806	15.38
365.169	15.35
365.533	15.31
365.896	15.18
366.26	15.03
366.623	15.01
366.987	14.96
367.35	14.94
367.714	14.87
368.077	14.83
368.44	14.84
368.803	14.79
369.167	14.75
369.53	14.71
369.893	14.58
370.256	14.51
370.619	14.41
370.982	14.41
371.345	14.32
371.708	14.23
372.071	14.06
372.434	14.05
372.797	13.92
373.159	13.82
373.522	13.75
373.885	13.7
374.247	13.56
374.61	13.5
374.973	13.41
375.335	13.31
375.698	13.21
376.06	13.01
376.423	12.9
376.785	12.85
377.147	12.73
377.51	12.61
377.872	12.54
378.234	12.46
378.596	12.37
378.958	12.26
379.321	12.19
379.683	12.09
380.045	11.91
380.407	11.83
380.769	11.73
381.13	11.62
381.492	11.53
381.854	11.46
382.216	11.35
382.578	11.24
382.939	11.22
383.301	11.09
383.663	11.04
384.024	10.94
384.386	10.81
384.747	10.77
385.109	10.74
385.47	10.7
385.832	10.67
386.193	10.58
386.554	10.51
386.916	10.43
387.277	10.37
387.638	10.35
387.999	10.27
388.36	10.16
388.721	10.13
389.082	10.12
389.443	10.1
389.804	10.04
390.165	9.99
390.526	9.88
390.887	9.82
391.248	9.75
391.609	9.69
391.969	9.68
392.33	9.62
392.691	9.54
393.051	9.44
393.412	9.38
393.772	9.37
394.133	9.33
394.493	9.29
394.854	9.24
395.214	9.14
395.574	9.1
395.935	9.06
396.295	8.99
396.655	8.88
397.015	8.77
397.376	8.69
397.736	8.63
398.096	8.58
398.456	8.55
398.816	8.49
399.176	8.38
399.535	8.31
399.895	8.24
400.255	8.19
400.615	8.14
400.975	8.08
401.334	8.01
401.694	7.94
402.054	7.9
402.413	7.83
402.773	7.76
403.132	7.69
403.492	7.65
403.851	7.6
404.211	7.58
404.57	7.57
404.929	7.53
405.288	7.49
405.648	7.42
406.007	7.38
406.366	7.37
406.725	7.36
407.084	7.29
407.443	7.28
407.802	7.24
408.161	7.23
408.52	7.19
408.879	7.14
409.238	7.13
409.596	7.1
409.955	7.07
410.314	7.09
410.673	7.08
411.031	7.03
411.39	7.02
411.748	6.99
412.107	6.95
412.465	6.94
412.824	6.89
413.182	6.9
413.54	6.88
413.899	6.83
414.257	6.82
414.615	6.83
414.974	6.79
415.332	6.77
415.69	6.73
416.048	6.7
416.406	6.64
416.764	6.62
417.122	6.58
417.48	6.56
417.838	6.53
418.195	6.52
418.553	6.5
418.911	6.46
419.269	6.43
419.626	6.4
419.984	6.36
420.342	6.34
420.699	6.3
421.057	6.27
421.414	6.24
421.772	6.23
422.129	6.18
422.486	6.13
422.844	6.09
423.201	6.07
423.558	6.05
423.915	6.06
424.273	6.04
424.63	6.02
424.987	6
425.344	5.98
425.701	5.94
426.058	5.92
426.415	5.9
426.772	5.87
427.128	5.85
427.485	5.83
427.842	5.8
428.199	5.77
428.555	5.76
428.912	5.73
429.269	5.68
429.625	5.7
429.982	5.7
430.338	5.72
430.695	5.71
431.051	5.7
431.407	5.68
431.764	5.66
432.12	5.68
432.476	5.68
432.832	5.65
433.189	5.65
433.545	5.65
433.901	5.65
434.257	5.64
434.613	5.63
434.969	5.63
435.325	5.64
435.681	5.64
436.036	5.64
436.392	5.66
436.748	5.66
437.104	5.66
437.459	5.67
437.815	5.66
438.171	5.66
438.526	5.67
438.882	5.67
439.237	5.66
439.593	5.63
439.948	5.63
440.304	5.63
440.659	5.64
441.014	5.64
441.369	5.64
441.725	5.64
442.08	5.65
442.435	5.66
442.79	5.65
443.145	5.63
443.5	5.61
443.855	5.6
444.21	5.59
444.565	5.56
444.92	5.54
445.275	5.53
445.629	5.51
445.984	5.48
446.339	5.48
446.693	5.46
447.048	5.44
447.403	5.41
447.757	5.4
448.112	5.39
448.466	5.37
448.82	5.33
449.175	5.32
449.529	5.31
449.883	5.29
450.238	5.26
450.592	5.24
450.946	5.24
451.3	5.22
451.654	5.2
452.008	5.2
452.362	5.18
452.716	5.16
453.07	5.15
453.424	5.13
453.778	5.1
454.132	5.08
454.486	5.11
454.839	5.11
455.193	5.11
455.547	5.12
455.9	5.13
456.254	5.14
456.607	5.14
456.961	5.13
457.314	5.13
457.668	5.14
458.021	5.16
458.375	5.16
458.728	5.17
459.081	5.19
459.434	5.2
459.787	5.24
460.141	5.26
460.494	5.29
460.847	5.31
461.2	5.33
461.553	5.36
461.906	5.38
462.259	5.41
462.611	5.42
462.964	5.45
463.317	5.46
463.67	5.47
464.022	5.51
464.375	5.54
464.728	5.57
465.08	5.62
465.433	5.64
465.785	5.68
466.138	5.7
466.49	5.76
466.843	5.78
467.195	5.8
467.547	5.8
467.899	5.81
468.252	5.84
468.604	5.88
468.956	5.91
469.308	5.92
469.66	5.93
470.012	5.96
470.364	5.97
470.716	6
471.068	6.07
471.42	6.07
471.772	6.1
472.123	6.1
472.475	6.09
472.827	6.14
473.178	6.16
473.53	6.18
473.882	6.16
474.233	6.17
474.585	6.16
474.936	6.17
475.288	6.17
475.639	6.15
475.99	6.12
476.342	6.12
476.693	6.1
477.044	6.1
477.395	6.08
477.746	6.04
478.097	6.02
478.448	5.98
478.8	5.94
479.15	5.93
479.501	5.89
479.852	5.89
480.203	5.86
480.554	5.84
480.905	5.81
481.255	5.79
481.606	5.79
481.957	5.78
482.307	5.77
482.658	5.76
483.009	5.75
483.359	5.76
483.709	5.75
484.06	5.74
484.41	5.74
484.761	5.74
485.111	5.75
485.461	5.75
485.811	5.74
486.162	5.75
486.512	5.75
486.862	5.77
487.212	5.77
487.562	5.77
487.912	5.77
488.262	5.78
488.612	5.79
488.961	5.79
489.311	5.8
489.661	5.82
490.011	5.83
490.36	5.84
490.71	5.85
491.06	5.86
491.409	5.88
491.759	5.91
492.108	5.91
492.458	5.94
492.807	5.96
493.157	5.99
493.506	6.02
493.855	6.05
494.204	6.08
494.554	6.11
494.903	6.16
495.252	6.22
495.601	6.29
495.95	6.37
496.299	6.46
496.648	6.53
496.997	6.61
497.346	6.7
497.695	6.81
498.043	6.9
498.392	7
498.741	7.12
499.09	7.22
499.438	7.36
499.787	7.47
500.135	7.61
500.484	7.76
500.832	7.9
501.181	8.05
501.529	8.23
501.878	8.41
502.226	8.58
502.574	8.78
502.923	8.97
503.271	9.16
503.619	9.34
503.967	9.53
504.315	9.75
504.663	9.96
505.011	10.19
505.359	10.4
505.707	10.64
506.055	10.88
506.403	11.12
506.751	11.37
507.098	11.61
507.446	11.88
507.794	12.13
508.141	12.4
508.489	12.69
508.837	12.96
509.184	13.23
509.531	13.51
509.879	13.77
510.226	14.03
510.574	14.33
510.921	14.63
511.268	14.95
511.616	15.25
511.963	15.56
512.31	15.86
512.657	16.22
513.004	16.54
513.351	16.86
513.698	17.24
514.045	17.63
514.392	18.02
514.739	18.4
515.086	18.78
515.432	19.15
515.779	19.51
516.126	19.89
516.473	20.25
516.819	20.61
517.166	20.92
517.512	21.28
517.859	21.58
518.205	21.88
518.552	22.16
518.898	22.46
519.245	22.78
519.591	23.05
519.937	23.35
520.283	23.67
520.629	23.96
520.976	24.28
521.322	24.59
521.668	24.94
522.014	25.25
522.36	25.57
522.706	25.9
523.052	26.25
523.398	26.61
523.743	27.02
524.089	27.42
524.435	27.82
524.781	28.14
525.126	28.47
525.472	28.74
525.817	29.04
526.163	29.28
526.509	29.5
526.854	29.75
527.199	29.95
527.545	30.14
527.89	30.36
528.235	30.54
528.581	30.73
528.926	30.91
529.271	31.14
529.616	31.35
529.961	31.56
530.306	31.78
530.651	31.97
530.996	32.18
531.341	32.36
531.686	32.56
532.031	32.77
532.376	32.98
532.721	33.23
533.065	33.46
533.41	33.7
533.755	33.96
534.099	34.2
534.444	34.46
534.788	34.71
535.133	34.91
535.477	35.19
535.822	35.44
536.166	35.71
536.51	35.95
536.855	36.2
537.199	36.48
537.543	36.75
537.887	37.06
538.231	37.3
538.576	37.61
538.92	37.86
539.264	38.14
539.608	38.35
539.951	38.57
540.295	38.77
540.639	38.95
540.983	39.09
541.327	39.28
541.671	39.41
542.014	39.58
542.358	39.78
542.701	39.93
543.045	40.09
543.389	40.23
543.732	40.41
544.075	40.56
544.419	40.75
544.762	40.91
545.105	41.04
545.449	41.24
545.792	41.37
546.135	41.6
546.478	41.78
546.821	42
547.165	42.2
547.508	42.38
547.851	42.54
548.194	42.78
548.536	42.94
548.879	43.18
549.222	43.37
549.565	43.5
549.908	43.65
550.25	43.82
550.593	44.04
550.936	44.18
551.278	44.36
551.621	44.48
551.963	44.67
552.306	44.89
552.648	45.03
552.991	45.2
553.333	45.34
553.675	45.43
554.017	45.52
554.36	45.61
554.702	45.73
555.044	45.91
555.386	46.02
555.728	46.11
556.07	46.21
556.412	46.32
556.754	46.45
557.096	46.59
557.438	46.77
557.78	46.92
558.121	47.08
558.463	47.24
558.805	47.37
559.147	47.43
559.488	47.51
559.83	47.63
560.171	47.74
560.513	47.8
560.854	47.93
561.196	48.09
561.537	48.23
561.878	48.37
562.22	48.46
562.561	48.55
562.902	48.64
563.243	48.74
563.584	48.86
563.925	48.96
564.266	49.06
564.607	49.11
564.948	49.13
565.289	49.18
565.63	49.27
565.971	49.35
566.312	49.44
566.653	49.47
566.993	49.55
567.334	49.65
567.675	49.76
568.015	49.85
568.356	49.9
568.696	50.01
569.037	50.03
569.377	50.09
569.718	50.23
570.058	50.36
570.398	50.37
570.739	50.45
571.079	50.5
571.419	50.54
571.759	50.55
572.099	50.6
572.439	50.64
572.779	50.67
573.119	50.73
573.459	50.79
573.799	50.85
574.139	50.94
574.479	50.94
574.819	51.02
575.158	51.04
575.498	51.06
575.838	51.11
576.177	51.19
576.517	51.25
576.856	51.27
577.196	51.32
577.535	51.49
577.875	51.51
578.214	51.62
578.553	51.72
578.893	51.83
579.232	51.92
579.571	52.03
579.91	52.06
580.25	52.11
580.589	52.12
580.928	52.26
581.267	52.34
581.606	52.41
581.945	52.48
582.283	52.63
582.622	52.7
582.961	52.7
583.3	52.76
583.639	52.83
583.977	52.83
584.316	52.86
584.654	52.85
584.993	52.91
585.332	52.97
585.67	52.95
586.008	52.99
586.347	53.01
586.685	53.01
587.024	53.11
587.362	53.14
587.7	53.25
588.038	53.26
588.376	53.31
588.715	53.36
589.053	53.35
589.391	53.33
589.729	53.28
590.067	53.28
590.404	53.29
590.742	53.33
591.08	53.37
591.418	53.36
591.756	53.4
592.093	53.38
592.431	53.36
592.769	53.43
593.106	53.43
593.444	53.48
593.781	53.55
594.119	53.61
594.456	53.63
594.793	53.62
595.131	53.58
595.468	53.59
595.805	53.57
596.143	53.62
596.48	53.67
596.817	53.84
597.154	53.93
597.491	54.01
597.828	54
598.165	54.08
598.502	54.16
598.839	54.13
599.176	54.21
599.512	54.29
599.849	54.32
600.186	54.38
600.523	54.41
600.859	54.44
601.196	54.4
601.532	54.5
601.869	54.54
602.205	54.61
602.542	54.59
602.878	54.66
603.215	54.66
603.551	54.61
603.887	54.57
604.223	54.59
604.56	54.59
604.896	54.67
605.232	54.66
605.568	54.67
605.904	54.7
606.24	54.66
606.576	54.65
606.912	54.61
607.248	54.65
607.583	54.66
607.919	54.68
608.255	54.68
608.591	54.62
608.926	54.6
609.262	54.61
609.597	54.65
609.933	54.62
610.268	54.69
610.604	54.73
610.939	54.79
611.275	54.82
611.61	54.81
611.945	54.75
612.281	54.8
612.616	54.82
612.951	54.87
613.286	54.92
613.621	54.96
613.956	55.11
614.291	55.09
614.626	55.12
614.961	55.14
615.296	55.22
615.631	55.32
615.966	55.42
616.3	55.52
616.635	55.43
616.97	55.52
617.304	55.47
617.639	55.49
617.973	55.51
618.308	55.44
618.642	55.47
618.977	55.51
619.311	55.52
619.646	55.46
619.98	55.48
620.314	55.53
620.648	55.52
620.983	55.5
621.317	55.57
621.651	55.55
621.985	55.56
622.319	55.56
622.653	55.52
622.987	55.5
623.321	55.46
623.655	55.54
623.988	55.53
624.322	55.55
624.656	55.62
624.99	55.59
625.323	55.65
625.657	55.66
625.99	55.65
626.324	55.65
626.657	55.72
626.991	55.73
627.324	55.71
627.658	55.75
627.991	55.77
628.324	55.74
628.657	55.75
628.991	55.79
629.324	55.83
629.657	55.78
629.99	55.88
630.323	55.91
630.656	55.97
630.989	55.91
631.322	55.9
631.655	55.94
631.987	56.03
632.32	56.06
632.653	56.08
632.986	56.16
633.318	56.27
633.651	56.29
633.984	56.29
634.316	56.3
634.649	56.28
634.981	56.25
635.313	56.35
635.646	56.46
635.978	56.42
636.31	56.41
636.643	56.56
636.975	56.53
637.307	56.45
637.639	56.48
637.971	56.49
638.303	56.44
638.635	56.45
638.967	56.45
639.299	56.47
639.631	56.48
639.963	56.46
640.295	56.34
640.626	56.4
640.958	56.44
641.29	56.47
641.621	56.48
641.953	56.56
642.285	56.5
642.616	56.49
642.948	56.51
643.279	56.54
643.61	56.54
643.942	56.49
644.273	56.61
644.604	56.68
644.936	56.72
645.267	56.85
645.598	56.86
645.929	56.8
646.26	56.84
646.591	57
646.922	57.03
647.253	57.09
647.584	56.98
647.915	57.03
648.245	57.08
648.576	57.16
648.907	57.11
649.238	57.12
649.568	57.11
649.899	57.17
650.229	57.11
650.56	56.94
650.89	56.99
651.221	57.1
651.551	57.06
651.882	57.14
652.212	57.04
652.542	56.91
652.872	56.91
653.203	56.83
653.533	56.74
653.863	56.74
654.193	56.76
654.523	56.84
654.853	56.89
655.183	56.93
655.513	56.88
655.843	56.93
656.172	57.01
656.502	56.99
656.832	57.03
657.162	57.16
657.491	57.27
657.821	57.18
658.15	57.07
658.48	57.05
658.809	57.02
659.139	57.14
659.468	57.21
659.798	57.3
660.127	57.4
660.456	57.4
660.785	57.41
661.115	57.47
661.444	57.54
661.773	57.46
662.102	57.42
662.431	57.42
662.76	57.48
663.089	57.32
663.418	57.36
