Data from BU26851_Reflection_00010.txt Node
Date: Mon Nov 18 16:48:24 EST 2019
User: vgr7
Spectrometer: USB2G7710
Scans to average: 3
Trigger mode: 4
Integration Time (sec): 2.000000E-2
Electric dark correction enabled: true
Boxcar width: 10
XAxis mode: Wavelengths
Number of Pixels in Spectrum: 2048
>>>>>Begin Spectral Data<<<<<
177.721	-274.03
178.105	883.78
178.488	-3748.1
178.871	476.03
179.254	-950.85
179.636	195.06
180.019	-1357.63
180.402	58.33
180.785	24.25
181.168	-10.07
181.55	337.76
181.933	155.61
182.316	116.08
182.698	60.29
183.081	2.36
183.463	-64.95
183.846	-219.49
184.228	-2351.61
184.611	1093.55
184.993	2201.69
185.376	215.01
185.758	303.9
186.14	669.04
186.522	556.59
186.904	-4318.6
187.287	1066.51
187.669	-1201.78
188.051	1183.74
188.433	-1644.36
188.815	-152.03
189.197	-215.33
189.579	-165.99
189.961	-176.95
190.342	-132.87
190.724	-165.89
191.106	-339.22
191.488	-1130.77
191.869	2365.49
192.251	-1055.71
192.633	23918.18
193.014	-2388.19
193.396	-323.75
193.777	-709.67
194.159	-828.81
194.54	-359.02
194.922	-3165.31
195.303	-570.85
195.684	-1281.22
196.065	-577.52
196.447	-852.08
196.828	-958.17
197.209	-1977.35
197.59	12237.93
197.971	1867.74
198.352	-1105.21
198.733	-686.18
199.114	-408.8
199.495	-313.24
199.876	-233.08
200.257	-200.5
200.638	-132.33
201.018	-125.53
201.399	-151.55
201.78	-131.48
202.16	-115.95
202.541	-190.8
202.922	-204.96
203.302	-256.78
203.683	-223.72
204.063	-315.24
204.444	-295.82
204.824	-408.01
205.204	-180.39
205.585	-147.78
205.965	-138.81
206.345	-254.8
206.725	-560.24
207.106	-1414.79
207.486	1508.87
207.866	1012.89
208.246	457.25
208.626	420.92
209.006	1480.65
209.386	1191.89
209.766	3458.49
210.145	424.58
210.525	883.22
210.905	-160.39
211.285	-2.65
211.664	4.24
212.044	-34.93
212.424	-46.87
212.803	-30.16
213.183	-14.2
213.562	-20.02
213.942	-13.93
214.321	-4.85
214.701	3.34
215.08	-5.2
215.459	25.7
215.838	19.37
216.218	17.95
216.597	31.36
216.976	6.31
217.355	-8.15
217.734	-4.14
218.113	10.8
218.492	18.37
218.871	9.42
219.25	10
219.629	9.37
220.008	16.2
220.387	12
220.766	6.48
221.144	-24.65
221.523	-35.56
221.902	-50.73
222.28	-76.92
222.659	-76.17
223.037	-47.64
223.416	-78.51
223.794	-61.72
224.173	-53.21
224.551	-45.38
224.929	-48.3
225.308	-36.96
225.686	-33.65
226.064	-32.88
226.442	-36.49
226.821	-28.51
227.199	-33.32
227.577	-35.21
227.955	-28.51
228.333	-25.64
228.711	-22.63
229.089	-14.01
229.467	-12.63
229.845	-13.04
230.222	-7.25
230.6	-7.95
230.978	-8.35
231.356	-0.89
231.733	-2.01
232.111	0.31
232.488	0.17
232.866	1.34
233.243	1.41
233.621	-1.07
233.998	-0.85
234.376	0.12
234.753	-0.48
235.13	1.87
235.508	1.75
235.885	-0.14
236.262	-0.99
236.639	-0.22
237.016	0.64
237.393	3.43
237.77	4.17
238.147	4.75
238.524	4.7
238.901	5.19
239.278	3.81
239.655	4.43
240.032	4.31
240.409	3.87
240.785	4.61
241.162	4.44
241.539	4.88
241.915	5.01
242.292	4.7
242.668	4.62
243.045	4.44
243.421	4.26
243.798	4.49
244.174	4.63
244.551	4.45
244.927	4.33
245.303	3.84
245.679	3.72
246.056	3.31
246.432	3.16
246.808	3.11
247.184	3.05
247.56	3.01
247.936	2.75
248.312	2.82
248.688	2.38
249.064	2.32
249.44	2.43
249.815	1.98
250.191	2.11
250.567	2.1
250.943	2
251.318	2.28
251.694	2.17
252.069	2.05
252.445	2.14
252.82	2.05
253.196	1.96
253.571	1.94
253.947	2.16
254.322	2.57
254.697	2.29
255.073	2.2
255.448	2.25
255.823	2.74
256.198	2.51
256.573	2.71
256.948	2.78
257.323	2.91
257.698	3.2
258.073	3.2
258.448	3.15
258.823	3.04
259.198	3.03
259.573	3.11
259.948	3.14
260.322	3.21
260.697	3.15
261.072	3.03
261.446	2.91
261.821	2.74
262.195	2.65
262.57	2.68
262.944	2.84
263.319	2.86
263.693	2.59
264.067	2.73
264.442	2.84
264.816	2.91
265.19	2.72
265.564	2.74
265.938	2.69
266.313	2.6
266.687	2.91
267.061	2.76
267.435	2.67
267.809	2.54
268.183	2.39
268.556	2.37
268.93	2.43
269.304	2.55
269.678	2.78
270.051	2.74
270.425	2.94
270.799	2.86
271.172	2.96
271.546	3.04
271.919	2.99
272.293	2.9
272.666	2.86
273.04	2.89
273.413	2.94
273.787	3.01
274.16	3.09
274.533	2.94
274.906	2.9
275.279	2.76
275.653	2.86
276.026	3.03
276.399	2.94
276.772	3.09
277.145	3.05
277.518	3.05
277.891	3.14
278.263	3.01
278.636	2.99
279.009	2.77
279.382	2.82
279.755	2.84
280.127	3.07
280.5	3.21
280.872	3.35
281.245	3.19
281.617	3.17
281.99	3.23
282.362	3.42
282.735	3.34
283.107	3.55
283.479	3.65
283.852	3.55
284.224	3.61
284.596	3.55
284.968	3.83
285.34	3.79
285.713	3.74
286.085	3.75
286.457	3.67
286.829	3.7
287.201	3.72
287.572	3.61
287.944	3.47
288.316	3.34
288.688	3.27
289.06	3.27
289.431	3.21
289.803	3.21
290.175	3.08
290.546	3.35
290.918	3.24
291.289	3.12
291.661	3.16
292.032	3.3
292.403	3.31
292.775	3.28
293.146	3.4
293.517	3.41
293.889	3.5
294.26	3.67
294.631	3.76
295.002	3.76
295.373	3.91
295.744	3.98
296.115	4.02
296.486	4
296.857	4.17
297.228	4.34
297.599	4.44
297.97	4.59
298.34	4.54
298.711	4.6
299.082	4.71
299.452	4.84
299.823	4.94
300.194	4.99
300.564	4.93
300.935	4.98
301.305	5.03
301.676	5.07
302.046	5.01
302.416	5.18
302.787	5.21
303.157	5.17
303.527	5.13
303.897	5.29
304.267	5.56
304.637	5.54
305.008	5.54
305.378	5.57
305.748	5.65
306.117	5.53
306.487	5.7
306.857	5.75
307.227	5.81
307.597	5.69
307.967	5.77
308.336	5.68
308.706	5.71
309.076	5.9
309.445	5.89
309.815	5.96
310.184	5.83
310.554	5.9
310.923	6
311.293	6.15
311.662	6.09
312.031	6.04
312.401	6.2
312.77	6.19
313.139	6.22
313.508	6.23
313.877	6.3
314.246	6.24
314.616	6.4
314.985	6.33
315.353	6.41
315.722	6.45
316.091	6.72
316.46	6.72
316.829	6.82
317.198	6.94
317.567	7.03
317.935	7.08
318.304	7.22
318.672	7.23
319.041	7.25
319.41	7.37
319.778	7.37
320.147	7.18
320.515	7.29
320.883	7.35
321.252	7.38
321.62	7.7
321.988	7.89
322.357	7.8
322.725	7.78
323.093	7.88
323.461	8.05
323.829	8.09
324.197	8.15
324.565	8.17
324.933	8.14
325.301	8.03
325.669	8.22
326.037	8.24
326.405	8.5
326.772	8.56
327.14	8.72
327.508	8.79
327.875	8.74
328.243	8.8
328.61	8.74
328.978	8.68
329.346	8.63
329.713	8.6
330.08	8.63
330.448	8.7
330.815	8.62
331.182	8.64
331.55	8.78
331.917	8.78
332.284	8.71
332.651	8.91
333.018	9.12
333.385	9.02
333.752	9.08
334.119	9.08
334.486	9.06
334.853	9.03
335.22	9.06
335.587	9.31
335.954	9.25
336.32	9.41
336.687	9.46
337.054	9.57
337.42	9.73
337.787	9.77
338.153	9.87
338.52	9.97
338.886	9.92
339.253	9.8
339.619	9.79
339.986	9.96
340.352	9.94
340.718	9.94
341.084	10.09
341.451	10.12
341.817	10.11
342.183	10.08
342.549	10.13
342.915	10.22
343.281	10.2
343.647	10.3
344.013	10.34
344.379	10.37
344.745	10.3
345.11	10.26
345.476	10.29
345.842	10.26
346.208	10.25
346.573	10.29
346.939	10.36
347.304	10.51
347.67	10.35
348.035	10.36
348.401	10.36
348.766	10.31
349.132	10.37
349.497	10.35
349.862	10.54
350.228	10.56
350.593	10.53
350.958	10.52
351.323	10.57
351.688	10.58
352.053	10.69
352.418	10.8
352.783	10.87
353.148	10.82
353.513	10.85
353.878	10.94
354.243	10.94
354.608	10.98
354.972	11
355.337	11.06
355.702	11.07
356.066	11.11
356.431	11.07
356.795	11.06
357.16	11.08
357.524	10.92
357.889	10.8
358.253	10.74
358.618	10.76
358.982	10.71
359.346	10.59
359.71	10.5
360.075	10.4
360.439	10.34
360.803	10.3
361.167	10.19
361.531	10.09
361.895	10.08
362.259	9.97
362.623	9.9
362.987	9.84
363.351	9.77
363.714	9.73
364.078	9.74
364.442	9.65
364.806	9.59
365.169	9.6
365.533	9.6
365.896	9.55
366.26	9.46
366.623	9.35
366.987	9.37
367.35	9.33
367.714	9.31
368.077	9.22
368.44	9.22
368.803	9.25
369.167	9.18
369.53	9.03
369.893	8.98
370.256	8.89
370.619	8.85
370.982	8.73
371.345	8.66
371.708	8.57
372.071	8.47
372.434	8.32
372.797	8.26
373.159	8.21
373.522	8.15
373.885	8.13
374.247	8.14
374.61	8.06
374.973	7.94
375.335	7.85
375.698	7.81
376.06	7.78
376.423	7.61
376.785	7.65
377.147	7.65
377.51	7.62
377.872	7.61
378.234	7.53
378.596	7.51
378.958	7.4
379.321	7.39
379.683	7.42
380.045	7.4
380.407	7.32
380.769	7.2
381.13	7.17
381.492	7.09
381.854	6.93
382.216	6.84
382.578	6.83
382.939	6.79
383.301	6.73
383.663	6.62
384.024	6.64
384.386	6.57
384.747	6.54
385.109	6.52
385.47	6.41
385.832	6.43
386.193	6.38
386.554	6.34
386.916	6.25
387.277	6.17
387.638	6.11
387.999	6.05
388.36	6.03
388.721	5.95
389.082	5.92
389.443	5.92
389.804	5.85
390.165	5.78
390.526	5.75
390.887	5.7
391.248	5.7
391.609	5.64
391.969	5.59
392.33	5.54
392.691	5.51
393.051	5.46
393.412	5.39
393.772	5.34
394.133	5.3
394.493	5.25
394.854	5.19
395.214	5.14
395.574	5.13
395.935	5.11
396.295	5.1
396.655	5.01
397.015	4.97
397.376	4.95
397.736	4.92
398.096	4.85
398.456	4.79
398.816	4.73
399.176	4.7
399.535	4.62
399.895	4.56
400.255	4.49
400.615	4.45
400.975	4.43
401.334	4.39
401.694	4.36
402.054	4.34
402.413	4.32
402.773	4.28
403.132	4.24
403.492	4.19
403.851	4.18
404.211	4.2
404.57	4.15
404.929	4.12
405.288	4.09
405.648	4.06
406.007	4.02
406.366	4.02
406.725	4.03
407.084	4.04
407.443	4.02
407.802	4.04
408.161	4.01
408.52	3.95
408.879	3.93
409.238	3.92
409.596	3.93
409.955	3.94
410.314	3.99
410.673	3.98
411.031	3.96
411.39	3.91
411.748	3.88
412.107	3.88
412.465	3.9
412.824	3.93
413.182	3.89
413.54	3.88
413.899	3.82
414.257	3.79
414.615	3.76
414.974	3.75
415.332	3.71
415.69	3.69
416.048	3.68
416.406	3.66
416.764	3.63
417.122	3.6
417.48	3.56
417.838	3.53
418.195	3.5
418.553	3.48
418.911	3.47
419.269	3.45
419.626	3.44
419.984	3.39
420.342	3.36
420.699	3.35
421.057	3.34
421.414	3.33
421.772	3.31
422.129	3.29
422.486	3.27
422.844	3.25
423.201	3.25
423.558	3.25
423.915	3.25
424.273	3.25
424.63	3.23
424.987	3.2
425.344	3.18
425.701	3.16
426.058	3.16
426.415	3.16
426.772	3.16
427.128	3.15
427.485	3.15
427.842	3.13
428.199	3.14
428.555	3.12
428.912	3.13
429.269	3.13
429.625	3.11
429.982	3.11
430.338	3.1
430.695	3.1
431.051	3.08
431.407	3.11
431.764	3.09
432.12	3.08
432.476	3.11
432.832	3.1
433.189	3.1
433.545	3.09
433.901	3.08
434.257	3.06
434.613	3.07
434.969	3.07
435.325	3.09
435.681	3.1
436.036	3.11
436.392	3.11
436.748	3.1
437.104	3.1
437.459	3.11
437.815	3.1
438.171	3.09
438.526	3.11
438.882	3.08
439.237	3.07
439.593	3.07
439.948	3.05
440.304	3.05
440.659	3.06
441.014	3.05
441.369	3.03
441.725	3.02
442.08	3.01
442.435	3.01
442.79	2.98
443.145	2.96
443.5	2.95
443.855	2.94
444.21	2.93
444.565	2.95
444.92	2.94
445.275	2.94
445.629	2.95
445.984	2.92
446.339	2.92
446.693	2.91
447.048	2.91
447.403	2.9
447.757	2.88
448.112	2.88
448.466	2.88
448.82	2.89
449.175	2.89
449.529	2.87
449.883	2.86
450.238	2.86
450.592	2.88
450.946	2.86
451.3	2.85
451.654	2.85
452.008	2.83
452.362	2.82
452.716	2.8
453.07	2.78
453.424	2.79
453.778	2.78
454.132	2.78
454.486	2.76
454.839	2.76
455.193	2.76
455.547	2.75
455.9	2.75
456.254	2.74
456.607	2.74
456.961	2.77
457.314	2.78
457.668	2.78
458.021	2.74
458.375	2.76
458.728	2.76
459.081	2.77
459.434	2.78
459.787	2.8
460.141	2.81
460.494	2.8
460.847	2.81
461.2	2.8
461.553	2.8
461.906	2.81
462.259	2.81
462.611	2.82
462.964	2.83
463.317	2.82
463.67	2.84
464.022	2.84
464.375	2.84
464.728	2.86
465.08	2.87
465.433	2.91
465.785	2.9
466.138	2.9
466.49	2.9
466.843	2.88
467.195	2.91
467.547	2.92
467.899	2.93
468.252	2.94
468.604	2.96
468.956	2.94
469.308	2.96
469.66	2.96
470.012	2.97
470.364	2.99
470.716	3.01
471.068	3.02
471.42	3.02
471.772	3.04
472.123	3.03
472.475	3.04
472.827	3.07
473.178	3.1
473.53	3.11
473.882	3.12
474.233	3.14
474.585	3.11
474.936	3.09
475.288	3.11
475.639	3.08
475.99	3.11
476.342	3.14
476.693	3.15
477.044	3.16
477.395	3.16
477.746	3.14
478.097	3.13
478.448	3.11
478.8	3.1
479.15	3.07
479.501	3.07
479.852	3.06
480.203	3.04
480.554	3.04
480.905	3.02
481.255	3.01
481.606	3.02
481.957	3.02
482.307	3.03
482.658	3.02
483.009	3.03
483.359	3.01
483.709	3.01
484.06	3.01
484.41	3.01
484.761	3.02
485.111	3.03
485.461	3.03
485.811	3.04
486.162	3.04
486.512	3.05
486.862	3.06
487.212	3.06
487.562	3.07
487.912	3.07
488.262	3.08
488.612	3.07
488.961	3.07
489.311	3.08
489.661	3.09
490.011	3.09
490.36	3.1
490.71	3.1
491.06	3.12
491.409	3.12
491.759	3.12
492.108	3.12
492.458	3.11
492.807	3.11
493.157	3.12
493.506	3.14
493.855	3.14
494.204	3.15
494.554	3.16
494.903	3.16
495.252	3.18
495.601	3.19
495.95	3.22
496.299	3.24
496.648	3.26
496.997	3.26
497.346	3.3
497.695	3.34
498.043	3.38
498.392	3.4
498.741	3.44
499.09	3.47
499.438	3.53
499.787	3.56
500.135	3.6
500.484	3.62
500.832	3.66
501.181	3.71
501.529	3.74
501.878	3.8
502.226	3.84
502.574	3.89
502.923	3.93
503.271	3.99
503.619	4.08
503.967	4.12
504.315	4.19
504.663	4.25
505.011	4.3
505.359	4.36
505.707	4.44
506.055	4.51
506.403	4.57
506.751	4.63
507.098	4.7
507.446	4.81
507.794	4.88
508.141	4.95
508.489	5.03
508.837	5.12
509.184	5.19
509.531	5.28
509.879	5.38
510.226	5.49
510.574	5.56
510.921	5.63
511.268	5.73
511.616	5.84
511.963	5.93
512.31	6.03
512.657	6.14
513.004	6.26
513.351	6.36
513.698	6.47
514.045	6.57
514.392	6.7
514.739	6.8
515.086	6.94
515.432	7.06
515.779	7.17
516.126	7.3
516.473	7.43
516.819	7.54
517.166	7.65
517.512	7.78
517.859	7.91
518.205	8
518.552	8.1
518.898	8.2
519.245	8.3
519.591	8.42
519.937	8.5
520.283	8.61
520.629	8.74
520.976	8.88
521.322	9.06
521.668	9.22
522.014	9.38
522.36	9.54
522.706	9.71
523.052	9.91
523.398	10.11
523.743	10.33
524.089	10.54
524.435	10.75
524.781	10.94
525.126	11.11
525.472	11.28
525.817	11.44
526.163	11.58
526.509	11.72
526.854	11.86
527.199	12.01
527.545	12.12
527.89	12.24
528.235	12.37
528.581	12.49
528.926	12.62
529.271	12.74
529.616	12.86
529.961	12.99
530.306	13.12
530.651	13.26
530.996	13.41
531.341	13.55
531.686	13.7
532.031	13.86
532.376	14.03
532.721	14.22
533.065	14.38
533.41	14.58
533.755	14.78
534.099	14.99
534.444	15.17
534.788	15.41
535.133	15.59
535.477	15.79
535.822	16.01
536.166	16.24
536.51	16.48
536.855	16.75
537.199	17.01
537.543	17.3
537.887	17.57
538.231	17.83
538.576	18.14
538.92	18.44
539.264	18.71
539.608	18.96
539.951	19.2
540.295	19.45
540.639	19.69
540.983	19.9
541.327	20.12
541.671	20.33
542.014	20.53
542.358	20.78
542.701	21.03
543.045	21.24
543.389	21.47
543.732	21.7
544.075	21.95
544.419	22.22
544.762	22.49
545.105	22.78
545.449	23.05
545.792	23.34
546.135	23.63
546.478	23.94
546.821	24.27
547.165	24.61
547.508	24.96
547.851	25.33
548.194	25.71
548.536	26.08
548.879	26.45
549.222	26.84
549.565	27.2
549.908	27.54
550.25	27.9
550.593	28.31
550.936	28.69
551.278	29.04
551.621	29.41
551.963	29.74
552.306	30.08
552.648	30.48
552.991	30.81
553.333	31.13
553.675	31.53
554.017	31.88
554.36	32.21
554.702	32.53
555.044	32.84
555.386	33.12
555.728	33.39
556.07	33.71
556.412	33.98
556.754	34.33
557.096	34.69
557.438	35.03
557.78	35.35
558.121	35.68
558.463	36.04
558.805	36.37
559.147	36.73
559.488	37.05
559.83	37.31
560.171	37.67
560.513	38.04
560.854	38.31
561.196	38.61
561.537	38.91
561.878	39.27
562.22	39.61
562.561	39.93
562.902	40.27
563.243	40.58
563.584	40.82
563.925	41.07
564.266	41.33
564.607	41.62
564.948	41.88
565.289	42.17
565.63	42.44
565.971	42.63
566.312	42.88
566.653	43.13
566.993	43.4
567.334	43.64
567.675	43.84
568.015	44.09
568.356	44.31
568.696	44.55
569.037	44.78
569.377	44.94
569.718	45.19
570.058	45.47
570.398	45.69
570.739	46.04
571.079	46.3
571.419	46.5
571.759	46.77
572.099	46.99
572.439	47.14
572.779	47.3
573.119	47.54
573.459	47.72
573.799	47.94
574.139	48.12
574.479	48.26
574.819	48.46
575.158	48.61
575.498	48.79
575.838	49
576.177	49.16
576.517	49.35
576.856	49.54
577.196	49.65
577.535	49.83
577.875	49.98
578.214	50.12
578.553	50.31
578.893	50.44
579.232	50.65
579.571	50.89
579.91	51.08
580.25	51.31
580.589	51.43
580.928	51.59
581.267	51.84
581.606	52.01
581.945	52.16
582.283	52.3
582.622	52.49
582.961	52.67
583.3	52.75
583.639	52.99
583.977	53.07
584.316	53.21
584.654	53.36
584.993	53.44
585.332	53.58
585.67	53.7
586.008	53.85
586.347	53.9
586.685	54
587.024	54.09
587.362	54.19
587.7	54.34
588.038	54.42
588.376	54.47
588.715	54.6
589.053	54.73
589.391	54.91
589.729	55.03
590.067	55.06
590.404	55.25
590.742	55.26
591.08	55.42
591.418	55.53
591.756	55.61
592.093	55.66
592.431	55.76
592.769	55.9
593.106	55.9
593.444	56.04
593.781	56.11
594.119	56.19
594.456	56.26
594.793	56.38
595.131	56.43
595.468	56.51
595.805	56.53
596.143	56.59
596.48	56.6
596.817	56.65
597.154	56.71
597.491	56.79
597.828	56.89
598.165	56.92
598.502	57.09
598.839	57.16
599.176	57.29
599.512	57.33
599.849	57.38
600.186	57.43
600.523	57.53
600.859	57.65
601.196	57.83
601.532	57.79
601.869	57.85
602.205	57.9
602.542	57.89
602.878	57.96
603.215	57.97
603.551	58.06
603.887	58.11
604.223	58.2
604.56	58.18
604.896	58.18
605.232	58.21
605.568	58.14
605.904	58.19
606.24	58.24
606.576	58.33
606.912	58.4
607.248	58.55
607.583	58.55
607.919	58.61
608.255	58.53
608.591	58.63
608.926	58.66
609.262	58.84
609.597	58.92
609.933	59.03
610.268	59.11
610.604	59.16
610.939	59.25
611.275	59.36
611.61	59.41
611.945	59.43
612.281	59.54
612.616	59.66
612.951	59.75
613.286	59.81
613.621	59.86
613.956	59.91
614.291	59.84
614.626	59.93
614.961	59.9
615.296	59.96
615.631	60.08
615.966	60.18
616.3	60.13
616.635	60.24
616.97	60.24
617.304	60.33
617.639	60.33
617.973	60.28
618.308	60.27
618.642	60.35
618.977	60.43
619.311	60.42
619.646	60.44
619.98	60.42
620.314	60.47
620.648	60.42
620.983	60.43
621.317	60.6
621.651	60.61
621.985	60.76
622.319	60.95
622.653	60.87
622.987	60.89
623.321	60.98
623.655	60.97
623.988	60.96
624.322	60.87
624.656	60.88
624.99	60.88
625.323	60.88
625.657	60.84
625.99	60.89
626.324	60.94
626.657	60.96
626.991	61.05
627.324	61
627.658	61.04
627.991	61.05
628.324	60.96
628.657	61
628.991	61
629.324	60.93
629.657	61.08
629.99	60.96
630.323	60.89
630.656	60.89
630.989	60.99
631.322	61.07
631.655	61.17
631.987	61.2
632.32	61.21
632.653	61.37
632.986	61.37
633.318	61.31
633.651	61.37
633.984	61.47
634.316	61.53
634.649	61.6
634.981	61.56
635.313	61.67
635.646	61.72
635.978	61.68
636.31	61.72
636.643	61.65
636.975	61.72
637.307	61.79
637.639	61.81
637.971	61.8
638.303	61.88
638.635	61.9
638.967	61.92
639.299	61.98
639.631	61.91
639.963	62
640.295	62.09
640.626	62.08
640.958	62.02
641.29	62.18
641.621	62.25
641.953	62.39
642.285	62.37
642.616	62.36
642.948	62.32
643.279	62.3
643.61	62.32
643.942	62.51
644.273	62.65
644.604	62.76
644.936	62.8
645.267	62.78
645.598	62.65
645.929	62.68
646.26	62.74
646.591	62.75
646.922	62.69
647.253	62.73
647.584	62.77
647.915	62.73
648.245	62.65
648.576	62.62
648.907	62.6
649.238	62.72
649.568	62.79
649.899	62.96
650.229	62.99
650.56	63.07
650.89	63.01
651.221	62.84
651.551	62.82
651.882	62.85
652.212	62.9
652.542	63.01
652.872	63.02
653.203	63.05
653.533	63.09
653.863	63.18
654.193	63.2
654.523	63.18
654.853	63.22
655.183	63.28
655.513	63.29
655.843	63.38
656.172	63.34
656.502	63.31
656.832	63.19
657.162	63.24
657.491	63.22
657.821	63.21
658.15	63.33
658.48	63.3
658.809	63.31
659.139	63.37
659.468	63.39
659.798	63.35
660.127	63.32
660.456	63.4
660.785	63.41
661.115	63.36
661.444	63.47
661.773	63.43
662.102	63.44
662.431	63.47
662.76	63.45
663.089	63.51
663.418	63.52
663.747	63.67
664.076	63.69
664.404	63.83
664.733	64.04
