Data from BU26843_Reflection_00007.txt Node
Date: Mon Nov 18 16:31:07 EST 2019
User: vgr7
Spectrometer: USB2G7710
Scans to average: 3
Trigger mode: 4
Integration Time (sec): 2.000000E-2
Electric dark correction enabled: true
Boxcar width: 10
XAxis mode: Wavelengths
Number of Pixels in Spectrum: 2048
>>>>>Begin Spectral Data<<<<<
177.721	-64.82
178.105	-233.33
178.488	202.76
178.871	36.58
179.254	52.95
179.636	-38.02
180.019	-18.94
180.402	93.1
180.785	100.5
181.168	228.93
181.55	380.53
181.933	190.64
182.316	184.44
182.698	268.79
183.081	280.68
183.463	717.16
183.846	1467.15
184.228	821.68
184.611	582.67
184.993	-961.3
185.376	-264.65
185.758	-176.11
186.14	-163.42
186.522	-77.86
186.904	-57.56
187.287	-178.03
187.669	-31.88
188.051	-20.13
188.433	-18.51
188.815	3.19
189.197	-3.54
189.579	1.07
189.961	-13.54
190.342	-23.62
190.724	-0.03
191.106	-15.44
191.488	-20.64
191.869	-22.96
192.251	-31.3
192.633	-26.29
193.014	-29.57
193.396	-47.37
193.777	-52.92
194.159	-61.66
194.54	-66.8
194.922	-92.39
195.303	-64.52
195.684	-75.64
196.065	-54.2
196.447	-70.88
196.828	-50.34
197.209	-47.07
197.59	-45.96
197.971	-28.1
198.352	0.56
198.733	-13.1
199.114	6.6
199.495	29.5
199.876	56.85
200.257	76.4
200.638	71.91
201.018	67.4
201.399	46.52
201.78	43.38
202.16	37.92
202.541	28.82
202.922	17.71
203.302	-8.26
203.683	12.58
204.063	-50.55
204.444	-30.47
204.824	-25.99
205.204	0.24
205.585	-14.54
205.965	14.51
206.345	-44.34
206.725	-110.26
207.106	-213.05
207.486	-278.56
207.866	-171.25
208.246	-126
208.626	-113
209.006	-113.57
209.386	-101.62
209.766	-111.71
210.145	-94.53
210.525	-76.83
210.905	-57.21
211.285	-40.93
211.664	-35.96
212.044	-36.58
212.424	-34.37
212.803	-54.91
213.183	-47.29
213.562	-44.58
213.942	-36.12
214.321	-32.94
214.701	-22.24
215.08	-19.13
215.459	-17.82
215.838	-29.31
216.218	-38.16
216.597	-36.64
216.976	-36.91
217.355	-34.11
217.734	-30.64
218.113	-13.05
218.492	-12.42
218.871	-25.1
219.25	-32.69
219.629	-35.33
220.008	-16.27
220.387	-17.15
220.766	-5.53
221.144	-15.42
221.523	-6.9
221.902	-14.54
222.28	-30.11
222.659	-32.8
223.037	-28.15
223.416	-31.78
223.794	-20.06
224.173	-22.93
224.551	-15.28
224.929	-11.66
225.308	-13.18
225.686	-10.15
226.064	-14.88
226.442	-9.74
226.821	1.37
227.199	-1.88
227.577	-2.03
227.955	-4.91
228.333	-3.26
228.711	-2.55
229.089	0.65
229.467	-1.73
229.845	-2.58
230.222	3.84
230.6	2.84
230.978	2.85
231.356	4.95
231.733	2.45
232.111	5.47
232.488	3.96
232.866	5.02
233.243	6.45
233.621	4.53
233.998	6.03
234.376	4.58
234.753	1.8
235.13	1.61
235.508	2.18
235.885	1.9
236.262	1.32
236.639	0.79
237.016	1.72
237.393	2.8
237.77	4.31
238.147	4.41
238.524	4.05
238.901	4.14
239.278	4.09
239.655	5.27
240.032	4.67
240.409	5.09
240.785	4.77
241.162	4.74
241.539	4.88
241.915	4.88
242.292	4.41
242.668	4.54
243.045	4.86
243.421	4.52
243.798	4.94
244.174	5.06
244.551	5.36
244.927	5.08
245.303	4.8
245.679	4.56
246.056	4.37
246.432	4.47
246.808	4.26
247.184	4.25
247.56	3.99
247.936	3.87
248.312	3.93
248.688	4
249.064	3.84
249.44	4.03
249.815	3.96
250.191	4.07
250.567	4.28
250.943	4.19
251.318	4.57
251.694	4.04
252.069	3.84
252.445	3.69
252.82	3.47
253.196	3.59
253.571	3.69
253.947	3.6
254.322	3.92
254.697	4.22
255.073	4.15
255.448	4.24
255.823	4.38
256.198	4.33
256.573	4.44
256.948	4.49
257.323	4.39
257.698	4.3
258.073	4.17
258.448	3.91
258.823	3.96
259.198	3.79
259.573	3.99
259.948	4.14
260.322	4.16
260.697	4.19
261.072	4.05
261.446	3.89
261.821	3.85
262.195	3.78
262.57	3.59
262.944	3.54
263.319	3.36
263.693	3.24
264.067	3.26
264.442	3.24
264.816	3.3
265.19	3.36
265.564	3.35
265.938	3.38
266.313	3.52
266.687	3.5
267.061	3.54
267.435	3.6
267.809	3.41
268.183	3.43
268.556	3.43
268.93	3.54
269.304	3.8
269.678	3.89
270.051	3.86
270.425	4.05
270.799	3.99
271.172	4.22
271.546	4.29
271.919	4.17
272.293	3.98
272.666	3.91
273.04	3.84
273.413	3.84
273.787	3.91
274.16	3.89
274.533	3.98
274.906	3.84
275.279	3.88
275.653	3.92
276.026	3.85
276.399	3.68
276.772	3.76
277.145	3.43
277.518	3.42
277.891	3.25
278.263	3.05
278.636	3.07
279.009	2.97
279.382	3
279.755	3.07
280.127	3.26
280.5	3.25
280.872	3.23
281.245	3.11
281.617	3.08
281.99	2.99
282.362	2.95
282.735	2.92
283.107	2.84
283.479	2.81
283.852	2.84
284.224	3.04
284.596	3.12
284.968	3.32
285.34	3.37
285.713	3.46
286.085	3.73
286.457	4
286.829	4.06
287.201	3.99
287.572	3.85
287.944	3.87
288.316	3.86
288.688	3.96
289.06	4.17
289.431	4.21
289.803	4.24
290.175	4.37
290.546	4.6
290.918	4.79
291.289	4.94
291.661	5.03
292.032	5.17
292.403	5.24
292.775	5.36
293.146	5.41
293.517	5.59
293.889	5.57
294.26	5.49
294.631	5.54
295.002	5.63
295.373	5.73
295.744	5.74
296.115	5.8
296.486	5.57
296.857	5.57
297.228	5.68
297.599	5.69
297.97	5.63
298.34	5.69
298.711	5.64
299.082	5.67
299.452	5.66
299.823	5.79
300.194	5.74
300.564	5.75
300.935	5.72
301.305	5.69
301.676	5.69
302.046	5.73
302.416	5.81
302.787	5.91
303.157	6.08
303.527	6.14
303.897	6.4
304.267	6.83
304.637	6.93
305.008	7.08
305.378	7.38
305.748	7.61
306.117	7.53
306.487	7.68
306.857	7.83
307.227	7.93
307.597	7.96
307.967	8.11
308.336	8.09
308.706	8.29
309.076	8.38
309.445	8.46
309.815	8.46
310.184	8.5
310.554	8.51
310.923	8.52
311.293	8.5
311.662	8.35
312.031	8.35
312.401	8.41
312.77	8.49
313.139	8.5
313.508	8.49
313.877	8.73
314.246	8.79
314.616	8.8
314.985	8.98
315.353	8.98
315.722	9.07
316.091	9.28
316.46	9.25
316.829	9.37
317.198	9.56
317.567	9.57
317.935	9.58
318.304	9.79
318.672	9.85
319.041	10.07
319.41	10.22
319.778	10.41
320.147	10.52
320.515	10.47
320.883	10.43
321.252	10.6
321.62	10.52
321.988	10.55
322.357	10.61
322.725	10.54
323.093	10.68
323.461	10.66
323.829	10.85
324.197	10.95
324.565	10.89
324.933	10.95
325.301	11.22
325.669	11.34
326.037	11.28
326.405	11.43
326.772	11.44
327.14	11.61
327.508	11.57
327.875	11.47
328.243	11.69
328.61	11.71
328.978	11.9
329.346	11.96
329.713	11.87
330.08	11.9
330.448	11.88
330.815	11.8
331.182	11.97
331.55	11.79
331.917	11.83
332.284	12
332.651	11.87
333.018	11.88
333.385	11.92
333.752	12.18
334.119	12.32
334.486	12.37
334.853	12.46
335.22	12.44
335.587	12.53
335.954	12.33
336.32	12.48
336.687	12.39
337.054	12.47
337.42	12.66
337.787	12.77
338.153	12.93
338.52	13.03
338.886	13.02
339.253	13.03
339.619	13.1
339.986	13.11
340.352	13.31
340.718	13.33
341.084	13.35
341.451	13.25
341.817	13.25
342.183	13.16
342.549	12.99
342.915	13.06
343.281	13.08
343.647	13.18
344.013	13.24
344.379	13.2
344.745	13.26
345.11	13.35
345.476	13.29
345.842	13.26
346.208	13.18
346.573	13.24
346.939	13.38
347.304	13.28
347.67	13.24
348.035	13.14
348.401	13.16
348.766	13.18
349.132	13.18
349.497	13.16
349.862	13.38
350.228	13.55
350.593	13.52
350.958	13.5
351.323	13.65
351.688	13.66
352.053	13.85
352.418	13.81
352.783	13.88
353.148	13.92
353.513	13.98
353.878	14.08
354.243	14.08
354.608	13.98
354.972	14.05
355.337	14.08
355.702	14.2
356.066	14.31
356.431	14.21
356.795	14.2
357.16	14.1
357.524	13.96
357.889	13.86
358.253	13.88
358.618	13.88
358.982	13.74
359.346	13.74
359.71	13.58
360.075	13.54
360.439	13.42
360.803	13.39
361.167	13.29
361.531	13.24
361.895	13.16
362.259	13.18
362.623	13.15
362.987	13.17
363.351	13.04
363.714	12.95
364.078	12.94
364.442	12.89
364.806	12.91
365.169	12.93
365.533	12.92
365.896	12.91
366.26	12.88
366.623	12.84
366.987	12.74
367.35	12.72
367.714	12.72
368.077	12.68
368.44	12.68
368.803	12.75
369.167	12.69
369.53	12.6
369.893	12.58
370.256	12.54
370.619	12.45
370.982	12.38
371.345	12.27
371.708	12.26
372.071	12.25
372.434	12.17
372.797	12.06
373.159	11.97
373.522	11.87
373.885	11.87
374.247	11.9
374.61	11.85
374.973	11.78
375.335	11.68
375.698	11.6
376.06	11.45
376.423	11.31
376.785	11.29
377.147	11.29
377.51	11.18
377.872	11.14
378.234	11.04
378.596	11.03
378.958	10.93
379.321	10.85
379.683	10.74
380.045	10.67
380.407	10.64
380.769	10.59
381.13	10.49
381.492	10.36
381.854	10.25
382.216	10.16
382.578	10.08
382.939	9.98
383.301	9.92
383.663	9.89
384.024	9.91
384.386	9.87
384.747	9.75
385.109	9.73
385.47	9.65
385.832	9.6
386.193	9.56
386.554	9.56
386.916	9.53
387.277	9.51
387.638	9.46
387.999	9.37
388.36	9.29
388.721	9.32
389.082	9.29
389.443	9.23
389.804	9.21
390.165	9.19
390.526	9.17
390.887	9.14
391.248	9.13
391.609	9.06
391.969	9
392.33	8.99
392.691	8.97
393.051	8.93
393.412	8.9
393.772	8.85
394.133	8.8
394.493	8.72
394.854	8.68
395.214	8.62
395.574	8.58
395.935	8.57
396.295	8.5
396.655	8.48
397.015	8.41
397.376	8.31
397.736	8.24
398.096	8.18
398.456	8.11
398.816	8.03
399.176	7.94
399.535	7.84
399.895	7.75
400.255	7.71
400.615	7.63
400.975	7.55
401.334	7.51
401.694	7.43
402.054	7.39
402.413	7.33
402.773	7.29
403.132	7.24
403.492	7.2
403.851	7.13
404.211	7.06
404.57	7.04
404.929	7.04
405.288	7.01
405.648	7
406.007	6.98
406.366	6.96
406.725	6.93
407.084	6.92
407.443	6.93
407.802	6.89
408.161	6.86
408.52	6.86
408.879	6.81
409.238	6.79
409.596	6.76
409.955	6.75
410.314	6.75
410.673	6.75
411.031	6.72
411.39	6.7
411.748	6.68
412.107	6.68
412.465	6.65
412.824	6.56
413.182	6.54
413.54	6.54
413.899	6.52
414.257	6.51
414.615	6.51
414.974	6.47
415.332	6.41
415.69	6.42
416.048	6.37
416.406	6.35
416.764	6.31
417.122	6.31
417.48	6.25
417.838	6.21
418.195	6.19
418.553	6.16
418.911	6.15
419.269	6.14
419.626	6.1
419.984	6.07
420.342	6.08
420.699	6.03
421.057	5.99
421.414	5.96
421.772	5.93
422.129	5.89
422.486	5.86
422.844	5.85
423.201	5.8
423.558	5.79
423.915	5.76
424.273	5.75
424.63	5.72
424.987	5.71
425.344	5.69
425.701	5.68
426.058	5.64
426.415	5.62
426.772	5.58
427.128	5.55
427.485	5.56
427.842	5.53
428.199	5.52
428.555	5.51
428.912	5.48
429.269	5.47
429.625	5.46
429.982	5.44
430.338	5.44
430.695	5.45
431.051	5.42
431.407	5.42
431.764	5.41
432.12	5.42
432.476	5.4
432.832	5.4
433.189	5.38
433.545	5.38
433.901	5.36
434.257	5.37
434.613	5.38
434.969	5.39
435.325	5.4
435.681	5.4
436.036	5.4
436.392	5.41
436.748	5.41
437.104	5.42
437.459	5.42
437.815	5.4
438.171	5.4
438.526	5.42
438.882	5.41
439.237	5.42
439.593	5.42
439.948	5.41
440.304	5.41
440.659	5.43
441.014	5.44
441.369	5.42
441.725	5.43
442.08	5.41
442.435	5.4
442.79	5.4
443.145	5.39
443.5	5.37
443.855	5.36
444.21	5.35
444.565	5.35
444.92	5.37
445.275	5.35
445.629	5.36
445.984	5.34
446.339	5.34
446.693	5.31
447.048	5.28
447.403	5.27
447.757	5.26
448.112	5.22
448.466	5.2
448.82	5.22
449.175	5.2
449.529	5.19
449.883	5.17
450.238	5.13
450.592	5.12
450.946	5.11
451.3	5.09
451.654	5.08
452.008	5.06
452.362	5.03
452.716	5.02
453.07	4.99
453.424	4.98
453.778	4.95
454.132	4.95
454.486	4.95
454.839	4.95
455.193	4.95
455.547	4.95
455.9	4.93
456.254	4.91
456.607	4.91
456.961	4.9
457.314	4.92
457.668	4.92
458.021	4.91
458.375	4.91
458.728	4.92
459.081	4.92
459.434	4.92
459.787	4.92
460.141	4.92
460.494	4.92
460.847	4.92
461.2	4.92
461.553	4.95
461.906	4.96
462.259	4.97
462.611	4.98
462.964	4.99
463.317	5.04
463.67	5.05
464.022	5.06
464.375	5.07
464.728	5.08
465.08	5.1
465.433	5.14
465.785	5.17
466.138	5.18
466.49	5.2
466.843	5.24
467.195	5.25
467.547	5.31
467.899	5.33
468.252	5.34
468.604	5.37
468.956	5.37
469.308	5.38
469.66	5.37
470.012	5.4
470.364	5.44
470.716	5.46
471.068	5.49
471.42	5.51
471.772	5.57
472.123	5.58
472.475	5.61
472.827	5.62
473.178	5.64
473.53	5.65
473.882	5.69
474.233	5.71
474.585	5.71
474.936	5.69
475.288	5.71
475.639	5.76
475.99	5.77
476.342	5.77
476.693	5.81
477.044	5.85
477.395	5.85
477.746	5.83
478.097	5.82
478.448	5.8
478.8	5.79
479.15	5.73
479.501	5.74
479.852	5.72
480.203	5.71
480.554	5.7
480.905	5.69
481.255	5.66
481.606	5.66
481.957	5.66
482.307	5.67
482.658	5.66
483.009	5.62
483.359	5.61
483.709	5.6
484.06	5.57
484.41	5.57
484.761	5.56
485.111	5.55
485.461	5.54
485.811	5.53
486.162	5.52
486.512	5.53
486.862	5.51
487.212	5.51
487.562	5.51
487.912	5.51
488.262	5.49
488.612	5.49
488.961	5.48
489.311	5.47
489.661	5.45
490.011	5.45
490.36	5.46
490.71	5.47
491.06	5.48
491.409	5.49
491.759	5.49
492.108	5.51
492.458	5.52
492.807	5.54
493.157	5.57
493.506	5.61
493.855	5.65
494.204	5.66
494.554	5.69
494.903	5.72
495.252	5.76
495.601	5.82
495.95	5.88
496.299	5.93
496.648	5.99
496.997	6.03
497.346	6.11
497.695	6.19
498.043	6.25
498.392	6.32
498.741	6.42
499.09	6.49
499.438	6.58
499.787	6.67
500.135	6.76
500.484	6.84
500.832	6.93
501.181	7.04
501.529	7.15
501.878	7.26
502.226	7.36
502.574	7.47
502.923	7.55
503.271	7.66
503.619	7.79
503.967	7.92
504.315	8.06
504.663	8.19
505.011	8.31
505.359	8.44
505.707	8.58
506.055	8.73
506.403	8.86
506.751	9.01
507.098	9.16
507.446	9.3
507.794	9.46
508.141	9.6
508.489	9.76
508.837	9.9
509.184	10.05
509.531	10.22
509.879	10.38
510.226	10.58
510.574	10.76
510.921	10.93
511.268	11.09
511.616	11.26
511.963	11.42
512.31	11.61
512.657	11.81
513.004	12
513.351	12.18
513.698	12.39
514.045	12.59
514.392	12.77
514.739	12.97
515.086	13.17
515.432	13.36
515.779	13.51
516.126	13.7
516.473	13.9
516.819	14.07
517.166	14.22
517.512	14.38
517.859	14.53
518.205	14.64
518.552	14.81
518.898	14.93
519.245	15.08
519.591	15.23
519.937	15.35
520.283	15.49
520.629	15.65
520.976	15.8
521.322	15.97
521.668	16.15
522.014	16.33
522.36	16.51
522.706	16.71
523.052	16.94
523.398	17.16
523.743	17.4
524.089	17.61
524.435	17.82
524.781	18.04
525.126	18.23
525.472	18.4
525.817	18.54
526.163	18.69
526.509	18.82
526.854	18.94
527.199	19.06
527.545	19.19
527.89	19.31
528.235	19.42
528.581	19.53
528.926	19.63
529.271	19.77
529.616	19.9
529.961	20.03
530.306	20.14
530.651	20.28
530.996	20.4
531.341	20.54
531.686	20.7
532.031	20.84
532.376	20.99
532.721	21.16
533.065	21.36
533.41	21.54
533.755	21.74
534.099	21.92
534.444	22.13
534.788	22.31
535.133	22.48
535.477	22.68
535.822	22.89
536.166	23.13
536.51	23.38
536.855	23.63
537.199	23.86
537.543	24.12
537.887	24.39
538.231	24.67
538.576	24.95
538.92	25.19
539.264	25.43
539.608	25.65
539.951	25.88
540.295	26.09
540.639	26.27
540.983	26.44
541.327	26.61
541.671	26.78
542.014	26.98
542.358	27.16
542.701	27.36
543.045	27.53
543.389	27.7
543.732	27.89
544.075	28.06
544.419	28.29
544.762	28.5
545.105	28.69
545.449	28.87
545.792	29.06
546.135	29.29
546.478	29.54
546.821	29.83
547.165	30.1
547.508	30.3
547.851	30.57
548.194	30.85
548.536	31.14
548.879	31.41
549.222	31.68
549.565	31.89
549.908	32.1
550.25	32.38
550.593	32.62
550.936	32.82
551.278	33.05
551.621	33.25
551.963	33.49
552.306	33.74
552.648	33.96
552.991	34.22
553.333	34.45
553.675	34.59
554.017	34.73
554.36	34.93
554.702	35.12
555.044	35.29
555.386	35.51
555.728	35.66
556.07	35.88
556.412	36.01
556.754	36.25
557.096	36.44
557.438	36.63
557.78	36.82
558.121	37.02
558.463	37.21
558.805	37.37
559.147	37.51
559.488	37.63
559.83	37.8
560.171	37.96
560.513	38.11
560.854	38.29
561.196	38.41
561.537	38.55
561.878	38.73
562.22	38.83
562.561	38.92
562.902	39.06
563.243	39.14
563.584	39.23
563.925	39.34
564.266	39.47
564.607	39.56
564.948	39.7
565.289	39.75
565.63	39.84
565.971	39.92
566.312	40.02
566.653	40.11
566.993	40.18
567.334	40.23
567.675	40.33
568.015	40.36
568.356	40.45
568.696	40.55
569.037	40.59
569.377	40.68
569.718	40.81
570.058	40.87
570.398	40.97
570.739	41.06
571.079	41.17
571.419	41.21
571.759	41.25
572.099	41.24
572.439	41.32
572.779	41.4
573.119	41.5
573.459	41.59
573.799	41.7
574.139	41.81
574.479	41.84
574.819	41.87
575.158	42.02
575.498	42.09
575.838	42.13
576.177	42.25
576.517	42.33
576.856	42.35
577.196	42.39
577.535	42.47
577.875	42.57
578.214	42.68
578.553	42.77
578.893	42.89
579.232	43.05
579.571	43.14
579.91	43.18
580.25	43.21
580.589	43.24
580.928	43.29
581.267	43.36
581.606	43.42
581.945	43.49
582.283	43.51
582.622	43.54
582.961	43.59
583.3	43.58
583.639	43.67
583.977	43.75
584.316	43.89
584.654	43.96
584.993	44.05
585.332	43.98
585.67	44.06
586.008	44.12
586.347	44.09
586.685	44.12
587.024	44.22
587.362	44.23
587.7	44.32
588.038	44.36
588.376	44.31
588.715	44.42
589.053	44.43
589.391	44.49
589.729	44.61
590.067	44.57
590.404	44.63
590.742	44.71
591.08	44.7
591.418	44.69
591.756	44.68
592.093	44.65
592.431	44.71
592.769	44.69
593.106	44.68
593.444	44.77
593.781	44.81
594.119	44.81
594.456	44.86
594.793	44.83
595.131	44.79
595.468	44.83
595.805	44.82
596.143	44.87
596.48	44.87
596.817	44.85
597.154	44.9
597.491	44.91
597.828	44.91
598.165	44.95
598.502	44.95
598.839	45.07
599.176	45.06
599.512	45.08
599.849	45.13
600.186	45.22
600.523	45.18
600.859	45.16
601.196	45.15
601.532	45.18
601.869	45.25
602.205	45.31
602.542	45.3
602.878	45.33
603.215	45.34
603.551	45.28
603.887	45.25
604.223	45.33
604.56	45.37
604.896	45.32
605.232	45.36
605.568	45.43
605.904	45.36
606.24	45.43
606.576	45.56
606.912	45.53
607.248	45.49
607.583	45.55
607.919	45.6
608.255	45.69
608.591	45.7
608.926	45.73
609.262	45.77
609.597	45.86
609.933	45.9
610.268	45.91
610.604	46.03
610.939	46.06
611.275	46.02
611.61	46.04
611.945	46.18
612.281	46.17
612.616	46.19
612.951	46.19
613.286	46.26
613.621	46.22
613.956	46.36
614.291	46.45
614.626	46.45
614.961	46.46
615.296	46.49
615.631	46.5
615.966	46.49
616.3	46.4
616.635	46.44
616.97	46.46
617.304	46.44
617.639	46.42
617.973	46.51
618.308	46.66
618.642	46.68
618.977	46.71
619.311	46.71
619.646	46.7
619.98	46.71
620.314	46.61
620.648	46.57
620.983	46.59
621.317	46.57
621.651	46.58
621.985	46.64
622.319	46.67
622.653	46.69
622.987	46.73
623.321	46.8
623.655	46.76
623.988	46.85
624.322	46.94
624.656	47.05
624.99	47.04
625.323	46.89
625.657	46.85
625.99	46.86
626.324	46.79
626.657	46.81
626.991	46.88
627.324	46.95
627.658	46.89
627.991	46.85
628.324	46.86
628.657	46.82
628.991	46.79
629.324	46.76
629.657	46.84
629.99	46.73
630.323	46.7
630.656	46.74
630.989	46.69
631.322	46.61
631.655	46.57
631.987	46.62
632.32	46.62
632.653	46.66
632.986	46.57
633.318	46.71
633.651	46.75
633.984	46.75
634.316	46.78
634.649	46.78
634.981	46.79
635.313	46.78
635.646	46.99
635.978	47.03
636.31	46.93
636.643	46.85
636.975	47
637.307	47.07
637.639	47.11
637.971	47.14
638.303	47.24
638.635	47.14
638.967	47.06
639.299	47.15
639.631	47.1
639.963	47.06
640.295	47.13
640.626	47.11
640.958	46.99
641.29	47.04
641.621	47.08
641.953	47.17
642.285	47.22
642.616	47.11
642.948	47.11
643.279	47.25
643.61	47.26
643.942	47.27
644.273	47.31
644.604	47.28
644.936	47.1
645.267	47.12
645.598	47.19
645.929	47.28
646.26	47.27
646.591	47.44
646.922	47.4
647.253	47.29
647.584	47.31
647.915	47.43
648.245	47.31
648.576	47.33
648.907	47.19
649.238	47.08
649.568	47.14
649.899	47.06
650.229	46.99
650.56	46.98
650.89	46.97
651.221	46.96
651.551	47.02
651.882	47.13
652.212	47.12
652.542	47.16
652.872	47.17
653.203	47.09
653.533	47.01
653.863	47.16
654.193	47.18
654.523	47.17
654.853	47.11
655.183	47.29
655.513	47.27
655.843	47.28
656.172	47.4
656.502	47.39
656.832	47.49
657.162	47.58
657.491	47.59
657.821	47.6
658.15	47.61
658.48	47.56
658.809	47.61
659.139	47.55
659.468	47.5
659.798	47.49
660.127	47.58
660.456	47.51
660.785	47.52
661.115	47.52
661.444	47.46
661.773	47.54
662.102	47.48
662.431	47.53
