Data from BU26941_Reflection_00009.txt Node
Date: Tue Nov 19 11:03:37 EST 2019
User: vgr7
Spectrometer: USB2G7710
Scans to average: 3
Trigger mode: 4
Integration Time (sec): 2.000000E-2
Electric dark correction enabled: true
Boxcar width: 10
XAxis mode: Wavelengths
Number of Pixels in Spectrum: 2048
>>>>>Begin Spectral Data<<<<<
177.721	17.67
178.105	-9.14
178.488	1.91
178.871	109.46
179.254	68.85
179.636	83.92
180.019	28.2
180.402	140
180.785	135.85
181.168	-2025
181.55	-24.37
181.933	-371.83
182.316	216.54
182.698	327.27
183.081	843.24
183.463	-82.63
183.846	-5.04
184.228	-73.47
184.611	77.35
184.993	143.28
185.376	391.91
185.758	106.14
186.14	7.59
186.522	24.34
186.904	63.16
187.287	51.38
187.669	36.52
188.051	45.97
188.433	-18.38
188.815	6.2
189.197	-32.6
189.579	-63.66
189.961	-147.88
190.342	-108.24
190.724	-206.79
191.106	-127.76
191.488	-70.95
191.869	-80.14
192.251	-94.79
192.633	-108.22
193.014	-249.86
193.396	-317.85
193.777	-218.18
194.159	-214.39
194.54	-186.47
194.922	-347.37
195.303	-324.32
195.684	-229.35
196.065	-280.13
196.447	-101.06
196.828	-123.82
197.209	-189.47
197.59	-88.46
197.971	-22.25
198.352	-30.55
198.733	-14.83
199.114	-11.05
199.495	-29.91
199.876	-31.2
200.257	-57.01
200.638	-29.09
201.018	-14.46
201.399	-11.65
201.78	-11.31
202.16	2.12
202.541	-17.73
202.922	-41.12
203.302	-54.59
203.683	-40.85
204.063	-51.26
204.444	-33.37
204.824	-47.24
205.204	11.13
205.585	-62.34
205.965	-248.02
206.345	-170.43
206.725	-35.11
207.106	-73.75
207.486	-36.52
207.866	45.43
208.246	81.34
208.626	-8.88
209.006	31.42
209.386	68.43
209.766	97.96
210.145	120.58
210.525	188.06
210.905	146.72
211.285	271.02
211.664	402.99
212.044	294.5
212.424	313.6
212.803	464.72
213.183	362.64
213.562	608.96
213.942	615.92
214.321	600
214.701	1366.42
215.08	2285.39
215.459	677.17
215.838	679.85
216.218	777.34
216.597	1914.61
216.976	-1046.62
217.355	-131400
217.734	800.96
218.113	1728.71
218.492	3892.68
218.871	624.49
219.25	411.85
219.629	199.11
220.008	162.31
220.387	115.6
220.766	51.95
221.144	39.25
221.523	26.25
221.902	16.6
222.28	12.2
222.659	37.37
223.037	31.13
223.416	21.75
223.794	-2.93
224.173	-2.63
224.551	0.94
224.929	-0.57
225.308	-9.63
225.686	-18.69
226.064	-32.76
226.442	-28.83
226.821	-29.72
227.199	-25.82
227.577	-23.04
227.955	-13.11
228.333	-17.56
228.711	-17.39
229.089	-14.99
229.467	-14.09
229.845	-13.98
230.222	-10.47
230.6	-10.44
230.978	-10.7
231.356	-13.22
231.733	-9.17
232.111	-7.01
232.488	-6.2
232.866	-2.57
233.243	-0.37
233.621	3.48
233.998	4.28
234.376	7.71
234.753	9.05
235.13	9.64
235.508	8.59
235.885	8.29
236.262	8.01
236.639	7.26
237.016	7.24
237.393	7.07
237.77	7.84
238.147	6.98
238.524	6.07
238.901	5.39
239.278	5.57
239.655	5.33
240.032	5.61
240.409	5.28
240.785	4.73
241.162	4.71
241.539	3.86
241.915	4.26
242.292	4.05
242.668	3.65
243.045	4.16
243.421	5.14
243.798	5.19
244.174	5.25
244.551	5.01
244.927	4.97
245.303	4.89
245.679	4.87
246.056	4.67
246.432	4.74
246.808	4.81
247.184	4.83
247.56	4.55
247.936	4.41
248.312	4.58
248.688	4.53
249.064	4.64
249.44	4.6
249.815	4.57
250.191	4.56
250.567	4.8
250.943	4.58
251.318	4.22
251.694	4.03
252.069	4.34
252.445	4.55
252.82	4.73
253.196	4.99
253.571	5.01
253.947	5.47
254.322	5.17
254.697	5.42
255.073	5.21
255.448	5.59
255.823	5.58
256.198	5.52
256.573	5.58
256.948	5.32
257.323	5.45
257.698	5.6
258.073	5.5
258.448	5.55
258.823	5.43
259.198	5.39
259.573	5.19
259.948	5.05
260.322	4.87
260.697	4.75
261.072	4.67
261.446	4.67
261.821	4.45
262.195	4.5
262.57	4.47
262.944	4.51
263.319	4.47
263.693	4.31
264.067	4.08
264.442	3.97
264.816	3.96
265.19	3.9
265.564	3.65
265.938	3.48
266.313	3.29
266.687	3.26
267.061	3.05
267.435	3.29
267.809	3.24
268.183	3.23
268.556	3.06
268.93	3.12
269.304	2.95
269.678	3.12
270.051	3.27
270.425	3.11
270.799	3.07
271.172	3.19
271.546	3.31
271.919	3.32
272.293	3.35
272.666	3.42
273.04	3.51
273.413	3.5
273.787	3.55
274.16	3.59
274.533	3.7
274.906	3.87
275.279	3.71
275.653	3.82
276.026	3.9
276.399	4.04
276.772	3.88
277.145	4.09
277.518	4.01
277.891	3.86
278.263	3.96
278.636	4.09
279.009	3.92
279.382	3.95
279.755	4.09
280.127	4.14
280.5	4.04
280.872	3.97
281.245	3.96
281.617	4.07
281.99	4.19
282.362	4.1
282.735	3.9
283.107	3.97
283.479	4.03
283.852	4.18
284.224	4.1
284.596	4.17
284.968	4.17
285.34	4.05
285.713	4.1
286.085	4.06
286.457	4.11
286.829	4.12
287.201	4.13
287.572	4.22
287.944	4.28
288.316	4.47
288.688	4.44
289.06	4.6
289.431	4.63
289.803	4.56
290.175	4.68
290.546	4.88
290.918	5.06
291.289	5.01
291.661	4.96
292.032	5.05
292.403	5.14
292.775	5.14
293.146	5.4
293.517	5.45
293.889	5.53
294.26	5.64
294.631	5.74
295.002	5.77
295.373	5.81
295.744	5.91
296.115	5.99
296.486	6.12
296.857	6.06
297.228	5.93
297.599	5.98
297.97	6.03
298.34	6.13
298.711	6.09
299.082	6.16
299.452	6.24
299.823	6.34
300.194	6.37
300.564	6.37
300.935	6.41
301.305	6.43
301.676	6.34
302.046	6.35
302.416	6.44
302.787	6.59
303.157	6.62
303.527	6.74
303.897	6.58
304.267	6.77
304.637	6.93
305.008	7.27
305.378	7.56
305.748	7.65
306.117	7.61
306.487	7.82
306.857	7.98
307.227	8.22
307.597	8.34
307.967	8.51
308.336	8.79
308.706	8.85
309.076	9.1
309.445	9.43
309.815	9.57
310.184	9.56
310.554	9.6
310.923	9.66
311.293	9.66
311.662	9.82
312.031	9.75
312.401	9.9
312.77	9.93
313.139	9.81
313.508	9.79
313.877	9.91
314.246	9.87
314.616	9.95
314.985	9.95
315.353	10.01
315.722	9.89
316.091	9.9
316.46	10.09
316.829	10.2
317.198	10.07
317.567	10.18
317.935	10.41
318.304	10.59
318.672	10.74
319.041	10.81
319.41	10.83
319.778	10.88
320.147	10.9
320.515	10.99
320.883	11.11
321.252	11.22
321.62	11.31
321.988	11.49
322.357	11.59
322.725	11.79
323.093	11.97
323.461	12.34
323.829	12.28
324.197	12.26
324.565	12.15
324.933	12.22
325.301	12.25
325.669	12.23
326.037	12.36
326.405	12.38
326.772	12.38
327.14	12.52
327.508	12.68
327.875	12.78
328.243	12.83
328.61	12.84
328.978	12.92
329.346	13.08
329.713	13.14
330.08	13.1
330.448	13.12
330.815	13.1
331.182	13.09
331.55	13.28
331.917	13.35
332.284	13.53
332.651	13.71
333.018	13.76
333.385	13.79
333.752	13.64
334.119	13.8
334.486	13.94
334.853	13.88
335.22	13.85
335.587	13.87
335.954	13.9
336.32	13.94
336.687	14.09
337.054	14.05
337.42	14.05
337.787	14.11
338.153	14.02
338.52	14.15
338.886	14.14
339.253	14.18
339.619	14.24
339.986	14.25
340.352	14.21
340.718	14.25
341.084	14.34
341.451	14.52
341.817	14.38
342.183	14.33
342.549	14.5
342.915	14.57
343.281	14.58
343.647	14.71
344.013	14.85
344.379	14.76
344.745	14.8
345.11	14.85
345.476	14.94
345.842	15.05
346.208	14.96
346.573	14.9
346.939	14.82
347.304	14.95
347.67	15
348.035	14.98
348.401	14.9
348.766	14.96
349.132	14.83
349.497	14.92
349.862	14.92
350.228	14.89
350.593	14.91
350.958	14.8
351.323	14.72
351.688	14.73
352.053	14.76
352.418	14.72
352.783	14.68
353.148	14.62
353.513	14.54
353.878	14.44
354.243	14.37
354.608	14.45
354.972	14.32
355.337	14.22
355.702	14.35
356.066	14.45
356.431	14.44
356.795	14.46
357.16	14.38
357.524	14.36
357.889	14.33
358.253	14.32
358.618	14.38
358.982	14.31
359.346	14.32
359.71	14.32
360.075	14.42
360.439	14.48
360.803	14.52
361.167	14.54
361.531	14.67
361.895	14.74
362.259	14.71
362.623	14.69
362.987	14.71
363.351	14.62
363.714	14.55
364.078	14.43
364.442	14.37
364.806	14.39
365.169	14.35
365.533	14.3
365.896	14.26
366.26	14.19
366.623	14.17
366.987	14.02
367.35	14.01
367.714	13.86
368.077	13.71
368.44	13.55
368.803	13.45
369.167	13.32
369.53	13.18
369.893	13.11
370.256	13.01
370.619	12.95
370.982	12.88
371.345	12.76
371.708	12.71
372.071	12.64
372.434	12.55
372.797	12.56
373.159	12.48
373.522	12.36
373.885	12.37
374.247	12.26
374.61	12.19
374.973	12.1
375.335	11.97
375.698	11.88
376.06	11.84
376.423	11.74
376.785	11.69
377.147	11.67
377.51	11.62
377.872	11.56
378.234	11.44
378.596	11.36
378.958	11.3
379.321	11.2
379.683	11.2
380.045	11.13
380.407	10.98
380.769	10.86
381.13	10.77
381.492	10.65
381.854	10.61
382.216	10.58
382.578	10.41
382.939	10.33
383.301	10.32
383.663	10.22
384.024	10.18
384.386	10.11
384.747	9.98
385.109	9.87
385.47	9.79
385.832	9.67
386.193	9.59
386.554	9.52
386.916	9.46
387.277	9.32
387.638	9.27
387.999	9.24
388.36	9.22
388.721	9.2
389.082	9.16
389.443	9.11
389.804	9.06
390.165	9.04
390.526	9.05
390.887	8.95
391.248	8.9
391.609	8.83
391.969	8.79
392.33	8.76
392.691	8.69
393.051	8.64
393.412	8.63
393.772	8.56
394.133	8.52
394.493	8.47
394.854	8.43
395.214	8.34
395.574	8.26
395.935	8.19
396.295	8.13
396.655	8.02
397.015	7.94
397.376	7.87
397.736	7.78
398.096	7.72
398.456	7.63
398.816	7.57
399.176	7.45
399.535	7.35
399.895	7.28
400.255	7.22
400.615	7.17
400.975	7.11
401.334	7.07
401.694	7
402.054	6.94
402.413	6.88
402.773	6.85
403.132	6.77
403.492	6.75
403.851	6.69
404.211	6.62
404.57	6.57
404.929	6.51
405.288	6.5
405.648	6.42
406.007	6.39
406.366	6.39
406.725	6.4
407.084	6.42
407.443	6.39
407.802	6.38
408.161	6.38
408.52	6.34
408.879	6.35
409.238	6.32
409.596	6.31
409.955	6.27
410.314	6.25
410.673	6.24
411.031	6.22
411.39	6.18
411.748	6.21
412.107	6.2
412.465	6.2
412.824	6.14
413.182	6.1
413.54	6.08
413.899	6.03
414.257	6
414.615	5.93
414.974	5.9
415.332	5.86
415.69	5.81
416.048	5.79
416.406	5.7
416.764	5.68
417.122	5.63
417.48	5.61
417.838	5.59
418.195	5.52
418.553	5.47
418.911	5.46
419.269	5.42
419.626	5.37
419.984	5.34
420.342	5.33
420.699	5.31
421.057	5.26
421.414	5.24
421.772	5.21
422.129	5.18
422.486	5.15
422.844	5.12
423.201	5.09
423.558	5.06
423.915	5.05
424.273	5.01
424.63	5
424.987	4.98
425.344	4.95
425.701	4.96
426.058	4.93
426.415	4.91
426.772	4.89
427.128	4.87
427.485	4.85
427.842	4.81
428.199	4.8
428.555	4.8
428.912	4.76
429.269	4.74
429.625	4.74
429.982	4.7
430.338	4.71
430.695	4.7
431.051	4.69
431.407	4.67
431.764	4.67
432.12	4.68
432.476	4.68
432.832	4.67
433.189	4.66
433.545	4.66
433.901	4.66
434.257	4.66
434.613	4.66
434.969	4.67
435.325	4.67
435.681	4.65
436.036	4.67
436.392	4.67
436.748	4.69
437.104	4.69
437.459	4.72
437.815	4.74
438.171	4.78
438.526	4.79
438.882	4.79
439.237	4.77
439.593	4.77
439.948	4.76
440.304	4.76
440.659	4.77
441.014	4.76
441.369	4.75
441.725	4.74
442.08	4.73
442.435	4.72
442.79	4.7
443.145	4.7
443.5	4.66
443.855	4.66
444.21	4.64
444.565	4.62
444.92	4.6
445.275	4.56
445.629	4.51
445.984	4.47
446.339	4.46
446.693	4.46
447.048	4.42
447.403	4.39
447.757	4.38
448.112	4.36
448.466	4.35
448.82	4.33
449.175	4.32
449.529	4.31
449.883	4.3
450.238	4.3
450.592	4.27
450.946	4.27
451.3	4.25
451.654	4.22
452.008	4.2
452.362	4.19
452.716	4.17
453.07	4.18
453.424	4.18
453.778	4.17
454.132	4.15
454.486	4.16
454.839	4.19
455.193	4.21
455.547	4.2
455.9	4.2
456.254	4.19
456.607	4.19
456.961	4.19
457.314	4.18
457.668	4.18
458.021	4.18
458.375	4.19
458.728	4.19
459.081	4.21
459.434	4.22
459.787	4.23
460.141	4.24
460.494	4.26
460.847	4.29
461.2	4.32
461.553	4.36
461.906	4.38
462.259	4.38
462.611	4.38
462.964	4.41
463.317	4.46
463.67	4.5
464.022	4.51
464.375	4.55
464.728	4.6
465.08	4.61
465.433	4.67
465.785	4.71
466.138	4.73
466.49	4.78
466.843	4.81
467.195	4.87
467.547	4.91
467.899	4.92
468.252	4.92
468.604	4.93
468.956	4.96
469.308	4.97
469.66	5.02
470.012	5.05
470.364	5.09
470.716	5.11
471.068	5.12
471.42	5.14
471.772	5.15
472.123	5.16
472.475	5.18
472.827	5.19
473.178	5.22
473.53	5.24
473.882	5.24
474.233	5.25
474.585	5.24
474.936	5.24
475.288	5.22
475.639	5.25
475.99	5.23
476.342	5.21
476.693	5.2
477.044	5.19
477.395	5.16
477.746	5.12
478.097	5.07
478.448	5.06
478.8	5.01
479.15	5
479.501	4.98
479.852	4.95
480.203	4.95
480.554	4.93
480.905	4.92
481.255	4.9
481.606	4.9
481.957	4.89
482.307	4.88
482.658	4.89
483.009	4.87
483.359	4.87
483.709	4.88
484.06	4.87
484.41	4.87
484.761	4.87
485.111	4.87
485.461	4.87
485.811	4.87
486.162	4.89
486.512	4.9
486.862	4.9
487.212	4.92
487.562	4.91
487.912	4.91
488.262	4.92
488.612	4.92
488.961	4.93
489.311	4.94
489.661	4.95
490.011	4.97
490.36	4.97
490.71	4.98
491.06	4.99
491.409	5
491.759	5.03
492.108	5.05
492.458	5.08
492.807	5.12
493.157	5.15
493.506	5.18
493.855	5.21
494.204	5.25
494.554	5.3
494.903	5.37
495.252	5.43
495.601	5.5
495.95	5.58
496.299	5.64
496.648	5.73
496.997	5.82
497.346	5.91
497.695	6.04
498.043	6.12
498.392	6.2
498.741	6.32
499.09	6.43
499.438	6.55
499.787	6.66
500.135	6.81
500.484	6.94
500.832	7.06
501.181	7.18
501.529	7.36
501.878	7.52
502.226	7.64
502.574	7.8
502.923	7.96
503.271	8.15
503.619	8.32
503.967	8.52
504.315	8.73
504.663	8.94
505.011	9.14
505.359	9.35
505.707	9.6
506.055	9.85
506.403	10.08
506.751	10.32
507.098	10.56
507.446	10.79
507.794	11.06
508.141	11.31
508.489	11.56
508.837	11.78
509.184	12.04
509.531	12.33
509.879	12.61
510.226	12.88
510.574	13.14
510.921	13.39
511.268	13.67
511.616	13.95
511.963	14.22
512.31	14.55
512.657	14.89
513.004	15.2
513.351	15.51
513.698	15.85
514.045	16.19
514.392	16.54
514.739	16.88
515.086	17.21
515.432	17.58
515.779	17.96
516.126	18.3
516.473	18.62
516.819	18.92
517.166	19.21
517.512	19.5
517.859	19.81
518.205	20.1
518.552	20.36
518.898	20.63
519.245	20.9
519.591	21.2
519.937	21.45
520.283	21.72
520.629	22
520.976	22.29
521.322	22.62
521.668	22.89
522.014	23.19
522.36	23.48
522.706	23.81
523.052	24.17
523.398	24.5
523.743	24.86
524.089	25.26
524.435	25.63
524.781	25.98
525.126	26.32
525.472	26.64
525.817	26.89
526.163	27.15
526.509	27.41
526.854	27.6
527.199	27.84
527.545	28.05
527.89	28.26
528.235	28.46
528.581	28.64
528.926	28.86
529.271	29.07
529.616	29.28
529.961	29.48
530.306	29.69
530.651	29.93
530.996	30.17
531.341	30.39
531.686	30.61
532.031	30.85
532.376	31.06
532.721	31.33
533.065	31.59
533.41	31.85
533.755	32.09
534.099	32.36
534.444	32.63
534.788	32.87
535.133	33.09
535.477	33.38
535.822	33.67
536.166	33.99
536.51	34.26
536.855	34.61
537.199	34.91
537.543	35.24
537.887	35.57
538.231	35.89
538.576	36.23
538.92	36.55
539.264	36.88
539.608	37.17
539.951	37.41
540.295	37.67
540.639	37.89
540.983	38.1
541.327	38.34
541.671	38.57
542.014	38.78
542.358	39.02
542.701	39.21
543.045	39.41
543.389	39.63
543.732	39.88
544.075	40.04
544.419	40.25
544.762	40.45
545.105	40.67
545.449	40.9
545.792	41.16
546.135	41.42
546.478	41.63
546.821	41.91
547.165	42.2
547.508	42.46
547.851	42.78
548.194	43.04
548.536	43.31
548.879	43.5
549.222	43.8
549.565	44.05
549.908	44.32
550.25	44.56
550.593	44.82
550.936	45.05
551.278	45.3
551.621	45.55
551.963	45.78
552.306	46.02
552.648	46.24
552.991	46.35
553.333	46.56
553.675	46.75
554.017	46.88
554.36	47.03
554.702	47.17
555.044	47.29
555.386	47.5
555.728	47.66
556.07	47.8
556.412	47.98
556.754	48.14
557.096	48.33
557.438	48.46
557.78	48.55
558.121	48.75
558.463	48.89
558.805	49.09
559.147	49.3
559.488	49.45
559.83	49.62
560.171	49.81
560.513	49.92
560.854	50.07
561.196	50.26
561.537	50.4
561.878	50.59
562.22	50.78
562.561	50.87
562.902	50.99
563.243	51.15
563.584	51.17
563.925	51.22
564.266	51.28
564.607	51.39
564.948	51.54
565.289	51.64
565.63	51.81
565.971	51.96
566.312	52.04
566.653	52.15
566.993	52.19
567.334	52.26
567.675	52.4
568.015	52.47
568.356	52.55
568.696	52.67
569.037	52.76
569.377	52.81
569.718	52.91
570.058	53
570.398	53.14
570.739	53.3
571.079	53.45
571.419	53.54
571.759	53.62
572.099	53.7
572.439	53.71
572.779	53.8
573.119	53.81
573.459	53.89
573.799	53.99
574.139	54.09
574.479	54.23
574.819	54.3
575.158	54.39
575.498	54.46
575.838	54.44
576.177	54.5
576.517	54.63
576.856	54.73
577.196	54.79
577.535	54.79
577.875	54.84
578.214	54.89
578.553	55.03
578.893	55.09
579.232	55.15
579.571	55.25
579.91	55.34
580.25	55.4
580.589	55.45
580.928	55.44
581.267	55.45
581.606	55.45
581.945	55.47
582.283	55.52
582.622	55.59
582.961	55.71
583.3	55.71
583.639	55.71
583.977	55.71
584.316	55.75
584.654	55.9
584.993	55.96
585.332	56.04
585.67	56.04
586.008	56.15
586.347	56.15
586.685	56.22
587.024	56.23
587.362	56.31
587.7	56.36
588.038	56.44
588.376	56.57
588.715	56.61
589.053	56.67
589.391	56.82
589.729	56.92
590.067	57.01
590.404	57.12
590.742	57.16
591.08	57.28
591.418	57.42
591.756	57.43
592.093	57.47
592.431	57.58
592.769	57.64
593.106	57.7
593.444	57.84
593.781	57.87
594.119	57.93
594.456	57.99
594.793	58.01
595.131	58.07
595.468	58.08
595.805	58.16
596.143	58.19
596.48	58.16
596.817	58.18
597.154	58.14
597.491	58.16
597.828	58.25
598.165	58.24
598.502	58.23
598.839	58.3
599.176	58.34
599.512	58.27
599.849	58.29
600.186	58.21
600.523	58.16
600.859	58.21
601.196	58.24
601.532	58.19
601.869	58.22
602.205	58.21
602.542	58.21
602.878	58.24
603.215	58.27
603.551	58.3
603.887	58.36
604.223	58.43
604.56	58.46
604.896	58.43
605.232	58.52
605.568	58.54
605.904	58.55
606.24	58.59
606.576	58.69
606.912	58.72
607.248	58.84
607.583	58.87
607.919	58.88
608.255	58.89
608.591	58.92
608.926	59
609.262	59.06
609.597	59.09
609.933	59.06
610.268	59.11
610.604	59.19
610.939	59.19
611.275	59.24
611.61	59.22
611.945	59.31
612.281	59.24
612.616	59.32
612.951	59.34
613.286	59.42
613.621	59.39
613.956	59.42
614.291	59.45
614.626	59.55
614.961	59.66
615.296	59.74
615.631	59.93
615.966	59.94
616.3	59.9
616.635	59.88
616.97	60.03
617.304	60
617.639	60
617.973	59.94
618.308	59.98
618.642	60.09
618.977	60.05
619.311	60.13
619.646	60.02
619.98	60.09
620.314	60.03
620.648	60.08
620.983	60.19
621.317	60.21
621.651	60.16
621.985	60.05
622.319	59.98
622.653	59.94
622.987	59.94
623.321	60.02
623.655	60.14
623.988	60.21
624.322	60.26
624.656	60.35
624.99	60.38
625.323	60.34
625.657	60.3
625.99	60.44
626.324	60.46
626.657	60.51
626.991	60.54
627.324	60.61
627.658	60.59
627.991	60.56
628.324	60.63
628.657	60.68
628.991	60.82
629.324	60.9
629.657	60.91
629.99	60.92
630.323	60.9
630.656	60.79
630.989	60.68
631.322	60.69
631.655	60.55
631.987	60.62
632.32	60.63
632.653	60.68
632.986	60.6
633.318	60.59
633.651	60.64
633.984	60.6
634.316	60.59
634.649	60.69
634.981	60.77
635.313	60.81
635.646	60.78
635.978	60.75
636.31	60.72
636.643	60.77
636.975	60.86
637.307	60.92
637.639	61
637.971	61.08
638.303	61.02
638.635	61.13
638.967	61.11
639.299	61.12
639.631	61.14
639.963	61.16
640.295	61.23
640.626	61.28
640.958	61.26
641.29	61.23
641.621	61.11
641.953	61.16
642.285	61.08
642.616	61.2
642.948	61.25
643.279	61.25
643.61	61.28
643.942	61.13
644.273	61.09
644.604	61.25
644.936	61.3
645.267	61.33
645.598	61.23
645.929	61.12
646.26	61.29
646.591	61.26
646.922	61.27
647.253	61.15
647.584	61.22
647.915	61.28
648.245	61.31
648.576	61.38
648.907	61.21
649.238	61.24
649.568	61.19
649.899	61.07
650.229	61.15
650.56	61.08
650.89	61.07
651.221	61.09
651.551	61.04
651.882	61.09
652.212	61.06
652.542	61.18
652.872	61.37
653.203	61.37
653.533	61.38
653.863	61.38
654.193	61.49
654.523	61.39
654.853	61.33
655.183	61.47
655.513	61.49
655.843	61.58
656.172	61.58
656.502	61.61
656.832	61.74
657.162	61.83
657.491	61.85
657.821	61.97
658.15	61.95
658.48	61.95
658.809	61.87
659.139	62
659.468	61.93
659.798	61.92
660.127	61.69
660.456	61.68
660.785	61.76
661.115	61.76
661.444	61.88
661.773	61.86
662.102	61.73
