Data from BU26943_Reflection_00015.txt Node
Date: Tue Nov 19 11:02:44 EST 2019
User: vgr7
Spectrometer: USB2G7710
Scans to average: 3
Trigger mode: 4
Integration Time (sec): 2.000000E-2
Electric dark correction enabled: true
Boxcar width: 10
XAxis mode: Wavelengths
Number of Pixels in Spectrum: 2048
>>>>>Begin Spectral Data<<<<<
177.721	258.37
178.105	181.97
178.488	77.96
178.871	65.96
179.254	11.11
179.636	-204.35
180.019	229.03
180.402	520
180.785	336.36
181.168	234.62
181.55	31.03
181.933	638.46
182.316	-478.95
182.698	248.15
183.081	-91.49
183.463	-181.88
183.846	-65.02
184.228	-87.73
184.611	-39.84
184.993	-18.64
185.376	4.98
185.758	-19.78
186.14	6.85
186.522	31.35
186.904	26.73
187.287	39.64
187.669	39.43
188.051	33.19
188.433	20.69
188.815	17.09
189.197	17.98
189.579	17.93
189.961	21.69
190.342	24.06
190.724	21.17
191.106	22.1
191.488	27.54
191.869	28.36
192.251	30.7
192.633	23.92
193.014	21.31
193.396	18.77
193.777	20.08
194.159	6.28
194.54	15.15
194.922	7.56
195.303	0.63
195.684	0.15
196.065	1.33
196.447	18.4
196.828	15.3
197.209	12.55
197.59	10.81
197.971	12.66
198.352	-4.2
198.733	-3.16
199.114	8.22
199.495	0.13
199.876	17
200.257	12.62
200.638	13.99
201.018	12.52
201.399	14.39
201.78	26.53
202.16	41.26
202.541	27.69
202.922	32
203.302	32.88
203.683	33.71
204.063	39.46
204.444	38.61
204.824	31.36
205.204	29.27
205.585	36.08
205.965	26.05
206.345	25.73
206.725	22.82
207.106	21.14
207.486	28.21
207.866	11.46
208.246	21.26
208.626	22.09
209.006	19.56
209.386	22.93
209.766	24.89
210.145	21.38
210.525	22.09
210.905	23.45
211.285	25.46
211.664	22.02
212.044	14.92
212.424	9.71
212.803	4.02
213.183	-2.42
213.562	-0.32
213.942	4.97
214.321	-1.29
214.701	-5.92
215.08	-5.57
215.459	-3.59
215.838	1
216.218	-11.32
216.597	-10.24
216.976	-3.99
217.355	-8.75
217.734	-20.84
218.113	-18.31
218.492	-22.51
218.871	-15.42
219.25	-28.56
219.629	-36.8
220.008	-25.32
220.387	-15.28
220.766	2.17
221.144	8.29
221.523	6.69
221.902	7.78
222.28	15.13
222.659	15.6
223.037	4.47
223.416	3.24
223.794	-1.93
224.173	-2.34
224.551	-3.34
224.929	-4.95
225.308	-2.16
225.686	-1.35
226.064	-2.36
226.442	5.44
226.821	3.64
227.199	9.59
227.577	9.94
227.955	7.63
228.333	5.14
228.711	5.39
229.089	6.36
229.467	6.18
229.845	2.85
230.222	3.27
230.6	3.74
230.978	4.71
231.356	3.87
231.733	5.93
232.111	7.88
232.488	8.56
232.866	8.07
233.243	8.6
233.621	9.52
233.998	9.54
234.376	6.35
234.753	5.82
235.13	5.56
235.508	6.1
235.885	5.65
236.262	5.81
236.639	4.89
237.016	4.37
237.393	5.53
237.77	6.43
238.147	6.52
238.524	6.85
238.901	7.19
239.278	6.16
239.655	5.76
240.032	5.53
240.409	5.2
240.785	4.47
241.162	4.49
241.539	4.27
241.915	4.08
242.292	4.2
242.668	4.53
243.045	4.68
243.421	5.07
243.798	5.13
244.174	4.94
244.551	4.82
244.927	4.54
245.303	4.2
245.679	4.18
246.056	4.1
246.432	3.87
246.808	4.02
247.184	4.4
247.56	4.34
247.936	4.2
248.312	4.5
248.688	4.67
249.064	4.37
249.44	4.31
249.815	4.46
250.191	4.52
250.567	4.44
250.943	4.34
251.318	3.96
251.694	3.89
252.069	4.06
252.445	4.18
252.82	4.49
253.196	4.83
253.571	4.69
253.947	4.91
254.322	5.08
254.697	4.68
255.073	4.34
255.448	4.25
255.823	4.25
256.198	3.92
256.573	4
256.948	4.23
257.323	4.29
257.698	4.03
258.073	3.95
258.448	3.9
258.823	3.75
259.198	3.96
259.573	3.85
259.948	3.88
260.322	3.79
260.697	3.76
261.072	3.56
261.446	3.46
261.821	3.27
262.195	3.33
262.57	3.38
262.944	3.43
263.319	3.52
263.693	3.45
264.067	3.47
264.442	3.33
264.816	3.34
265.19	3.42
265.564	3.38
265.938	3.36
266.313	3.22
266.687	3.19
267.061	2.98
267.435	3.23
267.809	2.85
268.183	2.81
268.556	2.81
268.93	3.02
269.304	3.09
269.678	3.21
270.051	3.15
270.425	3.24
270.799	3.23
271.172	3.09
271.546	3.41
271.919	3.29
272.293	3.4
272.666	3.3
273.04	3.24
273.413	3.22
273.787	3.28
274.16	3.31
274.533	3.5
274.906	3.45
275.279	3.27
275.653	3.56
276.026	3.6
276.399	3.62
276.772	3.58
277.145	3.62
277.518	3.42
277.891	3.36
278.263	3.32
278.636	3.49
279.009	3.59
279.382	3.31
279.755	3.5
280.127	3.43
280.5	3.52
280.872	3.56
281.245	3.59
281.617	3.47
281.99	3.45
282.362	3.38
282.735	3.32
283.107	3.37
283.479	3.45
283.852	3.42
284.224	3.37
284.596	3.32
284.968	3.41
285.34	3.54
285.713	3.56
286.085	3.39
286.457	3.45
286.829	3.4
287.201	3.39
287.572	3.28
287.944	3.3
288.316	3.17
288.688	3.2
289.06	3.3
289.431	3.46
289.803	3.65
290.175	3.7
290.546	3.78
290.918	3.78
291.289	3.59
291.661	3.79
292.032	3.82
292.403	3.77
292.775	3.78
293.146	3.84
293.517	3.82
293.889	4.05
294.26	3.85
294.631	4
295.002	4.06
295.373	4.29
295.744	4.33
296.115	4.44
296.486	4.43
296.857	4.55
297.228	4.5
297.599	4.31
297.97	4.26
298.34	4.35
298.711	4.49
299.082	4.57
299.452	4.4
299.823	4.49
300.194	4.54
300.564	4.57
300.935	4.67
301.305	4.72
301.676	4.59
302.046	4.63
302.416	4.6
302.787	4.67
303.157	4.48
303.527	4.57
303.897	4.56
304.267	4.65
304.637	4.56
305.008	4.54
305.378	4.77
305.748	4.88
306.117	4.84
306.487	4.73
306.857	4.84
307.227	4.99
307.597	4.95
307.967	5
308.336	4.99
308.706	4.9
309.076	4.96
309.445	5.13
309.815	5.33
310.184	5.37
310.554	5.38
310.923	5.44
311.293	5.48
311.662	5.54
312.031	5.45
312.401	5.42
312.77	5.42
313.139	5.38
313.508	5.39
313.877	5.42
314.246	5.51
314.616	5.47
314.985	5.5
315.353	5.62
315.722	5.77
316.091	5.81
316.46	5.86
316.829	5.92
317.198	6.01
317.567	5.92
317.935	5.96
318.304	6.04
318.672	6.22
319.041	6.18
319.41	6.19
319.778	6.22
320.147	6.3
320.515	6.34
320.883	6.32
321.252	6.31
321.62	6.27
321.988	6.3
322.357	6.51
322.725	6.48
323.093	6.38
323.461	6.47
323.829	6.54
324.197	6.62
324.565	6.67
324.933	6.55
325.301	6.49
325.669	6.45
326.037	6.42
326.405	6.34
326.772	6.46
327.14	6.45
327.508	6.51
327.875	6.53
328.243	6.56
328.61	6.63
328.978	6.56
329.346	6.6
329.713	6.69
330.08	6.61
330.448	6.61
330.815	6.62
331.182	6.45
331.55	6.46
331.917	6.3
332.284	6.21
332.651	6.2
333.018	6.24
333.385	6.28
333.752	6.33
334.119	6.42
334.486	6.41
334.853	6.42
335.22	6.38
335.587	6.35
335.954	6.37
336.32	6.4
336.687	6.39
337.054	6.35
337.42	6.28
337.787	6.29
338.153	6.3
338.52	6.38
338.886	6.43
339.253	6.36
339.619	6.52
339.986	6.57
340.352	6.63
340.718	6.65
341.084	6.73
341.451	6.72
341.817	6.81
342.183	6.78
342.549	6.77
342.915	6.83
343.281	6.87
343.647	6.92
344.013	6.99
344.379	7.01
344.745	7.21
345.11	7.29
345.476	7.29
345.842	7.22
346.208	7.23
346.573	7.22
346.939	7.31
347.304	7.26
347.67	7.34
348.035	7.32
348.401	7.32
348.766	7.24
349.132	7.26
349.497	7.15
349.862	7.1
350.228	7.1
350.593	7.08
350.958	7.12
351.323	7.05
351.688	6.95
352.053	6.97
352.418	6.85
352.783	6.76
353.148	6.73
353.513	6.78
353.878	6.75
354.243	6.71
354.608	6.7
354.972	6.74
355.337	6.77
355.702	6.73
356.066	6.77
356.431	6.77
356.795	6.78
357.16	6.73
357.524	6.79
357.889	6.88
358.253	6.89
358.618	6.87
358.982	6.86
359.346	6.93
359.71	6.88
360.075	6.9
360.439	6.95
360.803	6.97
361.167	6.95
361.531	6.96
361.895	6.95
362.259	6.9
362.623	6.89
362.987	6.83
363.351	6.83
363.714	6.84
364.078	6.83
364.442	6.74
364.806	6.77
365.169	6.66
365.533	6.58
365.896	6.55
366.26	6.42
366.623	6.41
366.987	6.34
367.35	6.36
367.714	6.29
368.077	6.22
368.44	6.17
368.803	6.13
369.167	5.99
369.53	5.96
369.893	5.93
370.256	5.8
370.619	5.71
370.982	5.69
371.345	5.64
371.708	5.6
372.071	5.57
372.434	5.49
372.797	5.54
373.159	5.52
373.522	5.39
373.885	5.41
374.247	5.36
374.61	5.32
374.973	5.31
375.335	5.28
375.698	5.21
376.06	5.16
376.423	5.16
376.785	5.16
377.147	5.08
377.51	5.06
377.872	5.08
378.234	5.06
378.596	5.02
378.958	4.96
379.321	4.94
379.683	5
380.045	4.95
380.407	4.88
380.769	4.81
381.13	4.81
381.492	4.81
381.854	4.79
382.216	4.79
382.578	4.73
382.939	4.74
383.301	4.74
383.663	4.72
384.024	4.69
384.386	4.7
384.747	4.66
385.109	4.61
385.47	4.61
385.832	4.55
386.193	4.53
386.554	4.48
386.916	4.44
387.277	4.34
387.638	4.36
387.999	4.39
388.36	4.34
388.721	4.35
389.082	4.34
389.443	4.33
389.804	4.26
390.165	4.23
390.526	4.18
390.887	4.15
391.248	4.11
391.609	4.08
391.969	4.04
392.33	4.04
392.691	3.99
393.051	3.95
393.412	3.98
393.772	3.97
394.133	3.94
394.493	3.93
394.854	3.92
395.214	3.87
395.574	3.81
395.935	3.83
396.295	3.81
396.655	3.75
397.015	3.74
397.376	3.75
397.736	3.71
398.096	3.69
398.456	3.61
398.816	3.59
399.176	3.53
399.535	3.5
399.895	3.53
400.255	3.53
400.615	3.55
400.975	3.5
401.334	3.45
401.694	3.45
402.054	3.42
402.413	3.42
402.773	3.43
403.132	3.41
403.492	3.42
403.851	3.39
404.211	3.38
404.57	3.35
404.929	3.29
405.288	3.32
405.648	3.34
406.007	3.38
406.366	3.4
406.725	3.44
407.084	3.46
407.443	3.44
407.802	3.42
408.161	3.4
408.52	3.41
408.879	3.42
409.238	3.41
409.596	3.42
409.955	3.41
410.314	3.41
410.673	3.4
411.031	3.37
411.39	3.37
411.748	3.37
412.107	3.35
412.465	3.39
412.824	3.37
413.182	3.34
413.54	3.32
413.899	3.32
414.257	3.3
414.615	3.24
414.974	3.24
415.332	3.24
415.69	3.23
416.048	3.24
416.406	3.21
416.764	3.23
417.122	3.23
417.48	3.21
417.838	3.19
418.195	3.19
418.553	3.21
418.911	3.19
419.269	3.18
419.626	3.18
419.984	3.16
420.342	3.14
420.699	3.13
421.057	3.13
421.414	3.13
421.772	3.12
422.129	3.12
422.486	3.11
422.844	3.09
423.201	3.08
423.558	3.07
423.915	3.06
424.273	3.06
424.63	3.06
424.987	3.04
425.344	3.04
425.701	3.04
426.058	3
426.415	3.01
426.772	3
427.128	2.99
427.485	2.99
427.842	3
428.199	3
428.555	2.99
428.912	2.96
429.269	2.95
429.625	2.97
429.982	2.97
430.338	2.98
430.695	2.99
431.051	2.97
431.407	2.97
431.764	2.94
432.12	2.92
432.476	2.94
432.832	2.94
433.189	2.94
433.545	2.96
433.901	2.96
434.257	2.96
434.613	2.96
434.969	2.93
435.325	2.94
435.681	2.93
436.036	2.93
436.392	2.94
436.748	2.94
437.104	2.93
437.459	2.91
437.815	2.92
438.171	2.92
438.526	2.92
438.882	2.93
439.237	2.93
439.593	2.95
439.948	2.93
440.304	2.91
440.659	2.9
441.014	2.89
441.369	2.89
441.725	2.89
442.08	2.9
442.435	2.92
442.79	2.91
443.145	2.89
443.5	2.9
443.855	2.9
444.21	2.91
444.565	2.91
444.92	2.93
445.275	2.93
445.629	2.94
445.984	2.93
446.339	2.93
446.693	2.94
447.048	2.91
447.403	2.92
447.757	2.93
448.112	2.94
448.466	2.93
448.82	2.91
449.175	2.91
449.529	2.92
449.883	2.89
450.238	2.91
450.592	2.91
450.946	2.9
451.3	2.92
451.654	2.88
452.008	2.87
452.362	2.86
452.716	2.85
453.07	2.85
453.424	2.85
453.778	2.84
454.132	2.83
454.486	2.84
454.839	2.82
455.193	2.82
455.547	2.81
455.9	2.82
456.254	2.84
456.607	2.83
456.961	2.82
457.314	2.83
457.668	2.81
458.021	2.81
458.375	2.82
458.728	2.79
459.081	2.8
459.434	2.79
459.787	2.81
460.141	2.8
460.494	2.81
460.847	2.8
461.2	2.81
461.553	2.82
461.906	2.81
462.259	2.81
462.611	2.8
462.964	2.82
463.317	2.81
463.67	2.81
464.022	2.82
464.375	2.83
464.728	2.83
465.08	2.83
465.433	2.83
465.785	2.82
466.138	2.85
466.49	2.88
466.843	2.9
467.195	2.9
467.547	2.91
467.899	2.9
468.252	2.94
468.604	2.92
468.956	2.94
469.308	2.94
469.66	2.98
470.012	2.99
470.364	2.98
470.716	3
471.068	3.02
471.42	3.04
471.772	3.05
472.123	3.05
472.475	3.08
472.827	3.11
473.178	3.11
473.53	3.12
473.882	3.11
474.233	3.1
474.585	3.1
474.936	3.12
475.288	3.12
475.639	3.11
475.99	3.11
476.342	3.15
476.693	3.15
477.044	3.11
477.395	3.12
477.746	3.12
478.097	3.11
478.448	3.09
478.8	3.07
479.15	3.04
479.501	3.04
479.852	3.02
480.203	3.02
480.554	3.02
480.905	3.01
481.255	3
481.606	3.02
481.957	3.02
482.307	3.01
482.658	3.02
483.009	3.01
483.359	3.02
483.709	3.01
484.06	3.01
484.41	3.02
484.761	3.02
485.111	3.02
485.461	3.02
485.811	3.03
486.162	3.03
486.512	3.04
486.862	3.04
487.212	3.05
487.562	3.04
487.912	3.03
488.262	3.03
488.612	3.04
488.961	3.03
489.311	3.04
489.661	3.04
490.011	3.04
490.36	3.03
490.71	3.03
491.06	3.02
491.409	3.01
491.759	3.02
492.108	3.02
492.458	3.02
492.807	3.02
493.157	3.03
493.506	3.03
493.855	3.02
494.204	3.03
494.554	3.03
494.903	3.04
495.252	3.05
495.601	3.08
495.95	3.07
496.299	3.08
496.648	3.09
496.997	3.09
497.346	3.09
497.695	3.13
498.043	3.15
498.392	3.18
498.741	3.21
499.09	3.21
499.438	3.24
499.787	3.27
500.135	3.29
500.484	3.31
500.832	3.34
501.181	3.39
501.529	3.42
501.878	3.47
502.226	3.5
502.574	3.52
502.923	3.55
503.271	3.6
503.619	3.64
503.967	3.68
504.315	3.73
504.663	3.78
505.011	3.8
505.359	3.84
505.707	3.89
506.055	3.93
506.403	4.01
506.751	4.07
507.098	4.12
507.446	4.17
507.794	4.23
508.141	4.3
508.489	4.37
508.837	4.43
509.184	4.51
509.531	4.58
509.879	4.66
510.226	4.74
510.574	4.81
510.921	4.86
511.268	4.96
511.616	5.07
511.963	5.17
512.31	5.26
512.657	5.34
513.004	5.43
513.351	5.55
513.698	5.65
514.045	5.74
514.392	5.87
514.739	5.98
515.086	6.1
515.432	6.2
515.779	6.3
516.126	6.42
516.473	6.52
516.819	6.63
517.166	6.75
517.512	6.83
517.859	6.96
518.205	7.06
518.552	7.13
518.898	7.2
519.245	7.3
519.591	7.4
519.937	7.52
520.283	7.64
520.629	7.73
520.976	7.86
521.322	8
521.668	8.1
522.014	8.23
522.36	8.37
522.706	8.51
523.052	8.68
523.398	8.83
523.743	9
524.089	9.18
524.435	9.33
524.781	9.51
525.126	9.67
525.472	9.83
525.817	9.98
526.163	10.12
526.509	10.23
526.854	10.35
527.199	10.46
527.545	10.58
527.89	10.69
528.235	10.8
528.581	10.93
528.926	11.05
529.271	11.17
529.616	11.31
529.961	11.44
530.306	11.55
530.651	11.68
530.996	11.83
531.341	11.99
531.686	12.16
532.031	12.33
532.376	12.49
532.721	12.67
533.065	12.84
533.41	13.03
533.755	13.23
534.099	13.43
534.444	13.63
534.788	13.83
535.133	14.04
535.477	14.25
535.822	14.45
536.166	14.7
536.51	14.97
536.855	15.21
537.199	15.47
537.543	15.79
537.887	16.1
538.231	16.37
538.576	16.69
538.92	16.97
539.264	17.22
539.608	17.49
539.951	17.76
540.295	18.01
540.639	18.25
540.983	18.47
541.327	18.69
541.671	18.92
542.014	19.13
542.358	19.36
542.701	19.6
543.045	19.85
543.389	20.09
543.732	20.31
544.075	20.56
544.419	20.83
544.762	21.07
545.105	21.36
545.449	21.63
545.792	21.88
546.135	22.17
546.478	22.52
546.821	22.85
547.165	23.18
547.508	23.51
547.851	23.87
548.194	24.22
548.536	24.57
548.879	24.9
549.222	25.31
549.565	25.62
549.908	25.92
550.25	26.24
550.593	26.59
550.936	26.92
551.278	27.3
551.621	27.61
551.963	27.96
552.306	28.3
552.648	28.65
552.991	28.99
553.333	29.28
553.675	29.56
554.017	29.83
554.36	30.14
554.702	30.45
555.044	30.71
555.386	31.01
555.728	31.32
556.07	31.65
556.412	31.97
556.754	32.26
557.096	32.58
557.438	32.88
557.78	33.2
558.121	33.57
558.463	33.81
558.805	34.14
559.147	34.43
559.488	34.65
559.83	34.92
560.171	35.18
560.513	35.45
560.854	35.75
561.196	36.06
561.537	36.35
561.878	36.6
562.22	36.9
562.561	37.15
562.902	37.39
563.243	37.63
563.584	37.84
563.925	38.13
564.266	38.4
564.607	38.63
564.948	38.82
565.289	38.96
565.63	39.19
565.971	39.38
566.312	39.56
566.653	39.82
566.993	40
567.334	40.18
567.675	40.4
568.015	40.59
568.356	40.77
568.696	40.91
569.037	41.1
569.377	41.32
569.718	41.49
570.058	41.73
570.398	41.9
570.739	42.08
571.079	42.26
571.419	42.37
571.759	42.54
572.099	42.7
572.439	42.85
572.779	43
573.119	43.18
573.459	43.35
573.799	43.48
574.139	43.68
574.479	43.89
574.819	44.02
575.158	44.15
575.498	44.3
575.838	44.43
576.177	44.57
576.517	44.69
576.856	44.85
577.196	45.01
577.535	45.15
577.875	45.29
578.214	45.37
578.553	45.57
578.893	45.73
579.232	45.87
579.571	46.09
579.91	46.22
580.25	46.38
580.589	46.53
580.928	46.65
581.267	46.69
581.606	46.8
581.945	46.93
582.283	47.06
582.622	47.19
582.961	47.34
583.3	47.53
583.639	47.65
583.977	47.73
584.316	47.76
584.654	47.81
584.993	47.88
585.332	48.03
585.67	48.11
586.008	48.24
586.347	48.36
586.685	48.47
587.024	48.65
587.362	48.7
587.7	48.79
588.038	48.92
588.376	49.1
588.715	49.2
589.053	49.31
589.391	49.44
589.729	49.5
590.067	49.6
590.404	49.7
590.742	49.79
591.08	49.89
591.418	50.06
591.756	50.26
592.093	50.35
592.431	50.52
592.769	50.67
593.106	50.76
593.444	50.87
593.781	50.95
594.119	51
594.456	51.16
594.793	51.29
595.131	51.37
595.468	51.45
595.805	51.53
596.143	51.6
596.48	51.69
596.817	51.78
597.154	51.87
597.491	51.87
597.828	51.97
598.165	52.08
598.502	52.09
598.839	52.13
599.176	52.24
599.512	52.28
599.849	52.3
600.186	52.35
600.523	52.43
600.859	52.5
601.196	52.6
601.532	52.65
601.869	52.74
602.205	52.8
602.542	52.86
602.878	52.9
603.215	52.91
603.551	52.92
603.887	52.99
604.223	53.08
604.56	53.13
604.896	53.23
605.232	53.27
605.568	53.34
605.904	53.43
606.24	53.53
606.576	53.53
606.912	53.54
607.248	53.61
607.583	53.73
607.919	53.81
608.255	53.8
608.591	53.85
608.926	53.85
609.262	53.95
609.597	54.04
609.933	54.11
610.268	54.2
610.604	54.21
610.939	54.24
611.275	54.28
611.61	54.33
611.945	54.29
612.281	54.4
612.616	54.5
612.951	54.49
613.286	54.56
613.621	54.65
613.956	54.82
614.291	54.85
614.626	54.88
614.961	54.82
615.296	54.87
615.631	54.87
615.966	54.95
616.3	54.94
616.635	54.92
616.97	55.06
617.304	55.09
617.639	55.22
617.973	55.22
618.308	55.18
618.642	55.23
618.977	55.26
619.311	55.11
619.646	55.12
619.98	55.2
620.314	55.2
620.648	55.26
620.983	55.21
621.317	55.26
621.651	55.21
621.985	55.3
622.319	55.31
622.653	55.31
622.987	55.34
623.321	55.36
623.655	55.46
623.988	55.37
624.322	55.48
624.656	55.5
624.99	55.55
625.323	55.66
625.657	55.7
625.99	55.77
626.324	55.97
626.657	55.97
626.991	55.98
627.324	55.99
627.658	55.99
627.991	56.08
628.324	56.1
628.657	56.13
628.991	56.18
629.324	56.31
629.657	56.37
629.99	56.38
630.323	56.45
630.656	56.44
630.989	56.54
631.322	56.53
631.655	56.6
631.987	56.6
632.32	56.57
632.653	56.55
632.986	56.62
633.318	56.55
633.651	56.61
633.984	56.66
634.316	56.71
634.649	56.81
634.981	56.9
635.313	56.98
635.646	57.05
635.978	57.13
636.31	57.12
636.643	57.16
636.975	57.18
637.307	57.2
637.639	57.17
637.971	57.09
638.303	57.11
638.635	57.14
638.967	57.25
639.299	57.31
639.631	57.37
639.963	57.38
640.295	57.49
640.626	57.68
640.958	57.55
641.29	57.6
641.621	57.58
641.953	57.47
642.285	57.39
642.616	57.4
642.948	57.41
643.279	57.45
643.61	57.42
643.942	57.4
644.273	57.37
644.604	57.49
644.936	57.51
645.267	57.54
645.598	57.5
645.929	57.47
646.26	57.5
646.591	57.57
646.922	57.64
647.253	57.63
647.584	57.48
647.915	57.55
648.245	57.57
648.576	57.63
648.907	57.72
649.238	57.87
649.568	57.99
649.899	57.89
650.229	57.98
650.56	58.09
650.89	58.21
651.221	58.31
651.551	58.38
651.882	58.55
652.212	58.66
652.542	58.8
652.872	58.86
653.203	58.9
653.533	58.96
653.863	58.85
654.193	58.86
654.523	58.93
654.853	58.92
655.183	58.98
655.513	59
655.843	58.98
656.172	58.95
656.502	58.85
656.832	59.16
657.162	59.11
657.491	59.14
657.821	59.13
658.15	59.1
658.48	59.15
658.809	59.12
659.139	59.1
659.468	59.09
659.798	59.12
660.127	59.03
660.456	58.95
660.785	59.09
661.115	59.06
661.444	59.07
661.773	59.33
662.102	59.31
662.431	59.26
662.76	59.23
663.089	59.37
663.418	59.41
663.747	59.29
664.076	59.32
664.404	59.21
664.733	59.43
665.062	59.39
665.39	59.28
665.719	59.22
666.048	59.17
666.376	58.99
666.705	58.93
667.033	59.03
667.362	59.06
667.69	59.05
668.018	59.17
668.347	59.19
668.675	58.99
669.003	59.11
669.331	59.17
669.659	59.19
669.987	59.11
670.315	59.13
670.643	59.12
670.971	59.17
