Data from BU26847_Reflection_00001.txt Node
Date: Mon Nov 18 16:40:42 EST 2019
User: vgr7
Spectrometer: USB2G7710
Scans to average: 3
Trigger mode: 4
Integration Time (sec): 2.000000E-2
Electric dark correction enabled: true
Boxcar width: 10
XAxis mode: Wavelengths
Number of Pixels in Spectrum: 2048
>>>>>Begin Spectral Data<<<<<
177.721	-36.35
178.105	-148.59
178.488	-2449.02
178.871	-215.32
179.254	441.09
179.636	-11.87
180.019	231.36
180.402	-0
180.785	604.07
181.168	-97.92
181.55	-930.3
181.933	66.06
182.316	27.11
182.698	-40.35
183.081	-22.12
183.463	-39.02
183.846	31.17
184.228	-31.26
184.611	-287.88
184.993	-6344.44
185.376	-51.3
185.758	3877.78
186.14	68.99
186.522	-353.9
186.904	290.48
187.287	328.86
187.669	103.08
188.051	134.7
188.433	120.31
188.815	98.73
189.197	48.5
189.579	49.26
189.961	53.78
190.342	39.21
190.724	29.82
191.106	5.11
191.488	8.23
191.869	1.44
192.251	-46.15
192.633	-79.17
193.014	-60.67
193.396	-26.01
193.777	-45.7
194.159	-29.14
194.54	-29.52
194.922	-40.51
195.303	-54.33
195.684	-82.6
196.065	-74
196.447	-58.35
196.828	-76.29
197.209	-50.22
197.59	-98.28
197.971	-112.02
198.352	-60.79
198.733	-56.14
199.114	-15.8
199.495	-26.02
199.876	1.19
200.257	7.87
200.638	46.47
201.018	-1.1
201.399	-14.57
201.78	-5.75
202.16	-51.25
202.541	-129.99
202.922	-1097.28
203.302	-1785.06
203.683	231.63
204.063	108.41
204.444	102.37
204.824	87.79
205.204	147.41
205.585	119.36
205.965	37.41
206.345	55.44
206.725	80.76
207.106	120.3
207.486	94.16
207.866	90.11
208.246	115.01
208.626	300.41
209.006	122.6
209.386	157.44
209.766	236.28
210.145	158.29
210.525	178.08
210.905	-120.81
211.285	-141.44
211.664	-121.06
212.044	-118.47
212.424	-108.98
212.803	-204.61
213.183	-152.78
213.562	-97.68
213.942	-105.73
214.321	-117.03
214.701	-155.3
215.08	-158.55
215.459	-78.72
215.838	-71.96
216.218	-94.98
216.597	-90.96
216.976	-27.52
217.355	3.67
217.734	-3.72
218.113	22.76
218.492	43.48
218.871	31.9
219.25	8.9
219.629	31.85
220.008	44.18
220.387	24.78
220.766	39.11
221.144	47.21
221.523	40.1
221.902	36.65
222.28	30.93
222.659	41.74
223.037	45.28
223.416	23.1
223.794	16.48
224.173	7.03
224.551	1.13
224.929	-12.58
225.308	-8.98
225.686	-0.06
226.064	-2.55
226.442	-4.86
226.821	2.13
227.199	7.58
227.577	1.05
227.955	-1.91
228.333	0.22
228.711	1
229.089	6.76
229.467	3.79
229.845	4.89
230.222	6.17
230.6	6.54
230.978	3.23
231.356	5.29
231.733	5.05
232.111	6.21
232.488	7.02
232.866	8.61
233.243	8.77
233.621	6.24
233.998	7.5
234.376	6.09
234.753	3.71
235.13	4.57
235.508	5.08
235.885	5.52
236.262	4.93
236.639	4.36
237.016	2.89
237.393	4.39
237.77	3.31
238.147	3.23
238.524	3.44
238.901	4.46
239.278	5.21
239.655	5.32
240.032	5.19
240.409	5.58
240.785	4.88
241.162	4.39
241.539	4.93
241.915	4.19
242.292	4.43
242.668	4.84
243.045	4.84
243.421	5.07
243.798	4.98
244.174	5.36
244.551	5.49
244.927	5.49
245.303	5.56
245.679	5.89
246.056	6.16
246.432	6.1
246.808	6.34
247.184	6.03
247.56	6.3
247.936	6.25
248.312	6.08
248.688	5.97
249.064	5.87
249.44	5.61
249.815	5.71
250.191	5.94
250.567	5.88
250.943	5.8
251.318	5.86
251.694	5.91
252.069	5.86
252.445	5.79
252.82	5.79
253.196	5.65
253.571	5.67
253.947	5.3
254.322	5.32
254.697	4.96
255.073	5.29
255.448	4.88
255.823	5.27
256.198	5.39
256.573	5.49
256.948	5.69
257.323	5.77
257.698	5.75
258.073	5.52
258.448	5.33
258.823	5.29
259.198	5.06
259.573	5.06
259.948	4.88
260.322	4.92
260.697	4.8
261.072	4.77
261.446	4.75
261.821	4.67
262.195	4.73
262.57	4.55
262.944	4.4
263.319	4.61
263.693	4.37
264.067	4.32
264.442	4.35
264.816	4.23
265.19	4.32
265.564	4.32
265.938	4.34
266.313	4.63
266.687	4.51
267.061	4.54
267.435	4.52
267.809	4.65
268.183	4.67
268.556	4.69
268.93	4.82
269.304	4.77
269.678	4.86
270.051	4.71
270.425	4.86
270.799	5.07
271.172	4.87
271.546	4.8
271.919	4.93
272.293	4.91
272.666	4.9
273.04	4.73
273.413	4.69
273.787	4.73
274.16	4.68
274.533	4.82
274.906	4.91
275.279	4.87
275.653	4.91
276.026	4.93
276.399	5.02
276.772	4.96
277.145	4.76
277.518	4.8
277.891	4.74
278.263	4.76
278.636	4.66
279.009	4.86
279.382	4.95
279.755	4.6
280.127	4.7
280.5	4.74
280.872	4.96
281.245	5.01
281.617	4.98
281.99	4.97
282.362	5.05
282.735	5.05
283.107	5.04
283.479	4.97
283.852	4.9
284.224	4.79
284.596	4.84
284.968	4.97
285.34	5.01
285.713	5.02
286.085	5.13
286.457	5.2
286.829	5.14
287.201	5.18
287.572	5.34
287.944	5.27
288.316	5.36
288.688	5.21
289.06	5.09
289.431	5.09
289.803	5.1
290.175	5.08
290.546	5.1
290.918	5.18
291.289	5.2
291.661	5.21
292.032	5.28
292.403	5.27
292.775	5.22
293.146	5.23
293.517	5.31
293.889	5.21
294.26	5.14
294.631	5.09
295.002	5.07
295.373	5.16
295.744	5.15
296.115	5.07
296.486	4.94
296.857	5.02
297.228	5.13
297.599	5.16
297.97	5.14
298.34	5.19
298.711	5.26
299.082	5.37
299.452	5.36
299.823	5.43
300.194	5.4
300.564	5.24
300.935	5.22
301.305	5.31
301.676	5.4
302.046	5.39
302.416	5.55
302.787	5.57
303.157	5.4
303.527	5.31
303.897	5.36
304.267	5.71
304.637	5.72
305.008	5.72
305.378	5.8
305.748	5.72
306.117	5.49
306.487	5.43
306.857	5.3
307.227	5.53
307.597	5.49
307.967	5.51
308.336	5.77
308.706	5.85
309.076	5.79
309.445	5.7
309.815	5.61
310.184	5.49
310.554	5.41
310.923	5.46
311.293	5.56
311.662	5.53
312.031	5.47
312.401	5.5
312.77	5.5
313.139	5.38
313.508	5.52
313.877	5.69
314.246	5.75
314.616	5.79
314.985	5.77
315.353	5.83
315.722	5.86
316.091	5.82
316.46	5.74
316.829	5.73
317.198	5.81
317.567	5.83
317.935	5.89
318.304	6.01
318.672	5.96
319.041	6
319.41	5.86
319.778	5.74
320.147	5.63
320.515	5.55
320.883	5.44
321.252	5.4
321.62	5.24
321.988	5.18
322.357	5.21
322.725	5.12
323.093	5
323.461	4.99
323.829	4.97
324.197	5.03
324.565	5
324.933	5
325.301	5.03
325.669	4.92
326.037	4.95
326.405	5.04
326.772	4.99
327.14	5.06
327.508	5.16
327.875	5.14
328.243	5.14
328.61	5.13
328.978	5.17
329.346	5.25
329.713	5.19
330.08	5.18
330.448	5.08
330.815	4.98
331.182	5.08
331.55	5.16
331.917	5.14
332.284	5.12
332.651	5.06
333.018	5.12
333.385	5.17
333.752	5.21
334.119	5.24
334.486	5.19
334.853	5.17
335.22	5.19
335.587	5.43
335.954	5.43
336.32	5.61
336.687	5.62
337.054	5.63
337.42	5.63
337.787	5.64
338.153	5.73
338.52	5.82
338.886	5.77
339.253	5.68
339.619	5.55
339.986	5.64
340.352	5.8
340.718	5.81
341.084	5.84
341.451	5.81
341.817	5.85
342.183	5.82
342.549	5.78
342.915	5.77
343.281	5.59
343.647	5.59
344.013	5.56
344.379	5.38
344.745	5.48
345.11	5.42
345.476	5.43
345.842	5.34
346.208	5.35
346.573	5.34
346.939	5.43
347.304	5.43
347.67	5.37
348.035	5.27
348.401	5.31
348.766	5.31
349.132	5.32
349.497	5.21
349.862	5.36
350.228	5.49
350.593	5.36
350.958	5.51
351.323	5.48
351.688	5.43
352.053	5.61
352.418	5.6
352.783	5.61
353.148	5.5
353.513	5.53
353.878	5.56
354.243	5.54
354.608	5.48
354.972	5.58
355.337	5.6
355.702	5.58
356.066	5.61
356.431	5.52
356.795	5.39
357.16	5.48
357.524	5.37
357.889	5.32
358.253	5.44
358.618	5.48
358.982	5.45
359.346	5.46
359.71	5.45
360.075	5.4
360.439	5.48
360.803	5.57
361.167	5.51
361.531	5.49
361.895	5.45
362.259	5.5
362.623	5.49
362.987	5.53
363.351	5.57
363.714	5.54
364.078	5.59
364.442	5.63
364.806	5.57
365.169	5.61
365.533	5.61
365.896	5.59
366.26	5.55
366.623	5.54
366.987	5.52
367.35	5.47
367.714	5.46
368.077	5.41
368.44	5.41
368.803	5.45
369.167	5.48
369.53	5.47
369.893	5.38
370.256	5.46
370.619	5.46
370.982	5.46
371.345	5.42
371.708	5.47
372.071	5.47
372.434	5.5
372.797	5.51
373.159	5.46
373.522	5.43
373.885	5.39
374.247	5.39
374.61	5.47
374.973	5.48
375.335	5.48
375.698	5.55
376.06	5.5
376.423	5.55
376.785	5.6
377.147	5.64
377.51	5.67
377.872	5.65
378.234	5.6
378.596	5.58
378.958	5.57
379.321	5.5
379.683	5.52
380.045	5.51
380.407	5.46
380.769	5.5
381.13	5.49
381.492	5.46
381.854	5.49
382.216	5.44
382.578	5.46
382.939	5.51
383.301	5.45
383.663	5.45
384.024	5.47
384.386	5.44
384.747	5.42
385.109	5.47
385.47	5.41
385.832	5.39
386.193	5.4
386.554	5.41
386.916	5.38
387.277	5.4
387.638	5.35
387.999	5.36
388.36	5.43
388.721	5.43
389.082	5.43
389.443	5.39
389.804	5.38
390.165	5.34
390.526	5.34
390.887	5.32
391.248	5.35
391.609	5.35
391.969	5.34
392.33	5.35
392.691	5.29
393.051	5.32
393.412	5.36
393.772	5.35
394.133	5.33
394.493	5.42
394.854	5.43
395.214	5.47
395.574	5.53
395.935	5.48
396.295	5.52
396.655	5.51
397.015	5.55
397.376	5.55
397.736	5.57
398.096	5.57
398.456	5.6
398.816	5.6
399.176	5.54
399.535	5.55
399.895	5.54
400.255	5.54
400.615	5.53
400.975	5.54
401.334	5.55
401.694	5.59
402.054	5.55
402.413	5.54
402.773	5.53
403.132	5.48
403.492	5.5
403.851	5.47
404.211	5.47
404.57	5.45
404.929	5.5
405.288	5.51
405.648	5.47
406.007	5.46
406.366	5.47
406.725	5.52
407.084	5.51
407.443	5.53
407.802	5.56
408.161	5.57
408.52	5.53
408.879	5.5
409.238	5.49
409.596	5.46
409.955	5.45
410.314	5.46
410.673	5.48
411.031	5.47
411.39	5.47
411.748	5.5
412.107	5.55
412.465	5.53
412.824	5.51
413.182	5.53
413.54	5.55
413.899	5.54
414.257	5.51
414.615	5.5
414.974	5.5
415.332	5.5
415.69	5.46
416.048	5.48
416.406	5.49
416.764	5.46
417.122	5.49
417.48	5.49
417.838	5.5
418.195	5.5
418.553	5.49
418.911	5.49
419.269	5.49
419.626	5.48
419.984	5.45
420.342	5.44
420.699	5.44
421.057	5.44
421.414	5.43
421.772	5.43
422.129	5.43
422.486	5.42
422.844	5.42
423.201	5.42
423.558	5.42
423.915	5.42
424.273	5.43
424.63	5.42
424.987	5.41
425.344	5.41
425.701	5.39
426.058	5.42
426.415	5.4
426.772	5.37
427.128	5.35
427.485	5.39
427.842	5.4
428.199	5.4
428.555	5.37
428.912	5.38
429.269	5.4
429.625	5.4
429.982	5.39
430.338	5.39
430.695	5.41
431.051	5.44
431.407	5.43
431.764	5.45
432.12	5.47
432.476	5.48
432.832	5.48
433.189	5.49
433.545	5.47
433.901	5.48
434.257	5.49
434.613	5.51
434.969	5.49
435.325	5.51
435.681	5.53
436.036	5.54
436.392	5.54
436.748	5.53
437.104	5.53
437.459	5.51
437.815	5.51
438.171	5.5
438.526	5.49
438.882	5.51
439.237	5.48
439.593	5.48
439.948	5.49
440.304	5.49
440.659	5.49
441.014	5.49
441.369	5.5
441.725	5.51
442.08	5.51
442.435	5.52
442.79	5.5
443.145	5.5
443.5	5.5
443.855	5.49
444.21	5.5
444.565	5.49
444.92	5.52
445.275	5.52
445.629	5.53
445.984	5.52
446.339	5.5
446.693	5.5
447.048	5.49
447.403	5.49
447.757	5.47
448.112	5.47
448.466	5.48
448.82	5.48
449.175	5.48
449.529	5.46
449.883	5.46
450.238	5.47
450.592	5.47
450.946	5.47
451.3	5.47
451.654	5.48
452.008	5.51
452.362	5.49
452.716	5.5
453.07	5.5
453.424	5.51
453.778	5.53
454.132	5.55
454.486	5.53
454.839	5.53
455.193	5.55
455.547	5.55
455.9	5.54
456.254	5.54
456.607	5.53
456.961	5.54
457.314	5.53
457.668	5.54
458.021	5.53
458.375	5.56
458.728	5.55
459.081	5.56
459.434	5.56
459.787	5.57
460.141	5.58
460.494	5.59
460.847	5.6
461.2	5.58
461.553	5.59
461.906	5.61
462.259	5.6
462.611	5.6
462.964	5.6
463.317	5.6
463.67	5.62
464.022	5.6
464.375	5.61
464.728	5.62
465.08	5.63
465.433	5.64
465.785	5.61
466.138	5.62
466.49	5.62
466.843	5.62
467.195	5.62
467.547	5.61
467.899	5.6
468.252	5.58
468.604	5.62
468.956	5.61
469.308	5.62
469.66	5.62
470.012	5.63
470.364	5.67
470.716	5.68
471.068	5.69
471.42	5.72
471.772	5.74
472.123	5.74
472.475	5.72
472.827	5.74
473.178	5.75
473.53	5.74
473.882	5.74
474.233	5.73
474.585	5.71
474.936	5.71
475.288	5.71
475.639	5.71
475.99	5.7
476.342	5.71
476.693	5.72
477.044	5.75
477.395	5.75
477.746	5.72
478.097	5.72
478.448	5.73
478.8	5.72
479.15	5.69
479.501	5.68
479.852	5.69
480.203	5.67
480.554	5.67
480.905	5.7
481.255	5.72
481.606	5.73
481.957	5.73
482.307	5.73
482.658	5.74
483.009	5.76
483.359	5.77
483.709	5.77
484.06	5.78
484.41	5.78
484.761	5.79
485.111	5.79
485.461	5.79
485.811	5.78
486.162	5.79
486.512	5.81
486.862	5.82
487.212	5.82
487.562	5.85
487.912	5.86
488.262	5.86
488.612	5.85
488.961	5.86
489.311	5.87
489.661	5.87
490.011	5.86
490.36	5.85
490.71	5.85
491.06	5.84
491.409	5.83
491.759	5.82
492.108	5.82
492.458	5.83
492.807	5.83
493.157	5.84
493.506	5.85
493.855	5.86
494.204	5.86
494.554	5.87
494.903	5.83
495.252	5.82
495.601	5.83
495.95	5.84
496.299	5.83
496.648	5.84
496.997	5.86
497.346	5.88
497.695	5.92
498.043	5.93
498.392	5.92
498.741	5.93
499.09	5.93
499.438	5.93
499.787	5.92
500.135	5.94
500.484	5.96
500.832	5.96
501.181	5.95
501.529	5.95
501.878	5.96
502.226	5.99
502.574	5.98
502.923	5.99
503.271	5.98
503.619	5.99
503.967	6
504.315	6
504.663	5.99
505.011	5.98
505.359	5.98
505.707	6.02
506.055	6.04
506.403	6.06
506.751	6.09
507.098	6.1
507.446	6.09
507.794	6.09
508.141	6.1
508.489	6.1
508.837	6.12
509.184	6.13
509.531	6.14
509.879	6.17
510.226	6.16
510.574	6.17
510.921	6.18
511.268	6.18
511.616	6.18
511.963	6.21
512.31	6.22
512.657	6.23
513.004	6.22
513.351	6.22
513.698	6.23
514.045	6.22
514.392	6.23
514.739	6.23
515.086	6.25
515.432	6.23
515.779	6.24
516.126	6.24
516.473	6.24
516.819	6.25
517.166	6.26
517.512	6.28
517.859	6.27
518.205	6.3
518.552	6.32
518.898	6.31
519.245	6.31
519.591	6.29
519.937	6.28
520.283	6.28
520.629	6.29
520.976	6.28
521.322	6.3
521.668	6.29
522.014	6.29
522.36	6.27
522.706	6.28
523.052	6.3
523.398	6.29
523.743	6.3
524.089	6.29
524.435	6.28
524.781	6.29
525.126	6.3
525.472	6.29
525.817	6.29
526.163	6.31
526.509	6.31
526.854	6.32
527.199	6.35
527.545	6.36
527.89	6.38
528.235	6.38
528.581	6.38
528.926	6.38
529.271	6.39
529.616	6.39
529.961	6.4
530.306	6.39
530.651	6.39
530.996	6.39
531.341	6.39
531.686	6.4
532.031	6.4
532.376	6.39
532.721	6.39
533.065	6.39
533.41	6.39
533.755	6.39
534.099	6.39
534.444	6.37
534.788	6.37
535.133	6.37
535.477	6.37
535.822	6.39
536.166	6.4
536.51	6.4
536.855	6.4
537.199	6.42
537.543	6.44
537.887	6.44
538.231	6.43
538.576	6.44
538.92	6.47
539.264	6.46
539.608	6.47
539.951	6.48
540.295	6.49
540.639	6.5
540.983	6.5
541.327	6.5
541.671	6.52
542.014	6.52
542.358	6.52
542.701	6.52
543.045	6.51
543.389	6.52
543.732	6.52
544.075	6.52
544.419	6.51
544.762	6.51
545.105	6.51
545.449	6.54
545.792	6.54
546.135	6.53
546.478	6.56
546.821	6.57
547.165	6.57
547.508	6.59
547.851	6.6
548.194	6.6
548.536	6.59
548.879	6.59
549.222	6.6
549.565	6.61
549.908	6.61
550.25	6.62
550.593	6.62
550.936	6.62
551.278	6.65
551.621	6.67
551.963	6.68
552.306	6.7
552.648	6.66
552.991	6.68
553.333	6.69
553.675	6.67
554.017	6.67
554.36	6.65
554.702	6.67
555.044	6.68
555.386	6.72
555.728	6.76
556.07	6.74
556.412	6.7
556.754	6.73
557.096	6.72
557.438	6.73
557.78	6.73
558.121	6.74
558.463	6.68
558.805	6.68
559.147	6.69
559.488	6.67
559.83	6.71
560.171	6.69
560.513	6.72
560.854	6.75
561.196	6.74
561.537	6.77
561.878	6.74
562.22	6.73
562.561	6.73
562.902	6.72
563.243	6.72
563.584	6.77
563.925	6.74
564.266	6.75
564.607	6.77
564.948	6.78
565.289	6.78
565.63	6.84
565.971	6.82
566.312	6.84
566.653	6.86
566.993	6.85
567.334	6.86
567.675	6.86
568.015	6.84
568.356	6.83
568.696	6.85
569.037	6.82
569.377	6.84
569.718	6.82
570.058	6.81
570.398	6.81
570.739	6.82
571.079	6.82
571.419	6.83
571.759	6.84
572.099	6.84
572.439	6.86
572.779	6.86
573.119	6.88
573.459	6.89
573.799	6.91
574.139	6.94
574.479	6.93
574.819	6.88
575.158	6.87
575.498	6.89
575.838	6.87
576.177	6.9
576.517	6.87
576.856	6.86
577.196	6.85
577.535	6.87
577.875	6.86
578.214	6.89
578.553	6.92
578.893	6.91
579.232	6.9
579.571	6.89
579.91	6.88
580.25	6.88
580.589	6.87
580.928	6.88
581.267	6.87
581.606	6.89
581.945	6.95
582.283	6.96
582.622	6.99
582.961	7.04
583.3	7.04
583.639	7.09
583.977	7.13
584.316	7.15
584.654	7.1
584.993	7.07
585.332	7.08
585.67	7.04
586.008	7.05
586.347	7.05
586.685	7.06
587.024	7.07
587.362	7.07
587.7	7.03
588.038	6.98
588.376	6.98
588.715	6.97
589.053	6.97
589.391	6.99
589.729	7.02
590.067	7.01
590.404	7.04
590.742	7.04
591.08	7.02
591.418	7.02
591.756	7.03
592.093	7.09
592.431	7.07
592.769	7.07
593.106	7.07
593.444	7.08
593.781	7.07
594.119	7.07
594.456	7.05
594.793	7.1
595.131	7.08
595.468	7.11
595.805	7.12
596.143	7.15
596.48	7.14
596.817	7.12
597.154	7.13
597.491	7.14
597.828	7.14
598.165	7.16
598.502	7.18
598.839	7.18
599.176	7.19
599.512	7.21
599.849	7.21
600.186	7.26
600.523	7.3
600.859	7.36
601.196	7.36
601.532	7.38
601.869	7.33
602.205	7.37
602.542	7.31
602.878	7.29
603.215	7.26
603.551	7.26
603.887	7.26
604.223	7.24
604.56	7.21
604.896	7.22
605.232	7.24
605.568	7.25
605.904	7.25
606.24	7.22
606.576	7.22
606.912	7.23
607.248	7.18
607.583	7.16
607.919	7.07
608.255	7.08
608.591	7.07
608.926	7.13
609.262	7.17
609.597	7.25
609.933	7.26
610.268	7.27
610.604	7.31
610.939	7.31
611.275	7.3
611.61	7.31
611.945	7.25
612.281	7.23
612.616	7.22
612.951	7.24
613.286	7.26
613.621	7.25
613.956	7.26
614.291	7.28
614.626	7.31
614.961	7.41
615.296	7.37
615.631	7.4
615.966	7.37
616.3	7.34
616.635	7.24
616.97	7.27
617.304	7.29
617.639	7.28
617.973	7.29
618.308	7.28
618.642	7.29
618.977	7.32
619.311	7.28
619.646	7.31
619.98	7.32
620.314	7.32
620.648	7.34
620.983	7.35
621.317	7.34
621.651	7.37
621.985	7.32
622.319	7.38
622.653	7.42
622.987	7.46
623.321	7.42
623.655	7.52
623.988	7.58
624.322	7.59
624.656	7.59
624.99	7.61
625.323	7.63
625.657	7.65
625.99	7.67
626.324	7.75
626.657	7.74
626.991	7.78
627.324	7.79
627.658	7.8
627.991	7.82
628.324	7.86
628.657	7.83
628.991	7.87
629.324	7.87
629.657	7.88
629.99	7.87
630.323	7.95
630.656	7.94
630.989	7.92
631.322	7.96
631.655	7.94
631.987	7.95
632.32	7.96
632.653	7.93
632.986	7.87
633.318	7.84
633.651	7.83
633.984	7.8
634.316	7.81
634.649	7.8
634.981	7.8
635.313	7.78
635.646	7.82
635.978	7.81
636.31	7.76
636.643	7.79
636.975	7.75
637.307	7.78
637.639	7.79
637.971	7.77
638.303	7.73
638.635	7.78
638.967	7.75
639.299	7.8
639.631	7.84
639.963	7.91
640.295	7.97
640.626	8.01
640.958	8.01
641.29	8.05
641.621	8.03
641.953	7.99
642.285	8.06
642.616	8.06
642.948	8.05
643.279	8.12
643.61	8.04
643.942	8.08
644.273	8.01
644.604	7.94
644.936	7.92
645.267	7.92
645.598	7.87
645.929	7.86
646.26	7.88
646.591	7.89
646.922	7.83
647.253	7.79
647.584	7.74
647.915	7.73
648.245	7.7
648.576	7.72
648.907	7.78
649.238	7.69
649.568	7.69
649.899	7.69
650.229	7.72
650.56	7.73
650.89	7.76
651.221	7.81
651.551	7.89
651.882	8
652.212	7.99
652.542	7.98
652.872	7.98
653.203	7.97
653.533	8.01
653.863	8.08
654.193	8.14
654.523	8.24
654.853	8.3
655.183	8.29
655.513	8.26
655.843	8.27
656.172	8.33
656.502	8.34
656.832	8.35
657.162	8.39
657.491	8.43
657.821	8.45
658.15	8.41
658.48	8.41
658.809	8.34
659.139	8.36
659.468	8.39
659.798	8.41
660.127	8.46
660.456	8.52
660.785	8.5
661.115	8.45
661.444	8.47
661.773	8.53
662.102	8.55
662.431	8.55
662.76	8.58
663.089	8.56
663.418	8.51
663.747	8.46
664.076	8.39
664.404	8.37
664.733	8.4
665.062	8.44
665.39	8.43
665.719	8.42
666.048	8.36
666.376	8.49
666.705	8.48
667.033	8.42
667.362	8.35
667.69	8.34
668.018	8.35
668.347	8.3
668.675	8.25
669.003	8.24
669.331	8.33
669.659	8.3
669.987	8.25
670.315	8.29
670.643	8.35
670.971	8.4
671.299	8.45
671.627	8.35
671.955	8.35
672.283	8.47
672.61	8.46
672.938	8.54
673.266	8.43
673.593	8.5
673.921	8.55
674.249	8.61
674.576	8.64
674.904	8.68
675.231	8.67
675.558	8.67
675.886	8.73
676.213	8.68
676.54	8.73
676.867	8.85
677.195	8.88
677.522	8.91
677.849	8.95
678.176	8.89
678.503	8.88
