Data from BU26843_Reflection_00001.txt Node
Date: Mon Nov 18 16:30:52 EST 2019
User: vgr7
Spectrometer: USB2G7710
Scans to average: 3
Trigger mode: 4
Integration Time (sec): 2.000000E-2
Electric dark correction enabled: true
Boxcar width: 10
XAxis mode: Wavelengths
Number of Pixels in Spectrum: 2048
>>>>>Begin Spectral Data<<<<<
177.721	136.95
178.105	187.72
178.488	210.28
178.871	14.45
179.254	31.93
179.636	47.92
180.019	16.28
180.402	34.48
180.785	-61.95
181.168	-87.11
181.55	33.99
181.933	85.02
182.316	87.3
182.698	77.95
183.081	69.08
183.463	-25.41
183.846	-170.53
184.228	-100.65
184.611	30.67
184.993	38.7
185.376	10.51
185.758	85.69
186.14	-17.35
186.522	-67.26
186.904	-7.68
187.287	-35.18
187.669	13.85
188.051	-3.42
188.433	-6.7
188.815	-20.47
189.197	-33.47
189.579	-14.46
189.961	-6.59
190.342	-3.07
190.724	9.27
191.106	14.57
191.488	14.72
191.869	2.61
192.251	9.66
192.633	-3.3
193.014	-17.99
193.396	-29.16
193.777	-32.1
194.159	-23.03
194.54	-6.75
194.922	-8.55
195.303	-14.11
195.684	-21.79
196.065	-4.67
196.447	5.02
196.828	25.84
197.209	38.15
197.59	43.12
197.971	0.17
198.352	9.48
198.733	-1.58
199.114	-2.7
199.495	0.71
199.876	46.89
200.257	31.36
200.638	63.1
201.018	66.24
201.399	81.5
201.78	52.43
202.16	36.73
202.541	-10.95
202.922	-1.63
203.302	-12.11
203.683	-16.88
204.063	-46.22
204.444	-36.97
204.824	-60.86
205.204	-53.77
205.585	-99.28
205.965	-124.31
206.345	-184.53
206.725	-267.18
207.106	-308.11
207.486	-316.91
207.866	-266.59
208.246	-217.23
208.626	-175.59
209.006	-117.17
209.386	-139.19
209.766	-154.23
210.145	-123.66
210.525	-92.3
210.905	-79.75
211.285	-53.31
211.664	-45.66
212.044	-39.45
212.424	-30.61
212.803	-30.34
213.183	-37
213.562	-22.12
213.942	-19.32
214.321	-17.02
214.701	-16.03
215.08	-27.96
215.459	-21.35
215.838	-22.98
216.218	-24.87
216.597	-16.72
216.976	-24.52
217.355	-23.34
217.734	-20.22
218.113	-9.84
218.492	-11.93
218.871	-30.47
219.25	-44.33
219.629	-48.96
220.008	-45.04
220.387	-51.53
220.766	-48.54
221.144	-57.96
221.523	-63.7
221.902	-44.72
222.28	-61.25
222.659	-38.33
223.037	-22.33
223.416	-22.38
223.794	-15.14
224.173	-17.61
224.551	-12.36
224.929	-15.35
225.308	-9.24
225.686	-4.89
226.064	-6.12
226.442	0.76
226.821	3.97
227.199	4
227.577	3.13
227.955	6.05
228.333	5.53
228.711	5.88
229.089	7.63
229.467	8.41
229.845	2.94
230.222	8.25
230.6	5.82
230.978	6.55
231.356	8.02
231.733	6.08
232.111	6.23
232.488	6.19
232.866	7.49
233.243	7.69
233.621	6.29
233.998	7.75
234.376	4.85
234.753	5.07
235.13	7.18
235.508	7.23
235.885	4.68
236.262	3.71
236.639	4.52
237.016	5.42
237.393	5.67
237.77	5.77
238.147	4.89
238.524	4.87
238.901	4.62
239.278	4.37
239.655	4.72
240.032	4.49
240.409	3.44
240.785	3.1
241.162	3.5
241.539	3.66
241.915	3.12
242.292	3.45
242.668	3.37
243.045	3.26
243.421	3.45
243.798	3.42
244.174	3.55
244.551	3.33
244.927	3.23
245.303	3.32
245.679	3.41
246.056	3.33
246.432	3.09
246.808	3.04
247.184	2.95
247.56	2.76
247.936	2.82
248.312	2.74
248.688	2.75
249.064	2.33
249.44	2.35
249.815	2.53
250.191	2.55
250.567	2.73
250.943	2.71
251.318	2.54
251.694	2.77
252.069	2.65
252.445	2.72
252.82	2.81
253.196	2.65
253.571	2.72
253.947	2.51
254.322	2.81
254.697	2.85
255.073	2.66
255.448	2.58
255.823	2.58
256.198	3.01
256.573	2.96
256.948	3.5
257.323	3.48
257.698	3.39
258.073	3.46
258.448	3.42
258.823	3.28
259.198	3.27
259.573	3.13
259.948	3.41
260.322	3.35
260.697	3.11
261.072	2.93
261.446	2.77
261.821	2.84
262.195	2.96
262.57	2.99
262.944	3.13
263.319	3.32
263.693	3.34
264.067	3.22
264.442	3.33
264.816	3.23
265.19	3.13
265.564	3.2
265.938	3.19
266.313	3.25
266.687	3.47
267.061	3.55
267.435	3.74
267.809	3.62
268.183	3.86
268.556	3.99
268.93	4.22
269.304	4.28
269.678	4.21
270.051	4.04
270.425	4.06
270.799	4.14
271.172	4.09
271.546	4.15
271.919	4.06
272.293	4.23
272.666	4.15
273.04	4.26
273.413	4.2
273.787	4.09
274.16	4.17
274.533	4.13
274.906	4.11
275.279	4.09
275.653	3.97
276.026	3.8
276.399	3.89
276.772	3.96
277.145	3.94
277.518	4.06
277.891	4.05
278.263	3.91
278.636	3.68
279.009	3.71
279.382	3.85
279.755	4.1
280.127	4.11
280.5	4.11
280.872	4.03
281.245	3.98
281.617	4.11
281.99	3.9
282.362	3.96
282.735	3.94
283.107	3.95
283.479	4.12
283.852	4.12
284.224	4.01
284.596	3.94
284.968	4.08
285.34	4.05
285.713	4.04
286.085	4.12
286.457	4.26
286.829	4.25
287.201	4.19
287.572	4.01
287.944	3.8
288.316	3.82
288.688	3.96
289.06	4.06
289.431	3.97
289.803	4.1
290.175	3.96
290.546	4.09
290.918	4.12
291.289	4.03
291.661	4.02
292.032	4.16
292.403	4.11
292.775	4.01
293.146	3.96
293.517	4.1
293.889	4.13
294.26	4.08
294.631	4.05
295.002	3.98
295.373	4.06
295.744	4.21
296.115	4.17
296.486	4.04
296.857	3.98
297.228	4.16
297.599	4.2
297.97	4.27
298.34	4.32
298.711	4.3
299.082	4.2
299.452	4.2
299.823	4.12
300.194	4.19
300.564	4.26
300.935	4.34
301.305	4.36
301.676	4.38
302.046	4.49
302.416	4.48
302.787	4.54
303.157	4.61
303.527	4.5
303.897	4.51
304.267	4.79
304.637	4.83
305.008	4.73
305.378	4.68
305.748	4.59
306.117	4.31
306.487	4.36
306.857	4.45
307.227	4.42
307.597	4.42
307.967	4.34
308.336	4.19
308.706	4.14
309.076	4.08
309.445	3.96
309.815	3.83
310.184	3.72
310.554	3.63
310.923	3.56
311.293	3.61
311.662	3.59
312.031	3.41
312.401	3.37
312.77	3.38
313.139	3.36
313.508	3.46
313.877	3.51
314.246	3.57
314.616	3.48
314.985	3.51
315.353	3.51
315.722	3.53
316.091	3.61
316.46	3.58
316.829	3.56
317.198	3.64
317.567	3.66
317.935	3.86
318.304	4.01
318.672	4.02
319.041	4.07
319.41	4.02
319.778	3.95
320.147	4.02
320.515	3.82
320.883	3.8
321.252	3.87
321.62	3.98
321.988	3.77
322.357	3.82
322.725	3.72
323.093	3.68
323.461	3.74
323.829	3.77
324.197	3.91
324.565	3.94
324.933	3.92
325.301	3.95
325.669	3.9
326.037	3.75
326.405	3.8
326.772	3.8
327.14	3.93
327.508	3.98
327.875	3.79
328.243	3.89
328.61	3.91
328.978	3.95
329.346	3.94
329.713	3.94
330.08	4
330.448	4.02
330.815	3.97
331.182	3.95
331.55	4.02
331.917	4.05
332.284	4.11
332.651	4.08
333.018	4.07
333.385	4.19
333.752	4.33
334.119	4.28
334.486	4.26
334.853	4.19
335.22	4.12
335.587	4.24
335.954	4.25
336.32	4.15
336.687	4.06
337.054	4.01
337.42	4.07
337.787	4.13
338.153	4.17
338.52	4.21
338.886	4.21
339.253	4.11
339.619	4.08
339.986	3.98
340.352	4.06
340.718	4.04
341.084	3.87
341.451	3.84
341.817	3.87
342.183	3.8
342.549	3.83
342.915	4
343.281	3.92
343.647	3.89
344.013	4
344.379	3.93
344.745	3.99
345.11	3.95
345.476	3.9
345.842	3.87
346.208	3.86
346.573	3.84
346.939	3.9
347.304	3.84
347.67	3.79
348.035	3.74
348.401	3.68
348.766	3.76
349.132	3.74
349.497	3.73
349.862	3.89
350.228	3.89
350.593	3.72
350.958	3.78
351.323	3.9
351.688	3.9
352.053	3.95
352.418	3.92
352.783	4.03
353.148	4.04
353.513	4.03
353.878	4.02
354.243	4.09
354.608	4.03
354.972	4.05
355.337	3.99
355.702	4.05
356.066	4.15
356.431	4.13
356.795	4.18
357.16	4.12
357.524	4
357.889	3.99
358.253	4
358.618	4.05
358.982	3.99
359.346	3.89
359.71	3.88
360.075	3.83
360.439	3.78
360.803	3.76
361.167	3.77
361.531	3.8
361.895	3.73
362.259	3.72
362.623	3.71
362.987	3.78
363.351	3.76
363.714	3.78
364.078	3.77
364.442	3.7
364.806	3.8
365.169	3.81
365.533	3.81
365.896	3.82
366.26	3.76
366.623	3.75
366.987	3.86
367.35	3.93
367.714	4.04
368.077	4.02
368.44	4.1
368.803	4.08
369.167	4.05
369.53	4
369.893	4.06
370.256	4.11
370.619	4.13
370.982	4.13
371.345	4.09
371.708	4.12
372.071	4.13
372.434	3.98
372.797	3.99
373.159	3.91
373.522	3.93
373.885	3.93
374.247	4
374.61	3.95
374.973	3.89
375.335	3.86
375.698	3.85
376.06	3.75
376.423	3.77
376.785	3.79
377.147	3.87
377.51	3.82
377.872	3.8
378.234	3.73
378.596	3.71
378.958	3.66
379.321	3.65
379.683	3.68
380.045	3.72
380.407	3.72
380.769	3.8
381.13	3.79
381.492	3.8
381.854	3.82
382.216	3.75
382.578	3.77
382.939	3.75
383.301	3.75
383.663	3.75
384.024	3.7
384.386	3.72
384.747	3.71
385.109	3.72
385.47	3.7
385.832	3.75
386.193	3.81
386.554	3.83
386.916	3.8
387.277	3.78
387.638	3.82
387.999	3.75
388.36	3.7
388.721	3.74
389.082	3.73
389.443	3.66
389.804	3.7
390.165	3.67
390.526	3.65
390.887	3.67
391.248	3.71
391.609	3.75
391.969	3.76
392.33	3.75
392.691	3.72
393.051	3.7
393.412	3.69
393.772	3.65
394.133	3.65
394.493	3.65
394.854	3.64
395.214	3.62
395.574	3.65
395.935	3.68
396.295	3.65
396.655	3.65
397.015	3.66
397.376	3.68
397.736	3.69
398.096	3.69
398.456	3.67
398.816	3.67
399.176	3.65
399.535	3.64
399.895	3.65
400.255	3.66
400.615	3.67
400.975	3.68
401.334	3.68
401.694	3.7
402.054	3.7
402.413	3.71
402.773	3.7
403.132	3.7
403.492	3.69
403.851	3.71
404.211	3.73
404.57	3.7
404.929	3.69
405.288	3.71
405.648	3.68
406.007	3.69
406.366	3.7
406.725	3.72
407.084	3.72
407.443	3.75
407.802	3.79
408.161	3.8
408.52	3.77
408.879	3.79
409.238	3.77
409.596	3.78
409.955	3.81
410.314	3.82
410.673	3.82
411.031	3.8
411.39	3.77
411.748	3.76
412.107	3.79
412.465	3.78
412.824	3.76
413.182	3.82
413.54	3.83
413.899	3.8
414.257	3.77
414.615	3.76
414.974	3.74
415.332	3.72
415.69	3.72
416.048	3.73
416.406	3.73
416.764	3.74
417.122	3.75
417.48	3.73
417.838	3.75
418.195	3.75
418.553	3.75
418.911	3.77
419.269	3.77
419.626	3.77
419.984	3.78
420.342	3.79
420.699	3.79
421.057	3.8
421.414	3.79
421.772	3.8
422.129	3.8
422.486	3.8
422.844	3.8
423.201	3.79
423.558	3.79
423.915	3.78
424.273	3.77
424.63	3.76
424.987	3.76
425.344	3.76
425.701	3.76
426.058	3.77
426.415	3.77
426.772	3.77
427.128	3.77
427.485	3.79
427.842	3.77
428.199	3.76
428.555	3.74
428.912	3.74
429.269	3.76
429.625	3.76
429.982	3.77
430.338	3.78
430.695	3.79
431.051	3.78
431.407	3.78
431.764	3.8
432.12	3.82
432.476	3.81
432.832	3.78
433.189	3.8
433.545	3.79
433.901	3.78
434.257	3.78
434.613	3.77
434.969	3.76
435.325	3.77
435.681	3.77
436.036	3.76
436.392	3.78
436.748	3.77
437.104	3.75
437.459	3.74
437.815	3.73
438.171	3.74
438.526	3.76
438.882	3.77
439.237	3.78
439.593	3.79
439.948	3.79
440.304	3.79
440.659	3.78
441.014	3.78
441.369	3.77
441.725	3.77
442.08	3.78
442.435	3.77
442.79	3.78
443.145	3.77
443.5	3.78
443.855	3.77
444.21	3.76
444.565	3.77
444.92	3.8
445.275	3.78
445.629	3.79
445.984	3.78
446.339	3.76
446.693	3.75
447.048	3.72
447.403	3.74
447.757	3.75
448.112	3.78
448.466	3.78
448.82	3.79
449.175	3.79
449.529	3.78
449.883	3.78
450.238	3.78
450.592	3.8
450.946	3.79
451.3	3.79
451.654	3.79
452.008	3.79
452.362	3.76
452.716	3.79
453.07	3.77
453.424	3.78
453.778	3.78
454.132	3.76
454.486	3.77
454.839	3.77
455.193	3.75
455.547	3.73
455.9	3.74
456.254	3.75
456.607	3.74
456.961	3.73
457.314	3.73
457.668	3.71
458.021	3.7
458.375	3.7
458.728	3.74
459.081	3.74
459.434	3.72
459.787	3.74
460.141	3.73
460.494	3.74
460.847	3.75
461.2	3.77
461.553	3.78
461.906	3.8
462.259	3.79
462.611	3.81
462.964	3.82
463.317	3.81
463.67	3.81
464.022	3.82
464.375	3.83
464.728	3.85
465.08	3.85
465.433	3.85
465.785	3.84
466.138	3.81
466.49	3.81
466.843	3.83
467.195	3.81
467.547	3.81
467.899	3.82
468.252	3.8
468.604	3.78
468.956	3.77
469.308	3.78
469.66	3.78
470.012	3.78
470.364	3.78
470.716	3.8
471.068	3.8
471.42	3.81
471.772	3.83
472.123	3.84
472.475	3.85
472.827	3.87
473.178	3.88
473.53	3.89
473.882	3.91
474.233	3.9
474.585	3.92
474.936	3.91
475.288	3.9
475.639	3.95
475.99	3.95
476.342	3.95
476.693	3.96
477.044	3.99
477.395	3.99
477.746	3.99
478.097	3.98
478.448	3.96
478.8	3.96
479.15	3.93
479.501	3.92
479.852	3.92
480.203	3.93
480.554	3.95
480.905	3.95
481.255	3.95
481.606	3.95
481.957	3.95
482.307	3.97
482.658	3.97
483.009	3.96
483.359	3.96
483.709	3.97
484.06	3.95
484.41	3.95
484.761	3.95
485.111	3.96
485.461	3.96
485.811	3.97
486.162	3.97
486.512	3.97
486.862	3.98
487.212	3.98
487.562	3.98
487.912	3.98
488.262	3.97
488.612	3.98
488.961	3.99
489.311	3.99
489.661	3.98
490.011	3.99
490.36	3.99
490.71	3.99
491.06	4
491.409	3.99
491.759	4
492.108	3.99
492.458	3.98
492.807	3.98
493.157	3.98
493.506	3.99
493.855	4
494.204	4.01
494.554	4
494.903	3.99
495.252	3.99
495.601	3.99
495.95	3.98
496.299	3.96
496.648	3.98
496.997	3.99
497.346	4
497.695	4
498.043	4
498.392	4
498.741	4.02
499.09	4
499.438	4.02
499.787	4.03
500.135	4.04
500.484	4.05
500.832	4.05
501.181	4.05
501.529	4.05
501.878	4.08
502.226	4.09
502.574	4.1
502.923	4.14
503.271	4.15
503.619	4.16
503.967	4.15
504.315	4.14
504.663	4.13
505.011	4.13
505.359	4.13
505.707	4.15
506.055	4.18
506.403	4.21
506.751	4.24
507.098	4.24
507.446	4.25
507.794	4.25
508.141	4.24
508.489	4.24
508.837	4.25
509.184	4.25
509.531	4.26
509.879	4.29
510.226	4.29
510.574	4.3
510.921	4.29
511.268	4.31
511.616	4.33
511.963	4.35
512.31	4.37
512.657	4.39
513.004	4.39
513.351	4.38
513.698	4.37
514.045	4.36
514.392	4.37
514.739	4.37
515.086	4.39
515.432	4.4
515.779	4.4
516.126	4.39
516.473	4.39
516.819	4.39
517.166	4.37
517.512	4.38
517.859	4.4
518.205	4.39
518.552	4.4
518.898	4.38
519.245	4.38
519.591	4.36
519.937	4.35
520.283	4.36
520.629	4.34
520.976	4.34
521.322	4.36
521.668	4.35
522.014	4.36
522.36	4.36
522.706	4.38
523.052	4.38
523.398	4.38
523.743	4.38
524.089	4.39
524.435	4.4
524.781	4.4
525.126	4.39
525.472	4.41
525.817	4.42
526.163	4.43
526.509	4.43
526.854	4.43
527.199	4.44
527.545	4.44
527.89	4.46
528.235	4.47
528.581	4.47
528.926	4.48
529.271	4.48
529.616	4.47
529.961	4.46
530.306	4.48
530.651	4.49
530.996	4.5
531.341	4.51
531.686	4.52
532.031	4.53
532.376	4.54
532.721	4.56
533.065	4.55
533.41	4.55
533.755	4.56
534.099	4.58
534.444	4.58
534.788	4.59
535.133	4.58
535.477	4.58
535.822	4.57
536.166	4.57
536.51	4.59
536.855	4.59
537.199	4.6
537.543	4.6
537.887	4.61
538.231	4.61
538.576	4.6
538.92	4.62
539.264	4.63
539.608	4.64
539.951	4.64
540.295	4.62
540.639	4.63
540.983	4.64
541.327	4.65
541.671	4.65
542.014	4.64
542.358	4.66
542.701	4.67
543.045	4.68
543.389	4.7
543.732	4.7
544.075	4.7
544.419	4.71
544.762	4.72
545.105	4.72
545.449	4.73
545.792	4.73
546.135	4.72
546.478	4.73
546.821	4.72
547.165	4.69
547.508	4.72
547.851	4.73
548.194	4.72
548.536	4.72
548.879	4.74
549.222	4.75
549.565	4.73
549.908	4.74
550.25	4.74
550.593	4.75
550.936	4.73
551.278	4.75
551.621	4.76
551.963	4.74
552.306	4.72
552.648	4.73
552.991	4.74
553.333	4.76
553.675	4.73
554.017	4.76
554.36	4.79
554.702	4.78
555.044	4.77
555.386	4.78
555.728	4.77
556.07	4.78
556.412	4.77
556.754	4.78
557.096	4.76
557.438	4.75
557.78	4.72
558.121	4.75
558.463	4.77
558.805	4.77
559.147	4.8
559.488	4.84
559.83	4.81
560.171	4.82
560.513	4.82
560.854	4.84
561.196	4.8
561.537	4.8
561.878	4.8
562.22	4.82
562.561	4.82
562.902	4.81
563.243	4.83
563.584	4.84
563.925	4.88
564.266	4.88
564.607	4.9
564.948	4.89
565.289	4.9
565.63	4.89
565.971	4.88
566.312	4.88
566.653	4.84
566.993	4.83
567.334	4.82
567.675	4.83
568.015	4.83
568.356	4.84
568.696	4.88
569.037	4.89
569.377	4.9
569.718	4.9
570.058	4.93
570.398	4.91
570.739	4.89
571.079	4.88
571.419	4.9
571.759	4.9
572.099	4.9
572.439	4.88
572.779	4.87
573.119	4.87
573.459	4.9
573.799	4.93
574.139	4.94
574.479	4.94
574.819	4.94
575.158	4.93
575.498	4.92
575.838	4.91
576.177	4.87
576.517	4.88
576.856	4.87
577.196	4.84
577.535	4.85
577.875	4.85
578.214	4.86
578.553	4.85
578.893	4.85
579.232	4.87
579.571	4.87
579.91	4.88
580.25	4.87
580.589	4.82
580.928	4.86
581.267	4.87
581.606	4.85
581.945	4.86
582.283	4.85
582.622	4.88
582.961	4.88
583.3	4.94
583.639	4.91
583.977	4.9
584.316	4.87
584.654	4.87
584.993	4.92
585.332	4.93
585.67	4.92
586.008	4.92
586.347	4.89
586.685	4.9
587.024	4.9
587.362	4.94
587.7	4.96
588.038	4.97
588.376	5
588.715	5
589.053	5.02
589.391	5.04
589.729	5.03
590.067	5.04
590.404	5.04
590.742	5.07
591.08	5.06
591.418	5.1
591.756	5.07
592.093	5.06
592.431	5.07
592.769	5.08
593.106	5.07
593.444	5.06
593.781	5.07
594.119	5.09
594.456	5.05
594.793	5.03
595.131	4.98
595.468	5
595.805	5.01
596.143	4.96
596.48	4.96
596.817	4.99
597.154	4.98
597.491	4.97
597.828	4.97
598.165	4.98
598.502	4.98
598.839	5.02
599.176	5.01
599.512	4.98
599.849	5.01
600.186	5
600.523	5.04
600.859	5.08
601.196	5.11
601.532	5.11
601.869	5.12
602.205	5.18
602.542	5.17
602.878	5.15
603.215	5.18
603.551	5.24
603.887	5.21
604.223	5.2
604.56	5.23
604.896	5.23
605.232	5.24
605.568	5.27
605.904	5.24
606.24	5.28
606.576	5.29
606.912	5.27
607.248	5.29
607.583	5.3
607.919	5.28
608.255	5.24
608.591	5.27
608.926	5.32
609.262	5.32
609.597	5.31
609.933	5.32
610.268	5.33
610.604	5.27
610.939	5.27
611.275	5.25
611.61	5.24
611.945	5.24
612.281	5.22
612.616	5.2
612.951	5.23
613.286	5.24
613.621	5.23
613.956	5.25
614.291	5.26
614.626	5.27
614.961	5.24
615.296	5.27
615.631	5.24
615.966	5.18
616.3	5.16
616.635	5.17
616.97	5.18
617.304	5.17
617.639	5.24
617.973	5.27
618.308	5.31
618.642	5.29
618.977	5.31
619.311	5.33
619.646	5.32
619.98	5.3
620.314	5.25
620.648	5.29
620.983	5.32
621.317	5.3
621.651	5.29
621.985	5.36
622.319	5.39
622.653	5.37
622.987	5.4
623.321	5.38
623.655	5.42
623.988	5.48
624.322	5.46
624.656	5.45
624.99	5.46
625.323	5.44
625.657	5.43
625.99	5.48
626.324	5.46
626.657	5.48
626.991	5.51
627.324	5.54
627.658	5.54
627.991	5.52
628.324	5.56
628.657	5.56
628.991	5.54
629.324	5.53
629.657	5.56
629.99	5.53
630.323	5.55
630.656	5.52
630.989	5.48
631.322	5.49
631.655	5.48
631.987	5.48
632.32	5.54
632.653	5.53
632.986	5.5
633.318	5.53
633.651	5.54
633.984	5.52
634.316	5.54
634.649	5.49
634.981	5.47
635.313	5.42
635.646	5.43
635.978	5.41
636.31	5.43
636.643	5.45
636.975	5.55
637.307	5.52
637.639	5.55
637.971	5.56
638.303	5.54
638.635	5.52
638.967	5.49
639.299	5.52
639.631	5.51
639.963	5.41
640.295	5.44
640.626	5.48
640.958	5.53
641.29	5.5
641.621	5.53
641.953	5.53
642.285	5.62
642.616	5.66
642.948	5.68
643.279	5.66
643.61	5.66
643.942	5.54
644.273	5.6
644.604	5.5
644.936	5.43
645.267	5.51
645.598	5.54
645.929	5.59
646.26	5.55
646.591	5.6
646.922	5.65
647.253	5.64
647.584	5.57
647.915	5.56
648.245	5.58
648.576	5.62
648.907	5.67
649.238	5.6
649.568	5.6
649.899	5.59
650.229	5.62
650.56	5.66
650.89	5.74
651.221	5.74
651.551	5.82
651.882	5.89
652.212	5.88
652.542	5.86
652.872	5.81
653.203	5.75
653.533	5.77
653.863	5.82
654.193	5.87
654.523	5.9
654.853	5.93
655.183	5.92
655.513	5.92
655.843	5.87
656.172	5.92
656.502	5.94
656.832	5.98
657.162	6.04
657.491	6.01
657.821	6.02
658.15	5.98
658.48	6.03
658.809	6.01
659.139	5.98
659.468	5.95
659.798	5.99
660.127	6.01
660.456	6.06
660.785	6.07
661.115	6.01
661.444	5.99
661.773	6.01
662.102	5.98
662.431	6.02
662.76	6.07
663.089	6.07
663.418	6.05
663.747	6.03
664.076	6
664.404	5.99
664.733	6.06
665.062	6.04
665.39	5.99
665.719	6.04
666.048	6.15
666.376	6.17
666.705	6.18
667.033	6.19
667.362	6.17
667.69	6.09
668.018	6.11
668.347	6.18
668.675	6.17
669.003	6.22
669.331	6.23
669.659	6.23
669.987	6.23
670.315	6.27
670.643	6.29
670.971	6.3
671.299	6.37
671.627	6.27
671.955	6.27
672.283	6.35
672.61	6.35
672.938	6.26
673.266	6.33
673.593	6.43
673.921	6.5
674.249	6.53
674.576	6.58
674.904	6.62
675.231	6.62
675.558	6.64
675.886	6.71
676.213	6.66
676.54	6.66
676.867	6.71
677.195	6.61
677.522	6.56
677.849	6.57
678.176	6.5
678.503	6.42
678.83	6.42
679.157	6.29
679.484	6.28
