Data from BU26850_Reflection_00003.txt Node
Date: Mon Nov 18 16:45:26 EST 2019
User: vgr7
Spectrometer: USB2G7710
Scans to average: 3
Trigger mode: 4
Integration Time (sec): 2.000000E-2
Electric dark correction enabled: true
Boxcar width: 10
XAxis mode: Wavelengths
Number of Pixels in Spectrum: 2048
>>>>>Begin Spectral Data<<<<<
177.721	-125.7
178.105	-16.61
178.488	-16.75
178.871	-13.89
179.254	46.33
179.636	1.02
180.019	6.21
180.402	153.85
180.785	-85.87
181.168	-30.03
181.55	136.81
181.933	226.32
182.316	319.72
182.698	46.33
183.081	143.37
183.463	-289.61
183.846	-16.22
184.228	-110.24
184.611	355.32
184.993	707.59
185.376	-135.87
185.758	-160.87
186.14	-97.66
186.522	-51.22
186.904	-18.66
187.287	-115.32
187.669	-58.59
188.051	-75.02
188.433	-50.42
188.815	-39.53
189.197	-38.03
189.579	-26.94
189.961	-54.06
190.342	-62.05
190.724	-56.75
191.106	-42.41
191.488	-36.98
191.869	-37.92
192.251	-36.88
192.633	-19.55
193.014	-28.56
193.396	-42.06
193.777	-46.46
194.159	-56.59
194.54	-54.76
194.922	-48.46
195.303	-35.89
195.684	-40.25
196.065	-24.21
196.447	-25.63
196.828	-37.44
197.209	-34.62
197.59	-34.41
197.971	-23.49
198.352	-15.27
198.733	-15.86
199.114	-24.34
199.495	-16.21
199.876	-19.45
200.257	-11.63
200.638	-19.14
201.018	-14.8
201.399	-5.71
201.78	-1.73
202.16	-10.62
202.541	-17.18
202.922	-33.28
203.302	-40.86
203.683	-44.48
204.063	-75.46
204.444	-66.11
204.824	-52.14
205.204	-64.67
205.585	-54.67
205.965	-56.52
206.345	-56.3
206.725	-87.31
207.106	-79.1
207.486	-97
207.866	-88.67
208.246	-105.37
208.626	-91.07
209.006	-57.44
209.386	-81.88
209.766	-72.75
210.145	-75.13
210.525	-41.09
210.905	-35.72
211.285	-16.09
211.664	-1.41
212.044	9.77
212.424	7.46
212.803	17.37
213.183	32.26
213.562	19.9
213.942	32.16
214.321	31.52
214.701	31.83
215.08	39.93
215.459	52.37
215.838	58.43
216.218	51.57
216.597	41.11
216.976	36.44
217.355	42.52
217.734	40.37
218.113	42.07
218.492	44.68
218.871	41.91
219.25	43.45
219.629	35.7
220.008	36.34
220.387	43.96
220.766	45.26
221.144	44.55
221.523	42.19
221.902	41
222.28	33.16
222.659	36.41
223.037	28.63
223.416	11.81
223.794	5.43
224.173	0.69
224.551	2.86
224.929	0.26
225.308	4.1
225.686	11
226.064	0.13
226.442	4.55
226.821	7.14
227.199	2.51
227.577	-1.12
227.955	-5.82
228.333	-8.78
228.711	-10.79
229.089	-9.28
229.467	-7.79
229.845	-8.31
230.222	-8.71
230.6	-10.19
230.978	-8.1
231.356	-5.96
231.733	-6.3
232.111	-3.83
232.488	-3.48
232.866	-2.57
233.243	-1.99
233.621	-6.16
233.998	-5.25
234.376	-7.93
234.753	-8.38
235.13	-8.7
235.508	-6.03
235.885	-4.29
236.262	-5.51
236.639	-5.21
237.016	-6.05
237.393	-4.09
237.77	-3.14
238.147	-2.45
238.524	-1.19
238.901	-0.93
239.278	-0.46
239.655	1.02
240.032	0.82
240.409	1.01
240.785	1.11
241.162	0.63
241.539	1.96
241.915	2.73
242.292	2.43
242.668	2.3
243.045	2.75
243.421	2.42
243.798	2.43
244.174	2.52
244.551	2.62
244.927	2.48
245.303	2.38
245.679	2.3
246.056	2.08
246.432	2.05
246.808	2.25
247.184	2.15
247.56	1.94
247.936	1.77
248.312	1.59
248.688	1.68
249.064	1.71
249.44	1.58
249.815	1.53
250.191	1.88
250.567	2.04
250.943	2.08
251.318	2.3
251.694	2.33
252.069	2.52
252.445	2.67
252.82	2.8
253.196	2.82
253.571	2.61
253.947	2.88
254.322	3.15
254.697	3.02
255.073	2.84
255.448	2.49
255.823	2.4
256.198	2.37
256.573	2.08
256.948	2.03
257.323	2.1
257.698	2.09
258.073	2.02
258.448	1.95
258.823	1.91
259.198	1.85
259.573	1.91
259.948	1.88
260.322	1.91
260.697	1.88
261.072	1.78
261.446	1.87
261.821	1.86
262.195	1.81
262.57	1.8
262.944	1.9
263.319	2.01
263.693	2.07
264.067	2.18
264.442	2.29
264.816	2.19
265.19	2.01
265.564	1.83
265.938	1.76
266.313	1.7
266.687	1.73
267.061	1.68
267.435	1.35
267.809	1.31
268.183	1.29
268.556	1.38
268.93	1.47
269.304	1.77
269.678	1.93
270.051	1.94
270.425	2
270.799	2.07
271.172	2.06
271.546	2.11
271.919	1.96
272.293	2.17
272.666	2.5
273.04	2.51
273.413	2.58
273.787	2.51
274.16	2.56
274.533	2.42
274.906	2.45
275.279	2.61
275.653	2.62
276.026	2.76
276.399	2.81
276.772	2.99
277.145	2.76
277.518	2.81
277.891	2.7
278.263	2.46
278.636	2.3
279.009	2.33
279.382	2.47
279.755	2.67
280.127	2.49
280.5	2.43
280.872	2.53
281.245	2.56
281.617	2.78
281.99	2.9
282.362	3
282.735	2.92
283.107	2.89
283.479	3.06
283.852	2.92
284.224	2.83
284.596	2.69
284.968	2.65
285.34	2.6
285.713	2.61
286.085	2.77
286.457	2.81
286.829	2.91
287.201	2.77
287.572	2.69
287.944	2.75
288.316	2.73
288.688	2.76
289.06	2.77
289.431	2.81
289.803	2.88
290.175	2.93
290.546	3.13
290.918	3.22
291.289	3.09
291.661	3.1
292.032	3.26
292.403	3.33
292.775	3.52
293.146	3.4
293.517	3.35
293.889	3.42
294.26	3.56
294.631	3.49
295.002	3.55
295.373	3.53
295.744	3.58
296.115	3.53
296.486	3.4
296.857	3.32
297.228	3.21
297.599	3.09
297.97	2.98
298.34	2.93
298.711	2.84
299.082	2.87
299.452	2.87
299.823	2.88
300.194	2.84
300.564	2.78
300.935	2.83
301.305	2.93
301.676	2.92
302.046	2.86
302.416	2.92
302.787	3.01
303.157	3.1
303.527	3.06
303.897	3.03
304.267	3.01
304.637	3.22
305.008	3.29
305.378	3.39
305.748	3.54
306.117	3.56
306.487	3.65
306.857	3.72
307.227	3.78
307.597	3.73
307.967	3.85
308.336	3.83
308.706	3.78
309.076	3.76
309.445	3.66
309.815	3.64
310.184	3.55
310.554	3.49
310.923	3.48
311.293	3.43
311.662	3.46
312.031	3.59
312.401	3.5
312.77	3.47
313.139	3.34
313.508	3.32
313.877	3.22
314.246	3.22
314.616	3.22
314.985	3.12
315.353	2.96
315.722	3.02
316.091	3.07
316.46	3.16
316.829	3.25
317.198	3.28
317.567	3.2
317.935	3.19
318.304	3.14
318.672	3.01
319.041	3.06
319.41	2.97
319.778	2.85
320.147	2.96
320.515	2.94
320.883	3
321.252	3.06
321.62	3.17
321.988	3.04
322.357	2.96
322.725	3.03
323.093	3.29
323.461	3.09
323.829	3.02
324.197	3.06
324.565	2.94
324.933	3
325.301	3
325.669	3
326.037	3.03
326.405	2.98
326.772	2.87
327.14	3
327.508	3.03
327.875	3.02
328.243	3.07
328.61	3
328.978	2.91
329.346	2.85
329.713	2.85
330.08	2.92
330.448	2.82
330.815	2.58
331.182	2.65
331.55	2.65
331.917	2.67
332.284	2.77
332.651	2.77
333.018	2.8
333.385	2.79
333.752	2.91
334.119	3.07
334.486	3.11
334.853	2.98
335.22	3.05
335.587	3.04
335.954	2.94
336.32	2.93
336.687	3.01
337.054	3.1
337.42	3.2
337.787	3.11
338.153	3.21
338.52	3.35
338.886	3.28
339.253	3.28
339.619	3.13
339.986	2.93
340.352	2.97
340.718	3.05
341.084	3.02
341.451	3.04
341.817	3.05
342.183	3.03
342.549	3.13
342.915	3.15
343.281	3.16
343.647	3.16
344.013	3.22
344.379	3.15
344.745	3.14
345.11	3.13
345.476	3.2
345.842	3.17
346.208	3.13
346.573	3.12
346.939	3.19
347.304	3.26
347.67	3.4
348.035	3.31
348.401	3.22
348.766	3.33
349.132	3.23
349.497	3.11
349.862	3.19
350.228	3.22
350.593	3.09
350.958	3.09
351.323	3.16
351.688	3.17
352.053	3.24
352.418	3.26
352.783	3.31
353.148	3.18
353.513	3.11
353.878	3.15
354.243	3.23
354.608	3.17
354.972	3.14
355.337	3.13
355.702	3.28
356.066	3.32
356.431	3.27
356.795	3.28
357.16	3.28
357.524	3.22
357.889	3.17
358.253	3.27
358.618	3.27
358.982	3.22
359.346	3.17
359.71	3.14
360.075	3.15
360.439	3.16
360.803	3.19
361.167	3.25
361.531	3.2
361.895	3.13
362.259	3.17
362.623	3.24
362.987	3.2
363.351	3.15
363.714	3.13
364.078	3.18
364.442	3.15
364.806	3.22
365.169	3.24
365.533	3.29
365.896	3.25
366.26	3.23
366.623	3.22
366.987	3.23
367.35	3.22
367.714	3.19
368.077	3.1
368.44	3.1
368.803	3.12
369.167	3.17
369.53	3.14
369.893	3.14
370.256	3.12
370.619	3.15
370.982	3.07
371.345	3.09
371.708	3.14
372.071	3.15
372.434	3.1
372.797	3.08
373.159	3.06
373.522	3.07
373.885	3.1
374.247	3.11
374.61	3.14
374.973	3.1
375.335	3.06
375.698	3.1
376.06	3.06
376.423	3.02
376.785	3
377.147	3.08
377.51	3.08
377.872	3.06
378.234	3.04
378.596	3.12
378.958	3.1
379.321	3.03
379.683	3.04
380.045	3.09
380.407	3.1
380.769	3.08
381.13	3.05
381.492	2.99
381.854	3
382.216	3
382.578	3.02
382.939	3.06
383.301	3.08
383.663	3.09
384.024	3.11
384.386	3.16
384.747	3.18
385.109	3.19
385.47	3.19
385.832	3.2
386.193	3.18
386.554	3.18
386.916	3.13
387.277	3.14
387.638	3.09
387.999	3.08
388.36	3.11
388.721	3.15
389.082	3.13
389.443	3.12
389.804	3.12
390.165	3.1
390.526	3.11
390.887	3.11
391.248	3.16
391.609	3.14
391.969	3.09
392.33	3.04
392.691	3.02
393.051	3.01
393.412	3.01
393.772	2.99
394.133	3.03
394.493	3.08
394.854	3.05
395.214	3.06
395.574	3.07
395.935	3.05
396.295	3.09
396.655	3.12
397.015	3.17
397.376	3.19
397.736	3.17
398.096	3.16
398.456	3.17
398.816	3.13
399.176	3.13
399.535	3.12
399.895	3.14
400.255	3.15
400.615	3.17
400.975	3.24
401.334	3.27
401.694	3.24
402.054	3.24
402.413	3.28
402.773	3.3
403.132	3.27
403.492	3.29
403.851	3.26
404.211	3.27
404.57	3.22
404.929	3.21
405.288	3.24
405.648	3.23
406.007	3.24
406.366	3.23
406.725	3.26
407.084	3.3
407.443	3.3
407.802	3.33
408.161	3.32
408.52	3.23
408.879	3.23
409.238	3.25
409.596	3.25
409.955	3.26
410.314	3.27
410.673	3.26
411.031	3.25
411.39	3.26
411.748	3.25
412.107	3.27
412.465	3.26
412.824	3.27
413.182	3.29
413.54	3.31
413.899	3.34
414.257	3.35
414.615	3.33
414.974	3.33
415.332	3.29
415.69	3.29
416.048	3.28
416.406	3.28
416.764	3.25
417.122	3.26
417.48	3.23
417.838	3.22
418.195	3.24
418.553	3.25
418.911	3.23
419.269	3.24
419.626	3.24
419.984	3.23
420.342	3.22
420.699	3.22
421.057	3.21
421.414	3.2
421.772	3.18
422.129	3.18
422.486	3.19
422.844	3.21
423.201	3.21
423.558	3.23
423.915	3.23
424.273	3.24
424.63	3.24
424.987	3.25
425.344	3.28
425.701	3.27
426.058	3.27
426.415	3.28
426.772	3.28
427.128	3.28
427.485	3.3
427.842	3.29
428.199	3.29
428.555	3.29
428.912	3.3
429.269	3.32
429.625	3.32
429.982	3.31
430.338	3.3
430.695	3.31
431.051	3.3
431.407	3.29
431.764	3.28
432.12	3.26
432.476	3.26
432.832	3.22
433.189	3.22
433.545	3.2
433.901	3.19
434.257	3.19
434.613	3.2
434.969	3.19
435.325	3.2
435.681	3.21
436.036	3.2
436.392	3.2
436.748	3.19
437.104	3.2
437.459	3.19
437.815	3.19
438.171	3.18
438.526	3.21
438.882	3.22
439.237	3.23
439.593	3.24
439.948	3.23
440.304	3.24
440.659	3.25
441.014	3.25
441.369	3.25
441.725	3.25
442.08	3.26
442.435	3.26
442.79	3.25
443.145	3.23
443.5	3.24
443.855	3.24
444.21	3.22
444.565	3.23
444.92	3.25
445.275	3.24
445.629	3.25
445.984	3.23
446.339	3.23
446.693	3.23
447.048	3.22
447.403	3.23
447.757	3.23
448.112	3.23
448.466	3.22
448.82	3.24
449.175	3.23
449.529	3.23
449.883	3.23
450.238	3.24
450.592	3.26
450.946	3.24
451.3	3.24
451.654	3.27
452.008	3.28
452.362	3.26
452.716	3.27
453.07	3.26
453.424	3.26
453.778	3.26
454.132	3.26
454.486	3.27
454.839	3.27
455.193	3.27
455.547	3.27
455.9	3.28
456.254	3.26
456.607	3.26
456.961	3.25
457.314	3.26
457.668	3.27
458.021	3.26
458.375	3.27
458.728	3.28
459.081	3.27
459.434	3.24
459.787	3.27
460.141	3.27
460.494	3.29
460.847	3.29
461.2	3.28
461.553	3.27
461.906	3.27
462.259	3.27
462.611	3.27
462.964	3.28
463.317	3.27
463.67	3.29
464.022	3.29
464.375	3.29
464.728	3.29
465.08	3.28
465.433	3.29
465.785	3.28
466.138	3.28
466.49	3.28
466.843	3.3
467.195	3.28
467.547	3.27
467.899	3.27
468.252	3.26
468.604	3.26
468.956	3.27
469.308	3.27
469.66	3.27
470.012	3.28
470.364	3.29
470.716	3.31
471.068	3.32
471.42	3.32
471.772	3.33
472.123	3.33
472.475	3.35
472.827	3.36
473.178	3.39
473.53	3.38
473.882	3.38
474.233	3.38
474.585	3.35
474.936	3.36
475.288	3.36
475.639	3.37
475.99	3.38
476.342	3.39
476.693	3.42
477.044	3.43
477.395	3.43
477.746	3.41
478.097	3.39
478.448	3.4
478.8	3.39
479.15	3.39
479.501	3.38
479.852	3.37
480.203	3.37
480.554	3.38
480.905	3.39
481.255	3.4
481.606	3.4
481.957	3.42
482.307	3.43
482.658	3.42
483.009	3.42
483.359	3.41
483.709	3.4
484.06	3.4
484.41	3.4
484.761	3.4
485.111	3.4
485.461	3.41
485.811	3.4
486.162	3.41
486.512	3.42
486.862	3.42
487.212	3.43
487.562	3.44
487.912	3.43
488.262	3.43
488.612	3.43
488.961	3.42
489.311	3.42
489.661	3.42
490.011	3.43
490.36	3.42
490.71	3.42
491.06	3.44
491.409	3.44
491.759	3.44
492.108	3.43
492.458	3.43
492.807	3.42
493.157	3.44
493.506	3.43
493.855	3.43
494.204	3.42
494.554	3.41
494.903	3.4
495.252	3.41
495.601	3.41
495.95	3.43
496.299	3.43
496.648	3.42
496.997	3.43
497.346	3.45
497.695	3.46
498.043	3.47
498.392	3.49
498.741	3.5
499.09	3.5
499.438	3.54
499.787	3.54
500.135	3.55
500.484	3.53
500.832	3.56
501.181	3.57
501.529	3.57
501.878	3.6
502.226	3.61
502.574	3.62
502.923	3.63
503.271	3.63
503.619	3.65
503.967	3.64
504.315	3.62
504.663	3.62
505.011	3.63
505.359	3.65
505.707	3.64
506.055	3.63
506.403	3.64
506.751	3.61
507.098	3.63
507.446	3.62
507.794	3.64
508.141	3.64
508.489	3.65
508.837	3.66
509.184	3.64
509.531	3.64
509.879	3.66
510.226	3.67
510.574	3.66
510.921	3.66
511.268	3.67
511.616	3.68
511.963	3.67
512.31	3.67
512.657	3.67
513.004	3.67
513.351	3.67
513.698	3.7
514.045	3.7
514.392	3.7
514.739	3.7
515.086	3.7
515.432	3.71
515.779	3.71
516.126	3.71
516.473	3.71
516.819	3.73
517.166	3.71
517.512	3.7
517.859	3.72
518.205	3.71
518.552	3.72
518.898	3.73
519.245	3.75
519.591	3.74
519.937	3.74
520.283	3.74
520.629	3.75
520.976	3.75
521.322	3.76
521.668	3.76
522.014	3.77
522.36	3.79
522.706	3.77
523.052	3.79
523.398	3.81
523.743	3.81
524.089	3.8
524.435	3.8
524.781	3.8
525.126	3.81
525.472	3.81
525.817	3.81
526.163	3.82
526.509	3.82
526.854	3.83
527.199	3.84
527.545	3.83
527.89	3.82
528.235	3.81
528.581	3.81
528.926	3.82
529.271	3.82
529.616	3.81
529.961	3.82
530.306	3.81
530.651	3.81
530.996	3.81
531.341	3.81
531.686	3.82
532.031	3.83
532.376	3.83
532.721	3.84
533.065	3.84
533.41	3.84
533.755	3.84
534.099	3.84
534.444	3.84
534.788	3.86
535.133	3.86
535.477	3.87
535.822	3.87
536.166	3.87
536.51	3.87
536.855	3.86
537.199	3.86
537.543	3.86
537.887	3.86
538.231	3.84
538.576	3.87
538.92	3.86
539.264	3.87
539.608	3.88
539.951	3.88
540.295	3.88
540.639	3.89
540.983	3.89
541.327	3.88
541.671	3.88
542.014	3.88
542.358	3.88
542.701	3.88
543.045	3.89
543.389	3.91
543.732	3.92
544.075	3.93
544.419	3.94
544.762	3.94
545.105	3.95
545.449	3.95
545.792	3.93
546.135	3.96
546.478	3.95
546.821	3.94
547.165	3.94
547.508	3.94
547.851	3.93
548.194	3.93
548.536	3.95
548.879	3.99
549.222	3.99
549.565	3.99
549.908	4
550.25	4
550.593	3.97
550.936	3.96
551.278	3.97
551.621	3.97
551.963	3.98
552.306	3.97
552.648	3.99
552.991	4.02
553.333	3.99
553.675	4
554.017	4.01
554.36	4
554.702	4.05
555.044	4.07
555.386	4.05
555.728	4.02
556.07	4
556.412	4
556.754	4.01
557.096	4.01
557.438	4.04
557.78	4.06
558.121	4.06
558.463	4.06
558.805	4.07
559.147	4.06
559.488	4.05
559.83	4.06
560.171	4.05
560.513	4.07
560.854	4.05
561.196	4.06
561.537	4.09
561.878	4.04
562.22	4
562.561	4.01
562.902	4.03
563.243	4.03
563.584	4.07
563.925	4.08
564.266	4.07
564.607	4.04
564.948	4.04
565.289	4.03
565.63	4.02
565.971	4.04
566.312	4.05
566.653	4.07
566.993	4.08
567.334	4.07
567.675	4.07
568.015	4.1
568.356	4.09
568.696	4.09
569.037	4.1
569.377	4.13
569.718	4.12
570.058	4.14
570.398	4.11
570.739	4.07
571.079	4.07
571.419	4.08
571.759	4.1
572.099	4.08
572.439	4.09
572.779	4.11
573.119	4.1
573.459	4.09
573.799	4.13
574.139	4.12
574.479	4.11
574.819	4.08
575.158	4.06
575.498	4.07
575.838	4.07
576.177	4.04
576.517	4.03
576.856	4.07
577.196	4.06
577.535	4.06
577.875	4.08
578.214	4.07
578.553	4.06
578.893	4.03
579.232	4.01
579.571	4.01
579.91	4.01
580.25	4.03
580.589	4.06
580.928	4.01
581.267	4.03
581.606	4.03
581.945	4.05
582.283	4.03
582.622	4.02
582.961	3.98
583.3	4.03
583.639	4.06
583.977	4
584.316	3.99
584.654	4.04
584.993	4.06
585.332	4.07
585.67	4.08
586.008	4.08
586.347	4.12
586.685	4.14
587.024	4.09
587.362	4.05
587.7	4.07
588.038	4.1
588.376	4.08
588.715	4.13
589.053	4.19
589.391	4.23
589.729	4.24
590.067	4.26
590.404	4.26
590.742	4.24
591.08	4.26
591.418	4.3
591.756	4.28
592.093	4.26
592.431	4.27
592.769	4.28
593.106	4.31
593.444	4.31
593.781	4.31
594.119	4.36
594.456	4.35
594.793	4.34
595.131	4.32
595.468	4.31
595.805	4.29
596.143	4.26
596.48	4.26
596.817	4.23
597.154	4.26
597.491	4.26
597.828	4.25
598.165	4.27
598.502	4.23
598.839	4.23
599.176	4.22
599.512	4.23
599.849	4.23
600.186	4.24
600.523	4.26
600.859	4.28
601.196	4.3
601.532	4.3
601.869	4.29
602.205	4.32
602.542	4.31
602.878	4.31
603.215	4.31
603.551	4.32
603.887	4.33
604.223	4.34
604.56	4.35
604.896	4.34
605.232	4.36
605.568	4.39
605.904	4.4
606.24	4.43
606.576	4.41
606.912	4.42
607.248	4.4
607.583	4.43
607.919	4.41
608.255	4.39
608.591	4.45
608.926	4.48
609.262	4.47
609.597	4.5
609.933	4.55
610.268	4.59
610.604	4.56
610.939	4.56
611.275	4.51
611.61	4.51
611.945	4.57
612.281	4.54
612.616	4.54
612.951	4.56
613.286	4.53
613.621	4.55
613.956	4.55
614.291	4.57
614.626	4.52
614.961	4.52
615.296	4.5
615.631	4.46
615.966	4.45
616.3	4.43
616.635	4.38
616.97	4.35
617.304	4.31
617.639	4.32
617.973	4.35
618.308	4.4
618.642	4.39
618.977	4.33
619.311	4.31
619.646	4.3
619.98	4.29
620.314	4.37
620.648	4.4
620.983	4.4
621.317	4.39
621.651	4.41
621.985	4.43
622.319	4.48
622.653	4.46
622.987	4.45
623.321	4.46
623.655	4.47
623.988	4.53
624.322	4.53
624.656	4.57
624.99	4.53
625.323	4.54
625.657	4.56
625.99	4.61
626.324	4.62
626.657	4.61
626.991	4.62
627.324	4.61
627.658	4.62
627.991	4.65
628.324	4.66
628.657	4.64
628.991	4.64
629.324	4.68
629.657	4.72
629.99	4.74
630.323	4.75
630.656	4.8
630.989	4.79
631.322	4.83
631.655	4.84
631.987	4.9
632.32	4.88
632.653	4.85
632.986	4.85
633.318	4.84
633.651	4.82
633.984	4.83
634.316	4.76
634.649	4.71
634.981	4.69
635.313	4.73
635.646	4.76
635.978	4.82
636.31	4.79
636.643	4.78
636.975	4.74
637.307	4.74
637.639	4.74
637.971	4.74
638.303	4.67
638.635	4.62
638.967	4.58
639.299	4.57
639.631	4.6
639.963	4.53
640.295	4.59
640.626	4.65
640.958	4.66
641.29	4.69
641.621	4.72
641.953	4.68
642.285	4.68
642.616	4.66
642.948	4.6
643.279	4.59
643.61	4.61
643.942	4.66
644.273	4.68
644.604	4.73
644.936	4.66
645.267	4.73
645.598	4.82
645.929	4.84
646.26	4.89
646.591	4.88
646.922	4.91
647.253	4.88
647.584	4.82
647.915	4.77
648.245	4.79
648.576	4.79
648.907	4.83
649.238	4.84
649.568	4.83
649.899	4.85
650.229	4.84
650.56	4.8
650.89	4.78
651.221	4.8
651.551	4.69
651.882	4.7
652.212	4.67
652.542	4.63
652.872	4.6
653.203	4.59
653.533	4.65
653.863	4.64
654.193	4.63
654.523	4.72
654.853	4.75
655.183	4.75
655.513	4.76
655.843	4.74
656.172	4.7
656.502	4.7
656.832	4.71
657.162	4.71
657.491	4.73
657.821	4.7
658.15	4.64
658.48	4.71
658.809	4.72
659.139	4.65
659.468	4.67
659.798	4.71
660.127	4.74
660.456	4.71
660.785	4.77
661.115	4.73
661.444	4.73
661.773	4.82
662.102	4.82
662.431	4.83
662.76	4.86
663.089	4.83
663.418	4.77
663.747	4.75
664.076	4.77
664.404	4.7
664.733	4.78
665.062	4.84
665.39	4.81
665.719	4.8
666.048	4.93
666.376	4.88
666.705	4.86
667.033	4.82
667.362	4.91
667.69	4.84
668.018	4.94
668.347	4.93
668.675	4.83
669.003	4.89
669.331	4.95
669.659	4.96
669.987	4.95
670.315	4.99
670.643	5.02
670.971	5.02
671.299	5.08
671.627	5.05
671.955	5.06
672.283	5.01
672.61	5.06
672.938	5.07
673.266	5.13
673.593	5.17
673.921	5.13
674.249	5.03
674.576	5.04
674.904	4.95
675.231	4.95
675.558	4.93
675.886	4.84
676.213	4.8
676.54	4.77
676.867	4.93
677.195	4.95
677.522	4.96
677.849	4.97
678.176	5.02
678.503	5.01
