Data from BU26845_Reflection_00005.txt Node
Date: Mon Nov 18 16:27:56 EST 2019
User: vgr7
Spectrometer: USB2G7710
Scans to average: 3
Trigger mode: 4
Integration Time (sec): 2.000000E-2
Electric dark correction enabled: true
Boxcar width: 10
XAxis mode: Wavelengths
Number of Pixels in Spectrum: 2048
>>>>>Begin Spectral Data<<<<<
177.721	-164.05
178.105	-144.58
178.488	-122.29
178.871	-115.61
179.254	-62.58
179.636	276.99
180.019	-4.15
180.402	88
180.785	-494.41
181.168	725
181.55	652.24
181.933	47.51
182.316	103.95
182.698	141.46
183.081	88.02
183.463	37.61
183.846	126.84
184.228	72.19
184.611	4.56
184.993	-241.9
185.376	-200.23
185.758	193.99
186.14	133.3
186.522	139.31
186.904	73.72
187.287	62.61
187.669	53.61
188.051	40.65
188.433	27.45
188.815	27.48
189.197	26.61
189.579	29.4
189.961	16.3
190.342	16.14
190.724	29.18
191.106	17.4
191.488	9.33
191.869	24.12
192.251	21.93
192.633	28.77
193.014	29.53
193.396	32.77
193.777	44.28
194.159	37.17
194.54	22.78
194.922	26.29
195.303	30.28
195.684	35.47
196.065	38.07
196.447	47.8
196.828	42.1
197.209	49.38
197.59	48.32
197.971	56.17
198.352	57.15
198.733	56.18
199.114	66.79
199.495	83.36
199.876	77.16
200.257	69.84
200.638	53.91
201.018	43.9
201.399	38.47
201.78	36.58
202.16	36.26
202.541	38.36
202.922	49.55
203.302	56.09
203.683	45.11
204.063	43.26
204.444	49.95
204.824	38.35
205.204	36.14
205.585	33.83
205.965	57.27
206.345	39.78
206.725	24.96
207.106	20.04
207.486	3.86
207.866	13.73
208.246	17.39
208.626	24.39
209.006	28.32
209.386	15.25
209.766	4.52
210.145	15.37
210.525	17.18
210.905	5.89
211.285	-3.43
211.664	-2.44
212.044	3.13
212.424	1.8
212.803	1.12
213.183	-3.87
213.562	0.85
213.942	-3.34
214.321	4.42
214.701	-3.77
215.08	-5.81
215.459	-4.76
215.838	-11.46
216.218	-16.55
216.597	-27.23
216.976	-24.94
217.355	-11.47
217.734	-16.4
218.113	-20.27
218.492	-15.74
218.871	-8.26
219.25	0.9
219.629	-5.37
220.008	-9.2
220.387	-10.04
220.766	-2.76
221.144	-7.1
221.523	-17.46
221.902	-17.19
222.28	-22.07
222.659	-11.27
223.037	-16.66
223.416	-14.66
223.794	-12.41
224.173	-11.53
224.551	4.02
224.929	0.24
225.308	2.9
225.686	5.02
226.064	6.88
226.442	4.46
226.821	0.69
227.199	-5.03
227.577	-4.33
227.955	-3.9
228.333	-2.72
228.711	-0.65
229.089	1.79
229.467	1.75
229.845	3.43
230.222	3.43
230.6	2.35
230.978	3.97
231.356	4.86
231.733	5.07
232.111	6.58
232.488	4.51
232.866	5.05
233.243	5.66
233.621	6.89
233.998	7.98
234.376	6.49
234.753	8.09
235.13	8.75
235.508	8.88
235.885	10.42
236.262	9.94
236.639	8.07
237.016	7.03
237.393	9.22
237.77	9.1
238.147	9.55
238.524	8.37
238.901	8.78
239.278	8.58
239.655	8.48
240.032	8.31
240.409	7.91
240.785	7.15
241.162	6.6
241.539	6.18
241.915	5.98
242.292	5.53
242.668	5.4
243.045	5.48
243.421	5.34
243.798	4.83
244.174	4.61
244.551	4.62
244.927	4.75
245.303	4.46
245.679	4.62
246.056	4.35
246.432	4.62
246.808	4.31
247.184	3.84
247.56	3.83
247.936	3.63
248.312	3.57
248.688	3.63
249.064	3.54
249.44	3.45
249.815	3.29
250.191	3.5
250.567	3.5
250.943	3.32
251.318	3.6
251.694	3.61
252.069	3.49
252.445	3.73
252.82	3.73
253.196	3.64
253.571	3.26
253.947	3.5
254.322	3.6
254.697	3.77
255.073	3.94
255.448	3.38
255.823	3.59
256.198	3.7
256.573	3.55
256.948	3.63
257.323	3.57
257.698	3.71
258.073	3.47
258.448	3.08
258.823	2.97
259.198	2.81
259.573	2.71
259.948	2.89
260.322	2.84
260.697	2.65
261.072	2.59
261.446	2.59
261.821	2.53
262.195	2.52
262.57	2.46
262.944	2.53
263.319	2.6
263.693	2.29
264.067	2.24
264.442	2.41
264.816	2.43
265.19	2.51
265.564	2.44
265.938	2.52
266.313	2.55
266.687	2.57
267.061	2.43
267.435	2.59
267.809	2.4
268.183	2.34
268.556	2.4
268.93	2.56
269.304	2.51
269.678	2.51
270.051	2.32
270.425	2.27
270.799	2.16
271.172	2.21
271.546	2.45
271.919	2.3
272.293	2.25
272.666	2.18
273.04	2.2
273.413	2.18
273.787	2.21
274.16	2.19
274.533	2.24
274.906	2.27
275.279	2.14
275.653	2.06
276.026	1.91
276.399	1.95
276.772	1.95
277.145	1.95
277.518	1.97
277.891	2.13
278.263	2.25
278.636	2.28
279.009	2.23
279.382	2.27
279.755	2.32
280.127	2.46
280.5	2.44
280.872	2.59
281.245	2.49
281.617	2.61
281.99	2.83
282.362	2.99
282.735	2.97
283.107	3.04
283.479	3.16
283.852	3.11
284.224	3.1
284.596	3.03
284.968	2.96
285.34	2.96
285.713	2.82
286.085	2.77
286.457	2.84
286.829	2.97
287.201	2.93
287.572	2.96
287.944	2.81
288.316	2.77
288.688	2.59
289.06	2.64
289.431	2.65
289.803	2.67
290.175	2.58
290.546	2.76
290.918	2.74
291.289	2.74
291.661	2.88
292.032	2.83
292.403	2.75
292.775	2.89
293.146	2.79
293.517	2.97
293.889	3.05
294.26	2.99
294.631	2.94
295.002	2.89
295.373	2.92
295.744	2.89
296.115	2.91
296.486	2.86
296.857	2.85
297.228	2.82
297.599	2.67
297.97	2.58
298.34	2.47
298.711	2.47
299.082	2.43
299.452	2.41
299.823	2.48
300.194	2.5
300.564	2.42
300.935	2.44
301.305	2.33
301.676	2.33
302.046	2.41
302.416	2.43
302.787	2.34
303.157	2.33
303.527	2.28
303.897	2.34
304.267	2.5
304.637	2.59
305.008	2.51
305.378	2.76
305.748	2.78
306.117	2.73
306.487	2.71
306.857	2.77
307.227	2.8
307.597	2.68
307.967	2.67
308.336	2.63
308.706	2.72
309.076	2.74
309.445	2.53
309.815	2.34
310.184	2.32
310.554	2.34
310.923	2.27
311.293	2.34
311.662	2.27
312.031	2.1
312.401	2.03
312.77	2.07
313.139	2
313.508	2.05
313.877	2.13
314.246	2.16
314.616	2.05
314.985	2.06
315.353	2.01
315.722	2.12
316.091	2.09
316.46	2.08
316.829	2.02
317.198	2.17
317.567	2.2
317.935	2.16
318.304	2.26
318.672	2.32
319.041	2.4
319.41	2.36
319.778	2.46
320.147	2.35
320.515	2.25
320.883	2.08
321.252	1.96
321.62	1.88
321.988	1.75
322.357	1.82
322.725	1.74
323.093	1.86
323.461	1.67
323.829	1.67
324.197	1.62
324.565	1.7
324.933	1.76
325.301	1.89
325.669	1.9
326.037	1.87
326.405	1.89
326.772	1.91
327.14	2.15
327.508	2.09
327.875	2.11
328.243	2.28
328.61	2.39
328.978	2.54
329.346	2.57
329.713	2.59
330.08	2.47
330.448	2.47
330.815	2.39
331.182	2.4
331.55	2.47
331.917	2.37
332.284	2.42
332.651	2.34
333.018	2.25
333.385	2.23
333.752	2.21
334.119	2.12
334.486	2.02
334.853	1.92
335.22	1.85
335.587	2
335.954	1.9
336.32	1.84
336.687	1.85
337.054	1.85
337.42	1.86
337.787	2.05
338.153	2.13
338.52	2.28
338.886	2.34
339.253	2.34
339.619	2.42
339.986	2.42
340.352	2.49
340.718	2.52
341.084	2.51
341.451	2.52
341.817	2.71
342.183	2.77
342.549	2.67
342.915	2.74
343.281	2.7
343.647	2.67
344.013	2.71
344.379	2.61
344.745	2.58
345.11	2.7
345.476	2.68
345.842	2.66
346.208	2.58
346.573	2.64
346.939	2.66
347.304	2.6
347.67	2.54
348.035	2.47
348.401	2.42
348.766	2.41
349.132	2.42
349.497	2.34
349.862	2.4
350.228	2.42
350.593	2.41
350.958	2.32
351.323	2.39
351.688	2.37
352.053	2.4
352.418	2.48
352.783	2.43
353.148	2.35
353.513	2.32
353.878	2.34
354.243	2.32
354.608	2.33
354.972	2.4
355.337	2.42
355.702	2.49
356.066	2.59
356.431	2.62
356.795	2.7
357.16	2.67
357.524	2.56
357.889	2.56
358.253	2.62
358.618	2.65
358.982	2.58
359.346	2.56
359.71	2.51
360.075	2.45
360.439	2.43
360.803	2.5
361.167	2.47
361.531	2.45
361.895	2.43
362.259	2.4
362.623	2.39
362.987	2.4
363.351	2.39
363.714	2.36
364.078	2.38
364.442	2.31
364.806	2.25
365.169	2.32
365.533	2.34
365.896	2.3
366.26	2.32
366.623	2.35
366.987	2.38
367.35	2.47
367.714	2.57
368.077	2.6
368.44	2.58
368.803	2.62
369.167	2.62
369.53	2.56
369.893	2.58
370.256	2.54
370.619	2.48
370.982	2.46
371.345	2.43
371.708	2.43
372.071	2.43
372.434	2.47
372.797	2.47
373.159	2.47
373.522	2.48
373.885	2.48
374.247	2.48
374.61	2.5
374.973	2.46
375.335	2.4
375.698	2.37
376.06	2.29
376.423	2.31
376.785	2.34
377.147	2.41
377.51	2.42
377.872	2.48
378.234	2.55
378.596	2.55
378.958	2.55
379.321	2.53
379.683	2.54
380.045	2.55
380.407	2.54
380.769	2.51
381.13	2.52
381.492	2.51
381.854	2.52
382.216	2.47
382.578	2.48
382.939	2.44
383.301	2.44
383.663	2.5
384.024	2.44
384.386	2.48
384.747	2.49
385.109	2.49
385.47	2.48
385.832	2.43
386.193	2.46
386.554	2.44
386.916	2.45
387.277	2.42
387.638	2.42
387.999	2.4
388.36	2.42
388.721	2.42
389.082	2.44
389.443	2.44
389.804	2.43
390.165	2.45
390.526	2.45
390.887	2.45
391.248	2.47
391.609	2.51
391.969	2.46
392.33	2.43
392.691	2.41
393.051	2.4
393.412	2.43
393.772	2.4
394.133	2.41
394.493	2.41
394.854	2.44
395.214	2.46
395.574	2.47
395.935	2.45
396.295	2.46
396.655	2.44
397.015	2.45
397.376	2.46
397.736	2.44
398.096	2.46
398.456	2.49
398.816	2.5
399.176	2.46
399.535	2.46
399.895	2.47
400.255	2.47
400.615	2.45
400.975	2.44
401.334	2.4
401.694	2.42
402.054	2.41
402.413	2.45
402.773	2.4
403.132	2.41
403.492	2.43
403.851	2.42
404.211	2.41
404.57	2.37
404.929	2.43
405.288	2.43
405.648	2.42
406.007	2.43
406.366	2.4
406.725	2.44
407.084	2.45
407.443	2.46
407.802	2.46
408.161	2.46
408.52	2.45
408.879	2.47
409.238	2.45
409.596	2.45
409.955	2.4
410.314	2.41
410.673	2.43
411.031	2.42
411.39	2.42
411.748	2.44
412.107	2.47
412.465	2.42
412.824	2.43
413.182	2.43
413.54	2.43
413.899	2.43
414.257	2.44
414.615	2.42
414.974	2.44
415.332	2.44
415.69	2.44
416.048	2.43
416.406	2.46
416.764	2.46
417.122	2.47
417.48	2.47
417.838	2.49
418.195	2.48
418.553	2.47
418.911	2.47
419.269	2.45
419.626	2.45
419.984	2.45
420.342	2.46
420.699	2.45
421.057	2.45
421.414	2.46
421.772	2.44
422.129	2.44
422.486	2.43
422.844	2.44
423.201	2.43
423.558	2.45
423.915	2.45
424.273	2.44
424.63	2.45
424.987	2.44
425.344	2.43
425.701	2.41
426.058	2.42
426.415	2.42
426.772	2.42
427.128	2.43
427.485	2.43
427.842	2.42
428.199	2.44
428.555	2.43
428.912	2.44
429.269	2.45
429.625	2.45
429.982	2.46
430.338	2.44
430.695	2.45
431.051	2.43
431.407	2.44
431.764	2.46
432.12	2.44
432.476	2.46
432.832	2.45
433.189	2.49
433.545	2.49
433.901	2.48
434.257	2.48
434.613	2.47
434.969	2.48
435.325	2.5
435.681	2.49
436.036	2.48
436.392	2.47
436.748	2.48
437.104	2.47
437.459	2.47
437.815	2.49
438.171	2.48
438.526	2.5
438.882	2.5
439.237	2.5
439.593	2.51
439.948	2.5
440.304	2.5
440.659	2.48
441.014	2.49
441.369	2.49
441.725	2.5
442.08	2.51
442.435	2.51
442.79	2.49
443.145	2.5
443.5	2.52
443.855	2.52
444.21	2.51
444.565	2.52
444.92	2.52
445.275	2.52
445.629	2.53
445.984	2.51
446.339	2.5
446.693	2.49
447.048	2.48
447.403	2.49
447.757	2.49
448.112	2.5
448.466	2.51
448.82	2.52
449.175	2.52
449.529	2.53
449.883	2.52
450.238	2.52
450.592	2.52
450.946	2.5
451.3	2.51
451.654	2.53
452.008	2.53
452.362	2.52
452.716	2.51
453.07	2.53
453.424	2.55
453.778	2.56
454.132	2.56
454.486	2.57
454.839	2.57
455.193	2.56
455.547	2.55
455.9	2.54
456.254	2.54
456.607	2.55
456.961	2.55
457.314	2.57
457.668	2.56
458.021	2.55
458.375	2.55
458.728	2.54
459.081	2.55
459.434	2.53
459.787	2.54
460.141	2.55
460.494	2.54
460.847	2.53
461.2	2.5
461.553	2.51
461.906	2.51
462.259	2.51
462.611	2.53
462.964	2.53
463.317	2.52
463.67	2.54
464.022	2.52
464.375	2.51
464.728	2.5
465.08	2.51
465.433	2.53
465.785	2.53
466.138	2.53
466.49	2.52
466.843	2.53
467.195	2.53
467.547	2.54
467.899	2.54
468.252	2.56
468.604	2.59
468.956	2.6
469.308	2.6
469.66	2.6
470.012	2.61
470.364	2.61
470.716	2.62
471.068	2.61
471.42	2.62
471.772	2.63
472.123	2.63
472.475	2.65
472.827	2.64
473.178	2.63
473.53	2.63
473.882	2.65
474.233	2.65
474.585	2.65
474.936	2.65
475.288	2.64
475.639	2.65
475.99	2.64
476.342	2.63
476.693	2.64
477.044	2.65
477.395	2.64
477.746	2.63
478.097	2.63
478.448	2.62
478.8	2.6
479.15	2.6
479.501	2.6
479.852	2.59
480.203	2.61
480.554	2.62
480.905	2.62
481.255	2.63
481.606	2.62
481.957	2.63
482.307	2.63
482.658	2.63
483.009	2.62
483.359	2.62
483.709	2.62
484.06	2.61
484.41	2.61
484.761	2.62
485.111	2.63
485.461	2.64
485.811	2.64
486.162	2.65
486.512	2.65
486.862	2.65
487.212	2.65
487.562	2.65
487.912	2.66
488.262	2.66
488.612	2.64
488.961	2.65
489.311	2.64
489.661	2.63
490.011	2.63
490.36	2.63
490.71	2.64
491.06	2.65
491.409	2.67
491.759	2.67
492.108	2.67
492.458	2.66
492.807	2.65
493.157	2.65
493.506	2.67
493.855	2.66
494.204	2.65
494.554	2.64
494.903	2.63
495.252	2.62
495.601	2.62
495.95	2.64
496.299	2.63
496.648	2.64
496.997	2.65
497.346	2.65
497.695	2.64
498.043	2.65
498.392	2.65
498.741	2.65
499.09	2.63
499.438	2.64
499.787	2.66
500.135	2.68
500.484	2.68
500.832	2.68
501.181	2.69
501.529	2.7
501.878	2.74
502.226	2.77
502.574	2.76
502.923	2.76
503.271	2.74
503.619	2.76
503.967	2.76
504.315	2.76
504.663	2.76
505.011	2.78
505.359	2.77
505.707	2.77
506.055	2.75
506.403	2.79
506.751	2.77
507.098	2.76
507.446	2.75
507.794	2.73
508.141	2.74
508.489	2.74
508.837	2.74
509.184	2.75
509.531	2.73
509.879	2.75
510.226	2.79
510.574	2.81
510.921	2.81
511.268	2.82
511.616	2.83
511.963	2.83
512.31	2.82
512.657	2.85
513.004	2.85
513.351	2.85
513.698	2.84
514.045	2.84
514.392	2.86
514.739	2.86
515.086	2.87
515.432	2.85
515.779	2.85
516.126	2.86
516.473	2.86
516.819	2.88
517.166	2.87
517.512	2.84
517.859	2.84
518.205	2.83
518.552	2.84
518.898	2.82
519.245	2.83
519.591	2.83
519.937	2.8
520.283	2.82
520.629	2.83
520.976	2.83
521.322	2.82
521.668	2.81
522.014	2.83
522.36	2.82
522.706	2.84
523.052	2.83
523.398	2.83
523.743	2.83
524.089	2.82
524.435	2.81
524.781	2.82
525.126	2.83
525.472	2.85
525.817	2.84
526.163	2.85
526.509	2.86
526.854	2.86
527.199	2.88
527.545	2.88
527.89	2.87
528.235	2.87
528.581	2.88
528.926	2.88
529.271	2.88
529.616	2.89
529.961	2.88
530.306	2.9
530.651	2.9
530.996	2.9
531.341	2.89
531.686	2.9
532.031	2.91
532.376	2.91
532.721	2.91
533.065	2.92
533.41	2.92
533.755	2.92
534.099	2.92
534.444	2.93
534.788	2.93
535.133	2.93
535.477	2.92
535.822	2.92
536.166	2.91
536.51	2.89
536.855	2.89
537.199	2.9
537.543	2.89
537.887	2.9
538.231	2.9
538.576	2.91
538.92	2.9
539.264	2.89
539.608	2.9
539.951	2.89
540.295	2.89
540.639	2.89
540.983	2.9
541.327	2.89
541.671	2.88
542.014	2.88
542.358	2.88
542.701	2.89
543.045	2.9
543.389	2.91
543.732	2.94
544.075	2.95
544.419	2.95
544.762	2.95
545.105	2.96
545.449	2.97
545.792	2.95
546.135	2.95
546.478	2.96
546.821	2.96
547.165	2.97
547.508	2.99
547.851	3.01
548.194	3.01
548.536	3.02
548.879	3.04
549.222	3.05
549.565	3.03
549.908	3.05
550.25	3.07
550.593	3.06
550.936	3.03
551.278	3.02
551.621	3.04
551.963	3.05
552.306	3.03
552.648	3.02
552.991	3.05
553.333	3.08
553.675	3.09
554.017	3.09
554.36	3.11
554.702	3.09
555.044	3.07
555.386	3.06
555.728	3.07
556.07	3.09
556.412	3.08
556.754	3.1
557.096	3.08
557.438	3.06
557.78	3.06
558.121	3.08
558.463	3.07
558.805	3.07
559.147	3.06
559.488	3.04
559.83	3.05
560.171	3.04
560.513	3.03
560.854	3.01
561.196	3.02
561.537	3.03
561.878	3.06
562.22	3.06
562.561	3.04
562.902	3.05
563.243	3.06
563.584	3.04
563.925	3.05
564.266	3.05
564.607	3.07
564.948	3.07
565.289	3.08
565.63	3.1
565.971	3.09
566.312	3.11
566.653	3.14
566.993	3.15
567.334	3.15
567.675	3.14
568.015	3.14
568.356	3.14
568.696	3.13
569.037	3.1
569.377	3.12
569.718	3.16
570.058	3.15
570.398	3.11
570.739	3.12
571.079	3.12
571.419	3.14
571.759	3.14
572.099	3.15
572.439	3.12
572.779	3.1
573.119	3.1
573.459	3.09
573.799	3.07
574.139	3.05
574.479	3.07
574.819	3.08
575.158	3.08
575.498	3.06
575.838	3.06
576.177	3.04
576.517	3.02
576.856	2.97
577.196	2.98
577.535	2.99
577.875	2.98
578.214	2.98
578.553	2.97
578.893	2.94
579.232	2.91
579.571	2.95
579.91	2.98
580.25	2.95
580.589	2.97
580.928	2.97
581.267	2.99
581.606	2.97
581.945	2.95
582.283	2.92
582.622	2.91
582.961	2.9
583.3	2.94
583.639	2.96
583.977	2.98
584.316	2.98
584.654	3
584.993	3.02
585.332	3
585.67	2.97
586.008	3.01
586.347	3.04
586.685	3.02
587.024	2.99
587.362	3.01
587.7	3.04
588.038	3.05
588.376	3.06
588.715	3.07
589.053	3.09
589.391	3.12
589.729	3.16
590.067	3.14
590.404	3.15
590.742	3.12
591.08	3.12
591.418	3.13
591.756	3.11
592.093	3.1
592.431	3.1
592.769	3.14
593.106	3.13
593.444	3.08
593.781	3.07
594.119	3.06
594.456	3.09
594.793	3.04
595.131	3.04
595.468	3.06
595.805	3.03
596.143	3.03
596.48	3.02
596.817	3.01
597.154	3.03
597.491	3.02
597.828	3.03
598.165	3.03
598.502	3.02
598.839	3.04
599.176	3.06
599.512	3.07
599.849	3.07
600.186	3.06
600.523	3.11
600.859	3.15
601.196	3.15
601.532	3.14
601.869	3.15
602.205	3.13
602.542	3.11
602.878	3.13
603.215	3.12
603.551	3.11
603.887	3.1
604.223	3.1
604.56	3.12
604.896	3.16
605.232	3.15
605.568	3.14
605.904	3.12
606.24	3.09
606.576	3.07
606.912	3.07
607.248	3.09
607.583	3.09
607.919	3.06
608.255	3.08
608.591	3.09
608.926	3.08
609.262	3.09
609.597	3.09
609.933	3.09
610.268	3.1
610.604	3.13
610.939	3.13
611.275	3.14
611.61	3.12
611.945	3.11
612.281	3.13
612.616	3.16
612.951	3.19
613.286	3.22
613.621	3.24
613.956	3.24
614.291	3.27
614.626	3.24
614.961	3.28
615.296	3.23
615.631	3.19
615.966	3.23
616.3	3.26
616.635	3.27
616.97	3.3
617.304	3.27
617.639	3.23
617.973	3.21
618.308	3.22
618.642	3.21
618.977	3.2
619.311	3.16
619.646	3.18
619.98	3.18
620.314	3.16
620.648	3.19
620.983	3.2
621.317	3.16
621.651	3.21
621.985	3.2
622.319	3.24
622.653	3.26
622.987	3.22
623.321	3.2
623.655	3.21
623.988	3.22
624.322	3.22
624.656	3.29
624.99	3.34
625.323	3.32
625.657	3.32
625.99	3.35
626.324	3.36
626.657	3.34
626.991	3.36
627.324	3.37
627.658	3.37
627.991	3.34
628.324	3.36
628.657	3.35
628.991	3.36
629.324	3.37
629.657	3.36
629.99	3.4
630.323	3.41
630.656	3.41
630.989	3.41
631.322	3.44
631.655	3.43
631.987	3.41
632.32	3.42
632.653	3.39
632.986	3.36
633.318	3.35
633.651	3.41
633.984	3.38
634.316	3.34
634.649	3.34
634.981	3.39
635.313	3.4
635.646	3.38
635.978	3.32
636.31	3.32
636.643	3.36
636.975	3.33
637.307	3.35
637.639	3.34
637.971	3.36
638.303	3.32
638.635	3.29
638.967	3.32
639.299	3.38
639.631	3.47
639.963	3.45
640.295	3.46
640.626	3.41
640.958	3.4
641.29	3.43
641.621	3.42
641.953	3.43
642.285	3.37
642.616	3.44
642.948	3.49
643.279	3.49
643.61	3.43
643.942	3.5
644.273	3.48
644.604	3.51
644.936	3.45
645.267	3.48
645.598	3.52
645.929	3.54
646.26	3.46
646.591	3.35
646.922	3.35
647.253	3.39
647.584	3.4
647.915	3.44
648.245	3.46
648.576	3.48
648.907	3.42
649.238	3.4
649.568	3.3
649.899	3.32
650.229	3.28
650.56	3.3
650.89	3.3
651.221	3.31
651.551	3.26
651.882	3.29
652.212	3.31
652.542	3.34
652.872	3.24
653.203	3.24
653.533	3.37
653.863	3.39
654.193	3.4
654.523	3.4
654.853	3.42
655.183	3.43
655.513	3.38
655.843	3.44
656.172	3.52
656.502	3.58
656.832	3.6
657.162	3.7
657.491	3.7
657.821	3.62
658.15	3.66
658.48	3.72
658.809	3.76
659.139	3.74
659.468	3.67
659.798	3.71
660.127	3.72
660.456	3.7
660.785	3.64
661.115	3.6
661.444	3.55
661.773	3.57
662.102	3.56
662.431	3.64
662.76	3.65
663.089	3.55
663.418	3.51
663.747	3.48
664.076	3.42
664.404	3.32
664.733	3.45
665.062	3.37
665.39	3.34
665.719	3.25
666.048	3.28
666.376	3.31
666.705	3.34
667.033	3.26
667.362	3.25
667.69	3.25
668.018	3.24
668.347	3.35
668.675	3.31
669.003	3.34
669.331	3.32
669.659	3.33
669.987	3.38
670.315	3.41
670.643	3.45
670.971	3.48
671.299	3.6
671.627	3.54
671.955	3.57
672.283	3.61
672.61	3.57
672.938	3.58
673.266	3.58
673.593	3.61
673.921	3.68
674.249	3.7
674.576	3.72
674.904	3.81
675.231	3.74
675.558	3.73
675.886	3.73
676.213	3.69
676.54	3.6
676.867	3.68
677.195	3.57
677.522	3.54
677.849	3.56
678.176	3.62
678.503	3.64
678.83	3.71
679.157	3.7
679.484	3.77
679.81	3.82
