Data from BU26850_Reflection_00001.txt Node
Date: Mon Nov 18 16:45:23 EST 2019
User: vgr7
Spectrometer: USB2G7710
Scans to average: 3
Trigger mode: 4
Integration Time (sec): 2.000000E-2
Electric dark correction enabled: true
Boxcar width: 10
XAxis mode: Wavelengths
Number of Pixels in Spectrum: 2048
>>>>>Begin Spectral Data<<<<<
177.721	-77.33
178.105	-90.81
178.488	2.02
178.871	15.19
179.254	94.63
179.636	46.7
180.019	50.42
180.402	80.77
180.785	27.4
181.168	81.42
181.55	412.88
181.933	409.47
182.316	750.7
182.698	556.17
183.081	598.8
183.463	-2588.31
183.846	-488.38
184.228	-587.33
184.611	853.19
184.993	2264.56
185.376	-526.54
185.758	-953.51
186.14	-317.64
186.522	-289.18
186.904	-310.15
187.287	-339.38
187.669	-207.74
188.051	-229.11
188.433	-135.18
188.815	-94.81
189.197	-99.88
189.579	-80.25
189.961	-85.9
190.342	-67.45
190.724	-72.22
191.106	-82.25
191.488	-85.56
191.869	-73.44
192.251	-73.73
192.633	-53.28
193.014	-52.74
193.396	-68.88
193.777	-58.14
194.159	-60.59
194.54	-35.42
194.922	-32.73
195.303	-48.4
195.684	-54.07
196.065	-44.36
196.447	-37.9
196.828	-36.93
197.209	-26.04
197.59	-37.87
197.971	-40.93
198.352	-34.33
198.733	-33.32
199.114	-20.29
199.495	-21.24
199.876	-29.4
200.257	-33.87
200.638	-44.6
201.018	-53.23
201.399	-49.38
201.78	-49.89
202.16	-47.95
202.541	-57.79
202.922	-84.31
203.302	-89.95
203.683	-83.38
204.063	-100.87
204.444	-112.66
204.824	-103.73
205.204	-125.39
205.585	-99.87
205.965	-89.81
206.345	-125.25
206.725	-123.33
207.106	-137.22
207.486	-136.21
207.866	-117.16
208.246	-124.14
208.626	-132.2
209.006	-69.92
209.386	-80.89
209.766	-85.81
210.145	-112.32
210.525	-101.69
210.905	-86.82
211.285	-73.45
211.664	-66.01
212.044	-60.47
212.424	-59.9
212.803	-76.13
213.183	-66.7
213.562	-56.31
213.942	-46.48
214.321	-34.14
214.701	-39.28
215.08	-32.54
215.459	-30.98
215.838	-33.89
216.218	-34.23
216.597	-28.7
216.976	-28.44
217.355	-21.59
217.734	-14.29
218.113	-11.44
218.492	3.85
218.871	1.92
219.25	6.79
219.629	1.38
220.008	6.6
220.387	7.03
220.766	1.19
221.144	-6.37
221.523	-8.11
221.902	-10.28
222.28	-23.53
222.659	-14.78
223.037	-16.63
223.416	-15.68
223.794	-14.65
224.173	-12.93
224.551	-11.08
224.929	-22.57
225.308	-14.84
225.686	-22.92
226.064	-20.05
226.442	-30.41
226.821	-21.94
227.199	-19.55
227.577	-17.51
227.955	-17.86
228.333	-14.77
228.711	-10.23
229.089	-4.37
229.467	-6.34
229.845	-5.15
230.222	-2.49
230.6	-5.86
230.978	-5.9
231.356	-3.63
231.733	-2.3
232.111	0.98
232.488	2.97
232.866	5.38
233.243	3.91
233.621	4.83
233.998	5.68
234.376	6.86
234.753	5.84
235.13	4.79
235.508	4.25
235.885	3.86
236.262	3.18
236.639	2.5
237.016	3.27
237.393	3.61
237.77	4.37
238.147	3.52
238.524	3.64
238.901	3.91
239.278	3.98
239.655	4.37
240.032	3.85
240.409	2.12
240.785	2.27
241.162	2.48
241.539	3.04
241.915	2.8
242.292	2.85
242.668	2.78
243.045	2.85
243.421	2.86
243.798	2.45
244.174	2.27
244.551	2.58
244.927	2.17
245.303	2.25
245.679	2.36
246.056	2.62
246.432	2.74
246.808	2.7
247.184	2.4
247.56	2.23
247.936	2.08
248.312	2.32
248.688	2.08
249.064	2.27
249.44	2.25
249.815	2.42
250.191	2.61
250.567	2.64
250.943	2.65
251.318	3
251.694	2.98
252.069	2.97
252.445	2.94
252.82	2.95
253.196	2.78
253.571	2.51
253.947	2.13
254.322	2.12
254.697	2.03
255.073	2.21
255.448	2.31
255.823	2.36
256.198	2.46
256.573	2.64
256.948	2.55
257.323	2.36
257.698	2.2
258.073	2.22
258.448	2.34
258.823	2.36
259.198	1.99
259.573	1.95
259.948	1.96
260.322	1.87
260.697	2.01
261.072	2.08
261.446	2.05
261.821	2.21
262.195	2.25
262.57	2.28
262.944	2.03
263.319	1.94
263.693	1.92
264.067	1.96
264.442	1.96
264.816	1.74
265.19	1.78
265.564	1.75
265.938	1.59
266.313	1.57
266.687	1.6
267.061	1.73
267.435	1.89
267.809	1.97
268.183	2.06
268.556	1.8
268.93	1.69
269.304	1.83
269.678	1.89
270.051	1.83
270.425	1.91
270.799	2.17
271.172	2.32
271.546	2.43
271.919	2.49
272.293	2.44
272.666	2.66
273.04	2.73
273.413	2.75
273.787	2.75
274.16	2.77
274.533	2.59
274.906	2.58
275.279	2.64
275.653	2.6
276.026	2.44
276.399	2.54
276.772	2.79
277.145	2.69
277.518	2.77
277.891	2.79
278.263	2.57
278.636	2.59
279.009	2.61
279.382	2.68
279.755	2.4
280.127	2.66
280.5	2.55
280.872	2.6
281.245	2.64
281.617	2.87
281.99	2.76
282.362	2.88
282.735	2.71
283.107	2.62
283.479	2.76
283.852	2.88
284.224	2.84
284.596	2.76
284.968	2.72
285.34	2.73
285.713	2.66
286.085	2.8
286.457	2.77
286.829	2.7
287.201	2.66
287.572	2.68
287.944	2.5
288.316	2.47
288.688	2.43
289.06	2.36
289.431	2.21
289.803	2.29
290.175	2.48
290.546	2.7
290.918	2.7
291.289	2.61
291.661	2.62
292.032	2.8
292.403	2.82
292.775	2.87
293.146	2.75
293.517	2.85
293.889	2.8
294.26	2.82
294.631	2.87
295.002	2.92
295.373	2.93
295.744	3.02
296.115	2.94
296.486	2.86
296.857	2.84
297.228	2.74
297.599	2.72
297.97	2.68
298.34	2.55
298.711	2.56
299.082	2.54
299.452	2.54
299.823	2.52
300.194	2.46
300.564	2.45
300.935	2.43
301.305	2.35
301.676	2.34
302.046	2.31
302.416	2.36
302.787	2.25
303.157	2.17
303.527	2.06
303.897	2.28
304.267	2.31
304.637	2.54
305.008	2.69
305.378	2.82
305.748	2.69
306.117	2.7
306.487	2.84
306.857	2.9
307.227	2.98
307.597	3.06
307.967	3.17
308.336	3.16
308.706	3.2
309.076	3.27
309.445	3.31
309.815	3.3
310.184	3.11
310.554	3.17
310.923	3.21
311.293	3.21
311.662	3.07
312.031	3.02
312.401	2.91
312.77	2.9
313.139	2.87
313.508	2.9
313.877	2.9
314.246	2.9
314.616	2.77
314.985	2.72
315.353	2.5
315.722	2.47
316.091	2.42
316.46	2.34
316.829	2.31
317.198	2.35
317.567	2.3
317.935	2.24
318.304	2.13
318.672	2.26
319.041	2.45
319.41	2.46
319.778	2.62
320.147	2.57
320.515	2.51
320.883	2.42
321.252	2.51
321.62	2.62
321.988	2.71
322.357	2.85
322.725	2.72
323.093	2.76
323.461	2.75
323.829	2.84
324.197	2.87
324.565	2.79
324.933	2.67
325.301	2.64
325.669	2.8
326.037	2.76
326.405	2.68
326.772	2.57
327.14	2.66
327.508	2.61
327.875	2.5
328.243	2.67
328.61	2.67
328.978	2.51
329.346	2.56
329.713	2.29
330.08	2.3
330.448	2.23
330.815	2.23
331.182	2.24
331.55	2.2
331.917	2.2
332.284	2.28
332.651	2.44
333.018	2.46
333.385	2.41
333.752	2.46
334.119	2.49
334.486	2.43
334.853	2.42
335.22	2.38
335.587	2.44
335.954	2.29
336.32	2.14
336.687	2.15
337.054	2.09
337.42	2.33
337.787	2.37
338.153	2.38
338.52	2.35
338.886	2.2
339.253	2.21
339.619	2.22
339.986	2.18
340.352	2.16
340.718	2.21
341.084	2.18
341.451	2.23
341.817	2.28
342.183	2.34
342.549	2.28
342.915	2.32
343.281	2.42
343.647	2.39
344.013	2.61
344.379	2.55
344.745	2.53
345.11	2.5
345.476	2.56
345.842	2.65
346.208	2.66
346.573	2.77
346.939	2.94
347.304	2.95
347.67	2.86
348.035	2.89
348.401	2.94
348.766	3
349.132	2.96
349.497	2.88
349.862	2.98
350.228	2.97
350.593	2.9
350.958	2.84
351.323	2.88
351.688	2.76
352.053	2.93
352.418	2.95
352.783	2.86
353.148	2.73
353.513	2.71
353.878	2.74
354.243	2.76
354.608	2.61
354.972	2.63
355.337	2.72
355.702	2.69
356.066	2.69
356.431	2.64
356.795	2.67
357.16	2.69
357.524	2.57
357.889	2.57
358.253	2.62
358.618	2.67
358.982	2.69
359.346	2.62
359.71	2.56
360.075	2.58
360.439	2.59
360.803	2.63
361.167	2.63
361.531	2.61
361.895	2.58
362.259	2.58
362.623	2.58
362.987	2.57
363.351	2.63
363.714	2.6
364.078	2.64
364.442	2.64
364.806	2.61
365.169	2.65
365.533	2.72
365.896	2.7
366.26	2.68
366.623	2.74
366.987	2.81
367.35	2.84
367.714	2.77
368.077	2.79
368.44	2.76
368.803	2.75
369.167	2.72
369.53	2.67
369.893	2.75
370.256	2.77
370.619	2.84
370.982	2.71
371.345	2.71
371.708	2.75
372.071	2.74
372.434	2.76
372.797	2.74
373.159	2.67
373.522	2.7
373.885	2.72
374.247	2.7
374.61	2.72
374.973	2.69
375.335	2.72
375.698	2.72
376.06	2.73
376.423	2.72
376.785	2.81
377.147	2.9
377.51	2.87
377.872	2.87
378.234	2.86
378.596	2.9
378.958	2.93
379.321	2.94
379.683	2.93
380.045	2.94
380.407	2.98
380.769	2.99
381.13	3.02
381.492	3.01
381.854	3.01
382.216	2.94
382.578	2.99
382.939	3
383.301	3
383.663	2.96
384.024	2.99
384.386	2.99
384.747	2.93
385.109	2.94
385.47	2.93
385.832	2.91
386.193	2.94
386.554	2.92
386.916	2.94
387.277	2.93
387.638	2.96
387.999	2.94
388.36	2.98
388.721	2.97
389.082	2.97
389.443	2.93
389.804	2.97
390.165	2.96
390.526	2.95
390.887	2.96
391.248	3.01
391.609	3
391.969	3.02
392.33	3.07
392.691	3.01
393.051	3.01
393.412	3.02
393.772	3.02
394.133	3.02
394.493	3
394.854	3.02
395.214	2.97
395.574	2.99
395.935	2.97
396.295	2.94
396.655	2.96
397.015	2.95
397.376	2.94
397.736	2.93
398.096	2.97
398.456	2.95
398.816	3
399.176	3
399.535	2.97
399.895	2.96
400.255	2.99
400.615	2.99
400.975	3
401.334	3
401.694	3.01
402.054	3.02
402.413	3.02
402.773	3.02
403.132	2.97
403.492	2.98
403.851	3
404.211	2.98
404.57	2.97
404.929	2.98
405.288	2.98
405.648	2.96
406.007	2.98
406.366	2.95
406.725	2.96
407.084	2.97
407.443	2.99
407.802	3.04
408.161	3.07
408.52	3.07
408.879	3.08
409.238	3.08
409.596	3.06
409.955	3.06
410.314	3.1
410.673	3.11
411.031	3.11
411.39	3.11
411.748	3.11
412.107	3.15
412.465	3.14
412.824	3.15
413.182	3.14
413.54	3.15
413.899	3.14
414.257	3.14
414.615	3.14
414.974	3.13
415.332	3.1
415.69	3.07
416.048	3.04
416.406	3.04
416.764	3.03
417.122	3.06
417.48	3.03
417.838	3.04
418.195	3.05
418.553	3.05
418.911	3.05
419.269	3.06
419.626	3.04
419.984	3.05
420.342	3.04
420.699	3.05
421.057	3.04
421.414	3.03
421.772	3.02
422.129	3.03
422.486	3.03
422.844	3.04
423.201	3.03
423.558	3.05
423.915	3.05
424.273	3.05
424.63	3.03
424.987	3.05
425.344	3.04
425.701	3.04
426.058	3.03
426.415	3.03
426.772	3.04
427.128	3.05
427.485	3.06
427.842	3.07
428.199	3.08
428.555	3.09
428.912	3.12
429.269	3.14
429.625	3.13
429.982	3.12
430.338	3.1
430.695	3.11
431.051	3.1
431.407	3.08
431.764	3.08
432.12	3.08
432.476	3.1
432.832	3.09
433.189	3.11
433.545	3.12
433.901	3.12
434.257	3.1
434.613	3.11
434.969	3.13
435.325	3.13
435.681	3.11
436.036	3.11
436.392	3.08
436.748	3.07
437.104	3.06
437.459	3.05
437.815	3.04
438.171	3.07
438.526	3.09
438.882	3.1
439.237	3.12
439.593	3.14
439.948	3.13
440.304	3.14
440.659	3.11
441.014	3.13
441.369	3.12
441.725	3.14
442.08	3.13
442.435	3.13
442.79	3.13
443.145	3.14
443.5	3.15
443.855	3.15
444.21	3.15
444.565	3.18
444.92	3.22
445.275	3.22
445.629	3.21
445.984	3.22
446.339	3.2
446.693	3.17
447.048	3.15
447.403	3.14
447.757	3.13
448.112	3.15
448.466	3.14
448.82	3.13
449.175	3.13
449.529	3.13
449.883	3.11
450.238	3.12
450.592	3.11
450.946	3.11
451.3	3.12
451.654	3.1
452.008	3.09
452.362	3.07
452.716	3.08
453.07	3.09
453.424	3.09
453.778	3.1
454.132	3.1
454.486	3.13
454.839	3.13
455.193	3.13
455.547	3.12
455.9	3.12
456.254	3.15
456.607	3.13
456.961	3.13
457.314	3.14
457.668	3.15
458.021	3.14
458.375	3.12
458.728	3.13
459.081	3.14
459.434	3.12
459.787	3.14
460.141	3.14
460.494	3.12
460.847	3.12
461.2	3.11
461.553	3.12
461.906	3.11
462.259	3.11
462.611	3.14
462.964	3.15
463.317	3.16
463.67	3.15
464.022	3.18
464.375	3.16
464.728	3.17
465.08	3.17
465.433	3.19
465.785	3.2
466.138	3.2
466.49	3.2
466.843	3.21
467.195	3.2
467.547	3.2
467.899	3.21
468.252	3.21
468.604	3.23
468.956	3.23
469.308	3.24
469.66	3.23
470.012	3.24
470.364	3.23
470.716	3.23
471.068	3.22
471.42	3.24
471.772	3.25
472.123	3.25
472.475	3.24
472.827	3.23
473.178	3.22
473.53	3.22
473.882	3.22
474.233	3.24
474.585	3.24
474.936	3.24
475.288	3.25
475.639	3.26
475.99	3.28
476.342	3.27
476.693	3.27
477.044	3.28
477.395	3.28
477.746	3.28
478.097	3.28
478.448	3.27
478.8	3.28
479.15	3.25
479.501	3.27
479.852	3.27
480.203	3.29
480.554	3.29
480.905	3.31
481.255	3.31
481.606	3.31
481.957	3.32
482.307	3.32
482.658	3.3
483.009	3.3
483.359	3.3
483.709	3.3
484.06	3.29
484.41	3.3
484.761	3.29
485.111	3.3
485.461	3.3
485.811	3.31
486.162	3.3
486.512	3.31
486.862	3.3
487.212	3.3
487.562	3.3
487.912	3.29
488.262	3.29
488.612	3.3
488.961	3.29
489.311	3.28
489.661	3.29
490.011	3.3
490.36	3.3
490.71	3.29
491.06	3.3
491.409	3.3
491.759	3.3
492.108	3.3
492.458	3.29
492.807	3.28
493.157	3.27
493.506	3.28
493.855	3.29
494.204	3.28
494.554	3.29
494.903	3.28
495.252	3.27
495.601	3.27
495.95	3.25
496.299	3.26
496.648	3.26
496.997	3.25
497.346	3.25
497.695	3.26
498.043	3.27
498.392	3.26
498.741	3.28
499.09	3.27
499.438	3.28
499.787	3.3
500.135	3.32
500.484	3.31
500.832	3.32
501.181	3.34
501.529	3.35
501.878	3.36
502.226	3.38
502.574	3.4
502.923	3.38
503.271	3.38
503.619	3.38
503.967	3.39
504.315	3.38
504.663	3.36
505.011	3.35
505.359	3.35
505.707	3.36
506.055	3.37
506.403	3.39
506.751	3.4
507.098	3.39
507.446	3.41
507.794	3.41
508.141	3.4
508.489	3.4
508.837	3.38
509.184	3.39
509.531	3.39
509.879	3.41
510.226	3.45
510.574	3.45
510.921	3.46
511.268	3.47
511.616	3.48
511.963	3.5
512.31	3.5
512.657	3.51
513.004	3.51
513.351	3.52
513.698	3.5
514.045	3.5
514.392	3.51
514.739	3.49
515.086	3.5
515.432	3.52
515.779	3.5
516.126	3.51
516.473	3.52
516.819	3.51
517.166	3.49
517.512	3.47
517.859	3.49
518.205	3.49
518.552	3.49
518.898	3.48
519.245	3.48
519.591	3.48
519.937	3.48
520.283	3.49
520.629	3.49
520.976	3.51
521.322	3.53
521.668	3.51
522.014	3.54
522.36	3.54
522.706	3.55
523.052	3.56
523.398	3.56
523.743	3.56
524.089	3.56
524.435	3.58
524.781	3.59
525.126	3.59
525.472	3.59
525.817	3.6
526.163	3.6
526.509	3.61
526.854	3.61
527.199	3.62
527.545	3.62
527.89	3.62
528.235	3.61
528.581	3.6
528.926	3.61
529.271	3.6
529.616	3.61
529.961	3.61
530.306	3.63
530.651	3.63
530.996	3.64
531.341	3.64
531.686	3.64
532.031	3.64
532.376	3.64
532.721	3.65
533.065	3.65
533.41	3.66
533.755	3.67
534.099	3.68
534.444	3.68
534.788	3.69
535.133	3.68
535.477	3.69
535.822	3.7
536.166	3.7
536.51	3.71
536.855	3.72
537.199	3.71
537.543	3.69
537.887	3.7
538.231	3.7
538.576	3.71
538.92	3.71
539.264	3.7
539.608	3.7
539.951	3.69
540.295	3.69
540.639	3.69
540.983	3.69
541.327	3.67
541.671	3.67
542.014	3.68
542.358	3.69
542.701	3.69
543.045	3.67
543.389	3.66
543.732	3.65
544.075	3.66
544.419	3.67
544.762	3.67
545.105	3.67
545.449	3.68
545.792	3.68
546.135	3.67
546.478	3.67
546.821	3.68
547.165	3.69
547.508	3.7
547.851	3.69
548.194	3.68
548.536	3.69
548.879	3.69
549.222	3.68
549.565	3.68
549.908	3.69
550.25	3.72
550.593	3.74
550.936	3.75
551.278	3.72
551.621	3.73
551.963	3.75
552.306	3.73
552.648	3.72
552.991	3.74
553.333	3.74
553.675	3.73
554.017	3.74
554.36	3.75
554.702	3.74
555.044	3.74
555.386	3.73
555.728	3.74
556.07	3.77
556.412	3.77
556.754	3.78
557.096	3.75
557.438	3.78
557.78	3.8
558.121	3.81
558.463	3.81
558.805	3.8
559.147	3.81
559.488	3.82
559.83	3.84
560.171	3.82
560.513	3.81
560.854	3.83
561.196	3.81
561.537	3.8
561.878	3.81
562.22	3.85
562.561	3.87
562.902	3.88
563.243	3.85
563.584	3.86
563.925	3.86
564.266	3.89
564.607	3.87
564.948	3.87
565.289	3.87
565.63	3.87
565.971	3.84
566.312	3.81
566.653	3.81
566.993	3.81
567.334	3.8
567.675	3.82
568.015	3.84
568.356	3.86
568.696	3.88
569.037	3.88
569.377	3.84
569.718	3.85
570.058	3.87
570.398	3.87
570.739	3.87
571.079	3.88
571.419	3.86
571.759	3.86
572.099	3.84
572.439	3.82
572.779	3.81
573.119	3.86
573.459	3.89
573.799	3.91
574.139	3.9
574.479	3.92
574.819	3.92
575.158	3.9
575.498	3.88
575.838	3.88
576.177	3.86
576.517	3.87
576.856	3.86
577.196	3.84
577.535	3.82
577.875	3.82
578.214	3.82
578.553	3.85
578.893	3.84
579.232	3.85
579.571	3.89
579.91	3.91
580.25	3.91
580.589	3.91
580.928	3.89
581.267	3.9
581.606	3.88
581.945	3.86
582.283	3.85
582.622	3.84
582.961	3.81
583.3	3.85
583.639	3.93
583.977	3.96
584.316	3.97
584.654	4
584.993	3.99
585.332	3.98
585.67	3.95
586.008	3.94
586.347	3.94
586.685	3.91
587.024	3.95
587.362	3.9
587.7	3.88
588.038	3.91
588.376	3.92
588.715	3.93
589.053	3.96
589.391	3.98
589.729	4.06
590.067	4.03
590.404	3.99
590.742	3.97
591.08	3.95
591.418	3.92
591.756	3.94
592.093	3.97
592.431	3.95
592.769	3.96
593.106	3.98
593.444	3.95
593.781	3.99
594.119	4
594.456	4
594.793	4.01
595.131	4.03
595.468	4.02
595.805	4.02
596.143	4
596.48	4.02
596.817	4.01
597.154	4.04
597.491	4.07
597.828	4.06
598.165	4.05
598.502	4.05
598.839	4.05
599.176	4.03
599.512	4.04
599.849	4.03
600.186	4.04
600.523	4.07
600.859	4.1
601.196	4.09
601.532	4.09
601.869	4.09
602.205	4.04
602.542	4.05
602.878	4.05
603.215	4.09
603.551	4.06
603.887	4.05
604.223	4.06
604.56	4.08
604.896	4.09
605.232	4.11
605.568	4.12
605.904	4.14
606.24	4.14
606.576	4.15
606.912	4.17
607.248	4.16
607.583	4.14
607.919	4.1
608.255	4.08
608.591	4.1
608.926	4.1
609.262	4.17
609.597	4.16
609.933	4.16
610.268	4.18
610.604	4.2
610.939	4.19
611.275	4.21
611.61	4.17
611.945	4.12
612.281	4.1
612.616	4.08
612.951	4.11
613.286	4.08
613.621	4.11
613.956	4.11
614.291	4.11
614.626	4.17
614.961	4.18
615.296	4.18
615.631	4.17
615.966	4.18
616.3	4.12
616.635	4.1
616.97	4.07
617.304	4.05
617.639	4.07
617.973	4.06
618.308	4.04
618.642	4.08
618.977	4.1
619.311	4.11
619.646	4.15
619.98	4.06
620.314	4.13
620.648	4.13
620.983	4.2
621.317	4.22
621.651	4.23
621.985	4.23
622.319	4.28
622.653	4.28
622.987	4.28
623.321	4.3
623.655	4.33
623.988	4.39
624.322	4.36
624.656	4.32
624.99	4.35
625.323	4.31
625.657	4.3
625.99	4.35
626.324	4.37
626.657	4.37
626.991	4.44
627.324	4.38
627.658	4.35
627.991	4.34
628.324	4.31
628.657	4.29
628.991	4.3
629.324	4.31
629.657	4.33
629.99	4.35
630.323	4.35
630.656	4.32
630.989	4.31
631.322	4.35
631.655	4.36
631.987	4.35
632.32	4.32
632.653	4.3
632.986	4.28
633.318	4.27
633.651	4.34
633.984	4.31
634.316	4.32
634.649	4.3
634.981	4.29
635.313	4.31
635.646	4.32
635.978	4.35
636.31	4.34
636.643	4.29
636.975	4.3
637.307	4.29
637.639	4.32
637.971	4.29
638.303	4.25
638.635	4.24
638.967	4.21
639.299	4.28
639.631	4.31
639.963	4.3
640.295	4.27
640.626	4.16
640.958	4.19
641.29	4.18
641.621	4.19
641.953	4.13
642.285	4.17
642.616	4.14
642.948	4.11
643.279	4.1
643.61	4.12
643.942	4.07
644.273	4.06
644.604	4.08
644.936	4.05
645.267	4.08
645.598	4.15
645.929	4.25
646.26	4.29
646.591	4.28
646.922	4.29
647.253	4.32
647.584	4.34
647.915	4.26
648.245	4.26
648.576	4.27
648.907	4.37
649.238	4.27
649.568	4.26
649.899	4.27
650.229	4.28
650.56	4.34
650.89	4.38
651.221	4.47
651.551	4.46
651.882	4.45
652.212	4.46
652.542	4.4
652.872	4.34
653.203	4.29
653.533	4.33
653.863	4.31
654.193	4.29
654.523	4.29
654.853	4.29
655.183	4.36
655.513	4.36
655.843	4.29
656.172	4.35
656.502	4.4
656.832	4.38
657.162	4.39
657.491	4.34
657.821	4.33
658.15	4.31
658.48	4.32
658.809	4.36
659.139	4.38
659.468	4.46
659.798	4.44
660.127	4.49
660.456	4.5
660.785	4.52
661.115	4.53
661.444	4.5
661.773	4.51
662.102	4.47
662.431	4.59
662.76	4.57
663.089	4.54
663.418	4.44
663.747	4.4
664.076	4.39
664.404	4.44
664.733	4.5
665.062	4.46
665.39	4.47
665.719	4.43
666.048	4.43
666.376	4.32
666.705	4.3
667.033	4.32
667.362	4.33
667.69	4.33
668.018	4.41
668.347	4.53
668.675	4.55
669.003	4.55
669.331	4.5
669.659	4.53
669.987	4.54
670.315	4.68
670.643	4.7
670.971	4.73
671.299	4.77
671.627	4.75
671.955	4.68
672.283	4.7
672.61	4.69
672.938	4.65
673.266	4.78
673.593	4.91
673.921	4.9
674.249	4.85
674.576	4.9
674.904	4.86
675.231	4.82
675.558	4.84
675.886	4.87
676.213	4.85
676.54	4.95
676.867	5.04
677.195	5.02
677.522	5
677.849	5.02
678.176	4.92
