Data from BU26939_Reflection_00009.txt Node
Date: Tue Nov 19 10:56:51 EST 2019
User: vgr7
Spectrometer: USB2G7710
Scans to average: 3
Trigger mode: 4
Integration Time (sec): 2.000000E-2
Electric dark correction enabled: true
Boxcar width: 10
XAxis mode: Wavelengths
Number of Pixels in Spectrum: 2048
>>>>>Begin Spectral Data<<<<<
177.721	-6.89
178.105	7.8
178.488	56.84
178.871	74.24
179.254	118.52
179.636	134.83
180.019	320.43
180.402	23.53
180.785	103.14
181.168	9.77
181.55	970.37
181.933	-16.16
182.316	-21.47
182.698	-301.23
183.081	377.78
183.463	335.63
183.846	49.61
184.228	38.75
184.611	99.12
184.993	80.37
185.376	115.54
185.758	105.57
186.14	93.9
186.522	149.94
186.904	148.72
187.287	168.57
187.669	162.56
188.051	130.54
188.433	160.15
188.815	167.86
189.197	138.93
189.579	75.66
189.961	80.49
190.342	71.26
190.724	44.88
191.106	28.42
191.488	41.95
191.869	60.21
192.251	60.27
192.633	47.36
193.014	41.33
193.396	42.1
193.777	30.83
194.159	37.13
194.54	33.9
194.922	37.39
195.303	23.06
195.684	19.9
196.065	32.59
196.447	28.11
196.828	27.03
197.209	45.29
197.59	60.8
197.971	56.42
198.352	50.47
198.733	41.84
199.114	44.31
199.495	29.61
199.876	18.49
200.257	17.39
200.638	25.28
201.018	30.73
201.399	24.9
201.78	49.39
202.16	45.59
202.541	51.36
202.922	48.04
203.302	54.77
203.683	58.17
204.063	40.18
204.444	38.87
204.824	45.7
205.204	29.22
205.585	27.15
205.965	24.06
206.345	20.16
206.725	34.35
207.106	37.66
207.486	34.95
207.866	43.03
208.246	47.72
208.626	44.19
209.006	39.34
209.386	28.3
209.766	26.07
210.145	29.61
210.525	27.38
210.905	22.65
211.285	24.06
211.664	25.17
212.044	28.17
212.424	29.07
212.803	28.13
213.183	27.45
213.562	30.72
213.942	32.49
214.321	46.82
214.701	31.39
215.08	32.73
215.459	47.53
215.838	44.93
216.218	35.59
216.597	43.38
216.976	43.3
217.355	49.98
217.734	45.45
218.113	38.28
218.492	39.78
218.871	47.7
219.25	69.29
219.629	64.97
220.008	69.81
220.387	61.42
220.766	41.99
221.144	49.16
221.523	30.34
221.902	41.01
222.28	29.98
222.659	42.74
223.037	41.77
223.416	32.17
223.794	29.57
224.173	28.39
224.551	16.61
224.929	15.13
225.308	16.03
225.686	11.51
226.064	15.16
226.442	12.02
226.821	7.9
227.199	2.22
227.577	5.63
227.955	4.44
228.333	5.14
228.711	7.42
229.089	6.9
229.467	6.53
229.845	5.84
230.222	6.95
230.6	5.68
230.978	6.56
231.356	5.38
231.733	5.85
232.111	6.61
232.488	6.22
232.866	9
233.243	8.45
233.621	9.89
233.998	9.28
234.376	10.96
234.753	13.98
235.13	13.98
235.508	12.6
235.885	12.83
236.262	13.32
236.639	12.74
237.016	13.09
237.393	13.03
237.77	11.2
238.147	10.14
238.524	9.68
238.901	8.26
239.278	8.44
239.655	8.19
240.032	7.95
240.409	8.13
240.785	7.4
241.162	7.07
241.539	6.73
241.915	6.33
242.292	5.91
242.668	4.9
243.045	5.27
243.421	5.35
243.798	5.28
244.174	5.03
244.551	4.66
244.927	4.38
245.303	4.27
245.679	4.38
246.056	4.42
246.432	4.38
246.808	4.45
247.184	4.55
247.56	4.03
247.936	4.21
248.312	4.26
248.688	4.26
249.064	4.46
249.44	4.24
249.815	4.45
250.191	4.32
250.567	4.51
250.943	4.51
251.318	4.41
251.694	4.5
252.069	4.26
252.445	4.48
252.82	4.86
253.196	4.82
253.571	5.2
253.947	5.29
254.322	5.22
254.697	5.29
255.073	5.03
255.448	5.19
255.823	4.96
256.198	4.73
256.573	4.45
256.948	4.33
257.323	4.56
257.698	4.41
258.073	4.5
258.448	4.39
258.823	4.33
259.198	4.46
259.573	4.32
259.948	4.45
260.322	4.19
260.697	4.07
261.072	4.34
261.446	4.08
261.821	4.04
262.195	3.92
262.57	3.92
262.944	4.09
263.319	4.13
263.693	3.95
264.067	4.12
264.442	4.24
264.816	4.18
265.19	4.1
265.564	4.17
265.938	4.08
266.313	4.11
266.687	4.02
267.061	3.89
267.435	4.22
267.809	3.97
268.183	4.08
268.556	4.13
268.93	3.94
269.304	4.09
269.678	4.13
270.051	4.16
270.425	4.22
270.799	3.96
271.172	4.07
271.546	4.25
271.919	4.12
272.293	4.19
272.666	4.21
273.04	4.33
273.413	4.29
273.787	4.43
274.16	4.18
274.533	4.34
274.906	4.33
275.279	4.13
275.653	4.28
276.026	4.43
276.399	4.45
276.772	4.58
277.145	4.56
277.518	4.53
277.891	4.59
278.263	4.55
278.636	4.74
279.009	4.61
279.382	4.4
279.755	4.41
280.127	4.35
280.5	4.34
280.872	4.39
281.245	4.39
281.617	4.35
281.99	4.59
282.362	4.45
282.735	4.51
283.107	4.38
283.479	4.34
283.852	4.44
284.224	4.35
284.596	4.26
284.968	4.15
285.34	4.16
285.713	4.32
286.085	4.24
286.457	4.15
286.829	4.31
287.201	4.53
287.572	4.58
287.944	4.59
288.316	4.59
288.688	4.56
289.06	4.68
289.431	4.73
289.803	4.72
290.175	4.8
290.546	4.69
290.918	4.78
291.289	4.74
291.661	4.68
292.032	4.75
292.403	4.67
292.775	4.82
293.146	4.83
293.517	4.79
293.889	4.89
294.26	4.89
294.631	4.93
295.002	4.93
295.373	4.91
295.744	4.89
296.115	4.9
296.486	5.02
296.857	4.91
297.228	4.83
297.599	4.77
297.97	4.76
298.34	4.92
298.711	4.96
299.082	5.02
299.452	4.95
299.823	4.92
300.194	5.1
300.564	4.99
300.935	4.99
301.305	5.01
301.676	4.9
302.046	4.88
302.416	4.81
302.787	4.77
303.157	4.79
303.527	4.72
303.897	4.66
304.267	4.55
304.637	4.58
305.008	4.64
305.378	4.67
305.748	4.61
306.117	4.51
306.487	4.58
306.857	4.68
307.227	4.84
307.597	4.89
307.967	4.88
308.336	5
308.706	5.03
309.076	5.1
309.445	5.23
309.815	5.38
310.184	5.29
310.554	5.3
310.923	5.39
311.293	5.52
311.662	5.69
312.031	5.65
312.401	5.59
312.77	5.56
313.139	5.68
313.508	5.72
313.877	5.89
314.246	5.93
314.616	5.88
314.985	5.82
315.353	5.89
315.722	6
316.091	6.04
316.46	6.04
316.829	5.96
317.198	6.05
317.567	6.19
317.935	6.43
318.304	6.56
318.672	6.63
319.041	6.75
319.41	6.8
319.778	6.91
320.147	6.92
320.515	6.95
320.883	6.91
321.252	7
321.62	6.97
321.988	6.95
322.357	7.06
322.725	7.03
323.093	6.9
323.461	6.89
323.829	6.91
324.197	6.93
324.565	6.95
324.933	6.94
325.301	6.8
325.669	6.62
326.037	6.55
326.405	6.5
326.772	6.46
327.14	6.39
327.508	6.28
327.875	6.34
328.243	6.32
328.61	6.44
328.978	6.45
329.346	6.47
329.713	6.47
330.08	6.61
330.448	6.72
330.815	6.92
331.182	6.77
331.55	6.85
331.917	6.91
332.284	6.97
332.651	6.92
333.018	6.93
333.385	7.08
333.752	7.18
334.119	7.23
334.486	7.34
334.853	7.42
335.22	7.52
335.587	7.56
335.954	7.64
336.32	7.56
336.687	7.59
337.054	7.66
337.42	7.69
337.787	7.74
338.153	7.76
338.52	7.87
338.886	8.15
339.253	8.04
339.619	8.04
339.986	7.98
340.352	8.05
340.718	8.15
341.084	8.27
341.451	8.32
341.817	8.3
342.183	8.27
342.549	8.28
342.915	8.24
343.281	8.28
343.647	8.35
344.013	8.45
344.379	8.36
344.745	8.28
345.11	8.34
345.476	8.33
345.842	8.41
346.208	8.28
346.573	8.16
346.939	8.3
347.304	8.35
347.67	8.38
348.035	8.3
348.401	8.23
348.766	8.12
349.132	8.11
349.497	8.23
349.862	8.25
350.228	8.18
350.593	8.23
350.958	8.31
351.323	8.34
351.688	8.31
352.053	8.47
352.418	8.48
352.783	8.47
353.148	8.42
353.513	8.33
353.878	8.43
354.243	8.34
354.608	8.33
354.972	8.29
355.337	8.33
355.702	8.4
356.066	8.52
356.431	8.56
356.795	8.59
357.16	8.5
357.524	8.55
357.889	8.53
358.253	8.51
358.618	8.48
358.982	8.45
359.346	8.47
359.71	8.41
360.075	8.43
360.439	8.46
360.803	8.44
361.167	8.41
361.531	8.37
361.895	8.45
362.259	8.42
362.623	8.43
362.987	8.42
363.351	8.39
363.714	8.34
364.078	8.3
364.442	8.24
364.806	8.3
365.169	8.19
365.533	8.21
365.896	8.19
366.26	8.13
366.623	8.07
366.987	8.13
367.35	8.19
367.714	8.13
368.077	8.09
368.44	8.04
368.803	8.01
369.167	7.93
369.53	7.91
369.893	7.87
370.256	7.83
370.619	7.71
370.982	7.69
371.345	7.59
371.708	7.55
372.071	7.5
372.434	7.43
372.797	7.42
373.159	7.39
373.522	7.4
373.885	7.39
374.247	7.34
374.61	7.19
374.973	7.05
375.335	7
375.698	6.92
376.06	6.92
376.423	6.94
376.785	6.97
377.147	6.9
377.51	6.88
377.872	6.85
378.234	6.93
378.596	6.91
378.958	6.9
379.321	6.87
379.683	6.85
380.045	6.79
380.407	6.78
380.769	6.74
381.13	6.68
381.492	6.62
381.854	6.62
382.216	6.6
382.578	6.56
382.939	6.53
383.301	6.51
383.663	6.49
384.024	6.42
384.386	6.37
384.747	6.36
385.109	6.3
385.47	6.26
385.832	6.16
386.193	6.12
386.554	6.06
386.916	6.05
387.277	5.99
387.638	5.95
387.999	5.86
388.36	5.85
388.721	5.82
389.082	5.85
389.443	5.83
389.804	5.8
390.165	5.81
390.526	5.81
390.887	5.78
391.248	5.71
391.609	5.69
391.969	5.67
392.33	5.63
392.691	5.61
393.051	5.59
393.412	5.62
393.772	5.56
394.133	5.55
394.493	5.49
394.854	5.47
395.214	5.46
395.574	5.49
395.935	5.45
396.295	5.42
396.655	5.31
397.015	5.28
397.376	5.26
397.736	5.21
398.096	5.17
398.456	5.1
398.816	5.08
399.176	5.04
399.535	4.97
399.895	4.91
400.255	4.9
400.615	4.86
400.975	4.79
401.334	4.8
401.694	4.76
402.054	4.76
402.413	4.73
402.773	4.72
403.132	4.69
403.492	4.69
403.851	4.63
404.211	4.65
404.57	4.62
404.929	4.58
405.288	4.6
405.648	4.57
406.007	4.58
406.366	4.55
406.725	4.53
407.084	4.53
407.443	4.54
407.802	4.53
408.161	4.55
408.52	4.54
408.879	4.55
409.238	4.55
409.596	4.54
409.955	4.53
410.314	4.52
410.673	4.48
411.031	4.44
411.39	4.48
411.748	4.51
412.107	4.52
412.465	4.53
412.824	4.49
413.182	4.46
413.54	4.47
413.899	4.46
414.257	4.47
414.615	4.45
414.974	4.44
415.332	4.42
415.69	4.37
416.048	4.34
416.406	4.28
416.764	4.27
417.122	4.26
417.48	4.25
417.838	4.23
418.195	4.22
418.553	4.21
418.911	4.18
419.269	4.12
419.626	4.1
419.984	4.1
420.342	4.09
420.699	4.09
421.057	4.07
421.414	4.06
421.772	4.03
422.129	4.02
422.486	4
422.844	3.99
423.201	3.99
423.558	3.98
423.915	4
424.273	3.98
424.63	3.98
424.987	3.96
425.344	3.94
425.701	3.93
426.058	3.91
426.415	3.92
426.772	3.92
427.128	3.92
427.485	3.9
427.842	3.89
428.199	3.88
428.555	3.84
428.912	3.84
429.269	3.85
429.625	3.83
429.982	3.82
430.338	3.81
430.695	3.8
431.051	3.82
431.407	3.79
431.764	3.79
432.12	3.79
432.476	3.81
432.832	3.82
433.189	3.83
433.545	3.85
433.901	3.84
434.257	3.83
434.613	3.82
434.969	3.81
435.325	3.79
435.681	3.8
436.036	3.82
436.392	3.81
436.748	3.81
437.104	3.82
437.459	3.82
437.815	3.81
438.171	3.81
438.526	3.8
438.882	3.82
439.237	3.8
439.593	3.8
439.948	3.79
440.304	3.79
440.659	3.79
441.014	3.77
441.369	3.75
441.725	3.75
442.08	3.75
442.435	3.76
442.79	3.77
443.145	3.77
443.5	3.75
443.855	3.74
444.21	3.74
444.565	3.74
444.92	3.76
445.275	3.77
445.629	3.77
445.984	3.76
446.339	3.75
446.693	3.73
447.048	3.7
447.403	3.68
447.757	3.67
448.112	3.65
448.466	3.66
448.82	3.68
449.175	3.69
449.529	3.7
449.883	3.67
450.238	3.67
450.592	3.65
450.946	3.66
451.3	3.66
451.654	3.65
452.008	3.64
452.362	3.63
452.716	3.61
453.07	3.59
453.424	3.59
453.778	3.57
454.132	3.59
454.486	3.62
454.839	3.63
455.193	3.63
455.547	3.64
455.9	3.64
456.254	3.63
456.607	3.62
456.961	3.6
457.314	3.6
457.668	3.57
458.021	3.58
458.375	3.59
458.728	3.57
459.081	3.58
459.434	3.57
459.787	3.58
460.141	3.61
460.494	3.62
460.847	3.62
461.2	3.63
461.553	3.63
461.906	3.63
462.259	3.64
462.611	3.64
462.964	3.66
463.317	3.65
463.67	3.66
464.022	3.67
464.375	3.67
464.728	3.69
465.08	3.74
465.433	3.76
465.785	3.76
466.138	3.8
466.49	3.8
466.843	3.82
467.195	3.82
467.547	3.83
467.899	3.84
468.252	3.85
468.604	3.87
468.956	3.87
469.308	3.88
469.66	3.89
470.012	3.89
470.364	3.9
470.716	3.93
471.068	3.95
471.42	3.97
471.772	3.98
472.123	4
472.475	3.99
472.827	4
473.178	4
473.53	4.01
473.882	4.04
474.233	4.03
474.585	4.03
474.936	4.04
475.288	4.03
475.639	4.03
475.99	4.02
476.342	4.04
476.693	4.05
477.044	4.07
477.395	4.08
477.746	4.06
478.097	4.04
478.448	4.02
478.8	4
479.15	4
479.501	3.98
479.852	3.99
480.203	3.98
480.554	3.98
480.905	3.99
481.255	3.97
481.606	3.97
481.957	3.95
482.307	3.96
482.658	3.97
483.009	3.97
483.359	3.97
483.709	3.96
484.06	3.96
484.41	3.95
484.761	3.95
485.111	3.95
485.461	3.95
485.811	3.95
486.162	3.96
486.512	3.95
486.862	3.96
487.212	3.95
487.562	3.95
487.912	3.95
488.262	3.93
488.612	3.94
488.961	3.94
489.311	3.94
489.661	3.94
490.011	3.92
490.36	3.91
490.71	3.91
491.06	3.91
491.409	3.91
491.759	3.91
492.108	3.92
492.458	3.91
492.807	3.93
493.157	3.95
493.506	3.95
493.855	3.97
494.204	3.98
494.554	4
494.903	4.02
495.252	4.04
495.601	4.08
495.95	4.1
496.299	4.13
496.648	4.16
496.997	4.18
497.346	4.22
497.695	4.27
498.043	4.31
498.392	4.36
498.741	4.4
499.09	4.45
499.438	4.49
499.787	4.56
500.135	4.61
500.484	4.64
500.832	4.71
501.181	4.78
501.529	4.85
501.878	4.91
502.226	4.99
502.574	5.06
502.923	5.14
503.271	5.21
503.619	5.28
503.967	5.37
504.315	5.47
504.663	5.55
505.011	5.64
505.359	5.72
505.707	5.82
506.055	5.91
506.403	5.97
506.751	6.06
507.098	6.15
507.446	6.26
507.794	6.36
508.141	6.49
508.489	6.59
508.837	6.69
509.184	6.81
509.531	6.93
509.879	7.06
510.226	7.17
510.574	7.3
510.921	7.43
511.268	7.58
511.616	7.72
511.963	7.86
512.31	7.99
512.657	8.16
513.004	8.32
513.351	8.51
513.698	8.74
514.045	8.91
514.392	9.12
514.739	9.3
515.086	9.5
515.432	9.7
515.779	9.89
516.126	10.08
516.473	10.25
516.819	10.41
517.166	10.58
517.512	10.77
517.859	10.95
518.205	11.12
518.552	11.26
518.898	11.42
519.245	11.61
519.591	11.78
519.937	11.95
520.283	12.14
520.629	12.33
520.976	12.54
521.322	12.76
521.668	12.94
522.014	13.15
522.36	13.36
522.706	13.58
523.052	13.84
523.398	14.14
523.743	14.42
524.089	14.73
524.435	15.02
524.781	15.26
525.126	15.47
525.472	15.7
525.817	15.93
526.163	16.12
526.509	16.3
526.854	16.47
527.199	16.64
527.545	16.78
527.89	16.94
528.235	17.08
528.581	17.24
528.926	17.4
529.271	17.58
529.616	17.76
529.961	17.91
530.306	18.06
530.651	18.2
530.996	18.38
531.341	18.55
531.686	18.72
532.031	18.93
532.376	19.12
532.721	19.32
533.065	19.54
533.41	19.74
533.755	19.93
534.099	20.14
534.444	20.35
534.788	20.58
535.133	20.78
535.477	20.99
535.822	21.19
536.166	21.42
536.51	21.62
536.855	21.89
537.199	22.16
537.543	22.43
537.887	22.69
538.231	22.93
538.576	23.19
538.92	23.46
539.264	23.71
539.608	23.96
539.951	24.18
540.295	24.37
540.639	24.55
540.983	24.77
541.327	24.96
541.671	25.15
542.014	25.33
542.358	25.52
542.701	25.74
543.045	25.94
543.389	26.14
543.732	26.35
544.075	26.53
544.419	26.75
544.762	26.98
545.105	27.23
545.449	27.48
545.792	27.72
546.135	27.93
546.478	28.12
546.821	28.38
547.165	28.67
547.508	28.9
547.851	29.2
548.194	29.49
548.536	29.79
548.879	30.08
549.222	30.3
549.565	30.53
549.908	30.71
550.25	30.97
550.593	31.23
550.936	31.49
551.278	31.73
551.621	31.88
551.963	32.16
552.306	32.36
552.648	32.58
552.991	32.75
553.333	33.01
553.675	33.31
554.017	33.52
554.36	33.68
554.702	33.86
555.044	34.07
555.386	34.26
555.728	34.4
556.07	34.62
556.412	34.82
556.754	35.05
557.096	35.32
557.438	35.56
557.78	35.74
558.121	35.98
558.463	36.17
558.805	36.47
559.147	36.62
559.488	36.82
559.83	37.05
560.171	37.33
560.513	37.55
560.854	37.71
561.196	37.89
561.537	38.09
561.878	38.34
562.22	38.51
562.561	38.68
562.902	38.92
563.243	39.07
563.584	39.29
563.925	39.48
564.266	39.63
564.607	39.79
564.948	39.95
565.289	40.05
565.63	40.23
565.971	40.36
566.312	40.53
566.653	40.65
566.993	40.85
567.334	40.94
567.675	41.03
568.015	41.19
568.356	41.33
568.696	41.51
569.037	41.64
569.377	41.75
569.718	41.88
570.058	42
570.398	42.17
570.739	42.32
571.079	42.46
571.419	42.56
571.759	42.66
572.099	42.77
572.439	42.93
572.779	43.04
573.119	43.11
573.459	43.22
573.799	43.32
574.139	43.4
574.479	43.5
574.819	43.62
575.158	43.72
575.498	43.85
575.838	43.88
576.177	43.97
576.517	44.17
576.856	44.27
577.196	44.36
577.535	44.48
577.875	44.64
578.214	44.75
578.553	44.89
578.893	45.09
579.232	45.26
579.571	45.37
579.91	45.47
580.25	45.64
580.589	45.77
580.928	45.92
581.267	46.02
581.606	46.12
581.945	46.22
582.283	46.28
582.622	46.36
582.961	46.5
583.3	46.59
583.639	46.64
583.977	46.69
584.316	46.77
584.654	46.8
584.993	46.79
585.332	46.82
585.67	46.88
586.008	46.86
586.347	46.92
586.685	46.99
587.024	47.09
587.362	47.2
587.7	47.25
588.038	47.4
588.376	47.39
588.715	47.44
589.053	47.56
589.391	47.67
589.729	47.7
590.067	47.75
590.404	47.82
590.742	47.85
591.08	48.01
591.418	48.06
591.756	48.11
592.093	48.19
592.431	48.35
592.769	48.42
593.106	48.42
593.444	48.49
593.781	48.59
594.119	48.63
594.456	48.67
594.793	48.65
595.131	48.61
595.468	48.77
595.805	48.89
596.143	48.9
596.48	48.85
596.817	48.94
597.154	48.92
597.491	48.94
597.828	49.03
598.165	48.99
598.502	49.07
598.839	49.21
599.176	49.16
599.512	49.18
599.849	49.28
600.186	49.41
600.523	49.46
600.859	49.45
601.196	49.51
601.532	49.5
601.869	49.57
602.205	49.65
602.542	49.62
602.878	49.72
603.215	49.78
603.551	49.88
603.887	49.95
604.223	50.07
604.56	50.17
604.896	50.22
605.232	50.26
605.568	50.33
605.904	50.28
606.24	50.37
606.576	50.5
606.912	50.54
607.248	50.56
607.583	50.61
607.919	50.65
608.255	50.71
608.591	50.85
608.926	50.92
609.262	50.96
609.597	51.07
609.933	51.05
610.268	51.07
610.604	51.09
610.939	51.17
611.275	51.23
611.61	51.31
611.945	51.34
612.281	51.45
612.616	51.48
612.951	51.61
613.286	51.7
613.621	51.6
613.956	51.66
614.291	51.76
614.626	51.78
614.961	51.85
615.296	51.86
615.631	51.88
615.966	51.91
616.3	51.89
616.635	51.88
616.97	51.89
617.304	51.99
617.639	52.11
617.973	52.06
618.308	52
618.642	51.9
618.977	51.91
619.311	51.89
619.646	51.9
619.98	51.87
620.314	51.88
620.648	51.85
620.983	51.81
621.317	51.83
621.651	51.85
621.985	51.91
622.319	51.96
622.653	51.93
622.987	52.01
623.321	52.08
623.655	52.05
623.988	52.11
624.322	52.07
624.656	52.02
624.99	52.05
625.323	52.19
625.657	52.2
625.99	52.27
626.324	52.32
626.657	52.37
626.991	52.38
627.324	52.35
627.658	52.43
627.991	52.42
628.324	52.36
628.657	52.39
628.991	52.4
629.324	52.41
629.657	52.49
629.99	52.51
630.323	52.53
630.656	52.65
630.989	52.73
631.322	52.83
631.655	52.89
631.987	52.9
632.32	52.9
632.653	53
632.986	52.93
633.318	52.95
633.651	52.95
633.984	53.02
634.316	53.06
634.649	53.15
634.981	53.28
635.313	53.43
635.646	53.39
635.978	53.34
636.31	53.35
636.643	53.36
636.975	53.39
637.307	53.37
637.639	53.34
637.971	53.32
638.303	53.36
638.635	53.36
638.967	53.39
639.299	53.42
639.631	53.35
639.963	53.39
640.295	53.41
640.626	53.4
640.958	53.36
641.29	53.41
641.621	53.46
641.953	53.4
642.285	53.37
642.616	53.38
642.948	53.4
643.279	53.37
643.61	53.46
643.942	53.4
644.273	53.53
644.604	53.46
644.936	53.4
645.267	53.33
645.598	53.31
645.929	53.24
646.26	53.15
646.591	53.23
646.922	53.28
647.253	53.25
647.584	53.23
647.915	53.25
648.245	53.39
648.576	53.28
648.907	53.26
649.238	53.3
649.568	53.42
649.899	53.55
650.229	53.65
650.56	53.55
650.89	53.65
651.221	53.53
651.551	53.68
651.882	53.72
652.212	53.67
652.542	53.73
652.872	53.75
653.203	53.82
653.533	53.78
653.863	53.79
654.193	53.95
654.523	54.04
654.853	54.13
655.183	53.98
655.513	54.05
655.843	54.12
656.172	54.12
656.502	54.02
656.832	53.99
657.162	54.09
657.491	54.25
657.821	54.24
658.15	54.44
658.48	54.41
658.809	54.5
659.139	54.49
659.468	54.54
659.798	54.56
660.127	54.54
660.456	54.61
660.785	54.64
661.115	54.61
661.444	54.62
661.773	54.53
662.102	54.66
662.431	54.68
662.76	54.59
663.089	54.51
663.418	54.66
663.747	54.73
664.076	54.73
664.404	54.58
664.733	54.64
665.062	54.58
665.39	54.64
665.719	54.55
666.048	54.47
666.376	54.49
666.705	54.58
667.033	54.71
667.362	54.8
667.69	54.79
668.018	54.77
668.347	54.85
668.675	54.82
669.003	54.76
