Data from BU26945_Reflection_00005.txt Node
Date: Tue Nov 19 10:49:26 EST 2019
User: vgr7
Spectrometer: USB2G7710
Scans to average: 3
Trigger mode: 4
Integration Time (sec): 2.000000E-2
Electric dark correction enabled: true
Boxcar width: 10
XAxis mode: Wavelengths
Number of Pixels in Spectrum: 2048
>>>>>Begin Spectral Data<<<<<
177.721	51.03
178.105	83.55
178.488	188.34
178.871	134.38
179.254	140
179.636	298.76
180.019	386.71
180.402	20
180.785	-48.66
181.168	-73.1
181.55	-69.49
181.933	-111.62
182.316	-96.87
182.698	-73.76
183.081	-67.62
183.463	-63.52
183.846	-57.05
184.228	-63.42
184.611	-57.66
184.993	-42.02
185.376	-40.34
185.758	-24.58
186.14	-31.59
186.522	-35.99
186.904	-36.64
187.287	-35.48
187.669	-37.48
188.051	-43.22
188.433	-48.98
188.815	-38.82
189.197	-37.14
189.579	-51.47
189.961	-62.26
190.342	-81.58
190.724	-123.71
191.106	-124.49
191.488	-112.14
191.869	-106.67
192.251	-106.04
192.633	-90.08
193.014	-118.7
193.396	-123.48
193.777	-133.71
194.159	-128.18
194.54	-109.1
194.922	-147.48
195.303	-222.65
195.684	-186.85
196.065	-154.5
196.447	-168.56
196.828	-177.01
197.209	-154.88
197.59	-94.85
197.971	-63.19
198.352	-45.49
198.733	-45.88
199.114	-48.96
199.495	-49.58
199.876	-36.89
200.257	-42.79
200.638	-54.06
201.018	-45.95
201.399	-30.7
201.78	-30.09
202.16	-31.85
202.541	-31.52
202.922	-18.75
203.302	-12.25
203.683	-17.85
204.063	-32.1
204.444	-24.16
204.824	-32.48
205.204	-26.47
205.585	-39.96
205.965	-52.47
206.345	-59.23
206.725	-48.71
207.106	-30.49
207.486	-29.16
207.866	-33.91
208.246	-19.96
208.626	-12.69
209.006	-22.21
209.386	-15.63
209.766	-9.54
210.145	3
210.525	-17.78
210.905	-18.14
211.285	-2.25
211.664	13.44
212.044	29.06
212.424	35.72
212.803	30.97
213.183	19.11
213.562	24.34
213.942	29.33
214.321	28.69
214.701	33.41
215.08	29.52
215.459	33.19
215.838	32.42
216.218	11.66
216.597	6.92
216.976	11.56
217.355	5.27
217.734	-23.44
218.113	-16.49
218.492	-43.06
218.871	-42.44
219.25	-68.12
219.629	-100.98
220.008	-120.9
220.387	-133.96
220.766	-79.82
221.144	-89.99
221.523	-88.64
221.902	-97.11
222.28	-89.32
222.659	-50.27
223.037	-26.87
223.416	-33.09
223.794	-22.44
224.173	-24.89
224.551	-23.84
224.929	-26.1
225.308	-18.97
225.686	-9.49
226.064	-15.57
226.442	-4.41
226.821	-5.42
227.199	-0.91
227.577	3.85
227.955	7.62
228.333	6.99
228.711	1.94
229.089	3.32
229.467	2.84
229.845	1.63
230.222	2.21
230.6	-2.27
230.978	-4.41
231.356	-2.58
231.733	-4.33
232.111	-2.75
232.488	-0.89
232.866	-0.4
233.243	-1.47
233.621	-2.05
233.998	0.38
234.376	-0.53
234.753	-0.03
235.13	-0.23
235.508	0.2
235.885	-1.65
236.262	-3.94
236.639	-3.24
237.016	-1.81
237.393	-0.77
237.77	-0.02
238.147	1.77
238.524	1.77
238.901	2.41
239.278	1.75
239.655	2.29
240.032	2.1
240.409	1.91
240.785	2.07
241.162	2.35
241.539	2.34
241.915	1.81
242.292	2.37
242.668	2.25
243.045	2.67
243.421	2.67
243.798	3.51
244.174	4.07
244.551	4.13
244.927	3.96
245.303	3.7
245.679	3.93
246.056	3.49
246.432	3.64
246.808	3.6
247.184	3.82
247.56	3.84
247.936	4.1
248.312	4.23
248.688	4.34
249.064	4.08
249.44	4.21
249.815	4.36
250.191	4.28
250.567	4.42
250.943	4.38
251.318	4.22
251.694	4.09
252.069	4.2
252.445	4.25
252.82	4.33
253.196	4.58
253.571	4.62
253.947	5.08
254.322	5.05
254.697	5.12
255.073	5.08
255.448	5.03
255.823	5.06
256.198	4.7
256.573	4.69
256.948	5.13
257.323	4.99
257.698	4.94
258.073	4.66
258.448	4.69
258.823	4.56
259.198	4.59
259.573	4.35
259.948	4.24
260.322	4.16
260.697	4.3
261.072	4.11
261.446	4.02
261.821	3.9
262.195	3.8
262.57	3.74
262.944	3.75
263.319	3.81
263.693	3.67
264.067	3.65
264.442	3.51
264.816	3.1
265.19	3.02
265.564	2.95
265.938	3.12
266.313	2.89
266.687	2.83
267.061	3.03
267.435	3.35
267.809	3.16
268.183	3.17
268.556	3.04
268.93	3.48
269.304	3.38
269.678	3.48
270.051	3.71
270.425	3.69
270.799	3.53
271.172	3.57
271.546	3.56
271.919	3.68
272.293	3.8
272.666	3.86
273.04	3.78
273.413	3.78
273.787	3.78
274.16	3.9
274.533	3.98
274.906	3.88
275.279	3.6
275.653	3.65
276.026	3.88
276.399	3.8
276.772	3.8
277.145	3.98
277.518	3.72
277.891	3.68
278.263	3.77
278.636	4
279.009	4.07
279.382	4.07
279.755	4.1
280.127	4.1
280.5	4.14
280.872	4.25
281.245	4.4
281.617	4.43
281.99	4.43
282.362	4.38
282.735	4.35
283.107	4.37
283.479	4.52
283.852	4.45
284.224	4.53
284.596	4.35
284.968	4.31
285.34	4.53
285.713	4.53
286.085	4.41
286.457	4.31
286.829	4.19
287.201	4.3
287.572	4.21
287.944	4.19
288.316	4.24
288.688	4.32
289.06	4.24
289.431	4.32
289.803	4.34
290.175	4.4
290.546	4.43
290.918	4.54
291.289	4.53
291.661	4.52
292.032	4.48
292.403	4.5
292.775	4.59
293.146	4.5
293.517	4.44
293.889	4.32
294.26	4.21
294.631	4.33
295.002	4.32
295.373	4.34
295.744	4.3
296.115	4.31
296.486	4.19
296.857	4.26
297.228	3.99
297.599	3.91
297.97	3.99
298.34	4.1
298.711	4.15
299.082	4.07
299.452	3.98
299.823	4.04
300.194	4.08
300.564	4.1
300.935	4.1
301.305	3.96
301.676	4.23
302.046	4.47
302.416	4.45
302.787	4.43
303.157	4.49
303.527	4.56
303.897	4.47
304.267	4.56
304.637	4.52
305.008	4.74
305.378	4.92
305.748	4.84
306.117	4.57
306.487	4.47
306.857	4.7
307.227	4.82
307.597	4.76
307.967	4.72
308.336	4.77
308.706	4.87
309.076	5.21
309.445	5.03
309.815	4.99
310.184	4.95
310.554	4.96
310.923	4.96
311.293	4.87
311.662	4.97
312.031	4.99
312.401	4.8
312.77	4.74
313.139	4.56
313.508	4.33
313.877	4.51
314.246	4.67
314.616	4.57
314.985	4.48
315.353	4.49
315.722	4.52
316.091	4.32
316.46	4.19
316.829	4.1
317.198	4.09
317.567	4.17
317.935	4.03
318.304	4.07
318.672	3.9
319.041	3.77
319.41	3.75
319.778	3.69
320.147	3.86
320.515	3.72
320.883	3.82
321.252	4.12
321.62	4.09
321.988	4.06
322.357	4.08
322.725	4.09
323.093	4.06
323.461	4.16
323.829	4.24
324.197	4.27
324.565	4.27
324.933	4.26
325.301	3.96
325.669	4.03
326.037	4.03
326.405	4.1
326.772	4.27
327.14	4.27
327.508	4.35
327.875	4.29
328.243	4.36
328.61	4.5
328.978	4.53
329.346	4.37
329.713	4.44
330.08	4.37
330.448	4.46
330.815	4.29
331.182	4.07
331.55	4.03
331.917	4.07
332.284	3.91
332.651	3.95
333.018	4.16
333.385	4.19
333.752	4.2
334.119	4.38
334.486	4.44
334.853	4.39
335.22	4.3
335.587	4.36
335.954	4.46
336.32	4.27
336.687	4.31
337.054	4.35
337.42	4.31
337.787	4.38
338.153	4.43
338.52	4.73
338.886	4.88
339.253	4.88
339.619	4.81
339.986	4.86
340.352	4.97
340.718	4.95
341.084	4.98
341.451	4.91
341.817	4.86
342.183	4.81
342.549	4.83
342.915	4.88
343.281	4.88
343.647	4.86
344.013	4.87
344.379	4.71
344.745	4.68
345.11	4.63
345.476	4.62
345.842	4.5
346.208	4.31
346.573	4.11
346.939	4.22
347.304	4.28
347.67	4.23
348.035	4.05
348.401	4.04
348.766	4
349.132	4.04
349.497	4.03
349.862	4
350.228	4.09
350.593	4.07
350.958	4.1
351.323	4.06
351.688	4.12
352.053	4.18
352.418	4.27
352.783	4.2
353.148	4.24
353.513	4.32
353.878	4.35
354.243	4.42
354.608	4.42
354.972	4.4
355.337	4.49
355.702	4.63
356.066	4.62
356.431	4.69
356.795	4.69
357.16	4.71
357.524	4.71
357.889	4.64
358.253	4.62
358.618	4.59
358.982	4.51
359.346	4.48
359.71	4.51
360.075	4.53
360.439	4.68
360.803	4.7
361.167	4.67
361.531	4.66
361.895	4.68
362.259	4.67
362.623	4.66
362.987	4.65
363.351	4.58
363.714	4.55
364.078	4.48
364.442	4.43
364.806	4.4
365.169	4.38
365.533	4.39
365.896	4.41
366.26	4.36
366.623	4.46
366.987	4.49
367.35	4.47
367.714	4.52
368.077	4.53
368.44	4.53
368.803	4.49
369.167	4.5
369.53	4.52
369.893	4.49
370.256	4.54
370.619	4.48
370.982	4.47
371.345	4.47
371.708	4.48
372.071	4.51
372.434	4.51
372.797	4.56
373.159	4.53
373.522	4.52
373.885	4.6
374.247	4.58
374.61	4.51
374.973	4.54
375.335	4.47
375.698	4.35
376.06	4.25
376.423	4.29
376.785	4.28
377.147	4.31
377.51	4.32
377.872	4.37
378.234	4.4
378.596	4.43
378.958	4.42
379.321	4.4
379.683	4.4
380.045	4.42
380.407	4.35
380.769	4.35
381.13	4.38
381.492	4.37
381.854	4.39
382.216	4.46
382.578	4.46
382.939	4.46
383.301	4.4
383.663	4.44
384.024	4.4
384.386	4.43
384.747	4.4
385.109	4.38
385.47	4.31
385.832	4.25
386.193	4.19
386.554	4.19
386.916	4.2
387.277	4.2
387.638	4.26
387.999	4.29
388.36	4.35
388.721	4.34
389.082	4.38
389.443	4.38
389.804	4.38
390.165	4.36
390.526	4.39
390.887	4.46
391.248	4.46
391.609	4.48
391.969	4.5
392.33	4.49
392.691	4.51
393.051	4.5
393.412	4.58
393.772	4.67
394.133	4.67
394.493	4.65
394.854	4.65
395.214	4.58
395.574	4.55
395.935	4.46
396.295	4.43
396.655	4.37
397.015	4.36
397.376	4.35
397.736	4.33
398.096	4.32
398.456	4.27
398.816	4.29
399.176	4.28
399.535	4.26
399.895	4.28
400.255	4.24
400.615	4.27
400.975	4.24
401.334	4.25
401.694	4.27
402.054	4.28
402.413	4.26
402.773	4.28
403.132	4.29
403.492	4.33
403.851	4.38
404.211	4.41
404.57	4.41
404.929	4.4
405.288	4.41
405.648	4.41
406.007	4.4
406.366	4.38
406.725	4.37
407.084	4.38
407.443	4.36
407.802	4.4
408.161	4.38
408.52	4.39
408.879	4.37
409.238	4.38
409.596	4.35
409.955	4.36
410.314	4.35
410.673	4.35
411.031	4.34
411.39	4.31
411.748	4.34
412.107	4.32
412.465	4.33
412.824	4.32
413.182	4.31
413.54	4.33
413.899	4.34
414.257	4.36
414.615	4.37
414.974	4.38
415.332	4.36
415.69	4.35
416.048	4.36
416.406	4.34
416.764	4.32
417.122	4.31
417.48	4.33
417.838	4.33
418.195	4.3
418.553	4.28
418.911	4.27
419.269	4.25
419.626	4.26
419.984	4.24
420.342	4.28
420.699	4.26
421.057	4.26
421.414	4.26
421.772	4.27
422.129	4.24
422.486	4.23
422.844	4.23
423.201	4.23
423.558	4.21
423.915	4.21
424.273	4.23
424.63	4.25
424.987	4.23
425.344	4.26
425.701	4.27
426.058	4.29
426.415	4.3
426.772	4.29
427.128	4.32
427.485	4.31
427.842	4.26
428.199	4.28
428.555	4.29
428.912	4.28
429.269	4.24
429.625	4.26
429.982	4.27
430.338	4.27
430.695	4.27
431.051	4.26
431.407	4.27
431.764	4.25
432.12	4.25
432.476	4.27
432.832	4.25
433.189	4.26
433.545	4.25
433.901	4.25
434.257	4.24
434.613	4.23
434.969	4.22
435.325	4.24
435.681	4.24
436.036	4.22
436.392	4.23
436.748	4.23
437.104	4.25
437.459	4.25
437.815	4.24
438.171	4.24
438.526	4.27
438.882	4.27
439.237	4.27
439.593	4.27
439.948	4.25
440.304	4.24
440.659	4.24
441.014	4.23
441.369	4.22
441.725	4.24
442.08	4.24
442.435	4.25
442.79	4.24
443.145	4.23
443.5	4.23
443.855	4.23
444.21	4.24
444.565	4.24
444.92	4.23
445.275	4.26
445.629	4.27
445.984	4.25
446.339	4.23
446.693	4.25
447.048	4.24
447.403	4.23
447.757	4.22
448.112	4.2
448.466	4.22
448.82	4.21
449.175	4.21
449.529	4.21
449.883	4.21
450.238	4.24
450.592	4.25
450.946	4.25
451.3	4.23
451.654	4.21
452.008	4.21
452.362	4.19
452.716	4.16
453.07	4.16
453.424	4.15
453.778	4.16
454.132	4.13
454.486	4.12
454.839	4.14
455.193	4.16
455.547	4.17
455.9	4.16
456.254	4.16
456.607	4.15
456.961	4.13
457.314	4.13
457.668	4.13
458.021	4.13
458.375	4.15
458.728	4.16
459.081	4.18
459.434	4.17
459.787	4.21
460.141	4.22
460.494	4.22
460.847	4.22
461.2	4.24
461.553	4.25
461.906	4.26
462.259	4.22
462.611	4.21
462.964	4.23
463.317	4.23
463.67	4.24
464.022	4.24
464.375	4.25
464.728	4.25
465.08	4.24
465.433	4.23
465.785	4.21
466.138	4.21
466.49	4.21
466.843	4.25
467.195	4.24
467.547	4.23
467.899	4.24
468.252	4.25
468.604	4.23
468.956	4.24
469.308	4.22
469.66	4.27
470.012	4.27
470.364	4.26
470.716	4.29
471.068	4.31
471.42	4.31
471.772	4.32
472.123	4.34
472.475	4.35
472.827	4.35
473.178	4.36
473.53	4.34
473.882	4.34
474.233	4.33
474.585	4.33
474.936	4.33
475.288	4.33
475.639	4.34
475.99	4.34
476.342	4.33
476.693	4.35
477.044	4.35
477.395	4.34
477.746	4.32
478.097	4.29
478.448	4.28
478.8	4.26
479.15	4.28
479.501	4.28
479.852	4.28
480.203	4.31
480.554	4.31
480.905	4.32
481.255	4.33
481.606	4.33
481.957	4.32
482.307	4.32
482.658	4.33
483.009	4.33
483.359	4.34
483.709	4.34
484.06	4.33
484.41	4.34
484.761	4.36
485.111	4.37
485.461	4.38
485.811	4.39
486.162	4.4
486.512	4.39
486.862	4.39
487.212	4.4
487.562	4.41
487.912	4.41
488.262	4.43
488.612	4.43
488.961	4.44
489.311	4.44
489.661	4.44
490.011	4.44
490.36	4.43
490.71	4.43
491.06	4.45
491.409	4.45
491.759	4.45
492.108	4.42
492.458	4.43
492.807	4.43
493.157	4.43
493.506	4.43
493.855	4.45
494.204	4.43
494.554	4.41
494.903	4.4
495.252	4.4
495.601	4.39
495.95	4.41
496.299	4.4
496.648	4.41
496.997	4.43
497.346	4.44
497.695	4.44
498.043	4.47
498.392	4.48
498.741	4.49
499.09	4.49
499.438	4.53
499.787	4.54
500.135	4.54
500.484	4.55
500.832	4.57
501.181	4.58
501.529	4.63
501.878	4.63
502.226	4.62
502.574	4.62
502.923	4.61
503.271	4.62
503.619	4.66
503.967	4.7
504.315	4.68
504.663	4.67
505.011	4.69
505.359	4.7
505.707	4.71
506.055	4.74
506.403	4.74
506.751	4.76
507.098	4.81
507.446	4.82
507.794	4.84
508.141	4.84
508.489	4.85
508.837	4.89
509.184	4.92
509.531	4.96
509.879	4.99
510.226	5.01
510.574	5.03
510.921	5.02
511.268	5.02
511.616	5.07
511.963	5.08
512.31	5.1
512.657	5.12
513.004	5.1
513.351	5.1
513.698	5.11
514.045	5.11
514.392	5.09
514.739	5.12
515.086	5.14
515.432	5.15
515.779	5.13
516.126	5.13
516.473	5.13
516.819	5.13
517.166	5.14
517.512	5.13
517.859	5.13
518.205	5.12
518.552	5.1
518.898	5.12
519.245	5.12
519.591	5.1
519.937	5.09
520.283	5.13
520.629	5.15
520.976	5.15
521.322	5.16
521.668	5.17
522.014	5.19
522.36	5.19
522.706	5.19
523.052	5.23
523.398	5.22
523.743	5.23
524.089	5.24
524.435	5.23
524.781	5.25
525.126	5.25
525.472	5.28
525.817	5.28
526.163	5.27
526.509	5.3
526.854	5.31
527.199	5.33
527.545	5.31
527.89	5.33
528.235	5.34
528.581	5.35
528.926	5.36
529.271	5.35
529.616	5.36
529.961	5.35
530.306	5.35
530.651	5.36
530.996	5.37
531.341	5.38
531.686	5.4
532.031	5.41
532.376	5.42
532.721	5.43
533.065	5.44
533.41	5.45
533.755	5.44
534.099	5.44
534.444	5.43
534.788	5.43
535.133	5.4
535.477	5.41
535.822	5.42
536.166	5.41
536.51	5.41
536.855	5.42
537.199	5.43
537.543	5.43
537.887	5.44
538.231	5.45
538.576	5.44
538.92	5.44
539.264	5.42
539.608	5.41
539.951	5.41
540.295	5.42
540.639	5.44
540.983	5.44
541.327	5.44
541.671	5.45
542.014	5.47
542.358	5.48
542.701	5.48
543.045	5.48
543.389	5.49
543.732	5.5
544.075	5.5
544.419	5.52
544.762	5.53
545.105	5.52
545.449	5.52
545.792	5.55
546.135	5.55
546.478	5.55
546.821	5.57
547.165	5.56
547.508	5.57
547.851	5.57
548.194	5.56
548.536	5.58
548.879	5.55
549.222	5.55
549.565	5.55
549.908	5.56
550.25	5.53
550.593	5.52
550.936	5.5
551.278	5.51
551.621	5.48
551.963	5.48
552.306	5.49
552.648	5.47
552.991	5.43
553.333	5.43
553.675	5.45
554.017	5.43
554.36	5.44
554.702	5.43
555.044	5.42
555.386	5.45
555.728	5.49
556.07	5.48
556.412	5.51
556.754	5.49
557.096	5.45
557.438	5.47
557.78	5.49
558.121	5.51
558.463	5.48
558.805	5.49
559.147	5.51
559.488	5.47
559.83	5.47
560.171	5.46
560.513	5.47
560.854	5.47
561.196	5.47
561.537	5.48
561.878	5.48
562.22	5.49
562.561	5.45
562.902	5.42
563.243	5.45
563.584	5.44
563.925	5.48
564.266	5.47
564.607	5.48
564.948	5.46
565.289	5.48
565.63	5.51
565.971	5.51
566.312	5.49
566.653	5.5
566.993	5.5
567.334	5.53
567.675	5.53
568.015	5.52
568.356	5.53
568.696	5.51
569.037	5.51
569.377	5.51
569.718	5.52
570.058	5.54
570.398	5.54
570.739	5.54
571.079	5.53
571.419	5.56
571.759	5.53
572.099	5.55
572.439	5.56
572.779	5.57
573.119	5.54
573.459	5.51
573.799	5.49
574.139	5.51
574.479	5.51
574.819	5.51
575.158	5.53
575.498	5.54
575.838	5.55
576.177	5.58
576.517	5.57
576.856	5.56
577.196	5.54
577.535	5.54
577.875	5.56
578.214	5.53
578.553	5.54
578.893	5.55
579.232	5.56
579.571	5.56
579.91	5.55
580.25	5.55
580.589	5.6
580.928	5.64
581.267	5.68
581.606	5.72
581.945	5.7
582.283	5.69
582.622	5.67
582.961	5.69
583.3	5.67
583.639	5.66
583.977	5.7
584.316	5.73
584.654	5.71
584.993	5.72
585.332	5.79
585.67	5.82
586.008	5.84
586.347	5.83
586.685	5.8
587.024	5.8
587.362	5.83
587.7	5.82
588.038	5.83
588.376	5.78
588.715	5.75
589.053	5.77
589.391	5.77
589.729	5.8
590.067	5.82
590.404	5.79
590.742	5.83
591.08	5.82
591.418	5.82
591.756	5.84
592.093	5.79
592.431	5.77
592.769	5.74
593.106	5.75
593.444	5.74
593.781	5.77
594.119	5.77
594.456	5.78
594.793	5.75
595.131	5.76
595.468	5.79
595.805	5.8
596.143	5.82
596.48	5.85
596.817	5.81
597.154	5.82
597.491	5.81
597.828	5.77
598.165	5.74
598.502	5.71
598.839	5.68
599.176	5.72
599.512	5.68
599.849	5.71
600.186	5.69
600.523	5.7
600.859	5.7
601.196	5.7
601.532	5.68
601.869	5.74
602.205	5.71
602.542	5.68
602.878	5.69
603.215	5.71
603.551	5.68
603.887	5.71
604.223	5.68
604.56	5.7
604.896	5.73
605.232	5.73
605.568	5.74
605.904	5.76
606.24	5.77
606.576	5.78
606.912	5.74
607.248	5.76
607.583	5.75
607.919	5.72
608.255	5.73
608.591	5.76
608.926	5.74
609.262	5.73
609.597	5.76
609.933	5.75
610.268	5.77
610.604	5.76
610.939	5.79
611.275	5.78
611.61	5.75
611.945	5.69
612.281	5.72
612.616	5.69
612.951	5.74
613.286	5.76
613.621	5.8
613.956	5.87
614.291	5.88
614.626	5.89
614.961	5.91
615.296	5.94
615.631	5.94
615.966	5.95
616.3	6.01
616.635	6.01
616.97	5.99
617.304	5.98
617.639	5.98
617.973	5.96
618.308	5.98
618.642	6.05
618.977	6.13
619.311	6.12
619.646	6.15
619.98	6.14
620.314	6.1
620.648	6.1
620.983	6.03
621.317	6.06
621.651	6.07
621.985	6.04
622.319	6
622.653	5.99
622.987	5.99
623.321	5.95
623.655	5.92
623.988	5.91
624.322	5.93
624.656	5.98
624.99	6
625.323	6.01
625.657	6.03
625.99	6.06
626.324	6.09
626.657	6.08
626.991	6.03
627.324	5.99
627.658	5.93
627.991	6.02
628.324	5.98
628.657	5.98
628.991	6.02
629.324	6.04
629.657	5.98
629.99	6
630.323	5.99
630.656	5.98
630.989	6.01
631.322	5.97
631.655	5.94
631.987	5.9
632.32	5.9
632.653	5.86
632.986	5.83
633.318	5.81
633.651	5.82
633.984	5.88
634.316	5.94
634.649	5.94
634.981	5.86
635.313	5.9
635.646	5.96
635.978	5.94
636.31	5.93
636.643	5.99
636.975	5.98
637.307	6.08
637.639	6.11
637.971	6.06
638.303	6.05
638.635	6.03
638.967	6.06
639.299	6.06
639.631	6.09
639.963	6.11
640.295	6.15
640.626	6.14
640.958	6.12
641.29	6.13
641.621	6.14
641.953	6.17
642.285	6.11
642.616	6.05
642.948	6.05
643.279	6.06
643.61	6.11
643.942	6.1
644.273	6.03
644.604	6.06
644.936	6.1
645.267	6.13
645.598	6.16
645.929	6.12
646.26	6.06
646.591	5.99
646.922	6.01
647.253	5.92
647.584	5.91
647.915	5.93
648.245	5.95
648.576	5.98
648.907	5.99
649.238	5.95
649.568	5.93
649.899	5.9
650.229	5.91
650.56	5.85
650.89	5.88
651.221	5.96
651.551	5.98
651.882	5.92
652.212	5.93
652.542	5.96
652.872	6
653.203	6.06
653.533	6.09
653.863	6.07
654.193	6.1
654.523	6.07
654.853	6.11
655.183	6.08
655.513	6.08
655.843	6.08
656.172	6.09
656.502	6.09
656.832	6.1
657.162	6.1
657.491	6.14
657.821	6.05
658.15	5.99
658.48	5.94
658.809	6
659.139	5.97
659.468	5.96
659.798	5.96
660.127	5.92
660.456	5.89
660.785	5.88
661.115	5.89
661.444	5.92
661.773	5.92
662.102	5.95
662.431	5.99
662.76	6.02
663.089	6.1
663.418	6.13
663.747	6.12
664.076	6.1
664.404	6.07
664.733	6.14
665.062	6.14
665.39	6.14
665.719	6.08
666.048	6.19
666.376	6.19
666.705	6.28
667.033	6.37
667.362	6.43
667.69	6.43
668.018	6.48
668.347	6.56
668.675	6.52
669.003	6.53
669.331	6.51
669.659	6.39
669.987	6.3
670.315	6.27
670.643	6.32
670.971	6.32
671.299	6.4
671.627	6.39
671.955	6.43
672.283	6.43
672.61	6.47
672.938	6.37
673.266	6.38
673.593	6.3
673.921	6.23
674.249	6.24
674.576	6.25
674.904	6.2
675.231	6.09
675.558	6.11
675.886	6.16
676.213	6.09
676.54	6.2
676.867	6.2
677.195	6.25
