Data from BU56854_Reflection_00005.txt Node
Date: Mon Nov 18 16:26:49 EST 2019
User: vgr7
Spectrometer: USB2G7710
Scans to average: 3
Trigger mode: 4
Integration Time (sec): 2.000000E-2
Electric dark correction enabled: true
Boxcar width: 10
XAxis mode: Wavelengths
Number of Pixels in Spectrum: 2048
>>>>>Begin Spectral Data<<<<<
177.721	-275.16
178.105	-253.29
178.488	-4981.97
178.871	-201.14
179.254	-133.95
179.636	-32.99
180.019	-80.66
180.402	148.48
180.785	-55.54
181.168	14.63
181.55	34.03
181.933	70.87
182.316	128.39
182.698	151.81
183.081	180
183.463	188.61
183.846	152.21
184.228	172.47
184.611	165.85
184.993	223.77
185.376	227.53
185.758	568.79
186.14	1310.03
186.522	1374.92
186.904	-1436.12
187.287	-1469.13
187.669	-656.76
188.051	-26841.18
188.433	-957.08
188.815	-362.98
189.197	-334.35
189.579	-205.62
189.961	-167.95
190.342	-131.9
190.724	-108.82
191.106	-96.6
191.488	-97.47
191.869	-76.12
192.251	-83.51
192.633	-86.89
193.014	-82.96
193.396	-95.02
193.777	-81.33
194.159	-82.79
194.54	-71.24
194.922	-79.29
195.303	-82.37
195.684	-75.16
196.065	-49.15
196.447	-52.99
196.828	-51.01
197.209	-37.52
197.59	-51.83
197.971	-56.35
198.352	-43.57
198.733	-49.71
199.114	-56
199.495	-48.22
199.876	-44.53
200.257	-40.28
200.638	-27.5
201.018	-33.65
201.399	-28.14
201.78	-31.02
202.16	-45.89
202.541	-70.25
202.922	-81.67
203.302	-114.01
203.683	-131.37
204.063	-146.31
204.444	-123.3
204.824	-152.69
205.204	-108.67
205.585	-122.09
205.965	-101.65
206.345	-145.17
206.725	-145.74
207.106	-175.86
207.486	-224.29
207.866	-279.44
208.246	-256.88
208.626	-277.1
209.006	-235.01
209.386	-390.96
209.766	-431.43
210.145	-313.66
210.525	-202.78
210.905	-175.34
211.285	-123.82
211.664	-116.01
212.044	-113.17
212.424	-109.43
212.803	-85.63
213.183	-82.05
213.562	-63.51
213.942	-59.11
214.321	-43.42
214.701	-33.2
215.08	-30.54
215.459	-30.22
215.838	-21.82
216.218	-30.74
216.597	-43.59
216.976	-33.61
217.355	-19.86
217.734	-22.54
218.113	-15.39
218.492	-14.66
218.871	-19.34
219.25	-15.42
219.629	-21.33
220.008	-33.73
220.387	-34.3
220.766	-42.47
221.144	-60.75
221.523	-66.84
221.902	-76.37
222.28	-79.18
222.659	-65.52
223.037	-63.93
223.416	-56.55
223.794	-54.49
224.173	-50.87
224.551	-34.27
224.929	-36.33
225.308	-32.83
225.686	-20.02
226.064	-22.41
226.442	-21.66
226.821	-14.55
227.199	-16.65
227.577	-11.98
227.955	-9.17
228.333	-6.45
228.711	-5.26
229.089	-0.52
229.467	-0.45
229.845	-1.61
230.222	-1.42
230.6	-3.48
230.978	-1.81
231.356	0.3
231.733	0.14
232.111	2.33
232.488	1.13
232.866	0.66
233.243	1.3
233.621	1.18
233.998	0.28
234.376	1.89
234.753	0.59
235.13	1.77
235.508	0.7
235.885	-0.44
236.262	-0.65
236.639	-0.51
237.016	-1.9
237.393	-0.5
237.77	1.89
238.147	2.01
238.524	1.84
238.901	2.69
239.278	2.36
239.655	2.52
240.032	2.22
240.409	1.88
240.785	1.56
241.162	0.94
241.539	1.03
241.915	1.72
242.292	1.39
242.668	1.86
243.045	1.85
243.421	1.74
243.798	1.82
244.174	1.72
244.551	2.29
244.927	2.32
245.303	2.73
245.679	2.66
246.056	2.89
246.432	3.03
246.808	2.98
247.184	3.02
247.56	2.93
247.936	3.18
248.312	3.31
248.688	3.5
249.064	3.59
249.44	3.57
249.815	3.52
250.191	3.65
250.567	3.55
250.943	3.61
251.318	4.08
251.694	4.34
252.069	4.25
252.445	3.83
252.82	3.86
253.196	3.38
253.571	3.47
253.947	3.05
254.322	3.05
254.697	2.72
255.073	2.48
255.448	2.6
255.823	2.47
256.198	2.85
256.573	2.89
256.948	2.95
257.323	3.01
257.698	3.05
258.073	3.09
258.448	3.02
258.823	2.89
259.198	2.65
259.573	2.74
259.948	2.76
260.322	2.92
260.697	2.88
261.072	2.96
261.446	2.92
261.821	2.99
262.195	2.98
262.57	2.99
262.944	2.76
263.319	2.64
263.693	2.65
264.067	2.55
264.442	2.59
264.816	2.53
265.19	2.49
265.564	2.3
265.938	2.29
266.313	2.19
266.687	2.35
267.061	2.56
267.435	2.63
267.809	2.64
268.183	2.68
268.556	2.67
268.93	2.74
269.304	2.66
269.678	2.72
270.051	2.69
270.425	2.83
270.799	3.05
271.172	3.05
271.546	2.88
271.919	2.66
272.293	2.56
272.666	2.63
273.04	2.62
273.413	2.56
273.787	2.55
274.16	2.57
274.533	2.56
274.906	2.5
275.279	2.38
275.653	2.46
276.026	2.53
276.399	2.4
276.772	2.32
277.145	2.24
277.518	2.23
277.891	2.19
278.263	2.17
278.636	2.12
279.009	2.25
279.382	2.45
279.755	2.65
280.127	2.83
280.5	2.75
280.872	2.75
281.245	2.73
281.617	2.81
281.99	2.98
282.362	3
282.735	2.88
283.107	2.85
283.479	2.88
283.852	2.84
284.224	3.01
284.596	2.93
284.968	2.94
285.34	3.12
285.713	3.23
286.085	3.2
286.457	3.23
286.829	3.2
287.201	3.13
287.572	2.92
287.944	2.89
288.316	2.94
288.688	2.81
289.06	2.9
289.431	2.94
289.803	2.88
290.175	2.71
290.546	2.84
290.918	2.83
291.289	2.81
291.661	2.84
292.032	2.8
292.403	2.84
292.775	2.99
293.146	2.72
293.517	2.54
293.889	2.52
294.26	2.61
294.631	2.53
295.002	2.52
295.373	2.77
295.744	2.74
296.115	2.8
296.486	2.74
296.857	2.8
297.228	2.74
297.599	2.79
297.97	2.9
298.34	2.86
298.711	2.95
299.082	2.83
299.452	2.83
299.823	2.93
300.194	2.92
300.564	2.79
300.935	2.84
301.305	2.97
301.676	3.04
302.046	3.1
302.416	3.23
302.787	3.2
303.157	2.95
303.527	2.92
303.897	2.82
304.267	3.08
304.637	3.03
305.008	3.14
305.378	3.08
305.748	3.12
306.117	3.04
306.487	3
306.857	3.22
307.227	3.09
307.597	3.01
307.967	3.21
308.336	3.29
308.706	3.23
309.076	3.11
309.445	3.01
309.815	2.85
310.184	2.74
310.554	2.79
310.923	2.92
311.293	2.96
311.662	3.01
312.031	3.03
312.401	3.05
312.77	2.89
313.139	2.93
313.508	2.81
313.877	2.84
314.246	2.87
314.616	2.62
314.985	2.71
315.353	2.72
315.722	2.65
316.091	2.51
316.46	2.44
316.829	2.46
317.198	2.57
317.567	2.56
317.935	2.53
318.304	2.46
318.672	2.4
319.041	2.49
319.41	2.58
319.778	2.49
320.147	2.44
320.515	2.39
320.883	2.27
321.252	2.41
321.62	2.37
321.988	2.29
322.357	2.49
322.725	2.42
323.093	2.3
323.461	2.18
323.829	2.23
324.197	2.39
324.565	2.33
324.933	2.36
325.301	2.42
325.669	2.58
326.037	2.57
326.405	2.64
326.772	2.63
327.14	2.52
327.508	2.55
327.875	2.48
328.243	2.59
328.61	2.67
328.978	2.66
329.346	2.69
329.713	2.58
330.08	2.56
330.448	2.54
330.815	2.59
331.182	2.65
331.55	2.62
331.917	2.62
332.284	2.83
332.651	2.75
333.018	2.8
333.385	2.75
333.752	2.79
334.119	2.89
334.486	2.84
334.853	2.82
335.22	2.8
335.587	2.85
335.954	2.77
336.32	2.81
336.687	2.94
337.054	3
337.42	3.16
337.787	3.19
338.153	3.17
338.52	3.18
338.886	3.13
339.253	2.99
339.619	2.95
339.986	2.92
340.352	2.95
340.718	2.93
341.084	2.9
341.451	2.83
341.817	2.75
342.183	2.77
342.549	2.73
342.915	2.73
343.281	2.77
343.647	2.79
344.013	2.69
344.379	2.64
344.745	2.64
345.11	2.61
345.476	2.64
345.842	2.59
346.208	2.6
346.573	2.7
346.939	2.94
347.304	2.83
347.67	2.71
348.035	2.65
348.401	2.66
348.766	2.62
349.132	2.76
349.497	2.78
349.862	2.82
350.228	2.89
350.593	2.9
350.958	2.89
351.323	2.89
351.688	2.97
352.053	3.01
352.418	3.02
352.783	2.95
353.148	2.88
353.513	2.96
353.878	2.97
354.243	2.99
354.608	2.88
354.972	2.98
355.337	3.12
355.702	3.22
356.066	3.19
356.431	3.16
356.795	3.12
357.16	3.13
357.524	3.06
357.889	3.1
358.253	3.13
358.618	3.14
358.982	3.1
359.346	3.03
359.71	2.9
360.075	2.93
360.439	2.98
360.803	3.02
361.167	3.01
361.531	2.99
361.895	2.98
362.259	2.98
362.623	3.03
362.987	2.94
363.351	2.87
363.714	2.94
364.078	2.94
364.442	2.91
364.806	2.88
365.169	2.85
365.533	2.75
365.896	2.71
366.26	2.67
366.623	2.74
366.987	2.79
367.35	2.89
367.714	2.84
368.077	2.79
368.44	2.72
368.803	2.77
369.167	2.78
369.53	2.7
369.893	2.8
370.256	2.77
370.619	2.84
370.982	2.78
371.345	2.66
371.708	2.75
372.071	2.8
372.434	2.77
372.797	2.81
373.159	2.79
373.522	2.8
373.885	2.82
374.247	2.82
374.61	2.81
374.973	2.74
375.335	2.74
375.698	2.77
376.06	2.82
376.423	2.77
376.785	2.8
377.147	2.89
377.51	2.8
377.872	2.83
378.234	2.83
378.596	2.88
378.958	2.91
379.321	2.86
379.683	2.84
380.045	2.84
380.407	2.84
380.769	2.88
381.13	2.86
381.492	2.85
381.854	2.84
382.216	2.85
382.578	2.87
382.939	2.81
383.301	2.82
383.663	2.8
384.024	2.81
384.386	2.79
384.747	2.74
385.109	2.75
385.47	2.66
385.832	2.64
386.193	2.68
386.554	2.71
386.916	2.68
387.277	2.68
387.638	2.7
387.999	2.69
388.36	2.65
388.721	2.69
389.082	2.71
389.443	2.7
389.804	2.73
390.165	2.71
390.526	2.77
390.887	2.77
391.248	2.79
391.609	2.78
391.969	2.78
392.33	2.75
392.691	2.77
393.051	2.78
393.412	2.79
393.772	2.75
394.133	2.74
394.493	2.76
394.854	2.76
395.214	2.76
395.574	2.79
395.935	2.85
396.295	2.85
396.655	2.82
397.015	2.81
397.376	2.75
397.736	2.77
398.096	2.75
398.456	2.77
398.816	2.79
399.176	2.79
399.535	2.8
399.895	2.84
400.255	2.84
400.615	2.85
400.975	2.84
401.334	2.86
401.694	2.89
402.054	2.87
402.413	2.88
402.773	2.82
403.132	2.79
403.492	2.79
403.851	2.77
404.211	2.78
404.57	2.76
404.929	2.76
405.288	2.77
405.648	2.77
406.007	2.75
406.366	2.7
406.725	2.74
407.084	2.74
407.443	2.73
407.802	2.73
408.161	2.69
408.52	2.67
408.879	2.68
409.238	2.67
409.596	2.67
409.955	2.66
410.314	2.74
410.673	2.74
411.031	2.74
411.39	2.74
411.748	2.76
412.107	2.81
412.465	2.83
412.824	2.82
413.182	2.83
413.54	2.83
413.899	2.86
414.257	2.83
414.615	2.82
414.974	2.84
415.332	2.84
415.69	2.87
416.048	2.85
416.406	2.85
416.764	2.81
417.122	2.83
417.48	2.83
417.838	2.81
418.195	2.81
418.553	2.8
418.911	2.79
419.269	2.79
419.626	2.77
419.984	2.76
420.342	2.77
420.699	2.74
421.057	2.74
421.414	2.74
421.772	2.75
422.129	2.75
422.486	2.75
422.844	2.74
423.201	2.73
423.558	2.75
423.915	2.76
424.273	2.77
424.63	2.74
424.987	2.76
425.344	2.76
425.701	2.76
426.058	2.76
426.415	2.76
426.772	2.76
427.128	2.76
427.485	2.76
427.842	2.75
428.199	2.78
428.555	2.79
428.912	2.8
429.269	2.79
429.625	2.78
429.982	2.77
430.338	2.79
430.695	2.82
431.051	2.81
431.407	2.81
431.764	2.8
432.12	2.79
432.476	2.77
432.832	2.74
433.189	2.73
433.545	2.74
433.901	2.75
434.257	2.72
434.613	2.74
434.969	2.74
435.325	2.75
435.681	2.76
436.036	2.77
436.392	2.75
436.748	2.75
437.104	2.76
437.459	2.76
437.815	2.77
438.171	2.77
438.526	2.78
438.882	2.76
439.237	2.77
439.593	2.8
439.948	2.8
440.304	2.82
440.659	2.83
441.014	2.84
441.369	2.81
441.725	2.84
442.08	2.83
442.435	2.83
442.79	2.82
443.145	2.81
443.5	2.8
443.855	2.8
444.21	2.8
444.565	2.8
444.92	2.81
445.275	2.78
445.629	2.77
445.984	2.76
446.339	2.76
446.693	2.75
447.048	2.73
447.403	2.73
447.757	2.73
448.112	2.73
448.466	2.72
448.82	2.74
449.175	2.74
449.529	2.74
449.883	2.73
450.238	2.73
450.592	2.72
450.946	2.73
451.3	2.72
451.654	2.71
452.008	2.72
452.362	2.72
452.716	2.73
453.07	2.75
453.424	2.76
453.778	2.76
454.132	2.76
454.486	2.76
454.839	2.75
455.193	2.74
455.547	2.73
455.9	2.74
456.254	2.73
456.607	2.72
456.961	2.73
457.314	2.74
457.668	2.73
458.021	2.75
458.375	2.75
458.728	2.75
459.081	2.74
459.434	2.73
459.787	2.71
460.141	2.71
460.494	2.69
460.847	2.7
461.2	2.69
461.553	2.71
461.906	2.73
462.259	2.74
462.611	2.75
462.964	2.76
463.317	2.77
463.67	2.76
464.022	2.77
464.375	2.75
464.728	2.73
465.08	2.76
465.433	2.75
465.785	2.74
466.138	2.75
466.49	2.73
466.843	2.73
467.195	2.72
467.547	2.73
467.899	2.74
468.252	2.74
468.604	2.76
468.956	2.74
469.308	2.74
469.66	2.73
470.012	2.74
470.364	2.73
470.716	2.73
471.068	2.75
471.42	2.74
471.772	2.73
472.123	2.75
472.475	2.75
472.827	2.75
473.178	2.78
473.53	2.76
473.882	2.78
474.233	2.79
474.585	2.81
474.936	2.82
475.288	2.83
475.639	2.83
475.99	2.83
476.342	2.84
476.693	2.84
477.044	2.85
477.395	2.83
477.746	2.83
478.097	2.8
478.448	2.8
478.8	2.81
479.15	2.81
479.501	2.81
479.852	2.82
480.203	2.82
480.554	2.82
480.905	2.84
481.255	2.84
481.606	2.86
481.957	2.85
482.307	2.84
482.658	2.84
483.009	2.84
483.359	2.85
483.709	2.84
484.06	2.84
484.41	2.85
484.761	2.86
485.111	2.86
485.461	2.87
485.811	2.87
486.162	2.87
486.512	2.87
486.862	2.88
487.212	2.87
487.562	2.87
487.912	2.86
488.262	2.85
488.612	2.85
488.961	2.85
489.311	2.84
489.661	2.86
490.011	2.86
490.36	2.86
490.71	2.85
491.06	2.85
491.409	2.85
491.759	2.85
492.108	2.84
492.458	2.85
492.807	2.85
493.157	2.86
493.506	2.85
493.855	2.86
494.204	2.85
494.554	2.85
494.903	2.86
495.252	2.85
495.601	2.88
495.95	2.88
496.299	2.88
496.648	2.88
496.997	2.87
497.346	2.88
497.695	2.89
498.043	2.92
498.392	2.93
498.741	2.94
499.09	2.93
499.438	2.94
499.787	2.94
500.135	2.98
500.484	2.98
500.832	3
501.181	3.01
501.529	3.03
501.878	3.04
502.226	3.05
502.574	3.08
502.923	3.08
503.271	3.08
503.619	3.09
503.967	3.12
504.315	3.1
504.663	3.1
505.011	3.09
505.359	3.08
505.707	3.07
506.055	3.07
506.403	3.06
506.751	3.06
507.098	3.04
507.446	3.03
507.794	3.03
508.141	3.05
508.489	3.04
508.837	3.05
509.184	3.05
509.531	3.04
509.879	3.05
510.226	3.07
510.574	3.08
510.921	3.08
511.268	3.07
511.616	3.08
511.963	3.08
512.31	3.09
512.657	3.13
513.004	3.13
513.351	3.15
513.698	3.18
514.045	3.16
514.392	3.18
514.739	3.17
515.086	3.19
515.432	3.18
515.779	3.18
516.126	3.18
516.473	3.21
516.819	3.24
517.166	3.24
517.512	3.23
517.859	3.23
518.205	3.23
518.552	3.23
518.898	3.24
519.245	3.24
519.591	3.24
519.937	3.19
520.283	3.2
520.629	3.18
520.976	3.18
521.322	3.2
521.668	3.2
522.014	3.22
522.36	3.21
522.706	3.22
523.052	3.23
523.398	3.25
523.743	3.21
524.089	3.2
524.435	3.18
524.781	3.19
525.126	3.2
525.472	3.21
525.817	3.21
526.163	3.21
526.509	3.22
526.854	3.22
527.199	3.25
527.545	3.25
527.89	3.25
528.235	3.25
528.581	3.26
528.926	3.25
529.271	3.25
529.616	3.24
529.961	3.24
530.306	3.25
530.651	3.24
530.996	3.26
531.341	3.26
531.686	3.27
532.031	3.28
532.376	3.27
532.721	3.27
533.065	3.28
533.41	3.27
533.755	3.26
534.099	3.25
534.444	3.25
534.788	3.26
535.133	3.27
535.477	3.28
535.822	3.26
536.166	3.27
536.51	3.27
536.855	3.28
537.199	3.31
537.543	3.31
537.887	3.31
538.231	3.31
538.576	3.3
538.92	3.31
539.264	3.29
539.608	3.29
539.951	3.29
540.295	3.28
540.639	3.3
540.983	3.3
541.327	3.3
541.671	3.29
542.014	3.27
542.358	3.27
542.701	3.28
543.045	3.29
543.389	3.3
543.732	3.28
544.075	3.29
544.419	3.27
544.762	3.27
545.105	3.27
545.449	3.28
545.792	3.27
546.135	3.27
546.478	3.27
546.821	3.27
547.165	3.29
547.508	3.32
547.851	3.31
548.194	3.3
548.536	3.28
548.879	3.31
549.222	3.32
549.565	3.34
549.908	3.34
550.25	3.35
550.593	3.33
550.936	3.31
551.278	3.29
551.621	3.31
551.963	3.32
552.306	3.3
552.648	3.28
552.991	3.32
553.333	3.32
553.675	3.33
554.017	3.37
554.36	3.34
554.702	3.33
555.044	3.36
555.386	3.38
555.728	3.4
556.07	3.41
556.412	3.41
556.754	3.42
557.096	3.41
557.438	3.39
557.78	3.42
558.121	3.48
558.463	3.51
558.805	3.47
559.147	3.45
559.488	3.46
559.83	3.46
560.171	3.42
560.513	3.45
560.854	3.48
561.196	3.44
561.537	3.47
561.878	3.47
562.22	3.45
562.561	3.46
562.902	3.47
563.243	3.48
563.584	3.49
563.925	3.48
564.266	3.49
564.607	3.48
564.948	3.47
565.289	3.46
565.63	3.44
565.971	3.47
566.312	3.49
566.653	3.46
566.993	3.45
567.334	3.46
567.675	3.46
568.015	3.45
568.356	3.44
568.696	3.44
569.037	3.43
569.377	3.45
569.718	3.43
570.058	3.45
570.398	3.43
570.739	3.42
571.079	3.41
571.419	3.4
571.759	3.42
572.099	3.41
572.439	3.37
572.779	3.39
573.119	3.4
573.459	3.4
573.799	3.44
574.139	3.45
574.479	3.43
574.819	3.41
575.158	3.38
575.498	3.4
575.838	3.39
576.177	3.36
576.517	3.34
576.856	3.35
577.196	3.31
577.535	3.32
577.875	3.33
578.214	3.33
578.553	3.34
578.893	3.28
579.232	3.29
579.571	3.29
579.91	3.29
580.25	3.27
580.589	3.25
580.928	3.23
581.267	3.21
581.606	3.23
581.945	3.23
582.283	3.24
582.622	3.24
582.961	3.25
583.3	3.28
583.639	3.32
583.977	3.35
584.316	3.36
584.654	3.32
584.993	3.33
585.332	3.35
585.67	3.33
586.008	3.36
586.347	3.36
586.685	3.37
587.024	3.36
587.362	3.38
587.7	3.34
588.038	3.33
588.376	3.35
588.715	3.35
589.053	3.34
589.391	3.38
589.729	3.37
590.067	3.35
590.404	3.4
590.742	3.35
591.08	3.33
591.418	3.31
591.756	3.34
592.093	3.36
592.431	3.37
592.769	3.37
593.106	3.42
593.444	3.42
593.781	3.43
594.119	3.42
594.456	3.42
594.793	3.42
595.131	3.43
595.468	3.45
595.805	3.46
596.143	3.48
596.48	3.47
596.817	3.48
597.154	3.5
597.491	3.44
597.828	3.45
598.165	3.43
598.502	3.42
598.839	3.4
599.176	3.37
599.512	3.36
599.849	3.38
600.186	3.38
600.523	3.41
600.859	3.41
601.196	3.43
601.532	3.4
601.869	3.41
602.205	3.39
602.542	3.39
602.878	3.36
603.215	3.38
603.551	3.37
603.887	3.38
604.223	3.36
604.56	3.42
604.896	3.41
605.232	3.44
605.568	3.47
605.904	3.49
606.24	3.51
606.576	3.5
606.912	3.49
607.248	3.46
607.583	3.45
607.919	3.44
608.255	3.42
608.591	3.46
608.926	3.43
609.262	3.47
609.597	3.46
609.933	3.48
610.268	3.45
610.604	3.45
610.939	3.42
611.275	3.43
611.61	3.41
611.945	3.45
612.281	3.41
612.616	3.42
612.951	3.41
613.286	3.37
613.621	3.39
613.956	3.41
614.291	3.43
614.626	3.4
614.961	3.42
615.296	3.45
615.631	3.46
615.966	3.53
616.3	3.53
616.635	3.51
616.97	3.52
617.304	3.51
617.639	3.55
617.973	3.56
618.308	3.55
618.642	3.54
618.977	3.51
619.311	3.55
619.646	3.51
619.98	3.47
620.314	3.55
620.648	3.57
620.983	3.53
621.317	3.51
621.651	3.55
621.985	3.55
622.319	3.52
622.653	3.51
622.987	3.49
623.321	3.48
623.655	3.49
623.988	3.49
624.322	3.46
624.656	3.46
624.99	3.45
625.323	3.48
625.657	3.48
625.99	3.45
626.324	3.46
626.657	3.48
626.991	3.48
627.324	3.42
627.658	3.4
627.991	3.42
628.324	3.45
628.657	3.43
628.991	3.44
629.324	3.48
629.657	3.45
629.99	3.43
630.323	3.47
630.656	3.49
630.989	3.55
631.322	3.59
631.655	3.55
631.987	3.57
632.32	3.51
632.653	3.51
632.986	3.56
633.318	3.58
633.651	3.57
633.984	3.58
634.316	3.61
634.649	3.65
634.981	3.62
635.313	3.56
635.646	3.58
635.978	3.63
636.31	3.61
636.643	3.6
636.975	3.68
637.307	3.62
637.639	3.56
637.971	3.52
638.303	3.52
638.635	3.55
638.967	3.55
639.299	3.61
639.631	3.58
639.963	3.57
640.295	3.59
640.626	3.59
640.958	3.61
641.29	3.58
641.621	3.54
641.953	3.53
642.285	3.55
642.616	3.57
642.948	3.49
643.279	3.52
643.61	3.52
643.942	3.52
644.273	3.58
644.604	3.6
644.936	3.56
645.267	3.59
645.598	3.55
645.929	3.52
646.26	3.51
646.591	3.52
646.922	3.51
647.253	3.44
647.584	3.41
647.915	3.45
648.245	3.45
648.576	3.51
648.907	3.55
649.238	3.59
649.568	3.56
649.899	3.64
650.229	3.64
650.56	3.68
650.89	3.6
651.221	3.59
651.551	3.67
651.882	3.67
652.212	3.62
652.542	3.56
652.872	3.62
653.203	3.61
653.533	3.64
653.863	3.63
654.193	3.64
654.523	3.66
654.853	3.55
655.183	3.56
655.513	3.53
655.843	3.51
656.172	3.49
656.502	3.48
656.832	3.44
657.162	3.41
657.491	3.38
657.821	3.43
658.15	3.41
658.48	3.36
658.809	3.32
659.139	3.32
659.468	3.35
659.798	3.37
660.127	3.41
660.456	3.42
660.785	3.42
661.115	3.45
661.444	3.45
661.773	3.52
662.102	3.52
662.431	3.56
662.76	3.53
663.089	3.54
663.418	3.48
663.747	3.43
664.076	3.41
664.404	3.42
664.733	3.41
665.062	3.42
665.39	3.37
665.719	3.38
666.048	3.46
666.376	3.52
666.705	3.47
667.033	3.44
667.362	3.51
667.69	3.47
668.018	3.49
668.347	3.53
668.675	3.59
669.003	3.67
669.331	3.67
669.659	3.69
669.987	3.62
670.315	3.73
670.643	3.74
670.971	3.79
671.299	3.72
671.627	3.75
671.955	3.75
672.283	3.84
672.61	3.82
672.938	3.8
673.266	3.85
673.593	3.96
673.921	3.95
674.249	3.87
674.576	3.89
674.904	3.86
