Data from BU56854_Reflection_00011.txt Node
Date: Mon Nov 18 16:27:04 EST 2019
User: vgr7
Spectrometer: USB2G7710
Scans to average: 3
Trigger mode: 4
Integration Time (sec): 2.000000E-2
Electric dark correction enabled: true
Boxcar width: 10
XAxis mode: Wavelengths
Number of Pixels in Spectrum: 2048
>>>>>Begin Spectral Data<<<<<
177.721	-12.55
178.105	-115.57
178.488	-1424.59
178.871	-113.07
179.254	-58.35
179.636	15.3
180.019	-49.84
180.402	72.73
180.785	11.22
181.168	88.74
181.55	30.01
181.933	32.86
182.316	76.2
182.698	82.58
183.081	104.56
183.463	91.59
183.846	64.4
184.228	43.21
184.611	18.92
184.993	30.88
185.376	3.23
185.758	79.2
186.14	372.73
186.522	181.57
186.904	-71.1
187.287	-121.86
187.669	-0.16
188.051	-429.41
188.433	119.03
188.815	54.71
189.197	101.87
189.579	90.56
189.961	58.42
190.342	53.55
190.724	70.7
191.106	90.62
191.488	105.12
191.869	92.94
192.251	85.27
192.633	65.3
193.014	68.66
193.396	48.62
193.777	44.8
194.159	56.42
194.54	48.63
194.922	55.62
195.303	57.22
195.684	67.53
196.065	68.11
196.447	67.22
196.828	57.96
197.209	47.97
197.59	24.28
197.971	26.29
198.352	35.56
198.733	42.34
199.114	37.64
199.495	27.76
199.876	18.98
200.257	15.11
200.638	19.76
201.018	6.92
201.399	20.14
201.78	34.68
202.16	23.01
202.541	14.33
202.922	-3.62
203.302	-29.44
203.683	-37.8
204.063	-89.84
204.444	-46.94
204.824	-41.65
205.204	-23.36
205.585	-11.62
205.965	0.12
206.345	-7.57
206.725	-9.61
207.106	-20.55
207.486	-46.99
207.866	-61.72
208.246	-24.75
208.626	3.23
209.006	38.49
209.386	49.27
209.766	64.53
210.145	68.83
210.525	70.91
210.905	67.33
211.285	74.34
211.664	88.03
212.044	112.22
212.424	118.52
212.803	112.84
213.183	104.41
213.562	96.06
213.942	94.46
214.321	76.73
214.701	77.46
215.08	74.31
215.459	85.17
215.838	87.35
216.218	83.7
216.597	81.1
216.976	64.04
217.355	51.26
217.734	44.17
218.113	43.58
218.492	36.05
218.871	34.72
219.25	35.98
219.629	21.6
220.008	15.99
220.387	8.5
220.766	7.86
221.144	5.96
221.523	-0.02
221.902	1.53
222.28	6.82
222.659	9.92
223.037	11.65
223.416	0.75
223.794	-2.94
224.173	-3.55
224.551	-4.15
224.929	-7.83
225.308	-6.8
225.686	-0.83
226.064	-1.85
226.442	-0.01
226.821	7.02
227.199	2.77
227.577	5.88
227.955	9
228.333	7.05
228.711	9.57
229.089	10.63
229.467	10.72
229.845	8.88
230.222	11.04
230.6	10.03
230.978	10
231.356	12.61
231.733	14.92
232.111	14.8
232.488	15.21
232.866	16.34
233.243	17.98
233.621	16.35
233.998	18.9
234.376	16.6
234.753	13.92
235.13	13.97
235.508	14.25
235.885	11.55
236.262	11.23
236.639	9.95
237.016	10.16
237.393	10.97
237.77	11
238.147	9.84
238.524	8.7
238.901	9.12
239.278	8.17
239.655	7.93
240.032	8.22
240.409	7.54
240.785	7.19
241.162	6.75
241.539	6.96
241.915	6.25
242.292	6.47
242.668	6.31
243.045	6.42
243.421	6.19
243.798	6.35
244.174	6.16
244.551	6.02
244.927	5.49
245.303	5.49
245.679	5.47
246.056	5.18
246.432	5.19
246.808	4.98
247.184	4.81
247.56	4.83
247.936	4.9
248.312	4.94
248.688	4.94
249.064	4.66
249.44	4.48
249.815	4.58
250.191	4.87
250.567	4.92
250.943	4.41
251.318	4.41
251.694	4.43
252.069	4.36
252.445	4.38
252.82	4.61
253.196	4.48
253.571	4.48
253.947	5.06
254.322	5
254.697	4.81
255.073	4.36
255.448	4.03
255.823	3.78
256.198	3.79
256.573	3.79
256.948	3.96
257.323	3.78
257.698	3.75
258.073	3.48
258.448	3.58
258.823	3.94
259.198	3.77
259.573	3.68
259.948	3.7
260.322	3.7
260.697	3.71
261.072	3.54
261.446	3.47
261.821	3.3
262.195	3.36
262.57	3.4
262.944	3.6
263.319	3.52
263.693	3.51
264.067	3.55
264.442	3.41
264.816	3.54
265.19	3.52
265.564	3.44
265.938	3.42
266.313	3.19
266.687	3.1
267.061	3.15
267.435	3.2
267.809	3.3
268.183	3.18
268.556	3.19
268.93	3.41
269.304	3.45
269.678	3.38
270.051	3.51
270.425	3.59
270.799	3.58
271.172	3.56
271.546	3.42
271.919	3.3
272.293	3.35
272.666	3.29
273.04	3.4
273.413	3.46
273.787	3.53
274.16	3.45
274.533	3.46
274.906	3.45
275.279	3.46
275.653	3.51
276.026	3.49
276.399	3.49
276.772	3.38
277.145	3.39
277.518	3.5
277.891	3.35
278.263	3.39
278.636	3.3
279.009	3.3
279.382	3.56
279.755	3.62
280.127	3.67
280.5	3.7
280.872	3.79
281.245	3.66
281.617	3.78
281.99	4
282.362	4.01
282.735	3.93
283.107	3.87
283.479	3.89
283.852	3.9
284.224	3.89
284.596	3.98
284.968	4.08
285.34	4.04
285.713	4.04
286.085	3.97
286.457	4.19
286.829	4.32
287.201	4.3
287.572	4.3
287.944	4.3
288.316	4.28
288.688	4.21
289.06	4.2
289.431	4.22
289.803	4.26
290.175	4.29
290.546	4.45
290.918	4.48
291.289	4.38
291.661	4.52
292.032	4.48
292.403	4.42
292.775	4.38
293.146	4.34
293.517	4.28
293.889	4.38
294.26	4.3
294.631	4.24
295.002	4.15
295.373	4.24
295.744	4.28
296.115	4.31
296.486	4.35
296.857	4.5
297.228	4.44
297.599	4.42
297.97	4.44
298.34	4.51
298.711	4.47
299.082	4.48
299.452	4.41
299.823	4.45
300.194	4.57
300.564	4.59
300.935	4.54
301.305	4.65
301.676	4.59
302.046	4.63
302.416	4.71
302.787	4.87
303.157	4.76
303.527	4.71
303.897	4.75
304.267	4.87
304.637	4.79
305.008	4.82
305.378	4.85
305.748	4.8
306.117	4.76
306.487	4.78
306.857	4.87
307.227	5
307.597	5.03
307.967	4.93
308.336	4.99
308.706	5.2
309.076	5.29
309.445	5.38
309.815	5.31
310.184	5.37
310.554	5.24
310.923	5.25
311.293	5.35
311.662	5.34
312.031	5.34
312.401	5.33
312.77	5.45
313.139	5.56
313.508	5.56
313.877	5.52
314.246	5.66
314.616	5.57
314.985	5.61
315.353	5.54
315.722	5.58
316.091	5.62
316.46	5.62
316.829	5.68
317.198	5.54
317.567	5.81
317.935	5.82
318.304	6.1
318.672	6.18
319.041	6.39
319.41	6.52
319.778	6.5
320.147	6.7
320.515	6.76
320.883	6.63
321.252	6.73
321.62	6.72
321.988	6.79
322.357	7.05
322.725	7.02
323.093	7.25
323.461	7.36
323.829	7.38
324.197	7.47
324.565	7.48
324.933	7.65
325.301	7.51
325.669	7.42
326.037	7.37
326.405	7.37
326.772	7.39
327.14	7.51
327.508	7.59
327.875	7.52
328.243	7.6
328.61	7.73
328.978	7.8
329.346	7.92
329.713	7.94
330.08	7.92
330.448	7.91
330.815	7.9
331.182	7.96
331.55	8.02
331.917	7.95
332.284	7.99
332.651	7.98
333.018	8.11
333.385	8.25
333.752	8.3
334.119	8.4
334.486	8.29
334.853	8.06
335.22	8.06
335.587	8.13
335.954	7.98
336.32	7.94
336.687	8.09
337.054	8.09
337.42	8.25
337.787	8.3
338.153	8.3
338.52	8.37
338.886	8.38
339.253	8.29
339.619	8.34
339.986	8.29
340.352	8.3
340.718	8.27
341.084	8.28
341.451	8.39
341.817	8.47
342.183	8.51
342.549	8.57
342.915	8.64
343.281	8.68
343.647	8.7
344.013	8.76
344.379	8.76
344.745	8.82
345.11	8.69
345.476	8.79
345.842	8.87
346.208	8.91
346.573	8.93
346.939	8.98
347.304	8.99
347.67	8.92
348.035	8.96
348.401	9.03
348.766	9.06
349.132	9.01
349.497	8.87
349.862	8.9
350.228	8.95
350.593	8.9
350.958	8.83
351.323	8.91
351.688	8.94
352.053	8.87
352.418	8.87
352.783	8.95
353.148	8.85
353.513	8.92
353.878	8.92
354.243	8.94
354.608	8.91
354.972	8.9
355.337	9.03
355.702	9.07
356.066	9.03
356.431	9.01
356.795	9.08
357.16	9.21
357.524	9.18
357.889	9.14
358.253	9.19
358.618	9.29
358.982	9.23
359.346	9.1
359.71	9
360.075	8.98
360.439	8.92
360.803	9.02
361.167	8.93
361.531	8.88
361.895	8.78
362.259	8.75
362.623	8.78
362.987	8.67
363.351	8.61
363.714	8.57
364.078	8.53
364.442	8.43
364.806	8.31
365.169	8.27
365.533	8.27
365.896	8.23
366.26	8.1
366.623	8.09
366.987	8.16
367.35	8.2
367.714	8.11
368.077	8.06
368.44	7.9
368.803	7.94
369.167	7.89
369.53	7.91
369.893	7.92
370.256	7.89
370.619	7.89
370.982	7.9
371.345	7.81
371.708	7.82
372.071	7.72
372.434	7.68
372.797	7.65
373.159	7.55
373.522	7.48
373.885	7.42
374.247	7.39
374.61	7.23
374.973	7.15
375.335	7.18
375.698	7.12
376.06	7.06
376.423	6.9
376.785	6.84
377.147	6.82
377.51	6.74
377.872	6.66
378.234	6.65
378.596	6.57
378.958	6.49
379.321	6.4
379.683	6.44
380.045	6.43
380.407	6.39
380.769	6.37
381.13	6.3
381.492	6.27
381.854	6.21
382.216	6.21
382.578	6.19
382.939	6.1
383.301	6.05
383.663	6
384.024	6.06
384.386	6.02
384.747	5.97
385.109	5.92
385.47	5.91
385.832	5.87
386.193	5.87
386.554	5.85
386.916	5.81
387.277	5.69
387.638	5.61
387.999	5.57
388.36	5.55
388.721	5.52
389.082	5.49
389.443	5.38
389.804	5.33
390.165	5.31
390.526	5.27
390.887	5.23
391.248	5.22
391.609	5.15
391.969	5.11
392.33	5.07
392.691	5.05
393.051	4.96
393.412	4.93
393.772	4.89
394.133	4.9
394.493	4.84
394.854	4.82
395.214	4.79
395.574	4.77
395.935	4.72
396.295	4.71
396.655	4.69
397.015	4.67
397.376	4.65
397.736	4.6
398.096	4.59
398.456	4.58
398.816	4.52
399.176	4.51
399.535	4.44
399.895	4.41
400.255	4.39
400.615	4.37
400.975	4.32
401.334	4.28
401.694	4.24
402.054	4.24
402.413	4.24
402.773	4.22
403.132	4.18
403.492	4.16
403.851	4.14
404.211	4.1
404.57	4.07
404.929	4.06
405.288	4.05
405.648	4.01
406.007	3.99
406.366	3.97
406.725	3.97
407.084	3.99
407.443	3.97
407.802	3.97
408.161	3.96
408.52	3.94
408.879	3.93
409.238	3.92
409.596	3.91
409.955	3.89
410.314	3.87
410.673	3.84
411.031	3.82
411.39	3.81
411.748	3.82
412.107	3.84
412.465	3.82
412.824	3.81
413.182	3.82
413.54	3.82
413.899	3.81
414.257	3.78
414.615	3.77
414.974	3.76
415.332	3.72
415.69	3.68
416.048	3.66
416.406	3.61
416.764	3.57
417.122	3.56
417.48	3.54
417.838	3.53
418.195	3.51
418.553	3.47
418.911	3.46
419.269	3.43
419.626	3.41
419.984	3.41
420.342	3.39
420.699	3.37
421.057	3.34
421.414	3.34
421.772	3.3
422.129	3.27
422.486	3.25
422.844	3.25
423.201	3.25
423.558	3.25
423.915	3.26
424.273	3.26
424.63	3.24
424.987	3.24
425.344	3.23
425.701	3.23
426.058	3.25
426.415	3.25
426.772	3.25
427.128	3.24
427.485	3.23
427.842	3.23
428.199	3.22
428.555	3.23
428.912	3.23
429.269	3.27
429.625	3.26
429.982	3.27
430.338	3.28
430.695	3.28
431.051	3.25
431.407	3.23
431.764	3.21
432.12	3.2
432.476	3.19
432.832	3.19
433.189	3.19
433.545	3.18
433.901	3.16
434.257	3.13
434.613	3.14
434.969	3.13
435.325	3.13
435.681	3.13
436.036	3.1
436.392	3.07
436.748	3.06
437.104	3.06
437.459	3.05
437.815	3.04
438.171	3.02
438.526	3.04
438.882	3.05
439.237	3.07
439.593	3.08
439.948	3.08
440.304	3.08
440.659	3.07
441.014	3.08
441.369	3.07
441.725	3.05
442.08	3.04
442.435	3.03
442.79	3.04
443.145	3.04
443.5	3.05
443.855	3.06
444.21	3.04
444.565	3.04
444.92	3.05
445.275	3.04
445.629	3.04
445.984	3.04
446.339	3.02
446.693	2.98
447.048	2.98
447.403	2.96
447.757	2.95
448.112	2.93
448.466	2.91
448.82	2.92
449.175	2.95
449.529	2.95
449.883	2.95
450.238	2.92
450.592	2.92
450.946	2.9
451.3	2.89
451.654	2.88
452.008	2.88
452.362	2.86
452.716	2.86
453.07	2.88
453.424	2.86
453.778	2.85
454.132	2.86
454.486	2.84
454.839	2.85
455.193	2.84
455.547	2.84
455.9	2.83
456.254	2.82
456.607	2.82
456.961	2.81
457.314	2.8
457.668	2.81
458.021	2.8
458.375	2.8
458.728	2.8
459.081	2.81
459.434	2.79
459.787	2.79
460.141	2.79
460.494	2.77
460.847	2.78
461.2	2.79
461.553	2.81
461.906	2.82
462.259	2.84
462.611	2.85
462.964	2.87
463.317	2.89
463.67	2.9
464.022	2.89
464.375	2.9
464.728	2.9
465.08	2.92
465.433	2.93
465.785	2.93
466.138	2.96
466.49	2.96
466.843	2.97
467.195	2.98
467.547	2.98
467.899	3
468.252	2.99
468.604	3.01
468.956	2.99
469.308	3
469.66	3
470.012	3.01
470.364	3.03
470.716	3.03
471.068	3.04
471.42	3.06
471.772	3.07
472.123	3.1
472.475	3.09
472.827	3.11
473.178	3.13
473.53	3.12
473.882	3.11
474.233	3.11
474.585	3.11
474.936	3.11
475.288	3.12
475.639	3.14
475.99	3.1
476.342	3.12
476.693	3.13
477.044	3.15
477.395	3.16
477.746	3.15
478.097	3.14
478.448	3.14
478.8	3.11
479.15	3.09
479.501	3.08
479.852	3.08
480.203	3.07
480.554	3.07
480.905	3.07
481.255	3.07
481.606	3.08
481.957	3.08
482.307	3.08
482.658	3.07
483.009	3.06
483.359	3.07
483.709	3.07
484.06	3.06
484.41	3.05
484.761	3.05
485.111	3.04
485.461	3.04
485.811	3.03
486.162	3.04
486.512	3.05
486.862	3.04
487.212	3.04
487.562	3.04
487.912	3.04
488.262	3.04
488.612	3.05
488.961	3.06
489.311	3.07
489.661	3.06
490.011	3.07
490.36	3.07
490.71	3.08
491.06	3.08
491.409	3.09
491.759	3.09
492.108	3.08
492.458	3.1
492.807	3.11
493.157	3.13
493.506	3.14
493.855	3.16
494.204	3.18
494.554	3.2
494.903	3.2
495.252	3.21
495.601	3.23
495.95	3.24
496.299	3.24
496.648	3.25
496.997	3.28
497.346	3.31
497.695	3.35
498.043	3.36
498.392	3.4
498.741	3.43
499.09	3.44
499.438	3.49
499.787	3.52
500.135	3.57
500.484	3.6
500.832	3.62
501.181	3.66
501.529	3.69
501.878	3.75
502.226	3.81
502.574	3.87
502.923	3.9
503.271	3.95
503.619	3.99
503.967	4.06
504.315	4.1
504.663	4.15
505.011	4.21
505.359	4.27
505.707	4.33
506.055	4.39
506.403	4.47
506.751	4.53
507.098	4.61
507.446	4.69
507.794	4.75
508.141	4.84
508.489	4.92
508.837	5.01
509.184	5.1
509.531	5.17
509.879	5.26
510.226	5.37
510.574	5.44
510.921	5.54
511.268	5.62
511.616	5.72
511.963	5.81
512.31	5.91
512.657	6.03
513.004	6.12
513.351	6.23
513.698	6.34
514.045	6.46
514.392	6.56
514.739	6.68
515.086	6.8
515.432	6.93
515.779	7.05
516.126	7.18
516.473	7.29
516.819	7.41
517.166	7.52
517.512	7.63
517.859	7.75
518.205	7.85
518.552	7.97
518.898	8.08
519.245	8.22
519.591	8.33
519.937	8.45
520.283	8.59
520.629	8.73
520.976	8.87
521.322	9
521.668	9.15
522.014	9.3
522.36	9.46
522.706	9.6
523.052	9.77
523.398	9.95
523.743	10.13
524.089	10.32
524.435	10.49
524.781	10.67
525.126	10.85
525.472	11.01
525.817	11.15
526.163	11.27
526.509	11.39
526.854	11.49
527.199	11.6
527.545	11.7
527.89	11.79
528.235	11.9
528.581	12.03
528.926	12.13
529.271	12.24
529.616	12.36
529.961	12.49
530.306	12.6
530.651	12.72
530.996	12.85
531.341	12.99
531.686	13.14
532.031	13.27
532.376	13.41
532.721	13.56
533.065	13.71
533.41	13.86
533.755	14.03
534.099	14.22
534.444	14.4
534.788	14.59
535.133	14.76
535.477	14.95
535.822	15.11
536.166	15.32
536.51	15.53
536.855	15.77
537.199	15.97
537.543	16.21
537.887	16.46
538.231	16.69
538.576	16.94
538.92	17.17
539.264	17.4
539.608	17.61
539.951	17.8
540.295	18.01
540.639	18.23
540.983	18.4
541.327	18.57
541.671	18.73
542.014	18.91
542.358	19.09
542.701	19.27
543.045	19.46
543.389	19.64
543.732	19.86
544.075	20.04
544.419	20.26
544.762	20.47
545.105	20.68
545.449	20.9
545.792	21.11
546.135	21.38
546.478	21.63
546.821	21.91
547.165	22.21
547.508	22.51
547.851	22.76
548.194	23.04
548.536	23.38
548.879	23.68
549.222	23.95
549.565	24.28
549.908	24.6
550.25	24.91
550.593	25.24
550.936	25.5
551.278	25.79
551.621	26.1
551.963	26.4
552.306	26.7
552.648	26.97
552.991	27.26
553.333	27.53
553.675	27.85
554.017	28.15
554.36	28.37
554.702	28.66
555.044	28.96
555.386	29.22
555.728	29.44
556.07	29.74
556.412	30.07
556.754	30.34
557.096	30.56
557.438	30.84
557.78	31.1
558.121	31.35
558.463	31.62
558.805	31.86
559.147	32.14
559.488	32.4
559.83	32.73
560.171	32.99
560.513	33.27
560.854	33.52
561.196	33.72
561.537	34.02
561.878	34.17
562.22	34.35
562.561	34.65
562.902	34.88
563.243	35.08
563.584	35.28
563.925	35.5
564.266	35.69
564.607	35.88
564.948	36.11
565.289	36.33
565.63	36.59
565.971	36.84
566.312	37.05
566.653	37.26
566.993	37.41
567.334	37.52
567.675	37.69
568.015	37.85
568.356	38.05
568.696	38.21
569.037	38.43
569.377	38.64
569.718	38.76
570.058	38.97
570.398	39.16
570.739	39.34
571.079	39.54
571.419	39.78
571.759	39.93
572.099	40.12
572.439	40.31
572.779	40.44
573.119	40.6
573.459	40.76
573.799	40.96
574.139	41.15
574.479	41.37
574.819	41.51
575.158	41.63
575.498	41.79
575.838	41.95
576.177	42.08
576.517	42.22
576.856	42.4
577.196	42.6
577.535	42.72
577.875	42.94
578.214	43.05
578.553	43.18
578.893	43.35
579.232	43.51
579.571	43.7
579.91	43.86
580.25	43.94
580.589	44.1
580.928	44.21
581.267	44.35
581.606	44.5
581.945	44.66
582.283	44.79
582.622	44.89
582.961	45.04
583.3	45.26
583.639	45.41
583.977	45.55
584.316	45.6
584.654	45.82
584.993	45.88
585.332	45.98
585.67	46.2
586.008	46.3
586.347	46.39
586.685	46.43
587.024	46.57
587.362	46.76
587.7	46.77
588.038	46.88
588.376	46.93
588.715	47.02
589.053	47.11
589.391	47.32
589.729	47.47
590.067	47.52
590.404	47.59
590.742	47.77
591.08	47.85
591.418	47.96
591.756	47.95
592.093	48.05
592.431	48.15
592.769	48.12
593.106	48.23
593.444	48.22
593.781	48.27
594.119	48.34
594.456	48.42
594.793	48.51
595.131	48.55
595.468	48.64
595.805	48.69
596.143	48.79
596.48	48.81
596.817	48.86
597.154	48.96
597.491	49.04
597.828	49.06
598.165	49.12
598.502	49.17
598.839	49.28
599.176	49.37
599.512	49.42
599.849	49.52
600.186	49.58
600.523	49.7
600.859	49.74
601.196	49.71
601.532	49.71
601.869	49.77
602.205	49.86
602.542	49.91
602.878	49.93
603.215	49.99
603.551	49.98
603.887	49.98
604.223	50.01
604.56	50.04
604.896	50.13
605.232	50.16
605.568	50.18
605.904	50.14
606.24	50.22
606.576	50.29
606.912	50.32
607.248	50.37
607.583	50.42
607.919	50.5
608.255	50.61
608.591	50.67
608.926	50.73
609.262	50.72
609.597	50.74
609.933	50.86
610.268	50.89
610.604	50.93
610.939	51
611.275	51.03
611.61	51.07
611.945	51.03
612.281	51.11
612.616	51.21
612.951	51.39
613.286	51.37
613.621	51.33
613.956	51.39
614.291	51.44
614.626	51.51
614.961	51.55
615.296	51.57
615.631	51.62
615.966	51.61
616.3	51.66
616.635	51.71
616.97	51.66
617.304	51.65
617.639	51.71
617.973	51.74
618.308	51.69
618.642	51.64
618.977	51.76
619.311	51.86
619.646	51.88
619.98	51.92
620.314	52.05
620.648	52.15
620.983	52.2
621.317	52.28
621.651	52.29
621.985	52.4
622.319	52.43
622.653	52.49
622.987	52.64
623.321	52.67
623.655	52.68
623.988	52.77
624.322	52.83
624.656	52.85
624.99	52.87
625.323	53.03
625.657	53.11
625.99	53.02
626.324	52.95
626.657	53.03
626.991	52.97
627.324	52.85
627.658	52.9
627.991	52.91
628.324	52.82
628.657	52.9
628.991	52.84
629.324	52.89
629.657	52.79
629.99	52.78
630.323	52.81
630.656	52.91
630.989	53
631.322	53.02
631.655	53.05
631.987	53.06
632.32	53.04
632.653	53.06
632.986	53.16
633.318	53.28
633.651	53.19
633.984	53.25
634.316	53.38
634.649	53.45
634.981	53.4
635.313	53.49
635.646	53.46
635.978	53.59
636.31	53.62
636.643	53.76
636.975	53.8
637.307	53.85
637.639	53.78
637.971	53.65
638.303	53.64
638.635	53.6
638.967	53.7
639.299	53.7
639.631	53.74
639.963	53.68
640.295	53.64
640.626	53.71
640.958	53.74
641.29	53.77
641.621	53.7
641.953	53.79
642.285	53.91
642.616	53.85
642.948	53.84
643.279	53.79
643.61	53.78
643.942	53.85
644.273	53.85
644.604	53.94
644.936	54.09
645.267	54.11
645.598	54.23
645.929	54.26
646.26	54.32
646.591	54.36
646.922	54.36
647.253	54.37
647.584	54.3
647.915	54.25
648.245	54.22
648.576	54.34
648.907	54.26
649.238	54.12
649.568	54.17
649.899	54.07
650.229	54.17
650.56	54.22
650.89	54.16
651.221	54.13
651.551	54.12
651.882	54.06
652.212	54.12
652.542	54.14
652.872	54.06
653.203	54.05
653.533	53.97
653.863	54.06
654.193	53.99
654.523	54.05
654.853	54.09
655.183	54.09
655.513	54.01
655.843	54.12
656.172	54.22
656.502	54.31
656.832	54.37
657.162	54.45
657.491	54.46
657.821	54.49
658.15	54.52
658.48	54.53
658.809	54.6
659.139	54.61
659.468	54.65
659.798	54.65
660.127	54.64
660.456	54.76
660.785	54.76
661.115	54.77
661.444	54.84
661.773	54.87
662.102	54.85
662.431	54.89
662.76	54.9
663.089	54.92
663.418	54.87
663.747	54.8
664.076	54.72
664.404	54.78
664.733	54.85
665.062	54.84
665.39	54.86
665.719	54.88
666.048	54.95
666.376	54.9
666.705	55.01
667.033	55.07
667.362	55.11
667.69	55.09
668.018	55.21
668.347	55.26
668.675	55.24
669.003	55.31
669.331	55.33
669.659	55.29
