Data from BU56854_Reflection_00012.txt Node
Date: Mon Nov 18 16:27:06 EST 2019
User: vgr7
Spectrometer: USB2G7710
Scans to average: 3
Trigger mode: 4
Integration Time (sec): 2.000000E-2
Electric dark correction enabled: true
Boxcar width: 10
XAxis mode: Wavelengths
Number of Pixels in Spectrum: 2048
>>>>>Begin Spectral Data<<<<<
177.721	169.86
178.105	82.04
178.488	1280.33
178.871	48.86
179.254	5.85
179.636	59.88
180.019	80.87
180.402	30.3
180.785	87.61
181.168	24.02
181.55	13.11
181.933	31.79
182.316	34.86
182.698	43.72
183.081	33.16
183.463	12.51
183.846	8.88
184.228	-13.57
184.611	-23.83
184.993	13.1
185.376	-3.53
185.758	75.03
186.14	194.04
186.522	263.14
186.904	-196.58
187.287	-208.68
187.669	-62.16
188.051	-1664.71
188.433	-1.48
188.815	56.87
189.197	29.06
189.579	21.8
189.961	-18.44
190.342	-33.96
190.724	-37.42
191.106	-64.64
191.488	-61.94
191.869	-45.81
192.251	-55.08
192.633	-45.61
193.014	-54.63
193.396	-63.05
193.777	-43.65
194.159	-50.17
194.54	-47.31
194.922	-60.3
195.303	-43.4
195.684	-36.98
196.065	-29.58
196.447	-41.86
196.828	-53.11
197.209	-50.58
197.59	-54.96
197.971	-55.94
198.352	-47.6
198.733	-46.87
199.114	-34.6
199.495	-34.4
199.876	-32.99
200.257	-21.42
200.638	-23.13
201.018	-16.76
201.399	-9.05
201.78	-14.18
202.16	-22.45
202.541	-35.44
202.922	-45.23
203.302	-90.54
203.683	-83.74
204.063	-102.35
204.444	-91.66
204.824	-91.47
205.204	-82.94
205.585	-99.02
205.965	-87.01
206.345	-96.75
206.725	-94.86
207.106	-118.87
207.486	-149.56
207.866	-155.75
208.246	-149.5
208.626	-158.97
209.006	-129.79
209.386	-228.86
209.766	-224.83
210.145	-182.04
210.525	-74.54
210.905	-57.5
211.285	-45.66
211.664	-56.37
212.044	-60.96
212.424	-43.74
212.803	-60.85
213.183	-50.09
213.562	-26.01
213.942	-9.49
214.321	-14.66
214.701	-2.34
215.08	-3.9
215.459	-0.22
215.838	2.82
216.218	-0.02
216.597	6.05
216.976	8.9
217.355	14.81
217.734	16.04
218.113	22.48
218.492	12.62
218.871	7.21
219.25	9.01
219.629	9.82
220.008	5.13
220.387	-2.42
220.766	2.89
221.144	2.84
221.523	-5.9
221.902	-8
222.28	-18.93
222.659	-25.68
223.037	-24.47
223.416	-24.17
223.794	-36.97
224.173	-31.79
224.551	-24.85
224.929	-27.02
225.308	-24.12
225.686	-27.42
226.064	-28.92
226.442	-24.45
226.821	-15.29
227.199	-14.44
227.577	-11.46
227.955	-7.96
228.333	-5.64
228.711	-0.94
229.089	1.94
229.467	3.68
229.845	1.72
230.222	4.4
230.6	3.89
230.978	3.24
231.356	5.31
231.733	4.8
232.111	4.04
232.488	4.33
232.866	5.59
233.243	4.66
233.621	3.96
233.998	6.02
234.376	3.37
234.753	1.35
235.13	2.16
235.508	1.89
235.885	0.86
236.262	-0.29
236.639	-0.9
237.016	-2.98
237.393	-1.75
237.77	0.86
238.147	1.19
238.524	1.77
238.901	3.25
239.278	2.23
239.655	3.36
240.032	3
240.409	1.84
240.785	0.84
241.162	1.19
241.539	2.45
241.915	2.44
242.292	2.49
242.668	3.06
243.045	3.12
243.421	2.95
243.798	3.22
244.174	3.3
244.551	3.16
244.927	3.22
245.303	3.42
245.679	2.99
246.056	2.92
246.432	3.1
246.808	3.1
247.184	3.19
247.56	3.24
247.936	3.44
248.312	3.76
248.688	3.98
249.064	3.64
249.44	3.32
249.815	3.35
250.191	3.7
250.567	3.69
250.943	3.42
251.318	3.56
251.694	3.41
252.069	3.07
252.445	3.24
252.82	3.24
253.196	2.79
253.571	2.98
253.947	3.06
254.322	2.97
254.697	3.02
255.073	2.91
255.448	2.63
255.823	2.79
256.198	2.61
256.573	2.67
256.948	2.87
257.323	3.1
257.698	3.02
258.073	2.93
258.448	2.85
258.823	2.98
259.198	2.87
259.573	2.98
259.948	3.3
260.322	3.47
260.697	3.59
261.072	3.52
261.446	3.46
261.821	3.36
262.195	3.38
262.57	3.24
262.944	3.28
263.319	3.27
263.693	3.18
264.067	3.23
264.442	3.27
264.816	3.4
265.19	3.28
265.564	3.28
265.938	3.33
266.313	3.2
266.687	3.3
267.061	3.43
267.435	3.34
267.809	3.13
268.183	2.95
268.556	2.88
268.93	3.09
269.304	3.09
269.678	3.13
270.051	3.07
270.425	3.07
270.799	3.11
271.172	3.14
271.546	3.02
271.919	2.93
272.293	2.9
272.666	2.85
273.04	2.91
273.413	2.93
273.787	2.86
274.16	2.87
274.533	2.82
274.906	2.81
275.279	2.95
275.653	3.04
276.026	2.91
276.399	2.93
276.772	2.96
277.145	2.97
277.518	3.13
277.891	3.03
278.263	2.86
278.636	2.68
279.009	2.72
279.382	2.92
279.755	3
280.127	3.13
280.5	3.24
280.872	3.26
281.245	3.23
281.617	3.34
281.99	3.54
282.362	3.59
282.735	3.45
283.107	3.33
283.479	3.35
283.852	3.38
284.224	3.3
284.596	3.18
284.968	3.19
285.34	3.21
285.713	3.3
286.085	3.44
286.457	3.54
286.829	3.49
287.201	3.45
287.572	3.35
287.944	3.25
288.316	3.24
288.688	3.09
289.06	3.04
289.431	3.09
289.803	3.08
290.175	3.02
290.546	3.28
290.918	3.31
291.289	3.32
291.661	3.47
292.032	3.47
292.403	3.5
292.775	3.56
293.146	3.43
293.517	3.43
293.889	3.48
294.26	3.53
294.631	3.72
295.002	3.74
295.373	3.81
295.744	3.76
296.115	3.75
296.486	3.77
296.857	3.84
297.228	3.85
297.599	3.81
297.97	3.85
298.34	3.88
298.711	4
299.082	4.08
299.452	4.04
299.823	4.21
300.194	4.36
300.564	4.4
300.935	4.45
301.305	4.5
301.676	4.59
302.046	4.65
302.416	4.66
302.787	4.59
303.157	4.72
303.527	4.78
303.897	4.75
304.267	4.97
304.637	5.08
305.008	5.04
305.378	5.2
305.748	5.29
306.117	5.18
306.487	5.08
306.857	4.91
307.227	4.94
307.597	4.88
307.967	4.87
308.336	4.87
308.706	4.92
309.076	4.96
309.445	4.89
309.815	4.79
310.184	4.7
310.554	4.82
310.923	4.87
311.293	4.92
311.662	4.85
312.031	4.88
312.401	4.75
312.77	4.86
313.139	4.88
313.508	4.93
313.877	5.02
314.246	5.14
314.616	5.41
314.985	5.43
315.353	5.49
315.722	5.68
316.091	5.74
316.46	5.83
316.829	5.91
317.198	6.03
317.567	6.21
317.935	6.27
318.304	6.5
318.672	6.56
319.041	6.72
319.41	7.06
319.778	7.02
320.147	7.17
320.515	7.11
320.883	6.83
321.252	6.9
321.62	6.85
321.988	6.84
322.357	6.72
322.725	6.86
323.093	7.01
323.461	6.85
323.829	6.92
324.197	7
324.565	6.94
324.933	7.02
325.301	7.08
325.669	7.23
326.037	7.12
326.405	7.07
326.772	7.11
327.14	7.03
327.508	7.09
327.875	7.13
328.243	7.26
328.61	7.45
328.978	7.5
329.346	7.61
329.713	7.54
330.08	7.69
330.448	7.62
330.815	7.48
331.182	7.45
331.55	7.51
331.917	7.53
332.284	7.56
332.651	7.57
333.018	7.57
333.385	7.63
333.752	7.62
334.119	7.81
334.486	7.86
334.853	7.94
335.22	7.97
335.587	8.02
335.954	8.03
336.32	8.06
336.687	8.06
337.054	8.01
337.42	8.17
337.787	8.2
338.153	8.19
338.52	8.26
338.886	8.29
339.253	8.25
339.619	8.3
339.986	8.41
340.352	8.5
340.718	8.48
341.084	8.5
341.451	8.64
341.817	8.57
342.183	8.51
342.549	8.51
342.915	8.58
343.281	8.6
343.647	8.57
344.013	8.7
344.379	8.72
344.745	8.79
345.11	8.83
345.476	8.68
345.842	8.82
346.208	8.86
346.573	8.9
346.939	9.05
347.304	9.03
347.67	8.99
348.035	8.89
348.401	8.99
348.766	8.92
349.132	8.86
349.497	8.84
349.862	8.9
350.228	8.9
350.593	8.8
350.958	8.82
351.323	8.87
351.688	8.74
352.053	8.83
352.418	8.84
352.783	8.84
353.148	8.92
353.513	8.82
353.878	8.74
354.243	8.88
354.608	8.78
354.972	8.8
355.337	8.8
355.702	8.93
356.066	8.94
356.431	8.96
356.795	9.05
357.16	9.06
357.524	9.05
357.889	9.03
358.253	9
358.618	9.02
358.982	8.97
359.346	8.97
359.71	8.81
360.075	8.75
360.439	8.75
360.803	8.8
361.167	8.8
361.531	8.82
361.895	8.69
362.259	8.71
362.623	8.66
362.987	8.66
363.351	8.59
363.714	8.52
364.078	8.43
364.442	8.36
364.806	8.37
365.169	8.33
365.533	8.31
365.896	8.34
366.26	8.25
366.623	8.27
366.987	8.26
367.35	8.29
367.714	8.26
368.077	8.13
368.44	7.99
368.803	7.91
369.167	7.86
369.53	7.8
369.893	7.75
370.256	7.71
370.619	7.66
370.982	7.56
371.345	7.5
371.708	7.49
372.071	7.4
372.434	7.27
372.797	7.24
373.159	7.26
373.522	7.17
373.885	7.17
374.247	7.08
374.61	7.01
374.973	6.93
375.335	6.89
375.698	6.88
376.06	6.81
376.423	6.74
376.785	6.7
377.147	6.69
377.51	6.58
377.872	6.5
378.234	6.42
378.596	6.39
378.958	6.29
379.321	6.28
379.683	6.25
380.045	6.22
380.407	6.15
380.769	6.04
381.13	6.01
381.492	5.97
381.854	5.9
382.216	5.86
382.578	5.78
382.939	5.69
383.301	5.63
383.663	5.59
384.024	5.54
384.386	5.53
384.747	5.5
385.109	5.55
385.47	5.53
385.832	5.51
386.193	5.49
386.554	5.49
386.916	5.43
387.277	5.37
387.638	5.32
387.999	5.27
388.36	5.17
388.721	5.13
389.082	5.08
389.443	5.05
389.804	5
390.165	5.03
390.526	5.01
390.887	4.95
391.248	4.9
391.609	4.91
391.969	4.85
392.33	4.81
392.691	4.72
393.051	4.68
393.412	4.65
393.772	4.57
394.133	4.55
394.493	4.5
394.854	4.47
395.214	4.43
395.574	4.42
395.935	4.44
396.295	4.42
396.655	4.37
397.015	4.32
397.376	4.29
397.736	4.24
398.096	4.2
398.456	4.16
398.816	4.16
399.176	4.1
399.535	4.04
399.895	3.98
400.255	3.98
400.615	3.98
400.975	3.91
401.334	3.92
401.694	3.9
402.054	3.86
402.413	3.83
402.773	3.8
403.132	3.74
403.492	3.69
403.851	3.62
404.211	3.62
404.57	3.59
404.929	3.56
405.288	3.53
405.648	3.49
406.007	3.52
406.366	3.5
406.725	3.51
407.084	3.51
407.443	3.5
407.802	3.5
408.161	3.44
408.52	3.43
408.879	3.4
409.238	3.4
409.596	3.4
409.955	3.4
410.314	3.4
410.673	3.4
411.031	3.42
411.39	3.45
411.748	3.43
412.107	3.43
412.465	3.44
412.824	3.41
413.182	3.43
413.54	3.4
413.899	3.39
414.257	3.39
414.615	3.36
414.974	3.37
415.332	3.32
415.69	3.31
416.048	3.31
416.406	3.3
416.764	3.27
417.122	3.26
417.48	3.24
417.838	3.23
418.195	3.22
418.553	3.2
418.911	3.18
419.269	3.17
419.626	3.15
419.984	3.13
420.342	3.12
420.699	3.11
421.057	3.08
421.414	3.08
421.772	3.06
422.129	3.05
422.486	3.04
422.844	3.04
423.201	3.03
423.558	3.01
423.915	3.01
424.273	3.01
424.63	2.99
424.987	2.98
425.344	2.96
425.701	2.96
426.058	2.96
426.415	2.96
426.772	2.94
427.128	2.93
427.485	2.93
427.842	2.91
428.199	2.9
428.555	2.91
428.912	2.92
429.269	2.93
429.625	2.93
429.982	2.92
430.338	2.91
430.695	2.92
431.051	2.92
431.407	2.91
431.764	2.89
432.12	2.9
432.476	2.9
432.832	2.91
433.189	2.9
433.545	2.86
433.901	2.86
434.257	2.86
434.613	2.89
434.969	2.88
435.325	2.89
435.681	2.89
436.036	2.88
436.392	2.88
436.748	2.87
437.104	2.85
437.459	2.83
437.815	2.83
438.171	2.81
438.526	2.83
438.882	2.84
439.237	2.84
439.593	2.85
439.948	2.83
440.304	2.83
440.659	2.82
441.014	2.85
441.369	2.84
441.725	2.84
442.08	2.83
442.435	2.83
442.79	2.85
443.145	2.85
443.5	2.84
443.855	2.83
444.21	2.81
444.565	2.81
444.92	2.81
445.275	2.81
445.629	2.82
445.984	2.79
446.339	2.77
446.693	2.75
447.048	2.73
447.403	2.73
447.757	2.72
448.112	2.71
448.466	2.69
448.82	2.69
449.175	2.7
449.529	2.68
449.883	2.66
450.238	2.63
450.592	2.62
450.946	2.6
451.3	2.6
451.654	2.6
452.008	2.6
452.362	2.58
452.716	2.58
453.07	2.58
453.424	2.56
453.778	2.55
454.132	2.57
454.486	2.58
454.839	2.58
455.193	2.57
455.547	2.57
455.9	2.58
456.254	2.58
456.607	2.59
456.961	2.59
457.314	2.59
457.668	2.6
458.021	2.6
458.375	2.61
458.728	2.61
459.081	2.63
459.434	2.62
459.787	2.65
460.141	2.64
460.494	2.65
460.847	2.69
461.2	2.69
461.553	2.69
461.906	2.69
462.259	2.71
462.611	2.71
462.964	2.72
463.317	2.72
463.67	2.71
464.022	2.71
464.375	2.71
464.728	2.73
465.08	2.73
465.433	2.73
465.785	2.73
466.138	2.74
466.49	2.74
466.843	2.75
467.195	2.74
467.547	2.77
467.899	2.79
468.252	2.77
468.604	2.78
468.956	2.79
469.308	2.8
469.66	2.78
470.012	2.79
470.364	2.79
470.716	2.79
471.068	2.81
471.42	2.81
471.772	2.83
472.123	2.84
472.475	2.86
472.827	2.87
473.178	2.89
473.53	2.87
473.882	2.87
474.233	2.88
474.585	2.87
474.936	2.87
475.288	2.85
475.639	2.89
475.99	2.88
476.342	2.9
476.693	2.88
477.044	2.91
477.395	2.9
477.746	2.89
478.097	2.89
478.448	2.88
478.8	2.87
479.15	2.85
479.501	2.84
479.852	2.83
480.203	2.82
480.554	2.81
480.905	2.82
481.255	2.82
481.606	2.82
481.957	2.83
482.307	2.83
482.658	2.82
483.009	2.81
483.359	2.81
483.709	2.81
484.06	2.81
484.41	2.81
484.761	2.82
485.111	2.82
485.461	2.82
485.811	2.82
486.162	2.82
486.512	2.84
486.862	2.84
487.212	2.84
487.562	2.84
487.912	2.84
488.262	2.84
488.612	2.83
488.961	2.83
489.311	2.83
489.661	2.83
490.011	2.84
490.36	2.85
490.71	2.86
491.06	2.86
491.409	2.84
491.759	2.84
492.108	2.85
492.458	2.85
492.807	2.85
493.157	2.86
493.506	2.86
493.855	2.85
494.204	2.86
494.554	2.87
494.903	2.89
495.252	2.9
495.601	2.92
495.95	2.94
496.299	2.97
496.648	2.99
496.997	3.01
497.346	3.03
497.695	3.05
498.043	3.06
498.392	3.08
498.741	3.13
499.09	3.17
499.438	3.2
499.787	3.25
500.135	3.29
500.484	3.33
500.832	3.37
501.181	3.42
501.529	3.46
501.878	3.51
502.226	3.55
502.574	3.61
502.923	3.65
503.271	3.67
503.619	3.72
503.967	3.78
504.315	3.82
504.663	3.88
505.011	3.95
505.359	4
505.707	4.07
506.055	4.13
506.403	4.18
506.751	4.25
507.098	4.31
507.446	4.4
507.794	4.46
508.141	4.53
508.489	4.62
508.837	4.69
509.184	4.79
509.531	4.86
509.879	4.95
510.226	5.05
510.574	5.15
510.921	5.23
511.268	5.3
511.616	5.4
511.963	5.49
512.31	5.58
512.657	5.68
513.004	5.8
513.351	5.91
513.698	6.02
514.045	6.12
514.392	6.26
514.739	6.36
515.086	6.49
515.432	6.61
515.779	6.69
516.126	6.82
516.473	6.93
516.819	7.04
517.166	7.13
517.512	7.25
517.859	7.35
518.205	7.45
518.552	7.57
518.898	7.67
519.245	7.78
519.591	7.9
519.937	8.01
520.283	8.12
520.629	8.23
520.976	8.38
521.322	8.55
521.668	8.7
522.014	8.88
522.36	9.03
522.706	9.22
523.052	9.43
523.398	9.63
523.743	9.83
524.089	10.05
524.435	10.24
524.781	10.41
525.126	10.58
525.472	10.74
525.817	10.9
526.163	11.04
526.509	11.18
526.854	11.3
527.199	11.45
527.545	11.57
527.89	11.69
528.235	11.81
528.581	11.92
528.926	12.02
529.271	12.13
529.616	12.25
529.961	12.36
530.306	12.47
530.651	12.6
530.996	12.73
531.341	12.86
531.686	13.02
532.031	13.17
532.376	13.33
532.721	13.51
533.065	13.67
533.41	13.84
533.755	14.02
534.099	14.18
534.444	14.33
534.788	14.49
535.133	14.67
535.477	14.84
535.822	15.04
536.166	15.25
536.51	15.47
536.855	15.7
537.199	15.94
537.543	16.2
537.887	16.45
538.231	16.7
538.576	16.96
538.92	17.18
539.264	17.4
539.608	17.61
539.951	17.81
540.295	18.01
540.639	18.2
540.983	18.4
541.327	18.59
541.671	18.78
542.014	19
542.358	19.18
542.701	19.39
543.045	19.56
543.389	19.76
543.732	19.98
544.075	20.18
544.419	20.42
544.762	20.65
545.105	20.85
545.449	21.1
545.792	21.33
546.135	21.6
546.478	21.88
546.821	22.19
547.165	22.49
547.508	22.79
547.851	23.11
548.194	23.41
548.536	23.74
548.879	24.09
549.222	24.38
549.565	24.69
549.908	25
550.25	25.34
550.593	25.61
550.936	25.9
551.278	26.22
551.621	26.5
551.963	26.77
552.306	27.08
552.648	27.39
552.991	27.68
553.333	27.98
553.675	28.25
554.017	28.56
554.36	28.85
554.702	29.13
555.044	29.4
555.386	29.69
555.728	29.99
556.07	30.29
556.412	30.61
556.754	30.9
557.096	31.14
557.438	31.4
557.78	31.74
558.121	32.05
558.463	32.34
558.805	32.61
559.147	32.89
559.488	33.19
559.83	33.48
560.171	33.79
560.513	34.06
560.854	34.32
561.196	34.57
561.537	34.79
561.878	35.01
562.22	35.19
562.561	35.39
562.902	35.59
563.243	35.79
563.584	35.99
563.925	36.24
564.266	36.5
564.607	36.79
564.948	37.04
565.289	37.26
565.63	37.45
565.971	37.7
566.312	37.9
566.653	38.14
566.993	38.32
567.334	38.48
567.675	38.69
568.015	38.94
568.356	39.12
568.696	39.34
569.037	39.52
569.377	39.76
569.718	39.99
570.058	40.28
570.398	40.47
570.739	40.72
571.079	40.97
571.419	41.2
571.759	41.35
572.099	41.53
572.439	41.7
572.779	41.91
573.119	42.08
573.459	42.26
573.799	42.4
574.139	42.55
574.479	42.71
574.819	42.88
575.158	42.99
575.498	43.13
575.838	43.34
576.177	43.58
576.517	43.77
576.856	43.94
577.196	44.06
577.535	44.28
577.875	44.41
578.214	44.54
578.553	44.71
578.893	44.84
579.232	44.99
579.571	45.18
579.91	45.35
580.25	45.46
580.589	45.61
580.928	45.82
581.267	45.99
581.606	46.19
581.945	46.33
582.283	46.41
582.622	46.56
582.961	46.72
583.3	46.83
583.639	47.04
583.977	47.16
584.316	47.32
584.654	47.37
584.993	47.52
585.332	47.6
585.67	47.63
586.008	47.72
586.347	47.82
586.685	47.91
587.024	48.01
587.362	48.18
587.7	48.28
588.038	48.34
588.376	48.41
588.715	48.59
589.053	48.68
589.391	48.94
589.729	49.01
590.067	49.11
590.404	49.23
590.742	49.34
591.08	49.44
591.418	49.5
591.756	49.62
592.093	49.68
592.431	49.76
592.769	49.89
593.106	50.04
593.444	50.1
593.781	50.2
594.119	50.2
594.456	50.26
594.793	50.32
595.131	50.32
595.468	50.44
595.805	50.45
596.143	50.56
596.48	50.6
596.817	50.7
597.154	50.74
597.491	50.8
597.828	50.84
598.165	50.92
598.502	50.99
598.839	51.05
599.176	51.19
599.512	51.26
599.849	51.47
600.186	51.52
600.523	51.59
600.859	51.65
601.196	51.79
601.532	51.82
601.869	51.95
602.205	52.13
602.542	52.17
602.878	52.3
603.215	52.31
603.551	52.31
603.887	52.4
604.223	52.48
604.56	52.54
604.896	52.52
605.232	52.61
605.568	52.63
605.904	52.62
606.24	52.69
606.576	52.77
606.912	52.73
607.248	52.79
607.583	52.91
607.919	53
608.255	53.03
608.591	53.13
608.926	53.1
609.262	53.09
609.597	53.12
609.933	53.14
610.268	53.2
610.604	53.26
610.939	53.22
611.275	53.28
611.61	53.3
611.945	53.32
612.281	53.36
612.616	53.47
612.951	53.57
613.286	53.52
613.621	53.53
613.956	53.56
614.291	53.63
614.626	53.64
614.961	53.57
615.296	53.58
615.631	53.59
615.966	53.71
616.3	53.76
616.635	53.92
616.97	53.94
617.304	53.99
617.639	53.98
617.973	54.03
618.308	54.03
618.642	54.08
618.977	54.17
619.311	54.21
619.646	54.23
619.98	54.27
620.314	54.28
620.648	54.29
620.983	54.4
621.317	54.38
621.651	54.36
621.985	54.43
622.319	54.57
622.653	54.63
622.987	54.66
623.321	54.74
623.655	54.68
623.988	54.68
624.322	54.67
624.656	54.68
624.99	54.76
625.323	54.8
625.657	54.85
625.99	54.82
626.324	54.84
626.657	54.88
626.991	54.98
627.324	55.03
627.658	55.06
627.991	55.11
628.324	55.1
628.657	55.2
628.991	55.23
629.324	55.2
629.657	55.19
629.99	55.3
630.323	55.27
630.656	55.34
630.989	55.44
631.322	55.52
631.655	55.57
631.987	55.63
632.32	55.67
632.653	55.64
632.986	55.76
633.318	55.81
633.651	55.84
633.984	55.8
634.316	55.91
634.649	56
634.981	55.88
635.313	55.95
635.646	55.92
635.978	56.05
636.31	56.03
636.643	56.15
636.975	56.16
637.307	56.23
637.639	56.26
637.971	56.2
638.303	56.22
638.635	56.24
638.967	56.17
639.299	56.16
639.631	56.2
639.963	56.08
640.295	56.09
640.626	56.1
640.958	56.09
641.29	56
641.621	55.95
641.953	55.95
642.285	55.99
642.616	56.09
642.948	56.15
643.279	56.2
643.61	56.13
643.942	56.15
644.273	56.26
644.604	56.16
644.936	56.24
645.267	56.13
645.598	56.12
645.929	56.21
646.26	56.27
646.591	56.27
646.922	56.33
647.253	56.38
647.584	56.25
647.915	56.39
648.245	56.53
648.576	56.49
648.907	56.63
649.238	56.5
649.568	56.48
649.899	56.33
650.229	56.4
650.56	56.36
650.89	56.33
651.221	56.24
651.551	56.3
651.882	56.23
652.212	56.38
652.542	56.5
652.872	56.47
653.203	56.4
653.533	56.35
653.863	56.44
654.193	56.39
654.523	56.51
654.853	56.39
655.183	56.3
655.513	56.45
655.843	56.41
656.172	56.49
656.502	56.5
656.832	56.42
657.162	56.37
657.491	56.5
657.821	56.49
658.15	56.54
658.48	56.51
658.809	56.53
659.139	56.56
659.468	56.6
659.798	56.58
660.127	56.58
660.456	56.69
660.785	56.72
661.115	56.64
661.444	56.65
661.773	56.69
662.102	56.73
662.431	56.74
662.76	56.78
663.089	56.86
663.418	56.86
663.747	57.05
664.076	57.15
664.404	57.19
664.733	57.31
665.062	57.31
665.39	57.44
665.719	57.47
666.048	57.49
666.376	57.37
666.705	57.42
667.033	57.48
667.362	57.43
667.69	57.35
668.018	57.51
668.347	57.49
668.675	57.45
669.003	57.45
