Data from BU56854_Reflection_00013.txt Node
Date: Mon Nov 18 16:27:09 EST 2019
User: vgr7
Spectrometer: USB2G7710
Scans to average: 3
Trigger mode: 4
Integration Time (sec): 2.000000E-2
Electric dark correction enabled: true
Boxcar width: 10
XAxis mode: Wavelengths
Number of Pixels in Spectrum: 2048
>>>>>Begin Spectral Data<<<<<
177.721	-46.18
178.105	-37.72
178.488	-211.48
178.871	-141.48
179.254	-95.44
179.636	-1.78
180.019	-122.1
180.402	63.64
180.785	-3.92
181.168	-33.21
181.55	2.65
181.933	33.57
182.316	29.44
182.698	-2.28
183.081	5.32
183.463	-1.51
183.846	42.57
184.228	34.56
184.611	61.18
184.993	59.84
185.376	67.74
185.758	190.15
186.14	416.61
186.522	296.37
186.904	-420.91
187.287	-379.1
187.669	-31.96
188.051	-3370.59
188.433	0.63
188.815	44.64
189.197	25.95
189.579	43.82
189.961	19.78
190.342	29.06
190.724	27.59
191.106	29.49
191.488	20.4
191.869	29.71
192.251	14.97
192.633	11.77
193.014	20.83
193.396	22.13
193.777	16.43
194.159	-1.68
194.54	-3.78
194.922	3.51
195.303	-4.64
195.684	2.18
196.065	9.06
196.447	-9.48
196.828	-25.29
197.209	-28.34
197.59	-27.76
197.971	-25.28
198.352	-30.9
198.733	-26.04
199.114	-18.34
199.495	-20.78
199.876	-29.45
200.257	-17.13
200.638	-5.8
201.018	-18.78
201.399	-19.88
201.78	-10.7
202.16	-1.64
202.541	-23.74
202.922	-33.53
203.302	-38.42
203.683	-54.81
204.063	-90.6
204.444	-32.95
204.824	-38.39
205.204	-35.66
205.585	-46.81
205.965	-30.11
206.345	-24.73
206.725	-23.14
207.106	-45.06
207.486	-54.04
207.866	-42.5
208.246	-42.51
208.626	-60.38
209.006	-50.48
209.386	-91.84
209.766	-123.4
210.145	-77.63
210.525	-32.94
210.905	-42.14
211.285	-44.05
211.664	-39.23
212.044	-42.04
212.424	-44.97
212.803	-44.4
213.183	-29.7
213.562	-14.57
213.942	-28.97
214.321	-26.96
214.701	-43.55
215.08	-37.96
215.459	-30.73
215.838	-33.46
216.218	-43.66
216.597	-33.86
216.976	-21.62
217.355	-12.9
217.734	-8.27
218.113	-8.87
218.492	3.22
218.871	1.6
219.25	9.94
219.629	-4.67
220.008	4.46
220.387	-5.31
220.766	-2.33
221.144	-12.17
221.523	-24.75
221.902	-14.2
222.28	-19.71
222.659	-14.98
223.037	-11.27
223.416	-9.67
223.794	-3.23
224.173	-1.54
224.551	-5.68
224.929	-12.95
225.308	-7.68
225.686	-2.78
226.064	-4.83
226.442	-11.53
226.821	-3.73
227.199	-8.56
227.577	-8.67
227.955	-11.18
228.333	-8.36
228.711	-5.1
229.089	-0.37
229.467	-0.88
229.845	-3.63
230.222	-3.89
230.6	-5.36
230.978	-5.73
231.356	-2.5
231.733	-4.14
232.111	-2.7
232.488	-2.3
232.866	0.57
233.243	-1.18
233.621	-2.52
233.998	-1.41
234.376	-1.75
234.753	-2.49
235.13	-0.49
235.508	1.75
235.885	3.85
236.262	3.24
236.639	1.34
237.016	0.7
237.393	2.02
237.77	3.61
238.147	4
238.524	4.89
238.901	5.65
239.278	4.75
239.655	5.46
240.032	5.5
240.409	4.97
240.785	5.15
241.162	5.58
241.539	5.43
241.915	5.22
242.292	4.76
242.668	4.46
243.045	4.51
243.421	4.68
243.798	4.4
244.174	4.71
244.551	5.24
244.927	4.89
245.303	4.82
245.679	4.73
246.056	4.6
246.432	4.47
246.808	4.43
247.184	4.44
247.56	4.29
247.936	4.17
248.312	4.28
248.688	4.16
249.064	4.04
249.44	4.02
249.815	3.98
250.191	4.34
250.567	4.57
250.943	4.45
251.318	4.45
251.694	4.49
252.069	4.23
252.445	3.9
252.82	4.05
253.196	3.82
253.571	3.54
253.947	3.7
254.322	3.68
254.697	3.64
255.073	3.62
255.448	3.67
255.823	3.72
256.198	3.83
256.573	3.74
256.948	4.06
257.323	4.14
257.698	4.35
258.073	4.23
258.448	3.91
258.823	3.73
259.198	3.65
259.573	3.71
259.948	3.7
260.322	3.77
260.697	3.77
261.072	3.92
261.446	4.08
261.821	4.13
262.195	4.31
262.57	4.14
262.944	4.04
263.319	3.91
263.693	3.93
264.067	4.13
264.442	4.14
264.816	3.81
265.19	3.76
265.564	3.55
265.938	3.56
266.313	3.73
266.687	4.09
267.061	4.19
267.435	4.22
267.809	4.07
268.183	3.96
268.556	3.99
268.93	4.02
269.304	3.88
269.678	3.83
270.051	3.79
270.425	3.92
270.799	3.92
271.172	3.97
271.546	3.99
271.919	3.81
272.293	3.89
272.666	3.97
273.04	4.03
273.413	4.05
273.787	4.08
274.16	4.07
274.533	3.89
274.906	3.97
275.279	3.84
275.653	4.03
276.026	4.13
276.399	4.09
276.772	4.07
277.145	4.13
277.518	4.15
277.891	4.2
278.263	4.21
278.636	4.23
279.009	4.37
279.382	4.32
279.755	4.26
280.127	4.24
280.5	4.31
280.872	4.35
281.245	4.34
281.617	4.35
281.99	4.45
282.362	4.46
282.735	4.18
283.107	4.27
283.479	4.36
283.852	4.25
284.224	4.26
284.596	4.27
284.968	4.33
285.34	4.31
285.713	4.15
286.085	4.27
286.457	4.34
286.829	4.27
287.201	4.3
287.572	4.26
287.944	4.32
288.316	4.28
288.688	4.28
289.06	4.3
289.431	4.34
289.803	4.31
290.175	4.3
290.546	4.52
290.918	4.42
291.289	4.47
291.661	4.59
292.032	4.69
292.403	4.78
292.775	4.78
293.146	4.82
293.517	4.85
293.889	4.72
294.26	4.67
294.631	4.72
295.002	4.71
295.373	4.92
295.744	4.93
296.115	4.93
296.486	4.89
296.857	4.99
297.228	5.02
297.599	4.98
297.97	5.09
298.34	5.11
298.711	5.21
299.082	5.11
299.452	5.15
299.823	5.17
300.194	5.2
300.564	5.29
300.935	5.36
301.305	5.48
301.676	5.58
302.046	5.67
302.416	5.91
302.787	6
303.157	5.97
303.527	5.97
303.897	6.18
304.267	6.42
304.637	6.52
305.008	6.65
305.378	6.81
305.748	7.02
306.117	7.04
306.487	7.29
306.857	7.55
307.227	7.71
307.597	7.87
307.967	7.89
308.336	7.97
308.706	8.06
309.076	8.16
309.445	8.29
309.815	8.44
310.184	8.4
310.554	8.52
310.923	8.58
311.293	8.69
311.662	8.69
312.031	8.75
312.401	8.89
312.77	8.95
313.139	9.04
313.508	9.15
313.877	9.34
314.246	9.29
314.616	9.3
314.985	9.53
315.353	9.52
315.722	9.89
316.091	9.94
316.46	9.97
316.829	10.15
317.198	10.28
317.567	10.4
317.935	10.45
318.304	10.51
318.672	10.69
319.041	10.91
319.41	11.24
319.778	11.21
320.147	11.34
320.515	11.5
320.883	11.75
321.252	11.72
321.62	11.81
321.988	11.94
322.357	12.04
322.725	12.11
323.093	12.29
323.461	12.22
323.829	12.25
324.197	12.38
324.565	12.36
324.933	12.36
325.301	12.43
325.669	12.63
326.037	12.77
326.405	12.84
326.772	12.78
327.14	12.82
327.508	12.88
327.875	12.86
328.243	12.93
328.61	12.93
328.978	13.1
329.346	13.14
329.713	13.14
330.08	13.25
330.448	13.19
330.815	13.11
331.182	13.21
331.55	13.4
331.917	13.58
332.284	13.73
332.651	13.9
333.018	13.92
333.385	14.04
333.752	14.14
334.119	14.16
334.486	14.22
334.853	14.19
335.22	14.32
335.587	14.43
335.954	14.37
336.32	14.4
336.687	14.43
337.054	14.53
337.42	14.6
337.787	14.66
338.153	14.71
338.52	14.9
338.886	14.93
339.253	15
339.619	14.98
339.986	15.06
340.352	15.12
340.718	15.16
341.084	15.1
341.451	15.11
341.817	15.22
342.183	15.34
342.549	15.48
342.915	15.59
343.281	15.64
343.647	15.79
344.013	15.87
344.379	15.86
344.745	15.98
345.11	16.06
345.476	16.15
345.842	16.23
346.208	16.19
346.573	16.16
346.939	16.22
347.304	16.25
347.67	16.28
348.035	16.26
348.401	16.35
348.766	16.33
349.132	16.37
349.497	16.4
349.862	16.44
350.228	16.38
350.593	16.37
350.958	16.41
351.323	16.47
351.688	16.52
352.053	16.55
352.418	16.55
352.783	16.64
353.148	16.56
353.513	16.54
353.878	16.61
354.243	16.71
354.608	16.66
354.972	16.73
355.337	16.78
355.702	16.74
356.066	16.8
356.431	16.78
356.795	16.77
357.16	16.67
357.524	16.58
357.889	16.52
358.253	16.44
358.618	16.45
358.982	16.3
359.346	16.19
359.71	16.15
360.075	16.09
360.439	16.04
360.803	16.06
361.167	15.99
361.531	15.93
361.895	15.79
362.259	15.77
362.623	15.66
362.987	15.57
363.351	15.52
363.714	15.4
364.078	15.4
364.442	15.29
364.806	15.25
365.169	15.19
365.533	15.13
365.896	15.04
366.26	14.91
366.623	14.91
366.987	14.83
367.35	14.75
367.714	14.65
368.077	14.54
368.44	14.39
368.803	14.3
369.167	14.16
369.53	14.04
369.893	13.94
370.256	13.91
370.619	13.78
370.982	13.74
371.345	13.61
371.708	13.49
372.071	13.38
372.434	13.27
372.797	13.12
373.159	13.03
373.522	12.95
373.885	12.82
374.247	12.69
374.61	12.6
374.973	12.49
375.335	12.36
375.698	12.25
376.06	12.12
376.423	12.07
376.785	12.01
377.147	12.01
377.51	11.91
377.872	11.75
378.234	11.65
378.596	11.47
378.958	11.37
379.321	11.24
379.683	11.16
380.045	11.1
380.407	11.01
380.769	10.92
381.13	10.79
381.492	10.69
381.854	10.6
382.216	10.45
382.578	10.36
382.939	10.25
383.301	10.09
383.663	9.96
384.024	9.82
384.386	9.77
384.747	9.64
385.109	9.57
385.47	9.5
385.832	9.42
386.193	9.36
386.554	9.27
386.916	9.19
387.277	9.16
387.638	9.08
387.999	9.01
388.36	8.95
388.721	8.92
389.082	8.85
389.443	8.76
389.804	8.68
390.165	8.6
390.526	8.54
390.887	8.5
391.248	8.52
391.609	8.49
391.969	8.37
392.33	8.31
392.691	8.19
393.051	8.11
393.412	8.06
393.772	8
394.133	7.93
394.493	7.84
394.854	7.73
395.214	7.64
395.574	7.6
395.935	7.52
396.295	7.45
396.655	7.35
397.015	7.29
397.376	7.22
397.736	7.14
398.096	7.06
398.456	6.96
398.816	6.86
399.176	6.7
399.535	6.65
399.895	6.55
400.255	6.54
400.615	6.48
400.975	6.4
401.334	6.32
401.694	6.3
402.054	6.28
402.413	6.19
402.773	6.15
403.132	6.07
403.492	6.01
403.851	5.96
404.211	5.95
404.57	5.88
404.929	5.89
405.288	5.87
405.648	5.82
406.007	5.82
406.366	5.77
406.725	5.78
407.084	5.76
407.443	5.72
407.802	5.68
408.161	5.62
408.52	5.57
408.879	5.54
409.238	5.51
409.596	5.45
409.955	5.43
410.314	5.4
410.673	5.37
411.031	5.35
411.39	5.3
411.748	5.26
412.107	5.26
412.465	5.21
412.824	5.16
413.182	5.13
413.54	5.11
413.899	5.09
414.257	5.05
414.615	5.02
414.974	4.99
415.332	4.96
415.69	4.96
416.048	4.93
416.406	4.9
416.764	4.86
417.122	4.85
417.48	4.81
417.838	4.77
418.195	4.74
418.553	4.71
418.911	4.71
419.269	4.66
419.626	4.63
419.984	4.59
420.342	4.57
420.699	4.54
421.057	4.48
421.414	4.44
421.772	4.42
422.129	4.38
422.486	4.37
422.844	4.34
423.201	4.29
423.558	4.26
423.915	4.25
424.273	4.21
424.63	4.19
424.987	4.17
425.344	4.15
425.701	4.13
426.058	4.1
426.415	4.06
426.772	4.04
427.128	4.02
427.485	4.01
427.842	3.99
428.199	3.97
428.555	3.96
428.912	3.97
429.269	3.97
429.625	3.94
429.982	3.9
430.338	3.91
430.695	3.91
431.051	3.92
431.407	3.88
431.764	3.86
432.12	3.85
432.476	3.87
432.832	3.87
433.189	3.88
433.545	3.88
433.901	3.88
434.257	3.88
434.613	3.88
434.969	3.86
435.325	3.83
435.681	3.84
436.036	3.84
436.392	3.84
436.748	3.82
437.104	3.82
437.459	3.84
437.815	3.82
438.171	3.83
438.526	3.82
438.882	3.85
439.237	3.86
439.593	3.86
439.948	3.83
440.304	3.82
440.659	3.81
441.014	3.82
441.369	3.81
441.725	3.8
442.08	3.8
442.435	3.81
442.79	3.83
443.145	3.83
443.5	3.82
443.855	3.82
444.21	3.81
444.565	3.81
444.92	3.79
445.275	3.78
445.629	3.76
445.984	3.75
446.339	3.73
446.693	3.72
447.048	3.7
447.403	3.69
447.757	3.7
448.112	3.68
448.466	3.66
448.82	3.65
449.175	3.66
449.529	3.64
449.883	3.62
450.238	3.59
450.592	3.59
450.946	3.57
451.3	3.53
451.654	3.51
452.008	3.51
452.362	3.48
452.716	3.48
453.07	3.48
453.424	3.47
453.778	3.47
454.132	3.47
454.486	3.47
454.839	3.44
455.193	3.42
455.547	3.42
455.9	3.41
456.254	3.41
456.607	3.4
456.961	3.4
457.314	3.4
457.668	3.41
458.021	3.4
458.375	3.4
458.728	3.42
459.081	3.44
459.434	3.43
459.787	3.45
460.141	3.45
460.494	3.45
460.847	3.46
461.2	3.46
461.553	3.47
461.906	3.49
462.259	3.52
462.611	3.54
462.964	3.55
463.317	3.58
463.67	3.59
464.022	3.6
464.375	3.61
464.728	3.63
465.08	3.65
465.433	3.68
465.785	3.71
466.138	3.72
466.49	3.72
466.843	3.74
467.195	3.78
467.547	3.81
467.899	3.81
468.252	3.82
468.604	3.85
468.956	3.86
469.308	3.89
469.66	3.89
470.012	3.93
470.364	3.96
470.716	3.97
471.068	3.99
471.42	4.04
471.772	4.09
472.123	4.12
472.475	4.15
472.827	4.16
473.178	4.17
473.53	4.17
473.882	4.18
474.233	4.21
474.585	4.21
474.936	4.21
475.288	4.22
475.639	4.23
475.99	4.22
476.342	4.22
476.693	4.21
477.044	4.22
477.395	4.2
477.746	4.18
478.097	4.18
478.448	4.16
478.8	4.12
479.15	4.06
479.501	4.03
479.852	4.02
480.203	4
480.554	4
480.905	4.01
481.255	4.01
481.606	4
481.957	3.99
482.307	3.99
482.658	3.99
483.009	3.97
483.359	3.97
483.709	3.96
484.06	3.96
484.41	3.96
484.761	3.95
485.111	3.93
485.461	3.93
485.811	3.92
486.162	3.92
486.512	3.92
486.862	3.92
487.212	3.91
487.562	3.9
487.912	3.9
488.262	3.88
488.612	3.87
488.961	3.87
489.311	3.86
489.661	3.85
490.011	3.86
490.36	3.88
490.71	3.88
491.06	3.88
491.409	3.89
491.759	3.89
492.108	3.9
492.458	3.92
492.807	3.93
493.157	3.94
493.506	3.97
493.855	4
494.204	4.03
494.554	4.06
494.903	4.1
495.252	4.13
495.601	4.19
495.95	4.24
496.299	4.28
496.648	4.32
496.997	4.38
497.346	4.42
497.695	4.46
498.043	4.51
498.392	4.59
498.741	4.65
499.09	4.71
499.438	4.8
499.787	4.87
500.135	4.96
500.484	5.05
500.832	5.15
501.181	5.23
501.529	5.32
501.878	5.42
502.226	5.53
502.574	5.65
502.923	5.75
503.271	5.87
503.619	6
503.967	6.16
504.315	6.26
504.663	6.39
505.011	6.53
505.359	6.68
505.707	6.83
506.055	6.97
506.403	7.13
506.751	7.27
507.098	7.43
507.446	7.58
507.794	7.75
508.141	7.89
508.489	8.05
508.837	8.22
509.184	8.38
509.531	8.52
509.879	8.69
510.226	8.88
510.574	9.07
510.921	9.24
511.268	9.43
511.616	9.63
511.963	9.85
512.31	10.06
512.657	10.29
513.004	10.49
513.351	10.72
513.698	10.97
514.045	11.21
514.392	11.47
514.739	11.74
515.086	12.01
515.432	12.26
515.779	12.52
516.126	12.79
516.473	13.04
516.819	13.3
517.166	13.53
517.512	13.75
517.859	13.96
518.205	14.18
518.552	14.37
518.898	14.57
519.245	14.74
519.591	14.93
519.937	15.11
520.283	15.32
520.629	15.55
520.976	15.79
521.322	16.03
521.668	16.27
522.014	16.52
522.36	16.75
522.706	17.04
523.052	17.35
523.398	17.63
523.743	17.97
524.089	18.27
524.435	18.52
524.781	18.82
525.126	19.06
525.472	19.31
525.817	19.55
526.163	19.76
526.509	19.97
526.854	20.15
527.199	20.34
527.545	20.52
527.89	20.69
528.235	20.85
528.581	21.03
528.926	21.19
529.271	21.37
529.616	21.53
529.961	21.72
530.306	21.89
530.651	22.07
530.996	22.25
531.341	22.45
531.686	22.67
532.031	22.87
532.376	23.09
532.721	23.31
533.065	23.54
533.41	23.76
533.755	24
534.099	24.25
534.444	24.47
534.788	24.71
535.133	24.94
535.477	25.18
535.822	25.43
536.166	25.68
536.51	25.95
536.855	26.25
537.199	26.53
537.543	26.82
537.887	27.14
538.231	27.43
538.576	27.75
538.92	28.07
539.264	28.34
539.608	28.64
539.951	28.89
540.295	29.12
540.639	29.36
540.983	29.58
541.327	29.82
541.671	30.03
542.014	30.24
542.358	30.46
542.701	30.65
543.045	30.87
543.389	31.09
543.732	31.33
544.075	31.54
544.419	31.78
544.762	32.02
545.105	32.28
545.449	32.52
545.792	32.77
546.135	33.03
546.478	33.27
546.821	33.53
547.165	33.81
547.508	34.13
547.851	34.42
548.194	34.73
548.536	35.05
548.879	35.37
549.222	35.67
549.565	36.01
549.908	36.4
550.25	36.69
550.593	37.02
550.936	37.31
551.278	37.64
551.621	37.93
551.963	38.22
552.306	38.49
552.648	38.79
552.991	39.05
553.333	39.32
553.675	39.63
554.017	39.9
554.36	40.18
554.702	40.4
555.044	40.7
555.386	40.97
555.728	41.16
556.07	41.49
556.412	41.77
556.754	42.02
557.096	42.18
557.438	42.45
557.78	42.75
558.121	43.02
558.463	43.28
558.805	43.53
559.147	43.78
559.488	43.99
559.83	44.23
560.171	44.48
560.513	44.74
560.854	45.01
561.196	45.24
561.537	45.43
561.878	45.69
562.22	45.77
562.561	45.92
562.902	46.1
563.243	46.26
563.584	46.41
563.925	46.61
564.266	46.81
564.607	46.96
564.948	47.11
565.289	47.25
565.63	47.41
565.971	47.54
566.312	47.66
566.653	47.84
566.993	47.97
567.334	48.05
567.675	48.17
568.015	48.29
568.356	48.39
568.696	48.52
569.037	48.56
569.377	48.78
569.718	48.92
570.058	49.09
570.398	49.21
570.739	49.37
571.079	49.55
571.419	49.69
571.759	49.84
572.099	49.97
572.439	50.09
572.779	50.17
573.119	50.32
573.459	50.46
573.799	50.57
574.139	50.71
574.479	50.84
574.819	50.96
575.158	51.11
575.498	51.29
575.838	51.37
576.177	51.52
576.517	51.65
576.856	51.84
577.196	51.94
577.535	52.06
577.875	52.18
578.214	52.2
578.553	52.33
578.893	52.39
579.232	52.51
579.571	52.67
579.91	52.87
580.25	52.97
580.589	53.01
580.928	53.17
581.267	53.32
581.606	53.51
581.945	53.6
582.283	53.53
582.622	53.59
582.961	53.74
583.3	53.86
583.639	53.91
583.977	53.95
584.316	54.03
584.654	54.14
584.993	54.16
585.332	54.26
585.67	54.3
586.008	54.4
586.347	54.46
586.685	54.54
587.024	54.59
587.362	54.71
587.7	54.8
588.038	54.81
588.376	54.77
588.715	54.82
589.053	54.94
589.391	55.1
589.729	55.21
590.067	55.2
590.404	55.24
590.742	55.31
591.08	55.36
591.418	55.45
591.756	55.58
592.093	55.69
592.431	55.68
592.769	55.76
593.106	55.83
593.444	55.84
593.781	55.8
594.119	55.78
594.456	55.75
594.793	55.84
595.131	55.88
595.468	56.01
595.805	56.01
596.143	56.02
596.48	56.09
596.817	56.06
597.154	56.15
597.491	56.23
597.828	56.29
598.165	56.28
598.502	56.28
598.839	56.24
599.176	56.26
599.512	56.39
599.849	56.49
600.186	56.59
600.523	56.64
600.859	56.6
601.196	56.67
601.532	56.72
601.869	56.77
602.205	56.81
602.542	56.81
602.878	56.84
603.215	56.88
603.551	56.85
603.887	56.93
604.223	57
604.56	57.03
604.896	57.06
605.232	57.11
605.568	57.11
605.904	57.11
606.24	57.17
606.576	57.2
606.912	57.2
607.248	57.17
607.583	57.21
607.919	57.36
608.255	57.4
608.591	57.47
608.926	57.46
609.262	57.49
609.597	57.46
609.933	57.56
610.268	57.55
610.604	57.63
610.939	57.68
611.275	57.75
611.61	57.77
611.945	57.74
612.281	57.78
612.616	57.89
612.951	57.98
613.286	57.93
613.621	57.95
613.956	58.02
614.291	58.03
614.626	58.04
614.961	58.04
615.296	58.04
615.631	58.09
615.966	58.07
616.3	58.09
616.635	58.17
616.97	58.17
617.304	58.17
617.639	58.17
617.973	58.1
618.308	57.95
618.642	57.96
618.977	58.09
619.311	58.16
619.646	58.16
619.98	58.17
620.314	58.2
620.648	58.17
620.983	58.07
621.317	58.13
621.651	58.16
621.985	58.21
622.319	58.23
622.653	58.2
622.987	58.34
623.321	58.28
623.655	58.3
623.988	58.27
624.322	58.33
624.656	58.34
624.99	58.38
625.323	58.51
625.657	58.48
625.99	58.44
626.324	58.46
626.657	58.5
626.991	58.54
627.324	58.56
627.658	58.62
627.991	58.72
628.324	58.62
628.657	58.61
628.991	58.54
629.324	58.52
629.657	58.48
629.99	58.49
630.323	58.58
630.656	58.66
630.989	58.77
631.322	58.76
631.655	58.76
631.987	58.78
632.32	58.83
632.653	58.86
632.986	58.81
633.318	58.92
633.651	58.86
633.984	58.83
634.316	58.98
634.649	58.95
634.981	58.89
635.313	58.93
635.646	59.02
635.978	59.09
636.31	59.23
636.643	59.34
636.975	59.32
637.307	59.34
637.639	59.33
637.971	59.27
638.303	59.31
638.635	59.23
638.967	59.23
639.299	59.21
639.631	59.2
639.963	59.25
640.295	59.1
640.626	59.23
640.958	59.31
641.29	59.14
641.621	59.04
641.953	59.1
642.285	59.19
642.616	59.18
642.948	59.2
643.279	59.07
643.61	59.09
643.942	59.12
644.273	59.23
644.604	59.22
644.936	59.21
645.267	59.28
645.598	59.45
645.929	59.49
646.26	59.52
646.591	59.58
646.922	59.56
647.253	59.58
647.584	59.46
647.915	59.47
648.245	59.51
648.576	59.61
648.907	59.54
649.238	59.44
649.568	59.45
649.899	59.41
650.229	59.52
650.56	59.47
650.89	59.34
651.221	59.3
651.551	59.27
651.882	59.38
652.212	59.38
652.542	59.42
652.872	59.31
653.203	59.28
653.533	59.24
653.863	59.4
654.193	59.37
654.523	59.4
654.853	59.47
655.183	59.54
655.513	59.46
655.843	59.54
656.172	59.61
656.502	59.6
656.832	59.62
657.162	59.61
657.491	59.67
657.821	59.7
658.15	59.67
658.48	59.69
658.809	59.58
659.139	59.56
659.468	59.48
659.798	59.63
660.127	59.67
660.456	59.64
660.785	59.64
661.115	59.65
661.444	59.73
661.773	59.65
662.102	59.61
662.431	59.77
662.76	59.72
663.089	59.7
