Data from BU56854_Reflection_00014.txt Node
Date: Mon Nov 18 16:27:11 EST 2019
User: vgr7
Spectrometer: USB2G7710
Scans to average: 3
Trigger mode: 4
Integration Time (sec): 2.000000E-2
Electric dark correction enabled: true
Boxcar width: 10
XAxis mode: Wavelengths
Number of Pixels in Spectrum: 2048
>>>>>Begin Spectral Data<<<<<
177.721	288.87
178.105	165.87
178.488	755.74
178.871	68.75
179.254	42.94
179.636	59.14
180.019	-6.27
180.402	96.97
180.785	7.78
181.168	33.4
181.55	-22.28
181.933	7.64
182.316	19
182.698	16.03
183.081	29.11
183.463	8.02
183.846	33.55
184.228	1.57
184.611	37.1
184.993	15.73
185.376	-23.03
185.758	-35.92
186.14	-131.97
186.522	3.32
186.904	107.6
187.287	67.85
187.669	65.02
188.051	1276.47
188.433	66.17
188.815	58.3
189.197	45.24
189.579	-1.57
189.961	-40.28
190.342	-31.08
190.724	-12.5
191.106	-24.35
191.488	-20.26
191.869	-17.06
192.251	-32.85
192.633	-24.74
193.014	-31.88
193.396	-25.6
193.777	-19.26
194.159	-21.56
194.54	-20.9
194.922	-24.09
195.303	-27.33
195.684	-28.32
196.065	-25.19
196.447	-31.93
196.828	-53.94
197.209	-46.5
197.59	-42.83
197.971	-56.75
198.352	-52.74
198.733	-64.68
199.114	-50.24
199.495	-46.35
199.876	-33.73
200.257	-31.37
200.638	-26.83
201.018	-37.32
201.399	-45.03
201.78	-44.56
202.16	-66.9
202.541	-98.53
202.922	-114.85
203.302	-143.7
203.683	-142.26
204.063	-183.44
204.444	-140.34
204.824	-141.62
205.204	-117.62
205.585	-127.86
205.965	-89.37
206.345	-118.2
206.725	-102.44
207.106	-120.01
207.486	-170
207.866	-225.11
208.246	-223.78
208.626	-242.57
209.006	-184.72
209.386	-287.17
209.766	-298.26
210.145	-228.55
210.525	-130.22
210.905	-118.93
211.285	-96.53
211.664	-98.17
212.044	-100.72
212.424	-99.56
212.803	-106.35
213.183	-87.51
213.562	-71.76
213.942	-64.45
214.321	-43.8
214.701	-54.31
215.08	-52.62
215.459	-41.81
215.838	-38.35
216.218	-52.46
216.597	-48.56
216.976	-43.52
217.355	-43.89
217.734	-51.34
218.113	-40.97
218.492	-44.31
218.871	-49.17
219.25	-36.63
219.629	-37.85
220.008	-33.99
220.387	-30.79
220.766	-19.79
221.144	-44.11
221.523	-56.28
221.902	-60.34
222.28	-81.36
222.659	-72.84
223.037	-72.06
223.416	-58.52
223.794	-58.22
224.173	-45.1
224.551	-43.03
224.929	-44.93
225.308	-34.35
225.686	-21.38
226.064	-19.24
226.442	-17.38
226.821	-11.17
227.199	-20.1
227.577	-23.42
227.955	-20.24
228.333	-23.59
228.711	-20.25
229.089	-14.16
229.467	-11.47
229.845	-14.12
230.222	-9.58
230.6	-8.83
230.978	-6.16
231.356	-4.71
231.733	-3.69
232.111	-3.69
232.488	-2.47
232.866	-3.14
233.243	-3.73
233.621	-5.93
233.998	-5.82
234.376	-7.76
234.753	-7.73
235.13	-6.5
235.508	-3.39
235.885	-4.09
236.262	-4.21
236.639	-5.29
237.016	-5.6
237.393	-3.12
237.77	-0.64
238.147	-0.6
238.524	0.25
238.901	-0.16
239.278	-0.73
239.655	0.49
240.032	0.89
240.409	1.14
240.785	1.72
241.162	2.53
241.539	3.17
241.915	3.06
242.292	3.45
242.668	3.55
243.045	3.82
243.421	4.01
243.798	3.82
244.174	4.27
244.551	4.44
244.927	4.62
245.303	4.67
245.679	4.63
246.056	4.41
246.432	4.24
246.808	4.46
247.184	4.28
247.56	3.82
247.936	3.63
248.312	3.48
248.688	3.47
249.064	3.24
249.44	3.08
249.815	3.1
250.191	3.29
250.567	3.23
250.943	3.21
251.318	3.16
251.694	3.32
252.069	3
252.445	3.1
252.82	3.01
253.196	2.72
253.571	2.46
253.947	2.37
254.322	2.54
254.697	2.1
255.073	2.07
255.448	1.99
255.823	2.03
256.198	2.21
256.573	2.1
256.948	2.44
257.323	2.53
257.698	2.6
258.073	2.49
258.448	2.55
258.823	2.58
259.198	2.58
259.573	2.51
259.948	2.6
260.322	2.52
260.697	2.36
261.072	2.22
261.446	2.22
261.821	2.4
262.195	2.33
262.57	2.54
262.944	2.61
263.319	2.7
263.693	2.76
264.067	2.68
264.442	2.79
264.816	2.62
265.19	2.46
265.564	2.45
265.938	2.35
266.313	2.23
266.687	2.45
267.061	2.53
267.435	2.57
267.809	2.5
268.183	2.55
268.556	2.61
268.93	2.9
269.304	3.01
269.678	3.05
270.051	3.15
270.425	3
270.799	3.01
271.172	2.93
271.546	2.86
271.919	2.89
272.293	2.86
272.666	2.89
273.04	3.15
273.413	3.15
273.787	3.28
274.16	3.26
274.533	3.08
274.906	2.93
275.279	3
275.653	3.05
276.026	2.93
276.399	2.93
276.772	2.86
277.145	2.89
277.518	2.84
277.891	3.01
278.263	3.03
278.636	2.95
279.009	3.05
279.382	3.28
279.755	3.25
280.127	3.36
280.5	3.44
280.872	3.34
281.245	3.18
281.617	3.06
281.99	3.31
282.362	3.32
282.735	3.3
283.107	3.3
283.479	3.33
283.852	3.41
284.224	3.51
284.596	3.45
284.968	3.37
285.34	3.47
285.713	3.18
286.085	3.29
286.457	3.47
286.829	3.64
287.201	3.56
287.572	3.45
287.944	3.45
288.316	3.43
288.688	3.4
289.06	3.53
289.431	3.58
289.803	3.54
290.175	3.63
290.546	3.78
290.918	3.77
291.289	3.77
291.661	3.82
292.032	3.91
292.403	3.95
292.775	4.1
293.146	4.04
293.517	4.23
293.889	4.3
294.26	4.36
294.631	4.3
295.002	4.34
295.373	4.6
295.744	4.64
296.115	4.76
296.486	4.7
296.857	4.75
297.228	4.85
297.599	4.85
297.97	4.96
298.34	5.1
298.711	5.17
299.082	5.23
299.452	5.32
299.823	5.34
300.194	5.41
300.564	5.3
300.935	5.43
301.305	5.4
301.676	5.42
302.046	5.39
302.416	5.61
302.787	5.68
303.157	5.63
303.527	5.71
303.897	5.68
304.267	6.03
304.637	6.13
305.008	6.26
305.378	6.39
305.748	6.43
306.117	6.36
306.487	6.56
306.857	6.74
307.227	6.79
307.597	6.89
307.967	6.93
308.336	7.14
308.706	7.13
309.076	7.21
309.445	7.25
309.815	7.35
310.184	7.26
310.554	7.41
310.923	7.54
311.293	7.59
311.662	7.62
312.031	7.59
312.401	7.65
312.77	7.82
313.139	7.96
313.508	7.92
313.877	7.99
314.246	8.02
314.616	7.96
314.985	8.06
315.353	7.99
315.722	8.13
316.091	8.18
316.46	8.22
316.829	8.41
317.198	8.52
317.567	8.41
317.935	8.45
318.304	8.52
318.672	8.62
319.041	8.87
319.41	9.02
319.778	9.15
320.147	9.19
320.515	9.1
320.883	9.01
321.252	9.19
321.62	9.18
321.988	9.24
322.357	9.42
322.725	9.5
323.093	9.73
323.461	9.91
323.829	9.86
324.197	10.05
324.565	10.1
324.933	10.26
325.301	10.52
325.669	10.65
326.037	10.7
326.405	10.75
326.772	10.78
327.14	10.86
327.508	11
327.875	11.03
328.243	11.18
328.61	11.26
328.978	11.33
329.346	11.41
329.713	11.46
330.08	11.57
330.448	11.56
330.815	11.6
331.182	11.54
331.55	11.68
331.917	11.76
332.284	11.98
332.651	11.99
333.018	12.04
333.385	12.18
333.752	12.27
334.119	12.25
334.486	12.22
334.853	12.16
335.22	12.15
335.587	12.33
335.954	12.36
336.32	12.49
336.687	12.67
337.054	12.83
337.42	12.92
337.787	13.05
338.153	13.1
338.52	13.15
338.886	13.11
339.253	13.29
339.619	13.33
339.986	13.23
340.352	13.28
340.718	13.39
341.084	13.36
341.451	13.46
341.817	13.63
342.183	13.59
342.549	13.79
342.915	13.75
343.281	13.73
343.647	13.72
344.013	13.77
344.379	13.72
344.745	13.63
345.11	13.67
345.476	13.65
345.842	13.62
346.208	13.68
346.573	13.84
346.939	13.93
347.304	13.91
347.67	13.97
348.035	13.94
348.401	13.98
348.766	14.09
349.132	14.03
349.497	13.9
349.862	14
350.228	13.97
350.593	13.99
350.958	14.01
351.323	14.09
351.688	14.14
352.053	14.12
352.418	14.2
352.783	14.22
353.148	14.17
353.513	14.33
353.878	14.34
354.243	14.36
354.608	14.18
354.972	14.17
355.337	14.11
355.702	14.24
356.066	14.18
356.431	14.06
356.795	14.08
357.16	14.13
357.524	14.1
357.889	14.08
358.253	14.07
358.618	14.04
358.982	13.93
359.346	13.81
359.71	13.71
360.075	13.67
360.439	13.63
360.803	13.65
361.167	13.56
361.531	13.48
361.895	13.42
362.259	13.47
362.623	13.43
362.987	13.46
363.351	13.41
363.714	13.37
364.078	13.47
364.442	13.33
364.806	13.26
365.169	13.25
365.533	13.19
365.896	13.16
366.26	13.08
366.623	13.12
366.987	13.16
367.35	13.19
367.714	13.15
368.077	13.03
368.44	12.93
368.803	12.85
369.167	12.8
369.53	12.74
369.893	12.56
370.256	12.55
370.619	12.44
370.982	12.3
371.345	12.17
371.708	11.99
372.071	11.94
372.434	11.86
372.797	11.74
373.159	11.66
373.522	11.59
373.885	11.57
374.247	11.42
374.61	11.27
374.973	11.13
375.335	11.02
375.698	10.93
376.06	10.81
376.423	10.7
376.785	10.61
377.147	10.5
377.51	10.5
377.872	10.4
378.234	10.34
378.596	10.21
378.958	10.13
379.321	10.05
379.683	10.07
380.045	9.98
380.407	9.87
380.769	9.76
381.13	9.64
381.492	9.5
381.854	9.5
382.216	9.44
382.578	9.4
382.939	9.3
383.301	9.24
383.663	9.16
384.024	9.09
384.386	9.06
384.747	9
385.109	8.93
385.47	8.82
385.832	8.73
386.193	8.71
386.554	8.67
386.916	8.65
387.277	8.51
387.638	8.45
387.999	8.42
388.36	8.38
388.721	8.28
389.082	8.24
389.443	8.13
389.804	8.06
390.165	7.99
390.526	7.96
390.887	7.89
391.248	7.87
391.609	7.86
391.969	7.76
392.33	7.7
392.691	7.61
393.051	7.53
393.412	7.49
393.772	7.41
394.133	7.36
394.493	7.28
394.854	7.2
395.214	7.15
395.574	7.1
395.935	7.03
396.295	7.01
396.655	6.96
397.015	6.87
397.376	6.8
397.736	6.75
398.096	6.67
398.456	6.61
398.816	6.52
399.176	6.43
399.535	6.37
399.895	6.35
400.255	6.3
400.615	6.25
400.975	6.16
401.334	6.13
401.694	6.07
402.054	5.98
402.413	5.98
402.773	5.9
403.132	5.82
403.492	5.73
403.851	5.67
404.211	5.61
404.57	5.59
404.929	5.58
405.288	5.53
405.648	5.48
406.007	5.44
406.366	5.39
406.725	5.38
407.084	5.38
407.443	5.32
407.802	5.32
408.161	5.29
408.52	5.28
408.879	5.24
409.238	5.19
409.596	5.2
409.955	5.13
410.314	5.14
410.673	5.1
411.031	5.12
411.39	5.11
411.748	5.07
412.107	5.06
412.465	4.99
412.824	4.98
413.182	4.97
413.54	4.97
413.899	4.97
414.257	4.92
414.615	4.87
414.974	4.88
415.332	4.82
415.69	4.78
416.048	4.74
416.406	4.72
416.764	4.7
417.122	4.65
417.48	4.61
417.838	4.57
418.195	4.56
418.553	4.52
418.911	4.5
419.269	4.47
419.626	4.44
419.984	4.42
420.342	4.39
420.699	4.36
421.057	4.33
421.414	4.3
421.772	4.27
422.129	4.26
422.486	4.2
422.844	4.19
423.201	4.18
423.558	4.18
423.915	4.15
424.273	4.13
424.63	4.12
424.987	4.13
425.344	4.12
425.701	4.1
426.058	4.09
426.415	4.08
426.772	4.08
427.128	4.05
427.485	4.04
427.842	4.01
428.199	4
428.555	3.97
428.912	3.96
429.269	3.96
429.625	3.92
429.982	3.91
430.338	3.88
430.695	3.86
431.051	3.82
431.407	3.83
431.764	3.82
432.12	3.76
432.476	3.73
432.832	3.71
433.189	3.71
433.545	3.69
433.901	3.68
434.257	3.68
434.613	3.69
434.969	3.69
435.325	3.7
435.681	3.71
436.036	3.7
436.392	3.7
436.748	3.7
437.104	3.7
437.459	3.71
437.815	3.71
438.171	3.73
438.526	3.73
438.882	3.71
439.237	3.72
439.593	3.74
439.948	3.75
440.304	3.76
440.659	3.75
441.014	3.75
441.369	3.73
441.725	3.72
442.08	3.69
442.435	3.69
442.79	3.69
443.145	3.68
443.5	3.69
443.855	3.68
444.21	3.68
444.565	3.68
444.92	3.66
445.275	3.66
445.629	3.65
445.984	3.64
446.339	3.63
446.693	3.6
447.048	3.58
447.403	3.57
447.757	3.55
448.112	3.54
448.466	3.53
448.82	3.53
449.175	3.52
449.529	3.51
449.883	3.49
450.238	3.46
450.592	3.47
450.946	3.44
451.3	3.41
451.654	3.39
452.008	3.36
452.362	3.36
452.716	3.36
453.07	3.34
453.424	3.32
453.778	3.32
454.132	3.32
454.486	3.32
454.839	3.31
455.193	3.28
455.547	3.28
455.9	3.29
456.254	3.3
456.607	3.29
456.961	3.29
457.314	3.3
457.668	3.29
458.021	3.28
458.375	3.3
458.728	3.31
459.081	3.31
459.434	3.32
459.787	3.33
460.141	3.32
460.494	3.34
460.847	3.34
461.2	3.34
461.553	3.36
461.906	3.39
462.259	3.4
462.611	3.44
462.964	3.46
463.317	3.47
463.67	3.49
464.022	3.51
464.375	3.52
464.728	3.55
465.08	3.59
465.433	3.58
465.785	3.58
466.138	3.59
466.49	3.61
466.843	3.61
467.195	3.63
467.547	3.66
467.899	3.68
468.252	3.68
468.604	3.71
468.956	3.72
469.308	3.72
469.66	3.74
470.012	3.76
470.364	3.77
470.716	3.78
471.068	3.78
471.42	3.81
471.772	3.84
472.123	3.84
472.475	3.85
472.827	3.91
473.178	3.93
473.53	3.97
473.882	3.97
474.233	4
474.585	3.99
474.936	3.99
475.288	3.99
475.639	4.03
475.99	4.04
476.342	4.06
476.693	4.07
477.044	4.07
477.395	4.06
477.746	4.04
478.097	4.03
478.448	4.02
478.8	4.01
479.15	3.98
479.501	3.97
479.852	3.93
480.203	3.9
480.554	3.91
480.905	3.89
481.255	3.88
481.606	3.88
481.957	3.88
482.307	3.86
482.658	3.86
483.009	3.84
483.359	3.83
483.709	3.82
484.06	3.82
484.41	3.81
484.761	3.8
485.111	3.8
485.461	3.8
485.811	3.81
486.162	3.8
486.512	3.8
486.862	3.79
487.212	3.8
487.562	3.8
487.912	3.79
488.262	3.79
488.612	3.79
488.961	3.79
489.311	3.78
489.661	3.79
490.011	3.79
490.36	3.79
490.71	3.79
491.06	3.8
491.409	3.8
491.759	3.81
492.108	3.81
492.458	3.82
492.807	3.82
493.157	3.83
493.506	3.86
493.855	3.88
494.204	3.91
494.554	3.95
494.903	3.98
495.252	4
495.601	4.03
495.95	4.08
496.299	4.11
496.648	4.16
496.997	4.18
497.346	4.23
497.695	4.3
498.043	4.36
498.392	4.41
498.741	4.46
499.09	4.51
499.438	4.6
499.787	4.66
500.135	4.75
500.484	4.83
500.832	4.9
501.181	4.96
501.529	5.07
501.878	5.15
502.226	5.27
502.574	5.36
502.923	5.45
503.271	5.56
503.619	5.69
503.967	5.81
504.315	5.93
504.663	6.05
505.011	6.17
505.359	6.28
505.707	6.41
506.055	6.53
506.403	6.66
506.751	6.78
507.098	6.93
507.446	7.07
507.794	7.2
508.141	7.32
508.489	7.46
508.837	7.6
509.184	7.77
509.531	7.87
509.879	8.05
510.226	8.23
510.574	8.37
510.921	8.5
511.268	8.65
511.616	8.81
511.963	8.98
512.31	9.13
512.657	9.3
513.004	9.47
513.351	9.67
513.698	9.88
514.045	10.08
514.392	10.27
514.739	10.45
515.086	10.67
515.432	10.88
515.779	11.1
516.126	11.3
516.473	11.49
516.819	11.71
517.166	11.87
517.512	12.05
517.859	12.23
518.205	12.42
518.552	12.6
518.898	12.78
519.245	12.95
519.591	13.13
519.937	13.31
520.283	13.52
520.629	13.73
520.976	13.94
521.322	14.16
521.668	14.37
522.014	14.62
522.36	14.84
522.706	15.09
523.052	15.34
523.398	15.6
523.743	15.88
524.089	16.14
524.435	16.38
524.781	16.62
525.126	16.84
525.472	17.02
525.817	17.22
526.163	17.39
526.509	17.57
526.854	17.75
527.199	17.92
527.545	18.06
527.89	18.2
528.235	18.33
528.581	18.48
528.926	18.64
529.271	18.77
529.616	18.92
529.961	19.06
530.306	19.2
530.651	19.36
530.996	19.52
531.341	19.68
531.686	19.87
532.031	20.08
532.376	20.27
532.721	20.52
533.065	20.73
533.41	20.95
533.755	21.14
534.099	21.33
534.444	21.54
534.788	21.77
535.133	21.97
535.477	22.23
535.822	22.46
536.166	22.69
536.51	22.98
536.855	23.28
537.199	23.58
537.543	23.87
537.887	24.18
538.231	24.45
538.576	24.78
538.92	25.06
539.264	25.32
539.608	25.59
539.951	25.8
540.295	26.01
540.639	26.21
540.983	26.46
541.327	26.71
541.671	26.91
542.014	27.11
542.358	27.32
542.701	27.53
543.045	27.75
543.389	27.98
543.732	28.22
544.075	28.4
544.419	28.62
544.762	28.86
545.105	29.08
545.449	29.37
545.792	29.62
546.135	29.9
546.478	30.17
546.821	30.44
547.165	30.76
547.508	31.11
547.851	31.46
548.194	31.77
548.536	32.06
548.879	32.4
549.222	32.72
549.565	33.08
549.908	33.36
550.25	33.7
550.593	34.01
550.936	34.29
551.278	34.66
551.621	35.03
551.963	35.38
552.306	35.69
552.648	35.98
552.991	36.31
553.333	36.64
553.675	36.92
554.017	37.21
554.36	37.49
554.702	37.69
555.044	38
555.386	38.26
555.728	38.56
556.07	38.89
556.412	39.23
556.754	39.51
557.096	39.83
557.438	40.1
557.78	40.4
558.121	40.68
558.463	40.97
558.805	41.17
559.147	41.44
559.488	41.74
559.83	41.98
560.171	42.18
560.513	42.46
560.854	42.78
561.196	43.05
561.537	43.22
561.878	43.5
562.22	43.69
562.561	43.93
562.902	44.13
563.243	44.31
563.584	44.48
563.925	44.69
564.266	44.85
564.607	45.04
564.948	45.26
565.289	45.48
565.63	45.71
565.971	45.95
566.312	46.12
566.653	46.31
566.993	46.48
567.334	46.64
567.675	46.74
568.015	46.86
568.356	47.01
568.696	47.27
569.037	47.41
569.377	47.66
569.718	47.81
570.058	48.05
570.398	48.18
570.739	48.35
571.079	48.55
571.419	48.67
571.759	48.77
572.099	48.89
572.439	49.05
572.779	49.15
573.119	49.26
573.459	49.41
573.799	49.52
574.139	49.69
574.479	49.85
574.819	49.99
575.158	50.14
575.498	50.27
575.838	50.36
576.177	50.52
576.517	50.62
576.856	50.76
577.196	50.84
577.535	51
577.875	51.14
578.214	51.27
578.553	51.5
578.893	51.67
579.232	51.82
579.571	51.89
579.91	51.99
580.25	52.12
580.589	52.21
580.928	52.4
581.267	52.56
581.606	52.72
581.945	52.83
582.283	52.91
582.622	53.05
582.961	53.11
583.3	53.26
583.639	53.37
583.977	53.52
584.316	53.62
584.654	53.74
584.993	53.89
585.332	53.93
585.67	54.01
586.008	54.07
586.347	54.18
586.685	54.33
587.024	54.51
587.362	54.68
587.7	54.76
588.038	54.84
588.376	54.85
588.715	54.97
589.053	55.07
589.391	55.15
589.729	55.27
590.067	55.39
590.404	55.45
590.742	55.54
591.08	55.54
591.418	55.63
591.756	55.7
592.093	55.72
592.431	55.75
592.769	55.82
593.106	55.88
593.444	55.83
593.781	55.8
594.119	55.76
594.456	55.82
594.793	55.87
595.131	55.84
595.468	55.95
595.805	55.84
596.143	55.91
596.48	55.99
596.817	55.96
597.154	56.02
597.491	56.12
597.828	56.12
598.165	56.17
598.502	56.22
598.839	56.22
599.176	56.25
599.512	56.41
599.849	56.49
600.186	56.59
600.523	56.78
600.859	56.84
601.196	56.89
601.532	56.87
601.869	56.94
602.205	57
602.542	56.96
602.878	57.07
603.215	57.05
603.551	57.08
603.887	57.11
604.223	57.17
604.56	57.15
604.896	57.14
605.232	57.21
605.568	57.21
605.904	57.29
606.24	57.39
606.576	57.33
606.912	57.34
607.248	57.33
607.583	57.24
607.919	57.29
608.255	57.36
608.591	57.43
608.926	57.44
609.262	57.54
609.597	57.59
609.933	57.67
610.268	57.71
610.604	57.73
610.939	57.8
611.275	57.81
611.61	57.81
611.945	57.91
612.281	57.92
612.616	57.95
612.951	57.95
613.286	57.92
613.621	58.05
613.956	58.09
614.291	58.16
614.626	58.29
614.961	58.37
615.296	58.41
615.631	58.36
615.966	58.47
616.3	58.46
616.635	58.44
616.97	58.46
617.304	58.6
617.639	58.64
617.973	58.66
618.308	58.67
618.642	58.7
618.977	58.72
619.311	58.77
619.646	58.82
619.98	58.96
620.314	59.04
620.648	59.03
620.983	59.02
621.317	59.11
621.651	59.03
621.985	59.06
622.319	59.02
622.653	59.02
622.987	59.02
623.321	59.02
623.655	59.1
623.988	59.06
624.322	59
624.656	59.05
624.99	59.04
625.323	59.12
625.657	59.19
625.99	59.2
626.324	59.23
626.657	59.27
626.991	59.24
627.324	59.18
627.658	59.21
627.991	59.26
628.324	59.27
628.657	59.33
628.991	59.33
629.324	59.45
629.657	59.39
629.99	59.42
630.323	59.48
630.656	59.49
630.989	59.55
631.322	59.56
631.655	59.47
631.987	59.49
632.32	59.46
632.653	59.43
632.986	59.46
633.318	59.59
633.651	59.54
633.984	59.56
634.316	59.62
634.649	59.64
634.981	59.61
635.313	59.59
635.646	59.64
635.978	59.65
636.31	59.63
636.643	59.76
636.975	59.82
637.307	59.78
637.639	59.85
637.971	59.9
638.303	59.92
638.635	59.98
638.967	60.06
639.299	60.13
639.631	60.09
639.963	60.09
640.295	60.03
640.626	60.07
640.958	60.04
641.29	60.06
641.621	60.05
641.953	60
642.285	60.06
642.616	60.11
642.948	60.15
643.279	60.16
643.61	60.24
643.942	60.2
644.273	60.24
644.604	60.21
644.936	60.17
645.267	60.27
645.598	60.36
645.929	60.4
646.26	60.39
646.591	60.57
646.922	60.55
647.253	60.55
647.584	60.51
647.915	60.56
648.245	60.6
648.576	60.62
648.907	60.67
649.238	60.44
649.568	60.45
649.899	60.35
650.229	60.34
650.56	60.33
650.89	60.29
651.221	60.25
651.551	60.24
651.882	60.27
652.212	60.38
652.542	60.39
652.872	60.28
653.203	60.28
653.533	60.25
653.863	60.31
654.193	60.27
654.523	60.37
654.853	60.36
655.183	60.29
655.513	60.24
655.843	60.39
656.172	60.6
656.502	60.59
656.832	60.55
657.162	60.55
657.491	60.57
657.821	60.62
658.15	60.66
658.48	60.67
658.809	60.7
659.139	60.57
659.468	60.59
659.798	60.63
660.127	60.67
660.456	60.6
660.785	60.58
661.115	60.64
661.444	60.63
661.773	60.63
662.102	60.57
662.431	60.63
662.76	60.59
663.089	60.55
