Data from BU56854_Reflection_00004.txt Node
Date: Mon Nov 18 16:26:47 EST 2019
User: vgr7
Spectrometer: USB2G7710
Scans to average: 3
Trigger mode: 4
Integration Time (sec): 2.000000E-2
Electric dark correction enabled: true
Boxcar width: 10
XAxis mode: Wavelengths
Number of Pixels in Spectrum: 2048
>>>>>Begin Spectral Data<<<<<
177.721	143.98
178.105	70.06
178.488	1804.92
178.871	28.98
179.254	3
179.636	80.68
180.019	53.24
180.402	72.73
180.785	-55.54
181.168	-19.14
181.55	-9.41
181.933	58.08
182.316	80.79
182.698	84.81
183.081	79.75
183.463	84.3
183.846	46.84
184.228	58.9
184.611	77.4
184.993	89.47
185.376	83.5
185.758	235.92
186.14	576.49
186.522	450.45
186.904	-728.9
187.287	-716.72
187.669	-313.35
188.051	-13782.35
188.433	-462.37
188.815	-181.81
189.197	-140.2
189.579	-97.75
189.961	-64.64
190.342	-75.73
190.724	-56.28
191.106	-61.17
191.488	-70.82
191.869	-76.12
192.251	-78.86
192.633	-63.76
193.014	-73.21
193.396	-84.06
193.777	-81.33
194.159	-78.77
194.54	-74.95
194.922	-88.56
195.303	-78.75
195.684	-68.08
196.065	-57.25
196.447	-75.64
196.828	-76.11
197.209	-87.72
197.59	-87.05
197.971	-94.11
198.352	-74.41
198.733	-88.55
199.114	-99.22
199.495	-77.34
199.876	-70.24
200.257	-63.95
200.638	-51.72
201.018	-50.17
201.399	-44.67
201.78	-46.39
202.16	-59.22
202.541	-86.57
202.922	-76.77
203.302	-91.23
203.683	-98.71
204.063	-123.57
204.444	-84.97
204.824	-121.43
205.204	-90.21
205.585	-92.67
205.965	-91.74
206.345	-102.88
206.725	-92.15
207.106	-88.66
207.486	-114.31
207.866	-108.94
208.246	-94.59
208.626	-129.9
209.006	-114.31
209.386	-230.03
209.766	-229.81
210.145	-188.97
210.525	-120.21
210.905	-108.32
211.285	-108.55
211.664	-104.74
212.044	-105.99
212.424	-110.92
212.803	-86.98
213.183	-80.79
213.562	-72.51
213.942	-64.04
214.321	-72.94
214.701	-81.93
215.08	-77.35
215.459	-72.15
215.838	-78.51
216.218	-94.79
216.597	-84.84
216.976	-76.76
217.355	-55.09
217.734	-60.85
218.113	-56.07
218.492	-56.76
218.871	-62.86
219.25	-49.24
219.629	-53.01
220.008	-49
220.387	-50.87
220.766	-57
221.144	-72.34
221.523	-75.89
221.902	-74.56
222.28	-79.18
222.659	-74.31
223.037	-72.64
223.416	-77.67
223.794	-76.02
224.173	-62.17
224.551	-53.32
224.929	-57.26
225.308	-46.54
225.686	-35.22
226.064	-29.1
226.442	-25.61
226.821	-20.3
227.199	-19.13
227.577	-18.61
227.955	-18.66
228.333	-15.83
228.711	-11.4
229.089	-5.82
229.467	-4.47
229.845	-3.77
230.222	-1.94
230.6	-1.47
230.978	-2.76
231.356	1.87
231.733	1.6
232.111	1.92
232.488	-0.83
232.866	0.29
233.243	-2.01
233.621	-3.34
233.998	-4.17
234.376	-5.21
234.753	-4.69
235.13	-4.26
235.508	-1.88
235.885	-1.85
236.262	-3.7
236.639	-4.35
237.016	-4.29
237.393	-2.18
237.77	-2.5
238.147	-1.53
238.524	-1.46
238.901	0.93
239.278	0.59
239.655	1.56
240.032	2.01
240.409	2.79
240.785	3.09
241.162	3.99
241.539	4.43
241.915	4.69
242.292	4.54
242.668	4.53
243.045	4.16
243.421	3.72
243.798	3.52
244.174	3.61
244.551	3.8
244.927	3.6
245.303	3.23
245.679	3.36
246.056	3.33
246.432	3.45
246.808	3.33
247.184	3.04
247.56	2.72
247.936	2.46
248.312	2.44
248.688	2.22
249.064	2.04
249.44	1.87
249.815	1.74
250.191	1.67
250.567	1.58
250.943	1.32
251.318	1.31
251.694	1.39
252.069	1.24
252.445	0.92
252.82	0.86
253.196	0.76
253.571	1.01
253.947	0.8
254.322	0.8
254.697	0.43
255.073	0.62
255.448	0.75
255.823	0.8
256.198	0.93
256.573	1.04
256.948	1.37
257.323	1.74
257.698	1.65
258.073	1.87
258.448	1.94
258.823	2.14
259.198	2.08
259.573	2.08
259.948	2.13
260.322	2.32
260.697	2.33
261.072	2.29
261.446	2.18
261.821	2.25
262.195	2.44
262.57	2.55
262.944	2.75
263.319	2.7
263.693	2.91
264.067	2.81
264.442	2.85
264.816	2.74
265.19	2.49
265.564	2.57
265.938	2.56
266.313	2.31
266.687	2.22
267.061	2.45
267.435	2.32
267.809	2.47
268.183	2.32
268.556	2.22
268.93	2.44
269.304	2.3
269.678	2.36
270.051	2.1
270.425	2.21
270.799	2.01
271.172	1.92
271.546	1.7
271.919	1.61
272.293	1.76
272.666	1.77
273.04	1.91
273.413	1.79
273.787	1.74
274.16	1.96
274.533	2.01
274.906	1.93
275.279	2.16
275.653	2.02
276.026	2.03
276.399	1.99
276.772	1.99
277.145	1.91
277.518	1.78
277.891	2.02
278.263	1.75
278.636	1.9
279.009	2.23
279.382	2.4
279.755	2.44
280.127	2.56
280.5	2.56
280.872	2.59
281.245	2.66
281.617	2.77
281.99	2.78
282.362	2.81
282.735	2.67
283.107	2.56
283.479	2.7
283.852	2.82
284.224	2.81
284.596	2.8
284.968	2.87
285.34	3.01
285.713	2.87
286.085	3.02
286.457	2.98
286.829	2.88
287.201	3.01
287.572	3.18
287.944	2.98
288.316	2.98
288.688	2.85
289.06	2.82
289.431	2.8
289.803	2.85
290.175	2.94
290.546	3.11
290.918	3.17
291.289	3.07
291.661	3.1
292.032	3.19
292.403	3.26
292.775	3.41
293.146	3.27
293.517	3.26
293.889	3.39
294.26	3.42
294.631	3.52
295.002	3.3
295.373	3.18
295.744	3.23
296.115	3.24
296.486	3.29
296.857	3.49
297.228	3.54
297.599	3.53
297.97	3.48
298.34	3.46
298.711	3.52
299.082	3.57
299.452	3.49
299.823	3.51
300.194	3.48
300.564	3.29
300.935	3.38
301.305	3.37
301.676	3.24
302.046	3.25
302.416	3.24
302.787	3.25
303.157	3.33
303.527	3.27
303.897	3.23
304.267	3.42
304.637	3.44
305.008	3.51
305.378	3.48
305.748	3.54
306.117	3.44
306.487	3.37
306.857	3.38
307.227	3.44
307.597	3.47
307.967	3.33
308.336	3.48
308.706	3.49
309.076	3.59
309.445	3.54
309.815	3.39
310.184	3.39
310.554	3.42
310.923	3.46
311.293	3.57
311.662	3.51
312.031	3.4
312.401	3.36
312.77	3.32
313.139	3.31
313.508	3.26
313.877	3.27
314.246	3.21
314.616	3.16
314.985	3.16
315.353	3.09
315.722	3.16
316.091	3.12
316.46	3.02
316.829	2.88
317.198	2.94
317.567	3.03
317.935	2.97
318.304	3.06
318.672	2.92
319.041	2.89
319.41	2.85
319.778	2.89
320.147	2.8
320.515	2.77
320.883	2.72
321.252	2.81
321.62	2.93
321.988	3.04
322.357	3.11
322.725	3.08
323.093	3.22
323.461	3.36
323.829	3.48
324.197	3.58
324.565	3.71
324.933	3.62
325.301	3.58
325.669	3.55
326.037	3.48
326.405	3.53
326.772	3.56
327.14	3.7
327.508	3.65
327.875	3.54
328.243	3.44
328.61	3.47
328.978	3.41
329.346	3.42
329.713	3.32
330.08	3.21
330.448	3.12
330.815	3.03
331.182	2.86
331.55	2.81
331.917	2.79
332.284	2.74
332.651	2.75
333.018	2.73
333.385	2.73
333.752	2.83
334.119	2.83
334.486	2.82
334.853	2.83
335.22	2.84
335.587	2.94
335.954	3.02
336.32	2.92
336.687	2.91
337.054	2.85
337.42	2.81
337.787	2.99
338.153	3.04
338.52	3.13
338.886	3.09
339.253	2.91
339.619	2.97
339.986	2.96
340.352	3.08
340.718	3.11
341.084	3.1
341.451	3.07
341.817	3.18
342.183	3.13
342.549	3.07
342.915	3.11
343.281	3.12
343.647	3.06
344.013	3.21
344.379	3.22
344.745	3.17
345.11	3.21
345.476	3.19
345.842	3.18
346.208	3.15
346.573	3.21
346.939	3.37
347.304	3.25
347.67	3.16
348.035	3.11
348.401	3.1
348.766	3.13
349.132	3.11
349.497	2.94
349.862	3.06
350.228	3.09
350.593	3.09
350.958	3.16
351.323	3.21
351.688	3.19
352.053	3.25
352.418	3.34
352.783	3.34
353.148	3.28
353.513	3.32
353.878	3.21
354.243	3.23
354.608	3.15
354.972	3.2
355.337	3.26
355.702	3.33
356.066	3.45
356.431	3.42
356.795	3.47
357.16	3.45
357.524	3.38
357.889	3.35
358.253	3.33
358.618	3.28
358.982	3.28
359.346	3.21
359.71	3.13
360.075	3.07
360.439	3.15
360.803	3.15
361.167	3.11
361.531	3.17
361.895	3.16
362.259	3.2
362.623	3.22
362.987	3.25
363.351	3.18
363.714	3.15
364.078	3.13
364.442	3.08
364.806	3.14
365.169	3.13
365.533	3.1
365.896	3.12
366.26	3.16
366.623	3.11
366.987	3.14
367.35	3.17
367.714	3.18
368.077	3.05
368.44	3.1
368.803	3.12
369.167	3.02
369.53	2.98
369.893	3.01
370.256	2.96
370.619	2.92
370.982	2.85
371.345	2.81
371.708	2.83
372.071	2.87
372.434	2.9
372.797	2.95
373.159	2.96
373.522	2.93
373.885	2.9
374.247	2.99
374.61	2.98
374.973	2.96
375.335	2.97
375.698	3.05
376.06	3.05
376.423	3.04
376.785	3.11
377.147	3.17
377.51	3.13
377.872	3.15
378.234	3.21
378.596	3.29
378.958	3.26
379.321	3.27
379.683	3.27
380.045	3.22
380.407	3.15
380.769	3.13
381.13	3.13
381.492	3.07
381.854	2.99
382.216	3.01
382.578	3.04
382.939	3
383.301	2.95
383.663	2.94
384.024	2.95
384.386	2.99
384.747	2.95
385.109	2.99
385.47	2.95
385.832	2.93
386.193	2.89
386.554	2.91
386.916	2.87
387.277	2.87
387.638	2.92
387.999	2.91
388.36	2.93
388.721	2.97
389.082	3.04
389.443	3.06
389.804	3.02
390.165	2.99
390.526	3.03
390.887	3.01
391.248	3.02
391.609	3
391.969	3
392.33	3
392.691	2.94
393.051	2.96
393.412	2.97
393.772	2.97
394.133	2.96
394.493	2.97
394.854	2.96
395.214	2.93
395.574	2.97
395.935	2.96
396.295	2.94
396.655	2.91
397.015	2.9
397.376	2.93
397.736	2.97
398.096	2.98
398.456	3.02
398.816	2.99
399.176	2.99
399.535	2.94
399.895	2.93
400.255	2.94
400.615	2.98
400.975	2.98
401.334	2.97
401.694	2.96
402.054	2.97
402.413	2.94
402.773	2.92
403.132	2.92
403.492	2.91
403.851	2.9
404.211	2.92
404.57	2.92
404.929	2.93
405.288	2.89
405.648	2.89
406.007	2.88
406.366	2.9
406.725	2.93
407.084	2.97
407.443	2.97
407.802	2.98
408.161	2.95
408.52	2.95
408.879	2.94
409.238	2.97
409.596	2.98
409.955	2.99
410.314	3.03
410.673	3.01
411.031	3.02
411.39	3.01
411.748	3
412.107	2.98
412.465	2.98
412.824	2.97
413.182	2.97
413.54	2.96
413.899	2.94
414.257	2.92
414.615	2.9
414.974	2.93
415.332	2.9
415.69	2.89
416.048	2.86
416.406	2.87
416.764	2.87
417.122	2.86
417.48	2.87
417.838	2.85
418.195	2.87
418.553	2.86
418.911	2.87
419.269	2.87
419.626	2.87
419.984	2.86
420.342	2.88
420.699	2.87
421.057	2.9
421.414	2.9
421.772	2.91
422.129	2.92
422.486	2.9
422.844	2.9
423.201	2.89
423.558	2.9
423.915	2.89
424.273	2.89
424.63	2.9
424.987	2.89
425.344	2.89
425.701	2.88
426.058	2.89
426.415	2.89
426.772	2.89
427.128	2.88
427.485	2.9
427.842	2.87
428.199	2.87
428.555	2.83
428.912	2.83
429.269	2.82
429.625	2.78
429.982	2.8
430.338	2.79
430.695	2.81
431.051	2.82
431.407	2.83
431.764	2.82
432.12	2.8
432.476	2.81
432.832	2.8
433.189	2.82
433.545	2.82
433.901	2.83
434.257	2.81
434.613	2.8
434.969	2.79
435.325	2.8
435.681	2.82
436.036	2.82
436.392	2.82
436.748	2.82
437.104	2.82
437.459	2.82
437.815	2.84
438.171	2.83
438.526	2.84
438.882	2.85
439.237	2.85
439.593	2.85
439.948	2.86
440.304	2.87
440.659	2.85
441.014	2.85
441.369	2.82
441.725	2.82
442.08	2.84
442.435	2.85
442.79	2.84
443.145	2.85
443.5	2.85
443.855	2.86
444.21	2.86
444.565	2.88
444.92	2.89
445.275	2.87
445.629	2.86
445.984	2.86
446.339	2.85
446.693	2.84
447.048	2.84
447.403	2.83
447.757	2.82
448.112	2.8
448.466	2.8
448.82	2.82
449.175	2.82
449.529	2.81
449.883	2.8
450.238	2.8
450.592	2.78
450.946	2.76
451.3	2.74
451.654	2.74
452.008	2.74
452.362	2.73
452.716	2.72
453.07	2.72
453.424	2.72
453.778	2.72
454.132	2.71
454.486	2.71
454.839	2.7
455.193	2.7
455.547	2.73
455.9	2.74
456.254	2.76
456.607	2.78
456.961	2.77
457.314	2.76
457.668	2.76
458.021	2.75
458.375	2.76
458.728	2.78
459.081	2.77
459.434	2.76
459.787	2.75
460.141	2.76
460.494	2.77
460.847	2.78
461.2	2.77
461.553	2.79
461.906	2.8
462.259	2.83
462.611	2.84
462.964	2.84
463.317	2.83
463.67	2.83
464.022	2.82
464.375	2.83
464.728	2.84
465.08	2.84
465.433	2.86
465.785	2.86
466.138	2.86
466.49	2.86
466.843	2.87
467.195	2.88
467.547	2.89
467.899	2.9
468.252	2.89
468.604	2.91
468.956	2.89
469.308	2.87
469.66	2.86
470.012	2.87
470.364	2.85
470.716	2.84
471.068	2.84
471.42	2.86
471.772	2.88
472.123	2.91
472.475	2.93
472.827	2.93
473.178	2.93
473.53	2.94
473.882	2.92
474.233	2.94
474.585	2.93
474.936	2.91
475.288	2.91
475.639	2.92
475.99	2.91
476.342	2.92
476.693	2.94
477.044	2.94
477.395	2.94
477.746	2.94
478.097	2.95
478.448	2.93
478.8	2.92
479.15	2.9
479.501	2.88
479.852	2.88
480.203	2.87
480.554	2.88
480.905	2.88
481.255	2.91
481.606	2.9
481.957	2.92
482.307	2.92
482.658	2.92
483.009	2.91
483.359	2.91
483.709	2.92
484.06	2.91
484.41	2.92
484.761	2.91
485.111	2.91
485.461	2.92
485.811	2.93
486.162	2.92
486.512	2.93
486.862	2.94
487.212	2.94
487.562	2.95
487.912	2.94
488.262	2.94
488.612	2.93
488.961	2.93
489.311	2.93
489.661	2.93
490.011	2.94
490.36	2.95
490.71	2.95
491.06	2.95
491.409	2.96
491.759	2.95
492.108	2.96
492.458	2.96
492.807	2.96
493.157	2.96
493.506	2.98
493.855	2.98
494.204	2.97
494.554	2.97
494.903	2.96
495.252	2.96
495.601	2.98
495.95	2.98
496.299	2.98
496.648	2.97
496.997	2.98
497.346	2.97
497.695	2.99
498.043	3
498.392	3
498.741	3
499.09	2.99
499.438	3.01
499.787	3.03
500.135	3.03
500.484	3.05
500.832	3.06
501.181	3.07
501.529	3.07
501.878	3.07
502.226	3.09
502.574	3.1
502.923	3.12
503.271	3.12
503.619	3.14
503.967	3.14
504.315	3.15
504.663	3.16
505.011	3.15
505.359	3.15
505.707	3.16
506.055	3.15
506.403	3.17
506.751	3.16
507.098	3.14
507.446	3.15
507.794	3.12
508.141	3.12
508.489	3.11
508.837	3.12
509.184	3.14
509.531	3.15
509.879	3.16
510.226	3.16
510.574	3.15
510.921	3.15
511.268	3.15
511.616	3.17
511.963	3.17
512.31	3.18
512.657	3.2
513.004	3.2
513.351	3.23
513.698	3.23
514.045	3.23
514.392	3.24
514.739	3.21
515.086	3.23
515.432	3.24
515.779	3.26
516.126	3.27
516.473	3.27
516.819	3.28
517.166	3.26
517.512	3.24
517.859	3.25
518.205	3.26
518.552	3.27
518.898	3.24
519.245	3.23
519.591	3.21
519.937	3.21
520.283	3.21
520.629	3.22
520.976	3.24
521.322	3.25
521.668	3.27
522.014	3.3
522.36	3.32
522.706	3.32
523.052	3.32
523.398	3.32
523.743	3.32
524.089	3.3
524.435	3.3
524.781	3.32
525.126	3.31
525.472	3.32
525.817	3.33
526.163	3.35
526.509	3.36
526.854	3.37
527.199	3.37
527.545	3.38
527.89	3.37
528.235	3.38
528.581	3.38
528.926	3.37
529.271	3.36
529.616	3.36
529.961	3.35
530.306	3.35
530.651	3.34
530.996	3.35
531.341	3.36
531.686	3.38
532.031	3.38
532.376	3.39
532.721	3.39
533.065	3.38
533.41	3.38
533.755	3.38
534.099	3.38
534.444	3.37
534.788	3.38
535.133	3.38
535.477	3.36
535.822	3.38
536.166	3.38
536.51	3.39
536.855	3.39
537.199	3.39
537.543	3.39
537.887	3.4
538.231	3.39
538.576	3.4
538.92	3.39
539.264	3.38
539.608	3.38
539.951	3.39
540.295	3.39
540.639	3.39
540.983	3.39
541.327	3.39
541.671	3.39
542.014	3.39
542.358	3.4
542.701	3.4
543.045	3.41
543.389	3.43
543.732	3.43
544.075	3.42
544.419	3.42
544.762	3.43
545.105	3.43
545.449	3.43
545.792	3.4
546.135	3.41
546.478	3.43
546.821	3.41
547.165	3.42
547.508	3.44
547.851	3.45
548.194	3.43
548.536	3.45
548.879	3.45
549.222	3.45
549.565	3.44
549.908	3.44
550.25	3.42
550.593	3.41
550.936	3.38
551.278	3.37
551.621	3.4
551.963	3.4
552.306	3.4
552.648	3.39
552.991	3.42
553.333	3.4
553.675	3.4
554.017	3.43
554.36	3.41
554.702	3.41
555.044	3.38
555.386	3.42
555.728	3.41
556.07	3.4
556.412	3.39
556.754	3.39
557.096	3.39
557.438	3.38
557.78	3.37
558.121	3.41
558.463	3.44
558.805	3.45
559.147	3.42
559.488	3.4
559.83	3.43
560.171	3.42
560.513	3.45
560.854	3.45
561.196	3.46
561.537	3.46
561.878	3.42
562.22	3.39
562.561	3.34
562.902	3.36
563.243	3.36
563.584	3.36
563.925	3.37
564.266	3.35
564.607	3.34
564.948	3.36
565.289	3.35
565.63	3.34
565.971	3.34
566.312	3.37
566.653	3.4
566.993	3.38
567.334	3.4
567.675	3.4
568.015	3.42
568.356	3.41
568.696	3.42
569.037	3.45
569.377	3.5
569.718	3.53
570.058	3.52
570.398	3.51
570.739	3.53
571.079	3.56
571.419	3.56
571.759	3.6
572.099	3.59
572.439	3.59
572.779	3.55
573.119	3.54
573.459	3.52
573.799	3.55
574.139	3.56
574.479	3.55
574.819	3.55
575.158	3.52
575.498	3.5
575.838	3.5
576.177	3.51
576.517	3.5
576.856	3.48
577.196	3.48
577.535	3.49
577.875	3.52
578.214	3.48
578.553	3.51
578.893	3.47
579.232	3.48
579.571	3.48
579.91	3.56
580.25	3.54
580.589	3.53
580.928	3.53
581.267	3.53
581.606	3.51
581.945	3.53
582.283	3.54
582.622	3.53
582.961	3.55
583.3	3.52
583.639	3.54
583.977	3.59
584.316	3.58
584.654	3.57
584.993	3.55
585.332	3.55
585.67	3.55
586.008	3.55
586.347	3.54
586.685	3.56
587.024	3.49
587.362	3.52
587.7	3.56
588.038	3.54
588.376	3.53
588.715	3.54
589.053	3.52
589.391	3.54
589.729	3.57
590.067	3.51
590.404	3.55
590.742	3.51
591.08	3.5
591.418	3.52
591.756	3.55
592.093	3.55
592.431	3.53
592.769	3.51
593.106	3.53
593.444	3.53
593.781	3.52
594.119	3.59
594.456	3.57
594.793	3.58
595.131	3.59
595.468	3.61
595.805	3.59
596.143	3.58
596.48	3.61
596.817	3.61
597.154	3.65
597.491	3.65
597.828	3.67
598.165	3.66
598.502	3.65
598.839	3.61
599.176	3.62
599.512	3.65
599.849	3.68
600.186	3.67
600.523	3.67
600.859	3.68
601.196	3.63
601.532	3.64
601.869	3.6
602.205	3.59
602.542	3.59
602.878	3.61
603.215	3.62
603.551	3.6
603.887	3.58
604.223	3.56
604.56	3.56
604.896	3.55
605.232	3.52
605.568	3.52
605.904	3.53
606.24	3.56
606.576	3.55
606.912	3.56
607.248	3.53
607.583	3.53
607.919	3.5
608.255	3.49
608.591	3.52
608.926	3.58
609.262	3.59
609.597	3.58
609.933	3.6
610.268	3.61
610.604	3.59
610.939	3.61
611.275	3.64
611.61	3.62
611.945	3.65
612.281	3.68
612.616	3.7
612.951	3.73
613.286	3.69
613.621	3.68
613.956	3.66
614.291	3.7
614.626	3.76
614.961	3.79
615.296	3.77
615.631	3.79
615.966	3.73
616.3	3.74
616.635	3.76
616.97	3.74
617.304	3.72
617.639	3.75
617.973	3.75
618.308	3.68
618.642	3.69
618.977	3.68
619.311	3.67
619.646	3.66
619.98	3.64
620.314	3.63
620.648	3.66
620.983	3.62
621.317	3.62
621.651	3.56
621.985	3.59
622.319	3.68
622.653	3.66
622.987	3.67
623.321	3.66
623.655	3.63
623.988	3.65
624.322	3.64
624.656	3.61
624.99	3.63
625.323	3.7
625.657	3.67
625.99	3.68
626.324	3.7
626.657	3.72
626.991	3.73
627.324	3.75
627.658	3.73
627.991	3.79
628.324	3.8
628.657	3.82
628.991	3.79
629.324	3.76
629.657	3.78
629.99	3.8
630.323	3.81
630.656	3.85
630.989	3.88
631.322	3.94
631.655	3.98
631.987	3.96
632.32	3.96
632.653	3.98
632.986	4
633.318	4
633.651	3.99
633.984	3.99
634.316	3.94
634.649	3.9
634.981	3.85
635.313	3.82
635.646	3.84
635.978	3.85
636.31	3.85
636.643	3.77
636.975	3.74
637.307	3.78
637.639	3.79
637.971	3.74
638.303	3.65
638.635	3.57
638.967	3.55
639.299	3.53
639.631	3.48
639.963	3.45
640.295	3.47
640.626	3.45
640.958	3.47
641.29	3.52
641.621	3.54
641.953	3.54
642.285	3.61
642.616	3.56
642.948	3.53
643.279	3.51
643.61	3.5
643.942	3.5
644.273	3.5
644.604	3.5
644.936	3.48
645.267	3.51
645.598	3.53
645.929	3.59
646.26	3.62
646.591	3.65
646.922	3.56
647.253	3.59
647.584	3.59
647.915	3.58
648.245	3.56
648.576	3.59
648.907	3.59
649.238	3.53
649.568	3.57
649.899	3.64
650.229	3.7
650.56	3.73
650.89	3.75
651.221	3.66
651.551	3.65
651.882	3.71
652.212	3.75
652.542	3.76
652.872	3.71
653.203	3.72
653.533	3.77
653.863	3.83
654.193	3.82
654.523	3.81
654.853	3.84
655.183	3.86
655.513	3.9
655.843	3.96
656.172	4
656.502	3.96
656.832	3.9
657.162	3.92
657.491	3.91
657.821	3.83
658.15	3.87
658.48	3.81
658.809	3.76
659.139	3.78
659.468	3.81
659.798	3.79
660.127	3.79
660.456	3.77
660.785	3.77
661.115	3.75
661.444	3.76
661.773	3.78
662.102	3.72
662.431	3.76
662.76	3.77
663.089	3.72
663.418	3.7
663.747	3.75
664.076	3.66
664.404	3.65
664.733	3.82
665.062	3.82
665.39	3.91
665.719	3.97
666.048	4.03
666.376	4.02
666.705	4.02
667.033	3.97
667.362	3.98
667.69	3.98
668.018	4
668.347	4.02
668.675	4.01
669.003	4.12
669.331	4.1
669.659	4
669.987	3.97
670.315	4.01
670.643	3.97
670.971	4.02
671.299	4.04
671.627	4.01
671.955	4.03
672.283	3.99
672.61	3.97
672.938	3.93
673.266	3.91
673.593	4.09
673.921	4.15
674.249	4.05
674.576	4.06
674.904	3.99
675.231	3.98
675.558	3.91
675.886	3.89
676.213	3.79
676.54	3.87
676.867	4.01
