Data from BU56854_Reflection_00010.txt Node
Date: Mon Nov 18 16:27:02 EST 2019
User: vgr7
Spectrometer: USB2G7710
Scans to average: 3
Trigger mode: 4
Integration Time (sec): 2.000000E-2
Electric dark correction enabled: true
Boxcar width: 10
XAxis mode: Wavelengths
Number of Pixels in Spectrum: 2048
>>>>>Begin Spectral Data<<<<<
177.721	-175.55
178.105	-169.46
178.488	-834.43
178.871	-138.64
179.254	-101.14
179.636	48.74
180.019	-11.58
180.402	90.91
180.785	73.16
181.168	105.63
181.55	73.45
181.933	88.28
182.316	113.78
182.698	109.38
183.081	156.2
183.463	152.16
183.846	121.36
184.228	117.85
184.611	119.16
184.993	149.37
185.376	151.76
185.758	353.81
186.14	805.33
186.522	797.89
186.904	-915.21
187.287	-1028.62
187.669	-276.79
188.051	-13488.24
188.433	-375.69
188.815	-96.26
189.197	-58.68
189.579	-38.88
189.961	-17.18
190.342	-30.72
190.724	-38.43
191.106	-24
191.488	-19.92
191.869	-10.53
192.251	-27.94
192.633	-25.88
193.014	-34.43
193.396	-39.07
193.777	-32.34
194.159	-28.04
194.54	-13.27
194.922	-29.17
195.303	-7.85
195.684	-3.33
196.065	5.35
196.447	0.46
196.828	0.23
197.209	-1
197.59	-1.55
197.971	-0.51
198.352	14.63
198.733	22.92
199.114	27.76
199.495	22.16
199.876	22.33
200.257	32.6
200.638	40.96
201.018	47.68
201.399	54.29
201.78	66.51
202.16	61.81
202.541	77.97
202.922	82.87
203.302	76.18
203.683	66.32
204.063	62.49
204.444	53.45
204.824	50.18
205.204	45.45
205.585	59.33
205.965	38.37
206.345	34.72
206.725	5.01
207.106	3.39
207.486	-6.8
207.866	-34.14
208.246	-39.28
208.626	-64.93
209.006	-49.71
209.386	-104.66
209.766	-99.75
210.145	-20.24
210.525	-13.54
210.905	-6.39
211.285	2.2
211.664	11.95
212.044	11.62
212.424	10.35
212.803	12.82
213.183	14.86
213.562	16.18
213.942	29.26
214.321	32.45
214.701	43.35
215.08	33.21
215.459	37.11
215.838	44.83
216.218	48.87
216.597	53.6
216.976	41.98
217.355	36.52
217.734	27.86
218.113	15.18
218.492	20.16
218.871	14.19
219.25	12.63
219.629	3.72
220.008	3.93
220.387	6.99
220.766	4.8
221.144	-2.96
221.523	-9.97
221.902	-15.72
222.28	-15.65
222.659	-14.69
223.037	-3.15
223.416	1.59
223.794	-0.36
224.173	-3.55
224.551	2.42
224.929	10.32
225.308	16.06
225.686	10.86
226.064	7.64
226.442	6.41
226.821	7.46
227.199	5.67
227.577	5.49
227.955	6.45
228.333	5.31
228.711	4.72
229.089	10.04
229.467	9.57
229.845	10.77
230.222	7.39
230.6	7.52
230.978	5.73
231.356	7
231.733	7.83
232.111	8.44
232.488	8.15
232.866	4.56
233.243	2.92
233.621	2.6
233.998	4.69
234.376	4.88
234.753	6.01
235.13	6.1
235.508	8.11
235.885	7.18
236.262	5.43
236.639	4.93
237.016	2.85
237.393	4.39
237.77	3.77
238.147	4.04
238.524	3.66
238.901	4
239.278	3.89
239.655	3.92
240.032	4.42
240.409	4.47
240.785	4.98
241.162	5.25
241.539	5.4
241.915	5.04
242.292	4.39
242.668	4.04
243.045	4.52
243.421	4.05
243.798	4.31
244.174	4.44
244.551	4.57
244.927	4.63
245.303	4.33
245.679	4.21
246.056	4.24
246.432	4.22
246.808	4.09
247.184	3.73
247.56	3.5
247.936	3.34
248.312	3.1
248.688	3.19
249.064	3.07
249.44	3.07
249.815	3.1
250.191	3.19
250.567	3.19
250.943	2.96
251.318	2.89
251.694	2.7
252.069	2.72
252.445	2.83
252.82	2.81
253.196	2.72
253.571	2.88
253.947	3.04
254.322	3.28
254.697	3.21
255.073	3.06
255.448	3.13
255.823	3.06
256.198	3.14
256.573	3.09
256.948	3.33
257.323	3.31
257.698	3.17
258.073	3.18
258.448	3.16
258.823	2.96
259.198	2.78
259.573	2.83
259.948	2.79
260.322	2.75
260.697	2.64
261.072	2.59
261.446	2.6
261.821	2.5
262.195	2.55
262.57	2.53
262.944	2.61
263.319	2.52
263.693	2.5
264.067	2.58
264.442	2.54
264.816	2.36
265.19	2.38
265.564	2.52
265.938	2.54
266.313	2.66
266.687	2.88
267.061	3.13
267.435	3.17
267.809	3.05
268.183	3.08
268.556	3.14
268.93	3.2
269.304	3.09
269.678	3.3
270.051	3.1
270.425	3
270.799	3.1
271.172	3.33
271.546	3.25
271.919	3.21
272.293	3.09
272.666	3.11
273.04	3.01
273.413	2.85
273.787	2.76
274.16	2.76
274.533	2.79
274.906	2.73
275.279	2.62
275.653	2.62
276.026	2.5
276.399	2.53
276.772	2.58
277.145	2.64
277.518	2.72
277.891	2.92
278.263	3.1
278.636	3.05
279.009	3
279.382	3.19
279.755	3.13
280.127	3.32
280.5	3.43
280.872	3.64
281.245	3.6
281.617	3.82
281.99	3.87
282.362	3.9
282.735	3.9
283.107	3.92
283.479	3.98
283.852	4.06
284.224	4.06
284.596	3.88
284.968	3.98
285.34	3.86
285.713	3.72
286.085	3.74
286.457	3.77
286.829	3.78
287.201	3.73
287.572	3.7
287.944	3.63
288.316	3.55
288.688	3.53
289.06	3.56
289.431	3.4
289.803	3.35
290.175	3.2
290.546	3.29
290.918	3.24
291.289	3.27
291.661	3.27
292.032	3.24
292.403	3.44
292.775	3.42
293.146	3.36
293.517	3.42
293.889	3.44
294.26	3.43
294.631	3.46
295.002	3.56
295.373	3.54
295.744	3.59
296.115	3.59
296.486	3.46
296.857	3.52
297.228	3.69
297.599	3.66
297.97	3.69
298.34	3.61
298.711	3.78
299.082	3.86
299.452	3.94
299.823	4.07
300.194	4.05
300.564	3.95
300.935	4.06
301.305	4.06
301.676	4.15
302.046	4.3
302.416	4.51
302.787	4.51
303.157	4.62
303.527	4.63
303.897	4.79
304.267	5.03
304.637	5.09
305.008	5.19
305.378	5.26
305.748	5.32
306.117	5.41
306.487	5.41
306.857	5.36
307.227	5.41
307.597	5.3
307.967	5.37
308.336	5.61
308.706	5.7
309.076	5.89
309.445	5.88
309.815	5.88
310.184	5.83
310.554	5.81
310.923	5.86
311.293	6
311.662	5.94
312.031	5.9
312.401	6.03
312.77	6.01
313.139	6.31
313.508	6.51
313.877	6.47
314.246	6.49
314.616	6.61
314.985	6.66
315.353	6.74
315.722	6.77
316.091	6.69
316.46	6.66
316.829	6.75
317.198	6.8
317.567	6.73
317.935	6.56
318.304	6.61
318.672	6.7
319.041	6.82
319.41	6.97
319.778	7.12
320.147	7.11
320.515	7.07
320.883	6.87
321.252	6.88
321.62	6.96
321.988	6.94
322.357	6.92
322.725	6.78
323.093	6.89
323.461	6.89
323.829	7.01
324.197	6.97
324.565	6.91
324.933	7.02
325.301	7.11
325.669	7.22
326.037	7.39
326.405	7.5
326.772	7.42
327.14	7.43
327.508	7.52
327.875	7.46
328.243	7.51
328.61	7.56
328.978	7.61
329.346	7.77
329.713	7.88
330.08	7.96
330.448	8.03
330.815	7.97
331.182	8.06
331.55	8.06
331.917	8.29
332.284	8.44
332.651	8.42
333.018	8.49
333.385	8.48
333.752	8.51
334.119	8.52
334.486	8.53
334.853	8.54
335.22	8.53
335.587	8.48
335.954	8.49
336.32	8.55
336.687	8.64
337.054	8.53
337.42	8.59
337.787	8.66
338.153	8.76
338.52	8.87
338.886	8.82
339.253	8.74
339.619	8.7
339.986	8.7
340.352	8.79
340.718	8.87
341.084	8.91
341.451	8.9
341.817	8.89
342.183	8.71
342.549	8.71
342.915	8.55
343.281	8.77
343.647	8.83
344.013	8.76
344.379	8.69
344.745	8.94
345.11	8.88
345.476	8.89
345.842	8.81
346.208	8.77
346.573	8.83
346.939	8.98
347.304	8.83
347.67	8.78
348.035	8.8
348.401	8.72
348.766	8.8
349.132	8.77
349.497	8.8
349.862	9.02
350.228	9.14
350.593	9.2
350.958	9.08
351.323	9.09
351.688	9.09
352.053	9.11
352.418	9.08
352.783	9.13
353.148	9.12
353.513	9.18
353.878	9.21
354.243	9.38
354.608	9.36
354.972	9.51
355.337	9.56
355.702	9.53
356.066	9.57
356.431	9.46
356.795	9.51
357.16	9.39
357.524	9.31
357.889	9.21
358.253	9.28
358.618	9.29
358.982	9.23
359.346	9.15
359.71	9.14
360.075	9.01
360.439	9.02
360.803	8.93
361.167	8.93
361.531	8.92
361.895	8.79
362.259	8.71
362.623	8.7
362.987	8.59
363.351	8.57
363.714	8.52
364.078	8.58
364.442	8.51
364.806	8.52
365.169	8.52
365.533	8.5
365.896	8.42
366.26	8.35
366.623	8.35
366.987	8.32
367.35	8.28
367.714	8.29
368.077	8.22
368.44	8.22
368.803	8.14
369.167	8.09
369.53	8.04
369.893	8.09
370.256	8
370.619	7.96
370.982	7.87
371.345	7.77
371.708	7.7
372.071	7.61
372.434	7.52
372.797	7.44
373.159	7.34
373.522	7.27
373.885	7.27
374.247	7.21
374.61	7.2
374.973	7.06
375.335	7.05
375.698	6.95
376.06	6.85
376.423	6.79
376.785	6.73
377.147	6.71
377.51	6.65
377.872	6.59
378.234	6.59
378.596	6.55
378.958	6.51
379.321	6.42
379.683	6.38
380.045	6.36
380.407	6.29
380.769	6.24
381.13	6.22
381.492	6.11
381.854	6.07
382.216	6.01
382.578	6.02
382.939	5.86
383.301	5.77
383.663	5.67
384.024	5.66
384.386	5.6
384.747	5.56
385.109	5.47
385.47	5.39
385.832	5.32
386.193	5.27
386.554	5.21
386.916	5.21
387.277	5.15
387.638	5.08
387.999	5.04
388.36	5.07
388.721	5.02
389.082	5.01
389.443	4.92
389.804	4.87
390.165	4.81
390.526	4.81
390.887	4.79
391.248	4.85
391.609	4.78
391.969	4.73
392.33	4.67
392.691	4.67
393.051	4.62
393.412	4.58
393.772	4.54
394.133	4.5
394.493	4.45
394.854	4.41
395.214	4.38
395.574	4.36
395.935	4.27
396.295	4.26
396.655	4.2
397.015	4.14
397.376	4.08
397.736	4.06
398.096	4.04
398.456	4
398.816	3.93
399.176	3.93
399.535	3.91
399.895	3.88
400.255	3.84
400.615	3.83
400.975	3.82
401.334	3.79
401.694	3.79
402.054	3.74
402.413	3.74
402.773	3.69
403.132	3.66
403.492	3.63
403.851	3.61
404.211	3.61
404.57	3.63
404.929	3.64
405.288	3.65
405.648	3.6
406.007	3.61
406.366	3.59
406.725	3.61
407.084	3.57
407.443	3.51
407.802	3.48
408.161	3.46
408.52	3.43
408.879	3.41
409.238	3.37
409.596	3.39
409.955	3.4
410.314	3.41
410.673	3.39
411.031	3.39
411.39	3.36
411.748	3.34
412.107	3.33
412.465	3.31
412.824	3.27
413.182	3.26
413.54	3.25
413.899	3.27
414.257	3.23
414.615	3.24
414.974	3.26
415.332	3.26
415.69	3.23
416.048	3.2
416.406	3.18
416.764	3.19
417.122	3.16
417.48	3.13
417.838	3.14
418.195	3.14
418.553	3.12
418.911	3.1
419.269	3.1
419.626	3.08
419.984	3.06
420.342	3.05
420.699	3.03
421.057	3
421.414	2.98
421.772	2.97
422.129	2.97
422.486	2.94
422.844	2.92
423.201	2.91
423.558	2.92
423.915	2.91
424.273	2.91
424.63	2.88
424.987	2.86
425.344	2.85
425.701	2.84
426.058	2.84
426.415	2.84
426.772	2.83
427.128	2.82
427.485	2.82
427.842	2.8
428.199	2.81
428.555	2.8
428.912	2.79
429.269	2.78
429.625	2.75
429.982	2.74
430.338	2.77
430.695	2.77
431.051	2.74
431.407	2.73
431.764	2.73
432.12	2.73
432.476	2.73
432.832	2.7
433.189	2.69
433.545	2.67
433.901	2.65
434.257	2.65
434.613	2.64
434.969	2.65
435.325	2.65
435.681	2.64
436.036	2.66
436.392	2.68
436.748	2.65
437.104	2.64
437.459	2.64
437.815	2.63
438.171	2.63
438.526	2.64
438.882	2.64
439.237	2.65
439.593	2.65
439.948	2.66
440.304	2.67
440.659	2.69
441.014	2.7
441.369	2.7
441.725	2.7
442.08	2.69
442.435	2.69
442.79	2.7
443.145	2.7
443.5	2.68
443.855	2.66
444.21	2.68
444.565	2.7
444.92	2.71
445.275	2.7
445.629	2.72
445.984	2.71
446.339	2.7
446.693	2.68
447.048	2.69
447.403	2.68
447.757	2.68
448.112	2.66
448.466	2.65
448.82	2.63
449.175	2.64
449.529	2.65
449.883	2.62
450.238	2.61
450.592	2.6
450.946	2.59
451.3	2.6
451.654	2.59
452.008	2.57
452.362	2.54
452.716	2.53
453.07	2.52
453.424	2.52
453.778	2.53
454.132	2.53
454.486	2.52
454.839	2.5
455.193	2.46
455.547	2.46
455.9	2.48
456.254	2.48
456.607	2.48
456.961	2.46
457.314	2.48
457.668	2.47
458.021	2.49
458.375	2.5
458.728	2.51
459.081	2.51
459.434	2.51
459.787	2.52
460.141	2.52
460.494	2.52
460.847	2.53
461.2	2.51
461.553	2.52
461.906	2.53
462.259	2.56
462.611	2.59
462.964	2.61
463.317	2.62
463.67	2.64
464.022	2.66
464.375	2.68
464.728	2.69
465.08	2.7
465.433	2.7
465.785	2.68
466.138	2.68
466.49	2.7
466.843	2.71
467.195	2.72
467.547	2.74
467.899	2.71
468.252	2.72
468.604	2.73
468.956	2.74
469.308	2.74
469.66	2.74
470.012	2.75
470.364	2.74
470.716	2.74
471.068	2.73
471.42	2.72
471.772	2.75
472.123	2.76
472.475	2.77
472.827	2.78
473.178	2.83
473.53	2.82
473.882	2.81
474.233	2.82
474.585	2.81
474.936	2.81
475.288	2.84
475.639	2.85
475.99	2.86
476.342	2.88
476.693	2.88
477.044	2.89
477.395	2.87
477.746	2.88
478.097	2.86
478.448	2.86
478.8	2.84
479.15	2.8
479.501	2.78
479.852	2.78
480.203	2.77
480.554	2.75
480.905	2.76
481.255	2.75
481.606	2.74
481.957	2.75
482.307	2.75
482.658	2.74
483.009	2.72
483.359	2.72
483.709	2.72
484.06	2.72
484.41	2.72
484.761	2.72
485.111	2.71
485.461	2.71
485.811	2.7
486.162	2.71
486.512	2.72
486.862	2.72
487.212	2.72
487.562	2.73
487.912	2.73
488.262	2.73
488.612	2.74
488.961	2.75
489.311	2.74
489.661	2.75
490.011	2.75
490.36	2.76
490.71	2.77
491.06	2.77
491.409	2.78
491.759	2.79
492.108	2.8
492.458	2.82
492.807	2.82
493.157	2.84
493.506	2.84
493.855	2.86
494.204	2.87
494.554	2.88
494.903	2.89
495.252	2.9
495.601	2.93
495.95	2.96
496.299	2.97
496.648	3.01
496.997	3.02
497.346	3.06
497.695	3.09
498.043	3.11
498.392	3.13
498.741	3.15
499.09	3.17
499.438	3.19
499.787	3.21
500.135	3.26
500.484	3.3
500.832	3.33
501.181	3.36
501.529	3.41
501.878	3.48
502.226	3.51
502.574	3.55
502.923	3.58
503.271	3.62
503.619	3.68
503.967	3.72
504.315	3.77
504.663	3.84
505.011	3.87
505.359	3.93
505.707	3.99
506.055	4.04
506.403	4.12
506.751	4.2
507.098	4.29
507.446	4.36
507.794	4.42
508.141	4.49
508.489	4.56
508.837	4.64
509.184	4.72
509.531	4.8
509.879	4.9
510.226	5
510.574	5.07
510.921	5.15
511.268	5.22
511.616	5.33
511.963	5.42
512.31	5.53
512.657	5.65
513.004	5.77
513.351	5.87
513.698	5.99
514.045	6.09
514.392	6.22
514.739	6.35
515.086	6.48
515.432	6.61
515.779	6.74
516.126	6.88
516.473	7
516.819	7.14
517.166	7.25
517.512	7.36
517.859	7.5
518.205	7.62
518.552	7.74
518.898	7.86
519.245	7.97
519.591	8.09
519.937	8.19
520.283	8.31
520.629	8.47
520.976	8.61
521.322	8.79
521.668	8.92
522.014	9.08
522.36	9.25
522.706	9.42
523.052	9.62
523.398	9.82
523.743	10.05
524.089	10.24
524.435	10.42
524.781	10.61
525.126	10.79
525.472	10.95
525.817	11.12
526.163	11.25
526.509	11.4
526.854	11.54
527.199	11.67
527.545	11.8
527.89	11.92
528.235	12.05
528.581	12.16
528.926	12.28
529.271	12.42
529.616	12.53
529.961	12.66
530.306	12.8
530.651	12.95
530.996	13.08
531.341	13.24
531.686	13.42
532.031	13.56
532.376	13.72
532.721	13.91
533.065	14.06
533.41	14.25
533.755	14.41
534.099	14.6
534.444	14.78
534.788	14.96
535.133	15.13
535.477	15.31
535.822	15.52
536.166	15.72
536.51	15.95
536.855	16.22
537.199	16.47
537.543	16.72
537.887	16.93
538.231	17.16
538.576	17.42
538.92	17.65
539.264	17.92
539.608	18.17
539.951	18.41
540.295	18.66
540.639	18.87
540.983	19.08
541.327	19.27
541.671	19.48
542.014	19.69
542.358	19.91
542.701	20.11
543.045	20.31
543.389	20.54
543.732	20.77
544.075	20.95
544.419	21.19
544.762	21.4
545.105	21.68
545.449	21.95
545.792	22.22
546.135	22.52
546.478	22.8
546.821	23.1
547.165	23.37
547.508	23.67
547.851	23.98
548.194	24.32
548.536	24.65
548.879	24.97
549.222	25.24
549.565	25.57
549.908	25.87
550.25	26.19
550.593	26.52
550.936	26.83
551.278	27.19
551.621	27.53
551.963	27.88
552.306	28.18
552.648	28.53
552.991	28.83
553.333	29.12
553.675	29.43
554.017	29.72
554.36	30
554.702	30.27
555.044	30.56
555.386	30.88
555.728	31.21
556.07	31.56
556.412	31.92
556.754	32.23
557.096	32.6
557.438	32.94
557.78	33.25
558.121	33.61
558.463	33.92
558.805	34.2
559.147	34.46
559.488	34.76
559.83	35.04
560.171	35.38
560.513	35.69
560.854	35.98
561.196	36.26
561.537	36.57
561.878	36.89
562.22	37.17
562.561	37.46
562.902	37.69
563.243	37.95
563.584	38.24
563.925	38.49
564.266	38.76
564.607	39.04
564.948	39.27
565.289	39.47
565.63	39.73
565.971	40
566.312	40.24
566.653	40.5
566.993	40.75
567.334	40.93
567.675	41.14
568.015	41.38
568.356	41.64
568.696	41.87
569.037	42.09
569.377	42.31
569.718	42.48
570.058	42.72
570.398	42.94
570.739	43.19
571.079	43.47
571.419	43.65
571.759	43.84
572.099	44.09
572.439	44.27
572.779	44.44
573.119	44.63
573.459	44.85
573.799	45.04
574.139	45.2
574.479	45.37
574.819	45.56
575.158	45.7
575.498	45.85
575.838	46.03
576.177	46.28
576.517	46.47
576.856	46.66
577.196	46.9
577.535	47.09
577.875	47.24
578.214	47.36
578.553	47.56
578.893	47.73
579.232	47.91
579.571	48.17
579.91	48.34
580.25	48.48
580.589	48.64
580.928	48.82
581.267	49.09
581.606	49.29
581.945	49.46
582.283	49.64
582.622	49.84
582.961	50.03
583.3	50.16
583.639	50.36
583.977	50.52
584.316	50.65
584.654	50.78
584.993	50.94
585.332	51.16
585.67	51.3
586.008	51.38
586.347	51.53
586.685	51.59
587.024	51.74
587.362	51.87
587.7	52
588.038	52.08
588.376	52.15
588.715	52.31
589.053	52.49
589.391	52.68
589.729	52.79
590.067	52.85
590.404	52.9
590.742	53
591.08	53.15
591.418	53.22
591.756	53.33
592.093	53.42
592.431	53.43
592.769	53.59
593.106	53.76
593.444	53.81
593.781	53.97
594.119	53.99
594.456	54.12
594.793	54.2
595.131	54.3
595.468	54.38
595.805	54.41
596.143	54.47
596.48	54.5
596.817	54.46
597.154	54.56
597.491	54.67
597.828	54.78
598.165	54.87
598.502	54.99
598.839	55.09
599.176	55.18
599.512	55.34
599.849	55.44
600.186	55.51
600.523	55.63
600.859	55.61
601.196	55.75
601.532	55.76
601.869	55.82
602.205	55.85
602.542	55.93
602.878	56.01
603.215	56.06
603.551	56.11
603.887	56.28
604.223	56.32
604.56	56.43
604.896	56.48
605.232	56.51
605.568	56.47
605.904	56.47
606.24	56.54
606.576	56.54
606.912	56.54
607.248	56.54
607.583	56.6
607.919	56.73
608.255	56.78
608.591	56.89
608.926	56.91
609.262	56.99
609.597	57.04
609.933	57.08
610.268	57.13
610.604	57.18
610.939	57.22
611.275	57.29
611.61	57.27
611.945	57.27
612.281	57.32
612.616	57.42
612.951	57.53
613.286	57.53
613.621	57.6
613.956	57.66
614.291	57.77
614.626	57.84
614.961	57.82
615.296	57.85
615.631	57.9
615.966	58.01
616.3	58.03
616.635	58.03
616.97	58.06
617.304	58.15
617.639	58.1
617.973	58.18
618.308	58.21
618.642	58.22
618.977	58.3
619.311	58.32
619.646	58.35
619.98	58.37
620.314	58.41
620.648	58.48
620.983	58.52
621.317	58.63
621.651	58.52
621.985	58.65
622.319	58.76
622.653	58.79
622.987	58.89
623.321	58.91
623.655	58.82
623.988	58.93
624.322	58.93
624.656	59.07
624.99	59.02
625.323	59.08
625.657	59.14
625.99	59.15
626.324	59.26
626.657	59.37
626.991	59.47
627.324	59.45
627.658	59.43
627.991	59.49
628.324	59.45
628.657	59.5
628.991	59.46
629.324	59.46
629.657	59.52
629.99	59.54
630.323	59.61
630.656	59.8
630.989	59.86
631.322	59.86
631.655	59.85
631.987	59.95
632.32	60.01
632.653	60.01
632.986	59.99
633.318	60.03
633.651	59.91
633.984	59.84
634.316	59.96
634.649	60.02
634.981	59.96
635.313	60
635.646	60.11
635.978	60.22
636.31	60.25
636.643	60.23
636.975	60.3
637.307	60.38
637.639	60.44
637.971	60.41
638.303	60.49
638.635	60.52
638.967	60.47
639.299	60.46
639.631	60.48
639.963	60.47
640.295	60.39
640.626	60.47
640.958	60.58
641.29	60.62
641.621	60.54
641.953	60.55
642.285	60.62
642.616	60.64
642.948	60.58
643.279	60.6
643.61	60.78
643.942	60.74
644.273	60.69
644.604	60.59
644.936	60.61
645.267	60.56
645.598	60.65
645.929	60.64
646.26	60.63
646.591	60.7
646.922	60.76
647.253	60.83
647.584	60.85
647.915	60.84
648.245	60.86
648.576	61.02
648.907	61.11
649.238	60.99
649.568	61.01
649.899	61.01
650.229	60.97
650.56	60.84
650.89	60.75
651.221	60.75
651.551	60.78
651.882	60.88
652.212	60.97
652.542	60.91
652.872	61
653.203	61.04
653.533	60.93
653.863	60.95
654.193	60.94
654.523	60.97
654.853	61.01
655.183	61.03
655.513	60.96
655.843	60.99
656.172	61.14
656.502	61.18
656.832	61.14
657.162	61.21
657.491	61.28
657.821	61.36
658.15	61.38
658.48	61.53
658.809	61.44
659.139	61.41
659.468	61.57
659.798	61.64
660.127	61.64
660.456	61.73
660.785	61.79
661.115	61.76
661.444	61.8
661.773	61.78
662.102	61.83
662.431	61.95
662.76	62.09
663.089	62.06
663.418	61.9
663.747	61.97
664.076	62.04
664.404	62.09
664.733	62.14
665.062	62.06
665.39	61.98
665.719	62.02
666.048	62.05
666.376	61.88
666.705	61.79
667.033	61.78
667.362	61.86
667.69	61.78
668.018	61.9
668.347	61.94
668.675	61.98
669.003	61.86
669.331	61.81
