Data from BU56854_Reflection_00009.txt Node
Date: Mon Nov 18 16:27:00 EST 2019
User: vgr7
Spectrometer: USB2G7710
Scans to average: 3
Trigger mode: 4
Integration Time (sec): 2.000000E-2
Electric dark correction enabled: true
Boxcar width: 10
XAxis mode: Wavelengths
Number of Pixels in Spectrum: 2048
>>>>>Begin Spectral Data<<<<<
177.721	111.64
178.105	-79.64
178.488	-1818.03
178.871	-206.82
179.254	-143.94
179.636	-40.42
180.019	33.05
180.402	30.3
180.785	56.64
181.168	24.02
181.55	10.7
181.933	58.44
182.316	76.2
182.698	47.74
183.081	74.18
183.463	71.4
183.846	81.49
184.228	72.42
184.611	98.53
184.993	149.37
185.376	210.28
185.758	287.24
186.14	767.71
186.522	634.74
186.904	-709.89
187.287	-816.4
187.669	-267.25
188.051	-6076.47
188.433	-236.15
188.815	-48.81
189.197	-51.21
189.579	-38.88
189.961	-4.58
190.342	-17.75
190.724	-10.14
191.106	5.18
191.488	8.78
191.869	42.78
192.251	51.15
192.633	58.49
193.014	67.26
193.396	77.39
193.777	68.74
194.159	59.11
194.54	51.1
194.922	46.35
195.303	36.73
195.684	36.82
196.065	25.59
196.447	40.99
196.828	42.9
197.209	38.18
197.59	46.59
197.971	33.6
198.352	46.58
198.733	42.34
199.114	47.52
199.495	50.16
199.876	23.45
200.257	17.17
200.638	22.79
201.018	25.65
201.399	16.83
201.78	26.99
202.16	20.59
202.541	15.96
202.922	15.96
203.302	36.83
203.683	31.61
204.063	42.02
204.444	13.29
204.824	-0.62
205.204	-8.25
205.585	-30.66
205.965	-4.13
206.345	-9.41
206.725	-32.34
207.106	-66.71
207.486	-93.51
207.866	-91.81
208.246	-109.53
208.626	-116.72
209.006	-82.21
209.386	-125.66
209.766	-200.56
210.145	-127.12
210.525	-56.71
210.905	-41.58
211.285	-39.42
211.664	-47.22
212.044	-41.56
212.424	-38.55
212.803	-26.38
213.183	-7.84
213.562	-2.94
213.942	-13.8
214.321	-18.64
214.701	-5.38
215.08	13.8
215.459	19.72
215.838	23.57
216.218	35.38
216.597	29.54
216.976	27.6
217.355	16.86
217.734	18.08
218.113	18.26
218.492	12.22
218.871	6.8
219.25	7.8
219.629	16.72
220.008	14.38
220.387	20.55
220.766	21.63
221.144	19.33
221.523	12.66
221.902	3.34
222.28	2.14
222.659	-4.15
223.037	-13.59
223.416	-19.53
223.794	-21.9
224.173	-26.9
224.551	-23.86
224.929	-33.65
225.308	-27.05
225.686	-19.53
226.064	-14.13
226.442	-11.86
226.821	-5.79
227.199	-6.35
227.577	-8.15
227.955	-8.87
228.333	-12.76
228.711	-12.43
229.089	-10.28
229.467	-9.69
229.845	-7.86
230.222	-5.37
230.6	-3.02
230.978	0.28
231.356	0.94
231.733	0.73
232.111	2.91
232.488	2.86
232.866	3.44
233.243	3.1
233.621	1.88
233.998	-0.29
234.376	-2.4
234.753	-4.19
235.13	-3.62
235.508	-3.69
235.885	-3.13
236.262	-4.03
236.639	-4.38
237.016	-5.3
237.393	-3.49
237.77	-1.92
238.147	-1.55
238.524	-1.38
238.901	-0.94
239.278	-0.48
239.655	0.13
240.032	0.41
240.409	0.24
240.785	0.26
241.162	0.3
241.539	1.07
241.915	1.41
242.292	1.9
242.668	1.81
243.045	2.29
243.421	2.33
243.798	2.58
244.174	3.22
244.551	3.23
244.927	3.54
245.303	3.62
245.679	3.68
246.056	3.66
246.432	3.52
246.808	3.44
247.184	3.29
247.56	3.18
247.936	3.27
248.312	3.19
248.688	3.43
249.064	3.63
249.44	3.54
249.815	3.77
250.191	3.69
250.567	3.89
250.943	3.77
251.318	3.73
251.694	3.77
252.069	3.39
252.445	3.3
252.82	3.1
253.196	3.27
253.571	3.19
253.947	3.13
254.322	3.31
254.697	2.98
255.073	2.95
255.448	2.7
255.823	2.49
256.198	2.77
256.573	2.36
256.948	2.38
257.323	2.53
257.698	2.35
258.073	2.33
258.448	2.27
258.823	2.24
259.198	2.22
259.573	2.09
259.948	2.07
260.322	2.21
260.697	2.44
261.072	2.18
261.446	2.1
261.821	1.95
262.195	2.09
262.57	2.21
262.944	2.23
263.319	2.46
263.693	2.42
264.067	2.29
264.442	2.43
264.816	2.31
265.19	2.12
265.564	2.06
265.938	2.1
266.313	1.95
266.687	1.84
267.061	2.01
267.435	2.02
267.809	2.11
268.183	2.1
268.556	1.93
268.93	2.09
269.304	2.24
269.678	2.32
270.051	2.07
270.425	2.07
270.799	2.18
271.172	2.04
271.546	2.06
271.919	2.09
272.293	2.1
272.666	2.28
273.04	2.35
273.413	2.4
273.787	2.34
274.16	2.28
274.533	2.44
274.906	2.41
275.279	2.36
275.653	2.34
276.026	2.35
276.399	2.25
276.772	2.3
277.145	2.12
277.518	2.05
277.891	2.28
278.263	2.35
278.636	2.25
279.009	2.49
279.382	2.73
279.755	2.74
280.127	2.83
280.5	2.66
280.872	2.69
281.245	2.71
281.617	2.8
281.99	3.04
282.362	3.02
282.735	2.8
283.107	2.93
283.479	2.97
283.852	2.89
284.224	2.99
284.596	3.01
284.968	3.12
285.34	3.22
285.713	3.09
286.085	3.07
286.457	3.14
286.829	2.99
287.201	2.87
287.572	2.9
287.944	2.74
288.316	2.7
288.688	2.63
289.06	2.55
289.431	2.63
289.803	2.49
290.175	2.46
290.546	2.67
290.918	2.59
291.289	2.65
291.661	2.68
292.032	2.67
292.403	2.62
292.775	2.62
293.146	2.48
293.517	2.49
293.889	2.53
294.26	2.47
294.631	2.64
295.002	2.57
295.373	2.65
295.744	2.83
296.115	2.89
296.486	2.85
296.857	2.86
297.228	2.87
297.599	2.95
297.97	2.9
298.34	2.93
298.711	2.97
299.082	2.99
299.452	3.12
299.823	3.15
300.194	3.19
300.564	3.21
300.935	3.27
301.305	3.19
301.676	3.28
302.046	3.41
302.416	3.54
302.787	3.56
303.157	3.5
303.527	3.4
303.897	3.52
304.267	3.88
304.637	3.89
305.008	3.85
305.378	3.94
305.748	4.28
306.117	4.15
306.487	4.29
306.857	4.45
307.227	4.51
307.597	4.56
307.967	4.49
308.336	4.46
308.706	4.61
309.076	4.82
309.445	4.62
309.815	4.6
310.184	4.5
310.554	4.67
310.923	4.76
311.293	4.88
311.662	4.9
312.031	4.76
312.401	4.88
312.77	5.06
313.139	5.1
313.508	5.1
313.877	5.22
314.246	5.22
314.616	5.12
314.985	5.09
315.353	5.07
315.722	5.19
316.091	5.32
316.46	5.29
316.829	5.29
317.198	5.51
317.567	5.58
317.935	5.51
318.304	5.67
318.672	5.65
319.041	5.87
319.41	5.88
319.778	5.94
320.147	5.97
320.515	5.99
320.883	6.02
321.252	5.85
321.62	5.86
321.988	5.94
322.357	6.01
322.725	6.06
323.093	6.19
323.461	6.19
323.829	6.24
324.197	6.29
324.565	6.29
324.933	6.23
325.301	6.29
325.669	6.49
326.037	6.41
326.405	6.47
326.772	6.44
327.14	6.56
327.508	6.74
327.875	6.78
328.243	6.73
328.61	6.72
328.978	6.87
329.346	6.94
329.713	6.95
330.08	7
330.448	6.95
330.815	7.06
331.182	7.14
331.55	7.06
331.917	7.22
332.284	7.43
332.651	7.54
333.018	7.55
333.385	7.51
333.752	7.48
334.119	7.55
334.486	7.45
334.853	7.41
335.22	7.23
335.587	7.32
335.954	7.47
336.32	7.49
336.687	7.52
337.054	7.59
337.42	7.67
337.787	7.73
338.153	7.8
338.52	7.8
338.886	7.8
339.253	7.84
339.619	7.81
339.986	7.83
340.352	7.88
340.718	7.83
341.084	7.88
341.451	8
341.817	8.09
342.183	8.15
342.549	8.17
342.915	8.31
343.281	8.44
343.647	8.36
344.013	8.46
344.379	8.37
344.745	8.47
345.11	8.46
345.476	8.42
345.842	8.42
346.208	8.46
346.573	8.51
346.939	8.63
347.304	8.66
347.67	8.55
348.035	8.56
348.401	8.67
348.766	8.67
349.132	8.69
349.497	8.65
349.862	8.64
350.228	8.71
350.593	8.63
350.958	8.58
351.323	8.63
351.688	8.68
352.053	8.74
352.418	8.71
352.783	8.71
353.148	8.78
353.513	8.8
353.878	8.77
354.243	8.79
354.608	8.8
354.972	8.75
355.337	8.93
355.702	8.98
356.066	8.99
356.431	8.98
356.795	8.92
357.16	8.88
357.524	8.88
357.889	8.84
358.253	8.84
358.618	8.79
358.982	8.74
359.346	8.63
359.71	8.56
360.075	8.53
360.439	8.52
360.803	8.52
361.167	8.46
361.531	8.47
361.895	8.46
362.259	8.41
362.623	8.38
362.987	8.27
363.351	8.32
363.714	8.31
364.078	8.3
364.442	8.26
364.806	8.24
365.169	8.24
365.533	8.19
365.896	8.17
366.26	8.2
366.623	8.2
366.987	8.23
367.35	8.25
367.714	8.26
368.077	8.16
368.44	8.03
368.803	8.02
369.167	7.87
369.53	7.79
369.893	7.72
370.256	7.69
370.619	7.62
370.982	7.48
371.345	7.35
371.708	7.32
372.071	7.26
372.434	7.19
372.797	7.17
373.159	7.08
373.522	7.04
373.885	6.95
374.247	6.89
374.61	6.85
374.973	6.77
375.335	6.61
375.698	6.54
376.06	6.54
376.423	6.49
376.785	6.47
377.147	6.48
377.51	6.51
377.872	6.48
378.234	6.51
378.596	6.45
378.958	6.39
379.321	6.33
379.683	6.31
380.045	6.31
380.407	6.25
380.769	6.2
381.13	6.18
381.492	6.11
381.854	6.02
382.216	6.01
382.578	5.98
382.939	5.92
383.301	5.89
383.663	5.79
384.024	5.74
384.386	5.7
384.747	5.67
385.109	5.53
385.47	5.46
385.832	5.38
386.193	5.33
386.554	5.31
386.916	5.23
387.277	5.22
387.638	5.18
387.999	5.1
388.36	5.11
388.721	5.04
389.082	5.06
389.443	5.04
389.804	4.96
390.165	4.9
390.526	4.93
390.887	4.91
391.248	4.95
391.609	4.9
391.969	4.88
392.33	4.8
392.691	4.8
393.051	4.77
393.412	4.76
393.772	4.72
394.133	4.73
394.493	4.69
394.854	4.63
395.214	4.57
395.574	4.55
395.935	4.52
396.295	4.51
396.655	4.41
397.015	4.38
397.376	4.33
397.736	4.29
398.096	4.22
398.456	4.17
398.816	4.1
399.176	4.08
399.535	4.01
399.895	3.94
400.255	3.94
400.615	3.9
400.975	3.86
401.334	3.81
401.694	3.76
402.054	3.73
402.413	3.67
402.773	3.63
403.132	3.58
403.492	3.55
403.851	3.52
404.211	3.51
404.57	3.5
404.929	3.5
405.288	3.49
405.648	3.48
406.007	3.49
406.366	3.45
406.725	3.46
407.084	3.49
407.443	3.49
407.802	3.46
408.161	3.43
408.52	3.37
408.879	3.38
409.238	3.38
409.596	3.38
409.955	3.39
410.314	3.41
410.673	3.41
411.031	3.37
411.39	3.34
411.748	3.36
412.107	3.34
412.465	3.29
412.824	3.3
413.182	3.25
413.54	3.22
413.899	3.23
414.257	3.19
414.615	3.16
414.974	3.15
415.332	3.13
415.69	3.1
416.048	3.1
416.406	3.07
416.764	3.01
417.122	3.01
417.48	2.99
417.838	2.96
418.195	2.92
418.553	2.9
418.911	2.89
419.269	2.86
419.626	2.83
419.984	2.81
420.342	2.79
420.699	2.78
421.057	2.76
421.414	2.75
421.772	2.74
422.129	2.73
422.486	2.72
422.844	2.7
423.201	2.69
423.558	2.68
423.915	2.68
424.273	2.68
424.63	2.67
424.987	2.67
425.344	2.66
425.701	2.66
426.058	2.65
426.415	2.65
426.772	2.64
427.128	2.63
427.485	2.64
427.842	2.63
428.199	2.64
428.555	2.63
428.912	2.64
429.269	2.64
429.625	2.6
429.982	2.58
430.338	2.58
430.695	2.59
431.051	2.59
431.407	2.57
431.764	2.57
432.12	2.54
432.476	2.51
432.832	2.51
433.189	2.52
433.545	2.52
433.901	2.51
434.257	2.5
434.613	2.52
434.969	2.5
435.325	2.51
435.681	2.5
436.036	2.5
436.392	2.5
436.748	2.48
437.104	2.49
437.459	2.5
437.815	2.51
438.171	2.49
438.526	2.5
438.882	2.52
439.237	2.53
439.593	2.55
439.948	2.56
440.304	2.56
440.659	2.56
441.014	2.56
441.369	2.55
441.725	2.56
442.08	2.54
442.435	2.54
442.79	2.53
443.145	2.53
443.5	2.53
443.855	2.53
444.21	2.52
444.565	2.53
444.92	2.53
445.275	2.51
445.629	2.5
445.984	2.5
446.339	2.48
446.693	2.46
447.048	2.44
447.403	2.41
447.757	2.39
448.112	2.38
448.466	2.37
448.82	2.37
449.175	2.37
449.529	2.35
449.883	2.35
450.238	2.35
450.592	2.34
450.946	2.32
451.3	2.31
451.654	2.31
452.008	2.31
452.362	2.3
452.716	2.3
453.07	2.31
453.424	2.3
453.778	2.29
454.132	2.28
454.486	2.28
454.839	2.29
455.193	2.29
455.547	2.29
455.9	2.28
456.254	2.29
456.607	2.29
456.961	2.3
457.314	2.3
457.668	2.29
458.021	2.29
458.375	2.31
458.728	2.31
459.081	2.3
459.434	2.28
459.787	2.28
460.141	2.29
460.494	2.29
460.847	2.3
461.2	2.29
461.553	2.31
461.906	2.33
462.259	2.34
462.611	2.35
462.964	2.36
463.317	2.38
463.67	2.38
464.022	2.38
464.375	2.38
464.728	2.41
465.08	2.42
465.433	2.44
465.785	2.44
466.138	2.44
466.49	2.46
466.843	2.49
467.195	2.51
467.547	2.55
467.899	2.55
468.252	2.56
468.604	2.59
468.956	2.6
469.308	2.61
469.66	2.61
470.012	2.62
470.364	2.64
470.716	2.64
471.068	2.66
471.42	2.69
471.772	2.73
472.123	2.72
472.475	2.72
472.827	2.73
473.178	2.75
473.53	2.77
473.882	2.76
474.233	2.76
474.585	2.74
474.936	2.74
475.288	2.74
475.639	2.74
475.99	2.73
476.342	2.72
476.693	2.73
477.044	2.72
477.395	2.72
477.746	2.71
478.097	2.7
478.448	2.67
478.8	2.65
479.15	2.63
479.501	2.61
479.852	2.62
480.203	2.61
480.554	2.6
480.905	2.59
481.255	2.58
481.606	2.58
481.957	2.59
482.307	2.56
482.658	2.56
483.009	2.55
483.359	2.54
483.709	2.54
484.06	2.54
484.41	2.54
484.761	2.54
485.111	2.53
485.461	2.53
485.811	2.53
486.162	2.53
486.512	2.53
486.862	2.53
487.212	2.52
487.562	2.53
487.912	2.53
488.262	2.53
488.612	2.53
488.961	2.53
489.311	2.53
489.661	2.53
490.011	2.53
490.36	2.53
490.71	2.55
491.06	2.55
491.409	2.55
491.759	2.56
492.108	2.57
492.458	2.57
492.807	2.58
493.157	2.61
493.506	2.61
493.855	2.64
494.204	2.65
494.554	2.66
494.903	2.68
495.252	2.7
495.601	2.73
495.95	2.75
496.299	2.79
496.648	2.81
496.997	2.84
497.346	2.88
497.695	2.91
498.043	2.93
498.392	2.96
498.741	2.98
499.09	3.01
499.438	3.06
499.787	3.11
500.135	3.17
500.484	3.19
500.832	3.23
501.181	3.26
501.529	3.33
501.878	3.39
502.226	3.43
502.574	3.49
502.923	3.52
503.271	3.6
503.619	3.66
503.967	3.72
504.315	3.82
504.663	3.89
505.011	3.97
505.359	4.04
505.707	4.11
506.055	4.21
506.403	4.3
506.751	4.39
507.098	4.48
507.446	4.55
507.794	4.64
508.141	4.73
508.489	4.82
508.837	4.93
509.184	5.04
509.531	5.13
509.879	5.22
510.226	5.32
510.574	5.4
510.921	5.49
511.268	5.6
511.616	5.7
511.963	5.8
512.31	5.91
512.657	6.05
513.004	6.18
513.351	6.31
513.698	6.43
514.045	6.54
514.392	6.67
514.739	6.82
515.086	6.95
515.432	7.1
515.779	7.22
516.126	7.34
516.473	7.48
516.819	7.61
517.166	7.75
517.512	7.89
517.859	8.05
518.205	8.17
518.552	8.31
518.898	8.44
519.245	8.57
519.591	8.68
519.937	8.78
520.283	8.93
520.629	9.07
520.976	9.24
521.322	9.4
521.668	9.55
522.014	9.7
522.36	9.9
522.706	10.08
523.052	10.3
523.398	10.51
523.743	10.72
524.089	10.91
524.435	11.08
524.781	11.24
525.126	11.4
525.472	11.55
525.817	11.7
526.163	11.83
526.509	11.98
526.854	12.12
527.199	12.23
527.545	12.33
527.89	12.45
528.235	12.55
528.581	12.66
528.926	12.76
529.271	12.89
529.616	12.99
529.961	13.09
530.306	13.21
530.651	13.32
530.996	13.45
531.341	13.59
531.686	13.75
532.031	13.9
532.376	14.04
532.721	14.22
533.065	14.38
533.41	14.54
533.755	14.7
534.099	14.87
534.444	15.06
534.788	15.25
535.133	15.41
535.477	15.6
535.822	15.77
536.166	15.98
536.51	16.18
536.855	16.4
537.199	16.63
537.543	16.84
537.887	17.07
538.231	17.3
538.576	17.56
538.92	17.79
539.264	18.02
539.608	18.25
539.951	18.44
540.295	18.63
540.639	18.84
540.983	19.02
541.327	19.21
541.671	19.37
542.014	19.53
542.358	19.69
542.701	19.87
543.045	20.05
543.389	20.24
543.732	20.43
544.075	20.64
544.419	20.84
544.762	21.06
545.105	21.3
545.449	21.53
545.792	21.74
546.135	21.97
546.478	22.2
546.821	22.46
547.165	22.72
547.508	22.98
547.851	23.22
548.194	23.48
548.536	23.71
548.879	23.98
549.222	24.23
549.565	24.55
549.908	24.83
550.25	25.11
550.593	25.38
550.936	25.63
551.278	25.88
551.621	26.21
551.963	26.5
552.306	26.73
552.648	26.97
552.991	27.22
553.333	27.48
553.675	27.74
554.017	27.98
554.36	28.17
554.702	28.4
555.044	28.66
555.386	28.88
555.728	29.14
556.07	29.39
556.412	29.63
556.754	29.83
557.096	30.04
557.438	30.31
557.78	30.54
558.121	30.82
558.463	31.05
558.805	31.2
559.147	31.36
559.488	31.57
559.83	31.75
560.171	31.95
560.513	32.16
560.854	32.36
561.196	32.53
561.537	32.69
561.878	32.83
562.22	32.97
562.561	33.16
562.902	33.31
563.243	33.52
563.584	33.69
563.925	33.88
564.266	34.04
564.607	34.15
564.948	34.29
565.289	34.43
565.63	34.58
565.971	34.73
566.312	34.87
566.653	35.03
566.993	35.12
567.334	35.24
567.675	35.32
568.015	35.47
568.356	35.64
568.696	35.85
569.037	35.99
569.377	36.16
569.718	36.25
570.058	36.41
570.398	36.48
570.739	36.61
571.079	36.71
571.419	36.83
571.759	36.94
572.099	37.07
572.439	37.18
572.779	37.26
573.119	37.41
573.459	37.55
573.799	37.67
574.139	37.83
574.479	37.93
574.819	38.05
575.158	38.14
575.498	38.25
575.838	38.32
576.177	38.45
576.517	38.53
576.856	38.66
577.196	38.79
577.535	38.92
577.875	39.05
578.214	39.17
578.553	39.29
578.893	39.4
579.232	39.53
579.571	39.7
579.91	39.78
580.25	39.86
580.589	39.92
580.928	39.91
581.267	40.05
581.606	40.18
581.945	40.3
582.283	40.35
582.622	40.36
582.961	40.41
583.3	40.51
583.639	40.63
583.977	40.72
584.316	40.69
584.654	40.81
584.993	40.86
585.332	40.89
585.67	40.97
586.008	41.04
586.347	41.14
586.685	41.18
587.024	41.34
587.362	41.42
587.7	41.47
588.038	41.62
588.376	41.67
588.715	41.68
589.053	41.73
589.391	41.81
589.729	41.87
590.067	41.91
590.404	41.97
590.742	42.03
591.08	42.09
591.418	42.25
591.756	42.29
592.093	42.33
592.431	42.4
592.769	42.43
593.106	42.5
593.444	42.41
593.781	42.46
594.119	42.46
594.456	42.46
594.793	42.54
595.131	42.55
595.468	42.57
595.805	42.69
596.143	42.77
596.48	42.85
596.817	42.91
597.154	43.02
597.491	43.05
597.828	43.1
598.165	43.09
598.502	43.11
598.839	43.17
599.176	43.21
599.512	43.29
599.849	43.37
600.186	43.4
600.523	43.53
600.859	43.5
601.196	43.58
601.532	43.58
601.869	43.62
602.205	43.66
602.542	43.69
602.878	43.67
603.215	43.68
603.551	43.71
603.887	43.74
604.223	43.78
604.56	43.8
604.896	43.79
605.232	43.85
605.568	43.86
605.904	43.82
606.24	43.92
606.576	43.96
606.912	43.98
607.248	44.03
607.583	44.04
607.919	44.13
608.255	44.15
608.591	44.29
608.926	44.32
609.262	44.38
609.597	44.42
609.933	44.5
610.268	44.46
610.604	44.5
610.939	44.53
611.275	44.58
611.61	44.58
611.945	44.65
612.281	44.74
612.616	44.81
612.951	44.93
613.286	44.87
613.621	44.87
613.956	44.83
614.291	44.87
614.626	44.94
614.961	44.96
615.296	45
615.631	44.94
615.966	44.93
616.3	44.92
616.635	44.96
616.97	44.93
617.304	45.07
617.639	45.03
617.973	45.05
618.308	45.03
618.642	45.07
618.977	45.11
619.311	45.11
619.646	45.14
619.98	45.16
620.314	45.23
620.648	45.27
620.983	45.35
621.317	45.36
621.651	45.33
621.985	45.4
622.319	45.42
622.653	45.47
622.987	45.51
623.321	45.54
623.655	45.48
623.988	45.51
624.322	45.44
624.656	45.48
624.99	45.52
625.323	45.52
625.657	45.52
625.99	45.52
626.324	45.51
626.657	45.45
626.991	45.43
627.324	45.38
627.658	45.37
627.991	45.45
628.324	45.5
628.657	45.47
628.991	45.39
629.324	45.42
629.657	45.41
629.99	45.5
630.323	45.52
630.656	45.61
630.989	45.64
631.322	45.75
631.655	45.71
631.987	45.72
632.32	45.81
632.653	45.86
632.986	45.84
633.318	45.9
633.651	45.96
633.984	46.03
634.316	46.17
634.649	46.25
634.981	46.17
635.313	46.05
635.646	46.14
635.978	46.25
636.31	46.24
636.643	46.26
636.975	46.3
637.307	46.34
637.639	46.33
637.971	46.3
638.303	46.2
638.635	46.2
638.967	46.15
639.299	46.09
639.631	46.07
639.963	46.07
640.295	46.06
640.626	46.08
640.958	46.04
641.29	45.92
641.621	45.9
641.953	45.94
642.285	46.05
642.616	46.13
642.948	46.08
643.279	46.06
643.61	46.06
643.942	46.05
644.273	45.98
644.604	46.05
644.936	46.14
645.267	46.29
645.598	46.43
645.929	46.48
646.26	46.61
646.591	46.75
646.922	46.67
647.253	46.73
647.584	46.7
647.915	46.69
648.245	46.76
648.576	46.83
648.907	46.77
649.238	46.73
649.568	46.68
649.899	46.7
650.229	46.73
650.56	46.72
650.89	46.61
651.221	46.64
651.551	46.55
651.882	46.54
652.212	46.51
652.542	46.38
652.872	46.41
653.203	46.32
653.533	46.25
653.863	46.41
654.193	46.33
654.523	46.33
654.853	46.38
655.183	46.39
655.513	46.35
655.843	46.43
656.172	46.44
656.502	46.45
656.832	46.39
657.162	46.41
657.491	46.39
657.821	46.36
658.15	46.32
658.48	46.32
658.809	46.25
659.139	46.12
659.468	46.23
659.798	46.17
660.127	46.21
660.456	46.21
660.785	46.23
661.115	46.28
661.444	46.3
661.773	46.36
662.102	46.34
662.431	46.33
662.76	46.37
663.089	46.42
663.418	46.38
663.747	46.45
664.076	46.5
664.404	46.64
664.733	46.85
665.062	46.94
665.39	47.06
665.719	47.18
666.048	47.37
666.376	47.34
666.705	47.4
667.033	47.27
667.362	47.24
667.69	47.05
668.018	47.06
