Data from BU56854_Reflection_00003.txt Node
Date: Mon Nov 18 16:26:45 EST 2019
User: vgr7
Spectrometer: USB2G7710
Scans to average: 3
Trigger mode: 4
Integration Time (sec): 2.000000E-2
Electric dark correction enabled: true
Boxcar width: 10
XAxis mode: Wavelengths
Number of Pixels in Spectrum: 2048
>>>>>Begin Spectral Data<<<<<
177.721	80.6
178.105	10.18
178.488	-2014.75
178.871	-266.48
179.254	-84.02
179.636	-11.44
180.019	-30.71
180.402	36.36
180.785	110.32
181.168	38.09
181.55	34.84
181.933	58.44
182.316	93.74
182.698	85.26
183.081	92.41
183.463	101.68
183.846	104.27
184.228	108.11
184.611	130.96
184.993	121.72
185.376	102.25
185.758	220.67
186.14	617.24
186.522	816.01
186.904	-915.21
187.287	-797.11
187.669	-286.33
188.051	-11017.65
188.433	-439.11
188.815	-109.2
189.197	-122.15
189.579	-82.02
189.961	-70.1
190.342	-41.52
190.724	-48.53
191.106	-55.26
191.488	-48.62
191.869	-40.32
192.251	-40.35
192.633	-31.32
193.014	-31.65
193.396	-39.07
193.777	-32.34
194.159	-40.11
194.54	-30.6
194.922	-39.77
195.303	-36.77
195.684	-47.02
196.065	-32.11
196.447	-36.5
196.828	-44.95
197.209	-37.73
197.59	-39.11
197.971	-46.8
198.352	-41.55
198.733	-30.49
199.114	-20.4
199.495	-15.92
199.876	2.22
200.257	6.88
200.638	18.76
201.018	15.73
201.399	10.23
201.78	13.82
202.16	26.65
202.541	30.65
202.922	30.65
203.302	34.76
203.683	56.11
204.063	23.83
204.444	26.07
204.824	40.41
205.204	30.35
205.585	36.83
205.965	27.04
206.345	25.53
206.725	3.38
207.106	-10.29
207.486	-36.41
207.866	-49.19
208.246	-53.82
208.626	-51.29
209.006	-28.82
209.386	-34.69
209.766	-47.48
210.145	-67.74
210.525	-52.96
210.905	-44.93
211.285	-43.58
211.664	-44.4
212.044	-12.81
212.424	-11.88
212.803	-12.86
213.183	-4.06
213.562	2.68
213.942	15.73
214.321	10.88
214.701	8.02
215.08	5.8
215.459	17.68
215.838	8.39
216.218	10.66
216.597	2.04
216.976	0.75
217.355	-6.89
217.734	-12.08
218.113	-0.17
218.492	8.25
218.871	-0.59
219.25	5.38
219.629	-2.78
220.008	-8.13
220.387	-5.06
220.766	-10.49
221.144	-23.46
221.523	-21.74
221.902	-30.24
222.28	-33.45
222.659	-27.87
223.037	-27.52
223.416	-34.73
223.794	-41.71
224.173	-38.2
224.551	-30.43
224.929	-31.56
225.308	-25.1
225.686	-18.36
226.064	-20.27
226.442	-17.29
226.821	-11.54
227.199	-15.06
227.577	-15.95
227.955	-16.53
228.333	-19.71
228.711	-15.02
229.089	-10.58
229.467	-12.57
229.845	-12.18
230.222	-11.62
230.6	-12.55
230.978	-9.68
231.356	-4.45
231.733	-2.2
232.111	-0.99
232.488	-1.85
232.866	-1.05
233.243	-0.21
233.621	-0.29
233.998	0.07
234.376	-1.16
234.753	-1.73
235.13	-0.94
235.508	0.51
235.885	0.47
236.262	-0.22
236.639	-0.39
237.016	-0.24
237.393	1.03
237.77	2.35
238.147	3.07
238.524	4.14
238.901	3.39
239.278	3.32
239.655	3.4
240.032	2.69
240.409	2.65
240.785	2.22
241.162	2.43
241.539	2.15
241.915	2.31
242.292	2.51
242.668	2.73
243.045	3.47
243.421	3.57
243.798	3.51
244.174	3.8
244.551	4.03
244.927	3.85
245.303	3.88
245.679	3.73
246.056	3.66
246.432	3.45
246.808	3.26
247.184	2.92
247.56	2.86
247.936	3.22
248.312	3.37
248.688	3.3
249.064	2.98
249.44	2.91
249.815	2.93
250.191	3.06
250.567	3
250.943	2.85
251.318	2.82
251.694	2.91
252.069	2.93
252.445	2.67
252.82	2.84
253.196	2.37
253.571	2.46
253.947	2.41
254.322	2.69
254.697	3.07
255.073	3.06
255.448	3.05
255.823	3.06
256.198	3.21
256.573	3.32
256.948	3.68
257.323	3.99
257.698	3.93
258.073	3.83
258.448	3.67
258.823	3.59
259.198	3.32
259.573	3.21
259.948	3.2
260.322	3.25
260.697	3.16
261.072	3.15
261.446	3.05
261.821	2.95
262.195	2.87
262.57	2.65
262.944	2.64
263.319	2.62
263.693	2.53
264.067	2.53
264.442	2.68
264.816	2.49
265.19	2.37
265.564	2.28
265.938	2.22
266.313	2.34
266.687	2.43
267.061	2.81
267.435	2.84
267.809	2.73
268.183	2.57
268.556	2.44
268.93	2.65
269.304	2.71
269.678	2.78
270.051	2.76
270.425	2.94
270.799	2.97
271.172	2.79
271.546	2.9
271.919	2.69
272.293	2.61
272.666	2.66
273.04	2.66
273.413	2.72
273.787	2.66
274.16	2.79
274.533	2.67
274.906	2.53
275.279	2.57
275.653	2.67
276.026	2.78
276.399	2.84
276.772	2.91
277.145	2.9
277.518	2.9
277.891	3.07
278.263	2.96
278.636	2.99
279.009	3.19
279.382	3.08
279.755	3.27
280.127	3.32
280.5	3.35
280.872	3.45
281.245	3.34
281.617	3.57
281.99	3.42
282.362	3.56
282.735	3.53
283.107	3.38
283.479	3.37
283.852	3.26
284.224	3.35
284.596	3.21
284.968	3.28
285.34	3.42
285.713	3.33
286.085	3.35
286.457	3.32
286.829	3.45
287.201	3.42
287.572	3.41
287.944	3.38
288.316	3.41
288.688	3.34
289.06	3.31
289.431	3.24
289.803	3.3
290.175	3.28
290.546	3.38
290.918	3.49
291.289	3.52
291.661	3.74
292.032	3.79
292.403	3.86
292.775	3.9
293.146	3.69
293.517	3.62
293.889	3.81
294.26	3.76
294.631	3.64
295.002	3.55
295.373	3.44
295.744	3.45
296.115	3.41
296.486	3.36
296.857	3.43
297.228	3.43
297.599	3.36
297.97	3.33
298.34	3.36
298.711	3.42
299.082	3.29
299.452	3.24
299.823	3.26
300.194	3.22
300.564	3.12
300.935	3.22
301.305	3.21
301.676	3.09
302.046	3.18
302.416	3.3
302.787	3.42
303.157	3.39
303.527	3.37
303.897	3.38
304.267	3.45
304.637	3.46
305.008	3.4
305.378	3.56
305.748	3.47
306.117	3.34
306.487	3.3
306.857	3.58
307.227	3.5
307.597	3.44
307.967	3.39
308.336	3.44
308.706	3.4
309.076	3.45
309.445	3.43
309.815	3.33
310.184	3.26
310.554	3.29
310.923	3.32
311.293	3.3
311.662	3.29
312.031	3.3
312.401	3.25
312.77	3.3
313.139	3.17
313.508	3.16
313.877	3.17
314.246	3.13
314.616	3.07
314.985	3.05
315.353	2.9
315.722	2.98
316.091	2.95
316.46	2.92
316.829	2.93
317.198	2.92
317.567	2.99
317.935	2.81
318.304	2.66
318.672	2.71
319.041	2.72
319.41	2.64
319.778	2.69
320.147	2.6
320.515	2.52
320.883	2.59
321.252	2.72
321.62	2.82
321.988	2.81
322.357	2.72
322.725	2.84
323.093	2.92
323.461	2.85
323.829	2.89
324.197	2.95
324.565	2.89
324.933	2.85
325.301	2.83
325.669	2.92
326.037	3.07
326.405	3.14
326.772	3.15
327.14	3.21
327.508	3.07
327.875	3.13
328.243	3.13
328.61	3.07
328.978	3.06
329.346	2.98
329.713	2.94
330.08	2.93
330.448	2.79
330.815	2.76
331.182	2.76
331.55	2.65
331.917	2.65
332.284	2.8
332.651	2.9
333.018	2.91
333.385	2.88
333.752	2.99
334.119	2.94
334.486	2.92
334.853	3
335.22	3.08
335.587	3.08
335.954	3.15
336.32	3.21
336.687	3.11
337.054	3.17
337.42	3.21
337.787	3.23
338.153	3.31
338.52	3.4
338.886	3.39
339.253	3.39
339.619	3.42
339.986	3.36
340.352	3.39
340.718	3.39
341.084	3.46
341.451	3.47
341.817	3.5
342.183	3.47
342.549	3.36
342.915	3.4
343.281	3.5
343.647	3.46
344.013	3.35
344.379	3.32
344.745	3.28
345.11	3.26
345.476	3.23
345.842	3.18
346.208	3.1
346.573	3.17
346.939	3.41
347.304	3.34
347.67	3.27
348.035	3.25
348.401	3.21
348.766	3.2
349.132	3.18
349.497	3.14
349.862	3.14
350.228	3.15
350.593	3.07
350.958	3
351.323	3.04
351.688	3.09
352.053	3.27
352.418	3.3
352.783	3.33
353.148	3.32
353.513	3.34
353.878	3.34
354.243	3.26
354.608	3.08
354.972	3.1
355.337	3.14
355.702	3.2
356.066	3.26
356.431	3.28
356.795	3.29
357.16	3.3
357.524	3.34
357.889	3.35
358.253	3.38
358.618	3.44
358.982	3.4
359.346	3.33
359.71	3.26
360.075	3.21
360.439	3.21
360.803	3.24
361.167	3.21
361.531	3.21
361.895	3.23
362.259	3.23
362.623	3.23
362.987	3.23
363.351	3.23
363.714	3.21
364.078	3.18
364.442	3.06
364.806	3.05
365.169	3.06
365.533	3.05
365.896	3.04
366.26	2.92
366.623	2.91
366.987	2.99
367.35	3.01
367.714	3.08
368.077	3.12
368.44	3.11
368.803	3.1
369.167	3.05
369.53	3.01
369.893	2.98
370.256	3.02
370.619	2.98
370.982	2.89
371.345	2.86
371.708	2.84
372.071	2.86
372.434	2.85
372.797	2.87
373.159	2.89
373.522	2.91
373.885	2.99
374.247	3.04
374.61	3
374.973	2.94
375.335	2.88
375.698	2.9
376.06	2.94
376.423	2.94
376.785	2.99
377.147	3.08
377.51	3.13
377.872	3.13
378.234	3.15
378.596	3.21
378.958	3.25
379.321	3.27
379.683	3.31
380.045	3.26
380.407	3.23
380.769	3.21
381.13	3.22
381.492	3.2
381.854	3.19
382.216	3.21
382.578	3.26
382.939	3.26
383.301	3.22
383.663	3.14
384.024	3.14
384.386	3.15
384.747	3.12
385.109	3.11
385.47	3.05
385.832	3
386.193	3.04
386.554	3.01
386.916	3
387.277	3
387.638	3.04
387.999	3.01
388.36	3.05
388.721	3.04
389.082	3.05
389.443	3.02
389.804	3.04
390.165	2.99
390.526	3
390.887	2.98
391.248	3.06
391.609	3.09
391.969	3.1
392.33	3.08
392.691	3.08
393.051	3.08
393.412	3.13
393.772	3.03
394.133	3.05
394.493	3.05
394.854	3.03
395.214	3.03
395.574	3.05
395.935	3.04
396.295	3.07
396.655	3.06
397.015	3.07
397.376	3.03
397.736	3.06
398.096	3.05
398.456	3.03
398.816	2.95
399.176	2.91
399.535	2.89
399.895	2.9
400.255	2.88
400.615	2.91
400.975	2.88
401.334	2.91
401.694	2.89
402.054	2.89
402.413	2.9
402.773	2.89
403.132	2.87
403.492	2.86
403.851	2.81
404.211	2.78
404.57	2.78
404.929	2.79
405.288	2.79
405.648	2.79
406.007	2.84
406.366	2.87
406.725	2.91
407.084	2.93
407.443	2.92
407.802	2.95
408.161	2.94
408.52	2.94
408.879	2.96
409.238	3
409.596	2.99
409.955	2.99
410.314	2.99
410.673	3
411.031	2.99
411.39	3.03
411.748	3.05
412.107	3.06
412.465	3.03
412.824	3.04
413.182	3.02
413.54	3
413.899	3.01
414.257	2.99
414.615	2.98
414.974	2.99
415.332	2.98
415.69	2.97
416.048	2.96
416.406	2.96
416.764	2.94
417.122	2.95
417.48	2.92
417.838	2.92
418.195	2.92
418.553	2.93
418.911	2.93
419.269	2.94
419.626	2.94
419.984	2.96
420.342	2.96
420.699	2.99
421.057	2.99
421.414	2.98
421.772	2.98
422.129	2.98
422.486	2.97
422.844	2.97
423.201	2.97
423.558	2.97
423.915	2.97
424.273	2.98
424.63	2.97
424.987	2.99
425.344	2.98
425.701	2.99
426.058	2.99
426.415	2.98
426.772	2.97
427.128	2.96
427.485	2.97
427.842	2.97
428.199	2.96
428.555	2.96
428.912	2.95
429.269	2.97
429.625	2.96
429.982	2.97
430.338	2.97
430.695	2.98
431.051	2.97
431.407	2.97
431.764	2.97
432.12	2.97
432.476	2.96
432.832	2.97
433.189	2.94
433.545	2.92
433.901	2.91
434.257	2.91
434.613	2.92
434.969	2.89
435.325	2.89
435.681	2.89
436.036	2.87
436.392	2.88
436.748	2.89
437.104	2.89
437.459	2.88
437.815	2.87
438.171	2.87
438.526	2.87
438.882	2.87
439.237	2.88
439.593	2.87
439.948	2.88
440.304	2.87
440.659	2.89
441.014	2.91
441.369	2.91
441.725	2.91
442.08	2.91
442.435	2.93
442.79	2.93
443.145	2.92
443.5	2.93
443.855	2.92
444.21	2.92
444.565	2.92
444.92	2.94
445.275	2.94
445.629	2.92
445.984	2.93
446.339	2.93
446.693	2.9
447.048	2.91
447.403	2.91
447.757	2.92
448.112	2.91
448.466	2.91
448.82	2.91
449.175	2.92
449.529	2.9
449.883	2.9
450.238	2.9
450.592	2.93
450.946	2.92
451.3	2.93
451.654	2.91
452.008	2.9
452.362	2.88
452.716	2.9
453.07	2.93
453.424	2.93
453.778	2.94
454.132	2.94
454.486	2.92
454.839	2.92
455.193	2.91
455.547	2.91
455.9	2.91
456.254	2.9
456.607	2.9
456.961	2.91
457.314	2.9
457.668	2.88
458.021	2.85
458.375	2.85
458.728	2.83
459.081	2.83
459.434	2.82
459.787	2.82
460.141	2.83
460.494	2.84
460.847	2.83
461.2	2.83
461.553	2.85
461.906	2.85
462.259	2.86
462.611	2.87
462.964	2.88
463.317	2.87
463.67	2.87
464.022	2.87
464.375	2.86
464.728	2.87
465.08	2.88
465.433	2.88
465.785	2.89
466.138	2.9
466.49	2.9
466.843	2.92
467.195	2.91
467.547	2.89
467.899	2.87
468.252	2.88
468.604	2.88
468.956	2.87
469.308	2.88
469.66	2.86
470.012	2.89
470.364	2.88
470.716	2.9
471.068	2.89
471.42	2.89
471.772	2.91
472.123	2.91
472.475	2.93
472.827	2.92
473.178	2.94
473.53	2.97
473.882	2.96
474.233	2.96
474.585	2.95
474.936	2.95
475.288	2.94
475.639	2.94
475.99	2.97
476.342	2.99
476.693	2.99
477.044	3
477.395	2.98
477.746	2.97
478.097	2.98
478.448	2.99
478.8	2.98
479.15	2.96
479.501	2.96
479.852	2.95
480.203	2.97
480.554	2.98
480.905	2.99
481.255	2.99
481.606	2.99
481.957	3
482.307	3.01
482.658	3.03
483.009	3.03
483.359	3.02
483.709	3.03
484.06	3.02
484.41	3.02
484.761	3.03
485.111	3.04
485.461	3.03
485.811	3.03
486.162	3.04
486.512	3.05
486.862	3.05
487.212	3.06
487.562	3.05
487.912	3.05
488.262	3.04
488.612	3.04
488.961	3.03
489.311	3.03
489.661	3.03
490.011	3.03
490.36	3.03
490.71	3.03
491.06	3.03
491.409	3.02
491.759	3.02
492.108	3.01
492.458	3
492.807	3
493.157	3.01
493.506	3.02
493.855	3.01
494.204	3.01
494.554	3.01
494.903	3.02
495.252	3.01
495.601	3.04
495.95	3.05
496.299	3.07
496.648	3.06
496.997	3.05
497.346	3.06
497.695	3.07
498.043	3.06
498.392	3.06
498.741	3.07
499.09	3.08
499.438	3.1
499.787	3.12
500.135	3.13
500.484	3.12
500.832	3.12
501.181	3.13
501.529	3.12
501.878	3.12
502.226	3.11
502.574	3.14
502.923	3.11
503.271	3.11
503.619	3.13
503.967	3.13
504.315	3.15
504.663	3.15
505.011	3.15
505.359	3.15
505.707	3.16
506.055	3.17
506.403	3.16
506.751	3.15
507.098	3.15
507.446	3.15
507.794	3.15
508.141	3.15
508.489	3.15
508.837	3.16
509.184	3.15
509.531	3.17
509.879	3.17
510.226	3.17
510.574	3.19
510.921	3.2
511.268	3.2
511.616	3.22
511.963	3.23
512.31	3.23
512.657	3.22
513.004	3.23
513.351	3.24
513.698	3.24
514.045	3.23
514.392	3.24
514.739	3.24
515.086	3.26
515.432	3.26
515.779	3.24
516.126	3.25
516.473	3.27
516.819	3.27
517.166	3.29
517.512	3.31
517.859	3.3
518.205	3.3
518.552	3.3
518.898	3.29
519.245	3.29
519.591	3.27
519.937	3.28
520.283	3.28
520.629	3.29
520.976	3.3
521.322	3.31
521.668	3.31
522.014	3.3
522.36	3.31
522.706	3.3
523.052	3.34
523.398	3.36
523.743	3.36
524.089	3.34
524.435	3.34
524.781	3.34
525.126	3.37
525.472	3.37
525.817	3.36
526.163	3.37
526.509	3.37
526.854	3.39
527.199	3.39
527.545	3.41
527.89	3.4
528.235	3.4
528.581	3.4
528.926	3.4
529.271	3.41
529.616	3.4
529.961	3.41
530.306	3.4
530.651	3.4
530.996	3.4
531.341	3.4
531.686	3.4
532.031	3.4
532.376	3.4
532.721	3.41
533.065	3.42
533.41	3.42
533.755	3.4
534.099	3.4
534.444	3.41
534.788	3.43
535.133	3.43
535.477	3.43
535.822	3.43
536.166	3.43
536.51	3.43
536.855	3.43
537.199	3.44
537.543	3.44
537.887	3.45
538.231	3.44
538.576	3.45
538.92	3.44
539.264	3.45
539.608	3.44
539.951	3.4
540.295	3.39
540.639	3.4
540.983	3.4
541.327	3.41
541.671	3.4
542.014	3.38
542.358	3.38
542.701	3.38
543.045	3.38
543.389	3.38
543.732	3.39
544.075	3.4
544.419	3.39
544.762	3.38
545.105	3.39
545.449	3.39
545.792	3.42
546.135	3.43
546.478	3.41
546.821	3.42
547.165	3.45
547.508	3.48
547.851	3.47
548.194	3.48
548.536	3.49
548.879	3.52
549.222	3.51
549.565	3.52
549.908	3.54
550.25	3.57
550.593	3.57
550.936	3.54
551.278	3.55
551.621	3.59
551.963	3.6
552.306	3.56
552.648	3.56
552.991	3.56
553.333	3.56
553.675	3.57
554.017	3.57
554.36	3.55
554.702	3.55
555.044	3.56
555.386	3.58
555.728	3.56
556.07	3.56
556.412	3.55
556.754	3.53
557.096	3.53
557.438	3.51
557.78	3.53
558.121	3.55
558.463	3.55
558.805	3.54
559.147	3.54
559.488	3.55
559.83	3.56
560.171	3.52
560.513	3.51
560.854	3.5
561.196	3.51
561.537	3.5
561.878	3.52
562.22	3.52
562.561	3.52
562.902	3.51
563.243	3.51
563.584	3.53
563.925	3.56
564.266	3.55
564.607	3.55
564.948	3.57
565.289	3.56
565.63	3.57
565.971	3.56
566.312	3.56
566.653	3.56
566.993	3.57
567.334	3.56
567.675	3.58
568.015	3.6
568.356	3.61
568.696	3.62
569.037	3.61
569.377	3.63
569.718	3.65
570.058	3.67
570.398	3.64
570.739	3.65
571.079	3.66
571.419	3.66
571.759	3.66
572.099	3.66
572.439	3.65
572.779	3.63
573.119	3.65
573.459	3.66
573.799	3.69
574.139	3.69
574.479	3.69
574.819	3.68
575.158	3.69
575.498	3.67
575.838	3.67
576.177	3.65
576.517	3.64
576.856	3.61
577.196	3.59
577.535	3.63
577.875	3.62
578.214	3.6
578.553	3.59
578.893	3.59
579.232	3.55
579.571	3.57
579.91	3.52
580.25	3.5
580.589	3.48
580.928	3.43
581.267	3.43
581.606	3.43
581.945	3.44
582.283	3.42
582.622	3.42
582.961	3.4
583.3	3.47
583.639	3.47
583.977	3.5
584.316	3.49
584.654	3.46
584.993	3.47
585.332	3.49
585.67	3.53
586.008	3.5
586.347	3.5
586.685	3.49
587.024	3.55
587.362	3.58
587.7	3.58
588.038	3.62
588.376	3.6
588.715	3.66
589.053	3.69
589.391	3.71
589.729	3.7
590.067	3.73
590.404	3.71
590.742	3.73
591.08	3.74
591.418	3.77
591.756	3.79
592.093	3.79
592.431	3.77
592.769	3.76
593.106	3.79
593.444	3.8
593.781	3.82
594.119	3.8
594.456	3.8
594.793	3.84
595.131	3.83
595.468	3.83
595.805	3.77
596.143	3.73
596.48	3.7
596.817	3.72
597.154	3.72
597.491	3.69
597.828	3.68
598.165	3.65
598.502	3.6
598.839	3.57
599.176	3.54
599.512	3.54
599.849	3.55
600.186	3.57
600.523	3.59
600.859	3.61
601.196	3.65
601.532	3.66
601.869	3.63
602.205	3.62
602.542	3.64
602.878	3.66
603.215	3.68
603.551	3.74
603.887	3.76
604.223	3.76
604.56	3.79
604.896	3.81
605.232	3.81
605.568	3.83
605.904	3.85
606.24	3.89
606.576	3.9
606.912	3.89
607.248	3.9
607.583	3.91
607.919	3.88
608.255	3.85
608.591	3.89
608.926	3.91
609.262	3.94
609.597	3.94
609.933	3.97
610.268	3.96
610.604	3.94
610.939	3.92
611.275	3.91
611.61	3.89
611.945	3.87
612.281	3.86
612.616	3.87
612.951	3.87
613.286	3.88
613.621	3.89
613.956	3.87
614.291	3.81
614.626	3.81
614.961	3.81
615.296	3.83
615.631	3.8
615.966	3.77
616.3	3.76
616.635	3.77
616.97	3.75
617.304	3.75
617.639	3.78
617.973	3.8
618.308	3.82
618.642	3.83
618.977	3.82
619.311	3.82
619.646	3.86
619.98	3.84
620.314	3.81
620.648	3.81
620.983	3.87
621.317	3.88
621.651	3.84
621.985	3.85
622.319	3.83
622.653	3.83
622.987	3.86
623.321	3.84
623.655	3.88
623.988	3.89
624.322	3.9
624.656	3.9
624.99	3.92
625.323	3.88
625.657	3.91
625.99	3.97
626.324	3.96
626.657	3.92
626.991	3.93
627.324	3.94
627.658	3.94
627.991	3.98
628.324	3.98
628.657	4.04
628.991	4.09
629.324	4.13
629.657	4.08
629.99	4.05
630.323	4.05
630.656	4.01
630.989	4.04
631.322	4.04
631.655	4.01
631.987	4.03
632.32	4.06
632.653	4.06
632.986	4
633.318	4.02
633.651	4.01
633.984	4.03
634.316	4.05
634.649	4.01
634.981	3.96
635.313	3.99
635.646	3.99
635.978	3.95
636.31	3.92
636.643	4.01
636.975	4.02
637.307	4.03
637.639	4.02
637.971	3.97
638.303	3.97
638.635	3.98
638.967	3.95
639.299	3.95
639.631	3.88
639.963	3.84
640.295	3.79
640.626	3.86
640.958	3.87
641.29	3.83
641.621	3.86
641.953	3.88
642.285	3.84
642.616	3.85
642.948	3.79
643.279	3.76
643.61	3.76
643.942	3.77
644.273	3.77
644.604	3.8
644.936	3.84
645.267	3.85
645.598	3.82
645.929	3.8
646.26	3.87
646.591	3.93
646.922	4
647.253	4.08
647.584	4.01
647.915	4.02
648.245	4.04
648.576	4.04
648.907	4.01
649.238	3.98
649.568	3.95
649.899	3.91
650.229	4
650.56	3.98
650.89	3.97
651.221	4
651.551	4
651.882	3.97
652.212	3.95
652.542	4.02
652.872	4
653.203	3.89
653.533	3.91
653.863	3.91
654.193	3.85
654.523	3.87
654.853	3.8
655.183	3.82
655.513	3.81
655.843	3.76
656.172	3.78
656.502	3.81
656.832	3.88
657.162	3.85
657.491	3.8
657.821	3.86
658.15	3.83
658.48	3.81
658.809	3.84
659.139	3.83
659.468	3.76
659.798	3.77
660.127	3.85
660.456	3.81
660.785	3.77
661.115	3.81
661.444	3.86
661.773	3.93
662.102	3.88
662.431	3.91
662.76	3.93
663.089	3.94
663.418	3.97
663.747	3.93
664.076	3.93
664.404	4.03
664.733	4.02
665.062	4.04
665.39	4.01
665.719	4
666.048	4.08
666.376	4.08
666.705	4.05
667.033	4.01
667.362	4.04
667.69	4
668.018	4
668.347	4.03
668.675	4.04
669.003	4.1
669.331	4.24
669.659	4.22
669.987	4.16
670.315	4.13
670.643	4.2
670.971	4.21
671.299	4.2
671.627	4.16
671.955	4.16
672.283	4.24
672.61	4.27
672.938	4.17
673.266	4.2
673.593	4.22
673.921	4.23
674.249	4.27
674.576	4.29
674.904	4.3
675.231	4.19
675.558	4.2
675.886	4.22
676.213	4.14
676.54	4.22
676.867	4.36
677.195	4.36
677.522	4.37
677.849	4.36
678.176	4.34
678.503	4.35
678.83	4.3
