Data from BU57652_Reflection_00012.txt Node
Date: Tue Nov 19 10:43:25 EST 2019
User: vgr7
Spectrometer: USB2G7710
Scans to average: 3
Trigger mode: 4
Integration Time (sec): 2.000000E-2
Electric dark correction enabled: true
Boxcar width: 10
XAxis mode: Wavelengths
Number of Pixels in Spectrum: 2048
>>>>>Begin Spectral Data<<<<<
177.721	233.68
178.105	191.24
178.488	234.53
178.871	98.95
179.254	6.45
179.636	45.95
180.019	19.9
180.402	75
180.785	150.82
181.168	-14.86
181.55	-400
181.933	134.65
182.316	302.13
182.698	139.75
183.081	85.55
183.463	138.92
183.846	274.64
184.228	788.12
184.611	233.91
184.993	140.93
185.376	96.24
185.758	120.51
186.14	109.37
186.522	103.47
186.904	106.93
187.287	93.03
187.669	89.97
188.051	76.06
188.433	92.48
188.815	83.13
189.197	76.85
189.579	58.43
189.961	51.35
190.342	51.4
190.724	36.8
191.106	33.86
191.488	47.1
191.869	43.55
192.251	39.51
192.633	40.5
193.014	39.35
193.396	29.27
193.777	33.75
194.159	33.42
194.54	35.65
194.922	19.93
195.303	21.44
195.684	34.16
196.065	32.34
196.447	32.65
196.828	39.09
197.209	38.43
197.59	47.98
197.971	46.94
198.352	44.17
198.733	44.87
199.114	40.42
199.495	17.61
199.876	-4.76
200.257	-27.81
200.638	-25.67
201.018	-41.76
201.399	-12.23
201.78	-19.15
202.16	-46.1
202.541	-56.64
202.922	-33.13
203.302	-38.41
203.683	-52.55
204.063	-41.19
204.444	-34.71
204.824	-46.99
205.204	-36.57
205.585	-64.34
205.965	-79.81
206.345	-93.72
206.725	-78.89
207.106	-55.55
207.486	-38.97
207.866	-31.75
208.246	-27.21
208.626	-72.25
209.006	-64.95
209.386	-106.11
209.766	-130.48
210.145	-118.42
210.525	-123.08
210.905	-227.04
211.285	-108.93
211.664	-58.66
212.044	-78.49
212.424	-63.43
212.803	-48.96
213.183	-53.04
213.562	-23.09
213.942	-11.22
214.321	-6.27
214.701	-6.97
215.08	-18.59
215.459	-2.92
215.838	-1.1
216.218	1
216.597	16.64
216.976	6.9
217.355	15.29
217.734	13.34
218.113	12.97
218.492	12.38
218.871	13.26
219.25	13.38
219.629	16.32
220.008	23
220.387	20.3
220.766	26.52
221.144	33.14
221.523	35.18
221.902	33.42
222.28	22.52
222.659	29.73
223.037	33.47
223.416	26.03
223.794	29.24
224.173	23.83
224.551	18.54
224.929	25.07
225.308	23.29
225.686	20.53
226.064	19.42
226.442	22.4
226.821	16.65
227.199	10.67
227.577	7.96
227.955	10.06
228.333	11.51
228.711	8.22
229.089	5.25
229.467	4.38
229.845	3.71
230.222	7.34
230.6	7.32
230.978	5.83
231.356	2
231.733	0.54
232.111	3.01
232.488	2.03
232.866	2.59
233.243	1.85
233.621	0.96
233.998	2.25
234.376	4.08
234.753	4.34
235.13	4.64
235.508	5.81
235.885	4.35
236.262	3.98
236.639	3.65
237.016	4.4
237.393	4.48
237.77	5.81
238.147	4.77
238.524	3.98
238.901	3.25
239.278	4.35
239.655	4.34
240.032	4.56
240.409	4.96
240.785	4.53
241.162	4.75
241.539	5.6
241.915	5.51
242.292	5.27
242.668	5.05
243.045	5.47
243.421	5.59
243.798	5.68
244.174	5.45
244.551	5.35
244.927	5.18
245.303	5.04
245.679	4.79
246.056	4.74
246.432	4.78
246.808	5.11
247.184	5.24
247.56	5.33
247.936	5.24
248.312	5.09
248.688	5.04
249.064	4.88
249.44	4.6
249.815	4.53
250.191	4.43
250.567	4.65
250.943	4.64
251.318	4.4
251.694	4.27
252.069	4.36
252.445	4.32
252.82	4.56
253.196	4.9
253.571	5.06
253.947	5.38
254.322	5.39
254.697	5.46
255.073	5.12
255.448	4.87
255.823	4.83
256.198	4.66
256.573	4.9
256.948	5.04
257.323	5.13
257.698	4.94
258.073	4.84
258.448	4.98
258.823	4.76
259.198	4.8
259.573	4.63
259.948	4.76
260.322	4.82
260.697	4.82
261.072	4.66
261.446	4.61
261.821	4.44
262.195	4.23
262.57	4.18
262.944	4.24
263.319	4.47
263.693	4.52
264.067	4.75
264.442	4.59
264.816	4.51
265.19	4.44
265.564	4.48
265.938	4.5
266.313	4.31
266.687	4.34
267.061	4.35
267.435	4.76
267.809	4.62
268.183	4.59
268.556	4.37
268.93	4.39
269.304	4.54
269.678	4.63
270.051	4.8
270.425	4.73
270.799	4.61
271.172	4.19
271.546	4.18
271.919	4.21
272.293	4.3
272.666	4.26
273.04	4.53
273.413	4.61
273.787	4.65
274.16	4.58
274.533	4.67
274.906	4.72
275.279	4.48
275.653	4.53
276.026	4.51
276.399	4.58
276.772	4.62
277.145	4.62
277.518	4.42
277.891	4.4
278.263	4.33
278.636	4.5
279.009	4.82
279.382	4.78
279.755	4.76
280.127	4.78
280.5	4.71
280.872	4.38
281.245	4.42
281.617	4.28
281.99	4.32
282.362	4.23
282.735	4.22
283.107	4.22
283.479	4.25
283.852	4.17
284.224	4.06
284.596	3.97
284.968	3.91
285.34	4.18
285.713	4.25
286.085	4.32
286.457	4.23
286.829	4.18
287.201	4.19
287.572	4.18
287.944	4.26
288.316	4.33
288.688	4.51
289.06	4.35
289.431	4.4
289.803	4.58
290.175	4.65
290.546	4.56
290.918	4.65
291.289	4.6
291.661	4.8
292.032	4.93
292.403	5.08
292.775	5.07
293.146	4.94
293.517	4.89
293.889	4.92
294.26	4.98
294.631	5.1
295.002	5.06
295.373	5.05
295.744	5.1
296.115	5.24
296.486	5.14
296.857	5.36
297.228	5.29
297.599	5.2
297.97	5.43
298.34	5.59
298.711	5.72
299.082	5.81
299.452	5.64
299.823	5.68
300.194	5.71
300.564	5.7
300.935	5.92
301.305	5.92
301.676	5.88
302.046	5.94
302.416	5.92
302.787	5.95
303.157	6.08
303.527	6.1
303.897	6.07
304.267	6.33
304.637	6.37
305.008	6.74
305.378	6.76
305.748	6.62
306.117	6.68
306.487	6.64
306.857	6.7
307.227	7.05
307.597	7.14
307.967	7.22
308.336	7.37
308.706	7.25
309.076	7.6
309.445	7.87
309.815	8.07
310.184	8.21
310.554	8.47
310.923	8.55
311.293	8.6
311.662	8.71
312.031	8.67
312.401	8.66
312.77	8.51
313.139	8.76
313.508	8.89
313.877	8.91
314.246	9.09
314.616	9.33
314.985	9.36
315.353	9.43
315.722	9.64
316.091	9.74
316.46	10.04
316.829	10.03
317.198	10.11
317.567	10.22
317.935	10.43
318.304	10.45
318.672	10.48
319.041	10.63
319.41	10.78
319.778	11.02
320.147	11.34
320.515	11.49
320.883	11.45
321.252	11.37
321.62	11.57
321.988	11.49
322.357	11.36
322.725	11.46
323.093	11.65
323.461	11.71
323.829	11.68
324.197	11.69
324.565	11.73
324.933	11.78
325.301	11.71
325.669	11.74
326.037	11.82
326.405	11.99
326.772	12.05
327.14	11.98
327.508	11.99
327.875	11.94
328.243	12.03
328.61	12.11
328.978	12.23
329.346	12.33
329.713	12.51
330.08	12.64
330.448	12.66
330.815	12.65
331.182	12.64
331.55	12.83
331.917	12.81
332.284	12.8
332.651	12.74
333.018	12.85
333.385	12.79
333.752	12.84
334.119	12.86
334.486	12.79
334.853	12.93
335.22	12.96
335.587	13.02
335.954	13.07
336.32	13.17
336.687	13.26
337.054	13.1
337.42	13.09
337.787	13.16
338.153	13.19
338.52	13.19
338.886	13.28
339.253	13.22
339.619	13.38
339.986	13.38
340.352	13.48
340.718	13.5
341.084	13.6
341.451	13.68
341.817	13.75
342.183	13.84
342.549	13.78
342.915	13.87
343.281	13.87
343.647	13.92
344.013	13.86
344.379	13.83
344.745	14.03
345.11	14.03
345.476	14.09
345.842	14.01
346.208	14.08
346.573	14.06
346.939	14.14
347.304	14.06
347.67	14.05
348.035	14.01
348.401	13.98
348.766	13.89
349.132	13.83
349.497	13.79
349.862	13.86
350.228	13.97
350.593	13.85
350.958	13.94
351.323	13.86
351.688	13.84
352.053	13.92
352.418	13.81
352.783	13.75
353.148	13.68
353.513	13.69
353.878	13.63
354.243	13.6
354.608	13.6
354.972	13.58
355.337	13.49
355.702	13.48
356.066	13.45
356.431	13.42
356.795	13.36
357.16	13.31
357.524	13.24
357.889	13.07
358.253	12.99
358.618	12.89
358.982	12.82
359.346	12.82
359.71	12.65
360.075	12.64
360.439	12.63
360.803	12.57
361.167	12.6
361.531	12.62
361.895	12.51
362.259	12.41
362.623	12.4
362.987	12.36
363.351	12.27
363.714	12.24
364.078	12.19
364.442	12.1
364.806	12.07
365.169	11.94
365.533	11.96
365.896	11.9
366.26	11.78
366.623	11.76
366.987	11.66
367.35	11.65
367.714	11.47
368.077	11.43
368.44	11.34
368.803	11.19
369.167	11.01
369.53	10.91
369.893	10.85
370.256	10.74
370.619	10.71
370.982	10.66
371.345	10.51
371.708	10.48
372.071	10.43
372.434	10.31
372.797	10.27
373.159	10.17
373.522	10.06
373.885	9.97
374.247	9.88
374.61	9.82
374.973	9.73
375.335	9.69
375.698	9.48
376.06	9.39
376.423	9.27
376.785	9.22
377.147	9.18
377.51	9.04
377.872	8.93
378.234	8.8
378.596	8.71
378.958	8.68
379.321	8.52
379.683	8.49
380.045	8.37
380.407	8.3
380.769	8.15
381.13	8.11
381.492	8.08
381.854	7.97
382.216	7.92
382.578	7.82
382.939	7.7
383.301	7.7
383.663	7.58
384.024	7.54
384.386	7.45
384.747	7.33
385.109	7.3
385.47	7.24
385.832	7.19
386.193	7.11
386.554	7.01
386.916	6.98
387.277	6.83
387.638	6.79
387.999	6.76
388.36	6.71
388.721	6.66
389.082	6.59
389.443	6.56
389.804	6.47
390.165	6.44
390.526	6.45
390.887	6.39
391.248	6.41
391.609	6.36
391.969	6.31
392.33	6.31
392.691	6.24
393.051	6.21
393.412	6.16
393.772	6.13
394.133	6.08
394.493	6.01
394.854	5.99
395.214	5.92
395.574	5.84
395.935	5.86
396.295	5.81
396.655	5.76
397.015	5.72
397.376	5.67
397.736	5.62
398.096	5.49
398.456	5.44
398.816	5.38
399.176	5.29
399.535	5.27
399.895	5.2
400.255	5.12
400.615	5.05
400.975	4.99
401.334	4.97
401.694	4.95
402.054	4.92
402.413	4.88
402.773	4.88
403.132	4.85
403.492	4.79
403.851	4.69
404.211	4.64
404.57	4.61
404.929	4.54
405.288	4.53
405.648	4.53
406.007	4.5
406.366	4.49
406.725	4.45
407.084	4.4
407.443	4.39
407.802	4.4
408.161	4.39
408.52	4.37
408.879	4.34
409.238	4.29
409.596	4.28
409.955	4.28
410.314	4.23
410.673	4.22
411.031	4.21
411.39	4.22
411.748	4.23
412.107	4.2
412.465	4.2
412.824	4.17
413.182	4.15
413.54	4.14
413.899	4.11
414.257	4.12
414.615	4.1
414.974	4.07
415.332	4.05
415.69	4.03
416.048	3.99
416.406	3.95
416.764	3.93
417.122	3.91
417.48	3.88
417.838	3.86
418.195	3.83
418.553	3.8
418.911	3.77
419.269	3.74
419.626	3.73
419.984	3.71
420.342	3.69
420.699	3.67
421.057	3.64
421.414	3.63
421.772	3.62
422.129	3.6
422.486	3.59
422.844	3.57
423.201	3.54
423.558	3.54
423.915	3.54
424.273	3.53
424.63	3.52
424.987	3.51
425.344	3.49
425.701	3.48
426.058	3.46
426.415	3.46
426.772	3.43
427.128	3.41
427.485	3.41
427.842	3.4
428.199	3.39
428.555	3.39
428.912	3.35
429.269	3.33
429.625	3.34
429.982	3.33
430.338	3.32
430.695	3.3
431.051	3.28
431.407	3.27
431.764	3.26
432.12	3.25
432.476	3.25
432.832	3.26
433.189	3.23
433.545	3.25
433.901	3.25
434.257	3.24
434.613	3.24
434.969	3.22
435.325	3.21
435.681	3.2
436.036	3.2
436.392	3.19
436.748	3.2
437.104	3.18
437.459	3.17
437.815	3.16
438.171	3.17
438.526	3.17
438.882	3.18
439.237	3.18
439.593	3.2
439.948	3.18
440.304	3.17
440.659	3.2
441.014	3.18
441.369	3.19
441.725	3.21
442.08	3.21
442.435	3.22
442.79	3.22
443.145	3.22
443.5	3.23
443.855	3.22
444.21	3.22
444.565	3.22
444.92	3.22
445.275	3.22
445.629	3.22
445.984	3.21
446.339	3.21
446.693	3.19
447.048	3.17
447.403	3.16
447.757	3.16
448.112	3.14
448.466	3.12
448.82	3.1
449.175	3.09
449.529	3.08
449.883	3.07
450.238	3.07
450.592	3.06
450.946	3.04
451.3	3.03
451.654	3.02
452.008	2.99
452.362	2.98
452.716	3
453.07	2.98
453.424	2.98
453.778	2.97
454.132	2.96
454.486	2.98
454.839	3
455.193	3.01
455.547	2.99
455.9	3
456.254	3.01
456.607	3
456.961	3.01
457.314	3.02
457.668	3.01
458.021	3
458.375	3.01
458.728	3.01
459.081	3.02
459.434	3.02
459.787	3.03
460.141	3.03
460.494	3.05
460.847	3.04
461.2	3.03
461.553	3.04
461.906	3.05
462.259	3.02
462.611	3.03
462.964	3.05
463.317	3.06
463.67	3.05
464.022	3.05
464.375	3.05
464.728	3.05
465.08	3.05
465.433	3.05
465.785	3.09
466.138	3.09
466.49	3.09
466.843	3.12
467.195	3.15
467.547	3.14
467.899	3.14
468.252	3.17
468.604	3.2
468.956	3.22
469.308	3.23
469.66	3.25
470.012	3.25
470.364	3.27
470.716	3.29
471.068	3.32
471.42	3.33
471.772	3.35
472.123	3.36
472.475	3.38
472.827	3.4
473.178	3.39
473.53	3.42
473.882	3.44
474.233	3.43
474.585	3.41
474.936	3.43
475.288	3.42
475.639	3.44
475.99	3.42
476.342	3.41
476.693	3.39
477.044	3.39
477.395	3.39
477.746	3.39
478.097	3.38
478.448	3.37
478.8	3.36
479.15	3.35
479.501	3.33
479.852	3.33
480.203	3.32
480.554	3.31
480.905	3.31
481.255	3.32
481.606	3.32
481.957	3.32
482.307	3.32
482.658	3.33
483.009	3.31
483.359	3.31
483.709	3.31
484.06	3.31
484.41	3.31
484.761	3.3
485.111	3.3
485.461	3.29
485.811	3.29
486.162	3.29
486.512	3.28
486.862	3.29
487.212	3.28
487.562	3.28
487.912	3.28
488.262	3.27
488.612	3.27
488.961	3.27
489.311	3.26
489.661	3.25
490.011	3.24
490.36	3.25
490.71	3.25
491.06	3.26
491.409	3.26
491.759	3.26
492.108	3.27
492.458	3.27
492.807	3.28
493.157	3.29
493.506	3.3
493.855	3.31
494.204	3.34
494.554	3.37
494.903	3.36
495.252	3.38
495.601	3.41
495.95	3.41
496.299	3.43
496.648	3.48
496.997	3.52
497.346	3.57
497.695	3.6
498.043	3.63
498.392	3.65
498.741	3.7
499.09	3.75
499.438	3.78
499.787	3.83
500.135	3.86
500.484	3.91
500.832	3.95
501.181	4.01
501.529	4.06
501.878	4.12
502.226	4.19
502.574	4.24
502.923	4.28
503.271	4.33
503.619	4.39
503.967	4.43
504.315	4.49
504.663	4.54
505.011	4.58
505.359	4.63
505.707	4.71
506.055	4.77
506.403	4.82
506.751	4.88
507.098	4.96
507.446	5.05
507.794	5.12
508.141	5.21
508.489	5.29
508.837	5.36
509.184	5.43
509.531	5.51
509.879	5.6
510.226	5.71
510.574	5.81
510.921	5.89
511.268	6
511.616	6.09
511.963	6.2
512.31	6.31
512.657	6.43
513.004	6.53
513.351	6.68
513.698	6.82
514.045	6.97
514.392	7.11
514.739	7.24
515.086	7.39
515.432	7.54
515.779	7.67
516.126	7.83
516.473	7.98
516.819	8.12
517.166	8.26
517.512	8.39
517.859	8.51
518.205	8.65
518.552	8.76
518.898	8.89
519.245	9.03
519.591	9.16
519.937	9.3
520.283	9.45
520.629	9.58
520.976	9.74
521.322	9.87
521.668	10.03
522.014	10.22
522.36	10.39
522.706	10.56
523.052	10.77
523.398	10.96
523.743	11.16
524.089	11.37
524.435	11.57
524.781	11.76
525.126	11.95
525.472	12.1
525.817	12.25
526.163	12.39
526.509	12.52
526.854	12.65
527.199	12.76
527.545	12.87
527.89	12.96
528.235	13.08
528.581	13.2
528.926	13.31
529.271	13.41
529.616	13.52
529.961	13.62
530.306	13.73
530.651	13.85
530.996	13.97
531.341	14.1
531.686	14.22
532.031	14.36
532.376	14.49
532.721	14.63
533.065	14.79
533.41	14.94
533.755	15.08
534.099	15.21
534.444	15.37
534.788	15.53
535.133	15.73
535.477	15.9
535.822	16.07
536.166	16.26
536.51	16.44
536.855	16.65
537.199	16.87
537.543	17.08
537.887	17.31
538.231	17.55
538.576	17.75
538.92	17.98
539.264	18.18
539.608	18.38
539.951	18.55
540.295	18.72
540.639	18.9
540.983	19.07
541.327	19.26
541.671	19.46
542.014	19.62
542.358	19.78
542.701	19.94
543.045	20.11
543.389	20.28
543.732	20.47
544.075	20.67
544.419	20.85
544.762	21.05
545.105	21.25
545.449	21.45
545.792	21.67
546.135	21.9
546.478	22.14
546.821	22.4
547.165	22.7
547.508	22.96
547.851	23.21
548.194	23.5
548.536	23.78
548.879	24.02
549.222	24.3
549.565	24.56
549.908	24.82
550.25	25.12
550.593	25.38
550.936	25.66
551.278	25.9
551.621	26.19
551.963	26.48
552.306	26.75
552.648	27.06
552.991	27.4
553.333	27.65
553.675	27.93
554.017	28.16
554.36	28.4
554.702	28.7
555.044	28.99
555.386	29.25
555.728	29.52
556.07	29.81
556.412	30.09
556.754	30.38
557.096	30.65
557.438	30.93
557.78	31.26
558.121	31.59
558.463	31.91
558.805	32.22
559.147	32.53
559.488	32.9
559.83	33.15
560.171	33.41
560.513	33.71
560.854	33.97
561.196	34.34
561.537	34.67
561.878	34.93
562.22	35.25
562.561	35.54
562.902	35.83
563.243	36.12
563.584	36.37
563.925	36.69
564.266	37
564.607	37.25
564.948	37.5
565.289	37.73
565.63	37.95
565.971	38.21
566.312	38.5
566.653	38.73
566.993	39.03
567.334	39.28
567.675	39.53
568.015	39.79
568.356	40.02
568.696	40.29
569.037	40.58
569.377	40.82
569.718	41.11
570.058	41.35
570.398	41.69
570.739	42
571.079	42.26
571.419	42.46
571.759	42.7
572.099	42.96
572.439	43.18
572.779	43.45
573.119	43.66
573.459	43.84
573.799	44.04
574.139	44.25
574.479	44.48
574.819	44.68
575.158	44.92
575.498	45.11
575.838	45.28
576.177	45.5
576.517	45.72
576.856	45.91
577.196	46.14
577.535	46.28
577.875	46.45
578.214	46.63
578.553	46.92
578.893	47.16
579.232	47.39
579.571	47.69
579.91	47.94
580.25	48.16
580.589	48.41
580.928	48.68
581.267	48.87
581.606	49.07
581.945	49.35
582.283	49.54
582.622	49.73
582.961	50.02
583.3	50.21
583.639	50.4
583.977	50.6
584.316	50.69
584.654	50.92
584.993	51.18
585.332	51.29
585.67	51.46
586.008	51.67
586.347	51.79
586.685	51.95
587.024	52.06
587.362	52.22
587.7	52.35
588.038	52.42
588.376	52.58
588.715	52.76
589.053	52.85
589.391	53.06
589.729	53.21
590.067	53.27
590.404	53.45
590.742	53.65
591.08	53.86
591.418	54.1
591.756	54.26
592.093	54.38
592.431	54.58
592.769	54.72
593.106	54.89
593.444	55.04
593.781	55.15
594.119	55.34
594.456	55.48
594.793	55.54
595.131	55.7
595.468	55.81
595.805	55.87
596.143	56.03
596.48	56.1
596.817	56.24
597.154	56.42
597.491	56.52
597.828	56.55
598.165	56.58
598.502	56.69
598.839	56.8
599.176	56.87
599.512	56.98
599.849	57.11
600.186	57.21
600.523	57.3
600.859	57.39
601.196	57.49
601.532	57.63
601.869	57.78
602.205	57.9
602.542	57.97
602.878	58.1
603.215	58.21
603.551	58.28
603.887	58.36
604.223	58.38
604.56	58.47
604.896	58.59
605.232	58.66
605.568	58.76
605.904	58.76
606.24	58.88
606.576	58.96
606.912	59.02
607.248	59.04
607.583	59.09
607.919	59.19
608.255	59.23
608.591	59.28
608.926	59.37
609.262	59.4
609.597	59.53
609.933	59.57
610.268	59.56
610.604	59.59
610.939	59.69
611.275	59.78
611.61	59.8
611.945	59.79
612.281	59.92
612.616	59.97
612.951	60.1
613.286	60.13
613.621	60.15
613.956	60.25
614.291	60.33
614.626	60.41
614.961	60.46
615.296	60.54
615.631	60.58
615.966	60.7
616.3	60.78
616.635	60.79
616.97	60.85
617.304	60.95
617.639	61.07
617.973	61.07
618.308	61.1
618.642	61.11
618.977	61.19
619.311	61.18
619.646	61.25
619.98	61.31
620.314	61.41
620.648	61.56
620.983	61.56
621.317	61.61
621.651	61.69
621.985	61.79
622.319	61.83
622.653	61.93
622.987	61.92
623.321	61.98
623.655	62.01
623.988	62.04
624.322	62.03
624.656	62.18
624.99	62.2
625.323	62.23
625.657	62.25
625.99	62.34
626.324	62.35
626.657	62.46
626.991	62.46
627.324	62.43
627.658	62.51
627.991	62.57
628.324	62.6
628.657	62.61
628.991	62.62
629.324	62.71
629.657	62.72
629.99	62.73
630.323	62.74
630.656	62.73
630.989	62.82
631.322	62.87
631.655	62.73
631.987	62.76
632.32	62.79
632.653	62.86
632.986	62.93
633.318	62.96
633.651	62.79
633.984	62.78
634.316	62.82
634.649	62.8
634.981	62.81
635.313	62.9
635.646	62.92
635.978	62.88
636.31	62.88
636.643	62.77
636.975	62.73
637.307	62.76
637.639	62.85
637.971	62.83
638.303	62.87
638.635	62.96
638.967	63
639.299	62.97
639.631	62.96
639.963	62.83
640.295	62.85
640.626	62.98
640.958	63.18
641.29	63.33
641.621	63.3
641.953	63.25
642.285	63.27
642.616	63.33
642.948	63.42
643.279	63.46
643.61	63.67
643.942	63.73
644.273	63.71
644.604	63.78
644.936	63.78
645.267	63.88
645.598	63.9
645.929	63.85
646.26	63.9
646.591	63.92
646.922	64.03
647.253	64.03
647.584	64.07
647.915	64
648.245	63.91
648.576	63.93
648.907	64.04
649.238	64.05
649.568	64.13
649.899	64.12
650.229	64.18
650.56	64.2
650.89	64.24
651.221	64.28
651.551	64.12
651.882	64.14
652.212	64.16
652.542	64.05
652.872	64.18
653.203	64.23
653.533	64.26
653.863	64.38
654.193	64.38
654.523	64.39
654.853	64.17
655.183	64.17
655.513	64.14
655.843	64.13
656.172	64.13
656.502	64.11
656.832	64.23
657.162	64.18
657.491	64.08
657.821	64.05
658.15	64.12
658.48	64.22
658.809	64.37
659.139	64.34
659.468	64.37
659.798	64.3
660.127	64.44
660.456	64.44
660.785	64.47
661.115	64.48
661.444	64.48
661.773	64.61
662.102	64.67
662.431	64.7
662.76	64.7
663.089	64.67
663.418	64.66
663.747	64.62
664.076	64.58
664.404	64.57
664.733	64.54
665.062	64.5
665.39	64.58
