Data from BU57647_Reflection_00004.txt Node
Date: Mon Nov 18 16:49:25 EST 2019
User: vgr7
Spectrometer: USB2G7710
Scans to average: 3
Trigger mode: 4
Integration Time (sec): 2.000000E-2
Electric dark correction enabled: true
Boxcar width: 10
XAxis mode: Wavelengths
Number of Pixels in Spectrum: 2048
>>>>>Begin Spectral Data<<<<<
177.721	33.54
178.105	22.19
178.488	44.79
178.871	-187.23
179.254	106.83
179.636	-291.3
180.019	71.79
180.402	37.5
180.785	-20.64
181.168	-36.88
181.55	-26.55
181.933	108.87
182.316	121.22
182.698	86.08
183.081	173.89
183.463	228.64
183.846	-2107.55
184.228	-11627.27
184.611	-548.98
184.993	-181.36
185.376	-136.91
185.758	-144.36
186.14	-87.9
186.522	-107.14
186.904	-76.47
187.287	-150.26
187.669	-81.71
188.051	-144.67
188.433	-72.61
188.815	-46.16
189.197	-52.44
189.579	-40.55
189.961	-35.25
190.342	-35.86
190.724	-8.64
191.106	-38.43
191.488	-37.6
191.869	-71.47
192.251	-65.13
192.633	-74.74
193.014	-43.44
193.396	-79.74
193.777	-68.76
194.159	-310.07
194.54	-244.62
194.922	-540.1
195.303	-359.79
195.684	-177.36
196.065	-81.76
196.447	-107.26
196.828	-181
197.209	-103.58
197.59	-97.54
197.971	-77.56
198.352	-54.58
198.733	-95.01
199.114	-70.47
199.495	-58.59
199.876	-24.83
200.257	-34.92
200.638	-25.24
201.018	-60.49
201.399	-52.05
201.78	-38.88
202.16	-33.61
202.541	-56.37
202.922	-60.51
203.302	-110.27
203.683	-123.42
204.063	-214.69
204.444	-203.31
204.824	-199.85
205.204	-265.6
205.585	-282.7
205.965	-367.34
206.345	-410.29
206.725	-1672.09
207.106	-2096.17
207.486	1013.61
207.866	1315.46
208.246	3320.86
208.626	2798.49
209.006	-1621.31
209.386	6205.88
209.766	-12985.11
210.145	-2174.02
210.525	-320.35
210.905	-313.36
211.285	-259.03
211.664	-241.24
212.044	-170.23
212.424	-148.79
212.803	-161.28
213.183	-168.21
213.562	-154.33
213.942	-166.22
214.321	-148.82
214.701	-127.74
215.08	-107.89
215.459	-86.36
215.838	-73.73
216.218	-84.73
216.597	-64.6
216.976	-69.26
217.355	-58.77
217.734	-56.24
218.113	-44.93
218.492	-50.23
218.871	-46.11
219.25	-37.84
219.629	-34.56
220.008	-51.39
220.387	-57.12
220.766	-60.65
221.144	-76.38
221.523	-90.65
221.902	-77.07
222.28	-94.17
222.659	-82.46
223.037	-90.19
223.416	-134.91
223.794	-125.49
224.173	-99.91
224.551	-92.5
224.929	-91.31
225.308	-75.91
225.686	-59.22
226.064	-52.78
226.442	-40.77
226.821	-26.76
227.199	-24.42
227.577	-21.32
227.955	-24.4
228.333	-24.54
228.711	-17.21
229.089	-13.56
229.467	-14.76
229.845	-12.92
230.222	-11.47
230.6	-14.13
230.978	-13.19
231.356	-6.96
231.733	-5.46
232.111	-5.25
232.488	-4.47
232.866	-4.25
233.243	-4.44
233.621	-6.22
233.998	-6.35
234.376	-8.62
234.753	-10.01
235.13	-9.11
235.508	-8.49
235.885	-6.45
236.262	-5.14
236.639	-4.22
237.016	-2.79
237.393	-2.22
237.77	-1.95
238.147	0.17
238.524	0.38
238.901	2.19
239.278	2.68
239.655	2.52
240.032	2.08
240.409	2.21
240.785	3.12
241.162	3.4
241.539	3.91
241.915	4.02
242.292	4.36
242.668	4.2
243.045	4.58
243.421	4.25
243.798	4.55
244.174	4.81
244.551	4.76
244.927	4.58
245.303	5.05
245.679	5.13
246.056	4.83
246.432	4.95
246.808	4.66
247.184	4.21
247.56	4.51
247.936	4.56
248.312	4.53
248.688	4.23
249.064	3.99
249.44	4.05
249.815	3.97
250.191	4.05
250.567	4.37
250.943	4.12
251.318	4.5
251.694	4.34
252.069	4.12
252.445	4.21
252.82	4.38
253.196	3.98
253.571	4.26
253.947	4.25
254.322	4.16
254.697	4.21
255.073	4.46
255.448	4.01
255.823	4.12
256.198	4.11
256.573	4.25
256.948	4.69
257.323	4.69
257.698	4.96
258.073	5.01
258.448	4.76
258.823	4.76
259.198	4.57
259.573	4.54
259.948	4.57
260.322	4.64
260.697	4.68
261.072	4.7
261.446	4.54
261.821	4.53
262.195	4.52
262.57	4.57
262.944	4.59
263.319	4.56
263.693	4.47
264.067	4.48
264.442	4.62
264.816	4.36
265.19	4.3
265.564	4.04
265.938	3.81
266.313	3.7
266.687	3.68
267.061	3.9
267.435	3.92
267.809	3.82
268.183	3.66
268.556	3.55
268.93	3.56
269.304	3.64
269.678	3.82
270.051	3.77
270.425	3.73
270.799	3.83
271.172	3.98
271.546	4.02
271.919	4.01
272.293	3.93
272.666	4.16
273.04	4.06
273.413	4.08
273.787	4.15
274.16	4.28
274.533	4.38
274.906	4.34
275.279	4.47
275.653	4.44
276.026	4.4
276.399	4.38
276.772	4.36
277.145	4.19
277.518	4.06
277.891	4.3
278.263	4.27
278.636	4.32
279.009	4.31
279.382	4.51
279.755	4.51
280.127	4.86
280.5	4.79
280.872	5.07
281.245	5.04
281.617	4.97
281.99	5.02
282.362	5.08
282.735	4.86
283.107	4.78
283.479	4.92
283.852	4.91
284.224	4.83
284.596	4.83
284.968	4.91
285.34	5.04
285.713	4.84
286.085	4.89
286.457	4.84
286.829	4.83
287.201	4.8
287.572	4.88
287.944	4.6
288.316	4.57
288.688	4.5
289.06	4.5
289.431	4.56
289.803	4.62
290.175	4.63
290.546	4.78
290.918	4.89
291.289	4.91
291.661	4.94
292.032	5.04
292.403	5.04
292.775	5.09
293.146	5.02
293.517	5.22
293.889	5.26
294.26	5.32
294.631	5.38
295.002	5.34
295.373	5.33
295.744	5.38
296.115	5.45
296.486	5.19
296.857	5.29
297.228	5.36
297.599	5.21
297.97	5.1
298.34	5.06
298.711	5.1
299.082	5.07
299.452	5.16
299.823	5.19
300.194	5.22
300.564	5.19
300.935	5.14
301.305	5.12
301.676	5.11
302.046	4.98
302.416	4.93
302.787	4.8
303.157	4.77
303.527	4.7
303.897	4.64
304.267	4.98
304.637	5.06
305.008	5.02
305.378	5.2
305.748	5.22
306.117	5.25
306.487	5.16
306.857	5.19
307.227	5.29
307.597	5.25
307.967	5.3
308.336	5.24
308.706	5.38
309.076	5.31
309.445	5.26
309.815	5.19
310.184	5.28
310.554	5.38
310.923	5.36
311.293	5.56
311.662	5.6
312.031	5.49
312.401	5.38
312.77	5.48
313.139	5.5
313.508	5.52
313.877	5.44
314.246	5.35
314.616	5.21
314.985	4.95
315.353	4.93
315.722	5.07
316.091	5.09
316.46	4.98
316.829	4.9
317.198	4.99
317.567	5.13
317.935	5.05
318.304	5.04
318.672	5.06
319.041	5.03
319.41	5.03
319.778	4.97
320.147	5.06
320.515	5.01
320.883	4.83
321.252	4.95
321.62	5
321.988	5.13
322.357	5.34
322.725	5.51
323.093	5.62
323.461	5.41
323.829	5.57
324.197	5.59
324.565	5.62
324.933	5.59
325.301	5.63
325.669	5.54
326.037	5.51
326.405	5.46
326.772	5.45
327.14	5.5
327.508	5.49
327.875	5.43
328.243	5.53
328.61	5.59
328.978	5.45
329.346	5.48
329.713	5.41
330.08	5.37
330.448	5.34
330.815	5.17
331.182	5.17
331.55	5.08
331.917	5.23
332.284	5.22
332.651	5.29
333.018	5.2
333.385	5.4
333.752	5.63
334.119	5.73
334.486	5.56
334.853	5.56
335.22	5.71
335.587	5.77
335.954	5.71
336.32	5.65
336.687	5.65
337.054	5.65
337.42	5.78
337.787	5.79
338.153	5.78
338.52	5.85
338.886	5.86
339.253	5.8
339.619	5.66
339.986	5.68
340.352	5.75
340.718	5.78
341.084	5.7
341.451	5.57
341.817	5.51
342.183	5.61
342.549	5.58
342.915	5.48
343.281	5.47
343.647	5.47
344.013	5.57
344.379	5.58
344.745	5.63
345.11	5.55
345.476	5.6
345.842	5.65
346.208	5.59
346.573	5.69
346.939	5.82
347.304	5.88
347.67	5.89
348.035	5.77
348.401	5.68
348.766	5.65
349.132	5.67
349.497	5.74
349.862	5.76
350.228	5.83
350.593	5.86
350.958	5.88
351.323	5.82
351.688	5.77
352.053	5.82
352.418	5.87
352.783	5.78
353.148	5.72
353.513	5.64
353.878	5.64
354.243	5.64
354.608	5.59
354.972	5.57
355.337	5.62
355.702	5.67
356.066	5.81
356.431	5.79
356.795	5.77
357.16	5.76
357.524	5.75
357.889	5.67
358.253	5.71
358.618	5.75
358.982	5.76
359.346	5.73
359.71	5.75
360.075	5.7
360.439	5.78
360.803	5.78
361.167	5.8
361.531	5.82
361.895	5.7
362.259	5.74
362.623	5.77
362.987	5.72
363.351	5.7
363.714	5.69
364.078	5.71
364.442	5.69
364.806	5.68
365.169	5.61
365.533	5.65
365.896	5.57
366.26	5.49
366.623	5.48
366.987	5.52
367.35	5.53
367.714	5.55
368.077	5.53
368.44	5.56
368.803	5.53
369.167	5.54
369.53	5.6
369.893	5.62
370.256	5.58
370.619	5.56
370.982	5.53
371.345	5.47
371.708	5.45
372.071	5.42
372.434	5.37
372.797	5.41
373.159	5.38
373.522	5.47
373.885	5.55
374.247	5.62
374.61	5.63
374.973	5.55
375.335	5.56
375.698	5.54
376.06	5.49
376.423	5.56
376.785	5.59
377.147	5.64
377.51	5.59
377.872	5.6
378.234	5.63
378.596	5.66
378.958	5.64
379.321	5.68
379.683	5.75
380.045	5.8
380.407	5.76
380.769	5.75
381.13	5.67
381.492	5.59
381.854	5.53
382.216	5.55
382.578	5.6
382.939	5.53
383.301	5.52
383.663	5.52
384.024	5.47
384.386	5.52
384.747	5.54
385.109	5.55
385.47	5.5
385.832	5.53
386.193	5.56
386.554	5.62
386.916	5.59
387.277	5.56
387.638	5.57
387.999	5.55
388.36	5.58
388.721	5.64
389.082	5.66
389.443	5.63
389.804	5.58
390.165	5.57
390.526	5.61
390.887	5.63
391.248	5.66
391.609	5.68
391.969	5.65
392.33	5.63
392.691	5.63
393.051	5.65
393.412	5.65
393.772	5.61
394.133	5.56
394.493	5.57
394.854	5.58
395.214	5.57
395.574	5.61
395.935	5.58
396.295	5.59
396.655	5.58
397.015	5.59
397.376	5.62
397.736	5.6
398.096	5.61
398.456	5.6
398.816	5.61
399.176	5.57
399.535	5.51
399.895	5.46
400.255	5.47
400.615	5.49
400.975	5.44
401.334	5.48
401.694	5.48
402.054	5.45
402.413	5.44
402.773	5.38
403.132	5.39
403.492	5.38
403.851	5.36
404.211	5.38
404.57	5.37
404.929	5.39
405.288	5.42
405.648	5.39
406.007	5.4
406.366	5.37
406.725	5.43
407.084	5.47
407.443	5.52
407.802	5.5
408.161	5.49
408.52	5.51
408.879	5.47
409.238	5.5
409.596	5.53
409.955	5.55
410.314	5.59
410.673	5.58
411.031	5.61
411.39	5.6
411.748	5.59
412.107	5.62
412.465	5.58
412.824	5.57
413.182	5.54
413.54	5.56
413.899	5.57
414.257	5.56
414.615	5.55
414.974	5.55
415.332	5.54
415.69	5.53
416.048	5.52
416.406	5.54
416.764	5.54
417.122	5.52
417.48	5.48
417.838	5.51
418.195	5.51
418.553	5.49
418.911	5.5
419.269	5.48
419.626	5.47
419.984	5.49
420.342	5.5
420.699	5.51
421.057	5.49
421.414	5.48
421.772	5.47
422.129	5.47
422.486	5.47
422.844	5.47
423.201	5.46
423.558	5.45
423.915	5.44
424.273	5.44
424.63	5.43
424.987	5.45
425.344	5.44
425.701	5.42
426.058	5.42
426.415	5.41
426.772	5.42
427.128	5.42
427.485	5.41
427.842	5.39
428.199	5.41
428.555	5.41
428.912	5.41
429.269	5.43
429.625	5.41
429.982	5.4
430.338	5.4
430.695	5.42
431.051	5.4
431.407	5.4
431.764	5.39
432.12	5.4
432.476	5.39
432.832	5.37
433.189	5.4
433.545	5.41
433.901	5.42
434.257	5.41
434.613	5.42
434.969	5.42
435.325	5.42
435.681	5.42
436.036	5.41
436.392	5.43
436.748	5.42
437.104	5.42
437.459	5.41
437.815	5.4
438.171	5.42
438.526	5.44
438.882	5.43
439.237	5.43
439.593	5.44
439.948	5.44
440.304	5.47
440.659	5.48
441.014	5.46
441.369	5.43
441.725	5.43
442.08	5.41
442.435	5.41
442.79	5.41
443.145	5.4
443.5	5.41
443.855	5.4
444.21	5.39
444.565	5.4
444.92	5.42
445.275	5.42
445.629	5.41
445.984	5.42
446.339	5.42
446.693	5.41
447.048	5.4
447.403	5.4
447.757	5.38
448.112	5.37
448.466	5.36
448.82	5.37
449.175	5.37
449.529	5.37
449.883	5.35
450.238	5.36
450.592	5.37
450.946	5.36
451.3	5.35
451.654	5.34
452.008	5.33
452.362	5.31
452.716	5.31
453.07	5.31
453.424	5.29
453.778	5.28
454.132	5.27
454.486	5.27
454.839	5.26
455.193	5.26
455.547	5.24
455.9	5.26
456.254	5.3
456.607	5.31
456.961	5.33
457.314	5.36
457.668	5.36
458.021	5.33
458.375	5.33
458.728	5.33
459.081	5.34
459.434	5.35
459.787	5.36
460.141	5.36
460.494	5.36
460.847	5.37
461.2	5.38
461.553	5.39
461.906	5.41
462.259	5.44
462.611	5.44
462.964	5.47
463.317	5.47
463.67	5.45
464.022	5.43
464.375	5.41
464.728	5.4
465.08	5.39
465.433	5.43
465.785	5.44
466.138	5.46
466.49	5.48
466.843	5.47
467.195	5.46
467.547	5.46
467.899	5.45
468.252	5.46
468.604	5.46
468.956	5.45
469.308	5.44
469.66	5.43
470.012	5.43
470.364	5.42
470.716	5.41
471.068	5.42
471.42	5.44
471.772	5.47
472.123	5.49
472.475	5.48
472.827	5.46
473.178	5.45
473.53	5.45
473.882	5.45
474.233	5.46
474.585	5.44
474.936	5.48
475.288	5.48
475.639	5.48
475.99	5.5
476.342	5.53
476.693	5.54
477.044	5.56
477.395	5.57
477.746	5.55
478.097	5.54
478.448	5.54
478.8	5.54
479.15	5.54
479.501	5.54
479.852	5.54
480.203	5.57
480.554	5.57
480.905	5.59
481.255	5.59
481.606	5.59
481.957	5.61
482.307	5.6
482.658	5.61
483.009	5.61
483.359	5.61
483.709	5.6
484.06	5.6
484.41	5.59
484.761	5.59
485.111	5.59
485.461	5.6
485.811	5.61
486.162	5.6
486.512	5.61
486.862	5.61
487.212	5.61
487.562	5.6
487.912	5.6
488.262	5.6
488.612	5.58
488.961	5.58
489.311	5.58
489.661	5.58
490.011	5.57
490.36	5.56
490.71	5.55
491.06	5.55
491.409	5.55
491.759	5.56
492.108	5.56
492.458	5.56
492.807	5.56
493.157	5.57
493.506	5.58
493.855	5.56
494.204	5.56
494.554	5.58
494.903	5.56
495.252	5.58
495.601	5.59
495.95	5.62
496.299	5.63
496.648	5.63
496.997	5.61
497.346	5.61
497.695	5.64
498.043	5.64
498.392	5.64
498.741	5.64
499.09	5.63
499.438	5.67
499.787	5.67
500.135	5.69
500.484	5.7
500.832	5.71
501.181	5.73
501.529	5.75
501.878	5.76
502.226	5.78
502.574	5.78
502.923	5.77
503.271	5.77
503.619	5.8
503.967	5.83
504.315	5.84
504.663	5.88
505.011	5.89
505.359	5.91
505.707	5.94
506.055	5.95
506.403	5.99
506.751	5.98
507.098	5.99
507.446	5.99
507.794	5.98
508.141	5.97
508.489	5.98
508.837	5.98
509.184	6
509.531	6.02
509.879	6.03
510.226	6.05
510.574	6.05
510.921	6.05
511.268	6.04
511.616	6.06
511.963	6.06
512.31	6.09
512.657	6.09
513.004	6.12
513.351	6.14
513.698	6.13
514.045	6.14
514.392	6.16
514.739	6.17
515.086	6.18
515.432	6.2
515.779	6.2
516.126	6.23
516.473	6.23
516.819	6.24
517.166	6.24
517.512	6.24
517.859	6.26
518.205	6.26
518.552	6.3
518.898	6.3
519.245	6.29
519.591	6.28
519.937	6.27
520.283	6.27
520.629	6.27
520.976	6.28
521.322	6.29
521.668	6.31
522.014	6.3
522.36	6.32
522.706	6.32
523.052	6.33
523.398	6.34
523.743	6.34
524.089	6.34
524.435	6.34
524.781	6.34
525.126	6.34
525.472	6.36
525.817	6.36
526.163	6.36
526.509	6.36
526.854	6.37
527.199	6.38
527.545	6.38
527.89	6.39
528.235	6.39
528.581	6.39
528.926	6.38
529.271	6.39
529.616	6.39
529.961	6.37
530.306	6.37
530.651	6.37
530.996	6.38
531.341	6.37
531.686	6.37
532.031	6.39
532.376	6.38
532.721	6.38
533.065	6.38
533.41	6.39
533.755	6.39
534.099	6.38
534.444	6.39
534.788	6.39
535.133	6.38
535.477	6.38
535.822	6.38
536.166	6.38
536.51	6.37
536.855	6.37
537.199	6.39
537.543	6.41
537.887	6.41
538.231	6.39
538.576	6.41
538.92	6.42
539.264	6.41
539.608	6.41
539.951	6.42
540.295	6.41
540.639	6.43
540.983	6.43
541.327	6.45
541.671	6.45
542.014	6.47
542.358	6.48
542.701	6.48
543.045	6.48
543.389	6.48
543.732	6.49
544.075	6.5
544.419	6.49
544.762	6.5
545.105	6.5
545.449	6.52
545.792	6.53
546.135	6.55
546.478	6.56
546.821	6.53
547.165	6.52
547.508	6.52
547.851	6.51
548.194	6.5
548.536	6.49
548.879	6.51
549.222	6.48
549.565	6.45
549.908	6.48
550.25	6.49
550.593	6.51
550.936	6.5
551.278	6.47
551.621	6.48
551.963	6.48
552.306	6.47
552.648	6.43
552.991	6.42
553.333	6.41
553.675	6.41
554.017	6.45
554.36	6.43
554.702	6.45
555.044	6.42
555.386	6.45
555.728	6.42
556.07	6.42
556.412	6.41
556.754	6.43
557.096	6.38
557.438	6.4
557.78	6.39
558.121	6.42
558.463	6.44
558.805	6.44
559.147	6.41
559.488	6.42
559.83	6.43
560.171	6.44
560.513	6.47
560.854	6.46
561.196	6.49
561.537	6.52
561.878	6.53
562.22	6.55
562.561	6.55
562.902	6.56
563.243	6.56
563.584	6.6
563.925	6.62
564.266	6.63
564.607	6.62
564.948	6.63
565.289	6.65
565.63	6.64
565.971	6.61
566.312	6.63
566.653	6.6
566.993	6.6
567.334	6.6
567.675	6.6
568.015	6.6
568.356	6.58
568.696	6.57
569.037	6.56
569.377	6.57
569.718	6.58
570.058	6.6
570.398	6.6
570.739	6.6
571.079	6.58
571.419	6.59
571.759	6.61
572.099	6.59
572.439	6.58
572.779	6.58
573.119	6.63
573.459	6.64
573.799	6.69
574.139	6.69
574.479	6.7
574.819	6.7
575.158	6.69
575.498	6.71
575.838	6.7
576.177	6.7
576.517	6.66
576.856	6.66
577.196	6.65
577.535	6.63
577.875	6.61
578.214	6.63
578.553	6.64
578.893	6.63
579.232	6.64
579.571	6.59
579.91	6.58
580.25	6.59
580.589	6.59
580.928	6.56
581.267	6.53
581.606	6.49
581.945	6.46
582.283	6.49
582.622	6.47
582.961	6.53
583.3	6.55
583.639	6.61
583.977	6.62
584.316	6.62
584.654	6.65
584.993	6.67
585.332	6.7
585.67	6.65
586.008	6.63
586.347	6.66
586.685	6.69
587.024	6.69
587.362	6.67
587.7	6.65
588.038	6.7
588.376	6.73
588.715	6.78
589.053	6.83
589.391	6.85
589.729	6.87
590.067	6.8
590.404	6.8
590.742	6.8
591.08	6.77
591.418	6.79
591.756	6.77
592.093	6.77
592.431	6.73
592.769	6.74
593.106	6.75
593.444	6.72
593.781	6.72
594.119	6.71
594.456	6.74
594.793	6.77
595.131	6.72
595.468	6.71
595.805	6.67
596.143	6.66
596.48	6.65
596.817	6.66
597.154	6.68
597.491	6.68
597.828	6.62
598.165	6.62
598.502	6.59
598.839	6.63
599.176	6.63
599.512	6.63
599.849	6.67
600.186	6.67
600.523	6.71
600.859	6.74
601.196	6.79
601.532	6.78
601.869	6.73
602.205	6.74
602.542	6.74
602.878	6.77
603.215	6.75
603.551	6.77
603.887	6.76
604.223	6.72
604.56	6.77
604.896	6.81
605.232	6.85
605.568	6.88
605.904	6.86
606.24	6.85
606.576	6.86
606.912	6.87
607.248	6.86
607.583	6.87
607.919	6.87
608.255	6.88
608.591	6.89
608.926	6.9
609.262	6.93
609.597	6.92
609.933	6.93
610.268	6.92
610.604	6.86
610.939	6.89
611.275	6.89
611.61	6.88
611.945	6.92
612.281	6.9
612.616	6.9
612.951	6.89
613.286	6.88
613.621	6.89
613.956	6.84
614.291	6.92
614.626	6.88
614.961	6.86
615.296	6.79
615.631	6.76
615.966	6.81
616.3	6.84
616.635	6.81
616.97	6.84
617.304	6.87
617.639	6.9
617.973	6.84
618.308	6.87
618.642	6.85
618.977	6.84
619.311	6.81
619.646	6.82
619.98	6.8
620.314	6.81
620.648	6.82
620.983	6.84
621.317	6.78
621.651	6.77
621.985	6.77
622.319	6.77
622.653	6.77
622.987	6.76
623.321	6.7
623.655	6.78
623.988	6.79
624.322	6.75
624.656	6.75
624.99	6.78
625.323	6.81
625.657	6.86
625.99	6.88
626.324	6.88
626.657	6.84
626.991	6.85
627.324	6.88
627.658	6.87
627.991	6.84
628.324	6.85
628.657	6.86
628.991	6.86
629.324	6.91
629.657	7
629.99	6.99
630.323	7.08
630.656	7.1
630.989	7.08
631.322	7.08
631.655	7.13
631.987	7.13
632.32	7.11
632.653	7.06
632.986	7.05
633.318	7.09
633.651	7.15
633.984	7.17
634.316	7.13
634.649	7.17
634.981	7.2
635.313	7.22
635.646	7.22
635.978	7.27
636.31	7.23
636.643	7.12
636.975	7.11
637.307	7.05
637.639	7.03
637.971	7.02
638.303	7.06
638.635	7.01
638.967	7.07
639.299	7.08
639.631	7.05
639.963	6.98
640.295	7.02
640.626	6.94
640.958	7.05
641.29	7.05
641.621	7.01
641.953	7.01
642.285	6.98
642.616	7.02
642.948	6.97
643.279	6.97
643.61	7.01
643.942	6.99
644.273	7.05
644.604	7.04
644.936	7.05
645.267	7.04
645.598	7.13
645.929	7.08
646.26	7.12
646.591	7.15
646.922	7.18
647.253	7.2
647.584	7.16
647.915	7.05
648.245	7.01
648.576	7.05
648.907	7.07
649.238	7.14
649.568	7.14
649.899	7.16
650.229	7.21
650.56	7.23
650.89	7.26
651.221	7.2
651.551	7.21
651.882	7.2
652.212	7.15
652.542	7.07
652.872	7.03
653.203	6.98
653.533	6.95
653.863	6.98
654.193	6.91
654.523	6.98
654.853	6.99
655.183	7.04
655.513	7
655.843	6.99
656.172	6.9
656.502	6.94
656.832	7
657.162	7.03
657.491	7.07
657.821	7.06
658.15	7.07
658.48	7.05
658.809	7.04
659.139	7.13
659.468	7.12
659.798	7.12
660.127	7.17
660.456	7.19
660.785	7.16
661.115	7.16
661.444	7.14
661.773	7.16
662.102	7.15
662.431	7.18
662.76	7.22
663.089	7.25
663.418	7.26
663.747	7.13
664.076	7.1
664.404	7.02
664.733	7.11
665.062	7.08
665.39	7.08
665.719	7.08
666.048	7.08
666.376	7.08
666.705	7.12
667.033	7.04
667.362	7.05
667.69	7.03
668.018	6.99
668.347	6.97
668.675	7.03
669.003	7.08
669.331	7.14
669.659	7.08
669.987	7.05
670.315	6.99
670.643	7.08
670.971	7.15
671.299	7.26
671.627	7.21
671.955	7.21
672.283	7.15
672.61	7.18
672.938	7.1
673.266	7.2
673.593	7.32
673.921	7.3
674.249	7.34
674.576	7.39
674.904	7.45
