Data from BU57737_Reflection_00005.txt Node
Date: Mon Nov 18 16:29:44 EST 2019
User: vgr7
Spectrometer: USB2G7710
Scans to average: 3
Trigger mode: 4
Integration Time (sec): 2.000000E-2
Electric dark correction enabled: true
Boxcar width: 10
XAxis mode: Wavelengths
Number of Pixels in Spectrum: 2048
>>>>>Begin Spectral Data<<<<<
177.721	102.46
178.105	-344.44
178.488	-58.95
178.871	20.75
179.254	41.7
179.636	-76.87
180.019	73.73
180.402	196.15
180.785	-64.74
181.168	-1102.38
181.55	15.92
181.933	60.67
182.316	40.46
182.698	49.69
183.081	25.93
183.463	42.28
183.846	50.97
184.228	70.57
184.611	63.05
184.993	35.38
185.376	10.34
185.758	4.41
186.14	23.28
186.522	19.58
186.904	24.32
187.287	59.99
187.669	72.45
188.051	103.97
188.433	111.14
188.815	91.52
189.197	43.7
189.579	60.94
189.961	113.14
190.342	291.03
190.724	404.46
191.106	-1668.12
191.488	30766.67
191.869	40.26
192.251	-74.54
192.633	-62.65
193.014	-37.58
193.396	-60.88
193.777	-46.72
194.159	-63.95
194.54	-35.51
194.922	-31.86
195.303	-0.28
195.684	10.05
196.065	15.86
196.447	-1.97
196.828	-4.08
197.209	-17.1
197.59	-15.58
197.971	-26.85
198.352	-18.21
198.733	-27.94
199.114	-33.05
199.495	-32.4
199.876	-48.49
200.257	-23.92
200.638	-14.35
201.018	-30.16
201.399	-18.08
201.78	-11.38
202.16	-20.99
202.541	-47.32
202.922	-42.31
203.302	-68.79
203.683	-116.7
204.063	-170.91
204.444	-325.77
204.824	-125.32
205.204	-47.01
205.585	-31.42
205.965	13.8
206.345	-50.07
206.725	-84.95
207.106	-123.51
207.486	-77.58
207.866	-5.61
208.246	706.06
208.626	7655.56
209.006	31.53
209.386	514.81
209.766	303.31
210.145	9.39
210.525	4.07
210.905	1.79
211.285	15.47
211.664	39.46
212.044	32.35
212.424	16.16
212.803	23.44
213.183	37.89
213.562	21.28
213.942	47.61
214.321	49.69
214.701	43.17
215.08	37.8
215.459	24.3
215.838	27.37
216.218	18.86
216.597	22
216.976	19.57
217.355	27.21
217.734	29.44
218.113	17.21
218.492	17.51
218.871	4.41
219.25	7.68
219.629	-1.86
220.008	-16.43
220.387	-13.32
220.766	-28.33
221.144	-52.5
221.523	-56.96
221.902	-68.74
222.28	-104.35
222.659	-85.71
223.037	-78.17
223.416	-77.99
223.794	-68.45
224.173	-47.05
224.551	-37.48
224.929	-39.45
225.308	-33.33
225.686	-23.29
226.064	-14.01
226.442	-12.3
226.821	-5.72
227.199	-6.68
227.577	-3.19
227.955	0.01
228.333	3.86
228.711	7
229.089	12.14
229.467	9.38
229.845	8.31
230.222	11.75
230.6	8.78
230.978	8.3
231.356	9.37
231.733	8.47
232.111	8.51
232.488	10.04
232.866	12.21
233.243	11.21
233.621	10.22
233.998	9.17
234.376	8.02
234.753	6.51
235.13	6.28
235.508	4.7
235.885	3.62
236.262	2.82
236.639	1.59
237.016	0.64
237.393	1.94
237.77	4.46
238.147	4.21
238.524	5.35
238.901	5.04
239.278	4.49
239.655	5.09
240.032	4.91
240.409	4.17
240.785	3.74
241.162	4.07
241.539	4
241.915	4.62
242.292	4.68
242.668	4.86
243.045	4.9
243.421	4.73
243.798	4.73
244.174	5
244.551	5.09
244.927	5.26
245.303	5.18
245.679	4.65
246.056	4.46
246.432	4.27
246.808	4.34
247.184	4.33
247.56	4.07
247.936	4.01
248.312	4.14
248.688	4.24
249.064	4.21
249.44	4.37
249.815	4.17
250.191	4.44
250.567	4.4
250.943	4.28
251.318	4.42
251.694	4.32
252.069	3.82
252.445	3.76
252.82	3.53
253.196	3.51
253.571	3.52
253.947	3.61
254.322	3.98
254.697	4.01
255.073	3.88
255.448	3.97
255.823	3.78
256.198	3.91
256.573	3.82
256.948	4.1
257.323	4.14
257.698	4.18
258.073	3.84
258.448	3.75
258.823	3.84
259.198	3.91
259.573	3.95
259.948	4.05
260.322	4.11
260.697	4.03
261.072	4.06
261.446	4.01
261.821	3.98
262.195	3.94
262.57	3.89
262.944	3.92
263.319	3.94
263.693	4.23
264.067	4.18
264.442	4.21
264.816	4.05
265.19	3.92
265.564	3.79
265.938	3.89
266.313	3.84
266.687	3.77
267.061	3.62
267.435	3.57
267.809	3.64
268.183	3.63
268.556	3.6
268.93	3.52
269.304	3.65
269.678	3.7
270.051	3.51
270.425	3.45
270.799	3.5
271.172	3.48
271.546	3.37
271.919	3.26
272.293	3.36
272.666	3.22
273.04	3.23
273.413	3.14
273.787	3.16
274.16	3.17
274.533	3.24
274.906	3.21
275.279	3.28
275.653	3.28
276.026	3.3
276.399	3.41
276.772	3.56
277.145	3.46
277.518	3.45
277.891	3.64
278.263	3.69
278.636	3.72
279.009	3.68
279.382	3.56
279.755	3.62
280.127	3.66
280.5	3.8
280.872	3.83
281.245	3.88
281.617	3.89
281.99	4.04
282.362	4.1
282.735	4.03
283.107	3.96
283.479	3.99
283.852	3.96
284.224	3.94
284.596	3.83
284.968	3.89
285.34	3.99
285.713	3.93
286.085	3.92
286.457	4.04
286.829	4.05
287.201	4.12
287.572	4.02
287.944	3.9
288.316	3.96
288.688	3.94
289.06	3.94
289.431	4.02
289.803	4.05
290.175	4.01
290.546	4.25
290.918	4.35
291.289	4.28
291.661	4.38
292.032	4.48
292.403	4.52
292.775	4.62
293.146	4.55
293.517	4.58
293.889	4.63
294.26	4.53
294.631	4.57
295.002	4.59
295.373	4.69
295.744	4.79
296.115	4.79
296.486	4.79
296.857	4.89
297.228	4.84
297.599	4.78
297.97	4.76
298.34	4.67
298.711	4.75
299.082	4.77
299.452	4.74
299.823	4.77
300.194	4.73
300.564	4.62
300.935	4.69
301.305	4.69
301.676	4.77
302.046	4.7
302.416	4.79
302.787	4.86
303.157	5.02
303.527	4.87
303.897	4.9
304.267	5.11
304.637	5.12
305.008	5.25
305.378	5.27
305.748	5.34
306.117	5.4
306.487	5.22
306.857	5.2
307.227	5.1
307.597	5.07
307.967	5.12
308.336	5.19
308.706	5
309.076	4.86
309.445	4.82
309.815	4.88
310.184	4.77
310.554	4.67
310.923	4.46
311.293	4.54
311.662	4.38
312.031	4.18
312.401	4.01
312.77	3.92
313.139	3.98
313.508	4.03
313.877	3.86
314.246	3.95
314.616	3.97
314.985	4.07
315.353	3.97
315.722	4.19
316.091	4.15
316.46	4.08
316.829	4.19
317.198	4.11
317.567	3.96
317.935	3.94
318.304	3.97
318.672	4.03
319.041	4.04
319.41	4.19
319.778	4.22
320.147	4.42
320.515	4.37
320.883	4.27
321.252	4.2
321.62	4.14
321.988	4.04
322.357	3.98
322.725	3.91
323.093	4.01
323.461	3.78
323.829	3.76
324.197	4.01
324.565	3.99
324.933	4.11
325.301	4.13
325.669	4.16
326.037	4.07
326.405	4.04
326.772	4.06
327.14	4.11
327.508	4.1
327.875	3.93
328.243	3.99
328.61	4.09
328.978	4.26
329.346	4.47
329.713	4.43
330.08	4.54
330.448	4.54
330.815	4.31
331.182	4.3
331.55	4.25
331.917	4.31
332.284	4.33
332.651	4.32
333.018	4.56
333.385	4.63
333.752	4.79
334.119	4.9
334.486	4.77
334.853	4.73
335.22	4.72
335.587	4.83
335.954	4.79
336.32	4.69
336.687	4.57
337.054	4.59
337.42	4.68
337.787	4.55
338.153	4.54
338.52	4.6
338.886	4.55
339.253	4.48
339.619	4.42
339.986	4.44
340.352	4.48
340.718	4.39
341.084	4.28
341.451	4.38
341.817	4.34
342.183	4.4
342.549	4.29
342.915	4.35
343.281	4.36
343.647	4.43
344.013	4.54
344.379	4.43
344.745	4.37
345.11	4.34
345.476	4.41
345.842	4.36
346.208	4.41
346.573	4.47
346.939	4.56
347.304	4.53
347.67	4.54
348.035	4.35
348.401	4.35
348.766	4.44
349.132	4.37
349.497	4.43
349.862	4.54
350.228	4.55
350.593	4.44
350.958	4.45
351.323	4.34
351.688	4.24
352.053	4.34
352.418	4.36
352.783	4.34
353.148	4.33
353.513	4.34
353.878	4.34
354.243	4.35
354.608	4.27
354.972	4.27
355.337	4.34
355.702	4.5
356.066	4.48
356.431	4.42
356.795	4.42
357.16	4.31
357.524	4.18
357.889	4.24
358.253	4.37
358.618	4.32
358.982	4.35
359.346	4.33
359.71	4.34
360.075	4.35
360.439	4.33
360.803	4.32
361.167	4.35
361.531	4.33
361.895	4.3
362.259	4.33
362.623	4.34
362.987	4.25
363.351	4.24
363.714	4.31
364.078	4.29
364.442	4.26
364.806	4.32
365.169	4.37
365.533	4.33
365.896	4.22
366.26	4.19
366.623	4.22
366.987	4.23
367.35	4.18
367.714	4.17
368.077	4.19
368.44	4.24
368.803	4.23
369.167	4.16
369.53	4.12
369.893	4.14
370.256	4.08
370.619	4.11
370.982	4
371.345	3.99
371.708	4.04
372.071	4
372.434	3.96
372.797	3.96
373.159	3.9
373.522	4.03
373.885	4.02
374.247	3.99
374.61	3.98
374.973	3.93
375.335	3.89
375.698	3.91
376.06	3.85
376.423	3.86
376.785	3.9
377.147	3.96
377.51	3.96
377.872	4.02
378.234	4.02
378.596	4.04
378.958	3.99
379.321	3.94
379.683	3.95
380.045	4
380.407	3.98
380.769	4.05
381.13	3.97
381.492	4.01
381.854	3.98
382.216	4
382.578	4.06
382.939	4.03
383.301	4
383.663	4
384.024	3.97
384.386	3.99
384.747	4.01
385.109	3.99
385.47	3.93
385.832	3.92
386.193	3.96
386.554	3.98
386.916	3.97
387.277	4
387.638	3.99
387.999	3.96
388.36	3.96
388.721	3.95
389.082	3.95
389.443	3.96
389.804	3.97
390.165	3.95
390.526	3.97
390.887	3.97
391.248	3.95
391.609	3.98
391.969	4.01
392.33	3.97
392.691	3.95
393.051	3.99
393.412	4
393.772	3.96
394.133	3.95
394.493	3.97
394.854	3.94
395.214	3.92
395.574	3.93
395.935	3.92
396.295	3.98
396.655	3.96
397.015	3.99
397.376	3.95
397.736	3.96
398.096	3.97
398.456	3.99
398.816	4.01
399.176	3.97
399.535	3.97
399.895	3.95
400.255	3.99
400.615	3.98
400.975	3.96
401.334	3.97
401.694	3.96
402.054	3.95
402.413	3.94
402.773	3.93
403.132	3.95
403.492	3.92
403.851	3.88
404.211	3.9
404.57	3.88
404.929	3.9
405.288	3.91
405.648	3.89
406.007	3.89
406.366	3.91
406.725	3.93
407.084	3.91
407.443	3.92
407.802	3.89
408.161	3.88
408.52	3.87
408.879	3.87
409.238	3.88
409.596	3.91
409.955	3.9
410.314	3.91
410.673	3.89
411.031	3.93
411.39	3.92
411.748	3.9
412.107	3.89
412.465	3.89
412.824	3.86
413.182	3.86
413.54	3.84
413.899	3.82
414.257	3.83
414.615	3.81
414.974	3.82
415.332	3.84
415.69	3.83
416.048	3.82
416.406	3.8
416.764	3.78
417.122	3.79
417.48	3.76
417.838	3.75
418.195	3.75
418.553	3.72
418.911	3.72
419.269	3.73
419.626	3.73
419.984	3.72
420.342	3.75
420.699	3.74
421.057	3.76
421.414	3.75
421.772	3.74
422.129	3.75
422.486	3.74
422.844	3.74
423.201	3.73
423.558	3.75
423.915	3.75
424.273	3.76
424.63	3.75
424.987	3.78
425.344	3.79
425.701	3.8
426.058	3.81
426.415	3.82
426.772	3.8
427.128	3.79
427.485	3.8
427.842	3.78
428.199	3.79
428.555	3.77
428.912	3.77
429.269	3.77
429.625	3.76
429.982	3.76
430.338	3.74
430.695	3.77
431.051	3.73
431.407	3.74
431.764	3.73
432.12	3.72
432.476	3.7
432.832	3.66
433.189	3.65
433.545	3.64
433.901	3.66
434.257	3.66
434.613	3.66
434.969	3.65
435.325	3.65
435.681	3.65
436.036	3.64
436.392	3.64
436.748	3.63
437.104	3.64
437.459	3.63
437.815	3.64
438.171	3.62
438.526	3.66
438.882	3.64
439.237	3.65
439.593	3.66
439.948	3.66
440.304	3.68
440.659	3.68
441.014	3.68
441.369	3.67
441.725	3.67
442.08	3.67
442.435	3.66
442.79	3.65
443.145	3.65
443.5	3.66
443.855	3.66
444.21	3.65
444.565	3.65
444.92	3.66
445.275	3.64
445.629	3.64
445.984	3.64
446.339	3.63
446.693	3.61
447.048	3.6
447.403	3.6
447.757	3.59
448.112	3.58
448.466	3.59
448.82	3.59
449.175	3.58
449.529	3.59
449.883	3.59
450.238	3.58
450.592	3.57
450.946	3.56
451.3	3.54
451.654	3.54
452.008	3.56
452.362	3.54
452.716	3.53
453.07	3.52
453.424	3.51
453.778	3.52
454.132	3.5
454.486	3.5
454.839	3.48
455.193	3.48
455.547	3.49
455.9	3.51
456.254	3.5
456.607	3.5
456.961	3.49
457.314	3.49
457.668	3.5
458.021	3.5
458.375	3.52
458.728	3.53
459.081	3.52
459.434	3.5
459.787	3.52
460.141	3.53
460.494	3.53
460.847	3.54
461.2	3.53
461.553	3.54
461.906	3.54
462.259	3.56
462.611	3.57
462.964	3.58
463.317	3.55
463.67	3.55
464.022	3.54
464.375	3.53
464.728	3.53
465.08	3.52
465.433	3.53
465.785	3.49
466.138	3.52
466.49	3.52
466.843	3.53
467.195	3.51
467.547	3.5
467.899	3.5
468.252	3.52
468.604	3.54
468.956	3.56
469.308	3.56
469.66	3.55
470.012	3.55
470.364	3.53
470.716	3.55
471.068	3.56
471.42	3.58
471.772	3.62
472.123	3.63
472.475	3.65
472.827	3.68
473.178	3.71
473.53	3.71
473.882	3.7
474.233	3.72
474.585	3.7
474.936	3.7
475.288	3.7
475.639	3.69
475.99	3.7
476.342	3.68
476.693	3.69
477.044	3.72
477.395	3.72
477.746	3.72
478.097	3.71
478.448	3.72
478.8	3.72
479.15	3.7
479.501	3.69
479.852	3.69
480.203	3.67
480.554	3.68
480.905	3.68
481.255	3.69
481.606	3.69
481.957	3.71
482.307	3.7
482.658	3.71
483.009	3.72
483.359	3.72
483.709	3.74
484.06	3.74
484.41	3.73
484.761	3.73
485.111	3.74
485.461	3.74
485.811	3.74
486.162	3.74
486.512	3.74
486.862	3.75
487.212	3.74
487.562	3.75
487.912	3.75
488.262	3.75
488.612	3.75
488.961	3.74
489.311	3.73
489.661	3.75
490.011	3.74
490.36	3.74
490.71	3.74
491.06	3.74
491.409	3.74
491.759	3.74
492.108	3.73
492.458	3.74
492.807	3.73
493.157	3.72
493.506	3.73
493.855	3.73
494.204	3.72
494.554	3.74
494.903	3.73
495.252	3.73
495.601	3.74
495.95	3.74
496.299	3.74
496.648	3.76
496.997	3.76
497.346	3.77
497.695	3.78
498.043	3.79
498.392	3.79
498.741	3.79
499.09	3.8
499.438	3.81
499.787	3.81
500.135	3.84
500.484	3.86
500.832	3.87
501.181	3.87
501.529	3.88
501.878	3.89
502.226	3.9
502.574	3.91
502.923	3.9
503.271	3.9
503.619	3.92
503.967	3.94
504.315	3.96
504.663	3.97
505.011	3.97
505.359	3.96
505.707	3.98
506.055	3.98
506.403	3.98
506.751	3.99
507.098	4
507.446	4.01
507.794	4.01
508.141	4.02
508.489	4
508.837	4.02
509.184	4.02
509.531	4.03
509.879	4.03
510.226	4.05
510.574	4.08
510.921	4.09
511.268	4.08
511.616	4.08
511.963	4.1
512.31	4.09
512.657	4.1
513.004	4.09
513.351	4.1
513.698	4.11
514.045	4.11
514.392	4.11
514.739	4.11
515.086	4.13
515.432	4.13
515.779	4.16
516.126	4.17
516.473	4.2
516.819	4.22
517.166	4.22
517.512	4.23
517.859	4.23
518.205	4.24
518.552	4.26
518.898	4.26
519.245	4.26
519.591	4.27
519.937	4.28
520.283	4.28
520.629	4.29
520.976	4.32
521.322	4.33
521.668	4.33
522.014	4.36
522.36	4.35
522.706	4.35
523.052	4.34
523.398	4.36
523.743	4.34
524.089	4.34
524.435	4.35
524.781	4.34
525.126	4.36
525.472	4.36
525.817	4.35
526.163	4.36
526.509	4.37
526.854	4.38
527.199	4.38
527.545	4.38
527.89	4.39
528.235	4.38
528.581	4.38
528.926	4.41
529.271	4.41
529.616	4.41
529.961	4.42
530.306	4.44
530.651	4.43
530.996	4.44
531.341	4.45
531.686	4.46
532.031	4.47
532.376	4.46
532.721	4.47
533.065	4.46
533.41	4.46
533.755	4.45
534.099	4.46
534.444	4.46
534.788	4.47
535.133	4.47
535.477	4.48
535.822	4.49
536.166	4.48
536.51	4.48
536.855	4.47
537.199	4.46
537.543	4.46
537.887	4.47
538.231	4.46
538.576	4.46
538.92	4.46
539.264	4.47
539.608	4.48
539.951	4.47
540.295	4.5
540.639	4.51
540.983	4.52
541.327	4.51
541.671	4.51
542.014	4.5
542.358	4.51
542.701	4.52
543.045	4.52
543.389	4.52
543.732	4.53
544.075	4.53
544.419	4.53
544.762	4.52
545.105	4.53
545.449	4.53
545.792	4.52
546.135	4.52
546.478	4.52
546.821	4.5
547.165	4.5
547.508	4.5
547.851	4.49
548.194	4.46
548.536	4.47
548.879	4.49
549.222	4.49
549.565	4.47
549.908	4.46
550.25	4.46
550.593	4.44
550.936	4.43
551.278	4.44
551.621	4.45
551.963	4.48
552.306	4.45
552.648	4.43
552.991	4.47
553.333	4.48
553.675	4.49
554.017	4.53
554.36	4.53
554.702	4.53
555.044	4.52
555.386	4.55
555.728	4.56
556.07	4.57
556.412	4.58
556.754	4.59
557.096	4.62
557.438	4.6
557.78	4.63
558.121	4.65
558.463	4.67
558.805	4.68
559.147	4.68
559.488	4.72
559.83	4.74
560.171	4.74
560.513	4.75
560.854	4.72
561.196	4.71
561.537	4.72
561.878	4.72
562.22	4.75
562.561	4.75
562.902	4.75
563.243	4.74
563.584	4.75
563.925	4.75
564.266	4.72
564.607	4.74
564.948	4.73
565.289	4.72
565.63	4.7
565.971	4.68
566.312	4.68
566.653	4.67
566.993	4.66
567.334	4.66
567.675	4.69
568.015	4.7
568.356	4.72
568.696	4.72
569.037	4.74
569.377	4.71
569.718	4.73
570.058	4.73
570.398	4.72
570.739	4.71
571.079	4.72
571.419	4.74
571.759	4.77
572.099	4.76
572.439	4.76
572.779	4.76
573.119	4.79
573.459	4.79
573.799	4.82
574.139	4.84
574.479	4.85
574.819	4.83
575.158	4.82
575.498	4.82
575.838	4.84
576.177	4.82
576.517	4.84
576.856	4.86
577.196	4.84
577.535	4.86
577.875	4.86
578.214	4.86
578.553	4.87
578.893	4.84
579.232	4.85
579.571	4.85
579.91	4.84
580.25	4.85
580.589	4.87
580.928	4.83
581.267	4.81
581.606	4.81
581.945	4.77
582.283	4.79
582.622	4.77
582.961	4.78
583.3	4.79
583.639	4.81
583.977	4.81
584.316	4.82
584.654	4.8
584.993	4.8
585.332	4.78
585.67	4.78
586.008	4.82
586.347	4.81
586.685	4.79
587.024	4.82
587.362	4.81
587.7	4.84
588.038	4.87
588.376	4.85
588.715	4.82
589.053	4.87
589.391	4.89
589.729	4.9
590.067	4.85
590.404	4.84
590.742	4.84
591.08	4.81
591.418	4.86
591.756	4.87
592.093	4.9
592.431	4.9
592.769	4.91
593.106	4.87
593.444	4.86
593.781	4.86
594.119	4.87
594.456	4.86
594.793	4.82
595.131	4.83
595.468	4.85
595.805	4.86
596.143	4.86
596.48	4.85
596.817	4.84
597.154	4.86
597.491	4.88
597.828	4.87
598.165	4.88
598.502	4.84
598.839	4.84
599.176	4.82
599.512	4.82
599.849	4.82
600.186	4.84
600.523	4.88
600.859	4.91
601.196	4.93
601.532	4.94
601.869	4.95
602.205	4.95
602.542	4.95
602.878	4.97
603.215	4.95
603.551	4.96
603.887	4.98
604.223	4.98
604.56	4.98
604.896	4.98
605.232	5.01
605.568	5.02
605.904	5.01
606.24	5.06
606.576	5.08
606.912	5.09
607.248	5.07
607.583	5.05
607.919	5.02
608.255	5.03
608.591	5.03
608.926	5.04
609.262	5.05
609.597	5.06
609.933	5.06
610.268	5.05
610.604	5.07
610.939	5.05
611.275	5.05
611.61	5.04
611.945	5.06
612.281	4.99
612.616	4.98
612.951	5
613.286	4.97
613.621	4.94
613.956	4.9
614.291	4.92
614.626	4.95
614.961	4.98
615.296	4.93
615.631	4.91
615.966	4.95
616.3	4.93
616.635	4.93
616.97	4.94
617.304	4.92
617.639	4.9
617.973	4.91
618.308	4.89
618.642	4.92
618.977	4.87
619.311	4.89
619.646	4.97
619.98	4.98
620.314	5.01
620.648	5.04
620.983	5.1
621.317	5.11
621.651	5.13
621.985	5.12
622.319	5.15
622.653	5.2
622.987	5.21
623.321	5.21
623.655	5.22
623.988	5.23
624.322	5.21
624.656	5.23
624.99	5.24
625.323	5.29
625.657	5.26
625.99	5.34
626.324	5.35
626.657	5.33
626.991	5.35
627.324	5.32
627.658	5.32
627.991	5.3
628.324	5.29
628.657	5.25
628.991	5.26
629.324	5.28
629.657	5.29
629.99	5.25
630.323	5.33
630.656	5.37
630.989	5.34
631.322	5.42
631.655	5.4
631.987	5.41
632.32	5.36
632.653	5.34
632.986	5.31
633.318	5.33
633.651	5.32
633.984	5.27
634.316	5.25
634.649	5.25
634.981	5.24
635.313	5.25
635.646	5.27
635.978	5.29
636.31	5.24
636.643	5.27
636.975	5.29
637.307	5.22
637.639	5.16
637.971	5.22
638.303	5.17
638.635	5.16
638.967	5.16
639.299	5.24
639.631	5.24
639.963	5.24
640.295	5.24
640.626	5.24
640.958	5.29
641.29	5.26
641.621	5.29
641.953	5.31
642.285	5.32
642.616	5.33
642.948	5.34
643.279	5.37
643.61	5.28
643.942	5.21
644.273	5.22
644.604	5.18
644.936	5.16
645.267	5.13
645.598	5.16
645.929	5.18
646.26	5.13
646.591	5.16
646.922	5.12
647.253	5.1
647.584	5.1
647.915	5.07
648.245	5.12
648.576	5.13
648.907	5.13
649.238	5.12
649.568	5.13
649.899	5.08
650.229	5.09
650.56	5.14
650.89	5.2
651.221	5.19
651.551	5.21
651.882	5.23
652.212	5.29
652.542	5.32
652.872	5.29
653.203	5.28
653.533	5.27
653.863	5.27
654.193	5.25
654.523	5.21
654.853	5.27
655.183	5.27
655.513	5.26
655.843	5.26
656.172	5.27
656.502	5.28
656.832	5.29
657.162	5.32
657.491	5.27
657.821	5.29
658.15	5.27
658.48	5.27
658.809	5.18
659.139	5.16
659.468	5.11
659.798	5.1
660.127	5.1
660.456	5.17
660.785	5.21
661.115	5.25
661.444	5.29
661.773	5.24
662.102	5.3
662.431	5.28
662.76	5.26
663.089	5.19
663.418	5.19
663.747	5.18
664.076	5.16
664.404	5.15
664.733	5.12
665.062	5.15
665.39	5.15
665.719	5.15
666.048	5.19
666.376	5.24
666.705	5.28
667.033	5.24
667.362	5.17
667.69	5.09
668.018	5.1
668.347	5.11
668.675	5.16
669.003	5.09
669.331	5.13
669.659	5.19
669.987	5.25
670.315	5.3
670.643	5.32
670.971	5.25
671.299	5.34
671.627	5.45
671.955	5.35
672.283	5.4
672.61	5.46
672.938	5.4
673.266	5.43
673.593	5.52
673.921	5.56
674.249	5.59
674.576	5.62
674.904	5.58
675.231	5.53
675.558	5.5
675.886	5.52
676.213	5.46
676.54	5.44
676.867	5.46
677.195	5.44
677.522	5.45
677.849	5.46
678.176	5.43
678.503	5.31
