Data from BU57647_Reflection_00006.txt Node
Date: Mon Nov 18 16:49:30 EST 2019
User: vgr7
Spectrometer: USB2G7710
Scans to average: 3
Trigger mode: 4
Integration Time (sec): 2.000000E-2
Electric dark correction enabled: true
Boxcar width: 10
XAxis mode: Wavelengths
Number of Pixels in Spectrum: 2048
>>>>>Begin Spectral Data<<<<<
177.721	-59.74
178.105	-64.27
178.488	-76.16
178.871	211.7
179.254	24.83
179.636	-454.35
180.019	-78.68
180.402	87.5
180.785	284.99
181.168	162.74
181.55	181.89
181.933	132.51
182.316	121.22
182.698	101.55
183.081	132.51
183.463	352.14
183.846	-5390.57
184.228	-29081.82
184.611	-1381.63
184.993	-400.61
185.376	-312.6
185.758	-426.99
186.14	-320.13
186.522	-339.88
186.904	-322.19
187.287	-428.32
187.669	-497.03
188.051	-588.83
188.433	-382.88
188.815	-245.05
189.197	-259.64
189.579	-246.1
189.961	-305.76
190.342	-281.99
190.724	-193.65
191.106	-243.16
191.488	-206.33
191.869	-251.96
192.251	-224.23
192.633	-250.82
193.014	-229.79
193.396	-357.69
193.777	-338.78
194.159	-776.26
194.54	-658.16
194.922	-1434.7
195.303	-915.17
195.684	-559.94
196.065	-297.72
196.447	-316.61
196.828	-512.85
197.209	-292.95
197.59	-310.71
197.971	-256.29
198.352	-208.17
198.733	-233.82
199.114	-215.41
199.495	-184.33
199.876	-171.98
200.257	-182.73
200.638	-161.12
201.018	-212.11
201.399	-144.66
201.78	-130.56
202.16	-141.66
202.541	-215.84
202.922	-230.34
203.302	-300.96
203.683	-290.14
204.063	-427.7
204.444	-364.3
204.824	-319.8
205.204	-346.06
205.585	-312.57
205.965	-415.58
206.345	-462.3
206.725	-2034.88
207.106	-2153.59
207.486	1169.11
207.866	1160.89
208.246	3136.81
208.626	2587.44
209.006	-1562.3
209.386	5711.76
209.766	-10048.94
210.145	-1362.63
210.525	-186.09
210.905	-139.61
211.285	-112.98
211.664	-67.84
212.044	-47.48
212.424	-56.45
212.803	-68.15
213.183	-77.08
213.562	-78.7
213.942	-59.73
214.321	-48.96
214.701	-47.54
215.08	-42.79
215.459	-24.01
215.838	-18.49
216.218	-21.81
216.597	-30.54
216.976	-18.16
217.355	-11.2
217.734	-4.79
218.113	-26.6
218.492	-25.51
218.871	-28.66
219.25	-22.6
219.629	-29.48
220.008	-28.8
220.387	-21.71
220.766	-5.4
221.144	-18.33
221.523	-29.1
221.902	-46.71
222.28	-65.51
222.659	-65.01
223.037	-63.58
223.416	-70.92
223.794	-67.75
224.173	-61.13
224.551	-38.78
224.929	-43.33
225.308	-48.27
225.686	-47.08
226.064	-25.23
226.442	-18.88
226.821	-15.96
227.199	-13.78
227.577	-19.8
227.955	-20.52
228.333	-16.94
228.711	-14.59
229.089	-8.51
229.467	-9.32
229.845	-10.48
230.222	-9.15
230.6	-9.74
230.978	-10.25
231.356	-8.85
231.733	-7.75
232.111	-5.25
232.488	-6.09
232.866	-3.81
233.243	-4.86
233.621	-5.61
233.998	-6.35
234.376	-7.67
234.753	-8.15
235.13	-8.75
235.508	-6.62
235.885	-6.29
236.262	-9.26
236.639	-11.24
237.016	-11.29
237.393	-8.22
237.77	-6.03
238.147	-4.34
238.524	-3.21
238.901	-1.85
239.278	-0.91
239.655	-0.4
240.032	-0.14
240.409	0.25
240.785	-0.31
241.162	0.78
241.539	1.39
241.915	1.58
242.292	1.76
242.668	2.25
243.045	2.39
243.421	2.79
243.798	3.15
244.174	3.86
244.551	4.47
244.927	4.61
245.303	4.52
245.679	4.57
246.056	4.55
246.432	4.7
246.808	4.44
247.184	4.33
247.56	4.07
247.936	4.06
248.312	4.05
248.688	4.18
249.064	3.95
249.44	4.12
249.815	4.2
250.191	4.19
250.567	4.18
250.943	4.35
251.318	4.18
251.694	4.02
252.069	3.82
252.445	3.79
252.82	3.53
253.196	3.53
253.571	3.4
253.947	3.44
254.322	3.61
254.697	3.97
255.073	3.88
255.448	3.78
255.823	4.04
256.198	4.16
256.573	3.99
256.948	4.36
257.323	4.37
257.698	4.28
258.073	4.37
258.448	4.33
258.823	4.32
259.198	4.37
259.573	4.32
259.948	4.47
260.322	4.43
260.697	4.41
261.072	4.39
261.446	4.4
261.821	4.47
262.195	4.41
262.57	4.28
262.944	4.3
263.319	4.59
263.693	4.36
264.067	4.24
264.442	4.51
264.816	4.14
265.19	3.99
265.564	3.92
265.938	3.99
266.313	4.01
266.687	4.06
267.061	4.17
267.435	4.31
267.809	4.41
268.183	4.26
268.556	4.33
268.93	4.43
269.304	4.53
269.678	4.55
270.051	4.41
270.425	4.51
270.799	4.49
271.172	4.27
271.546	4.53
271.919	4.55
272.293	4.28
272.666	4.63
273.04	4.61
273.413	4.69
273.787	4.52
274.16	4.54
274.533	4.51
274.906	4.48
275.279	4.32
275.653	4.1
276.026	4.18
276.399	4.06
276.772	4.03
277.145	3.8
277.518	3.73
277.891	3.8
278.263	3.5
278.636	3.64
279.009	3.86
279.382	3.81
279.755	3.75
280.127	3.99
280.5	3.82
280.872	3.91
281.245	3.95
281.617	3.95
281.99	3.96
282.362	3.94
282.735	3.74
283.107	3.88
283.479	3.96
283.852	3.94
284.224	4.07
284.596	3.85
284.968	3.95
285.34	3.99
285.713	3.85
286.085	4.17
286.457	4.11
286.829	4
287.201	3.98
287.572	4.03
287.944	3.83
288.316	3.82
288.688	3.78
289.06	3.7
289.431	3.85
289.803	3.91
290.175	3.91
290.546	4.26
290.918	4.25
291.289	4.19
291.661	4.29
292.032	4.46
292.403	4.62
292.775	4.63
293.146	4.52
293.517	4.69
293.889	4.61
294.26	4.62
294.631	4.69
295.002	4.63
295.373	4.68
295.744	4.77
296.115	4.76
296.486	4.71
296.857	4.76
297.228	4.68
297.599	4.52
297.97	4.51
298.34	4.39
298.711	4.42
299.082	4.46
299.452	4.37
299.823	4.24
300.194	4.22
300.564	4.16
300.935	4.32
301.305	4.29
301.676	4.31
302.046	4.34
302.416	4.28
302.787	4.36
303.157	4.41
303.527	4.47
303.897	4.55
304.267	4.75
304.637	4.85
305.008	4.93
305.378	5.03
305.748	5.2
306.117	5.07
306.487	4.98
306.857	4.97
307.227	5.01
307.597	5.1
307.967	5.17
308.336	5.31
308.706	5.36
309.076	5.37
309.445	5.25
309.815	5.21
310.184	5.2
310.554	5.12
310.923	5.13
311.293	5.07
311.662	4.95
312.031	4.9
312.401	4.82
312.77	4.91
313.139	5.01
313.508	4.98
313.877	5.01
314.246	5.08
314.616	5.02
314.985	5.11
315.353	4.95
315.722	4.99
316.091	4.95
316.46	4.79
316.829	4.76
317.198	4.91
317.567	5.02
317.935	5.02
318.304	5.01
318.672	4.88
319.041	4.96
319.41	5.16
319.778	4.99
320.147	4.92
320.515	4.7
320.883	4.61
321.252	4.67
321.62	4.64
321.988	4.65
322.357	4.64
322.725	4.52
323.093	4.52
323.461	4.68
323.829	4.65
324.197	4.69
324.565	4.78
324.933	4.72
325.301	4.65
325.669	4.57
326.037	4.56
326.405	4.65
326.772	4.69
327.14	4.67
327.508	4.75
327.875	4.69
328.243	4.65
328.61	4.65
328.978	4.48
329.346	4.61
329.713	4.65
330.08	4.82
330.448	4.74
330.815	4.66
331.182	4.44
331.55	4.41
331.917	4.32
332.284	4.27
332.651	4.31
333.018	4.28
333.385	4.37
333.752	4.45
334.119	4.51
334.486	4.48
334.853	4.49
335.22	4.35
335.587	4.41
335.954	4.52
336.32	4.44
336.687	4.44
337.054	4.33
337.42	4.23
337.787	4.18
338.153	4.33
338.52	4.47
338.886	4.42
339.253	4.38
339.619	4.55
339.986	4.62
340.352	4.59
340.718	4.58
341.084	4.66
341.451	4.66
341.817	4.58
342.183	4.55
342.549	4.5
342.915	4.76
343.281	4.8
343.647	4.78
344.013	4.78
344.379	4.8
344.745	4.89
345.11	4.87
345.476	4.89
345.842	4.78
346.208	4.79
346.573	4.85
346.939	4.94
347.304	4.73
347.67	4.65
348.035	4.65
348.401	4.64
348.766	4.54
349.132	4.48
349.497	4.42
349.862	4.5
350.228	4.49
350.593	4.4
350.958	4.38
351.323	4.37
351.688	4.41
352.053	4.5
352.418	4.53
352.783	4.59
353.148	4.51
353.513	4.57
353.878	4.52
354.243	4.51
354.608	4.51
354.972	4.57
355.337	4.63
355.702	4.6
356.066	4.67
356.431	4.74
356.795	4.81
357.16	4.81
357.524	4.82
357.889	4.83
358.253	4.8
358.618	4.86
358.982	4.79
359.346	4.79
359.71	4.68
360.075	4.63
360.439	4.61
360.803	4.66
361.167	4.65
361.531	4.67
361.895	4.69
362.259	4.67
362.623	4.7
362.987	4.66
363.351	4.66
363.714	4.64
364.078	4.63
364.442	4.57
364.806	4.62
365.169	4.57
365.533	4.63
365.896	4.63
366.26	4.58
366.623	4.66
366.987	4.65
367.35	4.72
367.714	4.7
368.077	4.64
368.44	4.6
368.803	4.58
369.167	4.61
369.53	4.57
369.893	4.62
370.256	4.66
370.619	4.67
370.982	4.71
371.345	4.69
371.708	4.68
372.071	4.71
372.434	4.68
372.797	4.62
373.159	4.59
373.522	4.57
373.885	4.6
374.247	4.62
374.61	4.63
374.973	4.62
375.335	4.6
375.698	4.61
376.06	4.64
376.423	4.69
376.785	4.68
377.147	4.76
377.51	4.78
377.872	4.73
378.234	4.7
378.596	4.69
378.958	4.65
379.321	4.66
379.683	4.71
380.045	4.74
380.407	4.74
380.769	4.72
381.13	4.73
381.492	4.72
381.854	4.66
382.216	4.71
382.578	4.78
382.939	4.82
383.301	4.9
383.663	4.82
384.024	4.82
384.386	4.83
384.747	4.8
385.109	4.77
385.47	4.75
385.832	4.77
386.193	4.81
386.554	4.82
386.916	4.81
387.277	4.81
387.638	4.82
387.999	4.87
388.36	4.88
388.721	4.91
389.082	4.93
389.443	4.99
389.804	4.95
390.165	4.86
390.526	4.86
390.887	4.82
391.248	4.89
391.609	4.9
391.969	4.89
392.33	4.88
392.691	4.84
393.051	4.88
393.412	4.89
393.772	4.84
394.133	4.86
394.493	4.86
394.854	4.83
395.214	4.84
395.574	4.83
395.935	4.81
396.295	4.84
396.655	4.81
397.015	4.78
397.376	4.75
397.736	4.79
398.096	4.79
398.456	4.78
398.816	4.75
399.176	4.71
399.535	4.69
399.895	4.69
400.255	4.73
400.615	4.72
400.975	4.72
401.334	4.76
401.694	4.75
402.054	4.74
402.413	4.73
402.773	4.67
403.132	4.65
403.492	4.66
403.851	4.63
404.211	4.66
404.57	4.67
404.929	4.71
405.288	4.74
405.648	4.72
406.007	4.73
406.366	4.74
406.725	4.79
407.084	4.81
407.443	4.84
407.802	4.82
408.161	4.83
408.52	4.81
408.879	4.77
409.238	4.8
409.596	4.81
409.955	4.82
410.314	4.86
410.673	4.86
411.031	4.87
411.39	4.88
411.748	4.86
412.107	4.84
412.465	4.81
412.824	4.76
413.182	4.77
413.54	4.76
413.899	4.75
414.257	4.73
414.615	4.71
414.974	4.73
415.332	4.72
415.69	4.7
416.048	4.71
416.406	4.74
416.764	4.73
417.122	4.78
417.48	4.74
417.838	4.74
418.195	4.75
418.553	4.74
418.911	4.75
419.269	4.74
419.626	4.76
419.984	4.75
420.342	4.76
420.699	4.76
421.057	4.78
421.414	4.79
421.772	4.78
422.129	4.79
422.486	4.77
422.844	4.78
423.201	4.79
423.558	4.8
423.915	4.78
424.273	4.78
424.63	4.75
424.987	4.77
425.344	4.78
425.701	4.77
426.058	4.77
426.415	4.77
426.772	4.77
427.128	4.77
427.485	4.79
427.842	4.79
428.199	4.8
428.555	4.79
428.912	4.77
429.269	4.77
429.625	4.75
429.982	4.75
430.338	4.76
430.695	4.74
431.051	4.71
431.407	4.72
431.764	4.71
432.12	4.71
432.476	4.69
432.832	4.67
433.189	4.68
433.545	4.68
433.901	4.67
434.257	4.66
434.613	4.64
434.969	4.63
435.325	4.62
435.681	4.61
436.036	4.61
436.392	4.62
436.748	4.62
437.104	4.62
437.459	4.63
437.815	4.64
438.171	4.65
438.526	4.64
438.882	4.63
439.237	4.65
439.593	4.66
439.948	4.67
440.304	4.67
440.659	4.65
441.014	4.65
441.369	4.65
441.725	4.65
442.08	4.65
442.435	4.67
442.79	4.68
443.145	4.69
443.5	4.69
443.855	4.69
444.21	4.68
444.565	4.7
444.92	4.71
445.275	4.7
445.629	4.69
445.984	4.71
446.339	4.7
446.693	4.69
447.048	4.67
447.403	4.65
447.757	4.66
448.112	4.68
448.466	4.68
448.82	4.67
449.175	4.67
449.529	4.67
449.883	4.66
450.238	4.64
450.592	4.64
450.946	4.64
451.3	4.64
451.654	4.62
452.008	4.6
452.362	4.58
452.716	4.58
453.07	4.6
453.424	4.59
453.778	4.6
454.132	4.58
454.486	4.58
454.839	4.6
455.193	4.59
455.547	4.55
455.9	4.54
456.254	4.57
456.607	4.56
456.961	4.57
457.314	4.57
457.668	4.59
458.021	4.59
458.375	4.57
458.728	4.57
459.081	4.58
459.434	4.57
459.787	4.59
460.141	4.6
460.494	4.6
460.847	4.61
461.2	4.6
461.553	4.62
461.906	4.63
462.259	4.63
462.611	4.64
462.964	4.68
463.317	4.69
463.67	4.68
464.022	4.69
464.375	4.68
464.728	4.68
465.08	4.69
465.433	4.69
465.785	4.71
466.138	4.7
466.49	4.72
466.843	4.7
467.195	4.69
467.547	4.69
467.899	4.69
468.252	4.69
468.604	4.71
468.956	4.7
469.308	4.71
469.66	4.7
470.012	4.71
470.364	4.7
470.716	4.71
471.068	4.73
471.42	4.74
471.772	4.77
472.123	4.78
472.475	4.75
472.827	4.76
473.178	4.75
473.53	4.76
473.882	4.76
474.233	4.77
474.585	4.75
474.936	4.77
475.288	4.75
475.639	4.75
475.99	4.75
476.342	4.78
476.693	4.77
477.044	4.8
477.395	4.78
477.746	4.77
478.097	4.77
478.448	4.75
478.8	4.73
479.15	4.7
479.501	4.7
479.852	4.71
480.203	4.72
480.554	4.74
480.905	4.75
481.255	4.77
481.606	4.78
481.957	4.8
482.307	4.8
482.658	4.8
483.009	4.81
483.359	4.81
483.709	4.81
484.06	4.8
484.41	4.8
484.761	4.8
485.111	4.81
485.461	4.81
485.811	4.81
486.162	4.81
486.512	4.83
486.862	4.84
487.212	4.84
487.562	4.85
487.912	4.84
488.262	4.84
488.612	4.84
488.961	4.84
489.311	4.82
489.661	4.82
490.011	4.81
490.36	4.81
490.71	4.8
491.06	4.8
491.409	4.81
491.759	4.81
492.108	4.82
492.458	4.8
492.807	4.8
493.157	4.8
493.506	4.82
493.855	4.8
494.204	4.82
494.554	4.81
494.903	4.8
495.252	4.8
495.601	4.81
495.95	4.81
496.299	4.81
496.648	4.84
496.997	4.84
497.346	4.87
497.695	4.88
498.043	4.89
498.392	4.9
498.741	4.91
499.09	4.91
499.438	4.92
499.787	4.93
500.135	4.95
500.484	4.98
500.832	4.98
501.181	5
501.529	4.98
501.878	5
502.226	5.02
502.574	5.04
502.923	5.02
503.271	5.02
503.619	5.03
503.967	5.02
504.315	5.01
504.663	5
505.011	5.01
505.359	5.01
505.707	5.02
506.055	5.02
506.403	5.03
506.751	5.04
507.098	5.04
507.446	5.03
507.794	5.03
508.141	5.04
508.489	5.06
508.837	5.07
509.184	5.07
509.531	5.08
509.879	5.09
510.226	5.13
510.574	5.14
510.921	5.14
511.268	5.15
511.616	5.17
511.963	5.19
512.31	5.19
512.657	5.22
513.004	5.23
513.351	5.27
513.698	5.3
514.045	5.29
514.392	5.31
514.739	5.31
515.086	5.33
515.432	5.32
515.779	5.3
516.126	5.31
516.473	5.32
516.819	5.34
517.166	5.34
517.512	5.34
517.859	5.36
518.205	5.35
518.552	5.37
518.898	5.37
519.245	5.35
519.591	5.36
519.937	5.35
520.283	5.35
520.629	5.34
520.976	5.34
521.322	5.34
521.668	5.34
522.014	5.35
522.36	5.36
522.706	5.38
523.052	5.41
523.398	5.4
523.743	5.41
524.089	5.39
524.435	5.39
524.781	5.39
525.126	5.39
525.472	5.4
525.817	5.38
526.163	5.39
526.509	5.4
526.854	5.41
527.199	5.41
527.545	5.4
527.89	5.4
528.235	5.39
528.581	5.39
528.926	5.4
529.271	5.4
529.616	5.39
529.961	5.39
530.306	5.38
530.651	5.39
530.996	5.4
531.341	5.4
531.686	5.39
532.031	5.4
532.376	5.4
532.721	5.41
533.065	5.42
533.41	5.43
533.755	5.42
534.099	5.43
534.444	5.44
534.788	5.45
535.133	5.45
535.477	5.46
535.822	5.46
536.166	5.43
536.51	5.46
536.855	5.45
537.199	5.45
537.543	5.48
537.887	5.47
538.231	5.44
538.576	5.45
538.92	5.47
539.264	5.46
539.608	5.46
539.951	5.44
540.295	5.43
540.639	5.42
540.983	5.43
541.327	5.42
541.671	5.4
542.014	5.41
542.358	5.4
542.701	5.41
543.045	5.41
543.389	5.43
543.732	5.43
544.075	5.43
544.419	5.43
544.762	5.42
545.105	5.43
545.449	5.44
545.792	5.45
546.135	5.45
546.478	5.44
546.821	5.43
547.165	5.45
547.508	5.47
547.851	5.47
548.194	5.48
548.536	5.5
548.879	5.53
549.222	5.53
549.565	5.54
549.908	5.55
550.25	5.62
550.593	5.64
550.936	5.63
551.278	5.63
551.621	5.64
551.963	5.64
552.306	5.64
552.648	5.62
552.991	5.63
553.333	5.63
553.675	5.65
554.017	5.68
554.36	5.66
554.702	5.68
555.044	5.66
555.386	5.64
555.728	5.62
556.07	5.63
556.412	5.61
556.754	5.62
557.096	5.6
557.438	5.54
557.78	5.5
558.121	5.49
558.463	5.49
558.805	5.5
559.147	5.47
559.488	5.48
559.83	5.53
560.171	5.49
560.513	5.5
560.854	5.51
561.196	5.5
561.537	5.56
561.878	5.54
562.22	5.53
562.561	5.56
562.902	5.52
563.243	5.51
563.584	5.54
563.925	5.54
564.266	5.53
564.607	5.56
564.948	5.57
565.289	5.6
565.63	5.59
565.971	5.57
566.312	5.57
566.653	5.54
566.993	5.51
567.334	5.54
567.675	5.53
568.015	5.51
568.356	5.5
568.696	5.48
569.037	5.5
569.377	5.54
569.718	5.53
570.058	5.58
570.398	5.56
570.739	5.54
571.079	5.51
571.419	5.5
571.759	5.48
572.099	5.45
572.439	5.46
572.779	5.48
573.119	5.48
573.459	5.51
573.799	5.56
574.139	5.57
574.479	5.55
574.819	5.54
575.158	5.53
575.498	5.53
575.838	5.53
576.177	5.49
576.517	5.44
576.856	5.46
577.196	5.44
577.535	5.46
577.875	5.48
578.214	5.53
578.553	5.6
578.893	5.57
579.232	5.62
579.571	5.64
579.91	5.65
580.25	5.67
580.589	5.64
580.928	5.63
581.267	5.62
581.606	5.62
581.945	5.62
582.283	5.64
582.622	5.64
582.961	5.63
583.3	5.63
583.639	5.73
583.977	5.71
584.316	5.7
584.654	5.72
584.993	5.71
585.332	5.67
585.67	5.6
586.008	5.61
586.347	5.6
586.685	5.57
587.024	5.55
587.362	5.52
587.7	5.52
588.038	5.52
588.376	5.54
588.715	5.58
589.053	5.57
589.391	5.58
589.729	5.58
590.067	5.61
590.404	5.68
590.742	5.62
591.08	5.6
591.418	5.62
591.756	5.62
592.093	5.6
592.431	5.64
592.769	5.68
593.106	5.72
593.444	5.67
593.781	5.66
594.119	5.69
594.456	5.68
594.793	5.69
595.131	5.69
595.468	5.68
595.805	5.64
596.143	5.66
596.48	5.66
596.817	5.7
597.154	5.7
597.491	5.65
597.828	5.67
598.165	5.68
598.502	5.65
598.839	5.66
599.176	5.66
599.512	5.65
599.849	5.63
600.186	5.64
600.523	5.7
600.859	5.74
601.196	5.76
601.532	5.78
601.869	5.76
602.205	5.76
602.542	5.78
602.878	5.78
603.215	5.79
603.551	5.79
603.887	5.74
604.223	5.73
604.56	5.74
604.896	5.76
605.232	5.76
605.568	5.81
605.904	5.76
606.24	5.81
606.576	5.82
606.912	5.83
607.248	5.83
607.583	5.82
607.919	5.76
608.255	5.71
608.591	5.7
608.926	5.7
609.262	5.68
609.597	5.7
609.933	5.71
610.268	5.72
610.604	5.69
610.939	5.67
611.275	5.65
611.61	5.65
611.945	5.67
612.281	5.73
612.616	5.71
612.951	5.77
613.286	5.74
613.621	5.72
613.956	5.72
614.291	5.72
614.626	5.65
614.961	5.69
615.296	5.69
615.631	5.73
615.966	5.83
616.3	5.88
616.635	5.82
616.97	5.77
617.304	5.78
617.639	5.8
617.973	5.87
618.308	5.93
618.642	5.92
618.977	5.82
619.311	5.73
619.646	5.73
619.98	5.69
620.314	5.73
620.648	5.71
620.983	5.71
621.317	5.72
621.651	5.8
621.985	5.85
622.319	5.85
622.653	5.84
622.987	5.78
623.321	5.76
623.655	5.75
623.988	5.83
624.322	5.8
624.656	5.84
624.99	5.79
625.323	5.77
625.657	5.79
625.99	5.87
626.324	5.89
626.657	5.9
626.991	5.94
627.324	5.92
627.658	5.99
627.991	5.97
628.324	5.95
628.657	5.94
628.991	5.91
629.324	5.95
629.657	5.98
629.99	6
630.323	5.96
630.656	6.01
630.989	6.02
631.322	6.06
631.655	6.04
631.987	6.09
632.32	6.08
632.653	6.06
632.986	6.04
633.318	6.04
633.651	6.08
633.984	6.07
634.316	6.07
634.649	6.03
634.981	6.05
635.313	6.01
635.646	6.04
635.978	6.01
636.31	5.97
636.643	5.94
636.975	6
637.307	5.99
637.639	5.95
637.971	5.92
638.303	5.89
638.635	5.89
638.967	5.86
639.299	5.9
639.631	5.87
639.963	5.82
640.295	5.83
640.626	5.77
640.958	5.79
641.29	5.8
641.621	5.83
641.953	5.91
642.285	5.96
642.616	5.93
642.948	5.98
643.279	5.95
643.61	5.99
643.942	5.91
644.273	5.99
644.604	5.97
644.936	5.97
645.267	6
645.598	5.97
645.929	6.05
646.26	6.06
646.591	6.1
646.922	6.15
647.253	6.13
647.584	6.11
647.915	6.08
648.245	6.04
648.576	5.98
648.907	5.92
649.238	5.94
649.568	6.02
649.899	5.97
650.229	6.02
650.56	5.99
650.89	6.02
651.221	6.04
651.551	6.04
651.882	6.07
652.212	6.01
652.542	6.1
652.872	5.97
653.203	5.98
653.533	6.02
653.863	6.04
654.193	6.06
654.523	6.05
654.853	6.06
655.183	6.08
655.513	6.08
655.843	6.05
656.172	6.06
656.502	6.07
656.832	6.09
657.162	6.1
657.491	6.09
657.821	6.06
658.15	6.05
658.48	6.09
658.809	6.01
659.139	5.99
659.468	5.9
659.798	5.94
660.127	5.97
660.456	5.95
660.785	5.92
661.115	5.96
661.444	6.01
661.773	6.02
662.102	6
662.431	6.02
662.76	6.07
663.089	6.01
663.418	5.99
663.747	5.99
664.076	6
664.404	6
664.733	6.08
665.062	6.12
665.39	6.11
665.719	6.09
666.048	6.21
666.376	6.24
666.705	6.23
667.033	6.13
667.362	6.11
667.69	6.05
668.018	6.03
668.347	6
668.675	6
669.003	6.02
669.331	6.16
669.659	6.12
669.987	6.12
670.315	6.11
670.643	6.09
670.971	6.12
671.299	6.17
671.627	6.13
671.955	6.08
672.283	6.13
672.61	6.18
672.938	6.13
673.266	6.11
673.593	6.31
673.921	6.39
674.249	6.4
674.576	6.47
674.904	6.48
