Data from BU57647_Reflection_00011.txt Node
Date: Mon Nov 18 16:49:41 EST 2019
User: vgr7
Spectrometer: USB2G7710
Scans to average: 3
Trigger mode: 4
Integration Time (sec): 2.000000E-2
Electric dark correction enabled: true
Boxcar width: 10
XAxis mode: Wavelengths
Number of Pixels in Spectrum: 2048
>>>>>Begin Spectral Data<<<<<
177.721	23.05
178.105	-29.68
178.488	68.45
178.871	-282.98
179.254	4.33
179.636	-144.57
180.019	-12.85
180.402	-5
180.785	244.77
181.168	100
181.55	219.11
181.933	123.65
182.316	88.42
182.698	109.28
183.081	230.05
183.463	336.71
183.846	-3409.43
184.228	-8627.27
184.611	-487.76
184.993	-97.32
185.376	-81.01
185.758	-100.2
186.14	-132.23
186.522	-72.23
186.904	-56.37
187.287	-134.81
187.669	-152.16
188.051	-140.9
188.433	-57.32
188.815	-14.52
189.197	17.12
189.579	27.46
189.961	-4.29
190.342	-18.27
190.724	39.76
191.106	65.1
191.488	59.83
191.869	79.37
192.251	63.84
192.633	51.98
193.014	38.7
193.396	40.7
193.777	52.35
194.159	143.17
194.54	107.26
194.922	177.12
195.303	118.21
195.684	119.13
196.065	89.2
196.447	87.44
196.828	94.65
197.209	49.5
197.59	48.84
197.971	30.37
198.352	31.08
198.733	20.68
199.114	12.22
199.495	2.41
199.876	-4.16
200.257	-6.56
200.638	3.41
201.018	-16.18
201.399	-14.23
201.78	0.11
202.16	-2.21
202.541	-42.91
202.922	-32.55
203.302	-41.05
203.683	-44.5
204.063	-106.56
204.444	-95.5
204.824	-119.41
205.204	-148.4
205.585	-153.89
205.965	-231.66
206.345	-303.03
206.725	-1853.49
207.106	-2110.53
207.486	981.21
207.866	1139.81
208.246	2971.17
208.626	2512.06
209.006	-1336.07
209.386	5252.94
209.766	-9091.49
210.145	-1586.83
210.525	-171.71
210.905	-171.84
211.285	-148.28
211.664	-131.2
212.044	-103.36
212.424	-94.93
212.803	-91.43
213.183	-121.61
213.562	-98.55
213.942	-72.83
214.321	-49.79
214.701	-34.68
215.08	-15.41
215.459	-5.71
215.838	4.05
216.218	4.81
216.597	15.49
216.976	20.8
217.355	26.26
217.734	25.96
218.113	26.68
218.492	23.26
218.871	27.31
219.25	26.58
219.629	18.76
220.008	3.59
220.387	8.53
220.766	20.04
221.144	7.72
221.523	-4.3
221.902	-11.3
222.28	-24.67
222.659	-26.48
223.037	-48.71
223.416	-56.61
223.794	-63.85
224.173	-55.11
224.551	-61.16
224.929	-62.39
225.308	-48.8
225.686	-41.01
226.064	-37.71
226.442	-36.62
226.821	-26.44
227.199	-27.08
227.577	-21.07
227.955	-13.01
228.333	-11.49
228.711	-12.19
229.089	-7.54
229.467	-3.7
229.845	-4.39
230.222	-2.69
230.6	-2.36
230.978	-3.04
231.356	-0.89
231.733	-0.77
232.111	2.33
232.488	4.86
232.866	2.79
233.243	3.24
233.621	1.81
233.998	5.04
234.376	4.92
234.753	4.78
235.13	5.1
235.508	5.74
235.885	4.55
236.262	3.5
236.639	3.95
237.016	3.94
237.393	3.32
237.77	4.23
238.147	5.07
238.524	5.21
238.901	6.89
239.278	6.97
239.655	7.63
240.032	7.15
240.409	6.69
240.785	7.27
241.162	6.99
241.539	7.18
241.915	6.65
242.292	6.33
242.668	5.8
243.045	6.02
243.421	6.21
243.798	5.97
244.174	5.88
244.551	5.97
244.927	5.84
245.303	5.74
245.679	5.49
246.056	5.23
246.432	5.09
246.808	4.77
247.184	4.47
247.56	4.23
247.936	4.19
248.312	4.18
248.688	4.03
249.064	3.98
249.44	3.78
249.815	3.64
250.191	4.02
250.567	4.2
250.943	3.99
251.318	3.72
251.694	4.03
252.069	3.88
252.445	3.67
252.82	3.95
253.196	4.06
253.571	4.33
253.947	4.42
254.322	4.94
254.697	4.74
255.073	4.54
255.448	4.69
255.823	4.53
256.198	4.71
256.573	4.81
256.948	4.79
257.323	4.89
257.698	5.1
258.073	4.88
258.448	4.62
258.823	4.71
259.198	4.61
259.573	4.42
259.948	4.56
260.322	4.52
260.697	4.44
261.072	4.4
261.446	4.27
261.821	4.24
262.195	3.99
262.57	4.06
262.944	4.1
263.319	4.13
263.693	4.18
264.067	4.06
264.442	4.06
264.816	4.08
265.19	4.12
265.564	4.1
265.938	3.87
266.313	4.1
266.687	4.08
267.061	4.1
267.435	3.93
267.809	3.7
268.183	3.82
268.556	3.72
268.93	3.67
269.304	3.7
269.678	3.78
270.051	3.83
270.425	3.87
270.799	3.92
271.172	3.83
271.546	3.75
271.919	3.54
272.293	3.44
272.666	3.48
273.04	3.4
273.413	3.23
273.787	3.31
274.16	3.16
274.533	3.04
274.906	3.15
275.279	3.35
275.653	3.35
276.026	3.23
276.399	3.08
276.772	3.17
277.145	3.21
277.518	3.03
277.891	2.99
278.263	2.92
278.636	2.96
279.009	3.07
279.382	3.2
279.755	3.27
280.127	3.55
280.5	3.64
280.872	3.66
281.245	3.63
281.617	3.7
281.99	3.81
282.362	3.86
282.735	3.59
283.107	3.54
283.479	3.64
283.852	3.66
284.224	3.87
284.596	3.89
284.968	3.95
285.34	4.18
285.713	4.22
286.085	4.38
286.457	4.47
286.829	4.39
287.201	4.36
287.572	4.46
287.944	4.32
288.316	4.18
288.688	4.05
289.06	4.13
289.431	4.22
289.803	4.28
290.175	4.24
290.546	4.49
290.918	4.44
291.289	4.6
291.661	4.76
292.032	4.75
292.403	4.65
292.775	4.61
293.146	4.51
293.517	4.42
293.889	4.5
294.26	4.38
294.631	4.39
295.002	4.31
295.373	4.27
295.744	4.38
296.115	4.39
296.486	4.45
296.857	4.48
297.228	4.42
297.599	4.43
297.97	4.49
298.34	4.53
298.711	4.71
299.082	4.56
299.452	4.46
299.823	4.57
300.194	4.65
300.564	4.72
300.935	4.8
301.305	4.89
301.676	4.78
302.046	4.92
302.416	5.07
302.787	5.21
303.157	5.23
303.527	5.16
303.897	5.24
304.267	5.37
304.637	5.45
305.008	5.59
305.378	5.73
305.748	6
306.117	6.03
306.487	6.09
306.857	6.29
307.227	6.5
307.597	6.47
307.967	6.43
308.336	6.57
308.706	6.58
309.076	6.6
309.445	6.61
309.815	6.7
310.184	6.66
310.554	6.65
310.923	6.63
311.293	6.77
311.662	6.82
312.031	6.91
312.401	6.96
312.77	7.01
313.139	6.92
313.508	6.89
313.877	6.83
314.246	6.9
314.616	6.88
314.985	6.94
315.353	6.91
315.722	7.19
316.091	7.09
316.46	7.13
316.829	7.26
317.198	7.4
317.567	7.35
317.935	7.42
318.304	7.43
318.672	7.49
319.041	7.56
319.41	7.51
319.778	7.59
320.147	7.6
320.515	7.62
320.883	7.8
321.252	7.81
321.62	7.87
321.988	7.86
322.357	7.83
322.725	7.71
323.093	7.79
323.461	7.69
323.829	7.78
324.197	7.89
324.565	8.03
324.933	8.01
325.301	7.98
325.669	8
326.037	8.05
326.405	8.21
326.772	8.23
327.14	8.4
327.508	8.34
327.875	8.38
328.243	8.48
328.61	8.55
328.978	8.69
329.346	8.85
329.713	8.89
330.08	9.08
330.448	9.04
330.815	8.95
331.182	8.92
331.55	8.99
331.917	9.06
332.284	9.02
332.651	9.02
333.018	9.14
333.385	9.23
333.752	9.35
334.119	9.4
334.486	9.31
334.853	9.34
335.22	9.46
335.587	9.53
335.954	9.55
336.32	9.46
336.687	9.38
337.054	9.36
337.42	9.31
337.787	9.18
338.153	9.26
338.52	9.48
338.886	9.6
339.253	9.45
339.619	9.38
339.986	9.34
340.352	9.37
340.718	9.35
341.084	9.29
341.451	9.31
341.817	9.3
342.183	9.29
342.549	9.22
342.915	9.29
343.281	9.25
343.647	9.26
344.013	9.33
344.379	9.24
344.745	9.32
345.11	9.32
345.476	9.35
345.842	9.33
346.208	9.26
346.573	9.27
346.939	9.38
347.304	9.4
347.67	9.38
348.035	9.46
348.401	9.41
348.766	9.57
349.132	9.53
349.497	9.55
349.862	9.72
350.228	9.71
350.593	9.56
350.958	9.45
351.323	9.42
351.688	9.34
352.053	9.48
352.418	9.45
352.783	9.42
353.148	9.46
353.513	9.44
353.878	9.48
354.243	9.49
354.608	9.5
354.972	9.43
355.337	9.49
355.702	9.49
356.066	9.59
356.431	9.54
356.795	9.51
357.16	9.45
357.524	9.26
357.889	9.21
358.253	9.27
358.618	9.36
358.982	9.23
359.346	9.23
359.71	9.08
360.075	9.01
360.439	9.04
360.803	8.96
361.167	8.93
361.531	8.83
361.895	8.8
362.259	8.74
362.623	8.69
362.987	8.6
363.351	8.5
363.714	8.41
364.078	8.32
364.442	8.23
364.806	8.18
365.169	8.17
365.533	8.1
365.896	7.96
366.26	7.88
366.623	7.87
366.987	7.84
367.35	7.88
367.714	7.84
368.077	7.79
368.44	7.81
368.803	7.72
369.167	7.72
369.53	7.61
369.893	7.57
370.256	7.56
370.619	7.54
370.982	7.46
371.345	7.38
371.708	7.33
372.071	7.32
372.434	7.27
372.797	7.23
373.159	7.23
373.522	7.2
373.885	7.15
374.247	7.11
374.61	7.07
374.973	6.94
375.335	6.91
375.698	6.77
376.06	6.67
376.423	6.68
376.785	6.64
377.147	6.57
377.51	6.48
377.872	6.5
378.234	6.42
378.596	6.36
378.958	6.3
379.321	6.23
379.683	6.17
380.045	6.1
380.407	6.06
380.769	5.95
381.13	5.92
381.492	5.86
381.854	5.8
382.216	5.69
382.578	5.73
382.939	5.64
383.301	5.64
383.663	5.66
384.024	5.57
384.386	5.54
384.747	5.55
385.109	5.54
385.47	5.42
385.832	5.4
386.193	5.4
386.554	5.38
386.916	5.34
387.277	5.32
387.638	5.32
387.999	5.25
388.36	5.27
388.721	5.3
389.082	5.26
389.443	5.21
389.804	5.15
390.165	5.1
390.526	5.09
390.887	5.02
391.248	4.95
391.609	4.96
391.969	4.92
392.33	4.86
392.691	4.83
393.051	4.78
393.412	4.72
393.772	4.64
394.133	4.62
394.493	4.63
394.854	4.59
395.214	4.56
395.574	4.54
395.935	4.46
396.295	4.42
396.655	4.4
397.015	4.4
397.376	4.43
397.736	4.37
398.096	4.36
398.456	4.33
398.816	4.31
399.176	4.24
399.535	4.21
399.895	4.22
400.255	4.17
400.615	4.19
400.975	4.19
401.334	4.21
401.694	4.19
402.054	4.13
402.413	4.12
402.773	4.05
403.132	4.03
403.492	4.05
403.851	4.03
404.211	4.02
404.57	3.99
404.929	3.96
405.288	3.95
405.648	3.92
406.007	3.94
406.366	3.93
406.725	3.94
407.084	3.91
407.443	3.89
407.802	3.91
408.161	3.85
408.52	3.83
408.879	3.82
409.238	3.81
409.596	3.8
409.955	3.78
410.314	3.79
410.673	3.78
411.031	3.75
411.39	3.72
411.748	3.68
412.107	3.68
412.465	3.67
412.824	3.66
413.182	3.63
413.54	3.6
413.899	3.61
414.257	3.6
414.615	3.6
414.974	3.6
415.332	3.58
415.69	3.57
416.048	3.55
416.406	3.54
416.764	3.53
417.122	3.55
417.48	3.52
417.838	3.52
418.195	3.52
418.553	3.52
418.911	3.51
419.269	3.51
419.626	3.49
419.984	3.46
420.342	3.45
420.699	3.44
421.057	3.43
421.414	3.4
421.772	3.38
422.129	3.36
422.486	3.33
422.844	3.32
423.201	3.32
423.558	3.32
423.915	3.31
424.273	3.3
424.63	3.26
424.987	3.25
425.344	3.24
425.701	3.22
426.058	3.21
426.415	3.19
426.772	3.18
427.128	3.18
427.485	3.18
427.842	3.17
428.199	3.17
428.555	3.17
428.912	3.17
429.269	3.16
429.625	3.18
429.982	3.19
430.338	3.19
430.695	3.2
431.051	3.18
431.407	3.18
431.764	3.18
432.12	3.2
432.476	3.21
432.832	3.19
433.189	3.19
433.545	3.19
433.901	3.2
434.257	3.19
434.613	3.18
434.969	3.19
435.325	3.19
435.681	3.19
436.036	3.19
436.392	3.2
436.748	3.2
437.104	3.19
437.459	3.18
437.815	3.17
438.171	3.17
438.526	3.19
438.882	3.18
439.237	3.18
439.593	3.16
439.948	3.16
440.304	3.17
440.659	3.18
441.014	3.17
441.369	3.17
441.725	3.15
442.08	3.16
442.435	3.16
442.79	3.16
443.145	3.15
443.5	3.14
443.855	3.13
444.21	3.12
444.565	3.14
444.92	3.14
445.275	3.14
445.629	3.14
445.984	3.14
446.339	3.12
446.693	3.11
447.048	3.11
447.403	3.11
447.757	3.11
448.112	3.08
448.466	3.07
448.82	3.07
449.175	3.08
449.529	3.08
449.883	3.08
450.238	3.09
450.592	3.08
450.946	3.06
451.3	3.05
451.654	3.05
452.008	3.03
452.362	3.01
452.716	3.01
453.07	3.01
453.424	2.97
453.778	2.98
454.132	2.98
454.486	2.97
454.839	2.96
455.193	2.94
455.547	2.97
455.9	2.99
456.254	3
456.607	2.98
456.961	2.98
457.314	2.97
457.668	2.98
458.021	2.97
458.375	2.98
458.728	2.99
459.081	2.98
459.434	2.96
459.787	2.98
460.141	2.97
460.494	2.98
460.847	2.99
461.2	2.98
461.553	2.98
461.906	2.99
462.259	3.01
462.611	3.03
462.964	3.03
463.317	3.03
463.67	3.04
464.022	3.04
464.375	3.03
464.728	3.04
465.08	3.03
465.433	3.05
465.785	3.04
466.138	3.04
466.49	3.05
466.843	3.05
467.195	3.06
467.547	3.09
467.899	3.09
468.252	3.1
468.604	3.15
468.956	3.16
469.308	3.17
469.66	3.16
470.012	3.17
470.364	3.17
470.716	3.19
471.068	3.19
471.42	3.21
471.772	3.22
472.123	3.24
472.475	3.25
472.827	3.25
473.178	3.26
473.53	3.27
473.882	3.27
474.233	3.31
474.585	3.29
474.936	3.27
475.288	3.27
475.639	3.3
475.99	3.25
476.342	3.25
476.693	3.25
477.044	3.28
477.395	3.24
477.746	3.25
478.097	3.23
478.448	3.22
478.8	3.21
479.15	3.2
479.501	3.2
479.852	3.19
480.203	3.18
480.554	3.17
480.905	3.18
481.255	3.18
481.606	3.17
481.957	3.17
482.307	3.18
482.658	3.17
483.009	3.17
483.359	3.19
483.709	3.2
484.06	3.19
484.41	3.19
484.761	3.2
485.111	3.2
485.461	3.21
485.811	3.2
486.162	3.2
486.512	3.21
486.862	3.2
487.212	3.2
487.562	3.22
487.912	3.22
488.262	3.21
488.612	3.21
488.961	3.21
489.311	3.22
489.661	3.23
490.011	3.23
490.36	3.22
490.71	3.22
491.06	3.21
491.409	3.21
491.759	3.21
492.108	3.21
492.458	3.2
492.807	3.2
493.157	3.21
493.506	3.22
493.855	3.21
494.204	3.23
494.554	3.25
494.903	3.23
495.252	3.25
495.601	3.29
495.95	3.33
496.299	3.34
496.648	3.35
496.997	3.36
497.346	3.4
497.695	3.42
498.043	3.42
498.392	3.45
498.741	3.48
499.09	3.49
499.438	3.52
499.787	3.56
500.135	3.6
500.484	3.65
500.832	3.68
501.181	3.73
501.529	3.76
501.878	3.8
502.226	3.85
502.574	3.88
502.923	3.9
503.271	3.93
503.619	3.98
503.967	4.02
504.315	4.07
504.663	4.11
505.011	4.16
505.359	4.21
505.707	4.26
506.055	4.3
506.403	4.38
506.751	4.4
507.098	4.44
507.446	4.51
507.794	4.56
508.141	4.63
508.489	4.7
508.837	4.75
509.184	4.81
509.531	4.88
509.879	4.97
510.226	5.04
510.574	5.09
510.921	5.18
511.268	5.25
511.616	5.32
511.963	5.4
512.31	5.48
512.657	5.57
513.004	5.66
513.351	5.78
513.698	5.86
514.045	5.96
514.392	6.06
514.739	6.16
515.086	6.27
515.432	6.37
515.779	6.45
516.126	6.57
516.473	6.67
516.819	6.77
517.166	6.86
517.512	6.96
517.859	7.08
518.205	7.15
518.552	7.26
518.898	7.36
519.245	7.48
519.591	7.57
519.937	7.69
520.283	7.8
520.629	7.91
520.976	8.03
521.322	8.19
521.668	8.33
522.014	8.46
522.36	8.61
522.706	8.74
523.052	8.92
523.398	9.08
523.743	9.26
524.089	9.41
524.435	9.56
524.781	9.73
525.126	9.88
525.472	10.03
525.817	10.15
526.163	10.27
526.509	10.38
526.854	10.49
527.199	10.59
527.545	10.67
527.89	10.77
528.235	10.88
528.581	10.97
528.926	11.09
529.271	11.2
529.616	11.29
529.961	11.38
530.306	11.48
530.651	11.6
530.996	11.72
531.341	11.85
531.686	12.01
532.031	12.13
532.376	12.27
532.721	12.42
533.065	12.57
533.41	12.72
533.755	12.87
534.099	13.03
534.444	13.19
534.788	13.36
535.133	13.54
535.477	13.7
535.822	13.87
536.166	14.05
536.51	14.23
536.855	14.46
537.199	14.7
537.543	14.93
537.887	15.17
538.231	15.39
538.576	15.6
538.92	15.81
539.264	16.03
539.608	16.22
539.951	16.38
540.295	16.55
540.639	16.75
540.983	16.92
541.327	17.1
541.671	17.27
542.014	17.45
542.358	17.61
542.701	17.79
543.045	17.95
543.389	18.11
543.732	18.31
544.075	18.51
544.419	18.7
544.762	18.89
545.105	19.09
545.449	19.29
545.792	19.53
546.135	19.75
546.478	19.99
546.821	20.27
547.165	20.55
547.508	20.84
547.851	21.09
548.194	21.36
548.536	21.63
548.879	21.91
549.222	22.22
549.565	22.51
549.908	22.8
550.25	23.1
550.593	23.44
550.936	23.77
551.278	24.07
551.621	24.37
551.963	24.71
552.306	24.97
552.648	25.27
552.991	25.58
553.333	25.84
553.675	26.13
554.017	26.42
554.36	26.7
554.702	26.98
555.044	27.26
555.386	27.55
555.728	27.85
556.07	28.15
556.412	28.42
556.754	28.72
557.096	29.02
557.438	29.35
557.78	29.63
558.121	29.9
558.463	30.18
558.805	30.46
559.147	30.73
559.488	31.03
559.83	31.34
560.171	31.65
560.513	31.98
560.854	32.31
561.196	32.6
561.537	32.85
561.878	33.1
562.22	33.35
562.561	33.62
562.902	33.88
563.243	34.13
563.584	34.37
563.925	34.63
564.266	34.93
564.607	35.14
564.948	35.39
565.289	35.63
565.63	35.82
565.971	36.02
566.312	36.24
566.653	36.49
566.993	36.72
567.334	36.94
567.675	37.14
568.015	37.34
568.356	37.56
568.696	37.78
569.037	38.06
569.377	38.28
569.718	38.47
570.058	38.7
570.398	38.92
570.739	39.11
571.079	39.3
571.419	39.47
571.759	39.69
572.099	39.84
572.439	39.99
572.779	40.25
573.119	40.43
573.459	40.65
573.799	40.83
574.139	40.99
574.479	41.17
574.819	41.38
575.158	41.56
575.498	41.77
575.838	41.98
576.177	42.13
576.517	42.32
576.856	42.57
577.196	42.71
577.535	42.96
577.875	43.16
578.214	43.34
578.553	43.54
578.893	43.77
579.232	44
579.571	44.21
579.91	44.38
580.25	44.63
580.589	44.76
580.928	44.92
581.267	45.1
581.606	45.27
581.945	45.44
582.283	45.57
582.622	45.68
582.961	45.83
583.3	45.93
583.639	46.16
583.977	46.32
584.316	46.47
584.654	46.6
584.993	46.79
585.332	46.94
585.67	47.09
586.008	47.18
586.347	47.33
586.685	47.46
587.024	47.63
587.362	47.78
587.7	47.93
588.038	48.07
588.376	48.23
588.715	48.39
589.053	48.51
589.391	48.63
589.729	48.76
590.067	48.79
590.404	48.98
590.742	49.07
591.08	49.16
591.418	49.32
591.756	49.49
592.093	49.58
592.431	49.73
592.769	49.8
593.106	49.89
593.444	49.97
593.781	50.08
594.119	50.21
594.456	50.29
594.793	50.36
595.131	50.47
595.468	50.57
595.805	50.57
596.143	50.62
596.48	50.71
596.817	50.77
597.154	50.88
597.491	51.03
597.828	51.03
598.165	51.09
598.502	51.16
598.839	51.21
599.176	51.29
599.512	51.4
599.849	51.49
600.186	51.63
600.523	51.72
600.859	51.88
601.196	51.9
601.532	52.01
601.869	52.05
602.205	52.11
602.542	52.15
602.878	52.28
603.215	52.35
603.551	52.45
603.887	52.56
604.223	52.59
604.56	52.59
604.896	52.66
605.232	52.75
605.568	52.8
605.904	52.8
606.24	52.85
606.576	52.88
606.912	52.95
607.248	53.04
607.583	53.09
607.919	53.07
608.255	53.15
608.591	53.25
608.926	53.37
609.262	53.46
609.597	53.53
609.933	53.56
610.268	53.61
610.604	53.71
610.939	53.75
611.275	53.87
611.61	53.91
611.945	54.05
612.281	54.09
612.616	54.22
612.951	54.26
613.286	54.34
613.621	54.47
613.956	54.47
614.291	54.37
614.626	54.43
614.961	54.55
615.296	54.66
615.631	54.66
615.966	54.67
616.3	54.59
616.635	54.68
616.97	54.77
617.304	54.79
617.639	54.75
617.973	54.76
618.308	54.82
618.642	54.92
618.977	54.86
619.311	54.82
619.646	54.8
619.98	54.9
620.314	55
620.648	55
620.983	55.15
621.317	55.32
621.651	55.44
621.985	55.42
622.319	55.43
622.653	55.42
622.987	55.5
623.321	55.59
623.655	55.57
623.988	55.6
624.322	55.7
624.656	55.7
624.99	55.8
625.323	55.73
625.657	55.72
625.99	55.79
626.324	55.89
626.657	55.91
626.991	56
627.324	55.95
627.658	55.97
627.991	55.94
628.324	55.96
628.657	55.96
628.991	55.97
629.324	55.92
629.657	55.92
629.99	55.9
630.323	56
630.656	55.99
630.989	56
631.322	56.03
631.655	56.1
631.987	56.05
632.32	56.11
632.653	56.08
632.986	56.14
633.318	56.18
633.651	56.23
633.984	56.27
634.316	56.39
634.649	56.35
634.981	56.31
635.313	56.26
635.646	56.3
635.978	56.34
636.31	56.44
636.643	56.52
636.975	56.51
637.307	56.47
637.639	56.55
637.971	56.53
638.303	56.49
638.635	56.53
638.967	56.65
639.299	56.73
639.631	56.73
639.963	56.72
640.295	56.69
640.626	56.72
640.958	56.71
641.29	56.55
641.621	56.57
641.953	56.76
642.285	56.84
642.616	56.82
642.948	56.9
643.279	56.85
643.61	56.9
643.942	56.96
644.273	56.95
644.604	56.9
644.936	56.93
645.267	56.99
645.598	56.96
645.929	56.94
646.26	56.93
646.591	57.09
646.922	57.14
647.253	57.13
647.584	57.07
647.915	56.92
648.245	56.98
648.576	56.97
648.907	56.96
649.238	56.95
649.568	57.06
649.899	57.03
650.229	57.14
650.56	57.12
650.89	57.13
651.221	57.17
651.551	57.19
651.882	57.29
652.212	57.16
652.542	57.15
652.872	57.13
653.203	57.05
653.533	57.11
653.863	57.08
654.193	57.02
654.523	57.1
654.853	57.32
655.183	57.33
655.513	57.38
655.843	57.32
656.172	57.4
656.502	57.33
656.832	57.32
657.162	57.27
657.491	57.36
657.821	57.41
658.15	57.49
658.48	57.52
658.809	57.55
659.139	57.54
659.468	57.53
659.798	57.51
660.127	57.73
660.456	57.58
660.785	57.66
661.115	57.83
661.444	57.75
661.773	57.63
662.102	57.77
662.431	57.77
662.76	57.7
663.089	57.7
663.418	57.66
663.747	57.52
664.076	57.57
664.404	57.57
664.733	57.63
665.062	57.51
665.39	57.63
665.719	57.59
666.048	57.78
666.376	57.86
666.705	57.85
667.033	57.74
667.362	57.81
667.69	57.67
668.018	57.74
