Data from BU57653_Reflection_00002.txt Node
Date: Mon Nov 18 16:51:59 EST 2019
User: vgr7
Spectrometer: USB2G7710
Scans to average: 3
Trigger mode: 4
Integration Time (sec): 2.000000E-2
Electric dark correction enabled: true
Boxcar width: 10
XAxis mode: Wavelengths
Number of Pixels in Spectrum: 2048
>>>>>Begin Spectral Data<<<<<
177.721	65.88
178.105	25.13
178.488	42.29
178.871	15.47
179.254	29.76
179.636	63.17
180.019	57.61
180.402	180
180.785	-43.83
181.168	-1.8
181.55	-8.92
181.933	72.88
182.316	137.97
182.698	127.79
183.081	132.57
183.463	860.46
183.846	399.85
184.228	407.69
184.611	405.51
184.993	748.83
185.376	-2183.46
185.758	1528.57
186.14	2486.55
186.522	-616.47
186.904	-271.24
187.287	-368.21
187.669	-247.7
188.051	-536.72
188.433	-669.69
188.815	-367.8
189.197	-310.98
189.579	-215.43
189.961	-215.7
190.342	-156.91
190.724	-157.61
191.106	-230.5
191.488	-213.43
191.869	-171.15
192.251	-157.32
192.633	-131.26
193.014	-141.47
193.396	-157.58
193.777	-147.46
194.159	-146.68
194.54	-150.08
194.922	-140.73
195.303	-179.24
195.684	-183.93
196.065	-126.91
196.447	-134.95
196.828	-109.46
197.209	-110.86
197.59	-110.81
197.971	-108.67
198.352	-111.81
198.733	-107.13
199.114	-78.55
199.495	-72.72
199.876	-55.25
200.257	-38.04
200.638	-44.92
201.018	-54.62
201.399	-53.08
201.78	-50.28
202.16	-83.03
202.541	-86.89
202.922	-155.18
203.302	-124.87
203.683	-118.2
204.063	-141.63
204.444	-116.16
204.824	-153.54
205.204	-134.59
205.585	-181.84
205.965	-158.19
206.345	-188.6
206.725	-379.58
207.106	-2148.52
207.486	-10170.27
207.866	620.51
208.246	1909.89
208.626	-1875.1
209.006	-395.93
209.386	-322.31
209.766	-398.69
210.145	-195.1
210.525	-161.24
210.905	-108.28
211.285	-104.01
211.664	-103.13
212.044	-118.12
212.424	-167.71
212.803	-172.16
213.183	-145.3
213.562	-129.9
213.942	-122.16
214.321	-100.75
214.701	-86.26
215.08	-84.92
215.459	-94.52
215.838	-77.8
216.218	-80.57
216.597	-86.23
216.976	-84.56
217.355	-94.73
217.734	-80.76
218.113	-89.32
218.492	-101.6
218.871	-124.6
219.25	-100.62
219.629	-94.01
220.008	-87.08
220.387	-49.51
220.766	-46.96
221.144	-69.1
221.523	-79.48
221.902	-75.24
222.28	-89.03
222.659	-78.46
223.037	-65.82
223.416	-73.22
223.794	-72.34
224.173	-80.51
224.551	-69.36
224.929	-57.64
225.308	-52.71
225.686	-49.55
226.064	-41.01
226.442	-34.05
226.821	-28.99
227.199	-30.7
227.577	-30.01
227.955	-29.28
228.333	-25.61
228.711	-19.77
229.089	-16.69
229.467	-15.96
229.845	-16.4
230.222	-14.02
230.6	-16.28
230.978	-15.98
231.356	-11.52
231.733	-11.25
232.111	-9.83
232.488	-8.61
232.866	-9.11
233.243	-8.81
233.621	-9.82
233.998	-8.4
234.376	-10.35
234.753	-11.86
235.13	-11.24
235.508	-9.63
235.885	-9.4
236.262	-10.31
236.639	-10.91
237.016	-11.25
237.393	-8.15
237.77	-6.13
238.147	-4.61
238.524	-3.01
238.901	-2.93
239.278	-2.9
239.655	-1.53
240.032	-1.3
240.409	-1.58
240.785	-1.18
241.162	-0.59
241.539	0.46
241.915	0.16
242.292	0.34
242.668	1
243.045	1.4
243.421	1.7
243.798	1.87
244.174	2.07
244.551	1.9
244.927	1.96
245.303	1.85
245.679	2.13
246.056	1.92
246.432	2.13
246.808	2.36
247.184	2.36
247.56	2.24
247.936	2.24
248.312	2.19
248.688	2.24
249.064	1.98
249.44	1.76
249.815	1.87
250.191	2.11
250.567	2.1
250.943	1.98
251.318	2.01
251.694	2.15
252.069	2.05
252.445	2.21
252.82	2.36
253.196	2.11
253.571	1.77
253.947	1.72
254.322	1.39
254.697	1.12
255.073	1.06
255.448	1.01
255.823	1.27
256.198	1.52
256.573	1.46
256.948	1.83
257.323	2.06
257.698	2.5
258.073	2.47
258.448	2.36
258.823	2.49
259.198	2.18
259.573	2.16
259.948	2.13
260.322	2.24
260.697	2.32
261.072	2.29
261.446	2.3
261.821	2.41
262.195	2.54
262.57	2.56
262.944	2.55
263.319	2.64
263.693	2.6
264.067	2.7
264.442	3.06
264.816	2.99
265.19	3.04
265.564	2.83
265.938	2.81
266.313	2.77
266.687	2.75
267.061	3.05
267.435	3.22
267.809	3.24
268.183	3.2
268.556	3.07
268.93	3.27
269.304	3.28
269.678	3.5
270.051	3.37
270.425	3.45
270.799	3.51
271.172	3.51
271.546	3.48
271.919	3.36
272.293	3.15
272.666	3.13
273.04	3.08
273.413	2.97
273.787	2.89
274.16	2.93
274.533	2.88
274.906	2.74
275.279	2.64
275.653	2.59
276.026	2.38
276.399	2.44
276.772	2.43
277.145	2.26
277.518	2.05
277.891	2.03
278.263	2
278.636	2
279.009	1.93
279.382	2.03
279.755	2.1
280.127	2.17
280.5	2.2
280.872	2.33
281.245	2.22
281.617	2.44
281.99	2.59
282.362	2.63
282.735	2.6
283.107	2.61
283.479	2.78
283.852	2.82
284.224	2.81
284.596	2.73
284.968	3.02
285.34	3.13
285.713	3.25
286.085	3.33
286.457	3.38
286.829	3.43
287.201	3.42
287.572	3.32
287.944	3.22
288.316	3.2
288.688	3.13
289.06	3.23
289.431	3.14
289.803	3.17
290.175	3.28
290.546	3.48
290.918	3.39
291.289	3.4
291.661	3.55
292.032	3.59
292.403	3.66
292.775	3.61
293.146	3.55
293.517	3.56
293.889	3.52
294.26	3.53
294.631	3.53
295.002	3.56
295.373	3.72
295.744	3.81
296.115	3.87
296.486	3.79
296.857	3.88
297.228	3.95
297.599	3.81
297.97	3.76
298.34	3.69
298.711	3.81
299.082	3.68
299.452	3.71
299.823	3.89
300.194	3.88
300.564	3.76
300.935	3.72
301.305	3.74
301.676	3.81
302.046	3.82
302.416	3.88
302.787	3.8
303.157	3.73
303.527	3.75
303.897	3.74
304.267	3.88
304.637	3.75
305.008	3.75
305.378	3.94
305.748	3.9
306.117	3.81
306.487	3.83
306.857	3.92
307.227	3.89
307.597	3.7
307.967	3.68
308.336	3.7
308.706	3.71
309.076	3.73
309.445	3.68
309.815	3.69
310.184	3.62
310.554	3.64
310.923	3.67
311.293	3.59
311.662	3.53
312.031	3.45
312.401	3.43
312.77	3.36
313.139	3.38
313.508	3.4
313.877	3.45
314.246	3.46
314.616	3.38
314.985	3.33
315.353	3.26
315.722	3.28
316.091	3.18
316.46	3.17
316.829	3.11
317.198	3.07
317.567	2.98
317.935	3.04
318.304	3.04
318.672	2.93
319.041	3.06
319.41	3.23
319.778	3.3
320.147	3.44
320.515	3.44
320.883	3.37
321.252	3.49
321.62	3.43
321.988	3.44
322.357	3.47
322.725	3.52
323.093	3.58
323.461	3.65
323.829	3.79
324.197	3.79
324.565	3.69
324.933	3.79
325.301	3.79
325.669	3.8
326.037	3.9
326.405	4.01
326.772	3.99
327.14	4.09
327.508	3.94
327.875	3.88
328.243	3.98
328.61	3.89
328.978	3.72
329.346	3.91
329.713	3.74
330.08	3.79
330.448	3.71
330.815	3.63
331.182	3.59
331.55	3.65
331.917	3.79
332.284	3.99
332.651	3.87
333.018	3.97
333.385	3.88
333.752	3.86
334.119	3.9
334.486	3.88
334.853	3.7
335.22	3.84
335.587	3.87
335.954	3.67
336.32	3.71
336.687	3.68
337.054	3.54
337.42	3.65
337.787	3.72
338.153	3.67
338.52	3.67
338.886	3.65
339.253	3.54
339.619	3.48
339.986	3.48
340.352	3.43
340.718	3.45
341.084	3.42
341.451	3.39
341.817	3.38
342.183	3.24
342.549	3.34
342.915	3.39
343.281	3.43
343.647	3.59
344.013	3.63
344.379	3.75
344.745	3.79
345.11	3.8
345.476	3.74
345.842	3.83
346.208	3.94
346.573	4.04
346.939	4.12
347.304	4.04
347.67	3.92
348.035	3.99
348.401	3.99
348.766	3.97
349.132	4
349.497	3.96
349.862	4.13
350.228	4.11
350.593	4.01
350.958	3.98
351.323	3.99
351.688	3.89
352.053	3.88
352.418	3.94
352.783	3.92
353.148	3.9
353.513	3.86
353.878	3.85
354.243	3.78
354.608	3.8
354.972	3.85
355.337	3.96
355.702	3.94
356.066	3.95
356.431	3.99
356.795	4
357.16	3.98
357.524	3.88
357.889	3.82
358.253	3.86
358.618	3.93
358.982	3.88
359.346	3.86
359.71	3.85
360.075	3.82
360.439	3.85
360.803	3.85
361.167	3.84
361.531	3.85
361.895	3.87
362.259	3.85
362.623	3.87
362.987	3.83
363.351	3.91
363.714	3.84
364.078	3.81
364.442	3.77
364.806	3.76
365.169	3.79
365.533	3.8
365.896	3.82
366.26	3.81
366.623	3.85
366.987	3.95
367.35	3.95
367.714	3.93
368.077	3.98
368.44	3.97
368.803	4
369.167	3.96
369.53	3.91
369.893	3.93
370.256	3.89
370.619	3.86
370.982	3.8
371.345	3.81
371.708	3.89
372.071	3.86
372.434	3.88
372.797	3.91
373.159	3.91
373.522	3.91
373.885	3.89
374.247	3.94
374.61	3.9
374.973	3.92
375.335	3.93
375.698	3.9
376.06	3.94
376.423	3.92
376.785	3.96
377.147	3.97
377.51	3.96
377.872	3.96
378.234	4.04
378.596	4.01
378.958	3.97
379.321	3.97
379.683	4.07
380.045	4.08
380.407	4.1
380.769	4.13
381.13	4.05
381.492	4.03
381.854	3.97
382.216	3.95
382.578	3.95
382.939	3.94
383.301	3.91
383.663	3.91
384.024	3.93
384.386	3.91
384.747	3.93
385.109	3.95
385.47	4.01
385.832	3.94
386.193	4
386.554	4.02
386.916	4
387.277	3.93
387.638	3.96
387.999	3.92
388.36	3.92
388.721	3.96
389.082	3.98
389.443	3.99
389.804	4.04
390.165	4.03
390.526	4.09
390.887	4.1
391.248	4.12
391.609	4.1
391.969	4.13
392.33	4.12
392.691	4.07
393.051	4.04
393.412	4.08
393.772	4.03
394.133	4.06
394.493	4.06
394.854	4.09
395.214	4.09
395.574	4.15
395.935	4.13
396.295	4.17
396.655	4.17
397.015	4.16
397.376	4.13
397.736	4.12
398.096	4.12
398.456	4.15
398.816	4.13
399.176	4.16
399.535	4.12
399.895	4.09
400.255	4.13
400.615	4.15
400.975	4.13
401.334	4.14
401.694	4.14
402.054	4.13
402.413	4.12
402.773	4.08
403.132	4.03
403.492	4.03
403.851	4.03
404.211	4.01
404.57	4
404.929	4.05
405.288	4.05
405.648	4
406.007	4
406.366	3.98
406.725	3.98
407.084	4.03
407.443	4.07
407.802	4.06
408.161	4.05
408.52	4.03
408.879	4.05
409.238	4.05
409.596	4.1
409.955	4.06
410.314	4.1
410.673	4.13
411.031	4.16
411.39	4.16
411.748	4.17
412.107	4.19
412.465	4.18
412.824	4.18
413.182	4.17
413.54	4.15
413.899	4.18
414.257	4.16
414.615	4.13
414.974	4.12
415.332	4.1
415.69	4.1
416.048	4.1
416.406	4.09
416.764	4.09
417.122	4.08
417.48	4.09
417.838	4.09
418.195	4.1
418.553	4.08
418.911	4.07
419.269	4.08
419.626	4.1
419.984	4.09
420.342	4.1
420.699	4.08
421.057	4.1
421.414	4.1
421.772	4.13
422.129	4.12
422.486	4.13
422.844	4.15
423.201	4.15
423.558	4.15
423.915	4.15
424.273	4.16
424.63	4.16
424.987	4.17
425.344	4.16
425.701	4.16
426.058	4.16
426.415	4.17
426.772	4.15
427.128	4.12
427.485	4.12
427.842	4.11
428.199	4.14
428.555	4.14
428.912	4.12
429.269	4.1
429.625	4.1
429.982	4.09
430.338	4.08
430.695	4.07
431.051	4.09
431.407	4.08
431.764	4.07
432.12	4.06
432.476	4.07
432.832	4.06
433.189	4.04
433.545	4.03
433.901	4.04
434.257	4.05
434.613	4.09
434.969	4.08
435.325	4.1
435.681	4.08
436.036	4.09
436.392	4.1
436.748	4.07
437.104	4.07
437.459	4.07
437.815	4.09
438.171	4.09
438.526	4.09
438.882	4.09
439.237	4.1
439.593	4.11
439.948	4.12
440.304	4.11
440.659	4.14
441.014	4.15
441.369	4.14
441.725	4.13
442.08	4.11
442.435	4.12
442.79	4.12
443.145	4.14
443.5	4.12
443.855	4.11
444.21	4.12
444.565	4.14
444.92	4.15
445.275	4.13
445.629	4.13
445.984	4.12
446.339	4.11
446.693	4.1
447.048	4.09
447.403	4.08
447.757	4.07
448.112	4.05
448.466	4.03
448.82	4.03
449.175	4.02
449.529	4.03
449.883	4.01
450.238	3.98
450.592	3.98
450.946	3.97
451.3	3.97
451.654	3.98
452.008	3.97
452.362	3.95
452.716	3.96
453.07	3.98
453.424	3.98
453.778	3.98
454.132	3.98
454.486	3.98
454.839	3.97
455.193	3.95
455.547	3.95
455.9	3.95
456.254	3.96
456.607	3.97
456.961	3.97
457.314	3.99
457.668	3.99
458.021	3.98
458.375	3.99
458.728	3.99
459.081	3.99
459.434	3.96
459.787	3.97
460.141	3.96
460.494	3.95
460.847	3.94
461.2	3.94
461.553	3.96
461.906	3.97
462.259	3.99
462.611	4.02
462.964	4.04
463.317	4.03
463.67	4.03
464.022	4.05
464.375	4.02
464.728	4.02
465.08	4.03
465.433	4.03
465.785	4.05
466.138	4.07
466.49	4.07
466.843	4.08
467.195	4.09
467.547	4.09
467.899	4.09
468.252	4.11
468.604	4.12
468.956	4.11
469.308	4.12
469.66	4.1
470.012	4.11
470.364	4.11
470.716	4.17
471.068	4.17
471.42	4.16
471.772	4.18
472.123	4.19
472.475	4.2
472.827	4.21
473.178	4.2
473.53	4.18
473.882	4.18
474.233	4.18
474.585	4.18
474.936	4.18
475.288	4.19
475.639	4.18
475.99	4.19
476.342	4.18
476.693	4.16
477.044	4.17
477.395	4.15
477.746	4.14
478.097	4.12
478.448	4.11
478.8	4.11
479.15	4.09
479.501	4.11
479.852	4.13
480.203	4.13
480.554	4.15
480.905	4.15
481.255	4.17
481.606	4.18
481.957	4.2
482.307	4.21
482.658	4.23
483.009	4.23
483.359	4.23
483.709	4.24
484.06	4.25
484.41	4.25
484.761	4.26
485.111	4.26
485.461	4.26
485.811	4.26
486.162	4.26
486.512	4.27
486.862	4.27
487.212	4.26
487.562	4.26
487.912	4.25
488.262	4.25
488.612	4.25
488.961	4.25
489.311	4.24
489.661	4.23
490.011	4.22
490.36	4.21
490.71	4.2
491.06	4.2
491.409	4.2
491.759	4.18
492.108	4.19
492.458	4.17
492.807	4.17
493.157	4.17
493.506	4.17
493.855	4.17
494.204	4.15
494.554	4.16
494.903	4.15
495.252	4.13
495.601	4.13
495.95	4.13
496.299	4.12
496.648	4.14
496.997	4.14
497.346	4.14
497.695	4.14
498.043	4.15
498.392	4.15
498.741	4.15
499.09	4.16
499.438	4.18
499.787	4.2
500.135	4.21
500.484	4.22
500.832	4.24
501.181	4.25
501.529	4.27
501.878	4.29
502.226	4.31
502.574	4.33
502.923	4.34
503.271	4.35
503.619	4.36
503.967	4.37
504.315	4.36
504.663	4.36
505.011	4.4
505.359	4.43
505.707	4.44
506.055	4.44
506.403	4.47
506.751	4.45
507.098	4.47
507.446	4.48
507.794	4.5
508.141	4.49
508.489	4.5
508.837	4.5
509.184	4.53
509.531	4.54
509.879	4.56
510.226	4.59
510.574	4.58
510.921	4.58
511.268	4.59
511.616	4.61
511.963	4.63
512.31	4.63
512.657	4.63
513.004	4.63
513.351	4.64
513.698	4.64
514.045	4.64
514.392	4.63
514.739	4.63
515.086	4.64
515.432	4.65
515.779	4.66
516.126	4.67
516.473	4.66
516.819	4.66
517.166	4.65
517.512	4.64
517.859	4.65
518.205	4.67
518.552	4.68
518.898	4.67
519.245	4.66
519.591	4.65
519.937	4.64
520.283	4.64
520.629	4.64
520.976	4.66
521.322	4.66
521.668	4.65
522.014	4.67
522.36	4.66
522.706	4.66
523.052	4.67
523.398	4.68
523.743	4.67
524.089	4.69
524.435	4.71
524.781	4.73
525.126	4.74
525.472	4.74
525.817	4.75
526.163	4.77
526.509	4.78
526.854	4.8
527.199	4.8
527.545	4.81
527.89	4.82
528.235	4.82
528.581	4.83
528.926	4.85
529.271	4.85
529.616	4.86
529.961	4.86
530.306	4.88
530.651	4.88
530.996	4.9
531.341	4.9
531.686	4.91
532.031	4.91
532.376	4.92
532.721	4.92
533.065	4.92
533.41	4.91
533.755	4.91
534.099	4.89
534.444	4.89
534.788	4.89
535.133	4.9
535.477	4.9
535.822	4.9
536.166	4.89
536.51	4.88
536.855	4.88
537.199	4.88
537.543	4.86
537.887	4.85
538.231	4.84
538.576	4.83
538.92	4.82
539.264	4.81
539.608	4.81
539.951	4.81
540.295	4.81
540.639	4.81
540.983	4.83
541.327	4.85
541.671	4.86
542.014	4.86
542.358	4.85
542.701	4.87
543.045	4.88
543.389	4.87
543.732	4.89
544.075	4.89
544.419	4.91
544.762	4.92
545.105	4.91
545.449	4.91
545.792	4.92
546.135	4.93
546.478	4.94
546.821	4.95
547.165	4.94
547.508	4.96
547.851	4.97
548.194	4.94
548.536	4.92
548.879	4.9
549.222	4.89
549.565	4.91
549.908	4.87
550.25	4.88
550.593	4.9
550.936	4.88
551.278	4.88
551.621	4.85
551.963	4.85
552.306	4.87
552.648	4.87
552.991	4.89
553.333	4.89
553.675	4.89
554.017	4.87
554.36	4.86
554.702	4.82
555.044	4.82
555.386	4.86
555.728	4.89
556.07	4.93
556.412	4.93
556.754	4.9
557.096	4.9
557.438	4.86
557.78	4.85
558.121	4.86
558.463	4.86
558.805	4.89
559.147	4.86
559.488	4.86
559.83	4.85
560.171	4.84
560.513	4.87
560.854	4.9
561.196	4.9
561.537	4.89
561.878	4.91
562.22	4.93
562.561	4.89
562.902	4.88
563.243	4.86
563.584	4.88
563.925	4.89
564.266	4.91
564.607	4.93
564.948	4.93
565.289	4.93
565.63	4.92
565.971	4.91
566.312	4.93
566.653	4.93
566.993	4.94
567.334	4.94
567.675	4.91
568.015	4.91
568.356	4.91
568.696	4.95
569.037	4.97
569.377	4.98
569.718	5
570.058	4.99
570.398	4.99
570.739	4.99
571.079	4.98
571.419	4.99
571.759	4.99
572.099	5
572.439	5.01
572.779	5.02
573.119	5.03
573.459	5.02
573.799	5.01
574.139	5
574.479	4.98
574.819	4.99
575.158	4.98
575.498	4.98
575.838	4.98
576.177	4.94
576.517	4.92
576.856	4.96
577.196	4.98
577.535	5
577.875	5.02
578.214	5.03
578.553	5.03
578.893	5.02
579.232	5.02
579.571	5.04
579.91	5.01
580.25	4.99
580.589	5.01
580.928	5.05
581.267	5.07
581.606	5.07
581.945	5.05
582.283	5.06
582.622	5.05
582.961	5.04
583.3	5.03
583.639	5.07
583.977	5.05
584.316	5.07
584.654	5.03
584.993	5.02
585.332	5
585.67	4.99
586.008	5.01
586.347	5.03
586.685	5
587.024	5.06
587.362	5.09
587.7	5.1
588.038	5.11
588.376	5.07
588.715	5.1
589.053	5.17
589.391	5.19
589.729	5.18
590.067	5.19
590.404	5.19
590.742	5.2
591.08	5.17
591.418	5.16
591.756	5.2
592.093	5.21
592.431	5.19
592.769	5.2
593.106	5.22
593.444	5.18
593.781	5.19
594.119	5.2
594.456	5.2
594.793	5.2
595.131	5.16
595.468	5.19
595.805	5.19
596.143	5.15
596.48	5.16
596.817	5.17
597.154	5.17
597.491	5.18
597.828	5.16
598.165	5.14
598.502	5.14
598.839	5.08
599.176	5.07
599.512	5.1
599.849	5.12
600.186	5.11
600.523	5.14
600.859	5.15
601.196	5.12
601.532	5.13
601.869	5.12
602.205	5.14
602.542	5.17
602.878	5.16
603.215	5.14
603.551	5.11
603.887	5.1
604.223	5.15
604.56	5.19
604.896	5.17
605.232	5.19
605.568	5.15
605.904	5.16
606.24	5.19
606.576	5.18
606.912	5.21
607.248	5.2
607.583	5.21
607.919	5.21
608.255	5.2
608.591	5.2
608.926	5.2
609.262	5.24
609.597	5.23
609.933	5.24
610.268	5.28
610.604	5.32
610.939	5.35
611.275	5.28
611.61	5.26
611.945	5.28
612.281	5.25
612.616	5.34
612.951	5.38
613.286	5.35
613.621	5.36
613.956	5.33
614.291	5.33
614.626	5.31
614.961	5.26
615.296	5.26
615.631	5.25
615.966	5.23
616.3	5.21
616.635	5.16
616.97	5.15
617.304	5.14
617.639	5.15
617.973	5.1
618.308	5.16
618.642	5.16
618.977	5.15
619.311	5.18
619.646	5.14
619.98	5.12
620.314	5.14
620.648	5.16
620.983	5.15
621.317	5.16
621.651	5.15
621.985	5.18
622.319	5.2
622.653	5.22
622.987	5.3
623.321	5.31
623.655	5.34
623.988	5.41
624.322	5.43
624.656	5.43
624.99	5.49
625.323	5.42
625.657	5.43
625.99	5.49
626.324	5.51
626.657	5.48
626.991	5.51
627.324	5.53
627.658	5.5
627.991	5.52
628.324	5.53
628.657	5.52
628.991	5.52
629.324	5.51
629.657	5.52
629.99	5.51
630.323	5.47
630.656	5.48
630.989	5.41
631.322	5.4
631.655	5.33
631.987	5.35
632.32	5.37
632.653	5.37
632.986	5.34
633.318	5.28
633.651	5.34
633.984	5.29
634.316	5.23
634.649	5.23
634.981	5.19
635.313	5.18
635.646	5.17
635.978	5.19
636.31	5.17
636.643	5.14
636.975	5.14
637.307	5.18
637.639	5.22
637.971	5.2
638.303	5.23
638.635	5.23
638.967	5.12
639.299	5.2
639.631	5.13
639.963	5.07
640.295	5.1
640.626	5.09
640.958	5.16
641.29	5.21
641.621	5.2
641.953	5.22
642.285	5.27
642.616	5.35
642.948	5.3
643.279	5.38
643.61	5.4
643.942	5.3
644.273	5.28
644.604	5.19
644.936	5.18
645.267	5.07
645.598	5.13
645.929	5.22
646.26	5.22
646.591	5.32
646.922	5.31
647.253	5.27
647.584	5.31
647.915	5.27
648.245	5.29
648.576	5.29
648.907	5.31
649.238	5.23
649.568	5.26
649.899	5.24
650.229	5.2
650.56	5.16
650.89	5.26
651.221	5.27
651.551	5.26
651.882	5.29
652.212	5.43
652.542	5.42
652.872	5.35
653.203	5.31
653.533	5.32
653.863	5.4
654.193	5.43
654.523	5.45
654.853	5.45
655.183	5.44
655.513	5.49
655.843	5.49
656.172	5.59
656.502	5.58
656.832	5.6
657.162	5.67
657.491	5.71
657.821	5.68
658.15	5.7
658.48	5.76
658.809	5.77
659.139	5.73
659.468	5.73
659.798	5.76
660.127	5.75
660.456	5.68
660.785	5.62
661.115	5.67
661.444	5.62
661.773	5.64
662.102	5.67
662.431	5.63
662.76	5.64
663.089	5.58
663.418	5.55
663.747	5.54
664.076	5.5
664.404	5.49
664.733	5.54
665.062	5.46
665.39	5.45
665.719	5.48
666.048	5.47
666.376	5.51
666.705	5.52
667.033	5.48
667.362	5.49
667.69	5.53
668.018	5.49
668.347	5.54
668.675	5.51
669.003	5.51
669.331	5.54
669.659	5.49
669.987	5.42
670.315	5.52
670.643	5.57
670.971	5.55
671.299	5.65
671.627	5.58
671.955	5.63
672.283	5.59
672.61	5.62
672.938	5.63
673.266	5.64
673.593	5.72
673.921	5.73
674.249	5.75
674.576	5.78
674.904	5.87
675.231	5.8
