Data from BU57614_Reflection_00015.txt Node
Date: Mon Nov 18 16:24:45 EST 2019
User: vgr7
Spectrometer: USB2G7710
Scans to average: 3
Trigger mode: 4
Integration Time (sec): 2.000000E-2
Electric dark correction enabled: true
Boxcar width: 10
XAxis mode: Wavelengths
Number of Pixels in Spectrum: 2048
>>>>>Begin Spectral Data<<<<<
177.721	251.24
178.105	-46.96
178.488	-17.9
178.871	87.44
179.254	96.54
179.636	133.98
180.019	-49.65
180.402	58.49
180.785	-154.3
181.168	4145.45
181.55	-234.87
181.933	18.48
182.316	0.8
182.698	14.61
183.081	0.8
183.463	-20.44
183.846	-56.02
184.228	-124.68
184.611	-96.38
184.993	-289.83
185.376	12511.76
185.758	8410.34
186.14	-2221.1
186.522	4286.44
186.904	876.82
187.287	530.6
187.669	232.22
188.051	333.38
188.433	151.51
188.815	108.4
189.197	100.5
189.579	81.6
189.961	65.77
190.342	46.78
190.724	58.32
191.106	43.6
191.488	71.32
191.869	18.05
192.251	26.31
192.633	24.25
193.014	5.18
193.396	-31.99
193.777	-0.36
194.159	-6.53
194.54	-9.62
194.922	10.36
195.303	17.62
195.684	17.08
196.065	19.99
196.447	4.77
196.828	-6.27
197.209	-11.35
197.59	-16.05
197.971	-11.86
198.352	2.81
198.733	6.02
199.114	15.51
199.495	10.65
199.876	23.08
200.257	8.38
200.638	13.87
201.018	10.38
201.399	13.76
201.78	5.94
202.16	3.21
202.541	-4.67
202.922	-18.7
203.302	-29.84
203.683	-20.5
204.063	-47.9
204.444	-42.56
204.824	-21.82
205.204	-22.15
205.585	-12.17
205.965	1.78
206.345	-25.42
206.725	-38.88
207.106	-40.4
207.486	-49.44
207.866	-39.56
208.246	-27.7
208.626	-38.18
209.006	-28.49
209.386	-37.45
209.766	-20.48
210.145	-7.83
210.525	4.89
210.905	13.07
211.285	11.13
211.664	2.56
212.044	8.24
212.424	14.3
212.803	18.29
213.183	23.21
213.562	21.65
213.942	17.31
214.321	21.09
214.701	27.03
215.08	14.04
215.459	13.44
215.838	10.65
216.218	6.38
216.597	18.7
216.976	25.76
217.355	27.99
217.734	25.69
218.113	24.69
218.492	21.81
218.871	15.25
219.25	21.52
219.629	22.63
220.008	18.83
220.387	19.03
220.766	18.32
221.144	6.01
221.523	6.06
221.902	-1.93
222.28	-5.78
222.659	-10.02
223.037	4.16
223.416	-3.5
223.794	-11.95
224.173	-15.24
224.551	-15.97
224.929	-15.34
225.308	-15.57
225.686	-19.51
226.064	-16
226.442	-16.9
226.821	-17.21
227.199	-18.43
227.577	-17.51
227.955	-16.62
228.333	-20.09
228.711	-16.66
229.089	-9.36
229.467	-8.9
229.845	-7.27
230.222	-5.83
230.6	-5.86
230.978	-7.05
231.356	-2.73
231.733	-0.26
232.111	2.78
232.488	0.13
232.866	0.78
233.243	0.68
233.621	1.4
233.998	2.02
234.376	2.36
234.753	2.91
235.13	3.5
235.508	4.92
235.885	4.72
236.262	5.28
236.639	5.62
237.016	4.46
237.393	5.48
237.77	5.38
238.147	5.57
238.524	5.72
238.901	6.48
239.278	6.07
239.655	7.05
240.032	6.86
240.409	7.21
240.785	6.38
241.162	6.57
241.539	6.66
241.915	6.07
242.292	5.91
242.668	5.9
243.045	5.93
243.421	5.48
243.798	5.47
244.174	5.36
244.551	4.84
244.927	4.91
245.303	4.96
245.679	4.74
246.056	4.57
246.432	4.4
246.808	4.26
247.184	4.03
247.56	3.79
247.936	3.77
248.312	3.69
248.688	3.81
249.064	3.74
249.44	3.56
249.815	3.68
250.191	3.78
250.567	3.73
250.943	3.42
251.318	3.54
251.694	3.44
252.069	3.46
252.445	3.76
252.82	3.4
253.196	2.84
253.571	3.1
253.947	3.3
254.322	3.69
254.697	3.73
255.073	3.43
255.448	3.15
255.823	3.24
256.198	3.3
256.573	2.91
256.948	2.93
257.323	3.14
257.698	3.17
258.073	3.21
258.448	3.24
258.823	3.37
259.198	3.23
259.573	3.29
259.948	3.23
260.322	3.19
260.697	3.31
261.072	3.37
261.446	3.24
261.821	3.15
262.195	3.13
262.57	3.03
262.944	3.12
263.319	3.3
263.693	3.1
264.067	3.21
264.442	3.47
264.816	3.59
265.19	3.53
265.564	3.43
265.938	3.38
266.313	3.39
266.687	3.54
267.061	3.69
267.435	3.75
267.809	3.66
268.183	3.65
268.556	3.48
268.93	3.59
269.304	3.8
269.678	3.88
270.051	3.8
270.425	3.73
270.799	3.85
271.172	3.75
271.546	3.76
271.919	3.71
272.293	3.72
272.666	3.79
273.04	3.7
273.413	3.64
273.787	3.74
274.16	3.62
274.533	3.64
274.906	3.53
275.279	3.47
275.653	3.49
276.026	3.45
276.399	3.44
276.772	3.45
277.145	3.21
277.518	3.2
277.891	3.32
278.263	3.33
278.636	3.19
279.009	3.06
279.382	3.26
279.755	3.27
280.127	3.36
280.5	3.24
280.872	3.3
281.245	3.35
281.617	3.32
281.99	3.48
282.362	3.33
282.735	3.28
283.107	3.29
283.479	3.43
283.852	3.43
284.224	3.53
284.596	3.54
284.968	3.6
285.34	3.58
285.713	3.58
286.085	3.6
286.457	3.78
286.829	3.93
287.201	3.89
287.572	3.73
287.944	3.62
288.316	3.62
288.688	3.62
289.06	3.56
289.431	3.62
289.803	3.64
290.175	3.7
290.546	3.94
290.918	3.97
291.289	4.03
291.661	4.05
292.032	4.09
292.403	4.21
292.775	4.23
293.146	4.11
293.517	4.2
293.889	4.34
294.26	4.26
294.631	4.18
295.002	4.16
295.373	4.36
295.744	4.42
296.115	4.49
296.486	4.51
296.857	4.68
297.228	4.57
297.599	4.62
297.97	4.66
298.34	4.59
298.711	4.65
299.082	4.55
299.452	4.59
299.823	4.58
300.194	4.47
300.564	4.51
300.935	4.83
301.305	4.67
301.676	4.72
302.046	4.79
302.416	5.01
302.787	5.11
303.157	5.08
303.527	5.12
303.897	5.17
304.267	5.12
304.637	5.22
305.008	5.26
305.378	5.32
305.748	5.41
306.117	5.4
306.487	5.38
306.857	5.52
307.227	5.6
307.597	5.64
307.967	5.77
308.336	5.86
308.706	5.76
309.076	5.85
309.445	5.76
309.815	5.75
310.184	5.77
310.554	5.95
310.923	5.94
311.293	5.96
311.662	5.99
312.031	6.14
312.401	6.11
312.77	6.26
313.139	6.26
313.508	6.27
313.877	6.36
314.246	6.43
314.616	6.44
314.985	6.47
315.353	6.64
315.722	6.62
316.091	6.66
316.46	6.75
316.829	6.83
317.198	6.96
317.567	7.02
317.935	7.02
318.304	6.79
318.672	6.79
319.041	6.91
319.41	7.05
319.778	7.12
320.147	7.22
320.515	7.22
320.883	7.27
321.252	7.38
321.62	7.52
321.988	7.58
322.357	7.57
322.725	7.73
323.093	7.83
323.461	7.96
323.829	7.97
324.197	8.1
324.565	8.17
324.933	8.25
325.301	8.29
325.669	8.23
326.037	8.37
326.405	8.73
326.772	8.84
327.14	8.88
327.508	8.95
327.875	8.9
328.243	8.91
328.61	8.91
328.978	8.93
329.346	8.94
329.713	8.93
330.08	9.14
330.448	9.16
330.815	9.05
331.182	9
331.55	8.95
331.917	8.89
332.284	8.97
332.651	9
333.018	9.15
333.385	9.33
333.752	9.45
334.119	9.27
334.486	9.26
334.853	9.15
335.22	9.06
335.587	9.15
335.954	9.27
336.32	9.4
336.687	9.48
337.054	9.6
337.42	9.75
337.787	9.89
338.153	9.84
338.52	9.97
338.886	10.07
339.253	10.19
339.619	10.27
339.986	10.2
340.352	10.2
340.718	10.25
341.084	10.24
341.451	10.14
341.817	10.21
342.183	10.28
342.549	10.3
342.915	10.43
343.281	10.51
343.647	10.48
344.013	10.48
344.379	10.41
344.745	10.38
345.11	10.23
345.476	10.14
345.842	10.15
346.208	10.16
346.573	10.19
346.939	10.26
347.304	10.11
347.67	10.05
348.035	10.18
348.401	10.16
348.766	10.17
349.132	10.24
349.497	10.23
349.862	10.2
350.228	10.24
350.593	10.11
350.958	10.01
351.323	10.05
351.688	10
352.053	10.06
352.418	10.08
352.783	10.19
353.148	10.19
353.513	10.12
353.878	10.18
354.243	10.13
354.608	10.09
354.972	10.18
355.337	10.29
355.702	10.24
356.066	10.22
356.431	10.22
356.795	10.17
357.16	10.16
357.524	10.1
357.889	10.11
358.253	10.2
358.618	10.19
358.982	10.12
359.346	10.11
359.71	10.11
360.075	10.07
360.439	10.02
360.803	9.95
361.167	9.99
361.531	9.86
361.895	9.8
362.259	9.75
362.623	9.74
362.987	9.73
363.351	9.62
363.714	9.63
364.078	9.55
364.442	9.44
364.806	9.35
365.169	9.32
365.533	9.22
365.896	9.14
366.26	9.09
366.623	9.06
366.987	9.02
367.35	8.9
367.714	8.81
368.077	8.72
368.44	8.69
368.803	8.57
369.167	8.51
369.53	8.54
369.893	8.53
370.256	8.4
370.619	8.29
370.982	8.25
371.345	8.11
371.708	8.08
372.071	8.07
372.434	7.98
372.797	7.89
373.159	7.89
373.522	7.81
373.885	7.74
374.247	7.69
374.61	7.62
374.973	7.55
375.335	7.5
375.698	7.5
376.06	7.41
376.423	7.36
376.785	7.39
377.147	7.26
377.51	7.13
377.872	7.1
378.234	7.03
378.596	6.98
378.958	6.95
379.321	6.86
379.683	6.79
380.045	6.77
380.407	6.71
380.769	6.62
381.13	6.58
381.492	6.49
381.854	6.36
382.216	6.3
382.578	6.25
382.939	6.15
383.301	6.07
383.663	6.02
384.024	5.99
384.386	5.96
384.747	5.91
385.109	5.88
385.47	5.84
385.832	5.8
386.193	5.8
386.554	5.71
386.916	5.68
387.277	5.66
387.638	5.63
387.999	5.6
388.36	5.55
388.721	5.51
389.082	5.48
389.443	5.43
389.804	5.36
390.165	5.34
390.526	5.33
390.887	5.29
391.248	5.29
391.609	5.24
391.969	5.13
392.33	5.13
392.691	5.05
393.051	5
393.412	4.96
393.772	4.89
394.133	4.88
394.493	4.83
394.854	4.77
395.214	4.7
395.574	4.66
395.935	4.63
396.295	4.57
396.655	4.52
397.015	4.5
397.376	4.49
397.736	4.42
398.096	4.38
398.456	4.35
398.816	4.27
399.176	4.21
399.535	4.16
399.895	4.11
400.255	4.12
400.615	4.11
400.975	4.06
401.334	4.03
401.694	3.98
402.054	3.93
402.413	3.94
402.773	3.92
403.132	3.88
403.492	3.83
403.851	3.81
404.211	3.79
404.57	3.77
404.929	3.72
405.288	3.7
405.648	3.67
406.007	3.66
406.366	3.64
406.725	3.64
407.084	3.64
407.443	3.63
407.802	3.63
408.161	3.61
408.52	3.62
408.879	3.59
409.238	3.6
409.596	3.61
409.955	3.59
410.314	3.55
410.673	3.53
411.031	3.54
411.39	3.54
411.748	3.55
412.107	3.56
412.465	3.56
412.824	3.55
413.182	3.52
413.54	3.52
413.899	3.53
414.257	3.53
414.615	3.52
414.974	3.5
415.332	3.47
415.69	3.44
416.048	3.4
416.406	3.41
416.764	3.38
417.122	3.35
417.48	3.32
417.838	3.34
418.195	3.33
418.553	3.31
418.911	3.29
419.269	3.27
419.626	3.25
419.984	3.25
420.342	3.24
420.699	3.23
421.057	3.2
421.414	3.19
421.772	3.16
422.129	3.16
422.486	3.14
422.844	3.13
423.201	3.12
423.558	3.11
423.915	3.09
424.273	3.08
424.63	3.07
424.987	3.06
425.344	3.04
425.701	3.03
426.058	3.02
426.415	3.01
426.772	3
427.128	2.97
427.485	2.94
427.842	2.93
428.199	2.93
428.555	2.91
428.912	2.9
429.269	2.89
429.625	2.88
429.982	2.84
430.338	2.83
430.695	2.83
431.051	2.82
431.407	2.82
431.764	2.79
432.12	2.79
432.476	2.79
432.832	2.77
433.189	2.77
433.545	2.76
433.901	2.77
434.257	2.75
434.613	2.77
434.969	2.78
435.325	2.79
435.681	2.78
436.036	2.78
436.392	2.78
436.748	2.79
437.104	2.78
437.459	2.78
437.815	2.79
438.171	2.77
438.526	2.77
438.882	2.78
439.237	2.8
439.593	2.8
439.948	2.8
440.304	2.82
440.659	2.84
441.014	2.84
441.369	2.84
441.725	2.85
442.08	2.83
442.435	2.83
442.79	2.82
443.145	2.84
443.5	2.83
443.855	2.82
444.21	2.81
444.565	2.83
444.92	2.84
445.275	2.83
445.629	2.85
445.984	2.85
446.339	2.84
446.693	2.82
447.048	2.81
447.403	2.8
447.757	2.78
448.112	2.77
448.466	2.77
448.82	2.77
449.175	2.77
449.529	2.77
449.883	2.74
450.238	2.76
450.592	2.75
450.946	2.75
451.3	2.74
451.654	2.73
452.008	2.73
452.362	2.72
452.716	2.72
453.07	2.71
453.424	2.71
453.778	2.72
454.132	2.73
454.486	2.73
454.839	2.73
455.193	2.73
455.547	2.72
455.9	2.71
456.254	2.7
456.607	2.7
456.961	2.72
457.314	2.73
457.668	2.71
458.021	2.71
458.375	2.7
458.728	2.72
459.081	2.7
459.434	2.69
459.787	2.7
460.141	2.69
460.494	2.68
460.847	2.68
461.2	2.67
461.553	2.67
461.906	2.68
462.259	2.68
462.611	2.7
462.964	2.72
463.317	2.71
463.67	2.71
464.022	2.72
464.375	2.71
464.728	2.71
465.08	2.71
465.433	2.7
465.785	2.7
466.138	2.7
466.49	2.71
466.843	2.72
467.195	2.73
467.547	2.75
467.899	2.73
468.252	2.75
468.604	2.77
468.956	2.78
469.308	2.79
469.66	2.8
470.012	2.79
470.364	2.8
470.716	2.81
471.068	2.83
471.42	2.84
471.772	2.84
472.123	2.87
472.475	2.89
472.827	2.9
473.178	2.92
473.53	2.92
473.882	2.93
474.233	2.95
474.585	2.93
474.936	2.93
475.288	2.96
475.639	2.96
475.99	2.95
476.342	2.97
476.693	2.98
477.044	2.96
477.395	2.95
477.746	2.92
478.097	2.91
478.448	2.88
478.8	2.87
479.15	2.86
479.501	2.84
479.852	2.83
480.203	2.85
480.554	2.85
480.905	2.84
481.255	2.84
481.606	2.84
481.957	2.84
482.307	2.83
482.658	2.84
483.009	2.84
483.359	2.83
483.709	2.83
484.06	2.82
484.41	2.83
484.761	2.83
485.111	2.84
485.461	2.84
485.811	2.85
486.162	2.84
486.512	2.86
486.862	2.86
487.212	2.86
487.562	2.86
487.912	2.86
488.262	2.86
488.612	2.86
488.961	2.86
489.311	2.87
489.661	2.88
490.011	2.86
490.36	2.86
490.71	2.86
491.06	2.87
491.409	2.86
491.759	2.87
492.108	2.86
492.458	2.86
492.807	2.85
493.157	2.86
493.506	2.88
493.855	2.88
494.204	2.89
494.554	2.88
494.903	2.87
495.252	2.86
495.601	2.88
495.95	2.89
496.299	2.9
496.648	2.93
496.997	2.94
497.346	2.98
497.695	3
498.043	3.01
498.392	3.03
498.741	3.07
499.09	3.08
499.438	3.11
499.787	3.14
500.135	3.18
500.484	3.2
500.832	3.22
501.181	3.25
501.529	3.26
501.878	3.3
502.226	3.36
502.574	3.39
502.923	3.41
503.271	3.45
503.619	3.49
503.967	3.5
504.315	3.55
504.663	3.58
505.011	3.62
505.359	3.68
505.707	3.73
506.055	3.76
506.403	3.81
506.751	3.85
507.098	3.9
507.446	3.94
507.794	3.98
508.141	4.03
508.489	4.08
508.837	4.13
509.184	4.18
509.531	4.24
509.879	4.32
510.226	4.39
510.574	4.45
510.921	4.5
511.268	4.56
511.616	4.61
511.963	4.68
512.31	4.75
512.657	4.83
513.004	4.88
513.351	4.97
513.698	5.05
514.045	5.13
514.392	5.21
514.739	5.31
515.086	5.4
515.432	5.49
515.779	5.59
516.126	5.68
516.473	5.78
516.819	5.87
517.166	5.94
517.512	6.03
517.859	6.11
518.205	6.2
518.552	6.29
518.898	6.36
519.245	6.44
519.591	6.53
519.937	6.6
520.283	6.72
520.629	6.83
520.976	6.94
521.322	7.05
521.668	7.16
522.014	7.28
522.36	7.41
522.706	7.53
523.052	7.67
523.398	7.82
523.743	7.96
524.089	8.09
524.435	8.27
524.781	8.41
525.126	8.54
525.472	8.66
525.817	8.77
526.163	8.89
526.509	8.99
526.854	9.09
527.199	9.19
527.545	9.27
527.89	9.37
528.235	9.47
528.581	9.58
528.926	9.71
529.271	9.81
529.616	9.92
529.961	10.04
530.306	10.15
530.651	10.28
530.996	10.41
531.341	10.55
531.686	10.67
532.031	10.84
532.376	11.01
532.721	11.21
533.065	11.4
533.41	11.58
533.755	11.77
534.099	11.96
534.444	12.16
534.788	12.36
535.133	12.56
535.477	12.75
535.822	12.98
536.166	13.18
536.51	13.45
536.855	13.73
537.199	13.99
537.543	14.3
537.887	14.59
538.231	14.86
538.576	15.16
538.92	15.47
539.264	15.73
539.608	15.98
539.951	16.19
540.295	16.44
540.639	16.68
540.983	16.91
541.327	17.17
541.671	17.42
542.014	17.65
542.358	17.86
542.701	18.11
543.045	18.34
543.389	18.6
543.732	18.85
544.075	19.11
544.419	19.38
544.762	19.63
545.105	19.92
545.449	20.24
545.792	20.53
546.135	20.86
546.478	21.21
546.821	21.56
547.165	21.93
547.508	22.29
547.851	22.65
548.194	23.02
548.536	23.35
548.879	23.72
549.222	24.1
549.565	24.52
549.908	24.9
550.25	25.26
550.593	25.64
550.936	25.99
551.278	26.35
551.621	26.71
551.963	27.13
552.306	27.46
552.648	27.84
552.991	28.27
553.333	28.58
553.675	28.92
554.017	29.27
554.36	29.62
554.702	29.91
555.044	30.25
555.386	30.62
555.728	30.97
556.07	31.39
556.412	31.7
556.754	32.02
557.096	32.31
557.438	32.6
557.78	32.97
558.121	33.37
558.463	33.73
558.805	34.09
559.147	34.43
559.488	34.79
559.83	35.13
560.171	35.39
560.513	35.76
560.854	36.02
561.196	36.34
561.537	36.68
561.878	36.99
562.22	37.31
562.561	37.58
562.902	37.86
563.243	38.09
563.584	38.42
563.925	38.73
564.266	39.07
564.607	39.38
564.948	39.64
565.289	39.88
565.63	40.14
565.971	40.41
566.312	40.64
566.653	40.87
566.993	41.1
567.334	41.37
567.675	41.56
568.015	41.81
568.356	42.04
568.696	42.23
569.037	42.47
569.377	42.74
569.718	42.93
570.058	43.13
570.398	43.38
570.739	43.57
571.079	43.73
571.419	43.93
571.759	44.16
572.099	44.29
572.439	44.45
572.779	44.56
573.119	44.74
573.459	44.91
573.799	45.16
574.139	45.3
574.479	45.49
574.819	45.63
575.158	45.84
575.498	45.99
575.838	46.16
576.177	46.37
576.517	46.45
576.856	46.7
577.196	46.92
577.535	47.03
577.875	47.23
578.214	47.44
578.553	47.6
578.893	47.82
579.232	48.05
579.571	48.26
579.91	48.5
580.25	48.7
580.589	48.82
580.928	48.88
581.267	49.03
581.606	49.08
581.945	49.3
582.283	49.41
582.622	49.54
582.961	49.74
583.3	49.76
583.639	49.9
583.977	50.08
584.316	50.21
584.654	50.36
584.993	50.53
585.332	50.62
585.67	50.65
586.008	50.64
586.347	50.68
586.685	50.7
587.024	50.82
587.362	50.87
587.7	51.04
588.038	51.1
588.376	51.22
588.715	51.39
589.053	51.47
589.391	51.57
589.729	51.68
590.067	51.75
590.404	51.88
590.742	51.97
591.08	51.97
591.418	52.04
591.756	52.11
592.093	52.08
592.431	52.15
592.769	52.25
593.106	52.4
593.444	52.53
593.781	52.62
594.119	52.62
594.456	52.7
594.793	52.71
595.131	52.8
595.468	52.85
595.805	52.87
596.143	52.95
596.48	53.05
596.817	53.1
597.154	53.11
597.491	53.2
597.828	53.23
598.165	53.27
598.502	53.23
598.839	53.3
599.176	53.36
599.512	53.48
599.849	53.57
600.186	53.63
600.523	53.73
600.859	53.77
601.196	53.92
601.532	53.92
601.869	53.96
602.205	54.01
602.542	54.09
602.878	54.16
603.215	54.15
603.551	54.23
603.887	54.31
604.223	54.39
604.56	54.39
604.896	54.45
605.232	54.56
605.568	54.71
605.904	54.71
606.24	54.82
606.576	54.83
606.912	54.9
607.248	54.97
607.583	54.98
607.919	55.06
608.255	55
608.591	55.09
608.926	55.23
609.262	55.31
609.597	55.28
609.933	55.33
610.268	55.39
610.604	55.34
610.939	55.31
611.275	55.28
611.61	55.35
611.945	55.42
612.281	55.43
612.616	55.4
612.951	55.49
613.286	55.5
613.621	55.57
613.956	55.54
614.291	55.64
614.626	55.71
614.961	55.75
615.296	55.88
615.631	55.81
615.966	55.86
616.3	55.88
616.635	56
616.97	56.05
617.304	56.14
617.639	56.21
617.973	56.32
618.308	56.42
618.642	56.46
618.977	56.42
619.311	56.4
619.646	56.44
619.98	56.42
620.314	56.48
620.648	56.48
620.983	56.53
621.317	56.43
621.651	56.41
621.985	56.44
622.319	56.5
622.653	56.55
622.987	56.45
623.321	56.44
623.655	56.42
623.988	56.45
624.322	56.42
624.656	56.39
624.99	56.27
625.323	56.35
625.657	56.35
625.99	56.42
626.324	56.52
626.657	56.62
626.991	56.67
627.324	56.59
627.658	56.61
627.991	56.69
628.324	56.79
628.657	56.79
628.991	56.82
629.324	56.84
629.657	56.98
629.99	57.03
630.323	57.07
630.656	57.14
630.989	57.21
631.322	57.25
631.655	57.29
631.987	57.47
632.32	57.47
632.653	57.41
632.986	57.43
633.318	57.41
633.651	57.36
633.984	57.39
634.316	57.49
634.649	57.61
634.981	57.65
635.313	57.58
635.646	57.72
635.978	57.79
636.31	57.79
636.643	57.85
636.975	57.89
637.307	57.91
637.639	57.89
637.971	57.82
638.303	57.84
638.635	57.85
638.967	57.83
639.299	57.79
639.631	57.96
639.963	57.97
640.295	58.09
640.626	58.18
640.958	58.25
641.29	58.31
641.621	58.19
641.953	58.18
642.285	58.07
642.616	57.96
642.948	57.89
643.279	57.81
643.61	57.76
643.942	57.71
644.273	57.74
644.604	57.65
644.936	57.62
645.267	57.73
645.598	57.75
645.929	57.77
646.26	57.89
646.591	57.87
646.922	57.91
647.253	57.78
647.584	57.68
647.915	57.6
648.245	57.66
648.576	57.71
648.907	57.63
649.238	57.61
649.568	57.73
649.899	57.76
650.229	57.83
650.56	57.82
650.89	57.97
651.221	58
651.551	58.09
651.882	58.1
652.212	57.97
652.542	57.96
652.872	57.95
653.203	57.98
653.533	57.95
653.863	57.9
654.193	57.91
654.523	58
654.853	57.97
655.183	57.92
655.513	57.97
655.843	58.12
656.172	58.32
656.502	58.21
656.832	58.18
657.162	58.28
657.491	58.24
657.821	58.17
658.15	58.19
658.48	58.18
658.809	58.29
659.139	58.38
659.468	58.49
659.798	58.46
660.127	58.35
660.456	58.34
660.785	58.43
661.115	58.54
661.444	58.45
661.773	58.49
662.102	58.44
662.431	58.47
662.76	58.39
663.089	58.41
663.418	58.58
663.747	58.68
664.076	58.58
664.404	58.75
664.733	58.7
665.062	58.69
665.39	58.83
665.719	58.77
666.048	58.76
666.376	58.62
666.705	58.53
667.033	58.62
667.362	58.58
667.69	58.52
668.018	58.4
