Data from BU57648_Reflection_00015.txt Node
Date: Tue Nov 19 10:46:58 EST 2019
User: vgr7
Spectrometer: USB2G7710
Scans to average: 3
Trigger mode: 4
Integration Time (sec): 2.000000E-2
Electric dark correction enabled: true
Boxcar width: 10
XAxis mode: Wavelengths
Number of Pixels in Spectrum: 2048
>>>>>Begin Spectral Data<<<<<
177.721	29.95
178.105	53.7
178.488	25.6
178.871	45.83
179.254	26.67
179.636	26.59
180.019	183.33
180.402	71.43
180.785	73.33
181.168	93.06
181.55	11.76
181.933	28.57
182.316	41.18
182.698	108.47
183.081	100
183.463	69.07
183.846	117.86
184.228	381.25
184.611	72.83
184.993	74.29
185.376	60.09
185.758	61.09
186.14	57.14
186.522	48.05
186.904	46.43
187.287	43.66
187.669	36.36
188.051	47.79
188.433	20.56
188.815	-2.21
189.197	-5.04
189.579	-0.81
189.961	-34.72
190.342	-49.43
190.724	-73.41
191.106	-52.78
191.488	-29.71
191.869	-23.43
192.251	-7.88
192.633	-1.27
193.014	-26.15
193.396	-25
193.777	-29.81
194.159	-16.54
194.54	-12.65
194.922	-39.74
195.303	-45.65
195.684	-52.17
196.065	-69.6
196.447	-43.12
196.828	-24.02
197.209	-25.95
197.59	-11.52
197.971	1.08
198.352	23.08
198.733	3.78
199.114	-4.69
199.495	-12.42
199.876	-43.1
200.257	-75.44
200.638	-77.69
201.018	-96.85
201.399	-76.95
201.78	-82.27
202.16	-81.67
202.541	-78.34
202.922	-49.71
203.302	-71.72
203.683	-66.67
204.063	-59.32
204.444	-54.76
204.824	-74.19
205.204	-63.61
205.585	-86.85
205.965	-116.87
206.345	-129.57
206.725	-115.87
207.106	-124.45
207.486	-105.08
207.866	-83.64
208.246	-56.64
208.626	-62.89
209.006	-44.66
209.386	-38.63
209.766	-49.12
210.145	-58.44
210.525	-81.82
210.905	-72.02
211.285	-50.17
211.664	-41.67
212.044	-33.44
212.424	-26.64
212.803	-35.18
213.183	-50
213.562	-35.38
213.942	-24.67
214.321	-33.14
214.701	-24.22
215.08	-24.2
215.459	-22.02
215.838	-6.81
216.218	-25
216.597	-23.96
216.976	-51.57
217.355	-71.73
217.734	-68.14
218.113	-54.91
218.492	-59.51
218.871	-56.06
219.25	-55.64
219.629	-48.9
220.008	-61.71
220.387	-81.4
220.766	-28.38
221.144	-13.14
221.523	-5.04
221.902	-1.37
222.28	8.45
222.659	6.54
223.037	2.17
223.416	-1.33
223.794	-10.13
224.173	-7.32
224.551	2.1
224.929	3.46
225.308	6.25
225.686	4.76
226.064	-2.94
226.442	7.1
226.821	-4.12
227.199	0.65
227.577	-0.79
227.955	-0
228.333	-2.15
228.711	-10.85
229.089	-10.94
229.467	-11.57
229.845	-7.85
230.222	-7.22
230.6	-8.18
230.978	-1.98
231.356	-2.58
231.733	-2.01
232.111	-2.7
232.488	-6.13
232.866	-2.2
233.243	-0.89
233.621	-0.39
233.998	0.7
234.376	-1.21
234.753	-0.67
235.13	-1.5
235.508	-1.23
235.885	0.53
236.262	1.24
236.639	2.05
237.016	0.94
237.393	0.79
237.77	0.28
238.147	0.86
238.524	2.2
238.901	1
239.278	0.74
239.655	1.03
240.032	1.61
240.409	2.16
240.785	0.77
241.162	1.31
241.539	1.54
241.915	1.41
242.292	1.82
242.668	1.85
243.045	2.09
243.421	2.54
243.798	2.63
244.174	2.7
244.551	2.79
244.927	3.11
245.303	3.04
245.679	3.02
246.056	2.88
246.432	2.85
246.808	2.91
247.184	3.18
247.56	3.09
247.936	3.28
248.312	3.34
248.688	3.81
249.064	3.76
249.44	3.62
249.815	3.95
250.191	3.97
250.567	4.44
250.943	4.27
251.318	4.06
251.694	3.73
252.069	3.42
252.445	3.6
252.82	3.58
253.196	3.8
253.571	3.72
253.947	3.76
254.322	3.91
254.697	3.73
255.073	3.64
255.448	3.75
255.823	3.48
256.198	3.51
256.573	3.23
256.948	3.12
257.323	3.31
257.698	3.14
258.073	3.05
258.448	2.84
258.823	2.68
259.198	2.84
259.573	2.98
259.948	3.09
260.322	2.97
260.697	3.01
261.072	2.98
261.446	2.98
261.821	2.85
262.195	2.56
262.57	2.73
262.944	2.78
263.319	2.76
263.693	2.74
264.067	2.77
264.442	2.78
264.816	2.62
265.19	2.6
265.564	2.54
265.938	2.56
266.313	2.49
266.687	2.52
267.061	2.42
267.435	2.58
267.809	2.7
268.183	2.69
268.556	2.3
268.93	2.37
269.304	2.46
269.678	2.6
270.051	2.72
270.425	2.61
270.799	2.54
271.172	2.65
271.546	2.92
271.919	2.66
272.293	2.78
272.666	2.93
273.04	2.88
273.413	2.84
273.787	2.75
274.16	2.82
274.533	2.96
274.906	2.94
275.279	2.87
275.653	2.82
276.026	2.91
276.399	3.28
276.772	3.38
277.145	3.47
277.518	3.24
277.891	3.28
278.263	3.4
278.636	3.41
279.009	3.29
279.382	2.92
279.755	3.16
280.127	3.15
280.5	3.16
280.872	3.12
281.245	3.08
281.617	3.13
281.99	3.01
282.362	3.04
282.735	3.07
283.107	3.04
283.479	3.09
283.852	3.01
284.224	2.97
284.596	2.78
284.968	2.76
285.34	2.95
285.713	2.98
286.085	2.97
286.457	2.98
286.829	2.94
287.201	3
287.572	2.93
287.944	2.93
288.316	3.01
288.688	3.16
289.06	3.18
289.431	3.11
289.803	3.2
290.175	3.17
290.546	3.19
290.918	3.14
291.289	3.05
291.661	2.98
292.032	2.94
292.403	3.07
292.775	3.09
293.146	3.34
293.517	3.3
293.889	3.28
294.26	3.34
294.631	3.37
295.002	3.39
295.373	3.49
295.744	3.48
296.115	3.41
296.486	3.39
296.857	3.36
297.228	3.5
297.599	3.45
297.97	3.54
298.34	3.63
298.711	3.7
299.082	3.77
299.452	3.86
299.823	3.87
300.194	3.85
300.564	3.77
300.935	3.66
301.305	3.5
301.676	3.36
302.046	3.21
302.416	3.19
302.787	3.2
303.157	3.16
303.527	3.32
303.897	3.31
304.267	3.25
304.637	3.38
305.008	3.31
305.378	3.53
305.748	3.49
306.117	3.44
306.487	3.53
306.857	3.63
307.227	3.9
307.597	3.97
307.967	4.02
308.336	4.01
308.706	3.94
309.076	4.15
309.445	4.45
309.815	4.54
310.184	4.49
310.554	4.53
310.923	4.55
311.293	4.46
311.662	4.57
312.031	4.55
312.401	4.6
312.77	4.73
313.139	4.72
313.508	4.66
313.877	4.6
314.246	4.59
314.616	4.65
314.985	4.64
315.353	4.69
315.722	4.83
316.091	4.93
316.46	4.95
316.829	4.92
317.198	4.85
317.567	4.98
317.935	5.25
318.304	5.32
318.672	5.49
319.041	5.43
319.41	5.38
319.778	5.6
320.147	5.6
320.515	5.57
320.883	5.45
321.252	5.7
321.62	5.98
321.988	5.97
322.357	5.9
322.725	5.91
323.093	5.97
323.461	6.07
323.829	6.17
324.197	6.25
324.565	6.39
324.933	6.33
325.301	6.32
325.669	6.21
326.037	6.38
326.405	6.38
326.772	6.59
327.14	6.57
327.508	6.56
327.875	6.66
328.243	6.6
328.61	6.59
328.978	6.38
329.346	6.33
329.713	6.41
330.08	6.58
330.448	6.38
330.815	6.42
331.182	6.24
331.55	6.28
331.917	6.28
332.284	6.37
332.651	6.63
333.018	6.78
333.385	6.86
333.752	6.76
334.119	6.8
334.486	6.73
334.853	6.79
335.22	6.87
335.587	6.94
335.954	7.03
336.32	7.25
336.687	7.37
337.054	7.32
337.42	7.28
337.787	7.22
338.153	7.41
338.52	7.42
338.886	7.48
339.253	7.56
339.619	7.62
339.986	7.54
340.352	7.45
340.718	7.47
341.084	7.62
341.451	7.62
341.817	7.67
342.183	7.76
342.549	7.9
342.915	7.86
343.281	7.8
343.647	7.83
344.013	7.83
344.379	7.81
344.745	7.89
345.11	7.87
345.476	7.91
345.842	7.92
346.208	7.9
346.573	7.84
346.939	7.7
347.304	7.74
347.67	7.78
348.035	7.68
348.401	7.63
348.766	7.49
349.132	7.53
349.497	7.47
349.862	7.52
350.228	7.47
350.593	7.5
350.958	7.65
351.323	7.6
351.688	7.62
352.053	7.68
352.418	7.69
352.783	7.72
353.148	7.71
353.513	7.62
353.878	7.68
354.243	7.69
354.608	7.76
354.972	7.77
355.337	7.7
355.702	7.81
356.066	7.71
356.431	7.68
356.795	7.66
357.16	7.59
357.524	7.52
357.889	7.42
358.253	7.37
358.618	7.18
358.982	7.18
359.346	7.07
359.71	7.09
360.075	7.05
360.439	7.06
360.803	7.03
361.167	6.98
361.531	6.86
361.895	6.83
362.259	6.84
362.623	6.82
362.987	6.84
363.351	6.71
363.714	6.73
364.078	6.81
364.442	6.74
364.806	6.74
365.169	6.72
365.533	6.73
365.896	6.75
366.26	6.74
366.623	6.79
366.987	6.82
367.35	6.7
367.714	6.72
368.077	6.68
368.44	6.66
368.803	6.62
369.167	6.62
369.53	6.59
369.893	6.6
370.256	6.49
370.619	6.43
370.982	6.4
371.345	6.37
371.708	6.27
372.071	6.27
372.434	6.28
372.797	6.22
373.159	6.16
373.522	6.09
373.885	6.03
374.247	5.91
374.61	5.86
374.973	5.85
375.335	5.77
375.698	5.67
376.06	5.65
376.423	5.64
376.785	5.68
377.147	5.65
377.51	5.6
377.872	5.58
378.234	5.57
378.596	5.57
378.958	5.55
379.321	5.51
379.683	5.52
380.045	5.43
380.407	5.38
380.769	5.37
381.13	5.24
381.492	5.25
381.854	5.23
382.216	5.23
382.578	5.2
382.939	5.19
383.301	5.17
383.663	5.1
384.024	5.07
384.386	5
384.747	4.93
385.109	4.9
385.47	4.88
385.832	4.86
386.193	4.78
386.554	4.72
386.916	4.68
387.277	4.56
387.638	4.56
387.999	4.53
388.36	4.53
388.721	4.53
389.082	4.53
389.443	4.52
389.804	4.52
390.165	4.52
390.526	4.46
390.887	4.44
391.248	4.4
391.609	4.41
391.969	4.4
392.33	4.4
392.691	4.34
393.051	4.33
393.412	4.31
393.772	4.38
394.133	4.38
394.493	4.34
394.854	4.35
395.214	4.31
395.574	4.26
395.935	4.23
396.295	4.23
396.655	4.21
397.015	4.16
397.376	4.08
397.736	4.04
398.096	4.03
398.456	3.99
398.816	3.97
399.176	3.88
399.535	3.84
399.895	3.81
400.255	3.81
400.615	3.78
400.975	3.72
401.334	3.63
401.694	3.59
402.054	3.59
402.413	3.59
402.773	3.57
403.132	3.58
403.492	3.57
403.851	3.58
404.211	3.54
404.57	3.54
404.929	3.52
405.288	3.49
405.648	3.48
406.007	3.48
406.366	3.48
406.725	3.52
407.084	3.49
407.443	3.47
407.802	3.44
408.161	3.43
408.52	3.45
408.879	3.45
409.238	3.45
409.596	3.45
409.955	3.43
410.314	3.43
410.673	3.42
411.031	3.4
411.39	3.37
411.748	3.39
412.107	3.35
412.465	3.34
412.824	3.32
413.182	3.34
413.54	3.35
413.899	3.35
414.257	3.36
414.615	3.35
414.974	3.35
415.332	3.33
415.69	3.3
416.048	3.28
416.406	3.26
416.764	3.26
417.122	3.22
417.48	3.2
417.838	3.2
418.195	3.19
418.553	3.16
418.911	3.14
419.269	3.12
419.626	3.11
419.984	3.11
420.342	3.1
420.699	3.06
421.057	3.06
421.414	3.04
421.772	3.02
422.129	3.01
422.486	3
422.844	3
423.201	3
423.558	2.99
423.915	2.99
424.273	2.97
424.63	2.98
424.987	2.99
425.344	2.97
425.701	2.96
426.058	2.95
426.415	2.95
426.772	2.93
427.128	2.92
427.485	2.91
427.842	2.89
428.199	2.91
428.555	2.9
428.912	2.91
429.269	2.9
429.625	2.92
429.982	2.91
430.338	2.91
430.695	2.89
431.051	2.88
431.407	2.87
431.764	2.87
432.12	2.86
432.476	2.89
432.832	2.86
433.189	2.86
433.545	2.87
433.901	2.86
434.257	2.87
434.613	2.86
434.969	2.88
435.325	2.88
435.681	2.88
436.036	2.87
436.392	2.85
436.748	2.86
437.104	2.82
437.459	2.83
437.815	2.83
438.171	2.85
438.526	2.84
438.882	2.86
439.237	2.85
439.593	2.85
439.948	2.82
440.304	2.83
440.659	2.83
441.014	2.82
441.369	2.84
441.725	2.84
442.08	2.85
442.435	2.85
442.79	2.85
443.145	2.84
443.5	2.85
443.855	2.86
444.21	2.86
444.565	2.88
444.92	2.88
445.275	2.87
445.629	2.87
445.984	2.88
446.339	2.89
446.693	2.89
447.048	2.87
447.403	2.87
447.757	2.88
448.112	2.87
448.466	2.87
448.82	2.85
449.175	2.85
449.529	2.85
449.883	2.85
450.238	2.86
450.592	2.85
450.946	2.84
451.3	2.83
451.654	2.82
452.008	2.81
452.362	2.81
452.716	2.8
453.07	2.79
453.424	2.77
453.778	2.75
454.132	2.73
454.486	2.75
454.839	2.74
455.193	2.73
455.547	2.74
455.9	2.76
456.254	2.78
456.607	2.77
456.961	2.76
457.314	2.74
457.668	2.74
458.021	2.72
458.375	2.72
458.728	2.73
459.081	2.73
459.434	2.73
459.787	2.73
460.141	2.72
460.494	2.74
460.847	2.76
461.2	2.76
461.553	2.77
461.906	2.75
462.259	2.76
462.611	2.77
462.964	2.78
463.317	2.77
463.67	2.75
464.022	2.76
464.375	2.75
464.728	2.77
465.08	2.77
465.433	2.79
465.785	2.79
466.138	2.78
466.49	2.78
466.843	2.81
467.195	2.81
467.547	2.81
467.899	2.81
468.252	2.81
468.604	2.8
468.956	2.81
469.308	2.82
469.66	2.83
470.012	2.82
470.364	2.82
470.716	2.83
471.068	2.84
471.42	2.84
471.772	2.83
472.123	2.84
472.475	2.86
472.827	2.86
473.178	2.87
473.53	2.89
473.882	2.9
474.233	2.87
474.585	2.88
474.936	2.88
475.288	2.87
475.639	2.87
475.99	2.87
476.342	2.87
476.693	2.89
477.044	2.9
477.395	2.89
477.746	2.88
478.097	2.88
478.448	2.88
478.8	2.87
479.15	2.89
479.501	2.86
479.852	2.86
480.203	2.87
480.554	2.87
480.905	2.87
481.255	2.87
481.606	2.89
481.957	2.88
482.307	2.89
482.658	2.89
483.009	2.89
483.359	2.9
483.709	2.89
484.06	2.88
484.41	2.88
484.761	2.9
485.111	2.9
485.461	2.9
485.811	2.9
486.162	2.91
486.512	2.9
486.862	2.91
487.212	2.91
487.562	2.9
487.912	2.9
488.262	2.91
488.612	2.91
488.961	2.9
489.311	2.9
489.661	2.89
490.011	2.9
490.36	2.89
490.71	2.89
491.06	2.89
491.409	2.89
491.759	2.89
492.108	2.88
492.458	2.88
492.807	2.89
493.157	2.89
493.506	2.89
493.855	2.91
494.204	2.91
494.554	2.91
494.903	2.92
495.252	2.92
495.601	2.91
495.95	2.92
496.299	2.94
496.648	2.97
496.997	2.98
497.346	2.98
497.695	3.02
498.043	3.06
498.392	3.08
498.741	3.09
499.09	3.12
499.438	3.13
499.787	3.16
500.135	3.17
500.484	3.18
500.832	3.2
501.181	3.21
501.529	3.26
501.878	3.31
502.226	3.33
502.574	3.37
502.923	3.41
503.271	3.46
503.619	3.49
503.967	3.49
504.315	3.54
504.663	3.56
505.011	3.57
505.359	3.55
505.707	3.61
506.055	3.64
506.403	3.65
506.751	3.69
507.098	3.71
507.446	3.73
507.794	3.75
508.141	3.78
508.489	3.82
508.837	3.83
509.184	3.86
509.531	3.9
509.879	3.91
510.226	3.92
510.574	3.93
510.921	3.95
511.268	3.99
511.616	4.03
511.963	4.06
512.31	4.1
512.657	4.16
513.004	4.17
513.351	4.21
513.698	4.28
514.045	4.31
514.392	4.35
514.739	4.41
515.086	4.49
515.432	4.57
515.779	4.61
516.126	4.66
516.473	4.69
516.819	4.72
517.166	4.79
517.512	4.85
517.859	4.9
518.205	4.91
518.552	4.96
518.898	4.99
519.245	5.03
519.591	5.07
519.937	5.12
520.283	5.17
520.629	5.22
520.976	5.25
521.322	5.33
521.668	5.4
522.014	5.45
522.36	5.5
522.706	5.56
523.052	5.63
523.398	5.7
523.743	5.77
524.089	5.85
524.435	5.92
524.781	5.99
525.126	6.05
525.472	6.14
525.817	6.19
526.163	6.24
526.509	6.29
526.854	6.34
527.199	6.39
527.545	6.43
527.89	6.47
528.235	6.51
528.581	6.53
528.926	6.57
529.271	6.61
529.616	6.67
529.961	6.71
530.306	6.76
530.651	6.82
530.996	6.89
531.341	6.95
531.686	7.01
532.031	7.08
532.376	7.13
532.721	7.19
533.065	7.27
533.41	7.35
533.755	7.41
534.099	7.48
534.444	7.54
534.788	7.64
535.133	7.73
535.477	7.8
535.822	7.9
536.166	8.01
536.51	8.12
536.855	8.2
537.199	8.33
537.543	8.45
537.887	8.54
538.231	8.65
538.576	8.77
538.92	8.88
539.264	9
539.608	9.13
539.951	9.21
540.295	9.31
540.639	9.43
540.983	9.54
541.327	9.67
541.671	9.77
542.014	9.88
542.358	9.98
542.701	10.07
543.045	10.17
543.389	10.27
543.732	10.36
544.075	10.48
544.419	10.58
544.762	10.69
545.105	10.83
545.449	10.96
545.792	11.11
546.135	11.24
546.478	11.36
546.821	11.55
547.165	11.74
547.508	11.9
547.851	12.02
548.194	12.18
548.536	12.33
548.879	12.54
549.222	12.68
549.565	12.87
549.908	13.08
550.25	13.31
550.593	13.5
550.936	13.76
551.278	13.99
551.621	14.22
551.963	14.44
552.306	14.68
552.648	14.89
552.991	15.1
553.333	15.31
553.675	15.54
554.017	15.7
554.36	15.97
554.702	16.18
555.044	16.43
555.386	16.68
555.728	16.95
556.07	17.18
556.412	17.46
556.754	17.7
557.096	17.98
557.438	18.26
557.78	18.57
558.121	18.85
558.463	19.1
558.805	19.36
559.147	19.67
559.488	19.95
559.83	20.24
560.171	20.55
560.513	20.85
560.854	21.11
561.196	21.41
561.537	21.67
561.878	22.01
562.22	22.33
562.561	22.62
562.902	22.94
563.243	23.23
563.584	23.52
563.925	23.84
564.266	24.14
564.607	24.44
564.948	24.71
565.289	24.99
565.63	25.28
565.971	25.57
566.312	25.79
566.653	26.08
566.993	26.35
567.334	26.68
567.675	27
568.015	27.33
568.356	27.67
568.696	27.94
569.037	28.22
569.377	28.53
569.718	28.84
570.058	29.16
570.398	29.45
570.739	29.7
571.079	29.95
571.419	30.21
571.759	30.48
572.099	30.75
572.439	31.04
572.779	31.3
573.119	31.57
573.459	31.85
573.799	32.13
574.139	32.39
574.479	32.59
574.819	32.87
575.158	33.11
575.498	33.29
575.838	33.53
576.177	33.81
576.517	34.1
576.856	34.34
577.196	34.6
577.535	34.9
577.875	35.25
578.214	35.6
578.553	35.85
578.893	36.18
579.232	36.44
579.571	36.76
579.91	37.04
580.25	37.3
580.589	37.67
580.928	37.95
581.267	38.24
581.606	38.51
581.945	38.8
582.283	39.12
582.622	39.41
582.961	39.75
583.3	40
583.639	40.2
583.977	40.46
584.316	40.65
584.654	40.9
584.993	41.2
585.332	41.49
585.67	41.79
586.008	41.95
586.347	42.24
586.685	42.43
587.024	42.63
587.362	42.91
587.7	43.18
588.038	43.43
588.376	43.61
588.715	43.87
589.053	44.06
589.391	44.25
589.729	44.58
590.067	44.72
590.404	44.94
590.742	45.16
591.08	45.39
591.418	45.64
591.756	45.91
592.093	46.06
592.431	46.16
592.769	46.42
593.106	46.65
593.444	46.78
593.781	47
594.119	47.27
594.456	47.42
594.793	47.52
595.131	47.65
595.468	47.86
595.805	48
596.143	48.18
596.48	48.32
596.817	48.39
597.154	48.62
597.491	48.77
597.828	48.89
598.165	49.11
598.502	49.31
598.839	49.4
599.176	49.57
599.512	49.72
599.849	49.8
600.186	49.96
600.523	50.08
600.859	50.2
601.196	50.32
601.532	50.52
601.869	50.71
602.205	50.82
602.542	50.84
602.878	50.98
603.215	51.01
603.551	51.09
603.887	51.21
604.223	51.28
604.56	51.37
604.896	51.58
605.232	51.6
605.568	51.68
605.904	51.68
606.24	51.76
606.576	51.88
606.912	52.04
607.248	52.16
607.583	52.36
607.919	52.57
608.255	52.64
608.591	52.68
608.926	52.72
609.262	52.8
609.597	53
609.933	53.11
610.268	53.23
610.604	53.39
610.939	53.43
611.275	53.5
611.61	53.6
611.945	53.6
612.281	53.68
612.616	53.67
612.951	53.9
613.286	54.06
613.621	54.24
613.956	54.35
614.291	54.4
614.626	54.43
614.961	54.4
615.296	54.5
615.631	54.65
615.966	54.83
616.3	54.99
616.635	55.06
616.97	55.06
617.304	55.12
617.639	55.18
617.973	55.32
618.308	55.48
618.642	55.63
618.977	55.71
619.311	55.75
619.646	55.9
619.98	55.98
620.314	56
620.648	55.95
620.983	55.95
621.317	56
621.651	56.11
621.985	56.12
622.319	56.2
622.653	56.26
622.987	56.2
623.321	56.24
623.655	56.28
623.988	56.35
624.322	56.48
624.656	56.44
624.99	56.46
625.323	56.46
625.657	56.44
625.99	56.54
626.324	56.6
626.657	56.62
626.991	56.54
627.324	56.53
627.658	56.54
627.991	56.63
628.324	56.66
628.657	56.62
628.991	56.72
629.324	56.72
629.657	56.73
629.99	56.74
630.323	56.77
630.656	56.92
630.989	56.99
631.322	57.05
631.655	57.21
631.987	57.3
632.32	57.39
632.653	57.46
632.986	57.39
633.318	57.47
633.651	57.46
633.984	57.69
634.316	57.77
634.649	57.87
634.981	57.86
635.313	57.97
635.646	57.97
635.978	57.93
636.31	58.02
636.643	57.96
636.975	58.07
637.307	57.99
637.639	57.97
637.971	57.92
638.303	57.96
638.635	57.89
638.967	57.95
639.299	57.94
639.631	57.89
639.963	57.94
640.295	58.02
640.626	58.24
640.958	58.16
641.29	58.31
641.621	58.35
641.953	58.33
642.285	58.35
642.616	58.58
642.948	58.85
643.279	58.87
643.61	58.93
643.942	58.98
644.273	59.15
644.604	59.13
644.936	59.22
645.267	59.17
645.598	59.24
645.929	59.22
646.26	59.16
646.591	59.32
646.922	59.38
647.253	59.36
647.584	59.31
647.915	59.35
648.245	59.31
648.576	59.36
648.907	59.44
649.238	59.47
649.568	59.36
649.899	59.31
650.229	59.39
650.56	59.45
650.89	59.52
651.221	59.55
651.551	59.62
651.882	59.72
652.212	59.84
652.542	59.9
652.872	60.12
653.203	60.14
653.533	60.19
653.863	60.24
654.193	60.33
654.523	60.3
654.853	60.34
655.183	60.39
655.513	60.46
655.843	60.47
656.172	60.42
656.502	60.58
656.832	60.59
657.162	60.57
657.491	60.74
657.821	60.68
658.15	60.72
658.48	60.79
658.809	60.75
659.139	60.72
659.468	60.7
659.798	60.62
660.127	60.6
660.456	60.63
660.785	60.78
661.115	60.76
661.444	60.88
661.773	60.83
662.102	60.82
662.431	60.78
662.76	60.83
663.089	60.9
663.418	60.77
663.747	60.76
664.076	60.83
664.404	60.73
664.733	60.76
665.062	60.81
665.39	60.6
665.719	60.75
666.048	60.78
666.376	60.8
666.705	60.59
667.033	60.69
667.362	60.52
667.69	60.44
668.018	60.5
668.347	60.53
668.675	60.67
669.003	60.75
669.331	60.86
669.659	60.92
669.987	60.92
