Data from BU57653_Reflection_00014.txt Node
Date: Mon Nov 18 16:52:26 EST 2019
User: vgr7
Spectrometer: USB2G7710
Scans to average: 3
Trigger mode: 4
Integration Time (sec): 2.000000E-2
Electric dark correction enabled: true
Boxcar width: 10
XAxis mode: Wavelengths
Number of Pixels in Spectrum: 2048
>>>>>Begin Spectral Data<<<<<
177.721	65.38
178.105	83.96
178.488	21.89
178.871	-16.01
179.254	-16.45
179.636	31.82
180.019	34.14
180.402	100
180.785	109.3
181.168	200.52
181.55	110.43
181.933	122.37
182.316	114.24
182.698	84.99
183.081	66.78
183.463	225.48
183.846	67.54
184.228	-17.56
184.611	19.69
184.993	110.03
185.376	-537.8
185.758	528.57
186.14	931.93
186.522	-180.14
186.904	-117.9
187.287	-181.53
187.669	-95.03
188.051	-157.6
188.433	-154.09
188.815	8.96
189.197	2.36
189.579	7.4
189.961	1.29
190.342	-14.46
190.724	-5.39
191.106	-8.53
191.488	-9.12
191.869	-18.58
192.251	-28.34
192.633	-26.22
193.014	-24.75
193.396	-19.1
193.777	-22.57
194.159	-12.87
194.54	-18
194.922	-1.34
195.303	14.72
195.684	28.15
196.065	47.43
196.447	42.4
196.828	27.7
197.209	31.92
197.59	23.72
197.971	51.91
198.352	70.89
198.733	84.47
199.114	57.23
199.495	66.72
199.876	65.27
200.257	71.04
200.638	86.38
201.018	85.46
201.399	100.71
201.78	102.04
202.16	131.92
202.541	135.16
202.922	196.77
203.302	145.55
203.683	117.72
204.063	79.92
204.444	83.04
204.824	87.36
205.204	105.96
205.585	206.25
205.965	146.15
206.345	126.3
206.725	147.12
207.106	579.29
207.486	-467.57
207.866	70.3
208.246	567.68
208.626	-485.06
209.006	-98.19
209.386	-151
209.766	-158.94
210.145	-87.05
210.525	-53.7
210.905	-33.56
211.285	-33.78
211.664	-29.79
212.044	-24.69
212.424	-14.28
212.803	-2.61
213.183	8.88
213.562	5.88
213.942	9.61
214.321	25.47
214.701	11.67
215.08	27.04
215.459	55.71
215.838	57.3
216.218	86.58
216.597	102.32
216.976	110.62
217.355	124.84
217.734	128.02
218.113	134.82
218.492	148.92
218.871	172.04
219.25	162.86
219.629	119.69
220.008	99.2
220.387	79.02
220.766	73.42
221.144	62.82
221.523	51.4
221.902	31.8
222.28	19.25
222.659	32.02
223.037	25.2
223.416	7.7
223.794	3.94
224.173	-4.29
224.551	-4.28
224.929	-16.88
225.308	-10.99
225.686	-7.46
226.064	-9.01
226.442	-9.45
226.821	-7.93
227.199	-7.5
227.577	-2.73
227.955	-2.02
228.333	2.09
228.711	1.5
229.089	8.98
229.467	6.63
229.845	7.13
230.222	8.57
230.6	6.59
230.978	6.48
231.356	8.1
231.733	9.33
232.111	9.48
232.488	8.23
232.866	9.03
233.243	9.29
233.621	8.48
233.998	11.35
234.376	11.19
234.753	11.05
235.13	11.34
235.508	10.47
235.885	11.08
236.262	8.83
236.639	8.48
237.016	6.48
237.393	8.12
237.77	8.37
238.147	8.44
238.524	8.5
238.901	9.06
239.278	8.19
239.655	8.04
240.032	7.55
240.409	7.05
240.785	7.5
241.162	7.27
241.539	7.28
241.915	6.85
242.292	5.95
242.668	6.13
243.045	6.31
243.421	6.33
243.798	6.12
244.174	6.32
244.551	6.24
244.927	6.3
245.303	6.41
245.679	6.34
246.056	5.97
246.432	5.91
246.808	5.76
247.184	5.68
247.56	5.58
247.936	5.84
248.312	5.94
248.688	5.89
249.064	5.74
249.44	5.64
249.815	5.47
250.191	5.84
250.567	5.82
250.943	5.71
251.318	5.67
251.694	5.6
252.069	5.35
252.445	5.18
252.82	4.97
253.196	4.73
253.571	4.68
253.947	5.18
254.322	5.3
254.697	5.23
255.073	5.26
255.448	5.15
255.823	5.13
256.198	5.16
256.573	5.21
256.948	5.51
257.323	5.53
257.698	5.44
258.073	5.28
258.448	5.07
258.823	5.08
259.198	4.81
259.573	4.81
259.948	4.78
260.322	4.89
260.697	4.9
261.072	4.95
261.446	4.96
261.821	4.82
262.195	4.79
262.57	4.72
262.944	4.78
263.319	4.73
263.693	4.57
264.067	4.45
264.442	4.29
264.816	4.21
265.19	4.15
265.564	4.26
265.938	4.21
266.313	4.22
266.687	4.27
267.061	4.39
267.435	4.45
267.809	4.48
268.183	4.34
268.556	4.26
268.93	4.3
269.304	4.2
269.678	4.18
270.051	4.16
270.425	4.17
270.799	4.1
271.172	4.14
271.546	4.16
271.919	4.28
272.293	4.26
272.666	4.22
273.04	4.15
273.413	4.04
273.787	4.16
274.16	4.21
274.533	4.11
274.906	3.97
275.279	3.89
275.653	3.83
276.026	3.8
276.399	3.93
276.772	3.98
277.145	4.01
277.518	4.07
277.891	3.98
278.263	3.93
278.636	3.87
279.009	4.02
279.382	4.15
279.755	4.03
280.127	4.16
280.5	4.08
280.872	4.25
281.245	4.24
281.617	4.23
281.99	4.3
282.362	4.45
282.735	4.46
283.107	4.34
283.479	4.38
283.852	4.4
284.224	4.47
284.596	4.33
284.968	4.44
285.34	4.41
285.713	4.36
286.085	4.5
286.457	4.56
286.829	4.5
287.201	4.53
287.572	4.51
287.944	4.46
288.316	4.62
288.688	4.53
289.06	4.55
289.431	4.49
289.803	4.69
290.175	4.74
290.546	4.94
290.918	5.11
291.289	5.22
291.661	5.41
292.032	5.56
292.403	5.63
292.775	5.64
293.146	5.55
293.517	5.77
293.889	5.81
294.26	5.88
294.631	5.96
295.002	6.01
295.373	6.14
295.744	6.15
296.115	6.13
296.486	6.24
296.857	6.44
297.228	6.63
297.599	6.49
297.97	6.39
298.34	6.39
298.711	6.54
299.082	6.59
299.452	6.53
299.823	6.6
300.194	6.71
300.564	6.74
300.935	6.93
301.305	6.92
301.676	7.09
302.046	7.24
302.416	7.42
302.787	7.45
303.157	7.62
303.527	7.74
303.897	7.77
304.267	7.82
304.637	7.89
305.008	7.9
305.378	8.08
305.748	8.26
306.117	8.3
306.487	8.41
306.857	8.58
307.227	8.71
307.597	8.62
307.967	8.67
308.336	8.83
308.706	9.06
309.076	9.15
309.445	9.04
309.815	8.97
310.184	8.94
310.554	8.99
310.923	9
311.293	9.24
311.662	9.38
312.031	9.47
312.401	9.39
312.77	9.55
313.139	9.73
313.508	9.82
313.877	9.98
314.246	10.06
314.616	10.16
314.985	10.37
315.353	10.53
315.722	10.85
316.091	10.87
316.46	10.91
316.829	11.08
317.198	11.38
317.567	11.62
317.935	11.76
318.304	11.96
318.672	12.01
319.041	12.08
319.41	12.13
319.778	12.29
320.147	12.57
320.515	12.53
320.883	12.47
321.252	12.65
321.62	12.84
321.988	12.76
322.357	12.69
322.725	12.66
323.093	12.69
323.461	12.65
323.829	12.8
324.197	12.83
324.565	13.02
324.933	13.09
325.301	13.14
325.669	13.15
326.037	13.31
326.405	13.29
326.772	13.27
327.14	13.5
327.508	13.47
327.875	13.48
328.243	13.54
328.61	13.68
328.978	13.76
329.346	13.79
329.713	13.82
330.08	13.99
330.448	13.88
330.815	13.76
331.182	13.72
331.55	13.71
331.917	13.74
332.284	13.76
332.651	13.69
333.018	13.8
333.385	14
333.752	14.06
334.119	14.21
334.486	14.18
334.853	14.06
335.22	14.11
335.587	14.2
335.954	14.41
336.32	14.27
336.687	14.21
337.054	14.12
337.42	14.24
337.787	14.41
338.153	14.57
338.52	14.79
338.886	14.83
339.253	14.88
339.619	15.03
339.986	14.94
340.352	14.99
340.718	15
341.084	14.93
341.451	14.9
341.817	14.91
342.183	15.02
342.549	15.13
342.915	15.18
343.281	15.22
343.647	15.16
344.013	15.33
344.379	15.37
344.745	15.5
345.11	15.62
345.476	15.43
345.842	15.54
346.208	15.47
346.573	15.43
346.939	15.52
347.304	15.42
347.67	15.4
348.035	15.39
348.401	15.32
348.766	15.36
349.132	15.3
349.497	15.31
349.862	15.32
350.228	15.25
350.593	15.27
350.958	15.2
351.323	15.22
351.688	15.19
352.053	15.19
352.418	15.2
352.783	15.11
353.148	15.14
353.513	15.04
353.878	15.09
354.243	15.13
354.608	14.97
354.972	14.9
355.337	14.97
355.702	15.03
356.066	15.02
356.431	14.96
356.795	14.99
357.16	14.88
357.524	14.78
357.889	14.66
358.253	14.52
358.618	14.46
358.982	14.29
359.346	14.2
359.71	14.08
360.075	14.02
360.439	13.95
360.803	13.91
361.167	13.86
361.531	13.81
361.895	13.75
362.259	13.74
362.623	13.7
362.987	13.63
363.351	13.53
363.714	13.51
364.078	13.38
364.442	13.25
364.806	13.18
365.169	13.18
365.533	13.15
365.896	13.13
366.26	13.06
366.623	13.04
366.987	12.94
367.35	12.86
367.714	12.72
368.077	12.61
368.44	12.51
368.803	12.4
369.167	12.24
369.53	12.09
369.893	12
370.256	11.9
370.619	11.81
370.982	11.65
371.345	11.51
371.708	11.46
372.071	11.39
372.434	11.25
372.797	11.07
373.159	10.95
373.522	10.8
373.885	10.72
374.247	10.65
374.61	10.54
374.973	10.47
375.335	10.39
375.698	10.28
376.06	10.17
376.423	10.04
376.785	9.96
377.147	9.97
377.51	9.87
377.872	9.79
378.234	9.71
378.596	9.65
378.958	9.53
379.321	9.41
379.683	9.27
380.045	9.2
380.407	9.11
380.769	9.02
381.13	8.97
381.492	8.83
381.854	8.79
382.216	8.74
382.578	8.68
382.939	8.56
383.301	8.53
383.663	8.46
384.024	8.42
384.386	8.4
384.747	8.27
385.109	8.2
385.47	8.16
385.832	8.04
386.193	7.97
386.554	7.93
386.916	7.87
387.277	7.84
387.638	7.86
387.999	7.76
388.36	7.72
388.721	7.68
389.082	7.65
389.443	7.55
389.804	7.43
390.165	7.37
390.526	7.31
390.887	7.25
391.248	7.21
391.609	7.12
391.969	7.04
392.33	6.99
392.691	6.94
393.051	6.87
393.412	6.82
393.772	6.75
394.133	6.71
394.493	6.64
394.854	6.58
395.214	6.49
395.574	6.47
395.935	6.42
396.295	6.38
396.655	6.3
397.015	6.22
397.376	6.26
397.736	6.2
398.096	6.16
398.456	6.09
398.816	6.02
399.176	5.99
399.535	5.89
399.895	5.79
400.255	5.72
400.615	5.69
400.975	5.63
401.334	5.63
401.694	5.56
402.054	5.53
402.413	5.49
402.773	5.44
403.132	5.4
403.492	5.35
403.851	5.28
404.211	5.28
404.57	5.27
404.929	5.19
405.288	5.13
405.648	5.11
406.007	5.1
406.366	5.07
406.725	5.08
407.084	5.07
407.443	5.08
407.802	5.08
408.161	5.02
408.52	5.01
408.879	4.98
409.238	4.98
409.596	4.98
409.955	4.97
410.314	4.97
410.673	4.94
411.031	4.91
411.39	4.9
411.748	4.87
412.107	4.84
412.465	4.79
412.824	4.79
413.182	4.75
413.54	4.72
413.899	4.72
414.257	4.7
414.615	4.69
414.974	4.65
415.332	4.62
415.69	4.59
416.048	4.55
416.406	4.52
416.764	4.49
417.122	4.46
417.48	4.42
417.838	4.41
418.195	4.4
418.553	4.37
418.911	4.36
419.269	4.34
419.626	4.32
419.984	4.32
420.342	4.29
420.699	4.28
421.057	4.27
421.414	4.25
421.772	4.22
422.129	4.22
422.486	4.21
422.844	4.19
423.201	4.16
423.558	4.16
423.915	4.13
424.273	4.12
424.63	4.11
424.987	4.09
425.344	4.08
425.701	4.07
426.058	4.08
426.415	4.06
426.772	4.04
427.128	4.02
427.485	4
427.842	3.98
428.199	3.97
428.555	3.94
428.912	3.93
429.269	3.93
429.625	3.89
429.982	3.87
430.338	3.86
430.695	3.88
431.051	3.86
431.407	3.88
431.764	3.88
432.12	3.86
432.476	3.87
432.832	3.83
433.189	3.81
433.545	3.78
433.901	3.76
434.257	3.76
434.613	3.78
434.969	3.78
435.325	3.78
435.681	3.76
436.036	3.75
436.392	3.74
436.748	3.73
437.104	3.72
437.459	3.73
437.815	3.74
438.171	3.75
438.526	3.74
438.882	3.73
439.237	3.72
439.593	3.72
439.948	3.71
440.304	3.72
440.659	3.73
441.014	3.72
441.369	3.71
441.725	3.71
442.08	3.7
442.435	3.7
442.79	3.7
443.145	3.69
443.5	3.72
443.855	3.7
444.21	3.69
444.565	3.68
444.92	3.68
445.275	3.66
445.629	3.63
445.984	3.63
446.339	3.59
446.693	3.58
447.048	3.57
447.403	3.55
447.757	3.54
448.112	3.53
448.466	3.52
448.82	3.52
449.175	3.52
449.529	3.51
449.883	3.49
450.238	3.48
450.592	3.48
450.946	3.45
451.3	3.44
451.654	3.43
452.008	3.44
452.362	3.39
452.716	3.39
453.07	3.39
453.424	3.39
453.778	3.41
454.132	3.4
454.486	3.4
454.839	3.41
455.193	3.41
455.547	3.4
455.9	3.39
456.254	3.39
456.607	3.37
456.961	3.37
457.314	3.36
457.668	3.37
458.021	3.38
458.375	3.38
458.728	3.38
459.081	3.4
459.434	3.39
459.787	3.42
460.141	3.41
460.494	3.43
460.847	3.45
461.2	3.45
461.553	3.46
461.906	3.48
462.259	3.49
462.611	3.5
462.964	3.53
463.317	3.54
463.67	3.55
464.022	3.59
464.375	3.6
464.728	3.62
465.08	3.62
465.433	3.62
465.785	3.64
466.138	3.67
466.49	3.67
466.843	3.68
467.195	3.71
467.547	3.76
467.899	3.76
468.252	3.77
468.604	3.8
468.956	3.81
469.308	3.82
469.66	3.83
470.012	3.85
470.364	3.86
470.716	3.86
471.068	3.88
471.42	3.88
471.772	3.9
472.123	3.89
472.475	3.92
472.827	3.9
473.178	3.89
473.53	3.88
473.882	3.88
474.233	3.9
474.585	3.86
474.936	3.84
475.288	3.82
475.639	3.82
475.99	3.81
476.342	3.81
476.693	3.8
477.044	3.81
477.395	3.8
477.746	3.78
478.097	3.79
478.448	3.77
478.8	3.74
479.15	3.73
479.501	3.72
479.852	3.72
480.203	3.72
480.554	3.72
480.905	3.72
481.255	3.72
481.606	3.7
481.957	3.71
482.307	3.72
482.658	3.72
483.009	3.71
483.359	3.71
483.709	3.71
484.06	3.7
484.41	3.7
484.761	3.7
485.111	3.69
485.461	3.7
485.811	3.7
486.162	3.71
486.512	3.72
486.862	3.73
487.212	3.73
487.562	3.73
487.912	3.73
488.262	3.73
488.612	3.75
488.961	3.76
489.311	3.76
489.661	3.75
490.011	3.75
490.36	3.75
490.71	3.75
491.06	3.77
491.409	3.78
491.759	3.79
492.108	3.8
492.458	3.82
492.807	3.82
493.157	3.84
493.506	3.87
493.855	3.89
494.204	3.9
494.554	3.91
494.903	3.93
495.252	3.95
495.601	3.99
495.95	4.02
496.299	4.05
496.648	4.08
496.997	4.12
497.346	4.17
497.695	4.22
498.043	4.28
498.392	4.32
498.741	4.38
499.09	4.42
499.438	4.48
499.787	4.53
500.135	4.6
500.484	4.68
500.832	4.73
501.181	4.78
501.529	4.83
501.878	4.9
502.226	5.01
502.574	5.09
502.923	5.14
503.271	5.2
503.619	5.28
503.967	5.37
504.315	5.44
504.663	5.52
505.011	5.6
505.359	5.67
505.707	5.77
506.055	5.85
506.403	5.94
506.751	6.04
507.098	6.12
507.446	6.21
507.794	6.26
508.141	6.35
508.489	6.46
508.837	6.57
509.184	6.7
509.531	6.79
509.879	6.91
510.226	7.03
510.574	7.15
510.921	7.26
511.268	7.39
511.616	7.51
511.963	7.63
512.31	7.77
512.657	7.9
513.004	8.03
513.351	8.19
513.698	8.32
514.045	8.46
514.392	8.61
514.739	8.77
515.086	8.95
515.432	9.1
515.779	9.22
516.126	9.39
516.473	9.52
516.819	9.65
517.166	9.77
517.512	9.89
517.859	10.03
518.205	10.17
518.552	10.31
518.898	10.43
519.245	10.57
519.591	10.68
519.937	10.82
520.283	10.94
520.629	11.09
520.976	11.26
521.322	11.41
521.668	11.58
522.014	11.74
522.36	11.93
522.706	12.11
523.052	12.32
523.398	12.53
523.743	12.73
524.089	12.97
524.435	13.18
524.781	13.37
525.126	13.56
525.472	13.73
525.817	13.87
526.163	14.01
526.509	14.15
526.854	14.26
527.199	14.39
527.545	14.5
527.89	14.61
528.235	14.71
528.581	14.84
528.926	14.98
529.271	15.1
529.616	15.21
529.961	15.34
530.306	15.46
530.651	15.57
530.996	15.73
531.341	15.86
531.686	16.01
532.031	16.18
532.376	16.32
532.721	16.49
533.065	16.66
533.41	16.85
533.755	17.01
534.099	17.22
534.444	17.38
534.788	17.57
535.133	17.74
535.477	17.95
535.822	18.13
536.166	18.32
536.51	18.55
536.855	18.81
537.199	19.06
537.543	19.31
537.887	19.56
538.231	19.81
538.576	20.07
538.92	20.33
539.264	20.55
539.608	20.79
539.951	21.02
540.295	21.22
540.639	21.42
540.983	21.62
541.327	21.81
541.671	22.03
542.014	22.24
542.358	22.45
542.701	22.65
543.045	22.87
543.389	23.09
543.732	23.31
544.075	23.5
544.419	23.7
544.762	23.93
545.105	24.2
545.449	24.44
545.792	24.67
546.135	24.93
546.478	25.21
546.821	25.48
547.165	25.74
547.508	26.07
547.851	26.4
548.194	26.71
548.536	27.04
548.879	27.38
549.222	27.7
549.565	28.03
549.908	28.36
550.25	28.7
550.593	28.99
550.936	29.33
551.278	29.67
551.621	30.08
551.963	30.44
552.306	30.76
552.648	31.09
552.991	31.47
553.333	31.81
553.675	32.13
554.017	32.44
554.36	32.75
554.702	33.03
555.044	33.33
555.386	33.7
555.728	34.05
556.07	34.35
556.412	34.69
556.754	34.95
557.096	35.29
557.438	35.62
557.78	35.96
558.121	36.28
558.463	36.59
558.805	36.88
559.147	37.16
559.488	37.44
559.83	37.75
560.171	38.08
560.513	38.43
560.854	38.8
561.196	39.17
561.537	39.49
561.878	39.82
562.22	40.14
562.561	40.44
562.902	40.8
563.243	41.15
563.584	41.47
563.925	41.8
564.266	42.06
564.607	42.37
564.948	42.65
565.289	42.91
565.63	43.25
565.971	43.49
566.312	43.73
566.653	44.03
566.993	44.29
567.334	44.51
567.675	44.7
568.015	44.86
568.356	45.14
568.696	45.44
569.037	45.71
569.377	45.92
569.718	46.19
570.058	46.34
570.398	46.44
570.739	46.63
571.079	46.9
571.419	47.15
571.759	47.37
572.099	47.61
572.439	47.89
572.779	48.08
573.119	48.34
573.459	48.59
573.799	48.76
574.139	48.95
574.479	49.13
574.819	49.33
575.158	49.59
575.498	49.72
575.838	49.9
576.177	50.14
576.517	50.33
576.856	50.51
577.196	50.78
577.535	51.07
577.875	51.34
578.214	51.52
578.553	51.68
578.893	51.77
579.232	51.95
579.571	52.12
579.91	52.31
580.25	52.47
580.589	52.69
580.928	52.89
581.267	53.1
581.606	53.36
581.945	53.55
582.283	53.66
582.622	53.9
582.961	54.05
583.3	54.21
583.639	54.48
583.977	54.62
584.316	54.83
584.654	54.94
584.993	55.07
585.332	55.26
585.67	55.44
586.008	55.74
586.347	55.91
586.685	55.99
587.024	56.13
587.362	56.19
587.7	56.31
588.038	56.46
588.376	56.59
588.715	56.72
589.053	56.91
589.391	57.09
589.729	57.22
590.067	57.39
590.404	57.49
590.742	57.56
591.08	57.69
591.418	57.79
591.756	57.92
592.093	57.97
592.431	58.06
592.769	58.15
593.106	58.23
593.444	58.37
593.781	58.45
594.119	58.54
594.456	58.66
594.793	58.72
595.131	58.82
595.468	58.9
595.805	58.89
596.143	58.97
596.48	59.04
596.817	59.13
597.154	59.12
597.491	59.17
597.828	59.25
598.165	59.3
598.502	59.34
598.839	59.46
599.176	59.55
599.512	59.58
599.849	59.69
600.186	59.77
600.523	59.77
600.859	59.92
601.196	60.06
601.532	60.16
601.869	60.22
602.205	60.22
602.542	60.28
602.878	60.41
603.215	60.48
603.551	60.52
603.887	60.51
604.223	60.62
604.56	60.63
604.896	60.7
605.232	60.72
605.568	60.74
605.904	60.77
606.24	60.87
606.576	60.94
606.912	60.96
607.248	60.97
607.583	61.07
607.919	61.14
608.255	61.14
608.591	61.17
608.926	61.24
609.262	61.29
609.597	61.37
609.933	61.41
610.268	61.36
610.604	61.48
610.939	61.56
611.275	61.57
611.61	61.69
611.945	61.72
612.281	61.77
612.616	61.83
612.951	61.91
613.286	62.02
613.621	62.02
613.956	62.14
614.291	62.2
614.626	62.3
614.961	62.23
615.296	62.25
615.631	62.26
615.966	62.31
616.3	62.39
616.635	62.42
616.97	62.44
617.304	62.56
617.639	62.48
617.973	62.53
618.308	62.58
618.642	62.56
618.977	62.61
619.311	62.65
619.646	62.77
619.98	62.74
620.314	62.7
620.648	62.81
620.983	62.74
621.317	62.82
621.651	62.82
621.985	62.92
622.319	62.96
622.653	63.02
622.987	63.08
623.321	63.12
623.655	63.16
623.988	63.2
624.322	63.32
624.656	63.36
624.99	63.32
625.323	63.4
625.657	63.38
625.99	63.37
626.324	63.41
626.657	63.37
626.991	63.45
627.324	63.47
627.658	63.5
627.991	63.56
628.324	63.56
628.657	63.49
628.991	63.51
629.324	63.54
629.657	63.59
629.99	63.6
630.323	63.65
630.656	63.65
630.989	63.66
631.322	63.65
631.655	63.68
631.987	63.79
632.32	63.76
632.653	63.94
632.986	63.97
633.318	64.04
633.651	64.05
633.984	63.93
634.316	63.91
634.649	63.94
634.981	64.01
635.313	64.11
635.646	64.18
635.978	64.21
636.31	64.22
636.643	64.26
636.975	64.37
637.307	64.4
637.639	64.41
637.971	64.38
638.303	64.34
638.635	64.37
638.967	64.39
639.299	64.43
639.631	64.35
639.963	64.31
640.295	64.31
640.626	64.3
640.958	64.39
641.29	64.49
641.621	64.53
641.953	64.6
642.285	64.63
642.616	64.66
642.948	64.81
643.279	64.95
643.61	64.93
643.942	64.75
644.273	64.69
644.604	64.72
644.936	64.77
645.267	64.73
645.598	64.93
645.929	64.78
646.26	64.81
646.591	64.82
646.922	64.87
647.253	64.9
647.584	64.99
647.915	64.99
648.245	64.98
648.576	65
648.907	64.77
649.238	64.7
649.568	64.78
649.899	64.64
650.229	64.56
650.56	64.51
650.89	64.62
651.221	64.69
651.551	64.85
651.882	64.84
652.212	64.88
652.542	64.67
652.872	64.8
653.203	64.72
653.533	64.72
653.863	64.75
654.193	64.58
654.523	64.58
654.853	64.72
655.183	64.74
655.513	64.62
655.843	64.76
656.172	64.8
656.502	64.76
656.832	64.76
657.162	64.89
657.491	64.97
657.821	65.08
658.15	65.08
658.48	64.92
658.809	64.93
659.139	64.86
659.468	64.89
659.798	64.94
660.127	64.96
660.456	65.01
660.785	65.03
661.115	65.11
661.444	64.96
661.773	64.92
662.102	64.93
662.431	64.95
662.76	64.99
663.089	64.89
663.418	64.93
663.747	64.91
664.076	64.71
664.404	64.76
