Data from BU57614_Reflection_00011.txt Node
Date: Mon Nov 18 16:24:36 EST 2019
User: vgr7
Spectrometer: USB2G7710
Scans to average: 3
Trigger mode: 4
Integration Time (sec): 2.000000E-2
Electric dark correction enabled: true
Boxcar width: 10
XAxis mode: Wavelengths
Number of Pixels in Spectrum: 2048
>>>>>Begin Spectral Data<<<<<
177.721	-141.53
178.105	29.71
178.488	-40.44
178.871	34.67
179.254	200.35
179.636	-361.17
180.019	69.28
180.402	84.91
180.785	109.56
181.168	-218.18
181.55	-110.16
181.933	57.18
182.316	67.64
182.698	90.05
183.081	67.64
183.463	37.37
183.846	99.19
184.228	98.84
184.611	23.08
184.993	-77.2
185.376	5805.88
185.758	3651.72
186.14	-1120.18
186.522	2659.32
186.904	670.82
187.287	359.79
187.669	186.01
188.051	287.02
188.433	141.95
188.815	119.02
189.197	136.55
189.579	105.09
189.961	86.11
190.342	109.3
190.724	108.34
191.106	83.12
191.488	91.74
191.869	90.71
192.251	64.32
192.633	89.49
193.014	66.51
193.396	55.38
193.777	42.82
194.159	21.98
194.54	41.14
194.922	29.21
195.303	18.91
195.684	4.28
196.065	11.48
196.447	-4.64
196.828	-4.92
197.209	-8.73
197.59	-9.45
197.971	-19.04
198.352	-20.11
198.733	-22.59
199.114	-17.3
199.495	-18.53
199.876	-17.56
200.257	-8.7
200.638	-17.83
201.018	-20.45
201.399	-23.65
201.78	-15.19
202.16	-25.36
202.541	-34.63
202.922	-48.79
203.302	-57.73
203.683	-68.04
204.063	-102.04
204.444	-63.27
204.824	-66.72
205.204	-60.81
205.585	-69.08
205.965	-53.86
206.345	-67.32
206.725	-68.35
207.106	-57.59
207.486	-52.73
207.866	-51.09
208.246	-64.04
208.626	-81.34
209.006	-60.67
209.386	-76.8
209.766	-95.54
210.145	-52.16
210.525	-57
210.905	-57.65
211.285	-40.64
211.664	-29.33
212.044	-30.72
212.424	-38.24
212.803	-38.71
213.183	-32.25
213.562	-29.5
213.942	-16.6
214.321	-10.07
214.701	-15.75
215.08	-19.51
215.459	-24.44
215.838	-24.98
216.218	-15.02
216.597	0.68
216.976	-0.8
217.355	4.64
217.734	4.15
218.113	3.77
218.492	3.5
218.871	-0.97
219.25	-6.65
219.629	-9.93
220.008	-4.22
220.387	0.27
220.766	4.8
221.144	5.24
221.523	6.06
221.902	-2.82
222.28	-14.61
222.659	-1.34
223.037	2.33
223.416	3.59
223.794	2.94
224.173	-1.99
224.551	-2.99
224.929	-5.77
225.308	-0.15
225.686	4.98
226.064	3.52
226.442	4.66
226.821	7.59
227.199	7.82
227.577	7.48
227.955	5.25
228.333	-0.49
228.711	0.51
229.089	3.84
229.467	3.12
229.845	3.17
230.222	4.94
230.6	4.4
230.978	7.41
231.356	8.67
231.733	10.27
232.111	10.93
232.488	10.88
232.866	10.93
233.243	11.18
233.621	8.95
233.998	8.78
234.376	8.95
234.753	7.83
235.13	8.94
235.508	10.84
235.885	9.57
236.262	10.87
236.639	11.3
237.016	8.73
237.393	9.12
237.77	8.52
238.147	7.84
238.524	7.23
238.901	6.57
239.278	6.47
239.655	6.12
240.032	6.25
240.409	6.26
240.785	6.68
241.162	6.06
241.539	6.82
241.915	6.62
242.292	6.51
242.668	6.85
243.045	6.52
243.421	6.28
243.798	6.15
244.174	6.14
244.551	5.98
244.927	5.79
245.303	5.94
245.679	5.97
246.056	5.9
246.432	5.86
246.808	5.86
247.184	5.62
247.56	5.57
247.936	5.6
248.312	5.21
248.688	5.01
249.064	5.12
249.44	4.91
249.815	5.03
250.191	4.92
250.567	5
250.943	4.78
251.318	4.61
251.694	4.66
252.069	4.53
252.445	4.3
252.82	4.38
253.196	4.38
253.571	4.17
253.947	4.43
254.322	4.69
254.697	4.63
255.073	4.75
255.448	4.54
255.823	4.34
256.198	4.6
256.573	4.39
256.948	4.26
257.323	4.43
257.698	4.29
258.073	4.4
258.448	4.21
258.823	4.36
259.198	4.33
259.573	4.3
259.948	4.33
260.322	4.37
260.697	4.38
261.072	4.12
261.446	4.3
261.821	4.21
262.195	4.22
262.57	4.03
262.944	3.95
263.319	4.01
263.693	3.8
264.067	3.7
264.442	3.8
264.816	3.73
265.19	3.66
265.564	3.6
265.938	3.55
266.313	3.59
266.687	3.74
267.061	3.87
267.435	4.11
267.809	3.98
268.183	4.04
268.556	4.04
268.93	4.15
269.304	4.06
269.678	3.99
270.051	3.9
270.425	4.02
270.799	4.06
271.172	3.92
271.546	4.15
271.919	4.07
272.293	4.04
272.666	4.13
273.04	4.16
273.413	4.15
273.787	4.14
274.16	4.01
274.533	3.77
274.906	3.74
275.279	3.7
275.653	3.68
276.026	3.73
276.399	3.72
276.772	3.71
277.145	3.56
277.518	3.52
277.891	3.65
278.263	3.65
278.636	3.67
279.009	3.86
279.382	3.77
279.755	3.88
280.127	4.1
280.5	4.14
280.872	4.1
281.245	4.08
281.617	4.13
281.99	4.46
282.362	4.55
282.735	4.37
283.107	4.34
283.479	4.42
283.852	4.31
284.224	4.33
284.596	4.32
284.968	4.37
285.34	4.41
285.713	4.31
286.085	4.39
286.457	4.38
286.829	4.42
287.201	4.37
287.572	4.28
287.944	4.17
288.316	4.15
288.688	4.19
289.06	4.32
289.431	4.38
289.803	4.23
290.175	4.28
290.546	4.46
290.918	4.41
291.289	4.5
291.661	4.74
292.032	4.88
292.403	4.98
292.775	5.25
293.146	5.33
293.517	5.31
293.889	5.27
294.26	5.5
294.631	5.45
295.002	5.59
295.373	5.69
295.744	5.82
296.115	5.8
296.486	5.69
296.857	5.68
297.228	5.7
297.599	5.7
297.97	5.68
298.34	5.61
298.711	5.69
299.082	5.6
299.452	5.54
299.823	5.65
300.194	5.67
300.564	5.67
300.935	5.75
301.305	5.82
301.676	5.93
302.046	5.87
302.416	6.03
302.787	5.98
303.157	6.12
303.527	6.11
303.897	6.16
304.267	6.47
304.637	6.52
305.008	6.83
305.378	7.04
305.748	7.23
306.117	7.41
306.487	7.48
306.857	7.68
307.227	7.68
307.597	7.66
307.967	7.77
308.336	7.78
308.706	7.86
309.076	7.97
309.445	7.85
309.815	7.83
310.184	7.77
310.554	7.8
310.923	7.81
311.293	7.93
311.662	7.92
312.031	7.92
312.401	8.03
312.77	7.92
313.139	7.99
313.508	8
313.877	7.99
314.246	8.07
314.616	8.03
314.985	8.12
315.353	8.15
315.722	8.12
316.091	8.14
316.46	8.19
316.829	8.24
317.198	8.51
317.567	8.59
317.935	8.63
318.304	8.8
318.672	8.87
319.041	8.99
319.41	9.24
319.778	9.28
320.147	9.35
320.515	9.34
320.883	9.32
321.252	9.52
321.62	9.65
321.988	9.76
322.357	9.82
322.725	9.93
323.093	10.06
323.461	10.18
323.829	10.34
324.197	10.37
324.565	10.54
324.933	10.48
325.301	10.65
325.669	10.8
326.037	10.92
326.405	11.01
326.772	11.06
327.14	11.29
327.508	11.27
327.875	11.25
328.243	11.32
328.61	11.33
328.978	11.29
329.346	11.43
329.713	11.23
330.08	11.29
330.448	11.39
330.815	11.34
331.182	11.37
331.55	11.38
331.917	11.38
332.284	11.47
332.651	11.61
333.018	11.64
333.385	11.55
333.752	11.54
334.119	11.63
334.486	11.57
334.853	11.4
335.22	11.44
335.587	11.52
335.954	11.47
336.32	11.55
336.687	11.71
337.054	11.72
337.42	12.02
337.787	12.27
338.153	12.16
338.52	12.23
338.886	12.28
339.253	12.17
339.619	12.2
339.986	12.11
340.352	12.31
340.718	12.4
341.084	12.51
341.451	12.61
341.817	12.61
342.183	12.64
342.549	12.7
342.915	12.75
343.281	12.85
343.647	12.93
344.013	12.84
344.379	12.77
344.745	12.82
345.11	12.79
345.476	12.77
345.842	12.89
346.208	12.94
346.573	13
346.939	13.24
347.304	13.36
347.67	13.35
348.035	13.2
348.401	13.16
348.766	13.15
349.132	13.19
349.497	13.23
349.862	13.3
350.228	13.22
350.593	13.19
350.958	13.13
351.323	13.26
351.688	13.4
352.053	13.4
352.418	13.43
352.783	13.43
353.148	13.35
353.513	13.35
353.878	13.32
354.243	13.35
354.608	13.24
354.972	13.18
355.337	13.21
355.702	13.25
356.066	13.3
356.431	13.24
356.795	13.26
357.16	13.17
357.524	13.04
357.889	13.06
358.253	13.1
358.618	13.09
358.982	12.97
359.346	12.94
359.71	12.89
360.075	12.84
360.439	12.81
360.803	12.76
361.167	12.7
361.531	12.66
361.895	12.58
362.259	12.47
362.623	12.52
362.987	12.52
363.351	12.43
363.714	12.34
364.078	12.32
364.442	12.23
364.806	12.24
365.169	12.28
365.533	12.21
365.896	12.12
366.26	12.02
366.623	11.98
366.987	11.91
367.35	11.87
367.714	11.77
368.077	11.69
368.44	11.66
368.803	11.62
369.167	11.57
369.53	11.5
369.893	11.56
370.256	11.42
370.619	11.34
370.982	11.31
371.345	11.24
371.708	11.13
372.071	11.05
372.434	10.96
372.797	10.86
373.159	10.85
373.522	10.86
373.885	10.85
374.247	10.83
374.61	10.76
374.973	10.64
375.335	10.59
375.698	10.49
376.06	10.4
376.423	10.29
376.785	10.29
377.147	10.2
377.51	10.06
377.872	9.96
378.234	9.89
378.596	9.78
378.958	9.69
379.321	9.66
379.683	9.63
380.045	9.53
380.407	9.43
380.769	9.38
381.13	9.26
381.492	9.12
381.854	9.02
382.216	8.89
382.578	8.89
382.939	8.82
383.301	8.75
383.663	8.66
384.024	8.59
384.386	8.47
384.747	8.43
385.109	8.38
385.47	8.32
385.832	8.27
386.193	8.24
386.554	8.21
386.916	8.18
387.277	8.06
387.638	8.03
387.999	8.01
388.36	7.96
388.721	7.94
389.082	7.89
389.443	7.81
389.804	7.77
390.165	7.68
390.526	7.62
390.887	7.58
391.248	7.55
391.609	7.51
391.969	7.48
392.33	7.41
392.691	7.38
393.051	7.31
393.412	7.21
393.772	7.12
394.133	7.08
394.493	7.03
394.854	7.01
395.214	6.93
395.574	6.84
395.935	6.77
396.295	6.66
396.655	6.63
397.015	6.52
397.376	6.48
397.736	6.43
398.096	6.37
398.456	6.33
398.816	6.27
399.176	6.19
399.535	6.09
399.895	6.06
400.255	6
400.615	5.94
400.975	5.95
401.334	5.92
401.694	5.83
402.054	5.76
402.413	5.69
402.773	5.67
403.132	5.65
403.492	5.59
403.851	5.56
404.211	5.53
404.57	5.54
404.929	5.53
405.288	5.49
405.648	5.46
406.007	5.44
406.366	5.41
406.725	5.41
407.084	5.39
407.443	5.37
407.802	5.34
408.161	5.33
408.52	5.24
408.879	5.22
409.238	5.21
409.596	5.2
409.955	5.2
410.314	5.17
410.673	5.13
411.031	5.12
411.39	5.06
411.748	5.05
412.107	5.06
412.465	5
412.824	4.98
413.182	4.94
413.54	4.9
413.899	4.88
414.257	4.84
414.615	4.81
414.974	4.77
415.332	4.76
415.69	4.71
416.048	4.7
416.406	4.68
416.764	4.65
417.122	4.64
417.48	4.6
417.838	4.59
418.195	4.56
418.553	4.53
418.911	4.52
419.269	4.48
419.626	4.45
419.984	4.43
420.342	4.4
420.699	4.37
421.057	4.37
421.414	4.35
421.772	4.33
422.129	4.31
422.486	4.3
422.844	4.28
423.201	4.27
423.558	4.25
423.915	4.24
424.273	4.22
424.63	4.19
424.987	4.18
425.344	4.17
425.701	4.16
426.058	4.15
426.415	4.14
426.772	4.14
427.128	4.12
427.485	4.11
427.842	4.11
428.199	4.11
428.555	4.08
428.912	4.05
429.269	4.04
429.625	4.04
429.982	4
430.338	4
430.695	3.99
431.051	3.98
431.407	3.96
431.764	3.94
432.12	3.92
432.476	3.91
432.832	3.89
433.189	3.88
433.545	3.88
433.901	3.88
434.257	3.88
434.613	3.87
434.969	3.87
435.325	3.86
435.681	3.87
436.036	3.86
436.392	3.85
436.748	3.85
437.104	3.83
437.459	3.83
437.815	3.82
438.171	3.83
438.526	3.83
438.882	3.84
439.237	3.85
439.593	3.86
439.948	3.86
440.304	3.86
440.659	3.87
441.014	3.85
441.369	3.84
441.725	3.83
442.08	3.82
442.435	3.82
442.79	3.83
443.145	3.82
443.5	3.81
443.855	3.81
444.21	3.8
444.565	3.81
444.92	3.81
445.275	3.8
445.629	3.8
445.984	3.81
446.339	3.8
446.693	3.76
447.048	3.76
447.403	3.75
447.757	3.74
448.112	3.74
448.466	3.74
448.82	3.73
449.175	3.73
449.529	3.71
449.883	3.7
450.238	3.69
450.592	3.68
450.946	3.66
451.3	3.65
451.654	3.65
452.008	3.64
452.362	3.62
452.716	3.62
453.07	3.6
453.424	3.57
453.778	3.56
454.132	3.58
454.486	3.57
454.839	3.54
455.193	3.53
455.547	3.49
455.9	3.49
456.254	3.49
456.607	3.47
456.961	3.48
457.314	3.48
457.668	3.49
458.021	3.47
458.375	3.46
458.728	3.47
459.081	3.49
459.434	3.48
459.787	3.49
460.141	3.5
460.494	3.5
460.847	3.5
461.2	3.5
461.553	3.5
461.906	3.5
462.259	3.51
462.611	3.53
462.964	3.56
463.317	3.58
463.67	3.59
464.022	3.61
464.375	3.6
464.728	3.6
465.08	3.6
465.433	3.64
465.785	3.66
466.138	3.65
466.49	3.65
466.843	3.66
467.195	3.68
467.547	3.7
467.899	3.71
468.252	3.71
468.604	3.74
468.956	3.72
469.308	3.73
469.66	3.75
470.012	3.76
470.364	3.77
470.716	3.77
471.068	3.76
471.42	3.77
471.772	3.81
472.123	3.81
472.475	3.82
472.827	3.82
473.178	3.85
473.53	3.86
473.882	3.88
474.233	3.87
474.585	3.88
474.936	3.86
475.288	3.87
475.639	3.89
475.99	3.89
476.342	3.89
476.693	3.93
477.044	3.93
477.395	3.92
477.746	3.91
478.097	3.91
478.448	3.91
478.8	3.9
479.15	3.87
479.501	3.88
479.852	3.87
480.203	3.87
480.554	3.89
480.905	3.88
481.255	3.87
481.606	3.89
481.957	3.87
482.307	3.86
482.658	3.85
483.009	3.85
483.359	3.84
483.709	3.85
484.06	3.84
484.41	3.83
484.761	3.83
485.111	3.83
485.461	3.83
485.811	3.83
486.162	3.83
486.512	3.84
486.862	3.84
487.212	3.84
487.562	3.84
487.912	3.81
488.262	3.81
488.612	3.82
488.961	3.8
489.311	3.81
489.661	3.82
490.011	3.82
490.36	3.81
490.71	3.81
491.06	3.81
491.409	3.81
491.759	3.82
492.108	3.83
492.458	3.84
492.807	3.83
493.157	3.84
493.506	3.87
493.855	3.87
494.204	3.88
494.554	3.89
494.903	3.9
495.252	3.94
495.601	3.97
495.95	3.98
496.299	4.01
496.648	4.03
496.997	4.06
497.346	4.1
497.695	4.14
498.043	4.16
498.392	4.19
498.741	4.24
499.09	4.28
499.438	4.31
499.787	4.35
500.135	4.4
500.484	4.45
500.832	4.49
501.181	4.53
501.529	4.57
501.878	4.62
502.226	4.68
502.574	4.74
502.923	4.78
503.271	4.82
503.619	4.88
503.967	4.94
504.315	5.01
504.663	5.08
505.011	5.14
505.359	5.22
505.707	5.31
506.055	5.36
506.403	5.45
506.751	5.54
507.098	5.63
507.446	5.71
507.794	5.78
508.141	5.83
508.489	5.91
508.837	6.02
509.184	6.11
509.531	6.19
509.879	6.28
510.226	6.41
510.574	6.51
510.921	6.61
511.268	6.68
511.616	6.78
511.963	6.87
512.31	6.99
512.657	7.1
513.004	7.2
513.351	7.33
513.698	7.44
514.045	7.56
514.392	7.68
514.739	7.81
515.086	7.94
515.432	8.07
515.779	8.17
516.126	8.3
516.473	8.4
516.819	8.5
517.166	8.63
517.512	8.72
517.859	8.83
518.205	8.93
518.552	9.08
518.898	9.18
519.245	9.28
519.591	9.37
519.937	9.48
520.283	9.59
520.629	9.7
520.976	9.83
521.322	9.98
521.668	10.13
522.014	10.31
522.36	10.48
522.706	10.67
523.052	10.88
523.398	11.08
523.743	11.31
524.089	11.53
524.435	11.73
524.781	11.92
525.126	12.1
525.472	12.26
525.817	12.41
526.163	12.56
526.509	12.7
526.854	12.85
527.199	12.97
527.545	13.1
527.89	13.23
528.235	13.37
528.581	13.51
528.926	13.64
529.271	13.78
529.616	13.89
529.961	14.03
530.306	14.17
530.651	14.31
530.996	14.47
531.341	14.65
531.686	14.82
532.031	15.01
532.376	15.2
532.721	15.41
533.065	15.6
533.41	15.82
533.755	16.06
534.099	16.3
534.444	16.54
534.788	16.78
535.133	17.02
535.477	17.24
535.822	17.51
536.166	17.78
536.51	18.06
536.855	18.41
537.199	18.75
537.543	19.08
537.887	19.44
538.231	19.79
538.576	20.12
538.92	20.45
539.264	20.75
539.608	21.07
539.951	21.35
540.295	21.65
540.639	21.91
540.983	22.15
541.327	22.39
541.671	22.63
542.014	22.87
542.358	23.13
542.701	23.39
543.045	23.61
543.389	23.87
543.732	24.14
544.075	24.4
544.419	24.65
544.762	24.93
545.105	25.2
545.449	25.48
545.792	25.78
546.135	26.11
546.478	26.46
546.821	26.81
547.165	27.18
547.508	27.58
547.851	27.98
548.194	28.36
548.536	28.73
548.879	29.13
549.222	29.5
549.565	29.89
549.908	30.25
550.25	30.66
550.593	31.05
550.936	31.42
551.278	31.79
551.621	32.16
551.963	32.56
552.306	32.95
552.648	33.31
552.991	33.68
553.333	34.06
553.675	34.39
554.017	34.76
554.36	35.08
554.702	35.35
555.044	35.67
555.386	36.04
555.728	36.37
556.07	36.77
556.412	37.15
556.754	37.45
557.096	37.8
557.438	38.07
557.78	38.46
558.121	38.83
558.463	39.19
558.805	39.54
559.147	39.84
559.488	40.16
559.83	40.52
560.171	40.86
560.513	41.21
560.854	41.5
561.196	41.75
561.537	42.08
561.878	42.34
562.22	42.67
562.561	42.94
562.902	43.22
563.243	43.54
563.584	43.83
563.925	44.16
564.266	44.42
564.607	44.7
564.948	44.89
565.289	45.15
565.63	45.36
565.971	45.62
566.312	45.87
566.653	46.09
566.993	46.25
567.334	46.48
567.675	46.66
568.015	46.88
568.356	47.08
568.696	47.28
569.037	47.54
569.377	47.75
569.718	47.94
570.058	48.11
570.398	48.23
570.739	48.44
571.079	48.61
571.419	48.81
571.759	49.06
572.099	49.22
572.439	49.38
572.779	49.47
573.119	49.66
573.459	49.85
573.799	50
574.139	50.19
574.479	50.35
574.819	50.49
575.158	50.68
575.498	50.86
575.838	51.07
576.177	51.28
576.517	51.39
576.856	51.6
577.196	51.79
577.535	51.96
577.875	52.04
578.214	52.22
578.553	52.35
578.893	52.48
579.232	52.62
579.571	52.77
579.91	53.01
580.25	53.1
580.589	53.24
580.928	53.39
581.267	53.49
581.606	53.55
581.945	53.72
582.283	53.83
582.622	53.9
582.961	53.97
583.3	54
583.639	54.14
583.977	54.26
584.316	54.37
584.654	54.51
584.993	54.68
585.332	54.78
585.67	54.93
586.008	55.07
586.347	55.15
586.685	55.19
587.024	55.26
587.362	55.33
587.7	55.44
588.038	55.62
588.376	55.76
588.715	55.92
589.053	55.99
589.391	56.13
589.729	56.21
590.067	56.31
590.404	56.4
590.742	56.47
591.08	56.57
591.418	56.68
591.756	56.79
592.093	56.86
592.431	56.94
592.769	56.99
593.106	57.01
593.444	57.11
593.781	57.24
594.119	57.32
594.456	57.46
594.793	57.51
595.131	57.44
595.468	57.42
595.805	57.43
596.143	57.51
596.48	57.52
596.817	57.66
597.154	57.7
597.491	57.76
597.828	57.8
598.165	57.81
598.502	57.81
598.839	57.84
599.176	57.83
599.512	57.92
599.849	58.04
600.186	58.22
600.523	58.34
600.859	58.36
601.196	58.45
601.532	58.45
601.869	58.47
602.205	58.59
602.542	58.68
602.878	58.8
603.215	58.92
603.551	58.99
603.887	59.08
604.223	59.09
604.56	59.16
604.896	59.23
605.232	59.27
605.568	59.39
605.904	59.46
606.24	59.6
606.576	59.6
606.912	59.58
607.248	59.56
607.583	59.55
607.919	59.58
608.255	59.55
608.591	59.63
608.926	59.73
609.262	59.79
609.597	59.85
609.933	59.86
610.268	59.8
610.604	59.81
610.939	59.76
611.275	59.81
611.61	59.82
611.945	59.81
612.281	59.89
612.616	59.86
612.951	59.88
613.286	59.84
613.621	59.91
613.956	59.92
614.291	59.99
614.626	60.08
614.961	60.12
615.296	60.23
615.631	60.28
615.966	60.31
616.3	60.36
616.635	60.4
616.97	60.43
617.304	60.4
617.639	60.51
617.973	60.64
618.308	60.67
618.642	60.69
618.977	60.72
619.311	60.66
619.646	60.73
619.98	60.78
620.314	60.8
620.648	60.83
620.983	60.83
621.317	60.8
621.651	60.78
621.985	60.86
622.319	60.95
622.653	60.9
622.987	60.87
623.321	60.89
623.655	60.9
623.988	60.95
624.322	60.96
624.656	60.93
624.99	60.83
625.323	60.84
625.657	60.87
625.99	60.94
626.324	60.99
626.657	60.97
626.991	60.99
627.324	60.99
627.658	60.89
627.991	60.99
628.324	61.06
628.657	61.08
628.991	61.16
629.324	61.17
629.657	61.26
629.99	61.33
630.323	61.35
630.656	61.46
630.989	61.55
631.322	61.58
631.655	61.62
631.987	61.74
632.32	61.81
632.653	61.68
632.986	61.73
633.318	61.79
633.651	61.8
633.984	61.69
634.316	61.76
634.649	61.93
634.981	61.98
635.313	61.99
635.646	62.07
635.978	62.01
636.31	61.99
636.643	62.01
636.975	61.95
637.307	61.87
637.639	61.79
637.971	61.72
638.303	61.78
638.635	61.73
638.967	61.68
639.299	61.58
639.631	61.77
639.963	61.71
640.295	61.7
640.626	61.75
640.958	61.95
641.29	62.03
641.621	61.95
641.953	61.93
642.285	61.86
642.616	61.86
642.948	61.88
643.279	61.93
643.61	61.98
643.942	62.03
644.273	62.03
644.604	61.91
644.936	61.97
645.267	62.06
645.598	62.14
645.929	62.23
646.26	62.37
646.591	62.41
646.922	62.35
647.253	62.27
647.584	62.26
647.915	62.16
648.245	62.2
648.576	62.28
648.907	62.13
649.238	62.08
649.568	62.07
649.899	62.04
650.229	61.92
650.56	61.92
650.89	61.96
651.221	61.94
651.551	62.06
651.882	62.02
652.212	61.91
652.542	61.88
652.872	61.82
653.203	61.75
653.533	61.73
653.863	61.87
654.193	61.97
654.523	62.08
654.853	62.15
655.183	62.1
655.513	62.13
655.843	62.24
656.172	62.32
656.502	62.34
656.832	62.43
657.162	62.59
657.491	62.58
657.821	62.74
658.15	62.91
658.48	62.94
658.809	62.92
659.139	63.02
659.468	63.09
659.798	63.13
660.127	63.13
660.456	63.15
660.785	63.14
661.115	63.22
661.444	63.1
661.773	63
662.102	62.99
662.431	63.05
662.76	63.11
663.089	63.08
663.418	63.1
663.747	63.13
664.076	63.03
664.404	63.16
664.733	62.99
665.062	63.03
