Data from BU57614_Reflection_00008.txt Node
Date: Mon Nov 18 16:24:29 EST 2019
User: vgr7
Spectrometer: USB2G7710
Scans to average: 3
Trigger mode: 4
Integration Time (sec): 2.000000E-2
Electric dark correction enabled: true
Boxcar width: 10
XAxis mode: Wavelengths
Number of Pixels in Spectrum: 2048
>>>>>Begin Spectral Data<<<<<
177.721	-98.65
178.105	84.03
178.488	-3.33
178.871	-30.65
179.254	-10.73
179.636	400.97
180.019	-32.8
180.402	60.38
180.785	-87.38
181.168	281.82
181.55	26.1
181.933	67.16
182.316	41.64
182.698	51.81
183.081	76.66
183.463	115.14
183.846	122.64
184.228	195.46
184.611	109.05
184.993	180.12
185.376	-7900
185.758	-4796.55
186.14	1512.84
186.522	-1594.92
186.904	-586.7
187.287	-661.57
187.669	-174.71
188.051	-314.22
188.433	-112.43
188.815	-103.45
189.197	-118.33
189.579	-108.22
189.961	-104.68
190.342	-133.72
190.724	-95.4
191.106	-99.26
191.488	-109.04
191.869	-97.82
192.251	-79.39
192.633	-110.22
193.014	-127.71
193.396	-183.7
193.777	-151.1
194.159	-174.85
194.54	-146.74
194.922	-90.87
195.303	-75.09
195.684	-76.08
196.065	-52.72
196.447	-50.12
196.828	-50.53
197.209	-55.76
197.59	-43.58
197.971	-47.54
198.352	-34.81
198.733	-42.66
199.114	-43.59
199.495	-35.88
199.876	-29.88
200.257	-28.8
200.638	-11.52
201.018	-13.04
201.399	-16.37
201.78	-14.16
202.16	-18.05
202.541	-28.67
202.922	-47.12
203.302	-64.86
203.683	-61.77
204.063	-111.06
204.444	-122.99
204.824	-107.72
205.204	-81.48
205.585	-70.26
205.965	-73.6
206.345	-90.71
206.725	-89.36
207.106	-104.22
207.486	-124.84
207.866	-114.27
208.246	-116.14
208.626	-133.19
209.006	-102.01
209.386	-117.4
209.766	-132.8
210.145	-94.87
210.525	-87.74
210.905	-89.01
211.285	-68.42
211.664	-69.75
212.044	-74.52
212.424	-66.36
212.803	-71.7
213.183	-65.2
213.562	-61.99
213.942	-51.18
214.321	-44.9
214.701	-48.28
215.08	-40.55
215.459	-38.89
215.838	-37.52
216.218	-33.35
216.597	-27.3
216.976	-31.02
217.355	-22.04
217.734	-16.64
218.113	-20.21
218.492	-17.23
218.871	-14.59
219.25	-16.36
219.629	-16.33
220.008	-12.6
220.387	-12.94
220.766	-12.48
221.144	-13.76
221.523	-26.01
221.902	-29.53
222.28	-33.88
222.659	-24.62
223.037	-18.54
223.416	-13.1
223.794	-12.61
224.173	-17.45
224.551	-11.53
224.929	-17.15
225.308	-17.84
225.686	-19.98
226.064	-17.46
226.442	-15.91
226.821	-15.04
227.199	-13.12
227.577	-16.05
227.955	-13.92
228.333	-15.3
228.711	-9.92
229.089	-8.24
229.467	-7.36
229.845	-7.96
230.222	-7.4
230.6	-11.72
230.978	-12.05
231.356	-11.29
231.733	-10.56
232.111	-7.87
232.488	-8.97
232.866	-7.96
233.243	-7.3
233.621	-7.76
233.998	-7.29
234.376	-8.24
234.753	-7.53
235.13	-7.19
235.508	-4.33
235.885	-3.92
236.262	-3.17
236.639	-5.86
237.016	-5.75
237.393	-4.33
237.77	-3.58
238.147	-2.18
238.524	0.01
238.901	0.75
239.278	1.37
239.655	1.3
240.032	0.97
240.409	0.95
240.785	1.65
241.162	1.95
241.539	1.86
241.915	2.1
242.292	1.79
242.668	1.88
243.045	1.89
243.421	2.06
243.798	1.66
244.174	1.88
244.551	2.22
244.927	2.34
245.303	2.58
245.679	2.66
246.056	2.48
246.432	2.31
246.808	2.27
247.184	2.08
247.56	2.01
247.936	1.98
248.312	1.65
248.688	1.69
249.064	1.55
249.44	1.72
249.815	1.69
250.191	2.07
250.567	2.11
250.943	2.2
251.318	2.43
251.694	2.51
252.069	2.33
252.445	2.21
252.82	2.26
253.196	2.1
253.571	2.15
253.947	2.2
254.322	2.53
254.697	2.43
255.073	2.31
255.448	2.08
255.823	1.96
256.198	2.48
256.573	2.42
256.948	2.49
257.323	2.84
257.698	2.83
258.073	2.67
258.448	2.79
258.823	2.69
259.198	2.3
259.573	2.53
259.948	2.63
260.322	2.71
260.697	2.47
261.072	2.31
261.446	2.38
261.821	2.37
262.195	2.26
262.57	2.17
262.944	2.16
263.319	2.19
263.693	2.29
264.067	2.26
264.442	2.37
264.816	2.39
265.19	2.15
265.564	2.18
265.938	2.09
266.313	1.89
266.687	1.82
267.061	2.12
267.435	2
267.809	1.88
268.183	1.85
268.556	2.05
268.93	2.31
269.304	2.25
269.678	2.41
270.051	2.48
270.425	2.5
270.799	2.53
271.172	2.54
271.546	2.56
271.919	2.59
272.293	2.54
272.666	2.53
273.04	2.6
273.413	2.58
273.787	2.65
274.16	2.6
274.533	2.62
274.906	2.41
275.279	2.35
275.653	2.39
276.026	2.24
276.399	2.19
276.772	2.08
277.145	2.02
277.518	1.85
277.891	1.96
278.263	2.06
278.636	2
279.009	1.96
279.382	2.06
279.755	2.07
280.127	2.15
280.5	2.18
280.872	2.14
281.245	2.15
281.617	2.27
281.99	2.31
282.362	2.53
282.735	2.49
283.107	2.49
283.479	2.49
283.852	2.64
284.224	2.68
284.596	2.64
284.968	2.69
285.34	2.69
285.713	2.59
286.085	2.72
286.457	2.74
286.829	2.85
287.201	2.71
287.572	2.64
287.944	2.54
288.316	2.4
288.688	2.39
289.06	2.36
289.431	2.41
289.803	2.5
290.175	2.31
290.546	2.54
290.918	2.61
291.289	2.61
291.661	2.66
292.032	2.67
292.403	2.8
292.775	2.89
293.146	3
293.517	2.95
293.889	2.93
294.26	2.99
294.631	3.06
295.002	3.12
295.373	3.15
295.744	3.17
296.115	3.3
296.486	3.23
296.857	3.24
297.228	3.16
297.599	3.14
297.97	3.21
298.34	3.06
298.711	3.08
299.082	3.14
299.452	3.09
299.823	3.06
300.194	3.01
300.564	2.85
300.935	2.76
301.305	2.85
301.676	2.88
302.046	3.02
302.416	3.06
302.787	3.14
303.157	3.22
303.527	3.17
303.897	3.26
304.267	3.51
304.637	3.58
305.008	3.69
305.378	3.7
305.748	3.75
306.117	3.89
306.487	3.92
306.857	4.02
307.227	4.06
307.597	4.14
307.967	4.25
308.336	4.33
308.706	4.38
309.076	4.43
309.445	4.45
309.815	4.27
310.184	4.27
310.554	4.32
310.923	4.35
311.293	4.44
311.662	4.38
312.031	4.2
312.401	4.29
312.77	4.42
313.139	4.43
313.508	4.46
313.877	4.4
314.246	4.41
314.616	4.39
314.985	4.54
315.353	4.56
315.722	4.6
316.091	4.59
316.46	4.61
316.829	4.73
317.198	4.83
317.567	5.09
317.935	4.97
318.304	4.87
318.672	4.89
319.041	5.07
319.41	5.06
319.778	5.27
320.147	5.26
320.515	5.1
320.883	5.26
321.252	5.42
321.62	5.56
321.988	5.58
322.357	5.58
322.725	5.55
323.093	5.62
323.461	5.64
323.829	5.72
324.197	5.78
324.565	5.85
324.933	5.83
325.301	5.77
325.669	5.89
326.037	6.02
326.405	5.99
326.772	5.87
327.14	6.06
327.508	6.09
327.875	5.99
328.243	6.18
328.61	6.23
328.978	6.33
329.346	6.35
329.713	6.4
330.08	6.4
330.448	6.42
330.815	6.44
331.182	6.5
331.55	6.7
331.917	6.8
332.284	6.75
332.651	6.61
333.018	6.68
333.385	6.77
333.752	6.76
334.119	6.79
334.486	6.78
334.853	6.84
335.22	6.86
335.587	6.95
335.954	6.82
336.32	6.7
336.687	6.59
337.054	6.72
337.42	6.78
337.787	6.9
338.153	6.96
338.52	7.02
338.886	6.97
339.253	6.83
339.619	6.8
339.986	6.77
340.352	6.87
340.718	6.85
341.084	6.89
341.451	7.03
341.817	7.2
342.183	7.3
342.549	7.2
342.915	7.24
343.281	7.26
343.647	7.3
344.013	7.38
344.379	7.38
344.745	7.28
345.11	7.23
345.476	7.28
345.842	7.27
346.208	7.21
346.573	7.25
346.939	7.37
347.304	7.37
347.67	7.31
348.035	7.33
348.401	7.36
348.766	7.37
349.132	7.29
349.497	7.3
349.862	7.28
350.228	7.41
350.593	7.34
350.958	7.29
351.323	7.29
351.688	7.24
352.053	7.31
352.418	7.41
352.783	7.43
353.148	7.31
353.513	7.28
353.878	7.31
354.243	7.3
354.608	7.35
354.972	7.34
355.337	7.46
355.702	7.47
356.066	7.48
356.431	7.42
356.795	7.47
357.16	7.3
357.524	7.31
357.889	7.21
358.253	7.26
358.618	7.27
358.982	7.21
359.346	7.26
359.71	7.22
360.075	7.18
360.439	7.2
360.803	7.22
361.167	7.21
361.531	7.17
361.895	7.12
362.259	7.02
362.623	7.02
362.987	6.96
363.351	6.93
363.714	6.87
364.078	6.8
364.442	6.66
364.806	6.66
365.169	6.58
365.533	6.53
365.896	6.46
366.26	6.45
366.623	6.38
366.987	6.29
367.35	6.23
367.714	6.08
368.077	6.04
368.44	5.95
368.803	5.93
369.167	5.86
369.53	5.81
369.893	5.83
370.256	5.77
370.619	5.7
370.982	5.62
371.345	5.52
371.708	5.57
372.071	5.57
372.434	5.54
372.797	5.56
373.159	5.53
373.522	5.45
373.885	5.41
374.247	5.45
374.61	5.42
374.973	5.38
375.335	5.33
375.698	5.29
376.06	5.27
376.423	5.22
376.785	5.22
377.147	5.16
377.51	5.11
377.872	5.06
378.234	5.05
378.596	5.03
378.958	5.02
379.321	4.94
379.683	4.93
380.045	4.88
380.407	4.79
380.769	4.74
381.13	4.7
381.492	4.67
381.854	4.61
382.216	4.6
382.578	4.57
382.939	4.58
383.301	4.52
383.663	4.44
384.024	4.38
384.386	4.38
384.747	4.41
385.109	4.33
385.47	4.27
385.832	4.21
386.193	4.17
386.554	4.18
386.916	4.1
387.277	4.06
387.638	4.03
387.999	4.01
388.36	3.95
388.721	3.92
389.082	3.88
389.443	3.85
389.804	3.79
390.165	3.72
390.526	3.66
390.887	3.62
391.248	3.64
391.609	3.63
391.969	3.61
392.33	3.55
392.691	3.56
393.051	3.55
393.412	3.53
393.772	3.49
394.133	3.45
394.493	3.44
394.854	3.43
395.214	3.4
395.574	3.38
395.935	3.38
396.295	3.39
396.655	3.34
397.015	3.32
397.376	3.28
397.736	3.25
398.096	3.26
398.456	3.25
398.816	3.23
399.176	3.17
399.535	3.12
399.895	3.07
400.255	3.03
400.615	3
400.975	2.97
401.334	2.95
401.694	2.95
402.054	2.92
402.413	2.91
402.773	2.86
403.132	2.83
403.492	2.81
403.851	2.76
404.211	2.74
404.57	2.72
404.929	2.71
405.288	2.7
405.648	2.69
406.007	2.67
406.366	2.64
406.725	2.66
407.084	2.68
407.443	2.69
407.802	2.72
408.161	2.71
408.52	2.69
408.879	2.66
409.238	2.66
409.596	2.66
409.955	2.65
410.314	2.66
410.673	2.66
411.031	2.64
411.39	2.64
411.748	2.65
412.107	2.65
412.465	2.66
412.824	2.67
413.182	2.65
413.54	2.67
413.899	2.65
414.257	2.64
414.615	2.59
414.974	2.58
415.332	2.52
415.69	2.49
416.048	2.5
416.406	2.49
416.764	2.46
417.122	2.46
417.48	2.43
417.838	2.43
418.195	2.43
418.553	2.44
418.911	2.43
419.269	2.41
419.626	2.4
419.984	2.39
420.342	2.38
420.699	2.36
421.057	2.34
421.414	2.33
421.772	2.31
422.129	2.32
422.486	2.31
422.844	2.31
423.201	2.31
423.558	2.3
423.915	2.3
424.273	2.31
424.63	2.3
424.987	2.29
425.344	2.29
425.701	2.28
426.058	2.27
426.415	2.25
426.772	2.24
427.128	2.25
427.485	2.25
427.842	2.23
428.199	2.25
428.555	2.25
428.912	2.25
429.269	2.26
429.625	2.25
429.982	2.25
430.338	2.23
430.695	2.22
431.051	2.21
431.407	2.21
431.764	2.16
432.12	2.16
432.476	2.19
432.832	2.17
433.189	2.18
433.545	2.19
433.901	2.19
434.257	2.19
434.613	2.2
434.969	2.21
435.325	2.22
435.681	2.21
436.036	2.19
436.392	2.19
436.748	2.17
437.104	2.17
437.459	2.15
437.815	2.18
438.171	2.18
438.526	2.2
438.882	2.22
439.237	2.23
439.593	2.22
439.948	2.22
440.304	2.22
440.659	2.21
441.014	2.22
441.369	2.21
441.725	2.2
442.08	2.17
442.435	2.14
442.79	2.15
443.145	2.15
443.5	2.14
443.855	2.13
444.21	2.12
444.565	2.13
444.92	2.15
445.275	2.12
445.629	2.11
445.984	2.09
446.339	2.08
446.693	2.06
447.048	2.07
447.403	2.05
447.757	2.04
448.112	2.03
448.466	2.01
448.82	2.02
449.175	2.05
449.529	2.06
449.883	2.05
450.238	2.04
450.592	2.03
450.946	2.03
451.3	2.03
451.654	2.05
452.008	2.04
452.362	2.03
452.716	2.07
453.07	2.07
453.424	2.07
453.778	2.07
454.132	2.05
454.486	2.02
454.839	2.03
455.193	2.02
455.547	2.02
455.9	2.03
456.254	2.01
456.607	1.99
456.961	1.97
457.314	1.98
457.668	1.98
458.021	1.99
458.375	1.99
458.728	1.99
459.081	1.99
459.434	1.98
459.787	1.98
460.141	1.97
460.494	1.97
460.847	1.99
461.2	1.98
461.553	2
461.906	2.01
462.259	2
462.611	2.02
462.964	2.03
463.317	2.02
463.67	2.04
464.022	2.04
464.375	2.05
464.728	2.04
465.08	2.05
465.433	2.03
465.785	2.04
466.138	2.05
466.49	2.06
466.843	2.06
467.195	2.09
467.547	2.08
467.899	2.08
468.252	2.05
468.604	2.05
468.956	2.05
469.308	2.05
469.66	2.04
470.012	2.03
470.364	2.02
470.716	2.03
471.068	2.01
471.42	2.01
471.772	2.01
472.123	2.04
472.475	2.05
472.827	2.07
473.178	2.08
473.53	2.06
473.882	2.07
474.233	2.07
474.585	2.05
474.936	2.04
475.288	2.05
475.639	2.07
475.99	2.07
476.342	2.1
476.693	2.1
477.044	2.12
477.395	2.13
477.746	2.15
478.097	2.14
478.448	2.14
478.8	2.15
479.15	2.13
479.501	2.11
479.852	2.09
480.203	2.1
480.554	2.12
480.905	2.14
481.255	2.12
481.606	2.12
481.957	2.13
482.307	2.13
482.658	2.13
483.009	2.12
483.359	2.12
483.709	2.12
484.06	2.12
484.41	2.12
484.761	2.12
485.111	2.11
485.461	2.11
485.811	2.12
486.162	2.11
486.512	2.13
486.862	2.13
487.212	2.13
487.562	2.13
487.912	2.11
488.262	2.1
488.612	2.1
488.961	2.1
489.311	2.1
489.661	2.1
490.011	2.09
490.36	2.1
490.71	2.11
491.06	2.11
491.409	2.1
491.759	2.1
492.108	2.1
492.458	2.12
492.807	2.12
493.157	2.11
493.506	2.13
493.855	2.12
494.204	2.14
494.554	2.15
494.903	2.16
495.252	2.17
495.601	2.19
495.95	2.21
496.299	2.22
496.648	2.23
496.997	2.24
497.346	2.27
497.695	2.29
498.043	2.3
498.392	2.29
498.741	2.29
499.09	2.28
499.438	2.3
499.787	2.33
500.135	2.37
500.484	2.38
500.832	2.38
501.181	2.41
501.529	2.43
501.878	2.44
502.226	2.46
502.574	2.47
502.923	2.49
503.271	2.49
503.619	2.51
503.967	2.53
504.315	2.55
504.663	2.58
505.011	2.62
505.359	2.62
505.707	2.67
506.055	2.72
506.403	2.76
506.751	2.79
507.098	2.81
507.446	2.84
507.794	2.88
508.141	2.93
508.489	2.96
508.837	3
509.184	3.06
509.531	3.09
509.879	3.14
510.226	3.18
510.574	3.25
510.921	3.3
511.268	3.34
511.616	3.39
511.963	3.42
512.31	3.46
512.657	3.54
513.004	3.57
513.351	3.64
513.698	3.73
514.045	3.78
514.392	3.82
514.739	3.87
515.086	3.96
515.432	4.02
515.779	4.09
516.126	4.14
516.473	4.18
516.819	4.25
517.166	4.32
517.512	4.38
517.859	4.45
518.205	4.49
518.552	4.56
518.898	4.62
519.245	4.69
519.591	4.75
519.937	4.8
520.283	4.86
520.629	4.94
520.976	5
521.322	5.09
521.668	5.2
522.014	5.33
522.36	5.43
522.706	5.54
523.052	5.64
523.398	5.78
523.743	5.92
524.089	6.03
524.435	6.16
524.781	6.28
525.126	6.4
525.472	6.51
525.817	6.62
526.163	6.71
526.509	6.8
526.854	6.88
527.199	6.97
527.545	7.07
527.89	7.14
528.235	7.22
528.581	7.31
528.926	7.4
529.271	7.49
529.616	7.59
529.961	7.68
530.306	7.79
530.651	7.89
530.996	8.02
531.341	8.14
531.686	8.26
532.031	8.39
532.376	8.52
532.721	8.66
533.065	8.8
533.41	8.96
533.755	9.12
534.099	9.3
534.444	9.47
534.788	9.65
535.133	9.82
535.477	10.01
535.822	10.2
536.166	10.4
536.51	10.59
536.855	10.81
537.199	11.04
537.543	11.26
537.887	11.52
538.231	11.73
538.576	11.98
538.92	12.24
539.264	12.48
539.608	12.71
539.951	12.93
540.295	13.14
540.639	13.35
540.983	13.53
541.327	13.74
541.671	13.93
542.014	14.13
542.358	14.32
542.701	14.53
543.045	14.73
543.389	14.94
543.732	15.16
544.075	15.38
544.419	15.59
544.762	15.84
545.105	16.06
545.449	16.33
545.792	16.58
546.135	16.83
546.478	17.09
546.821	17.36
547.165	17.66
547.508	17.97
547.851	18.29
548.194	18.65
548.536	18.94
548.879	19.26
549.222	19.56
549.565	19.87
549.908	20.17
550.25	20.48
550.593	20.78
550.936	21.11
551.278	21.41
551.621	21.73
551.963	22.06
552.306	22.37
552.648	22.65
552.991	22.96
553.333	23.28
553.675	23.56
554.017	23.87
554.36	24.14
554.702	24.38
555.044	24.6
555.386	24.86
555.728	25.16
556.07	25.46
556.412	25.71
556.754	26.02
557.096	26.28
557.438	26.51
557.78	26.84
558.121	27.15
558.463	27.49
558.805	27.75
559.147	27.97
559.488	28.28
559.83	28.56
560.171	28.86
560.513	29.14
560.854	29.41
561.196	29.65
561.537	29.95
561.878	30.22
562.22	30.53
562.561	30.78
562.902	31.01
563.243	31.22
563.584	31.45
563.925	31.68
564.266	31.92
564.607	32.19
564.948	32.38
565.289	32.56
565.63	32.74
565.971	32.94
566.312	33.19
566.653	33.35
566.993	33.53
567.334	33.73
567.675	33.91
568.015	34.09
568.356	34.29
568.696	34.44
569.037	34.6
569.377	34.77
569.718	34.92
570.058	35.07
570.398	35.27
570.739	35.48
571.079	35.63
571.419	35.76
571.759	35.92
572.099	36.07
572.439	36.23
572.779	36.37
573.119	36.56
573.459	36.67
573.799	36.86
574.139	37.03
574.479	37.17
574.819	37.29
575.158	37.44
575.498	37.53
575.838	37.7
576.177	37.86
576.517	38.01
576.856	38.17
577.196	38.32
577.535	38.41
577.875	38.53
578.214	38.71
578.553	38.89
578.893	39.07
579.232	39.19
579.571	39.29
579.91	39.44
580.25	39.58
580.589	39.73
580.928	39.81
581.267	39.87
581.606	39.91
581.945	40.05
582.283	40.16
582.622	40.3
582.961	40.39
583.3	40.47
583.639	40.6
583.977	40.78
584.316	40.9
584.654	41.02
584.993	41.12
585.332	41.16
585.67	41.22
586.008	41.31
586.347	41.39
586.685	41.49
587.024	41.56
587.362	41.56
587.7	41.66
588.038	41.76
588.376	41.9
588.715	42.02
589.053	42.1
589.391	42.16
589.729	42.27
590.067	42.3
590.404	42.4
590.742	42.46
591.08	42.45
591.418	42.5
591.756	42.55
592.093	42.6
592.431	42.62
592.769	42.75
593.106	42.74
593.444	42.84
593.781	42.88
594.119	42.92
594.456	43
594.793	43.01
595.131	43
595.468	43.03
595.805	43
596.143	43.02
596.48	43.03
596.817	43.06
597.154	43.11
597.491	43.16
597.828	43.17
598.165	43.24
598.502	43.29
598.839	43.32
599.176	43.33
599.512	43.43
599.849	43.47
600.186	43.57
600.523	43.56
600.859	43.7
601.196	43.78
601.532	43.82
601.869	43.9
602.205	44
602.542	44.08
602.878	44.19
603.215	44.23
603.551	44.29
603.887	44.37
604.223	44.47
604.56	44.47
604.896	44.52
605.232	44.61
605.568	44.63
605.904	44.69
606.24	44.81
606.576	44.84
606.912	44.92
607.248	45
607.583	45.11
607.919	45.07
608.255	45.03
608.591	45.1
608.926	45.14
609.262	45.17
609.597	45.18
609.933	45.21
610.268	45.29
610.604	45.39
610.939	45.4
611.275	45.44
611.61	45.46
611.945	45.54
612.281	45.54
612.616	45.54
612.951	45.58
613.286	45.53
613.621	45.59
613.956	45.53
614.291	45.45
614.626	45.46
614.961	45.47
615.296	45.55
615.631	45.56
615.966	45.6
616.3	45.65
616.635	45.67
616.97	45.69
617.304	45.65
617.639	45.63
617.973	45.7
618.308	45.64
618.642	45.69
618.977	45.62
619.311	45.54
619.646	45.59
619.98	45.68
620.314	45.68
620.648	45.69
620.983	45.7
621.317	45.74
621.651	45.82
621.985	45.82
622.319	45.84
622.653	45.88
622.987	45.88
623.321	46.03
623.655	46.06
623.988	46.11
624.322	46.12
624.656	46.14
624.99	46.06
625.323	46.06
625.657	46.09
625.99	46.12
626.324	46.22
626.657	46.23
626.991	46.22
627.324	46.28
627.658	46.29
627.991	46.37
628.324	46.46
628.657	46.42
628.991	46.51
629.324	46.56
629.657	46.56
629.99	46.54
630.323	46.45
630.656	46.46
630.989	46.49
631.322	46.55
631.655	46.55
631.987	46.67
632.32	46.79
632.653	46.81
632.986	46.86
633.318	46.81
633.651	46.87
633.984	46.81
634.316	46.79
634.649	46.96
634.981	47.01
635.313	47.01
635.646	47.03
635.978	46.97
636.31	46.97
636.643	47.05
636.975	47.07
637.307	47.08
637.639	47.07
637.971	47.04
638.303	47.01
638.635	46.97
638.967	46.91
639.299	46.83
639.631	46.86
639.963	46.79
640.295	46.82
640.626	46.81
640.958	46.86
641.29	46.88
641.621	46.74
641.953	46.69
642.285	46.64
642.616	46.62
642.948	46.71
643.279	46.7
643.61	46.75
643.942	46.78
644.273	46.74
644.604	46.64
644.936	46.71
645.267	46.9
645.598	46.97
645.929	47.04
646.26	47.21
646.591	47.24
646.922	47.26
647.253	47.2
647.584	47.11
647.915	47.11
648.245	47.18
648.576	47.23
648.907	47.19
649.238	47.14
649.568	47.19
649.899	47.16
650.229	47.21
650.56	47.12
650.89	47.13
651.221	47.07
651.551	47.23
651.882	47.16
652.212	47.13
652.542	47.09
652.872	46.98
653.203	46.89
653.533	46.86
653.863	46.91
654.193	46.99
654.523	47.08
654.853	47.08
655.183	47.12
655.513	47.06
655.843	47.04
656.172	47.1
656.502	47.1
656.832	47.19
657.162	47.26
657.491	47.3
657.821	47.35
658.15	47.44
658.48	47.34
658.809	47.39
659.139	47.26
659.468	47.21
659.798	47.29
660.127	47.26
660.456	47.26
660.785	47.32
661.115	47.51
661.444	47.48
661.773	47.45
662.102	47.4
662.431	47.46
662.76	47.49
663.089	47.54
663.418	47.51
663.747	47.52
664.076	47.43
664.404	47.49
664.733	47.46
665.062	47.52
665.39	47.75
665.719	47.67
666.048	47.77
666.376	47.86
666.705	47.79
