Data from BU57994_Reflection_00003.txt Node
Date: Mon Nov 18 16:53:01 EST 2019
User: vgr7
Spectrometer: USB2G7710
Scans to average: 3
Trigger mode: 4
Integration Time (sec): 2.000000E-2
Electric dark correction enabled: true
Boxcar width: 10
XAxis mode: Wavelengths
Number of Pixels in Spectrum: 2048
>>>>>Begin Spectral Data<<<<<
177.721	72.29
178.105	-98.81
178.488	-63.5
178.871	-127.83
179.254	-119.18
179.636	5.86
180.019	117.08
180.402	7.69
180.785	428.17
181.168	-150
181.55	-43.76
181.933	62.79
182.316	63.54
182.698	65.11
183.081	35.9
183.463	23.94
183.846	86.82
184.228	59.5
184.611	69.96
184.993	-195.3
185.376	22.42
185.758	23.88
186.14	-401.51
186.522	-106.75
186.904	-102.08
187.287	-97.71
187.669	2.14
188.051	63.69
188.433	30.68
188.815	65.61
189.197	16.71
189.579	-7.25
189.961	9.6
190.342	-5.65
190.724	-4.67
191.106	-18.45
191.488	-11.91
191.869	6.21
192.251	-0.66
192.633	3.15
193.014	-14.21
193.396	-61.44
193.777	-30.51
194.159	-32.16
194.54	-39.09
194.922	-31.36
195.303	-27.68
195.684	-48.29
196.065	-38.97
196.447	-16.21
196.828	-55.48
197.209	-25.06
197.59	-1.71
197.971	9.58
198.352	46.66
198.733	47.41
199.114	63.78
199.495	43.23
199.876	30.23
200.257	33.79
200.638	20.8
201.018	29.57
201.399	30.86
201.78	26.93
202.16	28.37
202.541	31.89
202.922	45.11
203.302	40.38
203.683	38.15
204.063	21.38
204.444	7.43
204.824	25.89
205.204	16.23
205.585	5.09
205.965	-6.78
206.345	-41.19
206.725	-46.86
207.106	-51.3
207.486	-59.67
207.866	-37.64
208.246	-72.76
208.626	-85.69
209.006	-87.71
209.386	-81.55
209.766	-51.74
210.145	-35.48
210.525	-12.15
210.905	-13.09
211.285	-10.81
211.664	-2.13
212.044	8.67
212.424	13.82
212.803	14.13
213.183	15.81
213.562	11.89
213.942	25.26
214.321	25.03
214.701	24.39
215.08	7.06
215.459	6.57
215.838	11.22
216.218	10.34
216.597	9.32
216.976	11.55
217.355	18.61
217.734	11.49
218.113	-1.31
218.492	-10.42
218.871	-15.35
219.25	-21.81
219.629	-29.8
220.008	-47.24
220.387	-41.03
220.766	-48.7
221.144	-52.93
221.523	-53.15
221.902	-48
222.28	-52.11
222.659	-35.1
223.037	-13.39
223.416	-15.49
223.794	-17.49
224.173	-13.76
224.551	-6.65
224.929	-1.96
225.308	-2.99
225.686	-5.24
226.064	3.31
226.442	3.46
226.821	2.33
227.199	5.17
227.577	4
227.955	5.8
228.333	3.49
228.711	4.36
229.089	6.01
229.467	6.95
229.845	4.63
230.222	2.58
230.6	0.14
230.978	-1.74
231.356	-1.68
231.733	-2.59
232.111	-1.01
232.488	-0.72
232.866	-1.29
233.243	-0.82
233.621	0.72
233.998	-0.34
234.376	-1.37
234.753	-1.23
235.13	-1.34
235.508	0.46
235.885	0.56
236.262	-1.14
236.639	-0.84
237.016	0.13
237.393	-0.16
237.77	0.6
238.147	1.83
238.524	2.17
238.901	2.77
239.278	3.43
239.655	4.28
240.032	3.92
240.409	3.04
240.785	2.6
241.162	2.99
241.539	3.2
241.915	3.77
242.292	4.13
242.668	4.66
243.045	4.67
243.421	3.98
243.798	3.85
244.174	4.06
244.551	4.19
244.927	4.05
245.303	4.36
245.679	4.4
246.056	4.05
246.432	3.83
246.808	3.95
247.184	3.6
247.56	3.33
247.936	3.23
248.312	3.47
248.688	3.77
249.064	3.66
249.44	3.58
249.815	3.6
250.191	3.73
250.567	3.63
250.943	3.53
251.318	3.72
251.694	3.88
252.069	3.92
252.445	3.86
252.82	3.93
253.196	3.76
253.571	3.61
253.947	3.86
254.322	4.31
254.697	4.13
255.073	4.33
255.448	4.33
255.823	4.36
256.198	4.52
256.573	4.31
256.948	4.34
257.323	4.52
257.698	4.33
258.073	4.14
258.448	4.08
258.823	4.16
259.198	4.26
259.573	4.26
259.948	4.28
260.322	4.27
260.697	4.2
261.072	4.17
261.446	4.22
261.821	4.32
262.195	4.25
262.57	4.12
262.944	4.06
263.319	4.01
263.693	4.14
264.067	3.99
264.442	4.15
264.816	4.15
265.19	3.97
265.564	4.09
265.938	4.09
266.313	4.12
266.687	3.94
267.061	3.98
267.435	3.97
267.809	3.91
268.183	3.88
268.556	3.88
268.93	3.85
269.304	3.83
269.678	3.9
270.051	3.82
270.425	3.89
270.799	3.94
271.172	4.03
271.546	3.87
271.919	3.95
272.293	3.86
272.666	3.9
273.04	4.02
273.413	3.93
273.787	3.92
274.16	3.81
274.533	3.82
274.906	3.63
275.279	3.55
275.653	3.6
276.026	3.54
276.399	3.53
276.772	3.7
277.145	3.64
277.518	3.53
277.891	3.56
278.263	3.41
278.636	3.53
279.009	3.42
279.382	3.63
279.755	3.64
280.127	3.69
280.5	3.76
280.872	3.64
281.245	3.63
281.617	3.8
281.99	3.89
282.362	4.06
282.735	4.1
283.107	4.07
283.479	4.17
283.852	4.25
284.224	4.26
284.596	4.09
284.968	4.21
285.34	4.27
285.713	4.28
286.085	4.39
286.457	4.5
286.829	4.54
287.201	4.47
287.572	4.47
287.944	4.43
288.316	4.52
288.688	4.54
289.06	4.64
289.431	4.51
289.803	4.54
290.175	4.51
290.546	4.67
290.918	4.74
291.289	4.61
291.661	4.6
292.032	4.7
292.403	4.86
292.775	4.98
293.146	5
293.517	5.12
293.889	5.11
294.26	4.98
294.631	5.03
295.002	5.01
295.373	5.04
295.744	5.07
296.115	5.05
296.486	5.03
296.857	5
297.228	5.22
297.599	5.16
297.97	5.32
298.34	5.33
298.711	5.37
299.082	5.41
299.452	5.45
299.823	5.45
300.194	5.49
300.564	5.37
300.935	5.41
301.305	5.31
301.676	5.48
302.046	5.49
302.416	5.61
302.787	5.57
303.157	5.63
303.527	5.65
303.897	5.67
304.267	5.88
304.637	5.84
305.008	5.75
305.378	5.93
305.748	5.68
306.117	5.65
306.487	5.69
306.857	5.72
307.227	5.77
307.597	5.81
307.967	5.78
308.336	5.86
308.706	5.83
309.076	5.83
309.445	5.67
309.815	5.62
310.184	5.63
310.554	5.75
310.923	5.72
311.293	5.7
311.662	5.53
312.031	5.38
312.401	5.38
312.77	5.39
313.139	5.39
313.508	5.47
313.877	5.41
314.246	5.35
314.616	5.44
314.985	5.47
315.353	5.31
315.722	5.31
316.091	5.21
316.46	5.16
316.829	5.41
317.198	5.54
317.567	5.6
317.935	5.52
318.304	5.64
318.672	5.56
319.041	5.62
319.41	5.81
319.778	5.76
320.147	5.8
320.515	5.68
320.883	5.66
321.252	5.79
321.62	5.83
321.988	5.95
322.357	5.85
322.725	5.65
323.093	5.78
323.461	5.75
323.829	5.91
324.197	5.96
324.565	5.84
324.933	5.83
325.301	5.81
325.669	5.78
326.037	5.59
326.405	5.68
326.772	5.73
327.14	5.74
327.508	5.83
327.875	5.85
328.243	6.01
328.61	5.99
328.978	5.86
329.346	5.99
329.713	5.86
330.08	5.8
330.448	5.75
330.815	5.68
331.182	5.51
331.55	5.31
331.917	5.34
332.284	5.39
332.651	5.48
333.018	5.58
333.385	5.61
333.752	5.63
334.119	5.56
334.486	5.49
334.853	5.39
335.22	5.43
335.587	5.36
335.954	5.29
336.32	5.32
336.687	5.38
337.054	5.2
337.42	5.33
337.787	5.44
338.153	5.69
338.52	5.77
338.886	5.79
339.253	5.91
339.619	5.85
339.986	5.8
340.352	5.71
340.718	5.68
341.084	5.76
341.451	5.93
341.817	6.09
342.183	6.07
342.549	6.06
342.915	6.04
343.281	6.07
343.647	6
344.013	6.01
344.379	5.82
344.745	5.87
345.11	5.77
345.476	5.77
345.842	5.67
346.208	5.69
346.573	5.78
346.939	5.81
347.304	5.82
347.67	5.82
348.035	5.81
348.401	5.9
348.766	5.81
349.132	5.73
349.497	5.62
349.862	5.72
350.228	5.73
350.593	5.74
350.958	5.8
351.323	5.85
351.688	5.86
352.053	6.01
352.418	6.02
352.783	6.1
353.148	6
353.513	6.1
353.878	6.07
354.243	6.07
354.608	6.03
354.972	6.05
355.337	6.09
355.702	6.21
356.066	6.14
356.431	6.11
356.795	6.09
357.16	6.12
357.524	6.05
357.889	6.01
358.253	6.03
358.618	5.98
358.982	5.96
359.346	5.91
359.71	5.86
360.075	5.87
360.439	5.81
360.803	5.85
361.167	5.74
361.531	5.74
361.895	5.73
362.259	5.68
362.623	5.71
362.987	5.69
363.351	5.62
363.714	5.63
364.078	5.71
364.442	5.71
364.806	5.71
365.169	5.75
365.533	5.76
365.896	5.75
366.26	5.8
366.623	5.78
366.987	5.87
367.35	5.96
367.714	5.96
368.077	6.02
368.44	6.02
368.803	6.04
369.167	6
369.53	5.96
369.893	6.1
370.256	6.13
370.619	6.09
370.982	6.05
371.345	6.03
371.708	6.09
372.071	5.98
372.434	5.93
372.797	5.91
373.159	5.95
373.522	5.94
373.885	5.94
374.247	5.93
374.61	5.85
374.973	5.8
375.335	5.85
375.698	5.85
376.06	5.81
376.423	5.87
376.785	5.91
377.147	5.96
377.51	5.89
377.872	5.9
378.234	5.91
378.596	5.97
378.958	5.92
379.321	5.83
379.683	5.9
380.045	5.96
380.407	5.94
380.769	5.95
381.13	5.96
381.492	5.95
381.854	6.03
382.216	6.01
382.578	6.02
382.939	5.96
383.301	5.93
383.663	5.93
384.024	5.9
384.386	5.89
384.747	5.87
385.109	5.87
385.47	5.84
385.832	5.8
386.193	5.79
386.554	5.83
386.916	5.84
387.277	5.86
387.638	5.85
387.999	5.88
388.36	5.87
388.721	5.9
389.082	5.9
389.443	5.87
389.804	5.88
390.165	5.87
390.526	5.91
390.887	5.92
391.248	5.94
391.609	5.93
391.969	5.91
392.33	5.93
392.691	5.94
393.051	5.89
393.412	5.91
393.772	5.89
394.133	5.87
394.493	5.89
394.854	5.92
395.214	5.92
395.574	5.89
395.935	5.95
396.295	5.95
396.655	5.95
397.015	5.93
397.376	5.94
397.736	5.91
398.096	5.88
398.456	5.91
398.816	5.94
399.176	5.95
399.535	5.97
399.895	5.95
400.255	5.94
400.615	6
400.975	6.03
401.334	5.99
401.694	6.01
402.054	6
402.413	5.97
402.773	5.93
403.132	5.97
403.492	5.9
403.851	5.9
404.211	5.91
404.57	5.91
404.929	5.93
405.288	5.94
405.648	5.97
406.007	5.91
406.366	5.91
406.725	5.9
407.084	5.93
407.443	5.95
407.802	5.94
408.161	5.93
408.52	5.87
408.879	5.89
409.238	5.87
409.596	5.85
409.955	5.81
410.314	5.85
410.673	5.82
411.031	5.83
411.39	5.81
411.748	5.79
412.107	5.78
412.465	5.78
412.824	5.8
413.182	5.77
413.54	5.82
413.899	5.8
414.257	5.81
414.615	5.79
414.974	5.77
415.332	5.79
415.69	5.78
416.048	5.8
416.406	5.82
416.764	5.83
417.122	5.84
417.48	5.85
417.838	5.84
418.195	5.86
418.553	5.84
418.911	5.82
419.269	5.83
419.626	5.82
419.984	5.8
420.342	5.82
420.699	5.82
421.057	5.8
421.414	5.8
421.772	5.81
422.129	5.8
422.486	5.8
422.844	5.8
423.201	5.8
423.558	5.81
423.915	5.82
424.273	5.81
424.63	5.81
424.987	5.81
425.344	5.81
425.701	5.81
426.058	5.8
426.415	5.81
426.772	5.81
427.128	5.81
427.485	5.83
427.842	5.81
428.199	5.84
428.555	5.84
428.912	5.84
429.269	5.84
429.625	5.86
429.982	5.87
430.338	5.88
430.695	5.88
431.051	5.85
431.407	5.85
431.764	5.87
432.12	5.86
432.476	5.87
432.832	5.86
433.189	5.88
433.545	5.9
433.901	5.9
434.257	5.89
434.613	5.92
434.969	5.91
435.325	5.91
435.681	5.91
436.036	5.92
436.392	5.91
436.748	5.88
437.104	5.87
437.459	5.9
437.815	5.89
438.171	5.89
438.526	5.9
438.882	5.91
439.237	5.91
439.593	5.91
439.948	5.89
440.304	5.9
440.659	5.9
441.014	5.91
441.369	5.92
441.725	5.93
442.08	5.93
442.435	5.94
442.79	5.94
443.145	5.93
443.5	5.93
443.855	5.95
444.21	5.97
444.565	5.99
444.92	5.98
445.275	5.98
445.629	5.98
445.984	5.98
446.339	5.98
446.693	5.97
447.048	5.98
447.403	5.99
447.757	5.99
448.112	5.98
448.466	5.95
448.82	5.95
449.175	5.95
449.529	5.94
449.883	5.92
450.238	5.93
450.592	5.93
450.946	5.93
451.3	5.92
451.654	5.91
452.008	5.9
452.362	5.89
452.716	5.89
453.07	5.9
453.424	5.89
453.778	5.89
454.132	5.89
454.486	5.85
454.839	5.86
455.193	5.84
455.547	5.85
455.9	5.88
456.254	5.86
456.607	5.89
456.961	5.89
457.314	5.89
457.668	5.88
458.021	5.89
458.375	5.88
458.728	5.89
459.081	5.88
459.434	5.87
459.787	5.88
460.141	5.87
460.494	5.86
460.847	5.88
461.2	5.87
461.553	5.89
461.906	5.9
462.259	5.9
462.611	5.91
462.964	5.93
463.317	5.92
463.67	5.93
464.022	5.9
464.375	5.91
464.728	5.93
465.08	5.93
465.433	5.94
465.785	5.94
466.138	5.94
466.49	5.96
466.843	5.97
467.195	5.96
467.547	5.98
467.899	5.99
468.252	5.97
468.604	5.98
468.956	5.97
469.308	5.96
469.66	5.93
470.012	5.96
470.364	5.95
470.716	5.97
471.068	5.95
471.42	5.98
471.772	5.98
472.123	5.98
472.475	5.97
472.827	5.98
473.178	5.96
473.53	5.94
473.882	5.91
474.233	5.91
474.585	5.92
474.936	5.92
475.288	5.92
475.639	5.95
475.99	5.95
476.342	5.94
476.693	5.95
477.044	5.98
477.395	5.98
477.746	5.96
478.097	5.96
478.448	5.98
478.8	6
479.15	6
479.501	6
479.852	6.02
480.203	6.02
480.554	6.03
480.905	6.04
481.255	6.07
481.606	6.07
481.957	6.08
482.307	6.09
482.658	6.08
483.009	6.07
483.359	6.08
483.709	6.09
484.06	6.1
484.41	6.1
484.761	6.1
485.111	6.1
485.461	6.11
485.811	6.11
486.162	6.1
486.512	6.11
486.862	6.1
487.212	6.11
487.562	6.1
487.912	6.1
488.262	6.09
488.612	6.09
488.961	6.09
489.311	6.07
489.661	6.07
490.011	6.07
490.36	6.07
490.71	6.07
491.06	6.06
491.409	6.05
491.759	6.04
492.108	6.04
492.458	6.03
492.807	6.02
493.157	6.02
493.506	6.01
493.855	6
494.204	5.98
494.554	5.96
494.903	5.97
495.252	5.99
495.601	6
495.95	5.99
496.299	5.99
496.648	6.01
496.997	6.01
497.346	5.99
497.695	6
498.043	5.99
498.392	5.99
498.741	5.99
499.09	5.99
499.438	5.99
499.787	5.99
500.135	5.99
500.484	6
500.832	6
501.181	6.01
501.529	6
501.878	6.02
502.226	6.02
502.574	6.02
502.923	6
503.271	5.99
503.619	5.98
503.967	5.96
504.315	5.94
504.663	5.95
505.011	5.95
505.359	5.97
505.707	5.99
506.055	6
506.403	6.03
506.751	6.05
507.098	6.04
507.446	6.07
507.794	6.06
508.141	6.07
508.489	6.06
508.837	6.09
509.184	6.1
509.531	6.1
509.879	6.13
510.226	6.14
510.574	6.13
510.921	6.15
511.268	6.15
511.616	6.2
511.963	6.2
512.31	6.19
512.657	6.19
513.004	6.19
513.351	6.2
513.698	6.2
514.045	6.19
514.392	6.2
514.739	6.19
515.086	6.21
515.432	6.19
515.779	6.19
516.126	6.19
516.473	6.18
516.819	6.18
517.166	6.15
517.512	6.16
517.859	6.18
518.205	6.19
518.552	6.2
518.898	6.17
519.245	6.18
519.591	6.17
519.937	6.15
520.283	6.13
520.629	6.14
520.976	6.12
521.322	6.11
521.668	6.1
522.014	6.1
522.36	6.09
522.706	6.1
523.052	6.1
523.398	6.12
523.743	6.14
524.089	6.13
524.435	6.15
524.781	6.16
525.126	6.16
525.472	6.16
525.817	6.16
526.163	6.18
526.509	6.18
526.854	6.19
527.199	6.2
527.545	6.21
527.89	6.22
528.235	6.22
528.581	6.24
528.926	6.25
529.271	6.26
529.616	6.27
529.961	6.28
530.306	6.29
530.651	6.28
530.996	6.29
531.341	6.31
531.686	6.29
532.031	6.28
532.376	6.28
532.721	6.28
533.065	6.28
533.41	6.27
533.755	6.28
534.099	6.3
534.444	6.29
534.788	6.31
535.133	6.28
535.477	6.3
535.822	6.29
536.166	6.28
536.51	6.27
536.855	6.27
537.199	6.27
537.543	6.26
537.887	6.26
538.231	6.24
538.576	6.25
538.92	6.27
539.264	6.27
539.608	6.28
539.951	6.3
540.295	6.3
540.639	6.3
540.983	6.3
541.327	6.3
541.671	6.3
542.014	6.3
542.358	6.33
542.701	6.32
543.045	6.32
543.389	6.32
543.732	6.33
544.075	6.35
544.419	6.34
544.762	6.33
545.105	6.34
545.449	6.34
545.792	6.33
546.135	6.32
546.478	6.35
546.821	6.34
547.165	6.35
547.508	6.35
547.851	6.35
548.194	6.35
548.536	6.34
548.879	6.36
549.222	6.34
549.565	6.33
549.908	6.35
550.25	6.35
550.593	6.35
550.936	6.31
551.278	6.3
551.621	6.3
551.963	6.32
552.306	6.34
552.648	6.33
552.991	6.34
553.333	6.32
553.675	6.3
554.017	6.31
554.36	6.28
554.702	6.27
555.044	6.27
555.386	6.28
555.728	6.27
556.07	6.29
556.412	6.3
556.754	6.31
557.096	6.29
557.438	6.28
557.78	6.3
558.121	6.33
558.463	6.34
558.805	6.33
559.147	6.28
559.488	6.27
559.83	6.27
560.171	6.27
560.513	6.27
560.854	6.28
561.196	6.27
561.537	6.3
561.878	6.32
562.22	6.32
562.561	6.33
562.902	6.35
563.243	6.33
563.584	6.32
563.925	6.34
564.266	6.34
564.607	6.37
564.948	6.39
565.289	6.41
565.63	6.42
565.971	6.44
566.312	6.48
566.653	6.49
566.993	6.51
567.334	6.51
567.675	6.54
568.015	6.57
568.356	6.59
568.696	6.6
569.037	6.61
569.377	6.63
569.718	6.62
570.058	6.63
570.398	6.61
570.739	6.64
571.079	6.65
571.419	6.65
571.759	6.65
572.099	6.64
572.439	6.61
572.779	6.59
573.119	6.59
573.459	6.6
573.799	6.6
574.139	6.61
574.479	6.6
574.819	6.59
575.158	6.54
575.498	6.55
575.838	6.55
576.177	6.53
576.517	6.49
576.856	6.53
577.196	6.52
577.535	6.55
577.875	6.5
578.214	6.44
578.553	6.44
578.893	6.41
579.232	6.38
579.571	6.37
579.91	6.37
580.25	6.39
580.589	6.42
580.928	6.43
581.267	6.4
581.606	6.42
581.945	6.41
582.283	6.48
582.622	6.45
582.961	6.45
583.3	6.43
583.639	6.46
583.977	6.48
584.316	6.48
584.654	6.48
584.993	6.47
585.332	6.55
585.67	6.57
586.008	6.59
586.347	6.61
586.685	6.62
587.024	6.62
587.362	6.62
587.7	6.63
588.038	6.63
588.376	6.66
588.715	6.68
589.053	6.71
589.391	6.7
589.729	6.73
590.067	6.72
590.404	6.74
590.742	6.76
591.08	6.7
591.418	6.74
591.756	6.77
592.093	6.83
592.431	6.81
592.769	6.81
593.106	6.8
593.444	6.76
593.781	6.75
594.119	6.78
594.456	6.8
594.793	6.78
595.131	6.78
595.468	6.78
595.805	6.78
596.143	6.75
596.48	6.75
596.817	6.72
597.154	6.73
597.491	6.76
597.828	6.75
598.165	6.77
598.502	6.76
598.839	6.74
599.176	6.7
599.512	6.69
599.849	6.69
600.186	6.74
600.523	6.78
600.859	6.84
601.196	6.83
601.532	6.83
601.869	6.82
602.205	6.78
602.542	6.78
602.878	6.77
603.215	6.78
603.551	6.81
603.887	6.82
604.223	6.81
604.56	6.8
604.896	6.82
605.232	6.83
605.568	6.83
605.904	6.87
606.24	6.9
606.576	6.92
606.912	6.95
607.248	6.91
607.583	6.92
607.919	6.85
608.255	6.88
608.591	6.87
608.926	6.87
609.262	6.92
609.597	6.92
609.933	6.94
610.268	6.95
610.604	6.94
610.939	6.93
611.275	6.94
611.61	6.94
611.945	6.94
612.281	6.93
612.616	6.93
612.951	6.9
613.286	6.89
613.621	6.87
613.956	6.8
614.291	6.82
614.626	6.8
614.961	6.8
615.296	6.72
615.631	6.76
615.966	6.79
616.3	6.79
616.635	6.82
616.97	6.81
617.304	6.78
617.639	6.81
617.973	6.8
618.308	6.8
618.642	6.77
618.977	6.75
619.311	6.74
619.646	6.77
619.98	6.76
620.314	6.78
620.648	6.78
620.983	6.86
621.317	6.9
621.651	6.96
621.985	7.02
622.319	7.07
622.653	7.02
622.987	7.05
623.321	7.04
623.655	7.05
623.988	7.11
624.322	7.12
624.656	7.12
624.99	7.19
625.323	7.18
625.657	7.23
625.99	7.25
626.324	7.28
626.657	7.25
626.991	7.24
627.324	7.25
627.658	7.27
627.991	7.27
628.324	7.24
628.657	7.22
628.991	7.2
629.324	7.17
629.657	7.19
629.99	7.19
630.323	7.2
630.656	7.15
630.989	7.21
631.322	7.23
631.655	7.2
631.987	7.14
632.32	7.14
632.653	7.06
632.986	7.07
633.318	7.09
633.651	7.08
633.984	7.1
634.316	7.09
634.649	7.13
634.981	7.15
635.313	7.17
635.646	7.19
635.978	7.26
636.31	7.32
636.643	7.3
636.975	7.32
637.307	7.28
637.639	7.32
637.971	7.2
638.303	7.15
638.635	7.12
638.967	7.15
639.299	7.22
639.631	7.25
639.963	7.23
640.295	7.25
640.626	7.29
640.958	7.35
641.29	7.34
641.621	7.23
641.953	7.18
642.285	7.2
642.616	7.19
642.948	7.14
643.279	7.1
643.61	7.1
643.942	7.02
644.273	7.05
644.604	7.02
644.936	7.02
645.267	7.09
645.598	7.1
645.929	7.14
646.26	7.12
646.591	7.13
646.922	7.12
647.253	7.09
647.584	7.07
647.915	7.01
648.245	6.95
648.576	6.98
648.907	7.02
649.238	6.96
649.568	7.03
649.899	7.05
650.229	7.09
650.56	7.15
650.89	7.22
651.221	7.22
651.551	7.22
651.882	7.31
652.212	7.26
652.542	7.28
652.872	7.26
653.203	7.26
653.533	7.26
653.863	7.22
654.193	7.2
654.523	7.2
654.853	7.23
655.183	7.24
655.513	7.26
655.843	7.23
656.172	7.25
656.502	7.24
656.832	7.22
657.162	7.24
657.491	7.17
657.821	7.18
658.15	7.16
658.48	7.2
658.809	7.16
659.139	7.17
659.468	7.18
659.798	7.18
660.127	7.22
660.456	7.26
660.785	7.3
661.115	7.34
661.444	7.36
661.773	7.36
662.102	7.45
662.431	7.49
662.76	7.47
663.089	7.5
663.418	7.47
663.747	7.43
664.076	7.42
664.404	7.39
664.733	7.44
665.062	7.48
665.39	7.46
665.719	7.42
666.048	7.43
666.376	7.41
666.705	7.37
667.033	7.37
667.362	7.39
667.69	7.37
668.018	7.33
668.347	7.28
668.675	7.29
669.003	7.24
669.331	7.32
669.659	7.44
669.987	7.43
670.315	7.36
670.643	7.47
670.971	7.45
671.299	7.59
671.627	7.52
671.955	7.52
672.283	7.46
672.61	7.54
672.938	7.62
673.266	7.65
673.593	7.69
673.921	7.61
674.249	7.68
674.576	7.67
674.904	7.72
675.231	7.73
675.558	7.73
675.886	7.7
676.213	7.55
676.54	7.51
676.867	7.58
677.195	7.63
677.522	7.58
677.849	7.59
678.176	7.55
678.503	7.5
678.83	7.48
679.157	7.45
679.484	7.46
679.81	7.36
680.137	7.42
680.464	7.4
