Data from BU57649_Reflection_00012.txt Node
Date: Tue Nov 19 10:55:53 EST 2019
User: vgr7
Spectrometer: USB2G7710
Scans to average: 3
Trigger mode: 4
Integration Time (sec): 2.000000E-2
Electric dark correction enabled: true
Boxcar width: 10
XAxis mode: Wavelengths
Number of Pixels in Spectrum: 2048
>>>>>Begin Spectral Data<<<<<
177.721	16.33
178.105	-10.35
178.488	4.82
178.871	-4.49
179.254	-7.19
179.636	12.27
180.019	6.28
180.402	1133.33
180.785	-258.82
181.168	9350
181.55	-361.04
181.933	221.3
182.316	317.79
182.698	-199.39
183.081	-109.44
183.463	-53.02
183.846	-23.99
184.228	-5.96
184.611	13.32
184.993	3.19
185.376	8.55
185.758	-6.51
186.14	-15.47
186.522	-13.91
186.904	-18.26
187.287	-21
187.669	-14
188.051	-20.56
188.433	-26.67
188.815	-20.16
189.197	-18.94
189.579	-23.24
189.961	-27.23
190.342	-24.45
190.724	-26.66
191.106	-35.22
191.488	-33.21
191.869	-46.02
192.251	-48.41
192.633	-65.72
193.014	-52.67
193.396	-55.87
193.777	-33.6
194.159	-41.92
194.54	-33.01
194.922	-42.08
195.303	-45.18
195.684	-65.81
196.065	-76.73
196.447	-53.49
196.828	-68.41
197.209	-52.58
197.59	-48.25
197.971	-46.08
198.352	-41.86
198.733	-45.06
199.114	-44.46
199.495	-52.08
199.876	-44.1
200.257	-52.96
200.638	-43.16
201.018	-43.15
201.399	-42.75
201.78	-47.17
202.16	-46.06
202.541	-49.02
202.922	-42.3
203.302	-46.16
203.683	-44.2
204.063	-39.51
204.444	-51.84
204.824	-48.14
205.204	-39.88
205.585	-40.85
205.965	-38.67
206.345	-49.2
206.725	-42.22
207.106	-44.36
207.486	-39.28
207.866	-36.6
208.246	-31.6
208.626	-38.58
209.006	-42.19
209.386	-44.51
209.766	-40.77
210.145	-39.3
210.525	-46.32
210.905	-43.11
211.285	-31.12
211.664	-25.1
212.044	-23.6
212.424	-10.15
212.803	-12.34
213.183	-32.67
213.562	-17.34
213.942	-19.23
214.321	-10.7
214.701	-15.81
215.08	-10.06
215.459	-7.6
215.838	-10.98
216.218	-18.29
216.597	-16.1
216.976	-29.07
217.355	-29.01
217.734	-37.85
218.113	-32.14
218.492	-29.24
218.871	-38.13
219.25	-52.4
219.629	-65.68
220.008	-64.71
220.387	-69.16
220.766	-67.65
221.144	-56.54
221.523	-68.57
221.902	-57.89
222.28	-56.06
222.659	-43.03
223.037	-37.73
223.416	-45.73
223.794	-40
224.173	-37.01
224.551	-32.33
224.929	-27.05
225.308	-24.17
225.686	-20.42
226.064	-22.92
226.442	-14.39
226.821	-13.74
227.199	-14.92
227.577	-11.93
227.955	-9.98
228.333	-12.12
228.711	-13
229.089	-10.44
229.467	-14.11
229.845	-12.78
230.222	-9.24
230.6	-11.37
230.978	-11.36
231.356	-8.85
231.733	-7.56
232.111	-5.3
232.488	-5.59
232.866	-4.13
233.243	-4.68
233.621	-4.08
233.998	-3.36
234.376	-4.6
234.753	-1.68
235.13	-1.6
235.508	-0.98
235.885	0.5
236.262	1.12
236.639	1.18
237.016	0.58
237.393	1.98
237.77	2.42
238.147	1.46
238.524	1.25
238.901	0.9
239.278	1.08
239.655	0.98
240.032	1.04
240.409	1.13
240.785	0.8
241.162	1.44
241.539	1.35
241.915	1.59
242.292	1.71
242.668	1.6
243.045	2.26
243.421	2.47
243.798	2.54
244.174	2.75
244.551	2.8
244.927	2.98
245.303	2.98
245.679	2.73
246.056	2.82
246.432	2.74
246.808	3.03
247.184	3.04
247.56	2.96
247.936	2.78
248.312	2.96
248.688	3.08
249.064	3.08
249.44	2.86
249.815	2.89
250.191	2.94
250.567	2.96
250.943	2.96
251.318	2.61
251.694	2.54
252.069	2.49
252.445	2.21
252.82	2.25
253.196	2.26
253.571	2.46
253.947	2.07
254.322	2.06
254.697	1.85
255.073	1.66
255.448	1.77
255.823	2.27
256.198	2.19
256.573	2.33
256.948	2.32
257.323	2.63
257.698	2.63
258.073	2.56
258.448	2.59
258.823	2.44
259.198	2.69
259.573	2.54
259.948	2.67
260.322	2.77
260.697	2.78
261.072	2.87
261.446	2.95
261.821	3.2
262.195	3.31
262.57	3.43
262.944	3.54
263.319	3.62
263.693	3.32
264.067	3.33
264.442	3.43
264.816	3.22
265.19	3.29
265.564	3.07
265.938	3.22
266.313	3.07
266.687	3.19
267.061	3.14
267.435	3.37
267.809	3.19
268.183	3.2
268.556	3.15
268.93	3.09
269.304	2.93
269.678	2.97
270.051	2.93
270.425	2.85
270.799	2.69
271.172	2.67
271.546	2.85
271.919	2.94
272.293	2.77
272.666	2.91
273.04	2.8
273.413	2.97
273.787	2.91
274.16	2.94
274.533	2.99
274.906	2.98
275.279	2.9
275.653	2.83
276.026	2.91
276.399	2.97
276.772	2.93
277.145	2.89
277.518	2.71
277.891	2.72
278.263	2.65
278.636	2.79
279.009	2.87
279.382	2.8
279.755	2.77
280.127	2.81
280.5	2.93
280.872	2.99
281.245	2.91
281.617	2.8
281.99	2.91
282.362	2.83
282.735	2.73
283.107	2.55
283.479	2.62
283.852	2.57
284.224	2.47
284.596	2.41
284.968	2.43
285.34	2.47
285.713	2.52
286.085	2.57
286.457	2.56
286.829	2.47
287.201	2.56
287.572	2.63
287.944	2.72
288.316	2.7
288.688	2.67
289.06	2.76
289.431	2.96
289.803	2.9
290.175	2.92
290.546	2.93
290.918	3.11
291.289	3.15
291.661	3.23
292.032	3.44
292.403	3.43
292.775	3.59
293.146	3.67
293.517	3.66
293.889	3.7
294.26	3.62
294.631	3.64
295.002	3.58
295.373	3.42
295.744	3.4
296.115	3.43
296.486	3.49
296.857	3.49
297.228	3.32
297.599	3.4
297.97	3.42
298.34	3.45
298.711	3.42
299.082	3.34
299.452	3.36
299.823	3.28
300.194	3.32
300.564	3.24
300.935	3.21
301.305	3.23
301.676	3.15
302.046	3.27
302.416	3.41
302.787	3.44
303.157	3.58
303.527	3.66
303.897	3.74
304.267	3.74
304.637	3.79
305.008	3.85
305.378	3.87
305.748	3.95
306.117	4.11
306.487	4.26
306.857	4.4
307.227	4.6
307.597	4.73
307.967	4.89
308.336	5.03
308.706	5.03
309.076	5.13
309.445	5.39
309.815	5.54
310.184	5.53
310.554	5.61
310.923	5.54
311.293	5.56
311.662	5.57
312.031	5.6
312.401	5.65
312.77	5.62
313.139	5.55
313.508	5.59
313.877	5.53
314.246	5.48
314.616	5.55
314.985	5.49
315.353	5.45
315.722	5.55
316.091	5.55
316.46	5.55
316.829	5.49
317.198	5.35
317.567	5.54
317.935	5.69
318.304	5.78
318.672	5.9
319.041	5.99
319.41	5.84
319.778	5.96
320.147	5.99
320.515	6.29
320.883	6.41
321.252	6.31
321.62	6.58
321.988	6.74
322.357	6.66
322.725	6.62
323.093	6.62
323.461	6.5
323.829	6.43
324.197	6.51
324.565	6.65
324.933	6.76
325.301	6.44
325.669	6.4
326.037	6.41
326.405	6.59
326.772	6.61
327.14	6.82
327.508	6.7
327.875	6.66
328.243	6.65
328.61	6.75
328.978	6.81
329.346	6.75
329.713	6.81
330.08	6.96
330.448	7.04
330.815	6.97
331.182	6.96
331.55	7.15
331.917	7.27
332.284	7.33
332.651	7.29
333.018	7.46
333.385	7.52
333.752	7.48
334.119	7.45
334.486	7.41
334.853	7.29
335.22	7.39
335.587	7.41
335.954	7.36
336.32	7.36
336.687	7.44
337.054	7.41
337.42	7.32
337.787	7.39
338.153	7.34
338.52	7.51
338.886	7.6
339.253	7.41
339.619	7.46
339.986	7.27
340.352	7.43
340.718	7.48
341.084	7.46
341.451	7.48
341.817	7.54
342.183	7.51
342.549	7.76
342.915	7.77
343.281	7.82
343.647	7.84
344.013	7.83
344.379	7.88
344.745	7.92
345.11	8.01
345.476	7.97
345.842	8.01
346.208	7.97
346.573	7.96
346.939	8.11
347.304	8.08
347.67	8.18
348.035	8.04
348.401	7.99
348.766	7.94
349.132	8
349.497	7.97
349.862	7.98
350.228	7.89
350.593	7.98
350.958	8.02
351.323	8.04
351.688	8.07
352.053	8
352.418	7.99
352.783	7.93
353.148	7.91
353.513	7.83
353.878	7.88
354.243	7.88
354.608	7.93
354.972	7.89
355.337	7.84
355.702	7.9
356.066	7.86
356.431	7.83
356.795	7.84
357.16	7.81
357.524	7.79
357.889	7.76
358.253	7.66
358.618	7.59
358.982	7.58
359.346	7.57
359.71	7.56
360.075	7.62
360.439	7.62
360.803	7.66
361.167	7.69
361.531	7.62
361.895	7.61
362.259	7.56
362.623	7.56
362.987	7.59
363.351	7.5
363.714	7.54
364.078	7.55
364.442	7.48
364.806	7.37
365.169	7.37
365.533	7.37
365.896	7.37
366.26	7.3
366.623	7.28
366.987	7.22
367.35	7.18
367.714	7.06
368.077	7.04
368.44	7.01
368.803	6.89
369.167	6.83
369.53	6.78
369.893	6.71
370.256	6.6
370.619	6.52
370.982	6.5
371.345	6.41
371.708	6.39
372.071	6.33
372.434	6.33
372.797	6.27
373.159	6.08
373.522	6.02
373.885	6.03
374.247	5.92
374.61	5.89
374.973	5.87
375.335	5.83
375.698	5.75
376.06	5.65
376.423	5.66
376.785	5.61
377.147	5.55
377.51	5.53
377.872	5.5
378.234	5.42
378.596	5.33
378.958	5.23
379.321	5.14
379.683	5.14
380.045	5.09
380.407	5.02
380.769	4.98
381.13	4.94
381.492	4.88
381.854	4.94
382.216	4.9
382.578	4.86
382.939	4.77
383.301	4.71
383.663	4.68
384.024	4.64
384.386	4.62
384.747	4.59
385.109	4.53
385.47	4.56
385.832	4.55
386.193	4.61
386.554	4.57
386.916	4.52
387.277	4.47
387.638	4.48
387.999	4.43
388.36	4.47
388.721	4.44
389.082	4.44
389.443	4.37
389.804	4.3
390.165	4.29
390.526	4.28
390.887	4.27
391.248	4.24
391.609	4.26
391.969	4.2
392.33	4.17
392.691	4.16
393.051	4.13
393.412	4.14
393.772	4.1
394.133	4.06
394.493	4.06
394.854	4.04
395.214	4
395.574	3.98
395.935	3.92
396.295	3.89
396.655	3.88
397.015	3.82
397.376	3.81
397.736	3.75
398.096	3.74
398.456	3.71
398.816	3.67
399.176	3.58
399.535	3.6
399.895	3.59
400.255	3.55
400.615	3.5
400.975	3.44
401.334	3.42
401.694	3.46
402.054	3.46
402.413	3.43
402.773	3.41
403.132	3.42
403.492	3.4
403.851	3.38
404.211	3.34
404.57	3.36
404.929	3.34
405.288	3.35
405.648	3.34
406.007	3.35
406.366	3.34
406.725	3.35
407.084	3.33
407.443	3.33
407.802	3.31
408.161	3.32
408.52	3.32
408.879	3.31
409.238	3.25
409.596	3.26
409.955	3.24
410.314	3.22
410.673	3.2
411.031	3.22
411.39	3.23
411.748	3.24
412.107	3.21
412.465	3.21
412.824	3.19
413.182	3.18
413.54	3.17
413.899	3.18
414.257	3.17
414.615	3.19
414.974	3.15
415.332	3.15
415.69	3.12
416.048	3.13
416.406	3.11
416.764	3.15
417.122	3.13
417.48	3.14
417.838	3.16
418.195	3.15
418.553	3.16
418.911	3.13
419.269	3.12
419.626	3.12
419.984	3.11
420.342	3.11
420.699	3.11
421.057	3.11
421.414	3.09
421.772	3.08
422.129	3.07
422.486	3.07
422.844	3.06
423.201	3.06
423.558	3.06
423.915	3.04
424.273	3.02
424.63	3.04
424.987	3.03
425.344	3.01
425.701	3.01
426.058	2.98
426.415	3.01
426.772	3
427.128	2.99
427.485	3
427.842	2.98
428.199	2.97
428.555	2.97
428.912	2.97
429.269	2.98
429.625	2.97
429.982	2.98
430.338	2.99
430.695	2.98
431.051	2.96
431.407	2.97
431.764	2.96
432.12	2.93
432.476	2.92
432.832	2.92
433.189	2.92
433.545	2.93
433.901	2.92
434.257	2.9
434.613	2.9
434.969	2.9
435.325	2.9
435.681	2.89
436.036	2.87
436.392	2.89
436.748	2.9
437.104	2.88
437.459	2.86
437.815	2.87
438.171	2.89
438.526	2.89
438.882	2.89
439.237	2.88
439.593	2.9
439.948	2.9
440.304	2.88
440.659	2.88
441.014	2.88
441.369	2.88
441.725	2.89
442.08	2.89
442.435	2.89
442.79	2.89
443.145	2.88
443.5	2.89
443.855	2.87
444.21	2.87
444.565	2.86
444.92	2.87
445.275	2.86
445.629	2.85
445.984	2.85
446.339	2.86
446.693	2.87
447.048	2.83
447.403	2.83
447.757	2.85
448.112	2.85
448.466	2.85
448.82	2.83
449.175	2.83
449.529	2.83
449.883	2.81
450.238	2.81
450.592	2.82
450.946	2.8
451.3	2.81
451.654	2.8
452.008	2.81
452.362	2.81
452.716	2.79
453.07	2.79
453.424	2.79
453.778	2.79
454.132	2.77
454.486	2.81
454.839	2.82
455.193	2.81
455.547	2.81
455.9	2.81
456.254	2.81
456.607	2.8
456.961	2.81
457.314	2.82
457.668	2.82
458.021	2.83
458.375	2.84
458.728	2.82
459.081	2.82
459.434	2.81
459.787	2.8
460.141	2.82
460.494	2.84
460.847	2.82
461.2	2.82
461.553	2.83
461.906	2.82
462.259	2.8
462.611	2.78
462.964	2.79
463.317	2.79
463.67	2.82
464.022	2.83
464.375	2.81
464.728	2.81
465.08	2.82
465.433	2.82
465.785	2.84
466.138	2.85
466.49	2.87
466.843	2.88
467.195	2.89
467.547	2.9
467.899	2.9
468.252	2.88
468.604	2.9
468.956	2.92
469.308	2.92
469.66	2.94
470.012	2.97
470.364	2.96
470.716	2.98
471.068	2.97
471.42	2.99
471.772	3
472.123	3.02
472.475	3.03
472.827	3.04
473.178	3.03
473.53	3.05
473.882	3.04
474.233	3.04
474.585	3.04
474.936	3.04
475.288	3.02
475.639	3.04
475.99	3.03
476.342	3.01
476.693	3.02
477.044	3.03
477.395	3.01
477.746	3
478.097	2.99
478.448	2.98
478.8	2.96
479.15	2.96
479.501	2.94
479.852	2.93
480.203	2.91
480.554	2.91
480.905	2.91
481.255	2.9
481.606	2.92
481.957	2.92
482.307	2.91
482.658	2.92
483.009	2.93
483.359	2.94
483.709	2.95
484.06	2.95
484.41	2.96
484.761	2.96
485.111	2.97
485.461	2.98
485.811	2.97
486.162	2.98
486.512	2.98
486.862	2.98
487.212	2.99
487.562	3
487.912	3.01
488.262	3.01
488.612	3.01
488.961	3.01
489.311	3.02
489.661	3.03
490.011	3.03
490.36	3.02
490.71	3.02
491.06	3.01
491.409	3.02
491.759	3.01
492.108	3.02
492.458	3.01
492.807	2.99
493.157	3.01
493.506	3.01
493.855	3
494.204	3.01
494.554	3.01
494.903	3.02
495.252	3.03
495.601	3.04
495.95	3.05
496.299	3.05
496.648	3.08
496.997	3.09
497.346	3.12
497.695	3.14
498.043	3.17
498.392	3.16
498.741	3.18
499.09	3.22
499.438	3.22
499.787	3.27
500.135	3.31
500.484	3.33
500.832	3.36
501.181	3.4
501.529	3.42
501.878	3.46
502.226	3.51
502.574	3.54
502.923	3.58
503.271	3.6
503.619	3.66
503.967	3.67
504.315	3.72
504.663	3.75
505.011	3.78
505.359	3.81
505.707	3.87
506.055	3.92
506.403	3.98
506.751	4.04
507.098	4.08
507.446	4.15
507.794	4.18
508.141	4.23
508.489	4.29
508.837	4.36
509.184	4.41
509.531	4.48
509.879	4.54
510.226	4.62
510.574	4.69
510.921	4.73
511.268	4.8
511.616	4.86
511.963	4.92
512.31	5.01
512.657	5.1
513.004	5.19
513.351	5.27
513.698	5.33
514.045	5.44
514.392	5.54
514.739	5.64
515.086	5.76
515.432	5.86
515.779	5.97
516.126	6.08
516.473	6.16
516.819	6.24
517.166	6.31
517.512	6.37
517.859	6.48
518.205	6.55
518.552	6.63
518.898	6.71
519.245	6.82
519.591	6.89
519.937	6.98
520.283	7.05
520.629	7.13
520.976	7.21
521.322	7.3
521.668	7.39
522.014	7.51
522.36	7.6
522.706	7.72
523.052	7.82
523.398	7.95
523.743	8.08
524.089	8.23
524.435	8.35
524.781	8.48
525.126	8.58
525.472	8.7
525.817	8.8
526.163	8.89
526.509	8.96
526.854	9.04
527.199	9.11
527.545	9.2
527.89	9.29
528.235	9.38
528.581	9.44
528.926	9.51
529.271	9.58
529.616	9.66
529.961	9.73
530.306	9.82
530.651	9.88
530.996	9.97
531.341	10.06
531.686	10.15
532.031	10.23
532.376	10.34
532.721	10.44
533.065	10.56
533.41	10.66
533.755	10.78
534.099	10.91
534.444	11.03
534.788	11.12
535.133	11.22
535.477	11.34
535.822	11.47
536.166	11.62
536.51	11.75
536.855	11.91
537.199	12.09
537.543	12.26
537.887	12.44
538.231	12.6
538.576	12.75
538.92	12.92
539.264	13.09
539.608	13.24
539.951	13.36
540.295	13.5
540.639	13.64
540.983	13.77
541.327	13.9
541.671	14.03
542.014	14.19
542.358	14.32
542.701	14.46
543.045	14.59
543.389	14.72
543.732	14.86
544.075	15
544.419	15.13
544.762	15.25
545.105	15.42
545.449	15.61
545.792	15.79
546.135	15.98
546.478	16.17
546.821	16.39
547.165	16.62
547.508	16.81
547.851	17.01
548.194	17.22
548.536	17.43
548.879	17.67
549.222	17.9
549.565	18.13
549.908	18.33
550.25	18.57
550.593	18.81
550.936	19.07
551.278	19.29
551.621	19.53
551.963	19.79
552.306	20.02
552.648	20.26
552.991	20.48
553.333	20.7
553.675	20.93
554.017	21.12
554.36	21.35
554.702	21.61
555.044	21.86
555.386	22.12
555.728	22.38
556.07	22.62
556.412	22.87
556.754	23.12
557.096	23.42
557.438	23.64
557.78	23.91
558.121	24.2
558.463	24.47
558.805	24.77
559.147	25
559.488	25.31
559.83	25.56
560.171	25.8
560.513	26.04
560.854	26.35
561.196	26.69
561.537	26.98
561.878	27.25
562.22	27.55
562.561	27.84
562.902	28.07
563.243	28.36
563.584	28.59
563.925	28.86
564.266	29.12
564.607	29.37
564.948	29.62
565.289	29.88
565.63	30.1
565.971	30.33
566.312	30.63
566.653	30.86
566.993	31.13
567.334	31.44
567.675	31.74
568.015	31.99
568.356	32.19
568.696	32.44
569.037	32.64
569.377	32.9
569.718	33.12
570.058	33.44
570.398	33.69
570.739	33.94
571.079	34.19
571.419	34.39
571.759	34.64
572.099	34.86
572.439	35.1
572.779	35.38
573.119	35.64
573.459	35.83
573.799	36.03
574.139	36.24
574.479	36.43
574.819	36.62
575.158	36.82
575.498	37.04
575.838	37.25
576.177	37.5
576.517	37.72
576.856	37.95
577.196	38.13
577.535	38.34
577.875	38.6
578.214	38.84
578.553	39.06
578.893	39.27
579.232	39.5
579.571	39.68
579.91	39.88
580.25	40.06
580.589	40.23
580.928	40.54
581.267	40.76
581.606	41.03
581.945	41.24
582.283	41.49
582.622	41.73
582.961	41.92
583.3	42.11
583.639	42.28
583.977	42.47
584.316	42.71
584.654	42.88
584.993	43.03
585.332	43.25
585.67	43.49
586.008	43.71
586.347	43.84
586.685	44.02
587.024	44.21
587.362	44.41
587.7	44.65
588.038	44.74
588.376	44.88
588.715	45.02
589.053	45.14
589.391	45.22
589.729	45.39
590.067	45.56
590.404	45.75
590.742	45.88
591.08	46.07
591.418	46.11
591.756	46.3
592.093	46.42
592.431	46.55
592.769	46.69
593.106	46.77
593.444	47
593.781	47.19
594.119	47.33
594.456	47.42
594.793	47.52
595.131	47.68
595.468	47.81
595.805	47.9
596.143	48.06
596.48	48.2
596.817	48.23
597.154	48.33
597.491	48.45
597.828	48.58
598.165	48.71
598.502	48.92
598.839	49.03
599.176	49.19
599.512	49.37
599.849	49.47
600.186	49.65
600.523	49.8
600.859	49.9
601.196	50
601.532	50.07
601.869	50.26
602.205	50.31
602.542	50.38
602.878	50.48
603.215	50.54
603.551	50.69
603.887	50.84
604.223	50.92
604.56	50.94
604.896	51.03
605.232	51.1
605.568	51.15
605.904	51.21
606.24	51.29
606.576	51.34
606.912	51.45
607.248	51.55
607.583	51.61
607.919	51.66
608.255	51.74
608.591	51.95
608.926	51.96
609.262	52.07
609.597	52.18
609.933	52.29
610.268	52.39
610.604	52.36
610.939	52.44
611.275	52.57
611.61	52.63
611.945	52.72
612.281	52.76
612.616	52.9
612.951	52.96
613.286	53.02
613.621	53.07
613.956	53.11
614.291	53.15
614.626	53.2
614.961	53.43
615.296	53.5
615.631	53.51
615.966	53.54
616.3	53.61
616.635	53.7
616.97	53.63
617.304	53.73
617.639	53.8
617.973	53.82
618.308	53.88
618.642	54.07
618.977	54.15
619.311	54.22
619.646	54.18
619.98	54.32
620.314	54.38
620.648	54.49
620.983	54.58
621.317	54.66
621.651	54.74
621.985	54.72
622.319	54.8
622.653	54.9
622.987	54.92
623.321	54.95
623.655	55.03
623.988	55.09
624.322	55
624.656	55.09
624.99	55.16
625.323	55.11
625.657	55.06
625.99	55.06
626.324	54.98
626.657	54.97
626.991	54.97
627.324	55.02
627.658	55.02
627.991	55.09
628.324	55.11
628.657	55.07
628.991	55.06
629.324	55.03
629.657	55.02
629.99	55.07
630.323	55.18
630.656	55.11
630.989	55.3
631.322	55.36
631.655	55.38
631.987	55.35
632.32	55.42
632.653	55.51
632.986	55.61
633.318	55.8
633.651	55.83
633.984	55.89
634.316	55.9
634.649	55.92
634.981	55.9
635.313	55.91
635.646	56.03
635.978	56.09
636.31	56.21
636.643	56.24
636.975	56.33
637.307	56.26
637.639	56.39
637.971	56.35
638.303	56.5
638.635	56.6
638.967	56.66
639.299	56.71
639.631	56.74
639.963	56.72
640.295	56.63
640.626	56.67
640.958	56.64
641.29	56.62
641.621	56.63
641.953	56.65
642.285	56.78
642.616	56.71
642.948	56.75
643.279	56.69
643.61	56.76
643.942	56.72
644.273	56.8
644.604	56.75
644.936	56.69
645.267	56.69
645.598	56.56
645.929	56.56
646.26	56.5
646.591	56.43
646.922	56.43
647.253	56.44
647.584	56.59
647.915	56.57
648.245	56.64
648.576	56.71
648.907	56.76
649.238	56.62
649.568	56.68
649.899	56.62
650.229	56.6
650.56	56.61
650.89	56.66
651.221	56.6
651.551	56.75
651.882	56.84
652.212	56.82
652.542	56.89
652.872	56.94
653.203	56.97
653.533	57.08
653.863	57.08
654.193	57.21
654.523	57.19
654.853	57.25
655.183	57.33
655.513	57.3
655.843	57.4
656.172	57.66
656.502	57.69
656.832	57.71
657.162	57.77
657.491	57.81
657.821	57.85
658.15	57.92
658.48	57.83
658.809	57.82
659.139	57.87
659.468	57.83
659.798	57.86
660.127	57.9
660.456	57.89
660.785	57.9
661.115	57.9
661.444	57.89
661.773	57.88
662.102	57.83
662.431	57.8
662.76	57.75
663.089	57.65
663.418	57.68
663.747	57.72
664.076	57.72
664.404	57.68
664.733	57.74
665.062	57.76
665.39	57.75
665.719	57.84
666.048	57.79
666.376	57.94
666.705	58.02
667.033	58.12
667.362	58.14
667.69	58.24
668.018	58.27
