Data from BU57737_Reflection_00011.txt Node
Date: Mon Nov 18 16:30:01 EST 2019
User: vgr7
Spectrometer: USB2G7710
Scans to average: 3
Trigger mode: 4
Integration Time (sec): 2.000000E-2
Electric dark correction enabled: true
Boxcar width: 10
XAxis mode: Wavelengths
Number of Pixels in Spectrum: 2048
>>>>>Begin Spectral Data<<<<<
177.721	-17.07
178.105	258.73
178.488	80.56
178.871	56.88
179.254	36.63
179.636	-131.29
180.019	-11.66
180.402	50
180.785	-159.97
181.168	-804.76
181.55	274.17
181.933	107.67
182.316	86.58
182.698	95.43
183.081	193.12
183.463	261.62
183.846	86.44
184.228	89.7
184.611	108.03
184.993	145.71
185.376	89.88
185.758	109.93
186.14	102.07
186.522	92.48
186.904	84.86
187.287	81.76
187.669	92.13
188.051	140.74
188.433	217.74
188.815	179.73
189.197	148.62
189.579	118.86
189.961	293.76
190.342	365.11
190.724	504.2
191.106	-2914.49
191.488	77433.33
191.869	-270.37
192.251	-412.16
192.633	-268.19
193.014	-129.64
193.396	-161.44
193.777	-152.18
194.159	-168.64
194.54	-101.57
194.922	-92.1
195.303	-80.9
195.684	-67.57
196.065	-56.34
196.447	-67.05
196.828	-80.22
197.209	-50.5
197.59	-42.37
197.971	-36.98
198.352	-34.15
198.733	-36.93
199.114	-37.8
199.495	-40.68
199.876	-44.97
200.257	-25.6
200.638	-12.19
201.018	-25.79
201.399	-17.02
201.78	-21.55
202.16	-21.59
202.541	-73.82
202.922	-63.11
203.302	-88.22
203.683	-155.35
204.063	-258.07
204.444	-667.51
204.824	-232.17
205.204	-388.89
205.585	-349.22
205.965	-229.97
206.345	-537.81
206.725	-850.54
207.106	-901.93
207.486	-787.92
207.866	-1754.79
208.246	15493.94
208.626	63877.78
209.006	-1020.72
209.386	4840.74
209.766	1485.34
210.145	2132.36
210.525	-379.66
210.905	-342.52
211.285	-223.31
211.664	-165.04
212.044	-163.38
212.424	-135.33
212.803	-193.97
213.183	-162.97
213.562	-135.54
213.942	-136.1
214.321	-97.23
214.701	-76.61
215.08	-64.04
215.459	-50.27
215.838	-38.6
216.218	-51.06
216.597	-38.51
216.976	-20.83
217.355	-7.79
217.734	-3.94
218.113	-1.22
218.492	6.4
218.871	0.35
219.25	-21.91
219.629	-40.2
220.008	-33.78
220.387	-24.97
220.766	-9.34
221.144	-18.41
221.523	-31.95
221.902	-31.19
222.28	-45.96
222.659	-42.9
223.037	-27.94
223.416	-38.56
223.794	-58.96
224.173	-40.61
224.551	-34.13
224.929	-38.92
225.308	-32.87
225.686	-31.66
226.064	-27.09
226.442	-28.91
226.821	-23.31
227.199	-16.64
227.577	-13.36
227.955	-12.42
228.333	-12.53
228.711	-11.63
229.089	-10.75
229.467	-10.9
229.845	-11.41
230.222	-7.15
230.6	-6.15
230.978	-5.49
231.356	-0.86
231.733	0.32
232.111	-0.8
232.488	0.54
232.866	-0.54
233.243	-2.05
233.621	-1.31
233.998	-1.81
234.376	-2.16
234.753	-4.55
235.13	-4.27
235.508	-4.75
235.885	-4.38
236.262	-4.31
236.639	-5.44
237.016	-4.84
237.393	-3.93
237.77	-2.71
238.147	-2.16
238.524	-1.48
238.901	-0.23
239.278	0.09
239.655	1.24
240.032	1.51
240.409	0.81
240.785	1.51
241.162	2.2
241.539	2.2
241.915	2.67
242.292	2.99
242.668	3.12
243.045	3.34
243.421	3.73
243.798	3.6
244.174	3.63
244.551	3.93
244.927	3.7
245.303	3.99
245.679	3.85
246.056	3.94
246.432	3.44
246.808	3.27
247.184	2.98
247.56	2.65
247.936	2.59
248.312	2.65
248.688	2.53
249.064	2.36
249.44	2.54
249.815	2.51
250.191	2.67
250.567	2.82
250.943	2.72
251.318	2.65
251.694	2.8
252.069	2.78
252.445	2.61
252.82	2.8
253.196	2.64
253.571	2.47
253.947	2.33
254.322	3.12
254.697	3.22
255.073	3.13
255.448	3.39
255.823	3.43
256.198	3.46
256.573	3.26
256.948	3.44
257.323	3.52
257.698	3.5
258.073	3.39
258.448	3.35
258.823	3.25
259.198	3.19
259.573	3.24
259.948	3.16
260.322	3.25
260.697	3.08
261.072	3.04
261.446	3.17
261.821	3.23
262.195	2.98
262.57	2.92
262.944	2.94
263.319	2.94
263.693	2.92
264.067	3
264.442	3.23
264.816	3.21
265.19	2.96
265.564	2.81
265.938	2.77
266.313	2.74
266.687	2.8
267.061	2.76
267.435	2.63
267.809	2.75
268.183	2.75
268.556	2.85
268.93	2.87
269.304	2.91
269.678	2.94
270.051	2.85
270.425	2.91
270.799	3.07
271.172	3.13
271.546	3.23
271.919	3.23
272.293	3.22
272.666	3.19
273.04	3.32
273.413	3.3
273.787	3.39
274.16	3.52
274.533	3.57
274.906	3.49
275.279	3.44
275.653	3.38
276.026	3.4
276.399	3.28
276.772	3.4
277.145	3.2
277.518	3.21
277.891	3.46
278.263	3.37
278.636	3.18
279.009	3.07
279.382	3.16
279.755	3.13
280.127	3.22
280.5	3.27
280.872	3.3
281.245	3.25
281.617	3.32
281.99	3.33
282.362	3.27
282.735	3.3
283.107	3.35
283.479	3.24
283.852	3.13
284.224	3.25
284.596	3.09
284.968	3.27
285.34	3.15
285.713	3.07
286.085	3.18
286.457	3.33
286.829	3.31
287.201	3.27
287.572	3.22
287.944	3.05
288.316	2.96
288.688	2.89
289.06	2.99
289.431	2.83
289.803	2.77
290.175	2.88
290.546	2.93
290.918	2.93
291.289	3.16
291.661	3.29
292.032	3.25
292.403	3.35
292.775	3.24
293.146	3.18
293.517	3.08
293.889	3.06
294.26	3.04
294.631	3.11
295.002	3.13
295.373	3.21
295.744	3.24
296.115	3.35
296.486	3.19
296.857	3.12
297.228	3.18
297.599	3.14
297.97	3.08
298.34	3.09
298.711	3.19
299.082	3.14
299.452	3.09
299.823	3.2
300.194	3.17
300.564	3.24
300.935	3.35
301.305	3.37
301.676	3.37
302.046	3.3
302.416	3.4
302.787	3.39
303.157	3.44
303.527	3.43
303.897	3.39
304.267	3.67
304.637	3.9
305.008	4.02
305.378	4.23
305.748	4.23
306.117	4.17
306.487	4.15
306.857	4.12
307.227	4.14
307.597	4.1
307.967	4.11
308.336	4.19
308.706	4.24
309.076	4.35
309.445	4.39
309.815	4.44
310.184	4.41
310.554	4.4
310.923	4.38
311.293	4.46
311.662	4.55
312.031	4.5
312.401	4.44
312.77	4.48
313.139	4.51
313.508	4.66
313.877	4.69
314.246	4.6
314.616	4.77
314.985	4.85
315.353	4.81
315.722	4.98
316.091	5.01
316.46	4.99
316.829	5.02
317.198	5.07
317.567	5.17
317.935	5.03
318.304	5.2
318.672	5.26
319.041	5.44
319.41	5.36
319.778	5.51
320.147	5.47
320.515	5.57
320.883	5.41
321.252	5.23
321.62	5.37
321.988	5.44
322.357	5.39
322.725	5.42
323.093	5.65
323.461	5.6
323.829	5.54
324.197	5.7
324.565	5.72
324.933	5.69
325.301	5.7
325.669	5.84
326.037	5.82
326.405	5.77
326.772	5.7
327.14	5.84
327.508	5.84
327.875	5.89
328.243	5.72
328.61	5.69
328.978	5.82
329.346	5.85
329.713	5.89
330.08	5.93
330.448	5.9
330.815	5.74
331.182	5.81
331.55	5.81
331.917	5.76
332.284	5.88
332.651	5.82
333.018	5.89
333.385	5.8
333.752	5.9
334.119	6.11
334.486	6.11
334.853	6.04
335.22	5.98
335.587	6.07
335.954	6.15
336.32	6.22
336.687	6.29
337.054	6.27
337.42	6.35
337.787	6.34
338.153	6.32
338.52	6.6
338.886	6.55
339.253	6.52
339.619	6.57
339.986	6.51
340.352	6.57
340.718	6.49
341.084	6.5
341.451	6.42
341.817	6.29
342.183	6.33
342.549	6.39
342.915	6.44
343.281	6.39
343.647	6.38
344.013	6.44
344.379	6.37
344.745	6.37
345.11	6.34
345.476	6.38
345.842	6.41
346.208	6.3
346.573	6.28
346.939	6.52
347.304	6.51
347.67	6.46
348.035	6.44
348.401	6.44
348.766	6.53
349.132	6.55
349.497	6.59
349.862	6.66
350.228	6.63
350.593	6.58
350.958	6.63
351.323	6.64
351.688	6.69
352.053	6.74
352.418	6.85
352.783	6.88
353.148	6.8
353.513	6.74
353.878	6.78
354.243	6.8
354.608	6.72
354.972	6.69
355.337	6.76
355.702	6.84
356.066	6.86
356.431	6.76
356.795	6.75
357.16	6.74
357.524	6.57
357.889	6.57
358.253	6.61
358.618	6.6
358.982	6.57
359.346	6.51
359.71	6.43
360.075	6.34
360.439	6.34
360.803	6.27
361.167	6.28
361.531	6.15
361.895	6.07
362.259	5.95
362.623	5.95
362.987	5.89
363.351	5.82
363.714	5.86
364.078	5.91
364.442	5.88
364.806	5.82
365.169	5.84
365.533	5.79
365.896	5.74
366.26	5.66
366.623	5.63
366.987	5.5
367.35	5.53
367.714	5.46
368.077	5.39
368.44	5.42
368.803	5.39
369.167	5.38
369.53	5.35
369.893	5.4
370.256	5.38
370.619	5.37
370.982	5.34
371.345	5.3
371.708	5.25
372.071	5.15
372.434	5.08
372.797	5.05
373.159	4.96
373.522	4.95
373.885	4.98
374.247	4.93
374.61	4.96
374.973	4.92
375.335	4.91
375.698	4.87
376.06	4.82
376.423	4.77
376.785	4.79
377.147	4.79
377.51	4.72
377.872	4.66
378.234	4.62
378.596	4.53
378.958	4.44
379.321	4.4
379.683	4.43
380.045	4.39
380.407	4.39
380.769	4.42
381.13	4.39
381.492	4.35
381.854	4.37
382.216	4.31
382.578	4.25
382.939	4.17
383.301	4.14
383.663	4.13
384.024	4.11
384.386	4.06
384.747	4.06
385.109	4.04
385.47	4.02
385.832	4.02
386.193	4.05
386.554	4.01
386.916	4
387.277	3.98
387.638	3.98
387.999	3.9
388.36	3.82
388.721	3.83
389.082	3.79
389.443	3.76
389.804	3.73
390.165	3.67
390.526	3.7
390.887	3.69
391.248	3.7
391.609	3.67
391.969	3.65
392.33	3.63
392.691	3.62
393.051	3.59
393.412	3.56
393.772	3.53
394.133	3.56
394.493	3.49
394.854	3.42
395.214	3.43
395.574	3.42
395.935	3.42
396.295	3.37
396.655	3.34
397.015	3.31
397.376	3.31
397.736	3.3
398.096	3.27
398.456	3.23
398.816	3.19
399.176	3.21
399.535	3.18
399.895	3.17
400.255	3.15
400.615	3.14
400.975	3.09
401.334	3.05
401.694	3.03
402.054	3.03
402.413	3.05
402.773	2.99
403.132	3
403.492	2.98
403.851	2.99
404.211	2.97
404.57	2.96
404.929	2.97
405.288	2.98
405.648	2.95
406.007	2.95
406.366	2.92
406.725	2.9
407.084	2.88
407.443	2.86
407.802	2.84
408.161	2.82
408.52	2.81
408.879	2.83
409.238	2.81
409.596	2.8
409.955	2.81
410.314	2.84
410.673	2.78
411.031	2.77
411.39	2.76
411.748	2.77
412.107	2.76
412.465	2.73
412.824	2.73
413.182	2.74
413.54	2.74
413.899	2.74
414.257	2.74
414.615	2.73
414.974	2.71
415.332	2.72
415.69	2.73
416.048	2.71
416.406	2.69
416.764	2.66
417.122	2.67
417.48	2.65
417.838	2.64
418.195	2.65
418.553	2.66
418.911	2.66
419.269	2.66
419.626	2.66
419.984	2.66
420.342	2.65
420.699	2.64
421.057	2.64
421.414	2.63
421.772	2.63
422.129	2.63
422.486	2.63
422.844	2.63
423.201	2.61
423.558	2.61
423.915	2.6
424.273	2.6
424.63	2.59
424.987	2.59
425.344	2.57
425.701	2.57
426.058	2.55
426.415	2.55
426.772	2.53
427.128	2.52
427.485	2.51
427.842	2.51
428.199	2.5
428.555	2.49
428.912	2.49
429.269	2.49
429.625	2.48
429.982	2.47
430.338	2.45
430.695	2.46
431.051	2.46
431.407	2.46
431.764	2.47
432.12	2.46
432.476	2.45
432.832	2.45
433.189	2.46
433.545	2.46
433.901	2.43
434.257	2.43
434.613	2.44
434.969	2.45
435.325	2.44
435.681	2.46
436.036	2.46
436.392	2.47
436.748	2.45
437.104	2.46
437.459	2.46
437.815	2.46
438.171	2.44
438.526	2.45
438.882	2.46
439.237	2.45
439.593	2.47
439.948	2.48
440.304	2.47
440.659	2.47
441.014	2.47
441.369	2.48
441.725	2.47
442.08	2.47
442.435	2.45
442.79	2.46
443.145	2.44
443.5	2.43
443.855	2.42
444.21	2.43
444.565	2.42
444.92	2.42
445.275	2.42
445.629	2.42
445.984	2.43
446.339	2.42
446.693	2.41
447.048	2.4
447.403	2.39
447.757	2.39
448.112	2.38
448.466	2.37
448.82	2.37
449.175	2.39
449.529	2.38
449.883	2.37
450.238	2.36
450.592	2.39
450.946	2.36
451.3	2.37
451.654	2.37
452.008	2.37
452.362	2.37
452.716	2.37
453.07	2.37
453.424	2.35
453.778	2.34
454.132	2.34
454.486	2.35
454.839	2.33
455.193	2.34
455.547	2.36
455.9	2.37
456.254	2.36
456.607	2.36
456.961	2.38
457.314	2.39
457.668	2.4
458.021	2.38
458.375	2.39
458.728	2.38
459.081	2.37
459.434	2.37
459.787	2.38
460.141	2.38
460.494	2.38
460.847	2.4
461.2	2.4
461.553	2.42
461.906	2.43
462.259	2.45
462.611	2.45
462.964	2.45
463.317	2.45
463.67	2.46
464.022	2.45
464.375	2.43
464.728	2.44
465.08	2.42
465.433	2.42
465.785	2.44
466.138	2.43
466.49	2.44
466.843	2.43
467.195	2.43
467.547	2.45
467.899	2.44
468.252	2.42
468.604	2.42
468.956	2.4
469.308	2.38
469.66	2.35
470.012	2.36
470.364	2.37
470.716	2.35
471.068	2.34
471.42	2.35
471.772	2.37
472.123	2.38
472.475	2.39
472.827	2.4
473.178	2.42
473.53	2.39
473.882	2.41
474.233	2.43
474.585	2.43
474.936	2.41
475.288	2.43
475.639	2.44
475.99	2.46
476.342	2.46
476.693	2.47
477.044	2.49
477.395	2.47
477.746	2.47
478.097	2.47
478.448	2.48
478.8	2.48
479.15	2.47
479.501	2.45
479.852	2.44
480.203	2.43
480.554	2.42
480.905	2.44
481.255	2.44
481.606	2.44
481.957	2.44
482.307	2.44
482.658	2.44
483.009	2.45
483.359	2.45
483.709	2.46
484.06	2.45
484.41	2.46
484.761	2.47
485.111	2.47
485.461	2.48
485.811	2.47
486.162	2.47
486.512	2.47
486.862	2.48
487.212	2.48
487.562	2.49
487.912	2.49
488.262	2.49
488.612	2.49
488.961	2.49
489.311	2.49
489.661	2.5
490.011	2.51
490.36	2.5
490.71	2.5
491.06	2.5
491.409	2.5
491.759	2.51
492.108	2.51
492.458	2.51
492.807	2.5
493.157	2.52
493.506	2.52
493.855	2.52
494.204	2.53
494.554	2.54
494.903	2.53
495.252	2.55
495.601	2.55
495.95	2.56
496.299	2.57
496.648	2.57
496.997	2.56
497.346	2.57
497.695	2.58
498.043	2.58
498.392	2.58
498.741	2.6
499.09	2.6
499.438	2.6
499.787	2.62
500.135	2.63
500.484	2.65
500.832	2.67
501.181	2.69
501.529	2.68
501.878	2.7
502.226	2.73
502.574	2.74
502.923	2.76
503.271	2.76
503.619	2.78
503.967	2.79
504.315	2.81
504.663	2.82
505.011	2.85
505.359	2.87
505.707	2.91
506.055	2.93
506.403	2.96
506.751	2.98
507.098	3.01
507.446	3.03
507.794	3.05
508.141	3.07
508.489	3.1
508.837	3.14
509.184	3.18
509.531	3.22
509.879	3.26
510.226	3.3
510.574	3.33
510.921	3.36
511.268	3.39
511.616	3.44
511.963	3.49
512.31	3.53
512.657	3.58
513.004	3.61
513.351	3.66
513.698	3.7
514.045	3.76
514.392	3.8
514.739	3.86
515.086	3.92
515.432	3.97
515.779	4.01
516.126	4.08
516.473	4.12
516.819	4.16
517.166	4.21
517.512	4.27
517.859	4.34
518.205	4.38
518.552	4.46
518.898	4.49
519.245	4.54
519.591	4.58
519.937	4.63
520.283	4.69
520.629	4.74
520.976	4.82
521.322	4.89
521.668	4.98
522.014	5.06
522.36	5.13
522.706	5.22
523.052	5.31
523.398	5.42
523.743	5.53
524.089	5.62
524.435	5.71
524.781	5.79
525.126	5.89
525.472	6
525.817	6.07
526.163	6.16
526.509	6.23
526.854	6.32
527.199	6.4
527.545	6.47
527.89	6.55
528.235	6.61
528.581	6.69
528.926	6.75
529.271	6.83
529.616	6.91
529.961	7
530.306	7.09
530.651	7.17
530.996	7.28
531.341	7.39
531.686	7.51
532.031	7.62
532.376	7.74
532.721	7.86
533.065	7.99
533.41	8.14
533.755	8.29
534.099	8.42
534.444	8.57
534.788	8.72
535.133	8.87
535.477	9.03
535.822	9.2
536.166	9.4
536.51	9.59
536.855	9.8
537.199	10.02
537.543	10.24
537.887	10.48
538.231	10.69
538.576	10.91
538.92	11.14
539.264	11.36
539.608	11.58
539.951	11.76
540.295	11.96
540.639	12.15
540.983	12.35
541.327	12.54
541.671	12.73
542.014	12.92
542.358	13.12
542.701	13.31
543.045	13.51
543.389	13.7
543.732	13.9
544.075	14.1
544.419	14.3
544.762	14.53
545.105	14.76
545.449	15.03
545.792	15.28
546.135	15.55
546.478	15.84
546.821	16.13
547.165	16.46
547.508	16.77
547.851	17.08
548.194	17.37
548.536	17.69
548.879	18.02
549.222	18.36
549.565	18.69
549.908	19
550.25	19.36
550.593	19.7
550.936	20.08
551.278	20.41
551.621	20.82
551.963	21.18
552.306	21.49
552.648	21.82
552.991	22.23
553.333	22.55
553.675	22.9
554.017	23.22
554.36	23.53
554.702	23.84
555.044	24.17
555.386	24.52
555.728	24.91
556.07	25.26
556.412	25.57
556.754	25.94
557.096	26.3
557.438	26.62
557.78	27
558.121	27.37
558.463	27.71
558.805	28.04
559.147	28.37
559.488	28.72
559.83	29.01
560.171	29.33
560.513	29.65
560.854	29.97
561.196	30.34
561.537	30.7
561.878	31
562.22	31.3
562.561	31.64
562.902	31.85
563.243	32.15
563.584	32.5
563.925	32.77
564.266	33.04
564.607	33.34
564.948	33.57
565.289	33.84
565.63	34.18
565.971	34.43
566.312	34.68
566.653	35.02
566.993	35.33
567.334	35.58
567.675	35.87
568.015	36.15
568.356	36.42
568.696	36.7
569.037	36.99
569.377	37.31
569.718	37.53
570.058	37.85
570.398	38.15
570.739	38.42
571.079	38.68
571.419	38.94
571.759	39.21
572.099	39.53
572.439	39.69
572.779	39.92
573.119	40.13
573.459	40.39
573.799	40.6
574.139	40.86
574.479	41.08
574.819	41.29
575.158	41.48
575.498	41.65
575.838	41.84
576.177	42.06
576.517	42.24
576.856	42.52
577.196	42.68
577.535	42.84
577.875	43
578.214	43.25
578.553	43.44
578.893	43.69
579.232	43.83
579.571	44.14
579.91	44.29
580.25	44.58
580.589	44.75
580.928	44.95
581.267	45.13
581.606	45.29
581.945	45.49
582.283	45.7
582.622	45.92
582.961	46.1
583.3	46.25
583.639	46.47
583.977	46.6
584.316	46.75
584.654	46.89
584.993	47.1
585.332	47.19
585.67	47.43
586.008	47.58
586.347	47.79
586.685	47.94
587.024	48.1
587.362	48.15
587.7	48.31
588.038	48.44
588.376	48.6
588.715	48.73
589.053	48.89
589.391	49.06
589.729	49.24
590.067	49.34
590.404	49.47
590.742	49.57
591.08	49.67
591.418	49.86
591.756	50.06
592.093	50.28
592.431	50.43
592.769	50.51
593.106	50.56
593.444	50.67
593.781	50.76
594.119	50.87
594.456	51
594.793	51.08
595.131	51.12
595.468	51.18
595.805	51.26
596.143	51.31
596.48	51.32
596.817	51.4
597.154	51.53
597.491	51.64
597.828	51.74
598.165	51.85
598.502	51.96
598.839	52.02
599.176	52.05
599.512	52.19
599.849	52.32
600.186	52.38
600.523	52.49
600.859	52.56
601.196	52.72
601.532	52.83
601.869	52.9
602.205	53.02
602.542	53.16
602.878	53.27
603.215	53.33
603.551	53.45
603.887	53.52
604.223	53.59
604.56	53.66
604.896	53.72
605.232	53.79
605.568	53.82
605.904	53.91
606.24	54.05
606.576	54.07
606.912	54.13
607.248	54.22
607.583	54.32
607.919	54.48
608.255	54.57
608.591	54.65
608.926	54.81
609.262	54.91
609.597	54.94
609.933	55.06
610.268	55.19
610.604	55.32
610.939	55.36
611.275	55.4
611.61	55.46
611.945	55.56
612.281	55.68
612.616	55.82
612.951	55.85
613.286	55.87
613.621	56.01
613.956	56.08
614.291	56.27
614.626	56.29
614.961	56.22
615.296	56.18
615.631	56.23
615.966	56.23
616.3	56.23
616.635	56.27
616.97	56.24
617.304	56.28
617.639	56.21
617.973	56.19
618.308	56.2
618.642	56.31
618.977	56.39
619.311	56.38
619.646	56.37
619.98	56.44
620.314	56.49
620.648	56.48
620.983	56.43
621.317	56.49
621.651	56.58
621.985	56.79
622.319	56.91
622.653	56.97
622.987	57.03
623.321	57.07
623.655	57.08
623.988	57.28
624.322	57.29
624.656	57.33
624.99	57.48
625.323	57.57
625.657	57.5
625.99	57.52
626.324	57.58
626.657	57.62
626.991	57.68
627.324	57.65
627.658	57.74
627.991	57.85
628.324	57.86
628.657	57.87
628.991	57.82
629.324	57.82
629.657	57.87
629.99	57.94
630.323	58.07
630.656	58.23
630.989	58.18
631.322	58.18
631.655	58.16
631.987	58.22
632.32	58.21
632.653	58.24
632.986	58.2
633.318	58.25
633.651	58.23
633.984	58.26
634.316	58.28
634.649	58.33
634.981	58.37
635.313	58.42
635.646	58.44
635.978	58.5
636.31	58.59
636.643	58.6
636.975	58.53
637.307	58.51
637.639	58.54
637.971	58.59
638.303	58.71
638.635	58.88
638.967	58.8
639.299	58.92
639.631	58.97
639.963	58.93
640.295	58.86
640.626	58.99
640.958	58.99
641.29	59.12
641.621	59.1
641.953	59.13
642.285	59.15
642.616	59.2
642.948	59.21
643.279	59.14
643.61	59.22
643.942	59.37
644.273	59.39
644.604	59.31
644.936	59.29
645.267	59.36
645.598	59.29
645.929	59.45
646.26	59.37
646.591	59.39
646.922	59.49
647.253	59.73
647.584	59.76
647.915	59.71
648.245	59.71
648.576	59.78
648.907	59.84
649.238	59.84
649.568	59.86
649.899	59.9
650.229	59.9
650.56	59.82
650.89	59.87
651.221	59.89
651.551	59.91
651.882	60.01
652.212	60.01
652.542	60.14
652.872	60.07
653.203	60.15
653.533	60.34
653.863	60.34
654.193	60.17
654.523	60.12
654.853	60.28
655.183	60.18
655.513	60.14
655.843	60.08
656.172	60.01
656.502	59.96
656.832	59.91
657.162	60.07
657.491	60.14
657.821	60.11
658.15	60.13
658.48	60.15
658.809	60.08
659.139	60.01
659.468	59.92
659.798	59.94
660.127	59.96
660.456	59.92
660.785	60.1
661.115	60.21
661.444	60.26
661.773	60.24
662.102	60.33
662.431	60.38
662.76	60.43
663.089	60.48
663.418	60.49
663.747	60.46
664.076	60.58
664.404	60.57
664.733	60.65
665.062	60.58
665.39	60.47
665.719	60.57
666.048	60.65
666.376	60.63
666.705	60.61
