Data from BU57994_Reflection_00009.txt Node
Date: Mon Nov 18 16:53:14 EST 2019
User: vgr7
Spectrometer: USB2G7710
Scans to average: 3
Trigger mode: 4
Integration Time (sec): 2.000000E-2
Electric dark correction enabled: true
Boxcar width: 10
XAxis mode: Wavelengths
Number of Pixels in Spectrum: 2048
>>>>>Begin Spectral Data<<<<<
177.721	-22.49
178.105	-24.63
178.488	-26.26
178.871	-29.31
179.254	-146.58
179.636	25.4
180.019	-110.08
180.402	15.38
180.785	-30.03
181.168	475
181.55	-153.7
181.933	4.32
182.316	6.7
182.698	-23.14
183.081	-2.23
183.463	-5.31
183.846	-14.7
184.228	17.81
184.611	-18.58
184.993	-342.95
185.376	14.85
185.758	-190.66
186.14	-81.27
186.522	-17.52
186.904	1.93
187.287	-87.3
187.669	7.64
188.051	-18.39
188.433	54.35
188.815	32.29
189.197	59.48
189.579	39.34
189.961	24.78
190.342	11.34
190.724	10.57
191.106	11.59
191.488	-12.4
191.869	-16.32
192.251	-3.16
192.633	-5.13
193.014	-24.96
193.396	-36.54
193.777	-12.46
194.159	-13.88
194.54	-7.76
194.922	-1.24
195.303	4.24
195.684	-12.62
196.065	-8.76
196.447	-30.73
196.828	-53.55
197.209	-83.48
197.59	-86.76
197.971	-79.85
198.352	-18.67
198.733	-14.59
199.114	-0.31
199.495	20.72
199.876	16.57
200.257	18.68
200.638	20.4
201.018	21.41
201.399	26.56
201.78	17.63
202.16	6.97
202.541	0.18
202.922	-20.6
203.302	-28.02
203.683	-23.07
204.063	-2.08
204.444	-3.58
204.824	11.96
205.204	25.43
205.585	9.81
205.965	4.41
206.345	-15.23
206.725	-37.78
207.106	-78.18
207.486	-140.89
207.866	-116.53
208.246	-119.27
208.626	-152.32
209.006	-103.44
209.386	-124.44
209.766	-71.29
210.145	-55.99
210.525	-33.62
210.905	-14.81
211.285	-3.81
211.664	0.94
212.044	-20.78
212.424	-13.86
212.803	-30.89
213.183	-54.27
213.562	-38.81
213.942	-32.07
214.321	-6.28
214.701	3.7
215.08	15.25
215.459	15.03
215.838	11.9
216.218	0.76
216.597	5.46
216.976	-0.71
217.355	-1.67
217.734	2.92
218.113	1.79
218.492	-2.86
218.871	-7.98
219.25	-7.06
219.629	-10.99
220.008	3.34
220.387	6.78
220.766	21.34
221.144	24.46
221.523	20.3
221.902	16.14
222.28	6.8
222.659	7.73
223.037	14.18
223.416	11.5
223.794	14.1
224.173	15.11
224.551	16.93
224.929	16.23
225.308	16.31
225.686	15.53
226.064	14.59
226.442	11.44
226.821	11.84
227.199	9.31
227.577	10.96
227.955	9.04
228.333	5.62
228.711	5.12
229.089	8.3
229.467	5.06
229.845	3.55
230.222	3.43
230.6	4.94
230.978	5.03
231.356	6.5
231.733	7.01
232.111	8.38
232.488	8.83
232.866	9.41
233.243	10.16
233.621	7.41
233.998	8.11
234.376	8.14
234.753	7.97
235.13	9.55
235.508	9.38
235.885	8.55
236.262	8.65
236.639	7.99
237.016	6.42
237.393	8.22
237.77	9.23
238.147	9.54
238.524	9.09
238.901	8.1
239.278	8.23
239.655	8.52
240.032	8.3
240.409	7.79
240.785	7.23
241.162	7.36
241.539	7.61
241.915	7.16
242.292	6.87
242.668	6.95
243.045	6.62
243.421	6.21
243.798	6.21
244.174	6.07
244.551	5.59
244.927	5.58
245.303	5.49
245.679	5.37
246.056	5.33
246.432	5.12
246.808	5.07
247.184	4.73
247.56	4.47
247.936	4.42
248.312	4.47
248.688	4.84
249.064	4.6
249.44	4.64
249.815	4.85
250.191	5.06
250.567	5.01
250.943	4.93
251.318	5.2
251.694	5.08
252.069	5.05
252.445	5.46
252.82	5.46
253.196	5.53
253.571	5.43
253.947	5.2
254.322	5.5
254.697	5.48
255.073	5.73
255.448	5.77
255.823	5.53
256.198	5.35
256.573	5
256.948	5.2
257.323	5.18
257.698	4.96
258.073	4.79
258.448	4.72
258.823	4.75
259.198	4.64
259.573	4.76
259.948	4.75
260.322	4.64
260.697	4.6
261.072	4.59
261.446	4.65
261.821	4.73
262.195	4.82
262.57	4.77
262.944	4.62
263.319	4.54
263.693	4.56
264.067	4.63
264.442	4.78
264.816	4.71
265.19	4.51
265.564	4.58
265.938	4.46
266.313	4.44
266.687	4.47
267.061	4.52
267.435	4.37
267.809	4.51
268.183	4.59
268.556	4.66
268.93	4.64
269.304	4.45
269.678	4.41
270.051	4.35
270.425	4.38
270.799	4.3
271.172	4.4
271.546	4.46
271.919	4.4
272.293	4.33
272.666	4.22
273.04	4.46
273.413	4.46
273.787	4.69
274.16	4.63
274.533	4.66
274.906	4.53
275.279	4.62
275.653	4.63
276.026	4.6
276.399	4.62
276.772	4.72
277.145	4.89
277.518	4.8
277.891	4.69
278.263	4.76
278.636	4.88
279.009	4.77
279.382	4.78
279.755	4.8
280.127	4.81
280.5	4.9
280.872	4.82
281.245	4.6
281.617	4.67
281.99	4.78
282.362	4.75
282.735	4.73
283.107	4.64
283.479	4.6
283.852	4.5
284.224	4.55
284.596	4.52
284.968	4.37
285.34	4.51
285.713	4.52
286.085	4.5
286.457	4.59
286.829	4.63
287.201	4.6
287.572	4.53
287.944	4.48
288.316	4.54
288.688	4.49
289.06	4.67
289.431	4.59
289.803	4.76
290.175	4.71
290.546	4.87
290.918	4.92
291.289	4.97
291.661	5.15
292.032	5.05
292.403	5.07
292.775	5.24
293.146	5.1
293.517	5.13
293.889	5.28
294.26	5.16
294.631	5.18
295.002	5.21
295.373	5.35
295.744	5.48
296.115	5.45
296.486	5.33
296.857	5.33
297.228	5.31
297.599	5.17
297.97	5.13
298.34	5.09
298.711	5.06
299.082	5.01
299.452	4.98
299.823	5.07
300.194	5.16
300.564	5.08
300.935	5.19
301.305	5.21
301.676	5.16
302.046	5.24
302.416	5.36
302.787	5.43
303.157	5.29
303.527	5.21
303.897	5.29
304.267	5.72
304.637	5.81
305.008	5.89
305.378	5.81
305.748	6.01
306.117	6.01
306.487	6.15
306.857	6.2
307.227	6.26
307.597	6.22
307.967	6.19
308.336	6.36
308.706	6.49
309.076	6.52
309.445	6.54
309.815	6.65
310.184	6.56
310.554	6.59
310.923	6.73
311.293	6.87
311.662	6.87
312.031	6.84
312.401	6.94
312.77	6.92
313.139	7.21
313.508	7.37
313.877	7.45
314.246	7.49
314.616	7.61
314.985	7.71
315.353	7.88
315.722	8.08
316.091	8.18
316.46	8.14
316.829	8.29
317.198	8.56
317.567	8.66
317.935	8.81
318.304	8.95
318.672	8.95
319.041	9.01
319.41	9.16
319.778	9.21
320.147	9.17
320.515	9.22
320.883	9.14
321.252	9.25
321.62	9.46
321.988	9.57
322.357	9.68
322.725	9.87
323.093	9.97
323.461	9.9
323.829	9.95
324.197	10.05
324.565	10.29
324.933	10.32
325.301	10.53
325.669	10.59
326.037	10.69
326.405	10.91
326.772	11.02
327.14	11.12
327.508	11.16
327.875	11.38
328.243	11.74
328.61	11.81
328.978	11.82
329.346	11.97
329.713	12.06
330.08	12.12
330.448	11.98
330.815	11.98
331.182	12.06
331.55	12.08
331.917	12.33
332.284	12.22
332.651	12.17
333.018	12.15
333.385	12.28
333.752	12.36
334.119	12.35
334.486	12.33
334.853	12.23
335.22	12.27
335.587	12.12
335.954	12.12
336.32	12.2
336.687	12.29
337.054	12.24
337.42	12.14
337.787	12.22
338.153	12.38
338.52	12.42
338.886	12.5
339.253	12.51
339.619	12.48
339.986	12.5
340.352	12.72
340.718	12.66
341.084	12.69
341.451	12.67
341.817	12.79
342.183	12.76
342.549	12.82
342.915	12.8
343.281	13.02
343.647	12.95
344.013	13.04
344.379	12.96
344.745	13.08
345.11	13.19
345.476	13.21
345.842	13.24
346.208	13.37
346.573	13.5
346.939	13.59
347.304	13.45
347.67	13.44
348.035	13.2
348.401	13.27
348.766	13.21
349.132	13.26
349.497	13.13
349.862	13.24
350.228	13.27
350.593	13.31
350.958	13.22
351.323	13.22
351.688	13.16
352.053	13.25
352.418	13.24
352.783	13.25
353.148	13.24
353.513	13.22
353.878	13.17
354.243	13.1
354.608	13.14
354.972	13.25
355.337	13.29
355.702	13.24
356.066	13.2
356.431	13.26
356.795	13.23
357.16	13.22
357.524	13.13
357.889	13.05
358.253	13.07
358.618	13.06
358.982	13.06
359.346	12.93
359.71	12.81
360.075	12.73
360.439	12.62
360.803	12.61
361.167	12.62
361.531	12.57
361.895	12.49
362.259	12.35
362.623	12.32
362.987	12.25
363.351	12.25
363.714	12.29
364.078	12.23
364.442	12.12
364.806	12.09
365.169	12.04
365.533	11.99
365.896	11.83
366.26	11.79
366.623	11.61
366.987	11.59
367.35	11.6
367.714	11.47
368.077	11.41
368.44	11.27
368.803	11.09
369.167	10.96
369.53	10.82
369.893	10.79
370.256	10.61
370.619	10.61
370.982	10.5
371.345	10.29
371.708	10.19
372.071	10.15
372.434	10.03
372.797	9.9
373.159	9.85
373.522	9.84
373.885	9.76
374.247	9.77
374.61	9.77
374.973	9.59
375.335	9.52
375.698	9.49
376.06	9.39
376.423	9.33
376.785	9.28
377.147	9.31
377.51	9.24
377.872	9.24
378.234	9.1
378.596	9.1
378.958	9.06
379.321	9.01
379.683	8.96
380.045	8.88
380.407	8.84
380.769	8.76
381.13	8.64
381.492	8.5
381.854	8.41
382.216	8.24
382.578	8.21
382.939	8.16
383.301	8.07
383.663	7.99
384.024	7.92
384.386	7.85
384.747	7.71
385.109	7.65
385.47	7.58
385.832	7.53
386.193	7.45
386.554	7.35
386.916	7.28
387.277	7.2
387.638	7.19
387.999	7.15
388.36	7.12
388.721	7.09
389.082	7.07
389.443	7.03
389.804	6.98
390.165	6.95
390.526	6.89
390.887	6.84
391.248	6.83
391.609	6.83
391.969	6.8
392.33	6.78
392.691	6.71
393.051	6.62
393.412	6.58
393.772	6.51
394.133	6.51
394.493	6.46
394.854	6.4
395.214	6.33
395.574	6.26
395.935	6.2
396.295	6.13
396.655	6.07
397.015	6
397.376	5.98
397.736	5.89
398.096	5.86
398.456	5.8
398.816	5.8
399.176	5.67
399.535	5.59
399.895	5.53
400.255	5.49
400.615	5.48
400.975	5.44
401.334	5.41
401.694	5.31
402.054	5.24
402.413	5.25
402.773	5.23
403.132	5.19
403.492	5.17
403.851	5.16
404.211	5.13
404.57	5.11
404.929	5.09
405.288	5.09
405.648	5.06
406.007	5.05
406.366	5.01
406.725	5.04
407.084	5.07
407.443	5.05
407.802	5.08
408.161	5.04
408.52	4.98
408.879	4.97
409.238	5.03
409.596	5.02
409.955	5.01
410.314	4.99
410.673	4.98
411.031	4.97
411.39	4.97
411.748	4.94
412.107	4.92
412.465	4.88
412.824	4.86
413.182	4.83
413.54	4.81
413.899	4.77
414.257	4.74
414.615	4.68
414.974	4.68
415.332	4.61
415.69	4.61
416.048	4.63
416.406	4.62
416.764	4.53
417.122	4.54
417.48	4.5
417.838	4.48
418.195	4.47
418.553	4.44
418.911	4.42
419.269	4.41
419.626	4.42
419.984	4.41
420.342	4.41
420.699	4.39
421.057	4.37
421.414	4.35
421.772	4.33
422.129	4.32
422.486	4.3
422.844	4.3
423.201	4.27
423.558	4.24
423.915	4.21
424.273	4.24
424.63	4.21
424.987	4.2
425.344	4.19
425.701	4.19
426.058	4.18
426.415	4.15
426.772	4.14
427.128	4.1
427.485	4.08
427.842	4.05
428.199	4.04
428.555	4.06
428.912	4.1
429.269	4.08
429.625	4.07
429.982	4.05
430.338	4.05
430.695	4.08
431.051	4.08
431.407	4.09
431.764	4.07
432.12	4.03
432.476	4.04
432.832	4.02
433.189	4.03
433.545	4.04
433.901	4.05
434.257	4.02
434.613	4.04
434.969	4.06
435.325	4.07
435.681	4.07
436.036	4.05
436.392	4.03
436.748	4.04
437.104	4.04
437.459	4.04
437.815	4.03
438.171	4.02
438.526	4.04
438.882	4.04
439.237	4.05
439.593	4.07
439.948	4.05
440.304	4.05
440.659	4.05
441.014	4.04
441.369	4.03
441.725	4.05
442.08	4.05
442.435	4.04
442.79	4.03
443.145	4.03
443.5	4.03
443.855	4.01
444.21	4
444.565	3.99
444.92	3.99
445.275	3.99
445.629	3.98
445.984	3.96
446.339	3.95
446.693	3.93
447.048	3.92
447.403	3.91
447.757	3.9
448.112	3.89
448.466	3.87
448.82	3.89
449.175	3.88
449.529	3.87
449.883	3.87
450.238	3.84
450.592	3.84
450.946	3.83
451.3	3.83
451.654	3.82
452.008	3.84
452.362	3.84
452.716	3.83
453.07	3.82
453.424	3.83
453.778	3.83
454.132	3.82
454.486	3.81
454.839	3.79
455.193	3.79
455.547	3.77
455.9	3.78
456.254	3.76
456.607	3.77
456.961	3.77
457.314	3.76
457.668	3.78
458.021	3.76
458.375	3.76
458.728	3.75
459.081	3.76
459.434	3.75
459.787	3.75
460.141	3.75
460.494	3.75
460.847	3.75
461.2	3.76
461.553	3.79
461.906	3.81
462.259	3.83
462.611	3.84
462.964	3.86
463.317	3.88
463.67	3.89
464.022	3.88
464.375	3.87
464.728	3.88
465.08	3.89
465.433	3.91
465.785	3.91
466.138	3.92
466.49	3.95
466.843	3.98
467.195	3.98
467.547	4.01
467.899	4.03
468.252	4.03
468.604	4.06
468.956	4.04
469.308	4.06
469.66	4.07
470.012	4.11
470.364	4.12
470.716	4.13
471.068	4.13
471.42	4.14
471.772	4.16
472.123	4.18
472.475	4.19
472.827	4.2
473.178	4.24
473.53	4.23
473.882	4.24
474.233	4.24
474.585	4.24
474.936	4.23
475.288	4.23
475.639	4.24
475.99	4.22
476.342	4.22
476.693	4.21
477.044	4.22
477.395	4.2
477.746	4.19
478.097	4.18
478.448	4.17
478.8	4.17
479.15	4.15
479.501	4.15
479.852	4.13
480.203	4.11
480.554	4.09
480.905	4.11
481.255	4.08
481.606	4.08
481.957	4.08
482.307	4.06
482.658	4.06
483.009	4.05
483.359	4.05
483.709	4.05
484.06	4.04
484.41	4.04
484.761	4.05
485.111	4.05
485.461	4.05
485.811	4.05
486.162	4.05
486.512	4.06
486.862	4.06
487.212	4.06
487.562	4.07
487.912	4.06
488.262	4.06
488.612	4.07
488.961	4.06
489.311	4.07
489.661	4.08
490.011	4.08
490.36	4.09
490.71	4.1
491.06	4.11
491.409	4.12
491.759	4.12
492.108	4.12
492.458	4.13
492.807	4.13
493.157	4.14
493.506	4.15
493.855	4.15
494.204	4.17
494.554	4.19
494.903	4.2
495.252	4.21
495.601	4.23
495.95	4.25
496.299	4.27
496.648	4.28
496.997	4.32
497.346	4.34
497.695	4.38
498.043	4.41
498.392	4.44
498.741	4.47
499.09	4.5
499.438	4.54
499.787	4.57
500.135	4.63
500.484	4.67
500.832	4.73
501.181	4.78
501.529	4.85
501.878	4.93
502.226	4.98
502.574	5.04
502.923	5.12
503.271	5.17
503.619	5.25
503.967	5.33
504.315	5.38
504.663	5.46
505.011	5.53
505.359	5.6
505.707	5.68
506.055	5.79
506.403	5.88
506.751	5.99
507.098	6.11
507.446	6.19
507.794	6.29
508.141	6.37
508.489	6.48
508.837	6.58
509.184	6.69
509.531	6.81
509.879	6.93
510.226	7.02
510.574	7.16
510.921	7.29
511.268	7.4
511.616	7.54
511.963	7.68
512.31	7.84
512.657	8
513.004	8.15
513.351	8.34
513.698	8.5
514.045	8.65
514.392	8.82
514.739	9
515.086	9.19
515.432	9.38
515.779	9.59
516.126	9.76
516.473	9.95
516.819	10.14
517.166	10.31
517.512	10.53
517.859	10.7
518.205	10.84
518.552	11.04
518.898	11.21
519.245	11.35
519.591	11.51
519.937	11.67
520.283	11.85
520.629	12.05
520.976	12.27
521.322	12.49
521.668	12.69
522.014	12.9
522.36	13.14
522.706	13.38
523.052	13.64
523.398	13.91
523.743	14.2
524.089	14.46
524.435	14.74
524.781	14.98
525.126	15.23
525.472	15.46
525.817	15.65
526.163	15.84
526.509	16.04
526.854	16.21
527.199	16.39
527.545	16.55
527.89	16.7
528.235	16.86
528.581	17.01
528.926	17.18
529.271	17.37
529.616	17.51
529.961	17.68
530.306	17.86
530.651	18.04
530.996	18.21
531.341	18.4
531.686	18.6
532.031	18.78
532.376	18.99
532.721	19.21
533.065	19.42
533.41	19.66
533.755	19.9
534.099	20.14
534.444	20.37
534.788	20.6
535.133	20.82
535.477	21.03
535.822	21.28
536.166	21.52
536.51	21.77
536.855	22.06
537.199	22.34
537.543	22.61
537.887	22.92
538.231	23.2
538.576	23.48
538.92	23.77
539.264	24.05
539.608	24.3
539.951	24.55
540.295	24.77
540.639	25
540.983	25.19
541.327	25.41
541.671	25.63
542.014	25.87
542.358	26.1
542.701	26.36
543.045	26.58
543.389	26.82
543.732	27.05
544.075	27.31
544.419	27.57
544.762	27.8
545.105	28.06
545.449	28.36
545.792	28.69
546.135	28.96
546.478	29.29
546.821	29.62
547.165	29.98
547.508	30.37
547.851	30.69
548.194	31.07
548.536	31.41
548.879	31.78
549.222	32.06
549.565	32.39
549.908	32.69
550.25	33.03
550.593	33.36
550.936	33.68
551.278	33.95
551.621	34.29
551.963	34.68
552.306	35
552.648	35.32
552.991	35.61
553.333	35.91
553.675	36.27
554.017	36.63
554.36	36.89
554.702	37.16
555.044	37.47
555.386	37.79
555.728	38.14
556.07	38.47
556.412	38.82
556.754	39.12
557.096	39.42
557.438	39.69
557.78	40.06
558.121	40.45
558.463	40.84
558.805	41.17
559.147	41.43
559.488	41.78
559.83	42.05
560.171	42.34
560.513	42.67
560.854	42.88
561.196	43.07
561.537	43.39
561.878	43.66
562.22	43.97
562.561	44.19
562.902	44.41
563.243	44.65
563.584	44.9
563.925	45.15
564.266	45.43
564.607	45.74
564.948	45.92
565.289	46.2
565.63	46.42
565.971	46.59
566.312	46.88
566.653	47.08
566.993	47.29
567.334	47.55
567.675	47.79
568.015	48.06
568.356	48.28
568.696	48.49
569.037	48.71
569.377	48.9
569.718	49.12
570.058	49.29
570.398	49.56
570.739	49.81
571.079	50.05
571.419	50.28
571.759	50.47
572.099	50.71
572.439	50.82
572.779	51.01
573.119	51.21
573.459	51.36
573.799	51.56
574.139	51.79
574.479	51.97
574.819	52.08
575.158	52.23
575.498	52.43
575.838	52.62
576.177	52.75
576.517	52.92
576.856	53.13
577.196	53.4
577.535	53.51
577.875	53.65
578.214	53.84
578.553	53.95
578.893	54.12
579.232	54.27
579.571	54.48
579.91	54.63
580.25	54.82
580.589	54.96
580.928	55.11
581.267	55.23
581.606	55.41
581.945	55.67
582.283	55.87
582.622	56.05
582.961	56.16
583.3	56.36
583.639	56.55
583.977	56.65
584.316	56.71
584.654	56.81
584.993	56.9
585.332	56.97
585.67	57.14
586.008	57.25
586.347	57.39
586.685	57.48
587.024	57.63
587.362	57.75
587.7	57.86
588.038	58
588.376	58.05
588.715	58.14
589.053	58.11
589.391	58.22
589.729	58.32
590.067	58.44
590.404	58.49
590.742	58.55
591.08	58.64
591.418	58.74
591.756	58.86
592.093	58.91
592.431	58.99
592.769	59.15
593.106	59.26
593.444	59.36
593.781	59.5
594.119	59.59
594.456	59.67
594.793	59.83
595.131	59.89
595.468	60
595.805	60.03
596.143	60.23
596.48	60.23
596.817	60.29
597.154	60.42
597.491	60.54
597.828	60.6
598.165	60.7
598.502	60.74
598.839	60.8
599.176	60.91
599.512	60.99
599.849	61.01
600.186	61.05
600.523	61.05
600.859	61.09
601.196	61.18
601.532	61.3
601.869	61.19
602.205	61.21
602.542	61.29
602.878	61.41
603.215	61.46
603.551	61.5
603.887	61.51
604.223	61.5
604.56	61.5
604.896	61.56
605.232	61.62
605.568	61.66
605.904	61.76
606.24	61.81
606.576	61.94
606.912	62.01
607.248	62.1
607.583	62.17
607.919	62.24
608.255	62.24
608.591	62.23
608.926	62.43
609.262	62.56
609.597	62.62
609.933	62.61
610.268	62.57
610.604	62.64
610.939	62.76
611.275	62.76
611.61	62.83
611.945	62.87
612.281	62.9
612.616	63.02
612.951	63.1
613.286	63.15
613.621	63.09
613.956	63.08
614.291	63.11
614.626	63.2
614.961	63.19
615.296	63.23
615.631	63.27
615.966	63.17
616.3	63.14
616.635	63.18
616.97	63.15
617.304	63.2
617.639	63.3
617.973	63.28
618.308	63.35
618.642	63.49
618.977	63.52
619.311	63.63
619.646	63.61
619.98	63.63
620.314	63.72
620.648	63.85
620.983	63.95
621.317	64.01
621.651	64.06
621.985	64.09
622.319	64.15
622.653	64.21
622.987	64.36
623.321	64.39
623.655	64.36
623.988	64.51
624.322	64.54
624.656	64.52
624.99	64.59
625.323	64.59
625.657	64.57
625.99	64.64
626.324	64.61
626.657	64.59
626.991	64.58
627.324	64.53
627.658	64.58
627.991	64.64
628.324	64.69
628.657	64.69
628.991	64.69
629.324	64.71
629.657	64.68
629.99	64.65
630.323	64.66
630.656	64.74
630.989	64.71
631.322	64.79
631.655	64.83
631.987	64.79
632.32	64.78
632.653	64.76
632.986	64.69
633.318	64.63
633.651	64.65
633.984	64.63
634.316	64.7
634.649	64.67
634.981	64.67
635.313	64.62
635.646	64.74
635.978	64.88
636.31	64.86
636.643	64.88
636.975	65.02
637.307	65.01
637.639	65.02
637.971	65.1
638.303	65.09
638.635	65.09
638.967	65.08
639.299	65.22
639.631	65.25
639.963	65.4
640.295	65.51
640.626	65.56
640.958	65.68
641.29	65.8
641.621	65.82
641.953	65.75
642.285	65.75
642.616	65.64
642.948	65.54
643.279	65.63
643.61	65.66
643.942	65.54
644.273	65.51
644.604	65.5
644.936	65.41
645.267	65.42
645.598	65.5
645.929	65.5
646.26	65.46
646.591	65.45
646.922	65.42
647.253	65.39
647.584	65.29
647.915	65.27
648.245	65.21
648.576	65.09
648.907	65.16
649.238	65.16
649.568	65.22
649.899	65.37
650.229	65.34
650.56	65.42
650.89	65.54
651.221	65.63
651.551	65.59
651.882	65.63
652.212	65.7
652.542	65.72
652.872	65.79
653.203	65.77
653.533	65.79
653.863	65.74
654.193	65.82
654.523	66.07
654.853	66.13
655.183	66.14
655.513	66.23
655.843	66.18
656.172	66.24
656.502	66.1
656.832	66.05
657.162	66.12
657.491	66.04
657.821	66.09
658.15	66.16
658.48	66.16
658.809	66.2
659.139	66.23
659.468	66.25
659.798	66.19
660.127	66.22
660.456	66.25
660.785	66.32
661.115	66.34
661.444	66.31
661.773	66.26
662.102	66.31
662.431	66.3
662.76	66.35
663.089	66.4
663.418	66.55
663.747	66.57
664.076	66.45
664.404	66.59
664.733	66.54
665.062	66.53
665.39	66.71
665.719	66.61
