Data from BU57653_Reflection_00011.txt Node
Date: Mon Nov 18 16:52:19 EST 2019
User: vgr7
Spectrometer: USB2G7710
Scans to average: 3
Trigger mode: 4
Integration Time (sec): 2.000000E-2
Electric dark correction enabled: true
Boxcar width: 10
XAxis mode: Wavelengths
Number of Pixels in Spectrum: 2048
>>>>>Begin Spectral Data<<<<<
177.721	-52.53
178.105	-1.6
178.488	-11.19
178.871	33.45
179.254	37.15
179.636	35.74
180.019	-30.2
180.402	320
180.785	-38.87
181.168	78.09
181.55	90.73
181.933	127.12
182.316	143.39
182.698	102.22
183.081	114.33
183.463	685.55
183.846	263.83
184.228	297.39
184.611	342.52
184.993	735.45
185.376	-1585.04
185.758	1205.59
186.14	1797.48
186.522	-365.2
186.904	-118.64
187.287	-194.65
187.669	-143.97
188.051	-349.14
188.433	-324.96
188.815	-204.96
189.197	-143.78
189.579	-71.67
189.961	-86.59
190.342	-90.41
190.724	-73.97
191.106	-116.17
191.488	-109.25
191.869	-98.74
192.251	-78.84
192.633	-76.65
193.014	-76.66
193.396	-92.56
193.777	-94.15
194.159	-91.23
194.54	-87.4
194.922	-88.26
195.303	-110.87
195.684	-101.32
196.065	-65.13
196.447	-73.12
196.828	-60.07
197.209	-49.38
197.59	-43.17
197.971	-30.35
198.352	-20.88
198.733	-23.67
199.114	-15.91
199.495	-18.34
199.876	-14.63
200.257	-13.28
200.638	-3.85
201.018	-10.81
201.399	-10.77
201.78	-13.96
202.16	-23.44
202.541	-66.61
202.922	-95.47
203.302	-66.6
203.683	-59.91
204.063	-81.05
204.444	-84.9
204.824	-94.56
205.204	-97.22
205.585	-224.04
205.965	-211.71
206.345	-214.23
206.725	-362.83
207.106	-2160.36
207.486	-11359.46
207.866	580.91
208.246	1438.4
208.626	-1659.34
209.006	-300
209.386	-261.75
209.766	-274.89
210.145	-130.37
210.525	-63.47
210.905	-30.7
211.285	-30.84
211.664	-30.1
212.044	-22.91
212.424	-35.99
212.803	-49.32
213.183	-31.33
213.562	-2.29
213.942	18.78
214.321	31.24
214.701	19.3
215.08	18.39
215.459	47.04
215.838	47.89
216.218	43.67
216.597	57.18
216.976	46.66
217.355	43.29
217.734	44.46
218.113	46.35
218.492	50.79
218.871	43.11
219.25	36.79
219.629	21.83
220.008	20.81
220.387	42.61
220.766	39.49
221.144	19.58
221.523	-4.4
221.902	-5.5
222.28	-25.33
222.659	-21.11
223.037	-13.93
223.416	-29.82
223.794	-27.41
224.173	-26
224.551	-25.02
224.929	-28.58
225.308	-14.96
225.686	-10.97
226.064	-8.09
226.442	-10.9
226.821	-10.54
227.199	-7.19
227.577	-7.83
227.955	-4.77
228.333	-6.48
228.711	-3.43
229.089	2.36
229.467	2.01
229.845	-1.56
230.222	0.39
230.6	-1.41
230.978	-1.28
231.356	0.94
231.733	1.38
232.111	2.22
232.488	1.87
232.866	2.19
233.243	0.38
233.621	-0.08
233.998	1.35
234.376	2.22
234.753	3.43
235.13	2.94
235.508	3.89
235.885	2.35
236.262	0.55
236.639	-0.06
237.016	-0.46
237.393	0.74
237.77	2.85
238.147	2.92
238.524	3.84
238.901	3.29
239.278	3.32
239.655	3.44
240.032	3.68
240.409	3.16
240.785	3.56
241.162	3.62
241.539	3.93
241.915	3.98
242.292	4.13
242.668	3.48
243.045	3.68
243.421	3.43
243.798	3.69
244.174	3.82
244.551	3.76
244.927	3.71
245.303	3.96
245.679	3.71
246.056	3.59
246.432	3.68
246.808	3.79
247.184	3.6
247.56	3.32
247.936	3.3
248.312	3.47
248.688	3.63
249.064	3.63
249.44	3.58
249.815	3.5
250.191	3.48
250.567	3.54
250.943	3.51
251.318	3.7
251.694	3.64
252.069	3.66
252.445	3.88
252.82	3.87
253.196	3.63
253.571	3.62
253.947	3.82
254.322	3.58
254.697	3.61
255.073	3.58
255.448	3.75
255.823	3.67
256.198	3.65
256.573	3.7
256.948	3.66
257.323	3.67
257.698	3.68
258.073	3.42
258.448	3.37
258.823	3.31
259.198	3.25
259.573	3.32
259.948	3.18
260.322	3.18
260.697	3.19
261.072	3.04
261.446	3.13
261.821	3.09
262.195	3.1
262.57	2.89
262.944	2.97
263.319	2.97
263.693	2.86
264.067	2.95
264.442	2.74
264.816	2.83
265.19	2.65
265.564	2.65
265.938	2.58
266.313	2.59
266.687	2.62
267.061	2.66
267.435	2.57
267.809	3.08
268.183	2.93
268.556	2.87
268.93	3.04
269.304	2.96
269.678	3.1
270.051	3.06
270.425	3.28
270.799	3.16
271.172	3.19
271.546	3.25
271.919	3.2
272.293	3.29
272.666	3.25
273.04	3.32
273.413	3.26
273.787	3.39
274.16	3.37
274.533	3.31
274.906	3.12
275.279	3.08
275.653	2.79
276.026	2.81
276.399	2.8
276.772	2.77
277.145	2.7
277.518	2.5
277.891	2.62
278.263	2.55
278.636	2.67
279.009	2.62
279.382	2.78
279.755	2.7
280.127	2.59
280.5	2.66
280.872	2.71
281.245	2.76
281.617	2.96
281.99	3.06
282.362	3.11
282.735	3.08
283.107	3.05
283.479	3.07
283.852	3.01
284.224	2.97
284.596	3.03
284.968	3.18
285.34	3.41
285.713	3.35
286.085	3.41
286.457	3.49
286.829	3.5
287.201	3.47
287.572	3.4
287.944	3.44
288.316	3.25
288.688	3.31
289.06	3.39
289.431	3.29
289.803	3.3
290.175	3.38
290.546	3.66
290.918	3.75
291.289	3.82
291.661	4.02
292.032	4.09
292.403	4.07
292.775	4.07
293.146	3.93
293.517	3.94
293.889	4.04
294.26	4
294.631	4
295.002	3.9
295.373	4.08
295.744	4.11
296.115	4.3
296.486	4.22
296.857	4.14
297.228	4.19
297.599	4.22
297.97	4.28
298.34	4.31
298.711	4.37
299.082	4.49
299.452	4.5
299.823	4.66
300.194	4.62
300.564	4.59
300.935	4.7
301.305	4.73
301.676	4.7
302.046	4.76
302.416	4.94
302.787	5.12
303.157	5.12
303.527	5.14
303.897	5.09
304.267	5.34
304.637	5.4
305.008	5.42
305.378	5.52
305.748	5.56
306.117	5.44
306.487	5.58
306.857	5.5
307.227	5.57
307.597	5.53
307.967	5.68
308.336	5.88
308.706	5.96
309.076	6.17
309.445	6.15
309.815	6.27
310.184	6.28
310.554	6.34
310.923	6.5
311.293	6.61
311.662	6.69
312.031	6.74
312.401	6.82
312.77	6.97
313.139	6.97
313.508	7.03
313.877	7.17
314.246	7.19
314.616	7.15
314.985	7.16
315.353	7.2
315.722	7.44
316.091	7.49
316.46	7.54
316.829	7.5
317.198	7.7
317.567	7.6
317.935	7.69
318.304	7.8
318.672	7.67
319.041	8.03
319.41	8.1
319.778	8
320.147	8.12
320.515	8.12
320.883	8.2
321.252	8.2
321.62	8.29
321.988	8.35
322.357	8.63
322.725	8.75
323.093	8.85
323.461	8.84
323.829	8.89
324.197	8.99
324.565	9.1
324.933	9.08
325.301	9.21
325.669	9.17
326.037	9.18
326.405	9.33
326.772	9.11
327.14	9.26
327.508	9.31
327.875	9.32
328.243	9.44
328.61	9.55
328.978	9.74
329.346	9.84
329.713	9.73
330.08	9.7
330.448	9.62
330.815	9.68
331.182	9.75
331.55	9.69
331.917	9.7
332.284	9.81
332.651	9.87
333.018	10.05
333.385	10.14
333.752	10.12
334.119	10.28
334.486	10.3
334.853	10.26
335.22	10.4
335.587	10.4
335.954	10.36
336.32	10.23
336.687	10.23
337.054	10.18
337.42	10.36
337.787	10.44
338.153	10.49
338.52	10.45
338.886	10.26
339.253	10.33
339.619	10.45
339.986	10.31
340.352	10.37
340.718	10.18
341.084	10.23
341.451	10.34
341.817	10.37
342.183	10.41
342.549	10.36
342.915	10.25
343.281	10.31
343.647	10.28
344.013	10.38
344.379	10.25
344.745	10.25
345.11	10.19
345.476	10.11
345.842	10.16
346.208	10.22
346.573	10.37
346.939	10.49
347.304	10.35
347.67	10.38
348.035	10.35
348.401	10.48
348.766	10.45
349.132	10.46
349.497	10.35
349.862	10.41
350.228	10.48
350.593	10.49
350.958	10.45
351.323	10.53
351.688	10.5
352.053	10.6
352.418	10.71
352.783	10.72
353.148	10.76
353.513	10.72
353.878	10.72
354.243	10.69
354.608	10.57
354.972	10.55
355.337	10.58
355.702	10.59
356.066	10.57
356.431	10.5
356.795	10.41
357.16	10.34
357.524	10.25
357.889	10.14
358.253	10.13
358.618	10.07
358.982	10
359.346	9.98
359.71	9.98
360.075	9.9
360.439	9.83
360.803	9.81
361.167	9.77
361.531	9.67
361.895	9.57
362.259	9.47
362.623	9.48
362.987	9.43
363.351	9.44
363.714	9.37
364.078	9.38
364.442	9.29
364.806	9.23
365.169	9.22
365.533	9.24
365.896	9.23
366.26	9.2
366.623	9.16
366.987	9.08
367.35	9.01
367.714	8.9
368.077	8.86
368.44	8.79
368.803	8.76
369.167	8.69
369.53	8.68
369.893	8.72
370.256	8.66
370.619	8.58
370.982	8.41
371.345	8.31
371.708	8.22
372.071	8.18
372.434	8.12
372.797	8
373.159	7.88
373.522	7.78
373.885	7.72
374.247	7.66
374.61	7.63
374.973	7.51
375.335	7.4
375.698	7.31
376.06	7.21
376.423	7.11
376.785	7.03
377.147	6.98
377.51	6.89
377.872	6.81
378.234	6.74
378.596	6.66
378.958	6.57
379.321	6.49
379.683	6.44
380.045	6.38
380.407	6.37
380.769	6.32
381.13	6.22
381.492	6.19
381.854	6.12
382.216	6.02
382.578	5.94
382.939	5.91
383.301	5.83
383.663	5.76
384.024	5.71
384.386	5.72
384.747	5.64
385.109	5.57
385.47	5.48
385.832	5.48
386.193	5.45
386.554	5.39
386.916	5.35
387.277	5.29
387.638	5.29
387.999	5.22
388.36	5.2
388.721	5.25
389.082	5.18
389.443	5.09
389.804	5.04
390.165	5.02
390.526	4.99
390.887	4.99
391.248	5
391.609	4.97
391.969	4.93
392.33	4.9
392.691	4.86
393.051	4.82
393.412	4.76
393.772	4.72
394.133	4.69
394.493	4.65
394.854	4.63
395.214	4.58
395.574	4.55
395.935	4.48
396.295	4.4
396.655	4.35
397.015	4.3
397.376	4.26
397.736	4.18
398.096	4.15
398.456	4.09
398.816	4.06
399.176	4.02
399.535	3.97
399.895	3.92
400.255	3.88
400.615	3.86
400.975	3.85
401.334	3.81
401.694	3.77
402.054	3.75
402.413	3.72
402.773	3.67
403.132	3.65
403.492	3.65
403.851	3.62
404.211	3.62
404.57	3.63
404.929	3.64
405.288	3.62
405.648	3.6
406.007	3.56
406.366	3.52
406.725	3.51
407.084	3.51
407.443	3.5
407.802	3.5
408.161	3.46
408.52	3.4
408.879	3.4
409.238	3.44
409.596	3.43
409.955	3.42
410.314	3.43
410.673	3.39
411.031	3.38
411.39	3.35
411.748	3.37
412.107	3.39
412.465	3.36
412.824	3.37
413.182	3.34
413.54	3.36
413.899	3.37
414.257	3.37
414.615	3.34
414.974	3.32
415.332	3.3
415.69	3.28
416.048	3.29
416.406	3.29
416.764	3.24
417.122	3.24
417.48	3.23
417.838	3.22
418.195	3.22
418.553	3.2
418.911	3.18
419.269	3.16
419.626	3.13
419.984	3.13
420.342	3.12
420.699	3.12
421.057	3.11
421.414	3.08
421.772	3.07
422.129	3.07
422.486	3.08
422.844	3.08
423.201	3.08
423.558	3.07
423.915	3.07
424.273	3.07
424.63	3.07
424.987	3.04
425.344	3.03
425.701	3
426.058	2.99
426.415	2.99
426.772	2.98
427.128	2.98
427.485	2.96
427.842	2.94
428.199	2.94
428.555	2.92
428.912	2.94
429.269	2.93
429.625	2.89
429.982	2.87
430.338	2.87
430.695	2.87
431.051	2.86
431.407	2.85
431.764	2.83
432.12	2.81
432.476	2.82
432.832	2.82
433.189	2.83
433.545	2.81
433.901	2.82
434.257	2.82
434.613	2.85
434.969	2.84
435.325	2.83
435.681	2.83
436.036	2.83
436.392	2.83
436.748	2.82
437.104	2.82
437.459	2.81
437.815	2.82
438.171	2.82
438.526	2.83
438.882	2.85
439.237	2.86
439.593	2.86
439.948	2.88
440.304	2.88
440.659	2.88
441.014	2.91
441.369	2.89
441.725	2.86
442.08	2.83
442.435	2.85
442.79	2.85
443.145	2.84
443.5	2.84
443.855	2.82
444.21	2.81
444.565	2.82
444.92	2.83
445.275	2.82
445.629	2.8
445.984	2.79
446.339	2.77
446.693	2.76
447.048	2.75
447.403	2.72
447.757	2.71
448.112	2.69
448.466	2.67
448.82	2.69
449.175	2.7
449.529	2.69
449.883	2.67
450.238	2.66
450.592	2.66
450.946	2.63
451.3	2.62
451.654	2.63
452.008	2.62
452.362	2.6
452.716	2.59
453.07	2.59
453.424	2.58
453.778	2.57
454.132	2.57
454.486	2.57
454.839	2.58
455.193	2.59
455.547	2.58
455.9	2.6
456.254	2.6
456.607	2.6
456.961	2.6
457.314	2.63
457.668	2.63
458.021	2.64
458.375	2.65
458.728	2.66
459.081	2.67
459.434	2.67
459.787	2.67
460.141	2.67
460.494	2.66
460.847	2.67
461.2	2.67
461.553	2.67
461.906	2.69
462.259	2.7
462.611	2.71
462.964	2.74
463.317	2.74
463.67	2.75
464.022	2.74
464.375	2.75
464.728	2.75
465.08	2.77
465.433	2.78
465.785	2.8
466.138	2.8
466.49	2.83
466.843	2.83
467.195	2.86
467.547	2.87
467.899	2.88
468.252	2.9
468.604	2.91
468.956	2.92
469.308	2.92
469.66	2.94
470.012	2.93
470.364	2.94
470.716	2.94
471.068	2.95
471.42	2.97
471.772	3
472.123	3
472.475	2.99
472.827	2.98
473.178	2.97
473.53	2.97
473.882	2.95
474.233	2.94
474.585	2.92
474.936	2.93
475.288	2.95
475.639	2.93
475.99	2.92
476.342	2.92
476.693	2.91
477.044	2.89
477.395	2.88
477.746	2.85
478.097	2.85
478.448	2.83
478.8	2.83
479.15	2.8
479.501	2.79
479.852	2.77
480.203	2.78
480.554	2.8
480.905	2.8
481.255	2.8
481.606	2.8
481.957	2.81
482.307	2.81
482.658	2.8
483.009	2.8
483.359	2.8
483.709	2.8
484.06	2.8
484.41	2.81
484.761	2.81
485.111	2.82
485.461	2.82
485.811	2.83
486.162	2.82
486.512	2.84
486.862	2.85
487.212	2.86
487.562	2.86
487.912	2.85
488.262	2.86
488.612	2.86
488.961	2.87
489.311	2.87
489.661	2.88
490.011	2.88
490.36	2.89
490.71	2.9
491.06	2.91
491.409	2.92
491.759	2.92
492.108	2.93
492.458	2.94
492.807	2.94
493.157	2.94
493.506	2.95
493.855	2.94
494.204	2.96
494.554	2.96
494.903	2.98
495.252	3.01
495.601	3.04
495.95	3.07
496.299	3.08
496.648	3.09
496.997	3.1
497.346	3.13
497.695	3.17
498.043	3.18
498.392	3.18
498.741	3.2
499.09	3.25
499.438	3.27
499.787	3.32
500.135	3.35
500.484	3.39
500.832	3.45
501.181	3.48
501.529	3.52
501.878	3.58
502.226	3.63
502.574	3.66
502.923	3.69
503.271	3.71
503.619	3.75
503.967	3.81
504.315	3.89
504.663	3.95
505.011	3.99
505.359	4.06
505.707	4.15
506.055	4.23
506.403	4.28
506.751	4.35
507.098	4.42
507.446	4.5
507.794	4.58
508.141	4.66
508.489	4.75
508.837	4.79
509.184	4.85
509.531	4.91
509.879	5
510.226	5.09
510.574	5.19
510.921	5.27
511.268	5.37
511.616	5.46
511.963	5.57
512.31	5.66
512.657	5.76
513.004	5.85
513.351	5.97
513.698	6.08
514.045	6.19
514.392	6.29
514.739	6.42
515.086	6.54
515.432	6.65
515.779	6.75
516.126	6.92
516.473	7.07
516.819	7.2
517.166	7.31
517.512	7.41
517.859	7.52
518.205	7.65
518.552	7.74
518.898	7.83
519.245	7.93
519.591	8.04
519.937	8.14
520.283	8.24
520.629	8.35
520.976	8.49
521.322	8.61
521.668	8.74
522.014	8.84
522.36	9
522.706	9.11
523.052	9.3
523.398	9.45
523.743	9.57
524.089	9.74
524.435	9.89
524.781	10.02
525.126	10.16
525.472	10.29
525.817	10.41
526.163	10.52
526.509	10.63
526.854	10.73
527.199	10.84
527.545	10.94
527.89	11.02
528.235	11.11
528.581	11.21
528.926	11.31
529.271	11.42
529.616	11.52
529.961	11.62
530.306	11.72
530.651	11.81
530.996	11.95
531.341	12.06
531.686	12.18
532.031	12.33
532.376	12.45
532.721	12.58
533.065	12.71
533.41	12.87
533.755	13.01
534.099	13.15
534.444	13.3
534.788	13.45
535.133	13.64
535.477	13.79
535.822	13.95
536.166	14.11
536.51	14.32
536.855	14.5
537.199	14.72
537.543	14.92
537.887	15.13
538.231	15.35
538.576	15.56
538.92	15.79
539.264	16
539.608	16.21
539.951	16.4
540.295	16.59
540.639	16.75
540.983	16.94
541.327	17.08
541.671	17.27
542.014	17.43
542.358	17.6
542.701	17.78
543.045	17.95
543.389	18.15
543.732	18.31
544.075	18.52
544.419	18.71
544.762	18.9
545.105	19.1
545.449	19.34
545.792	19.56
546.135	19.81
546.478	20.04
546.821	20.3
547.165	20.59
547.508	20.88
547.851	21.17
548.194	21.46
548.536	21.82
548.879	22.14
549.222	22.46
549.565	22.75
549.908	23.05
550.25	23.34
550.593	23.63
550.936	23.92
551.278	24.22
551.621	24.53
551.963	24.89
552.306	25.23
552.648	25.51
552.991	25.83
553.333	26.09
553.675	26.43
554.017	26.72
554.36	26.99
554.702	27.31
555.044	27.65
555.386	27.95
555.728	28.23
556.07	28.52
556.412	28.82
556.754	29.14
557.096	29.43
557.438	29.78
557.78	30.13
558.121	30.43
558.463	30.78
558.805	31.16
559.147	31.46
559.488	31.79
559.83	32.1
560.171	32.43
560.513	32.76
560.854	33.05
561.196	33.39
561.537	33.71
561.878	34
562.22	34.35
562.561	34.64
562.902	34.97
563.243	35.23
563.584	35.52
563.925	35.8
564.266	36.15
564.607	36.47
564.948	36.8
565.289	37.15
565.63	37.44
565.971	37.66
566.312	37.92
566.653	38.23
566.993	38.48
567.334	38.8
567.675	39.08
568.015	39.33
568.356	39.58
568.696	39.88
569.037	40.15
569.377	40.35
569.718	40.6
570.058	40.85
570.398	41.1
570.739	41.43
571.079	41.67
571.419	41.91
571.759	42.16
572.099	42.34
572.439	42.61
572.779	42.84
573.119	43.07
573.459	43.32
573.799	43.54
574.139	43.82
574.479	44
574.819	44.2
575.158	44.47
575.498	44.66
575.838	44.85
576.177	45.09
576.517	45.36
576.856	45.63
577.196	45.89
577.535	46.12
577.875	46.34
578.214	46.69
578.553	46.89
578.893	47.06
579.232	47.32
579.571	47.45
579.91	47.73
580.25	47.98
580.589	48.19
580.928	48.36
581.267	48.54
581.606	48.82
581.945	48.99
582.283	49.14
582.622	49.4
582.961	49.64
583.3	49.83
583.639	49.99
583.977	50.13
584.316	50.32
584.654	50.51
584.993	50.7
585.332	50.76
585.67	50.98
586.008	51.19
586.347	51.36
586.685	51.56
587.024	51.69
587.362	51.8
587.7	51.95
588.038	52.14
588.376	52.29
588.715	52.29
589.053	52.46
589.391	52.64
589.729	52.82
590.067	52.99
590.404	53.1
590.742	53.26
591.08	53.37
591.418	53.5
591.756	53.66
592.093	53.73
592.431	53.88
592.769	53.97
593.106	54.1
593.444	54.24
593.781	54.35
594.119	54.42
594.456	54.62
594.793	54.74
595.131	54.81
595.468	54.88
595.805	55.01
596.143	55.2
596.48	55.33
596.817	55.38
597.154	55.44
597.491	55.53
597.828	55.59
598.165	55.75
598.502	55.78
598.839	55.94
599.176	56.06
599.512	56.11
599.849	56.3
600.186	56.42
600.523	56.53
600.859	56.6
601.196	56.75
601.532	56.83
601.869	56.93
602.205	57
602.542	57.13
602.878	57.27
603.215	57.22
603.551	57.28
603.887	57.28
604.223	57.38
604.56	57.46
604.896	57.56
605.232	57.58
605.568	57.6
605.904	57.59
606.24	57.7
606.576	57.81
606.912	57.78
607.248	57.82
607.583	57.85
607.919	57.95
608.255	58.05
608.591	58.08
608.926	58.12
609.262	58.19
609.597	58.24
609.933	58.34
610.268	58.44
610.604	58.47
610.939	58.61
611.275	58.63
611.61	58.7
611.945	58.76
612.281	58.84
612.616	58.95
612.951	59.04
613.286	59.04
613.621	59.06
613.956	59.27
614.291	59.34
614.626	59.44
614.961	59.46
615.296	59.39
615.631	59.45
615.966	59.52
616.3	59.56
616.635	59.57
616.97	59.57
617.304	59.55
617.639	59.54
617.973	59.54
618.308	59.56
618.642	59.48
618.977	59.51
619.311	59.53
619.646	59.52
619.98	59.57
620.314	59.68
620.648	59.8
620.983	59.72
621.317	59.82
621.651	59.89
621.985	60.03
622.319	60.13
622.653	60.12
622.987	60.18
623.321	60.23
623.655	60.29
623.988	60.38
624.322	60.63
624.656	60.73
624.99	60.75
625.323	60.77
625.657	60.88
625.99	60.89
626.324	60.88
626.657	61
626.991	61.04
627.324	60.98
627.658	60.98
627.991	60.99
628.324	60.98
628.657	60.95
628.991	60.95
629.324	60.94
629.657	60.96
629.99	61.03
630.323	61.11
630.656	61.14
630.989	61.04
631.322	61
631.655	60.99
631.987	61.03
632.32	61.13
632.653	61.23
632.986	61.33
633.318	61.37
633.651	61.47
633.984	61.39
634.316	61.42
634.649	61.42
634.981	61.52
635.313	61.52
635.646	61.62
635.978	61.68
636.31	61.74
636.643	61.82
636.975	61.86
637.307	61.73
637.639	61.63
637.971	61.74
638.303	61.68
638.635	61.71
638.967	61.73
639.299	61.7
639.631	61.54
639.963	61.47
640.295	61.48
640.626	61.42
640.958	61.47
641.29	61.61
641.621	61.6
641.953	61.6
642.285	61.6
642.616	61.53
642.948	61.49
643.279	61.5
643.61	61.5
643.942	61.4
644.273	61.51
644.604	61.53
644.936	61.49
645.267	61.47
645.598	61.57
645.929	61.54
646.26	61.61
646.591	61.74
646.922	61.86
647.253	61.99
647.584	62.05
647.915	62.09
648.245	61.95
648.576	62
648.907	61.94
649.238	62.05
649.568	62.21
649.899	62.1
650.229	62.17
650.56	62.24
650.89	62.34
651.221	62.41
651.551	62.59
651.882	62.58
652.212	62.67
652.542	62.66
652.872	62.74
653.203	62.67
653.533	62.71
653.863	62.7
654.193	62.62
654.523	62.62
654.853	62.68
655.183	62.76
655.513	62.79
655.843	62.81
656.172	62.85
656.502	62.71
656.832	62.8
657.162	62.84
657.491	62.72
657.821	62.8
658.15	62.78
658.48	62.78
658.809	62.93
659.139	62.81
659.468	62.68
659.798	62.7
660.127	62.75
660.456	62.78
660.785	62.75
661.115	62.72
661.444	62.69
661.773	62.72
662.102	62.72
662.431	62.75
662.76	62.93
663.089	62.87
663.418	62.95
663.747	62.85
664.076	62.74
664.404	62.92
664.733	62.89
665.062	62.9
665.39	62.9
665.719	62.91
666.048	63.06
666.376	63.14
666.705	63.09
