Data from BU57649_Reflection_00006.txt Node
Date: Tue Nov 19 10:55:39 EST 2019
User: vgr7
Spectrometer: USB2G7710
Scans to average: 3
Trigger mode: 4
Integration Time (sec): 2.000000E-2
Electric dark correction enabled: true
Boxcar width: 10
XAxis mode: Wavelengths
Number of Pixels in Spectrum: 2048
>>>>>Begin Spectral Data<<<<<
177.721	-22.35
178.105	-27.93
178.488	-18.92
178.871	-8.16
179.254	5.76
179.636	21.4
180.019	16.03
180.402	-66.67
180.785	270.59
181.168	10475
181.55	-400
181.933	256.8
182.316	262.58
182.698	-172.04
183.081	-116.71
183.463	-37.67
183.846	-18.58
184.228	-32.55
184.611	-21.76
184.993	-10.48
185.376	-7.62
185.758	-7.41
186.14	-8.47
186.522	-10.53
186.904	-10.2
187.287	-14.74
187.669	-14.8
188.051	-12.29
188.433	-19.53
188.815	-15.22
189.197	-14.84
189.579	-8.34
189.961	-13.64
190.342	-12.17
190.724	-12.34
191.106	-14.54
191.488	-14.01
191.869	-18.54
192.251	-23.3
192.633	-25.76
193.014	-24.54
193.396	-43.12
193.777	-48.48
194.159	-45.35
194.54	-33.01
194.922	-36.31
195.303	-21.26
195.684	-17.51
196.065	-29.38
196.447	-25.69
196.828	-37.02
197.209	-17.83
197.59	-27.93
197.971	-27.96
198.352	-37.09
198.733	-40.37
199.114	-40.78
199.495	-40.94
199.876	-45.17
200.257	-39.74
200.638	-36.33
201.018	-41.23
201.399	-34.91
201.78	-36.25
202.16	-42.5
202.541	-44.63
202.922	-36.7
203.302	-38.5
203.683	-38.32
204.063	-37.08
204.444	-27.71
204.824	-21.25
205.204	-21.16
205.585	-22.74
205.965	-20.06
206.345	-7.32
206.725	-0.36
207.106	0.1
207.486	1.68
207.866	0.82
208.246	0.09
208.626	-0.82
209.006	2.84
209.386	6.5
209.766	7.23
210.145	14.97
210.525	20.25
210.905	20.65
211.285	18.59
211.664	19.46
212.044	13.35
212.424	10.37
212.803	4.1
213.183	5.8
213.562	10.35
213.942	11.52
214.321	6.15
214.701	-1.96
215.08	1.05
215.459	-12.09
215.838	-9
216.218	-15.25
216.597	-5.29
216.976	-6.76
217.355	-4.73
217.734	-13.77
218.113	-7.67
218.492	-12.8
218.871	-18.37
219.25	-23.33
219.629	-34.02
220.008	-15.24
220.387	-13.08
220.766	-6.92
221.144	-22.08
221.523	-37.99
221.902	-22.16
222.28	-21.34
222.659	-12.34
223.037	-9.79
223.416	-4.92
223.794	-4.39
224.173	-2.54
224.551	-3.36
224.929	-6.07
225.308	-2.34
225.686	4.36
226.064	1.25
226.442	3.91
226.821	4.63
227.199	5.95
227.577	9.14
227.955	6.73
228.333	5.45
228.711	4.73
229.089	7.45
229.467	11.09
229.845	9.26
230.222	8.33
230.6	9.59
230.978	11.07
231.356	13.24
231.733	14.21
232.111	14.01
232.488	13.38
232.866	15.3
233.243	13.58
233.621	12.85
233.998	12.97
234.376	12.54
234.753	12.1
235.13	12.28
235.508	12.65
235.885	13.67
236.262	14.11
236.639	13.91
237.016	13.64
237.393	12.75
237.77	12.55
238.147	11.28
238.524	10.12
238.901	9.17
239.278	7.9
239.655	7.79
240.032	7.7
240.409	8.06
240.785	7.43
241.162	7.35
241.539	6.84
241.915	6.05
242.292	5.77
242.668	5.87
243.045	5.65
243.421	5.44
243.798	5.29
244.174	5.04
244.551	4.85
244.927	4.91
245.303	4.5
245.679	4.31
246.056	4.31
246.432	4.22
246.808	4.1
247.184	4.38
247.56	4.36
247.936	4.46
248.312	4.3
248.688	4.34
249.064	4.17
249.44	4.23
249.815	4.35
250.191	4.35
250.567	4.41
250.943	4.43
251.318	4.27
251.694	4.06
252.069	3.98
252.445	4.17
252.82	3.99
253.196	4.1
253.571	4.05
253.947	4.26
254.322	4.17
254.697	4.06
255.073	3.96
255.448	3.78
255.823	3.83
256.198	3.78
256.573	3.74
256.948	3.7
257.323	3.54
257.698	3.69
258.073	3.76
258.448	3.71
258.823	3.76
259.198	3.86
259.573	3.84
259.948	3.94
260.322	3.91
260.697	4.13
261.072	4.28
261.446	4.33
261.821	4.35
262.195	4.37
262.57	4.43
262.944	4.23
263.319	4.15
263.693	3.95
264.067	4
264.442	3.9
264.816	3.85
265.19	3.88
265.564	3.9
265.938	3.87
266.313	3.81
266.687	3.87
267.061	3.89
267.435	4.11
267.809	3.96
268.183	3.94
268.556	3.75
268.93	3.61
269.304	3.52
269.678	3.54
270.051	3.57
270.425	3.5
270.799	3.6
271.172	3.77
271.546	4.03
271.919	3.96
272.293	4.09
272.666	4.26
273.04	4.36
273.413	4.4
273.787	4.39
274.16	4.47
274.533	4.38
274.906	4.27
275.279	4.13
275.653	4.18
276.026	4.2
276.399	4.27
276.772	4.49
277.145	4.47
277.518	4.4
277.891	4.16
278.263	4.34
278.636	4.37
279.009	4.26
279.382	3.9
279.755	3.94
280.127	3.88
280.5	3.82
280.872	3.87
281.245	3.77
281.617	3.84
281.99	3.82
282.362	3.76
282.735	3.85
283.107	3.81
283.479	3.88
283.852	3.9
284.224	3.92
284.596	3.78
284.968	3.89
285.34	3.85
285.713	4.1
286.085	3.9
286.457	3.83
286.829	3.81
287.201	4.02
287.572	3.97
287.944	4.02
288.316	4.12
288.688	4.22
289.06	4.1
289.431	4.11
289.803	4.11
290.175	4.11
290.546	4.05
290.918	4.17
291.289	4.01
291.661	3.95
292.032	3.82
292.403	3.84
292.775	3.85
293.146	3.95
293.517	3.81
293.889	3.92
294.26	3.94
294.631	3.98
295.002	3.94
295.373	3.88
295.744	3.89
296.115	3.79
296.486	3.63
296.857	3.8
297.228	3.7
297.599	3.67
297.97	3.84
298.34	3.91
298.711	3.77
299.082	3.83
299.452	3.95
299.823	3.95
300.194	3.99
300.564	3.93
300.935	3.93
301.305	3.96
301.676	4
302.046	4.06
302.416	4.12
302.787	4.18
303.157	4.33
303.527	4.21
303.897	4.19
304.267	4.15
304.637	3.97
305.008	4.01
305.378	4.09
305.748	3.95
306.117	3.84
306.487	4.01
306.857	4.1
307.227	4.12
307.597	4.11
307.967	4.05
308.336	4.14
308.706	4.18
309.076	4.31
309.445	4.34
309.815	4.29
310.184	4.2
310.554	4.16
310.923	3.88
311.293	4.02
311.662	4.15
312.031	4.13
312.401	4.2
312.77	4.08
313.139	4.04
313.508	3.87
313.877	3.89
314.246	3.77
314.616	3.77
314.985	3.67
315.353	3.69
315.722	3.75
316.091	3.64
316.46	3.46
316.829	3.3
317.198	3.33
317.567	3.42
317.935	3.43
318.304	3.38
318.672	3.72
319.041	3.67
319.41	3.46
319.778	3.6
320.147	3.63
320.515	3.87
320.883	3.87
321.252	4.12
321.62	4.14
321.988	4.23
322.357	4.06
322.725	4.15
323.093	4.11
323.461	4
323.829	4.04
324.197	4.15
324.565	4.24
324.933	4.09
325.301	4.04
325.669	4.1
326.037	4.14
326.405	4.05
326.772	4
327.14	4.03
327.508	3.91
327.875	3.78
328.243	3.71
328.61	3.6
328.978	3.46
329.346	3.36
329.713	3.28
330.08	3.42
330.448	3.31
330.815	3.36
331.182	3.22
331.55	3.22
331.917	3.26
332.284	3.15
332.651	3.2
333.018	3.25
333.385	3.14
333.752	3.16
334.119	3.17
334.486	3.21
334.853	3.1
335.22	3.11
335.587	3.13
335.954	3.15
336.32	3.28
336.687	3.3
337.054	3.32
337.42	3.39
337.787	3.29
338.153	3.19
338.52	3.25
338.886	3.49
339.253	3.41
339.619	3.28
339.986	3.32
340.352	3.34
340.718	3.27
341.084	3.29
341.451	3.25
341.817	3.21
342.183	3.15
342.549	3.27
342.915	3.37
343.281	3.42
343.647	3.43
344.013	3.37
344.379	3.39
344.745	3.52
345.11	3.52
345.476	3.62
345.842	3.67
346.208	3.64
346.573	3.55
346.939	3.61
347.304	3.66
347.67	3.63
348.035	3.61
348.401	3.64
348.766	3.59
349.132	3.59
349.497	3.62
349.862	3.69
350.228	3.71
350.593	3.71
350.958	3.73
351.323	3.72
351.688	3.68
352.053	3.69
352.418	3.55
352.783	3.48
353.148	3.43
353.513	3.45
353.878	3.38
354.243	3.33
354.608	3.41
354.972	3.39
355.337	3.42
355.702	3.42
356.066	3.37
356.431	3.43
356.795	3.45
357.16	3.38
357.524	3.38
357.889	3.3
358.253	3.29
358.618	3.21
358.982	3.21
359.346	3.23
359.71	3.22
360.075	3.28
360.439	3.33
360.803	3.33
361.167	3.31
361.531	3.37
361.895	3.37
362.259	3.3
362.623	3.33
362.987	3.32
363.351	3.3
363.714	3.33
364.078	3.35
364.442	3.29
364.806	3.31
365.169	3.28
365.533	3.33
365.896	3.34
366.26	3.35
366.623	3.39
366.987	3.41
367.35	3.47
367.714	3.44
368.077	3.36
368.44	3.31
368.803	3.3
369.167	3.23
369.53	3.25
369.893	3.25
370.256	3.25
370.619	3.22
370.982	3.24
371.345	3.25
371.708	3.25
372.071	3.26
372.434	3.32
372.797	3.33
373.159	3.31
373.522	3.24
373.885	3.28
374.247	3.2
374.61	3.14
374.973	3.13
375.335	3.12
375.698	3.15
376.06	3.19
376.423	3.17
376.785	3.24
377.147	3.23
377.51	3.27
377.872	3.25
378.234	3.31
378.596	3.3
378.958	3.32
379.321	3.3
379.683	3.32
380.045	3.3
380.407	3.31
380.769	3.34
381.13	3.4
381.492	3.4
381.854	3.39
382.216	3.45
382.578	3.42
382.939	3.43
383.301	3.43
383.663	3.43
384.024	3.43
384.386	3.39
384.747	3.37
385.109	3.35
385.47	3.35
385.832	3.32
386.193	3.28
386.554	3.21
386.916	3.19
387.277	3.14
387.638	3.14
387.999	3.16
388.36	3.14
388.721	3.13
389.082	3.1
389.443	3.14
389.804	3.14
390.165	3.16
390.526	3.15
390.887	3.17
391.248	3.13
391.609	3.15
391.969	3.18
392.33	3.18
392.691	3.18
393.051	3.15
393.412	3.17
393.772	3.2
394.133	3.23
394.493	3.24
394.854	3.27
395.214	3.29
395.574	3.27
395.935	3.29
396.295	3.31
396.655	3.32
397.015	3.32
397.376	3.3
397.736	3.25
398.096	3.24
398.456	3.24
398.816	3.24
399.176	3.2
399.535	3.16
399.895	3.18
400.255	3.15
400.615	3.2
400.975	3.18
401.334	3.18
401.694	3.17
402.054	3.2
402.413	3.19
402.773	3.17
403.132	3.16
403.492	3.14
403.851	3.12
404.211	3.1
404.57	3.11
404.929	3.1
405.288	3.12
405.648	3.12
406.007	3.13
406.366	3.14
406.725	3.17
407.084	3.18
407.443	3.18
407.802	3.21
408.161	3.19
408.52	3.19
408.879	3.2
409.238	3.21
409.596	3.17
409.955	3.16
410.314	3.14
410.673	3.16
411.031	3.15
411.39	3.19
411.748	3.21
412.107	3.2
412.465	3.2
412.824	3.18
413.182	3.2
413.54	3.23
413.899	3.2
414.257	3.18
414.615	3.17
414.974	3.17
415.332	3.17
415.69	3.13
416.048	3.15
416.406	3.1
416.764	3.09
417.122	3.09
417.48	3.09
417.838	3.09
418.195	3.09
418.553	3.1
418.911	3.07
419.269	3.08
419.626	3.07
419.984	3.08
420.342	3.1
420.699	3.1
421.057	3.07
421.414	3.08
421.772	3.09
422.129	3.09
422.486	3.09
422.844	3.08
423.201	3.09
423.558	3.07
423.915	3.09
424.273	3.09
424.63	3.1
424.987	3.11
425.344	3.12
425.701	3.12
426.058	3.11
426.415	3.1
426.772	3.09
427.128	3.1
427.485	3.09
427.842	3.08
428.199	3.07
428.555	3.09
428.912	3.09
429.269	3.08
429.625	3.08
429.982	3.08
430.338	3.1
430.695	3.08
431.051	3.1
431.407	3.09
431.764	3.09
432.12	3.09
432.476	3.09
432.832	3.08
433.189	3.06
433.545	3.08
433.901	3.08
434.257	3.07
434.613	3.06
434.969	3.05
435.325	3.07
435.681	3.08
436.036	3.06
436.392	3.07
436.748	3.07
437.104	3.08
437.459	3.08
437.815	3.06
438.171	3.05
438.526	3.04
438.882	3.05
439.237	3.05
439.593	3.04
439.948	3.04
440.304	3.04
440.659	3.04
441.014	3.03
441.369	3.03
441.725	3.03
442.08	3.02
442.435	3.03
442.79	3.01
443.145	3.03
443.5	3.02
443.855	3.01
444.21	3.01
444.565	3.02
444.92	3.02
445.275	3.03
445.629	3.04
445.984	3.04
446.339	3.04
446.693	3.04
447.048	3.03
447.403	3.02
447.757	3.03
448.112	3.04
448.466	3.05
448.82	3.06
449.175	3.06
449.529	3.06
449.883	3.05
450.238	3.07
450.592	3.06
450.946	3.08
451.3	3.09
451.654	3.1
452.008	3.09
452.362	3.07
452.716	3.08
453.07	3.08
453.424	3.09
453.778	3.08
454.132	3.07
454.486	3.07
454.839	3.08
455.193	3.07
455.547	3.08
455.9	3.05
456.254	3.05
456.607	3.07
456.961	3.07
457.314	3.06
457.668	3.06
458.021	3.05
458.375	3.04
458.728	3.05
459.081	3.04
459.434	3.06
459.787	3.07
460.141	3.08
460.494	3.07
460.847	3.06
461.2	3.07
461.553	3.08
461.906	3.09
462.259	3.09
462.611	3.1
462.964	3.11
463.317	3.11
463.67	3.13
464.022	3.13
464.375	3.14
464.728	3.13
465.08	3.11
465.433	3.09
465.785	3.1
466.138	3.1
466.49	3.11
466.843	3.09
467.195	3.08
467.547	3.07
467.899	3.09
468.252	3.09
468.604	3.1
468.956	3.12
469.308	3.08
469.66	3.11
470.012	3.11
470.364	3.11
470.716	3.1
471.068	3.09
471.42	3.1
471.772	3.11
472.123	3.14
472.475	3.14
472.827	3.16
473.178	3.13
473.53	3.13
473.882	3.14
474.233	3.16
474.585	3.16
474.936	3.16
475.288	3.15
475.639	3.14
475.99	3.13
476.342	3.12
476.693	3.14
477.044	3.13
477.395	3.11
477.746	3.12
478.097	3.13
478.448	3.12
478.8	3.12
479.15	3.11
479.501	3.1
479.852	3.09
480.203	3.1
480.554	3.12
480.905	3.13
481.255	3.13
481.606	3.12
481.957	3.12
482.307	3.13
482.658	3.13
483.009	3.14
483.359	3.15
483.709	3.14
484.06	3.15
484.41	3.15
484.761	3.15
485.111	3.15
485.461	3.16
485.811	3.17
486.162	3.17
486.512	3.18
486.862	3.18
487.212	3.19
487.562	3.19
487.912	3.19
488.262	3.19
488.612	3.19
488.961	3.19
489.311	3.18
489.661	3.2
490.011	3.19
490.36	3.18
490.71	3.17
491.06	3.17
491.409	3.17
491.759	3.18
492.108	3.17
492.458	3.17
492.807	3.17
493.157	3.15
493.506	3.14
493.855	3.13
494.204	3.12
494.554	3.12
494.903	3.12
495.252	3.12
495.601	3.12
495.95	3.13
496.299	3.12
496.648	3.15
496.997	3.13
497.346	3.16
497.695	3.17
498.043	3.18
498.392	3.19
498.741	3.2
499.09	3.18
499.438	3.18
499.787	3.18
500.135	3.19
500.484	3.22
500.832	3.23
501.181	3.25
501.529	3.28
501.878	3.3
502.226	3.31
502.574	3.31
502.923	3.31
503.271	3.3
503.619	3.31
503.967	3.3
504.315	3.31
504.663	3.29
505.011	3.3
505.359	3.29
505.707	3.3
506.055	3.29
506.403	3.32
506.751	3.32
507.098	3.33
507.446	3.34
507.794	3.35
508.141	3.35
508.489	3.35
508.837	3.32
509.184	3.33
509.531	3.32
509.879	3.33
510.226	3.34
510.574	3.36
510.921	3.37
511.268	3.38
511.616	3.36
511.963	3.37
512.31	3.39
512.657	3.4
513.004	3.39
513.351	3.4
513.698	3.38
514.045	3.4
514.392	3.4
514.739	3.41
515.086	3.4
515.432	3.41
515.779	3.42
516.126	3.43
516.473	3.43
516.819	3.44
517.166	3.46
517.512	3.44
517.859	3.44
518.205	3.43
518.552	3.44
518.898	3.47
519.245	3.48
519.591	3.47
519.937	3.5
520.283	3.49
520.629	3.5
520.976	3.52
521.322	3.54
521.668	3.53
522.014	3.54
522.36	3.55
522.706	3.55
523.052	3.55
523.398	3.57
523.743	3.57
524.089	3.6
524.435	3.59
524.781	3.6
525.126	3.6
525.472	3.61
525.817	3.61
526.163	3.61
526.509	3.62
526.854	3.63
527.199	3.62
527.545	3.64
527.89	3.64
528.235	3.64
528.581	3.64
528.926	3.63
529.271	3.64
529.616	3.63
529.961	3.63
530.306	3.64
530.651	3.63
530.996	3.64
531.341	3.64
531.686	3.65
532.031	3.65
532.376	3.65
532.721	3.66
533.065	3.66
533.41	3.67
533.755	3.66
534.099	3.66
534.444	3.66
534.788	3.65
535.133	3.65
535.477	3.65
535.822	3.64
536.166	3.66
536.51	3.66
536.855	3.68
537.199	3.69
537.543	3.71
537.887	3.72
538.231	3.71
538.576	3.69
538.92	3.69
539.264	3.7
539.608	3.7
539.951	3.69
540.295	3.7
540.639	3.7
540.983	3.71
541.327	3.71
541.671	3.71
542.014	3.71
542.358	3.72
542.701	3.74
543.045	3.74
543.389	3.74
543.732	3.74
544.075	3.73
544.419	3.73
544.762	3.71
545.105	3.72
545.449	3.73
545.792	3.73
546.135	3.73
546.478	3.73
546.821	3.75
547.165	3.74
547.508	3.73
547.851	3.72
548.194	3.71
548.536	3.72
548.879	3.74
549.222	3.74
549.565	3.74
549.908	3.7
550.25	3.7
550.593	3.71
550.936	3.72
551.278	3.72
551.621	3.7
551.963	3.72
552.306	3.7
552.648	3.71
552.991	3.7
553.333	3.71
553.675	3.71
554.017	3.69
554.36	3.71
554.702	3.69
555.044	3.7
555.386	3.72
555.728	3.72
556.07	3.69
556.412	3.7
556.754	3.67
557.096	3.71
557.438	3.69
557.78	3.65
558.121	3.64
558.463	3.63
558.805	3.65
559.147	3.66
559.488	3.67
559.83	3.68
560.171	3.67
560.513	3.69
560.854	3.69
561.196	3.72
561.537	3.69
561.878	3.74
562.22	3.72
562.561	3.73
562.902	3.71
563.243	3.71
563.584	3.7
563.925	3.73
564.266	3.7
564.607	3.74
564.948	3.75
565.289	3.76
565.63	3.77
565.971	3.76
566.312	3.74
566.653	3.73
566.993	3.71
567.334	3.75
567.675	3.72
568.015	3.7
568.356	3.69
568.696	3.69
569.037	3.68
569.377	3.69
569.718	3.68
570.058	3.7
570.398	3.71
570.739	3.71
571.079	3.72
571.419	3.73
571.759	3.7
572.099	3.72
572.439	3.72
572.779	3.72
573.119	3.73
573.459	3.73
573.799	3.72
574.139	3.72
574.479	3.72
574.819	3.74
575.158	3.75
575.498	3.76
575.838	3.77
576.177	3.78
576.517	3.78
576.856	3.77
577.196	3.77
577.535	3.75
577.875	3.74
578.214	3.71
578.553	3.71
578.893	3.73
579.232	3.7
579.571	3.7
579.91	3.69
580.25	3.71
580.589	3.7
580.928	3.7
581.267	3.7
581.606	3.7
581.945	3.69
582.283	3.7
582.622	3.7
582.961	3.7
583.3	3.65
583.639	3.65
583.977	3.64
584.316	3.61
584.654	3.66
584.993	3.67
585.332	3.69
585.67	3.69
586.008	3.72
586.347	3.77
586.685	3.75
587.024	3.78
587.362	3.72
587.7	3.77
588.038	3.82
588.376	3.8
588.715	3.79
589.053	3.78
589.391	3.77
589.729	3.75
590.067	3.76
590.404	3.78
590.742	3.73
591.08	3.78
591.418	3.78
591.756	3.81
592.093	3.81
592.431	3.82
592.769	3.8
593.106	3.77
593.444	3.77
593.781	3.78
594.119	3.77
594.456	3.82
594.793	3.81
595.131	3.8
595.468	3.82
595.805	3.82
596.143	3.85
596.48	3.85
596.817	3.86
597.154	3.87
597.491	3.88
597.828	3.93
598.165	3.9
598.502	3.91
598.839	3.86
599.176	3.87
599.512	3.87
599.849	3.88
600.186	3.89
600.523	3.89
600.859	3.9
601.196	3.9
601.532	3.86
601.869	3.84
602.205	3.82
602.542	3.83
602.878	3.82
603.215	3.78
603.551	3.79
603.887	3.78
604.223	3.75
604.56	3.78
604.896	3.79
605.232	3.82
605.568	3.84
605.904	3.84
606.24	3.85
606.576	3.85
606.912	3.86
607.248	3.86
607.583	3.85
607.919	3.82
608.255	3.84
608.591	3.86
608.926	3.88
609.262	3.89
609.597	3.86
609.933	3.88
610.268	3.92
610.604	3.93
610.939	3.96
611.275	3.96
611.61	3.94
611.945	3.91
612.281	3.91
612.616	3.92
612.951	3.95
613.286	3.93
613.621	3.93
613.956	3.96
614.291	3.96
614.626	3.97
614.961	4
615.296	4.03
615.631	4.06
615.966	4.02
616.3	3.98
616.635	4.05
616.97	4.06
617.304	4.04
617.639	4.05
617.973	4.02
618.308	4.03
618.642	4.08
618.977	4.06
619.311	4.03
619.646	4
619.98	3.94
620.314	3.92
620.648	3.92
620.983	3.84
621.317	3.88
621.651	3.9
621.985	3.9
622.319	3.84
622.653	3.83
622.987	3.84
623.321	3.86
623.655	3.84
623.988	3.83
624.322	3.88
624.656	3.91
624.99	3.95
625.323	3.94
625.657	3.96
625.99	4
626.324	3.99
626.657	3.97
626.991	4.06
627.324	4.08
627.658	4.09
627.991	4.12
628.324	4.07
628.657	4.02
628.991	4.03
629.324	3.99
629.657	3.95
629.99	3.97
630.323	3.96
630.656	3.94
630.989	3.91
631.322	3.9
631.655	3.85
631.987	3.88
632.32	3.91
632.653	3.87
632.986	3.85
633.318	3.89
633.651	3.91
633.984	3.88
634.316	3.89
634.649	3.89
634.981	3.88
635.313	3.86
635.646	3.89
635.978	3.88
636.31	3.93
636.643	3.96
636.975	3.95
637.307	3.97
637.639	3.98
637.971	3.98
638.303	3.95
638.635	3.95
638.967	3.87
639.299	3.85
639.631	3.85
639.963	3.83
640.295	3.79
640.626	3.79
640.958	3.74
641.29	3.77
641.621	3.73
641.953	3.71
642.285	3.74
642.616	3.74
642.948	3.73
643.279	3.68
643.61	3.71
643.942	3.69
644.273	3.65
644.604	3.66
644.936	3.69
645.267	3.72
645.598	3.74
645.929	3.75
646.26	3.7
646.591	3.7
646.922	3.74
647.253	3.76
647.584	3.76
647.915	3.82
648.245	3.84
648.576	3.87
648.907	3.87
649.238	3.85
649.568	3.85
649.899	3.9
650.229	4.01
650.56	4
650.89	4.07
651.221	4.08
651.551	4.11
651.882	4.13
652.212	4.07
652.542	4.09
652.872	4.11
653.203	4.16
653.533	4.19
653.863	4.2
654.193	4.18
654.523	4.22
654.853	4.27
655.183	4.21
655.513	4.27
655.843	4.29
656.172	4.35
656.502	4.41
656.832	4.38
657.162	4.3
657.491	4.36
657.821	4.31
658.15	4.33
658.48	4.29
658.809	4.28
659.139	4.36
659.468	4.3
659.798	4.3
660.127	4.29
660.456	4.23
660.785	4.21
661.115	4.24
661.444	4.31
661.773	4.27
662.102	4.27
662.431	4.19
662.76	4.2
663.089	4.22
663.418	4.19
663.747	4.24
664.076	4.27
664.404	4.28
664.733	4.29
665.062	4.33
665.39	4.31
665.719	4.24
666.048	4.25
666.376	4.28
666.705	4.29
667.033	4.34
667.362	4.38
667.69	4.4
668.018	4.42
668.347	4.27
668.675	4.15
669.003	4.17
669.331	4.3
669.659	4.24
669.987	4.26
670.315	4.3
670.643	4.18
670.971	4.19
671.299	4.13
671.627	4.14
671.955	4.12
672.283	4.22
672.61	4.29
672.938	4.17
673.266	4.14
673.593	4.07
673.921	4
674.249	4.03
674.576	4.04
674.904	3.98
675.231	4.08
675.558	4.18
675.886	4.22
676.213	4.12
676.54	4.15
676.867	4.14
677.195	4.14
677.522	4.18
677.849	4.23
678.176	4.28
678.503	4.23
678.83	4.22
679.157	4.15
