Data from BU57614_Reflection_00004.txt Node
Date: Mon Nov 18 16:24:18 EST 2019
User: vgr7
Spectrometer: USB2G7710
Scans to average: 3
Trigger mode: 4
Integration Time (sec): 2.000000E-2
Electric dark correction enabled: true
Boxcar width: 10
XAxis mode: Wavelengths
Number of Pixels in Spectrum: 2048
>>>>>Begin Spectral Data<<<<<
177.721	458.92
178.105	-43.77
178.488	-2.87
178.871	295.98
179.254	401.04
179.636	-220.39
180.019	120.81
180.402	39.62
180.785	105.74
181.168	-2422.73
181.55	245.5
181.933	136.95
182.316	127.06
182.698	155
183.081	146.15
183.463	143.36
183.846	141.23
184.228	264.14
184.611	200.45
184.993	289.52
185.376	-8547.06
185.758	-4762.07
186.14	1448.62
186.522	-2188.14
186.904	-1097.42
187.287	-1149.11
187.669	-281.26
188.051	-331.22
188.433	-67.29
188.815	-41.97
189.197	-30.7
189.579	-25.64
189.961	-23.01
190.342	-8.3
190.724	8.97
191.106	2.43
191.488	-6.47
191.869	9.16
192.251	20.97
192.633	33.67
193.014	-17.38
193.396	-62.05
193.777	-52.34
194.159	-72.28
194.54	-72.37
194.922	-38.44
195.303	-33.58
195.684	-42.61
196.065	-42.8
196.447	-47.21
196.828	-42.22
197.209	-33.23
197.59	-36.75
197.971	-41.56
198.352	-41.49
198.733	-53.19
199.114	-43.41
199.495	-39.61
199.876	-50.55
200.257	-55.31
200.638	-42.19
201.018	-35.56
201.399	-28.69
201.78	-26.34
202.16	-27.06
202.541	-44.61
202.922	-54.05
203.302	-77.56
203.683	-63.42
204.063	-75.36
204.444	-85.36
204.824	-93.06
205.204	-87.65
205.585	-54.38
205.965	-51.96
206.345	-63.07
206.725	-53.07
207.106	-57.07
207.486	-68.63
207.866	-60.7
208.246	-53.38
208.626	-52.57
209.006	-34.75
209.386	-49.05
209.766	-63.99
210.145	-62.78
210.525	-46.69
210.905	-59.76
211.285	-44.43
211.664	-34.8
212.044	-33.39
212.424	-25.78
212.803	-18.67
213.183	-14.06
213.562	-15.1
213.942	-10.82
214.321	-9.82
214.701	-17.82
215.08	-18.54
215.459	-17.64
215.838	-15.22
216.218	-26.58
216.597	-30.06
216.976	-32.41
217.355	-29.48
217.734	-28.28
218.113	-22.64
218.492	-28.49
218.871	-25.71
219.25	-25.42
219.629	-39.66
220.008	-35.55
220.387	-37.64
220.766	-43.29
221.144	-61.08
221.523	-73.33
221.902	-81.32
222.28	-84.05
222.659	-67.85
223.037	-73.24
223.416	-69.64
223.794	-58.72
224.173	-46.16
224.551	-38.81
224.929	-36.81
225.308	-33.76
225.686	-28.43
226.064	-23.53
226.442	-19.05
226.821	-13.29
227.199	-13.43
227.577	-10.71
227.955	-12.2
228.333	-11.13
228.711	-10.74
229.089	-6.04
229.467	-4.06
229.845	-1.61
230.222	0.66
230.6	0.76
230.978	1.19
231.356	1.74
231.733	-0.19
232.111	0.67
232.488	1.81
232.866	2.39
233.243	2.4
233.621	1.79
233.998	1.59
234.376	1.61
234.753	0.58
235.13	1.54
235.508	3.6
235.885	4.48
236.262	3.31
236.639	4.56
237.016	4.37
237.393	3.82
237.77	3.96
238.147	3.84
238.524	3.13
238.901	3.51
239.278	4.92
239.655	5.85
240.032	5.46
240.409	4.95
240.785	5.8
241.162	6.59
241.539	7.05
241.915	6.98
242.292	6.58
242.668	6.56
243.045	6.7
243.421	6.37
243.798	5.82
244.174	5.77
244.551	5.29
244.927	5.25
245.303	5.48
245.679	5.19
246.056	4.98
246.432	4.96
246.808	4.91
247.184	4.38
247.56	4.23
247.936	4.29
248.312	4.21
248.688	4.06
249.064	3.77
249.44	3.65
249.815	3.41
250.191	3.6
250.567	3.54
250.943	3.21
251.318	3.17
251.694	3.47
252.069	3.35
252.445	3.74
252.82	3.77
253.196	3.51
253.571	3.61
253.947	3.54
254.322	3.67
254.697	3.51
255.073	3.74
255.448	3.61
255.823	3.67
256.198	3.9
256.573	3.88
256.948	4.01
257.323	3.98
257.698	4.01
258.073	4.01
258.448	4.01
258.823	4.14
259.198	4
259.573	3.78
259.948	3.81
260.322	3.63
260.697	3.54
261.072	3.45
261.446	3.45
261.821	3.62
262.195	3.63
262.57	3.57
262.944	3.42
263.319	3.52
263.693	3.49
264.067	3.58
264.442	3.45
264.816	3.21
265.19	3.16
265.564	3.39
265.938	3.22
266.313	3.31
266.687	3.17
267.061	3.17
267.435	3.4
267.809	3.38
268.183	3.39
268.556	3.33
268.93	3.46
269.304	3.48
269.678	3.52
270.051	3.5
270.425	3.71
270.799	3.87
271.172	3.86
271.546	3.73
271.919	3.45
272.293	3.49
272.666	3.72
273.04	3.62
273.413	3.43
273.787	3.34
274.16	3.15
274.533	3.16
274.906	3.09
275.279	3.01
275.653	3.08
276.026	3.06
276.399	3.31
276.772	3.41
277.145	3.29
277.518	3.25
277.891	3.29
278.263	3.08
278.636	2.95
279.009	3.02
279.382	3.19
279.755	3.29
280.127	3.44
280.5	3.33
280.872	3.38
281.245	3.36
281.617	3.74
281.99	3.98
282.362	4.03
282.735	4.04
283.107	4.04
283.479	4.02
283.852	4.12
284.224	4.02
284.596	3.77
284.968	3.89
285.34	3.9
285.713	3.81
286.085	3.9
286.457	3.95
286.829	3.92
287.201	3.83
287.572	3.83
287.944	3.71
288.316	3.81
288.688	3.81
289.06	3.9
289.431	3.84
289.803	3.67
290.175	3.69
290.546	3.78
290.918	3.82
291.289	3.83
291.661	3.76
292.032	3.89
292.403	4.12
292.775	4.08
293.146	3.97
293.517	4.03
293.889	4.21
294.26	4.27
294.631	4.28
295.002	4.33
295.373	4.38
295.744	4.35
296.115	4.28
296.486	4.15
296.857	4.18
297.228	4.27
297.599	4.24
297.97	4.22
298.34	4.27
298.711	4.3
299.082	4.36
299.452	4.45
299.823	4.37
300.194	4.34
300.564	4.41
300.935	4.49
301.305	4.48
301.676	4.46
302.046	4.42
302.416	4.45
302.787	4.51
303.157	4.46
303.527	4.53
303.897	4.55
304.267	4.86
304.637	4.87
305.008	4.81
305.378	4.98
305.748	4.96
306.117	4.84
306.487	4.81
306.857	4.94
307.227	5.01
307.597	4.93
307.967	4.82
308.336	4.68
308.706	4.66
309.076	4.75
309.445	4.64
309.815	4.74
310.184	4.68
310.554	4.59
310.923	4.73
311.293	4.69
311.662	4.68
312.031	4.55
312.401	4.54
312.77	4.47
313.139	4.46
313.508	4.55
313.877	4.55
314.246	4.57
314.616	4.36
314.985	4.24
315.353	4.21
315.722	4.27
316.091	4.4
316.46	4.24
316.829	4.15
317.198	4.11
317.567	3.92
317.935	3.89
318.304	3.88
318.672	3.73
319.041	3.86
319.41	3.88
319.778	3.91
320.147	3.84
320.515	3.74
320.883	3.5
321.252	3.52
321.62	3.56
321.988	3.52
322.357	3.55
322.725	3.58
323.093	3.52
323.461	3.65
323.829	3.74
324.197	3.9
324.565	3.91
324.933	3.95
325.301	4
325.669	4.01
326.037	3.99
326.405	4.11
326.772	4.09
327.14	4.22
327.508	4.17
327.875	4.21
328.243	4.39
328.61	4.63
328.978	4.61
329.346	4.68
329.713	4.56
330.08	4.59
330.448	4.5
330.815	4.51
331.182	4.41
331.55	4.29
331.917	4.3
332.284	4.41
332.651	4.37
333.018	4.41
333.385	4.52
333.752	4.58
334.119	4.52
334.486	4.38
334.853	4.34
335.22	4.39
335.587	4.5
335.954	4.48
336.32	4.41
336.687	4.39
337.054	4.36
337.42	4.51
337.787	4.52
338.153	4.55
338.52	4.69
338.886	4.61
339.253	4.6
339.619	4.67
339.986	4.47
340.352	4.56
340.718	4.6
341.084	4.57
341.451	4.64
341.817	4.64
342.183	4.78
342.549	4.68
342.915	4.72
343.281	4.6
343.647	4.51
344.013	4.58
344.379	4.64
344.745	4.7
345.11	4.6
345.476	4.65
345.842	4.63
346.208	4.63
346.573	4.73
346.939	4.67
347.304	4.47
347.67	4.51
348.035	4.52
348.401	4.45
348.766	4.38
349.132	4.32
349.497	4.29
349.862	4.25
350.228	4.23
350.593	4.21
350.958	4.23
351.323	4.33
351.688	4.22
352.053	4.15
352.418	4.17
352.783	4.21
353.148	4.09
353.513	4.14
353.878	4.1
354.243	4.08
354.608	4.18
354.972	4.33
355.337	4.4
355.702	4.36
356.066	4.42
356.431	4.45
356.795	4.44
357.16	4.34
357.524	4.32
357.889	4.3
358.253	4.37
358.618	4.41
358.982	4.31
359.346	4.33
359.71	4.25
360.075	4.27
360.439	4.3
360.803	4.25
361.167	4.24
361.531	4.23
361.895	4.26
362.259	4.26
362.623	4.2
362.987	4.17
363.351	4.22
363.714	4.21
364.078	4.16
364.442	4.1
364.806	4.17
365.169	4.15
365.533	4.2
365.896	4.1
366.26	4
366.623	4.02
366.987	4.02
367.35	4.08
367.714	3.98
368.077	3.93
368.44	4.06
368.803	4.04
369.167	4.03
369.53	4
369.893	3.9
370.256	3.93
370.619	3.96
370.982	3.9
371.345	3.91
371.708	4.03
372.071	4.08
372.434	4.08
372.797	4.13
373.159	4.1
373.522	4.2
373.885	4.28
374.247	4.27
374.61	4.27
374.973	4.31
375.335	4.35
375.698	4.44
376.06	4.37
376.423	4.46
376.785	4.48
377.147	4.48
377.51	4.53
377.872	4.53
378.234	4.5
378.596	4.49
378.958	4.44
379.321	4.41
379.683	4.44
380.045	4.44
380.407	4.39
380.769	4.38
381.13	4.33
381.492	4.32
381.854	4.36
382.216	4.38
382.578	4.39
382.939	4.4
383.301	4.36
383.663	4.36
384.024	4.27
384.386	4.23
384.747	4.27
385.109	4.27
385.47	4.24
385.832	4.21
386.193	4.21
386.554	4.26
386.916	4.21
387.277	4.21
387.638	4.24
387.999	4.21
388.36	4.21
388.721	4.22
389.082	4.21
389.443	4.14
389.804	4.11
390.165	4.07
390.526	4.02
390.887	3.97
391.248	4.01
391.609	4.01
391.969	4.04
392.33	3.97
392.691	3.99
393.051	4
393.412	4.02
393.772	4.01
394.133	4.01
394.493	4.03
394.854	4.02
395.214	4
395.574	4.06
395.935	4.07
396.295	4.07
396.655	4.06
397.015	4.09
397.376	4.12
397.736	4.15
398.096	4.18
398.456	4.22
398.816	4.18
399.176	4.17
399.535	4.14
399.895	4.14
400.255	4.13
400.615	4.15
400.975	4.14
401.334	4.16
401.694	4.1
402.054	4.08
402.413	4.08
402.773	4.05
403.132	4
403.492	4.01
403.851	3.98
404.211	3.96
404.57	3.93
404.929	3.94
405.288	3.9
405.648	3.89
406.007	3.91
406.366	3.91
406.725	3.97
407.084	4.01
407.443	4.04
407.802	4.04
408.161	4.01
408.52	4.01
408.879	3.97
409.238	4.02
409.596	4
409.955	3.98
410.314	4.01
410.673	4
411.031	4.01
411.39	4.01
411.748	4.04
412.107	4.07
412.465	4.05
412.824	4.05
413.182	4.04
413.54	4.02
413.899	4.03
414.257	4
414.615	3.96
414.974	3.99
415.332	3.97
415.69	3.97
416.048	3.96
416.406	3.98
416.764	3.97
417.122	4
417.48	3.99
417.838	3.98
418.195	3.99
418.553	3.98
418.911	3.97
419.269	3.97
419.626	3.96
419.984	3.96
420.342	3.96
420.699	3.95
421.057	3.95
421.414	3.93
421.772	3.93
422.129	3.94
422.486	3.91
422.844	3.93
423.201	3.93
423.558	3.94
423.915	3.94
424.273	3.93
424.63	3.91
424.987	3.92
425.344	3.92
425.701	3.92
426.058	3.91
426.415	3.9
426.772	3.92
427.128	3.89
427.485	3.9
427.842	3.9
428.199	3.91
428.555	3.9
428.912	3.9
429.269	3.91
429.625	3.9
429.982	3.9
430.338	3.88
430.695	3.87
431.051	3.86
431.407	3.85
431.764	3.86
432.12	3.85
432.476	3.83
432.832	3.81
433.189	3.82
433.545	3.82
433.901	3.84
434.257	3.82
434.613	3.83
434.969	3.84
435.325	3.85
435.681	3.86
436.036	3.85
436.392	3.84
436.748	3.83
437.104	3.84
437.459	3.82
437.815	3.82
438.171	3.83
438.526	3.83
438.882	3.81
439.237	3.82
439.593	3.82
439.948	3.84
440.304	3.85
440.659	3.85
441.014	3.86
441.369	3.86
441.725	3.85
442.08	3.87
442.435	3.85
442.79	3.84
443.145	3.85
443.5	3.87
443.855	3.88
444.21	3.87
444.565	3.88
444.92	3.9
445.275	3.89
445.629	3.89
445.984	3.87
446.339	3.87
446.693	3.87
447.048	3.85
447.403	3.82
447.757	3.83
448.112	3.83
448.466	3.81
448.82	3.81
449.175	3.82
449.529	3.8
449.883	3.8
450.238	3.8
450.592	3.77
450.946	3.76
451.3	3.75
451.654	3.76
452.008	3.74
452.362	3.73
452.716	3.75
453.07	3.76
453.424	3.77
453.778	3.79
454.132	3.78
454.486	3.78
454.839	3.81
455.193	3.79
455.547	3.8
455.9	3.81
456.254	3.8
456.607	3.8
456.961	3.79
457.314	3.8
457.668	3.8
458.021	3.78
458.375	3.78
458.728	3.8
459.081	3.79
459.434	3.79
459.787	3.79
460.141	3.77
460.494	3.75
460.847	3.75
461.2	3.74
461.553	3.76
461.906	3.78
462.259	3.79
462.611	3.79
462.964	3.8
463.317	3.78
463.67	3.79
464.022	3.8
464.375	3.8
464.728	3.79
465.08	3.77
465.433	3.8
465.785	3.8
466.138	3.78
466.49	3.77
466.843	3.76
467.195	3.77
467.547	3.78
467.899	3.79
468.252	3.79
468.604	3.79
468.956	3.77
469.308	3.75
469.66	3.72
470.012	3.73
470.364	3.71
470.716	3.72
471.068	3.71
471.42	3.7
471.772	3.73
472.123	3.74
472.475	3.77
472.827	3.77
473.178	3.79
473.53	3.79
473.882	3.81
474.233	3.83
474.585	3.81
474.936	3.82
475.288	3.82
475.639	3.83
475.99	3.83
476.342	3.84
476.693	3.84
477.044	3.87
477.395	3.88
477.746	3.88
478.097	3.88
478.448	3.87
478.8	3.88
479.15	3.87
479.501	3.88
479.852	3.89
480.203	3.9
480.554	3.89
480.905	3.91
481.255	3.91
481.606	3.91
481.957	3.92
482.307	3.93
482.658	3.94
483.009	3.94
483.359	3.96
483.709	3.96
484.06	3.97
484.41	3.97
484.761	3.96
485.111	3.97
485.461	3.98
485.811	4
486.162	4
486.512	4
486.862	4
487.212	4
487.562	3.99
487.912	3.99
488.262	3.98
488.612	3.98
488.961	3.98
489.311	3.99
489.661	3.99
490.011	3.99
490.36	3.98
490.71	3.97
491.06	3.97
491.409	3.97
491.759	3.96
492.108	3.96
492.458	3.96
492.807	3.97
493.157	3.96
493.506	3.96
493.855	3.96
494.204	3.96
494.554	3.97
494.903	3.96
495.252	3.97
495.601	3.99
495.95	3.99
496.299	4.01
496.648	4.01
496.997	4
497.346	4.01
497.695	4.01
498.043	4.03
498.392	4.04
498.741	4.04
499.09	4.05
499.438	4.09
499.787	4.09
500.135	4.1
500.484	4.1
500.832	4.11
501.181	4.12
501.529	4.11
501.878	4.13
502.226	4.15
502.574	4.15
502.923	4.13
503.271	4.13
503.619	4.12
503.967	4.14
504.315	4.16
504.663	4.17
505.011	4.17
505.359	4.15
505.707	4.15
506.055	4.17
506.403	4.17
506.751	4.14
507.098	4.16
507.446	4.14
507.794	4.13
508.141	4.14
508.489	4.15
508.837	4.18
509.184	4.17
509.531	4.2
509.879	4.23
510.226	4.26
510.574	4.27
510.921	4.28
511.268	4.29
511.616	4.31
511.963	4.3
512.31	4.32
512.657	4.35
513.004	4.37
513.351	4.39
513.698	4.42
514.045	4.44
514.392	4.44
514.739	4.45
515.086	4.48
515.432	4.5
515.779	4.49
516.126	4.5
516.473	4.52
516.819	4.53
517.166	4.53
517.512	4.53
517.859	4.54
518.205	4.57
518.552	4.56
518.898	4.56
519.245	4.59
519.591	4.58
519.937	4.57
520.283	4.57
520.629	4.57
520.976	4.56
521.322	4.6
521.668	4.59
522.014	4.61
522.36	4.62
522.706	4.63
523.052	4.66
523.398	4.67
523.743	4.68
524.089	4.68
524.435	4.7
524.781	4.7
525.126	4.72
525.472	4.7
525.817	4.73
526.163	4.73
526.509	4.74
526.854	4.77
527.199	4.79
527.545	4.8
527.89	4.8
528.235	4.81
528.581	4.81
528.926	4.82
529.271	4.82
529.616	4.83
529.961	4.84
530.306	4.84
530.651	4.84
530.996	4.84
531.341	4.85
531.686	4.86
532.031	4.87
532.376	4.89
532.721	4.9
533.065	4.89
533.41	4.91
533.755	4.92
534.099	4.92
534.444	4.92
534.788	4.94
535.133	4.94
535.477	4.94
535.822	4.95
536.166	4.96
536.51	4.97
536.855	4.95
537.199	4.95
537.543	4.95
537.887	4.98
538.231	4.99
538.576	4.99
538.92	4.99
539.264	5
539.608	4.99
539.951	5
540.295	5.01
540.639	5
540.983	5
541.327	5
541.671	4.99
542.014	4.98
542.358	5
542.701	5.03
543.045	5.02
543.389	5.04
543.732	5.04
544.075	5.06
544.419	5.07
544.762	5.08
545.105	5.07
545.449	5.07
545.792	5.07
546.135	5.07
546.478	5.07
546.821	5.09
547.165	5.09
547.508	5.09
547.851	5.11
548.194	5.08
548.536	5.08
548.879	5.1
549.222	5.1
549.565	5.11
549.908	5.11
550.25	5.11
550.593	5.1
550.936	5.1
551.278	5.1
551.621	5.12
551.963	5.15
552.306	5.15
552.648	5.15
552.991	5.18
553.333	5.18
553.675	5.18
554.017	5.19
554.36	5.22
554.702	5.24
555.044	5.19
555.386	5.25
555.728	5.27
556.07	5.29
556.412	5.29
556.754	5.27
557.096	5.27
557.438	5.32
557.78	5.32
558.121	5.36
558.463	5.34
558.805	5.34
559.147	5.31
559.488	5.29
559.83	5.3
560.171	5.29
560.513	5.32
560.854	5.3
561.196	5.29
561.537	5.28
561.878	5.26
562.22	5.3
562.561	5.27
562.902	5.29
563.243	5.29
563.584	5.32
563.925	5.32
564.266	5.31
564.607	5.28
564.948	5.28
565.289	5.28
565.63	5.3
565.971	5.29
566.312	5.28
566.653	5.29
566.993	5.28
567.334	5.29
567.675	5.29
568.015	5.33
568.356	5.35
568.696	5.37
569.037	5.4
569.377	5.41
569.718	5.4
570.058	5.41
570.398	5.4
570.739	5.37
571.079	5.37
571.419	5.39
571.759	5.41
572.099	5.38
572.439	5.39
572.779	5.37
573.119	5.37
573.459	5.4
573.799	5.43
574.139	5.44
574.479	5.44
574.819	5.44
575.158	5.43
575.498	5.43
575.838	5.42
576.177	5.38
576.517	5.37
576.856	5.38
577.196	5.37
577.535	5.38
577.875	5.42
578.214	5.41
578.553	5.4
578.893	5.39
579.232	5.39
579.571	5.42
579.91	5.44
580.25	5.47
580.589	5.44
580.928	5.43
581.267	5.42
581.606	5.43
581.945	5.47
582.283	5.47
582.622	5.48
582.961	5.51
583.3	5.52
583.639	5.53
583.977	5.54
584.316	5.53
584.654	5.53
584.993	5.51
585.332	5.54
585.67	5.53
586.008	5.53
586.347	5.54
586.685	5.48
587.024	5.45
587.362	5.46
587.7	5.5
588.038	5.52
588.376	5.54
588.715	5.53
589.053	5.5
589.391	5.47
589.729	5.46
590.067	5.44
590.404	5.44
590.742	5.45
591.08	5.45
591.418	5.48
591.756	5.51
592.093	5.52
592.431	5.52
592.769	5.54
593.106	5.55
593.444	5.51
593.781	5.55
594.119	5.57
594.456	5.57
594.793	5.53
595.131	5.51
595.468	5.49
595.805	5.49
596.143	5.48
596.48	5.5
596.817	5.51
597.154	5.49
597.491	5.5
597.828	5.48
598.165	5.47
598.502	5.42
598.839	5.4
599.176	5.36
599.512	5.36
599.849	5.37
600.186	5.4
600.523	5.46
600.859	5.44
601.196	5.43
601.532	5.41
601.869	5.39
602.205	5.41
602.542	5.39
602.878	5.35
603.215	5.36
603.551	5.36
603.887	5.34
604.223	5.38
604.56	5.42
604.896	5.45
605.232	5.51
605.568	5.51
605.904	5.53
606.24	5.57
606.576	5.58
606.912	5.54
607.248	5.53
607.583	5.5
607.919	5.51
608.255	5.52
608.591	5.58
608.926	5.58
609.262	5.61
609.597	5.65
609.933	5.69
610.268	5.69
610.604	5.69
610.939	5.71
611.275	5.67
611.61	5.63
611.945	5.64
612.281	5.62
612.616	5.64
612.951	5.64
613.286	5.62
613.621	5.64
613.956	5.59
614.291	5.64
614.626	5.67
614.961	5.68
615.296	5.71
615.631	5.66
615.966	5.68
616.3	5.61
616.635	5.57
616.97	5.57
617.304	5.51
617.639	5.51
617.973	5.48
618.308	5.51
618.642	5.52
618.977	5.47
619.311	5.46
619.646	5.46
619.98	5.42
620.314	5.4
620.648	5.41
620.983	5.48
621.317	5.44
621.651	5.47
621.985	5.5
622.319	5.51
622.653	5.52
622.987	5.52
623.321	5.61
623.655	5.64
623.988	5.65
624.322	5.7
624.656	5.71
624.99	5.7
625.323	5.72
625.657	5.71
625.99	5.76
626.324	5.76
626.657	5.81
626.991	5.83
627.324	5.86
627.658	5.86
627.991	5.91
628.324	5.91
628.657	5.85
628.991	5.78
629.324	5.77
629.657	5.82
629.99	5.85
630.323	5.81
630.656	5.84
630.989	5.84
631.322	5.83
631.655	5.86
631.987	5.88
632.32	5.88
632.653	5.85
632.986	5.83
633.318	5.81
633.651	5.77
633.984	5.81
634.316	5.76
634.649	5.77
634.981	5.71
635.313	5.74
635.646	5.74
635.978	5.82
636.31	5.82
636.643	5.77
636.975	5.75
637.307	5.74
637.639	5.71
637.971	5.69
638.303	5.69
638.635	5.65
638.967	5.7
639.299	5.7
639.631	5.72
639.963	5.71
640.295	5.69
640.626	5.73
640.958	5.73
641.29	5.76
641.621	5.76
641.953	5.74
642.285	5.74
642.616	5.78
642.948	5.7
643.279	5.68
643.61	5.74
643.942	5.73
644.273	5.71
644.604	5.73
644.936	5.73
645.267	5.74
645.598	5.78
645.929	5.71
646.26	5.74
646.591	5.78
646.922	5.78
647.253	5.82
647.584	5.8
647.915	5.71
648.245	5.68
648.576	5.65
648.907	5.72
649.238	5.6
649.568	5.58
649.899	5.61
650.229	5.64
650.56	5.6
650.89	5.62
651.221	5.65
651.551	5.65
651.882	5.66
652.212	5.72
652.542	5.7
652.872	5.66
653.203	5.62
653.533	5.63
653.863	5.69
654.193	5.66
654.523	5.65
654.853	5.71
655.183	5.72
655.513	5.72
655.843	5.68
656.172	5.83
656.502	5.82
656.832	5.88
657.162	5.85
657.491	5.83
657.821	5.83
658.15	5.83
658.48	5.82
658.809	5.86
659.139	5.84
659.468	5.81
659.798	5.84
660.127	5.9
660.456	5.89
660.785	5.87
661.115	5.92
661.444	5.9
661.773	5.91
662.102	5.87
662.431	5.9
662.76	5.9
663.089	5.84
663.418	5.83
663.747	5.8
664.076	5.82
664.404	5.76
664.733	5.84
665.062	5.86
665.39	5.91
665.719	5.87
666.048	5.83
666.376	5.84
666.705	5.85
667.033	5.84
667.362	5.89
667.69	5.85
668.018	5.84
668.347	5.9
668.675	5.92
669.003	6.01
669.331	5.99
669.659	5.99
669.987	5.99
670.315	6.01
670.643	5.98
670.971	6.02
671.299	6.13
671.627	6.04
671.955	6.06
672.283	5.95
672.61	5.97
672.938	6.01
673.266	6.11
673.593	6.18
673.921	6.16
674.249	6.13
674.576	6.14
674.904	6.14
675.231	6.05
675.558	6.04
675.886	6.01
676.213	5.99
676.54	6.01
676.867	6.1
677.195	6.04
677.522	6.04
677.849	6.13
678.176	6.03
