Data from BU57737_Reflection_00006.txt Node
Date: Mon Nov 18 16:29:47 EST 2019
User: vgr7
Spectrometer: USB2G7710
Scans to average: 3
Trigger mode: 4
Integration Time (sec): 2.000000E-2
Electric dark correction enabled: true
Boxcar width: 10
XAxis mode: Wavelengths
Number of Pixels in Spectrum: 2048
>>>>>Begin Spectral Data<<<<<
177.721	19.9
178.105	-169.84
178.488	-18.93
178.871	-51.52
179.254	-1.39
179.636	-396.6
180.019	-139.74
180.402	173.08
180.785	-129.09
181.168	-733.33
181.55	238.14
181.933	70.26
182.316	81.55
182.698	133.16
183.081	269.31
183.463	304.91
183.846	77.05
184.228	107.36
184.611	146.59
184.993	126.79
185.376	50.83
185.758	76.41
186.14	86.52
186.522	63.17
186.904	49.78
187.287	55.28
187.669	23.65
188.051	63.24
188.433	107.96
188.815	93.21
189.197	83.37
189.579	54.21
189.961	155.83
190.342	177.97
190.724	94.75
191.106	389.86
191.488	3433.33
191.869	-12.31
192.251	-77.4
192.633	-32.26
193.014	-29.49
193.396	-64.91
193.777	-22.88
194.159	0.25
194.54	4.66
194.922	5.09
195.303	6.78
195.684	-7.43
196.065	0.42
196.447	-2.49
196.828	-12.85
197.209	-17.52
197.59	-20.78
197.971	-38.2
198.352	-20.81
198.733	-38.16
199.114	-67.74
199.495	-71.71
199.876	-67.44
200.257	-67.19
200.638	-71.74
201.018	-101.26
201.399	-86.92
201.78	-89.02
202.16	-116.83
202.541	-226.44
202.922	-270.01
203.302	-306.8
203.683	-358.25
204.063	-682.1
204.444	-1675.91
204.824	-671.2
205.204	-901.71
205.585	-614.46
205.965	-310.77
206.345	-736.94
206.725	-1069.89
207.106	-901.93
207.486	-744.25
207.866	-1536.96
208.246	14039.39
208.626	51877.78
209.006	-772.07
209.386	4040.74
209.766	1315.13
210.145	1627.51
210.525	-284.94
210.905	-217.74
211.285	-134.42
211.664	-103.03
212.044	-88.51
212.424	-71.15
212.803	-89.96
213.183	-75.75
213.562	-59.25
213.942	-71.51
214.321	-42.89
214.701	-35.96
215.08	-33.72
215.459	-27.79
215.838	-33.04
216.218	-26.38
216.597	-25.39
216.976	-21.97
217.355	-4.64
217.734	0.19
218.113	2.8
218.492	8.78
218.871	-5.76
219.25	-21.91
219.629	-36.77
220.008	-22.03
220.387	-28.14
220.766	-28.79
221.144	-30.85
221.523	-55.89
221.902	-47.28
222.28	-65.62
222.659	-47.9
223.037	-50.15
223.416	-68.93
223.794	-68.92
224.173	-63.35
224.551	-46.01
224.929	-37.34
225.308	-41.19
225.686	-35.43
226.064	-34.38
226.442	-39.38
226.821	-31.81
227.199	-28.83
227.577	-24.16
227.955	-24.38
228.333	-22.17
228.711	-17.05
229.089	-19.37
229.467	-17.43
229.845	-17.67
230.222	-15.49
230.6	-15.36
230.978	-11.74
231.356	-8.09
231.733	-7.32
232.111	-4.16
232.488	-2.81
232.866	-2.83
233.243	-1.85
233.621	-2.69
233.998	-1.81
234.376	0.65
234.753	-0.15
235.13	0.43
235.508	1.23
235.885	2.27
236.262	1.98
236.639	0.8
237.016	3.1
237.393	4.06
237.77	3.83
238.147	4.07
238.524	3.96
238.901	4.03
239.278	4.14
239.655	4.26
240.032	4.4
240.409	4.27
240.785	3.84
241.162	4.27
241.539	4.24
241.915	4.11
242.292	3.78
242.668	4.03
243.045	3.74
243.421	3.43
243.798	3.43
244.174	3.69
244.551	4.05
244.927	3.81
245.303	3.76
245.679	4.05
246.056	3.99
246.432	4.03
246.808	4.08
247.184	3.82
247.56	3.69
247.936	3.57
248.312	3.4
248.688	3.6
249.064	3.62
249.44	3.84
249.815	4.05
250.191	4.1
250.567	4.07
250.943	4.05
251.318	4.23
251.694	4.34
252.069	4.05
252.445	3.58
252.82	3.6
253.196	3.34
253.571	3.15
253.947	2.85
254.322	2.75
254.697	2.35
255.073	2.51
255.448	2.74
255.823	2.96
256.198	3.02
256.573	2.93
256.948	2.94
257.323	2.98
257.698	2.86
258.073	2.86
258.448	2.98
258.823	3.13
259.198	3.07
259.573	3.05
259.948	3.23
260.322	3.47
260.697	3.56
261.072	3.48
261.446	3.54
261.821	3.59
262.195	3.67
262.57	3.68
262.944	3.67
263.319	3.62
263.693	3.33
264.067	3.3
264.442	3.41
264.816	3.34
265.19	3.44
265.564	3.41
265.938	3.38
266.313	3.17
266.687	3.18
267.061	3.22
267.435	3.31
267.809	3.16
268.183	3.07
268.556	3.07
268.93	3.35
269.304	3.33
269.678	3.41
270.051	3.3
270.425	3.38
270.799	3.36
271.172	3.46
271.546	3.56
271.919	3.56
272.293	3.37
272.666	3.35
273.04	3.2
273.413	3.27
273.787	3.3
274.16	3.41
274.533	3.37
274.906	3.31
275.279	3.11
275.653	3.2
276.026	3.16
276.399	3.02
276.772	2.97
277.145	2.77
277.518	2.83
277.891	2.97
278.263	3.11
278.636	3.29
279.009	3.36
279.382	3.42
279.755	3.25
280.127	3.51
280.5	3.69
280.872	3.67
281.245	3.64
281.617	3.68
281.99	3.73
282.362	3.62
282.735	3.67
283.107	3.7
283.479	3.83
283.852	3.86
284.224	3.82
284.596	3.81
284.968	4.01
285.34	4
285.713	3.86
286.085	3.87
286.457	3.89
286.829	3.74
287.201	3.83
287.572	3.96
287.944	3.75
288.316	3.74
288.688	3.67
289.06	3.76
289.431	3.88
289.803	3.92
290.175	4.08
290.546	4.12
290.918	4.17
291.289	4.06
291.661	4.1
292.032	4.33
292.403	4.43
292.775	4.47
293.146	4.5
293.517	4.53
293.889	4.49
294.26	4.37
294.631	4.37
295.002	4.31
295.373	4.34
295.744	4.43
296.115	4.37
296.486	4.38
296.857	4.34
297.228	4.27
297.599	4.12
297.97	4.09
298.34	4.06
298.711	4.14
299.082	4.17
299.452	4.17
299.823	4.17
300.194	4.13
300.564	4.09
300.935	4
301.305	4.03
301.676	3.97
302.046	4
302.416	4.24
302.787	4.21
303.157	4.34
303.527	4.42
303.897	4.34
304.267	4.49
304.637	4.47
305.008	4.53
305.378	4.7
305.748	4.8
306.117	4.66
306.487	4.54
306.857	4.49
307.227	4.52
307.597	4.43
307.967	4.34
308.336	4.24
308.706	4.36
309.076	4.29
309.445	4.23
309.815	4.1
310.184	3.91
310.554	3.94
310.923	3.89
311.293	3.92
311.662	4.09
312.031	4.06
312.401	4.12
312.77	4.16
313.139	4.16
313.508	4.04
313.877	4.11
314.246	4.18
314.616	4.19
314.985	4.25
315.353	4.25
315.722	4.32
316.091	4.38
316.46	4.29
316.829	4.44
317.198	4.42
317.567	4.49
317.935	4.47
318.304	4.58
318.672	4.49
319.041	4.51
319.41	4.27
319.778	4.04
320.147	4.03
320.515	3.95
320.883	3.96
321.252	4.05
321.62	4.03
321.988	3.99
322.357	3.94
322.725	3.82
323.093	3.87
323.461	3.8
323.829	3.78
324.197	3.87
324.565	3.78
324.933	3.89
325.301	4.04
325.669	4.12
326.037	3.99
326.405	3.97
326.772	3.98
327.14	4.08
327.508	4.12
327.875	3.9
328.243	3.85
328.61	3.75
328.978	3.74
329.346	3.81
329.713	3.79
330.08	3.94
330.448	3.88
330.815	3.82
331.182	3.89
331.55	3.89
331.917	3.93
332.284	3.95
332.651	4
333.018	3.88
333.385	3.92
333.752	4.05
334.119	4.09
334.486	4.01
334.853	3.99
335.22	3.96
335.587	4.13
335.954	4.11
336.32	4.14
336.687	4.22
337.054	4.09
337.42	4.07
337.787	3.9
338.153	3.88
338.52	3.88
338.886	3.87
339.253	3.69
339.619	3.57
339.986	3.59
340.352	3.62
340.718	3.64
341.084	3.58
341.451	3.66
341.817	3.73
342.183	3.73
342.549	3.79
342.915	3.99
343.281	3.94
343.647	3.96
344.013	3.94
344.379	3.86
344.745	3.97
345.11	3.99
345.476	3.98
345.842	4.06
346.208	4.05
346.573	4.04
346.939	4.18
347.304	4.16
347.67	4.14
348.035	4.1
348.401	4.12
348.766	4.2
349.132	4.09
349.497	3.97
349.862	4
350.228	3.95
350.593	3.82
350.958	3.8
351.323	3.88
351.688	3.95
352.053	3.96
352.418	4.01
352.783	4.06
353.148	4.15
353.513	4.17
353.878	4.12
354.243	4.18
354.608	4.22
354.972	4.31
355.337	4.31
355.702	4.36
356.066	4.42
356.431	4.4
356.795	4.48
357.16	4.49
357.524	4.47
357.889	4.47
358.253	4.51
358.618	4.57
358.982	4.46
359.346	4.35
359.71	4.34
360.075	4.32
360.439	4.36
360.803	4.32
361.167	4.28
361.531	4.33
361.895	4.29
362.259	4.24
362.623	4.2
362.987	4.2
363.351	4.14
363.714	4.12
364.078	4.06
364.442	3.94
364.806	3.94
365.169	3.88
365.533	3.91
365.896	3.92
366.26	3.91
366.623	3.98
366.987	3.99
367.35	4.06
367.714	4
368.077	3.92
368.44	3.93
368.803	3.94
369.167	3.89
369.53	3.88
369.893	3.9
370.256	3.92
370.619	3.96
370.982	3.92
371.345	3.84
371.708	3.86
372.071	3.91
372.434	3.95
372.797	3.98
373.159	3.97
373.522	3.92
373.885	3.92
374.247	3.91
374.61	3.92
374.973	3.86
375.335	3.89
375.698	3.91
376.06	3.91
376.423	3.88
376.785	3.89
377.147	3.95
377.51	3.96
377.872	4
378.234	3.97
378.596	4.05
378.958	4.07
379.321	4.08
379.683	4.07
380.045	4.06
380.407	4.07
380.769	4.06
381.13	4.07
381.492	4.09
381.854	4.08
382.216	4.07
382.578	4.14
382.939	4.15
383.301	4.14
383.663	4.11
384.024	4.09
384.386	4.14
384.747	4.11
385.109	4.08
385.47	3.97
385.832	3.97
386.193	3.98
386.554	4.03
386.916	4.05
387.277	4.01
387.638	4.01
387.999	3.99
388.36	3.92
388.721	3.95
389.082	3.93
389.443	3.95
389.804	3.95
390.165	3.88
390.526	3.86
390.887	3.83
391.248	3.82
391.609	3.89
391.969	3.85
392.33	3.85
392.691	3.87
393.051	3.95
393.412	3.96
393.772	3.93
394.133	3.9
394.493	3.89
394.854	3.94
395.214	3.93
395.574	3.96
395.935	4.03
396.295	4.04
396.655	4.01
397.015	4
397.376	4.01
397.736	4.03
398.096	4.04
398.456	4.04
398.816	4.1
399.176	4.03
399.535	4.06
399.895	4.06
400.255	4.07
400.615	4.05
400.975	4.03
401.334	4.03
401.694	4
402.054	4
402.413	3.98
402.773	3.96
403.132	3.93
403.492	3.9
403.851	3.86
404.211	3.88
404.57	3.88
404.929	3.89
405.288	3.89
405.648	3.87
406.007	3.9
406.366	3.87
406.725	3.89
407.084	3.91
407.443	3.89
407.802	3.91
408.161	3.9
408.52	3.88
408.879	3.89
409.238	3.93
409.596	3.93
409.955	3.95
410.314	3.97
410.673	3.98
411.031	3.98
411.39	4.01
411.748	3.99
412.107	3.99
412.465	3.97
412.824	3.97
413.182	3.99
413.54	4.01
413.899	4.03
414.257	4.01
414.615	3.99
414.974	3.99
415.332	3.97
415.69	3.95
416.048	3.94
416.406	3.95
416.764	3.92
417.122	3.92
417.48	3.92
417.838	3.91
418.195	3.93
418.553	3.92
418.911	3.91
419.269	3.92
419.626	3.91
419.984	3.9
420.342	3.92
420.699	3.89
421.057	3.88
421.414	3.88
421.772	3.9
422.129	3.88
422.486	3.88
422.844	3.87
423.201	3.88
423.558	3.89
423.915	3.88
424.273	3.88
424.63	3.87
424.987	3.87
425.344	3.87
425.701	3.85
426.058	3.86
426.415	3.86
426.772	3.84
427.128	3.85
427.485	3.86
427.842	3.83
428.199	3.85
428.555	3.84
428.912	3.84
429.269	3.86
429.625	3.88
429.982	3.87
430.338	3.87
430.695	3.86
431.051	3.85
431.407	3.86
431.764	3.85
432.12	3.83
432.476	3.83
432.832	3.81
433.189	3.82
433.545	3.81
433.901	3.79
434.257	3.81
434.613	3.81
434.969	3.8
435.325	3.79
435.681	3.78
436.036	3.78
436.392	3.78
436.748	3.77
437.104	3.76
437.459	3.76
437.815	3.76
438.171	3.76
438.526	3.75
438.882	3.77
439.237	3.78
439.593	3.81
439.948	3.81
440.304	3.81
440.659	3.82
441.014	3.82
441.369	3.81
441.725	3.79
442.08	3.77
442.435	3.77
442.79	3.78
443.145	3.76
443.5	3.76
443.855	3.75
444.21	3.74
444.565	3.75
444.92	3.77
445.275	3.75
445.629	3.77
445.984	3.76
446.339	3.74
446.693	3.72
447.048	3.7
447.403	3.68
447.757	3.67
448.112	3.66
448.466	3.66
448.82	3.67
449.175	3.69
449.529	3.7
449.883	3.69
450.238	3.69
450.592	3.7
450.946	3.69
451.3	3.68
451.654	3.66
452.008	3.64
452.362	3.62
452.716	3.63
453.07	3.6
453.424	3.62
453.778	3.62
454.132	3.61
454.486	3.63
454.839	3.64
455.193	3.63
455.547	3.65
455.9	3.66
456.254	3.64
456.607	3.62
456.961	3.62
457.314	3.63
457.668	3.65
458.021	3.64
458.375	3.64
458.728	3.65
459.081	3.66
459.434	3.67
459.787	3.67
460.141	3.67
460.494	3.67
460.847	3.68
461.2	3.69
461.553	3.69
461.906	3.68
462.259	3.69
462.611	3.7
462.964	3.7
463.317	3.7
463.67	3.72
464.022	3.71
464.375	3.71
464.728	3.72
465.08	3.72
465.433	3.74
465.785	3.74
466.138	3.74
466.49	3.74
466.843	3.72
467.195	3.74
467.547	3.76
467.899	3.76
468.252	3.76
468.604	3.74
468.956	3.75
469.308	3.75
469.66	3.74
470.012	3.74
470.364	3.75
470.716	3.75
471.068	3.76
471.42	3.76
471.772	3.78
472.123	3.77
472.475	3.77
472.827	3.76
473.178	3.75
473.53	3.74
473.882	3.73
474.233	3.78
474.585	3.75
474.936	3.72
475.288	3.74
475.639	3.75
475.99	3.77
476.342	3.77
476.693	3.78
477.044	3.79
477.395	3.8
477.746	3.78
478.097	3.78
478.448	3.79
478.8	3.8
479.15	3.78
479.501	3.8
479.852	3.8
480.203	3.81
480.554	3.82
480.905	3.86
481.255	3.86
481.606	3.86
481.957	3.88
482.307	3.88
482.658	3.88
483.009	3.89
483.359	3.89
483.709	3.88
484.06	3.88
484.41	3.89
484.761	3.89
485.111	3.89
485.461	3.89
485.811	3.88
486.162	3.88
486.512	3.89
486.862	3.89
487.212	3.89
487.562	3.88
487.912	3.89
488.262	3.88
488.612	3.88
488.961	3.88
489.311	3.88
489.661	3.89
490.011	3.88
490.36	3.88
490.71	3.89
491.06	3.9
491.409	3.9
491.759	3.89
492.108	3.88
492.458	3.88
492.807	3.89
493.157	3.9
493.506	3.91
493.855	3.92
494.204	3.92
494.554	3.92
494.903	3.91
495.252	3.91
495.601	3.92
495.95	3.91
496.299	3.91
496.648	3.9
496.997	3.91
497.346	3.93
497.695	3.92
498.043	3.92
498.392	3.93
498.741	3.93
499.09	3.95
499.438	3.97
499.787	3.98
500.135	3.99
500.484	3.97
500.832	3.98
501.181	3.97
501.529	3.98
501.878	4
502.226	4.03
502.574	4.03
502.923	4.03
503.271	4.04
503.619	4.06
503.967	4.05
504.315	4.04
504.663	4.04
505.011	4.07
505.359	4.07
505.707	4.08
506.055	4.09
506.403	4.08
506.751	4.07
507.098	4.08
507.446	4.09
507.794	4.11
508.141	4.11
508.489	4.12
508.837	4.13
509.184	4.12
509.531	4.13
509.879	4.15
510.226	4.16
510.574	4.17
510.921	4.18
511.268	4.21
511.616	4.24
511.963	4.24
512.31	4.24
512.657	4.25
513.004	4.27
513.351	4.28
513.698	4.29
514.045	4.31
514.392	4.31
514.739	4.33
515.086	4.33
515.432	4.33
515.779	4.33
516.126	4.33
516.473	4.34
516.819	4.33
517.166	4.33
517.512	4.34
517.859	4.34
518.205	4.34
518.552	4.33
518.898	4.31
519.245	4.32
519.591	4.32
519.937	4.3
520.283	4.29
520.629	4.29
520.976	4.31
521.322	4.32
521.668	4.34
522.014	4.37
522.36	4.39
522.706	4.39
523.052	4.41
523.398	4.43
523.743	4.43
524.089	4.48
524.435	4.49
524.781	4.52
525.126	4.54
525.472	4.55
525.817	4.55
526.163	4.55
526.509	4.56
526.854	4.56
527.199	4.59
527.545	4.59
527.89	4.58
528.235	4.57
528.581	4.58
528.926	4.58
529.271	4.57
529.616	4.55
529.961	4.56
530.306	4.56
530.651	4.56
530.996	4.57
531.341	4.56
531.686	4.54
532.031	4.54
532.376	4.53
532.721	4.54
533.065	4.55
533.41	4.55
533.755	4.54
534.099	4.55
534.444	4.55
534.788	4.56
535.133	4.56
535.477	4.57
535.822	4.56
536.166	4.56
536.51	4.56
536.855	4.58
537.199	4.58
537.543	4.61
537.887	4.61
538.231	4.61
538.576	4.61
538.92	4.63
539.264	4.61
539.608	4.62
539.951	4.62
540.295	4.61
540.639	4.63
540.983	4.64
541.327	4.63
541.671	4.62
542.014	4.62
542.358	4.62
542.701	4.62
543.045	4.64
543.389	4.65
543.732	4.64
544.075	4.64
544.419	4.64
544.762	4.62
545.105	4.62
545.449	4.62
545.792	4.61
546.135	4.61
546.478	4.62
546.821	4.61
547.165	4.59
547.508	4.62
547.851	4.62
548.194	4.62
548.536	4.63
548.879	4.64
549.222	4.64
549.565	4.65
549.908	4.65
550.25	4.64
550.593	4.62
550.936	4.63
551.278	4.65
551.621	4.66
551.963	4.64
552.306	4.64
552.648	4.65
552.991	4.69
553.333	4.69
553.675	4.7
554.017	4.7
554.36	4.73
554.702	4.71
555.044	4.69
555.386	4.68
555.728	4.64
556.07	4.65
556.412	4.62
556.754	4.62
557.096	4.63
557.438	4.64
557.78	4.64
558.121	4.66
558.463	4.65
558.805	4.65
559.147	4.67
559.488	4.68
559.83	4.68
560.171	4.65
560.513	4.65
560.854	4.61
561.196	4.6
561.537	4.61
561.878	4.57
562.22	4.57
562.561	4.58
562.902	4.58
563.243	4.56
563.584	4.59
563.925	4.6
564.266	4.57
564.607	4.6
564.948	4.62
565.289	4.61
565.63	4.64
565.971	4.62
566.312	4.61
566.653	4.63
566.993	4.64
567.334	4.65
567.675	4.67
568.015	4.7
568.356	4.71
568.696	4.72
569.037	4.76
569.377	4.77
569.718	4.79
570.058	4.83
570.398	4.85
570.739	4.88
571.079	4.88
571.419	4.91
571.759	4.88
572.099	4.9
572.439	4.89
572.779	4.85
573.119	4.86
573.459	4.91
573.799	4.89
574.139	4.9
574.479	4.9
574.819	4.86
575.158	4.87
575.498	4.85
575.838	4.85
576.177	4.83
576.517	4.82
576.856	4.85
577.196	4.83
577.535	4.85
577.875	4.83
578.214	4.81
578.553	4.8
578.893	4.78
579.232	4.76
579.571	4.77
579.91	4.76
580.25	4.76
580.589	4.71
580.928	4.74
581.267	4.71
581.606	4.68
581.945	4.67
582.283	4.71
582.622	4.7
582.961	4.71
583.3	4.72
583.639	4.73
583.977	4.68
584.316	4.7
584.654	4.64
584.993	4.65
585.332	4.67
585.67	4.71
586.008	4.75
586.347	4.71
586.685	4.68
587.024	4.73
587.362	4.78
587.7	4.82
588.038	4.8
588.376	4.8
588.715	4.86
589.053	4.89
589.391	4.89
589.729	4.94
590.067	4.94
590.404	4.91
590.742	4.9
591.08	4.91
591.418	4.91
591.756	4.94
592.093	4.93
592.431	4.93
592.769	4.93
593.106	4.94
593.444	4.95
593.781	4.98
594.119	4.95
594.456	4.9
594.793	4.9
595.131	4.87
595.468	4.88
595.805	4.85
596.143	4.86
596.48	4.81
596.817	4.79
597.154	4.8
597.491	4.81
597.828	4.83
598.165	4.81
598.502	4.79
598.839	4.8
599.176	4.8
599.512	4.79
599.849	4.76
600.186	4.7
600.523	4.76
600.859	4.81
601.196	4.81
601.532	4.8
601.869	4.77
602.205	4.8
602.542	4.85
602.878	4.85
603.215	4.84
603.551	4.85
603.887	4.87
604.223	4.85
604.56	4.88
604.896	4.86
605.232	4.9
605.568	4.9
605.904	4.91
606.24	4.94
606.576	4.96
606.912	4.99
607.248	5.01
607.583	5
607.919	4.95
608.255	4.95
608.591	5
608.926	5.03
609.262	5.05
609.597	5.02
609.933	5.03
610.268	5.03
610.604	5.04
610.939	5.01
611.275	5
611.61	4.98
611.945	5
612.281	5
612.616	5.02
612.951	5.03
613.286	5.03
613.621	5.03
613.956	5.01
614.291	5.03
614.626	5.04
614.961	5.04
615.296	5.01
615.631	5.01
615.966	4.97
616.3	4.99
616.635	5.02
616.97	5.01
617.304	5.02
617.639	5.07
617.973	5.05
618.308	5.06
618.642	5.09
618.977	5.11
619.311	5.09
619.646	5.1
619.98	5.08
620.314	5.07
620.648	5.05
620.983	5.11
621.317	5.12
621.651	5.1
621.985	5.11
622.319	5.1
622.653	5.13
622.987	5.12
623.321	5.12
623.655	5.11
623.988	5.12
624.322	5.12
624.656	5.11
624.99	5.18
625.323	5.13
625.657	5.13
625.99	5.13
626.324	5.09
626.657	5.07
626.991	5.1
627.324	5.09
627.658	5.11
627.991	5.07
628.324	5.07
628.657	5.06
628.991	5.05
629.324	5.11
629.657	5.1
629.99	5.12
630.323	5.13
630.656	5.12
630.989	5.15
631.322	5.16
631.655	5.13
631.987	5.13
632.32	5.19
632.653	5.15
632.986	5.15
633.318	5.22
633.651	5.23
633.984	5.21
634.316	5.19
634.649	5.16
634.981	5.12
635.313	5.13
635.646	5.15
635.978	5.18
636.31	5.15
636.643	5.15
636.975	5.16
637.307	5.11
637.639	5.1
637.971	5.1
638.303	5.09
638.635	5.09
638.967	5.07
639.299	5.08
639.631	5.11
639.963	5.05
640.295	5.03
640.626	5.03
640.958	5.04
641.29	5.09
641.621	5.06
641.953	5.1
642.285	5.11
642.616	5.16
642.948	5.15
643.279	5.17
643.61	5.23
643.942	5.23
644.273	5.23
644.604	5.3
644.936	5.2
645.267	5.21
645.598	5.24
645.929	5.28
646.26	5.23
646.591	5.24
646.922	5.26
647.253	5.29
647.584	5.22
647.915	5.22
648.245	5.24
648.576	5.34
648.907	5.37
649.238	5.35
649.568	5.3
649.899	5.35
650.229	5.36
650.56	5.32
650.89	5.27
651.221	5.22
651.551	5.15
651.882	5.23
652.212	5.25
652.542	5.16
652.872	5.12
653.203	5.13
653.533	5.16
653.863	5.16
654.193	5.09
654.523	5.1
654.853	5.15
655.183	5.11
655.513	5.08
655.843	4.99
656.172	4.99
656.502	5.01
656.832	5
657.162	4.96
657.491	4.88
657.821	4.98
658.15	5.03
658.48	5.07
658.809	5.11
659.139	5.1
659.468	5.16
659.798	5.18
660.127	5.2
660.456	5.18
660.785	5.21
661.115	5.28
661.444	5.33
661.773	5.31
662.102	5.31
662.431	5.26
662.76	5.36
663.089	5.38
663.418	5.4
663.747	5.38
664.076	5.41
664.404	5.42
664.733	5.39
665.062	5.35
665.39	5.3
665.719	5.23
666.048	5.15
666.376	5.24
666.705	5.2
667.033	5.22
667.362	5.24
667.69	5.27
668.018	5.21
668.347	5.26
668.675	5.21
669.003	5.2
669.331	5.3
669.659	5.31
669.987	5.24
670.315	5.23
670.643	5.26
670.971	5.26
671.299	5.35
671.627	5.32
671.955	5.39
672.283	5.42
672.61	5.36
672.938	5.42
673.266	5.34
673.593	5.42
673.921	5.45
674.249	5.38
674.576	5.38
674.904	5.43
675.231	5.43
675.558	5.48
675.886	5.55
676.213	5.5
676.54	5.43
676.867	5.48
