Data from BU57647_Reflection_00008.txt Node
Date: Mon Nov 18 16:49:35 EST 2019
User: vgr7
Spectrometer: USB2G7710
Scans to average: 3
Trigger mode: 4
Integration Time (sec): 2.000000E-2
Electric dark correction enabled: true
Boxcar width: 10
XAxis mode: Wavelengths
Number of Pixels in Spectrum: 2048
>>>>>Begin Spectral Data<<<<<
177.721	-0.27
178.105	-3.75
178.488	26.38
178.871	20.21
179.254	31.66
179.636	-356.52
180.019	5.96
180.402	42.5
180.785	-173.46
181.168	-8.37
181.55	-4.22
181.933	64.53
182.316	65.27
182.698	38.11
183.081	117.73
183.463	244.08
183.846	-3296.23
184.228	-14627.27
184.611	-928.57
184.993	-199.63
185.376	-112.95
185.758	-111.97
186.14	-73.12
186.522	-95.5
186.904	-105.51
187.287	-147.17
187.669	-18.67
188.051	-50.56
188.433	8.23
188.815	6.58
189.197	14.16
189.579	24.43
189.961	8.75
190.342	-5.49
190.724	1.04
191.106	4.61
191.488	13.63
191.869	20.07
192.251	27.68
192.633	33.3
193.014	19.08
193.396	-22.3
193.777	-46.92
194.159	-210.79
194.54	-182.95
194.922	-347.3
195.303	-191.35
195.684	-218.81
196.065	-133.95
196.447	-176.34
196.828	-231.85
197.209	-155.65
197.59	-161.49
197.971	-143.71
198.352	-102.82
198.733	-104.92
199.114	-93.94
199.495	-83.92
199.876	-83.52
200.257	-78.75
200.638	-63.71
201.018	-67.38
201.399	-51.27
201.78	-24.52
202.16	-8.06
202.541	-3.56
202.922	-3.56
203.302	-17.54
203.683	-13.38
204.063	-3.28
204.444	8
204.824	-8.24
205.204	19.53
205.585	73.86
205.965	136.18
206.345	126
206.725	16.28
207.106	-187.08
207.486	125.92
207.866	71.9
208.246	26.38
208.626	130.15
209.006	-18.03
209.386	29.41
209.766	-793.62
210.145	-284.34
210.525	-18.27
210.905	-17.7
211.285	-14.4
211.664	-26.71
212.044	-44.73
212.424	-43.63
212.803	-29.35
213.183	-22.2
213.562	-45.6
213.942	-20.45
214.321	-33.15
214.701	-22.57
215.08	-22.81
215.459	-20.62
215.838	-10.49
216.218	-21
216.597	-13.52
216.976	-17.52
217.355	-7.04
217.734	-12.95
218.113	-3.11
218.492	-13.16
218.871	-19.21
219.25	-5.29
219.629	5.22
220.008	27.69
220.387	24.76
220.766	22.95
221.144	-5.68
221.523	5.96
221.902	16.16
222.28	28.35
222.659	38.94
223.037	48.34
223.416	36.01
223.794	25.1
224.173	15.76
224.551	23.26
224.929	16.34
225.308	21.35
225.686	13.15
226.064	0.16
226.442	7.16
226.821	7.87
227.199	-1.66
227.577	-5.81
227.955	-9.13
228.333	-9.59
228.711	-6.51
229.089	2.17
229.467	1.01
229.845	-0.91
230.222	-0.7
230.6	-1.42
230.978	0.5
231.356	3.15
231.733	3.04
232.111	5.46
232.488	5.32
232.866	5.6
233.243	4.5
233.621	6.08
233.998	9.71
234.376	6.25
234.753	7.57
235.13	8.8
235.508	10
235.885	9.01
236.262	7.94
236.639	6.7
237.016	5.5
237.393	6.46
237.77	5.43
238.147	4.74
238.524	4.71
238.901	4.83
239.278	5.22
239.655	5.71
240.032	5.28
240.409	6.08
240.785	6
241.162	6.28
241.539	6.85
241.915	6.43
242.292	6.52
242.668	6.03
243.045	5.63
243.421	5.78
243.798	5.93
244.174	5.78
244.551	5.31
244.927	5.1
245.303	4.98
245.679	4.96
246.056	4.79
246.432	4.64
246.808	4.5
247.184	4.25
247.56	4.33
247.936	4.41
248.312	3.97
248.688	3.98
249.064	3.59
249.44	3.27
249.815	3.07
250.191	3.23
250.567	3.07
250.943	2.99
251.318	2.96
251.694	2.79
252.069	2.66
252.445	2.67
252.82	2.86
253.196	2.57
253.571	2.56
253.947	2.72
254.322	2.83
254.697	3.01
255.073	2.74
255.448	2.48
255.823	2.26
256.198	2.36
256.573	2.6
256.948	2.85
257.323	2.86
257.698	2.94
258.073	2.94
258.448	3.09
258.823	3.18
259.198	3.04
259.573	3.01
259.948	3.14
260.322	3.27
260.697	3.16
261.072	3.19
261.446	3.17
261.821	2.93
262.195	2.86
262.57	2.63
262.944	2.75
263.319	2.77
263.693	2.74
264.067	2.7
264.442	2.59
264.816	2.6
265.19	2.62
265.564	2.75
265.938	2.56
266.313	2.51
266.687	2.61
267.061	2.56
267.435	2.54
267.809	2.46
268.183	2.57
268.556	2.61
268.93	2.59
269.304	2.68
269.678	2.98
270.051	2.96
270.425	3.08
270.799	3.13
271.172	3
271.546	3.04
271.919	2.95
272.293	2.86
272.666	2.97
273.04	2.93
273.413	2.79
273.787	2.82
274.16	2.75
274.533	2.64
274.906	2.65
275.279	2.81
275.653	2.8
276.026	2.75
276.399	2.71
276.772	2.73
277.145	2.58
277.518	2.59
277.891	2.72
278.263	2.76
278.636	2.78
279.009	2.9
279.382	3.18
279.755	3.36
280.127	3.53
280.5	3.27
280.872	3.34
281.245	3.42
281.617	3.56
281.99	3.75
282.362	3.82
282.735	3.75
283.107	3.59
283.479	3.64
283.852	3.68
284.224	3.71
284.596	3.75
284.968	3.82
285.34	3.91
285.713	4
286.085	3.98
286.457	4.06
286.829	4.14
287.201	3.94
287.572	3.87
287.944	3.76
288.316	3.93
288.688	3.91
289.06	3.89
289.431	3.87
289.803	3.92
290.175	3.92
290.546	4.23
290.918	4.33
291.289	4.39
291.661	4.39
292.032	4.53
292.403	4.71
292.775	4.9
293.146	4.81
293.517	4.65
293.889	4.7
294.26	4.61
294.631	4.65
295.002	4.73
295.373	4.72
295.744	4.79
296.115	4.7
296.486	4.62
296.857	4.7
297.228	4.73
297.599	4.62
297.97	4.76
298.34	4.67
298.711	4.75
299.082	4.72
299.452	4.72
299.823	4.7
300.194	4.49
300.564	4.26
300.935	4.43
301.305	4.54
301.676	4.64
302.046	4.78
302.416	4.85
302.787	4.95
303.157	5.06
303.527	5.08
303.897	5.31
304.267	5.57
304.637	5.7
305.008	5.75
305.378	5.99
305.748	5.98
306.117	6.01
306.487	6.09
306.857	6.27
307.227	6.54
307.597	6.61
307.967	6.82
308.336	6.94
308.706	6.97
309.076	7.06
309.445	6.94
309.815	6.85
310.184	6.88
310.554	6.97
310.923	6.95
311.293	7.03
311.662	7.06
312.031	7.02
312.401	7.04
312.77	7.17
313.139	7.21
313.508	7.24
313.877	7.27
314.246	7.28
314.616	7.24
314.985	7.18
315.353	7.19
315.722	7.28
316.091	7.43
316.46	7.42
316.829	7.55
317.198	7.8
317.567	8.05
317.935	8.09
318.304	8.12
318.672	8.36
319.041	8.64
319.41	8.68
319.778	8.71
320.147	8.99
320.515	9.04
320.883	9.04
321.252	9.14
321.62	9.24
321.988	9.27
322.357	9.37
322.725	9.36
323.093	9.43
323.461	9.38
323.829	9.48
324.197	9.66
324.565	9.57
324.933	9.68
325.301	9.57
325.669	9.68
326.037	9.72
326.405	9.69
326.772	9.61
327.14	9.8
327.508	10.08
327.875	9.87
328.243	10.07
328.61	10.12
328.978	10.14
329.346	10.3
329.713	10.35
330.08	10.5
330.448	10.58
330.815	10.58
331.182	10.66
331.55	10.59
331.917	10.69
332.284	10.94
332.651	10.87
333.018	10.93
333.385	10.82
333.752	10.97
334.119	11.3
334.486	11.37
334.853	11.33
335.22	11.21
335.587	11.32
335.954	11.21
336.32	11.11
336.687	11.18
337.054	11.21
337.42	11.4
337.787	11.31
338.153	11.36
338.52	11.49
338.886	11.52
339.253	11.66
339.619	11.51
339.986	11.53
340.352	11.58
340.718	11.72
341.084	11.81
341.451	11.81
341.817	11.61
342.183	11.55
342.549	11.5
342.915	11.58
343.281	11.62
343.647	11.63
344.013	11.8
344.379	11.82
344.745	11.88
345.11	11.8
345.476	11.82
345.842	11.88
346.208	11.83
346.573	11.86
346.939	11.92
347.304	11.9
347.67	11.79
348.035	11.87
348.401	11.86
348.766	11.86
349.132	11.85
349.497	11.87
349.862	12.09
350.228	12.14
350.593	12.06
350.958	12.1
351.323	12.22
351.688	12.2
352.053	12.15
352.418	12.06
352.783	12.02
353.148	11.98
353.513	11.88
353.878	11.93
354.243	11.95
354.608	11.88
354.972	11.94
355.337	11.98
355.702	11.97
356.066	11.93
356.431	11.9
356.795	11.89
357.16	11.89
357.524	11.73
357.889	11.69
358.253	11.74
358.618	11.76
358.982	11.7
359.346	11.6
359.71	11.58
360.075	11.55
360.439	11.51
360.803	11.46
361.167	11.41
361.531	11.38
361.895	11.3
362.259	11.27
362.623	11.24
362.987	11.17
363.351	11.06
363.714	11.06
364.078	11.01
364.442	10.92
364.806	10.86
365.169	10.92
365.533	10.85
365.896	10.75
366.26	10.62
366.623	10.53
366.987	10.5
367.35	10.4
367.714	10.36
368.077	10.3
368.44	10.35
368.803	10.34
369.167	10.25
369.53	10.23
369.893	10.21
370.256	10.14
370.619	10.08
370.982	10.06
371.345	9.94
371.708	9.88
372.071	9.78
372.434	9.64
372.797	9.43
373.159	9.32
373.522	9.29
373.885	9.21
374.247	9.1
374.61	9.05
374.973	8.95
375.335	8.85
375.698	8.74
376.06	8.61
376.423	8.48
376.785	8.44
377.147	8.37
377.51	8.31
377.872	8.26
378.234	8.17
378.596	8.09
378.958	7.99
379.321	7.93
379.683	7.84
380.045	7.81
380.407	7.72
380.769	7.7
381.13	7.61
381.492	7.53
381.854	7.48
382.216	7.39
382.578	7.43
382.939	7.34
383.301	7.3
383.663	7.24
384.024	7.19
384.386	7.12
384.747	7.07
385.109	6.97
385.47	6.87
385.832	6.77
386.193	6.69
386.554	6.66
386.916	6.59
387.277	6.59
387.638	6.54
387.999	6.52
388.36	6.45
388.721	6.43
389.082	6.38
389.443	6.26
389.804	6.22
390.165	6.14
390.526	6.08
390.887	6.04
391.248	6.01
391.609	5.97
391.969	5.91
392.33	5.82
392.691	5.77
393.051	5.73
393.412	5.71
393.772	5.65
394.133	5.63
394.493	5.63
394.854	5.57
395.214	5.56
395.574	5.54
395.935	5.49
396.295	5.46
396.655	5.42
397.015	5.41
397.376	5.36
397.736	5.3
398.096	5.31
398.456	5.25
398.816	5.19
399.176	5.13
399.535	5.05
399.895	5.05
400.255	5.01
400.615	4.98
400.975	4.96
401.334	4.93
401.694	4.88
402.054	4.81
402.413	4.77
402.773	4.7
403.132	4.61
403.492	4.62
403.851	4.55
404.211	4.52
404.57	4.5
404.929	4.48
405.288	4.46
405.648	4.41
406.007	4.42
406.366	4.4
406.725	4.39
407.084	4.43
407.443	4.38
407.802	4.35
408.161	4.31
408.52	4.24
408.879	4.23
409.238	4.19
409.596	4.19
409.955	4.19
410.314	4.19
410.673	4.18
411.031	4.1
411.39	4.08
411.748	4.09
412.107	4.05
412.465	4.01
412.824	3.98
413.182	3.95
413.54	3.91
413.899	3.92
414.257	3.91
414.615	3.86
414.974	3.86
415.332	3.84
415.69	3.84
416.048	3.86
416.406	3.85
416.764	3.83
417.122	3.8
417.48	3.76
417.838	3.74
418.195	3.73
418.553	3.72
418.911	3.7
419.269	3.69
419.626	3.69
419.984	3.68
420.342	3.67
420.699	3.66
421.057	3.66
421.414	3.63
421.772	3.62
422.129	3.62
422.486	3.6
422.844	3.58
423.201	3.56
423.558	3.55
423.915	3.53
424.273	3.52
424.63	3.52
424.987	3.52
425.344	3.5
425.701	3.49
426.058	3.49
426.415	3.49
426.772	3.46
427.128	3.44
427.485	3.44
427.842	3.45
428.199	3.44
428.555	3.44
428.912	3.45
429.269	3.46
429.625	3.42
429.982	3.42
430.338	3.43
430.695	3.44
431.051	3.43
431.407	3.45
431.764	3.45
432.12	3.42
432.476	3.41
432.832	3.42
433.189	3.44
433.545	3.43
433.901	3.43
434.257	3.41
434.613	3.43
434.969	3.42
435.325	3.41
435.681	3.39
436.036	3.38
436.392	3.36
436.748	3.33
437.104	3.34
437.459	3.33
437.815	3.33
438.171	3.33
438.526	3.34
438.882	3.33
439.237	3.32
439.593	3.34
439.948	3.34
440.304	3.34
440.659	3.31
441.014	3.31
441.369	3.28
441.725	3.29
442.08	3.29
442.435	3.28
442.79	3.28
443.145	3.26
443.5	3.27
443.855	3.24
444.21	3.25
444.565	3.25
444.92	3.25
445.275	3.24
445.629	3.23
445.984	3.21
446.339	3.2
446.693	3.18
447.048	3.17
447.403	3.17
447.757	3.14
448.112	3.14
448.466	3.12
448.82	3.12
449.175	3.1
449.529	3.08
449.883	3.08
450.238	3.09
450.592	3.11
450.946	3.08
451.3	3.08
451.654	3.07
452.008	3.05
452.362	3.02
452.716	3.02
453.07	3.01
453.424	3.03
453.778	3.02
454.132	3.01
454.486	3
454.839	2.99
455.193	2.99
455.547	2.99
455.9	3.01
456.254	3.03
456.607	3.05
456.961	3.05
457.314	3.03
457.668	3.02
458.021	2.98
458.375	3
458.728	3
459.081	3
459.434	3.01
459.787	3.02
460.141	3.03
460.494	3.03
460.847	3.04
461.2	3.05
461.553	3.06
461.906	3.07
462.259	3.1
462.611	3.11
462.964	3.14
463.317	3.14
463.67	3.17
464.022	3.16
464.375	3.18
464.728	3.19
465.08	3.21
465.433	3.25
465.785	3.26
466.138	3.3
466.49	3.3
466.843	3.31
467.195	3.31
467.547	3.33
467.899	3.33
468.252	3.35
468.604	3.36
468.956	3.35
469.308	3.34
469.66	3.33
470.012	3.35
470.364	3.37
470.716	3.38
471.068	3.36
471.42	3.37
471.772	3.38
472.123	3.42
472.475	3.42
472.827	3.41
473.178	3.4
473.53	3.4
473.882	3.4
474.233	3.42
474.585	3.42
474.936	3.42
475.288	3.42
475.639	3.41
475.99	3.41
476.342	3.43
476.693	3.46
477.044	3.47
477.395	3.47
477.746	3.46
478.097	3.44
478.448	3.45
478.8	3.45
479.15	3.43
479.501	3.4
479.852	3.4
480.203	3.39
480.554	3.39
480.905	3.38
481.255	3.38
481.606	3.38
481.957	3.38
482.307	3.37
482.658	3.37
483.009	3.38
483.359	3.37
483.709	3.36
484.06	3.35
484.41	3.34
484.761	3.35
485.111	3.34
485.461	3.33
485.811	3.34
486.162	3.33
486.512	3.33
486.862	3.34
487.212	3.33
487.562	3.34
487.912	3.34
488.262	3.34
488.612	3.34
488.961	3.33
489.311	3.33
489.661	3.34
490.011	3.33
490.36	3.33
490.71	3.34
491.06	3.35
491.409	3.36
491.759	3.36
492.108	3.36
492.458	3.36
492.807	3.38
493.157	3.38
493.506	3.4
493.855	3.41
494.204	3.4
494.554	3.43
494.903	3.43
495.252	3.46
495.601	3.49
495.95	3.51
496.299	3.55
496.648	3.57
496.997	3.59
497.346	3.62
497.695	3.65
498.043	3.68
498.392	3.72
498.741	3.76
499.09	3.78
499.438	3.84
499.787	3.89
500.135	3.93
500.484	3.97
500.832	4.03
501.181	4.1
501.529	4.16
501.878	4.22
502.226	4.29
502.574	4.34
502.923	4.38
503.271	4.45
503.619	4.51
503.967	4.57
504.315	4.65
504.663	4.71
505.011	4.79
505.359	4.84
505.707	4.9
506.055	4.98
506.403	5.09
506.751	5.18
507.098	5.27
507.446	5.36
507.794	5.46
508.141	5.55
508.489	5.63
508.837	5.75
509.184	5.81
509.531	5.92
509.879	6.02
510.226	6.14
510.574	6.25
510.921	6.35
511.268	6.47
511.616	6.59
511.963	6.71
512.31	6.82
512.657	6.97
513.004	7.1
513.351	7.24
513.698	7.39
514.045	7.49
514.392	7.65
514.739	7.82
515.086	7.98
515.432	8.13
515.779	8.26
516.126	8.4
516.473	8.55
516.819	8.65
517.166	8.77
517.512	8.88
517.859	9.02
518.205	9.16
518.552	9.3
518.898	9.41
519.245	9.53
519.591	9.66
519.937	9.78
520.283	9.95
520.629	10.09
520.976	10.26
521.322	10.45
521.668	10.62
522.014	10.77
522.36	10.93
522.706	11.12
523.052	11.34
523.398	11.56
523.743	11.82
524.089	12.06
524.435	12.29
524.781	12.51
525.126	12.7
525.472	12.88
525.817	13.03
526.163	13.19
526.509	13.33
526.854	13.46
527.199	13.59
527.545	13.68
527.89	13.81
528.235	13.91
528.581	14.04
528.926	14.16
529.271	14.28
529.616	14.42
529.961	14.55
530.306	14.66
530.651	14.79
530.996	14.91
531.341	15.05
531.686	15.2
532.031	15.34
532.376	15.48
532.721	15.63
533.065	15.82
533.41	15.97
533.755	16.14
534.099	16.32
534.444	16.5
534.788	16.68
535.133	16.86
535.477	17.04
535.822	17.23
536.166	17.41
536.51	17.63
536.855	17.83
537.199	18.04
537.543	18.29
537.887	18.55
538.231	18.79
538.576	19.02
538.92	19.23
539.264	19.44
539.608	19.66
539.951	19.83
540.295	20.01
540.639	20.2
540.983	20.4
541.327	20.58
541.671	20.77
542.014	20.93
542.358	21.09
542.701	21.24
543.045	21.37
543.389	21.56
543.732	21.7
544.075	21.88
544.419	22.05
544.762	22.22
545.105	22.39
545.449	22.57
545.792	22.79
546.135	23.02
546.478	23.23
546.821	23.43
547.165	23.68
547.508	23.92
547.851	24.16
548.194	24.34
548.536	24.55
548.879	24.82
549.222	25.09
549.565	25.34
549.908	25.61
550.25	25.93
550.593	26.18
550.936	26.45
551.278	26.72
551.621	26.98
551.963	27.22
552.306	27.44
552.648	27.68
552.991	27.91
553.333	28.13
553.675	28.37
554.017	28.64
554.36	28.86
554.702	29.1
555.044	29.35
555.386	29.63
555.728	29.84
556.07	30.02
556.412	30.23
556.754	30.42
557.096	30.61
557.438	30.79
557.78	30.99
558.121	31.2
558.463	31.44
558.805	31.68
559.147	31.93
559.488	32.15
559.83	32.44
560.171	32.66
560.513	32.88
560.854	33.08
561.196	33.28
561.537	33.5
561.878	33.64
562.22	33.82
562.561	34.02
562.902	34.23
563.243	34.43
563.584	34.59
563.925	34.8
564.266	35.07
564.607	35.23
564.948	35.4
565.289	35.61
565.63	35.76
565.971	35.91
566.312	36.03
566.653	36.21
566.993	36.3
567.334	36.42
567.675	36.61
568.015	36.78
568.356	36.96
568.696	37.13
569.037	37.35
569.377	37.52
569.718	37.7
570.058	37.87
570.398	38.06
570.739	38.25
571.079	38.42
571.419	38.52
571.759	38.69
572.099	38.83
572.439	38.97
572.779	39.14
573.119	39.28
573.459	39.43
573.799	39.58
574.139	39.71
574.479	39.88
574.819	39.95
575.158	40.06
575.498	40.17
575.838	40.3
576.177	40.37
576.517	40.48
576.856	40.55
577.196	40.63
577.535	40.78
577.875	40.85
578.214	40.93
578.553	41.04
578.893	41.14
579.232	41.26
579.571	41.44
579.91	41.53
580.25	41.67
580.589	41.75
580.928	41.81
581.267	41.95
581.606	42.05
581.945	42.16
582.283	42.29
582.622	42.41
582.961	42.44
583.3	42.55
583.639	42.66
583.977	42.81
584.316	42.93
584.654	42.94
584.993	43.13
585.332	43.26
585.67	43.31
586.008	43.41
586.347	43.51
586.685	43.5
587.024	43.53
587.362	43.61
587.7	43.71
588.038	43.78
588.376	43.84
588.715	43.92
589.053	44.06
589.391	44.11
589.729	44.14
590.067	44.24
590.404	44.34
590.742	44.39
591.08	44.37
591.418	44.53
591.756	44.7
592.093	44.67
592.431	44.77
592.769	44.84
593.106	44.89
593.444	44.89
593.781	44.99
594.119	45.05
594.456	45.13
594.793	45.18
595.131	45.26
595.468	45.36
595.805	45.39
596.143	45.4
596.48	45.43
596.817	45.45
597.154	45.53
597.491	45.55
597.828	45.57
598.165	45.63
598.502	45.57
598.839	45.55
599.176	45.66
599.512	45.72
599.849	45.77
600.186	45.87
600.523	45.92
600.859	46.02
601.196	46.15
601.532	46.15
601.869	46.18
602.205	46.25
602.542	46.27
602.878	46.28
603.215	46.3
603.551	46.37
603.887	46.41
604.223	46.41
604.56	46.48
604.896	46.54
605.232	46.67
605.568	46.73
605.904	46.78
606.24	46.75
606.576	46.74
606.912	46.75
607.248	46.77
607.583	46.82
607.919	46.79
608.255	46.8
608.591	46.85
608.926	46.92
609.262	46.93
609.597	46.98
609.933	47.01
610.268	47
610.604	47
610.939	47.1
611.275	47.11
611.61	47.12
611.945	47.19
612.281	47.09
612.616	47.1
612.951	47.08
613.286	47.13
613.621	47.22
613.956	47.29
614.291	47.29
614.626	47.29
614.961	47.27
615.296	47.22
615.631	47.24
615.966	47.23
616.3	47.22
616.635	47.2
616.97	47.21
617.304	47.26
617.639	47.37
617.973	47.33
618.308	47.4
618.642	47.44
618.977	47.39
619.311	47.5
619.646	47.49
619.98	47.49
620.314	47.58
620.648	47.5
620.983	47.57
621.317	47.68
621.651	47.79
621.985	47.89
622.319	48.06
622.653	48.05
622.987	48.09
623.321	48.1
623.655	48.13
623.988	48.16
624.322	48.28
624.656	48.24
624.99	48.31
625.323	48.28
625.657	48.31
625.99	48.33
626.324	48.4
626.657	48.41
626.991	48.51
627.324	48.53
627.658	48.58
627.991	48.59
628.324	48.52
628.657	48.54
628.991	48.5
629.324	48.41
629.657	48.46
629.99	48.51
630.323	48.59
630.656	48.58
630.989	48.61
631.322	48.66
631.655	48.74
631.987	48.78
632.32	48.81
632.653	48.84
632.986	48.88
633.318	48.85
633.651	48.9
633.984	48.89
634.316	48.85
634.649	48.83
634.981	48.72
635.313	48.75
635.646	48.73
635.978	48.73
636.31	48.75
636.643	48.81
636.975	48.69
637.307	48.73
637.639	48.79
637.971	48.76
638.303	48.62
638.635	48.64
638.967	48.64
639.299	48.64
639.631	48.53
639.963	48.46
640.295	48.45
640.626	48.51
640.958	48.49
641.29	48.6
641.621	48.58
641.953	48.7
642.285	48.72
642.616	48.77
642.948	48.86
643.279	48.9
643.61	48.88
643.942	48.97
644.273	48.96
644.604	48.92
644.936	48.92
645.267	48.98
645.598	48.83
645.929	48.84
646.26	48.83
646.591	48.92
646.922	49.03
647.253	49
647.584	48.92
647.915	48.96
648.245	48.96
648.576	49.08
648.907	49.03
649.238	49.1
649.568	49.15
649.899	49.1
650.229	49.05
650.56	49.02
650.89	48.97
651.221	48.87
651.551	48.89
651.882	48.83
652.212	48.9
652.542	48.93
652.872	48.91
653.203	48.93
653.533	48.86
653.863	48.8
654.193	48.74
654.523	48.79
654.853	48.77
655.183	48.63
655.513	48.6
655.843	48.66
656.172	48.61
656.502	48.63
656.832	48.55
657.162	48.63
657.491	48.64
657.821	48.69
658.15	48.84
658.48	48.85
658.809	48.95
659.139	48.83
659.468	48.91
659.798	48.93
660.127	48.85
660.456	48.93
660.785	49.06
661.115	49.14
661.444	49.09
661.773	49.05
662.102	49.27
662.431	49.22
662.76	49.12
663.089	49.18
663.418	49.12
663.747	49.18
664.076	49.16
664.404	49.32
664.733	49.34
665.062	49.26
665.39	49.3
