Data from BU57649_Reflection_00008.txt Node
Date: Tue Nov 19 10:55:44 EST 2019
User: vgr7
Spectrometer: USB2G7710
Scans to average: 3
Trigger mode: 4
Integration Time (sec): 2.000000E-2
Electric dark correction enabled: true
Boxcar width: 10
XAxis mode: Wavelengths
Number of Pixels in Spectrum: 2048
>>>>>Begin Spectral Data<<<<<
177.721	-40.47
178.105	-40.62
178.488	-36.26
178.871	-62.86
179.254	-44.6
179.636	-8.01
180.019	-5.63
180.402	766.67
180.785	-341.18
181.168	3100
181.55	-36.36
181.933	197.63
182.316	72.39
182.698	-114.29
183.081	-99.76
183.463	-55.07
183.846	-77.19
184.228	-58.34
184.611	-12.1
184.993	-7.29
185.376	-1.87
185.758	-6.21
186.14	-0.29
186.522	4.96
186.904	-7.52
187.287	-9.01
187.669	-1.06
188.051	-3.75
188.433	-10.3
188.815	-18.24
189.197	-18.67
189.579	-18.82
189.961	-21
190.342	-30.3
190.724	-45.76
191.106	-44.31
191.488	-47.02
191.869	-50.05
192.251	-50.16
192.633	-77.43
193.014	-69.38
193.396	-107.91
193.777	-105.52
194.159	-116.73
194.54	-124.18
194.922	-126.11
195.303	-120.27
195.684	-107.66
196.065	-94.58
196.447	-65.84
196.828	-57.95
197.209	-45.05
197.59	-43.04
197.971	-34.46
198.352	-22.36
198.733	-14.21
199.114	-30.57
199.495	-33.1
199.876	-31.99
200.257	-36.06
200.638	-24.31
201.018	-31.29
201.399	-28.52
201.78	-39.59
202.16	-40.42
202.541	-44.34
202.922	-43.64
203.302	-47.58
203.683	-53.15
204.063	-54.67
204.444	-59.61
204.824	-57.11
205.204	-52.36
205.585	-50.04
205.965	-51.59
206.345	-56.83
206.725	-52.63
207.106	-41.89
207.486	-32.57
207.866	-33.49
208.246	-33.48
208.626	-48.34
209.006	-64.43
209.386	-57.95
209.766	-57.55
210.145	-56.55
210.525	-53.54
210.905	-46.98
211.285	-42.51
211.664	-39.44
212.044	-44.8
212.424	-39.78
212.803	-44.07
213.183	-49.77
213.562	-44.76
213.942	-46.97
214.321	-41.44
214.701	-49.26
215.08	-52.36
215.459	-54.89
215.838	-53.32
216.218	-53.39
216.597	-34.73
216.976	-13.88
217.355	-19.94
217.734	-16.24
218.113	-10.99
218.492	-23.76
218.871	-25.3
219.25	-39.89
219.629	-52.6
220.008	-48.96
220.387	-56.45
220.766	-51.82
221.144	-50.61
221.523	-59.6
221.902	-48.86
222.28	-44.85
222.659	-30.41
223.037	-31.12
223.416	-31.55
223.794	-28.13
224.173	-25.03
224.551	-30.03
224.929	-42.56
225.308	-28.81
225.686	-26.43
226.064	-27.57
226.442	-20.8
226.821	-19.42
227.199	-15.6
227.577	-11.8
227.955	-9.17
228.333	-10.65
228.711	-8.88
229.089	-7.2
229.467	-9.15
229.845	-8.62
230.222	-7.51
230.6	-8.9
230.978	-6.12
231.356	-5.94
231.733	-4.19
232.111	-2.77
232.488	-2.38
232.866	0.47
233.243	-1.97
233.621	-0.83
233.998	-2.08
234.376	-1.14
234.753	-1.04
235.13	-0.06
235.508	-0.56
235.885	-0.64
236.262	0.01
236.639	1.71
237.016	-0.11
237.393	-0.84
237.77	-0.29
238.147	0.48
238.524	1.49
238.901	0.55
239.278	0.94
239.655	1.01
240.032	1.06
240.409	1.68
240.785	1.76
241.162	1.63
241.539	1.76
241.915	2.71
242.292	2.95
242.668	3.02
243.045	3.16
243.421	3.37
243.798	3.37
244.174	3.58
244.551	3.18
244.927	3.33
245.303	3.48
245.679	3.44
246.056	3.17
246.432	3.38
246.808	3.44
247.184	3.33
247.56	3.07
247.936	2.93
248.312	2.87
248.688	2.88
249.064	2.73
249.44	2.49
249.815	2.48
250.191	2.46
250.567	2.3
250.943	2.24
251.318	2.23
251.694	2.05
252.069	1.9
252.445	1.81
252.82	1.79
253.196	1.78
253.571	2.04
253.947	2
254.322	1.39
254.697	1.45
255.073	1.5
255.448	1.84
255.823	1.87
256.198	1.86
256.573	1.72
256.948	2.2
257.323	2.35
257.698	2.11
258.073	2.21
258.448	2.32
258.823	2.32
259.198	2.3
259.573	2.32
259.948	2.5
260.322	2.48
260.697	2.64
261.072	2.66
261.446	2.68
261.821	2.6
262.195	2.84
262.57	3.02
262.944	3.16
263.319	3.14
263.693	3.27
264.067	3.33
264.442	3.48
264.816	3.38
265.19	3.38
265.564	3.39
265.938	3.31
266.313	3.22
266.687	3.29
267.061	3.38
267.435	3.29
267.809	3.16
268.183	3.1
268.556	3.01
268.93	3.09
269.304	2.98
269.678	3.13
270.051	3.12
270.425	2.92
270.799	2.72
271.172	2.87
271.546	2.72
271.919	2.78
272.293	2.79
272.666	2.76
273.04	2.8
273.413	2.78
273.787	2.8
274.16	2.81
274.533	2.8
274.906	2.67
275.279	2.92
275.653	2.96
276.026	3.06
276.399	3.01
276.772	2.98
277.145	2.89
277.518	2.89
277.891	2.71
278.263	2.75
278.636	2.76
279.009	2.5
279.382	2.65
279.755	2.53
280.127	2.57
280.5	2.53
280.872	2.45
281.245	2.62
281.617	2.63
281.99	2.7
282.362	2.74
282.735	2.76
283.107	2.6
283.479	2.6
283.852	2.53
284.224	2.52
284.596	2.53
284.968	2.51
285.34	2.49
285.713	2.61
286.085	2.56
286.457	2.6
286.829	2.69
287.201	2.62
287.572	2.65
287.944	2.64
288.316	2.64
288.688	2.85
289.06	2.79
289.431	2.79
289.803	2.88
290.175	2.93
290.546	2.85
290.918	2.84
291.289	2.71
291.661	2.81
292.032	2.79
292.403	2.88
292.775	3.03
293.146	3.05
293.517	3.07
293.889	3.22
294.26	3.31
294.631	3.29
295.002	3.35
295.373	3.33
295.744	3.37
296.115	3.47
296.486	3.45
296.857	3.46
297.228	3.54
297.599	3.3
297.97	3.29
298.34	3.46
298.711	3.66
299.082	3.8
299.452	3.75
299.823	3.93
300.194	3.92
300.564	3.86
300.935	3.83
301.305	3.77
301.676	3.63
302.046	3.62
302.416	3.67
302.787	3.7
303.157	3.81
303.527	3.91
303.897	3.96
304.267	3.78
304.637	3.9
305.008	3.87
305.378	4.17
305.748	4.07
306.117	4.02
306.487	3.93
306.857	4.07
307.227	4.29
307.597	4.28
307.967	4.26
308.336	4.36
308.706	4.53
309.076	4.65
309.445	4.88
309.815	4.9
310.184	4.93
310.554	4.93
310.923	4.95
311.293	4.81
311.662	4.83
312.031	4.92
312.401	4.97
312.77	5.08
313.139	5.09
313.508	5.27
313.877	5.38
314.246	5.44
314.616	5.33
314.985	5.32
315.353	5.29
315.722	5.46
316.091	5.59
316.46	5.51
316.829	5.46
317.198	5.33
317.567	5.45
317.935	5.61
318.304	5.74
318.672	6.01
319.041	6.2
319.41	6.19
319.778	6.3
320.147	6.12
320.515	6.07
320.883	6.13
321.252	6
321.62	6.07
321.988	6.12
322.357	6.11
322.725	6.2
323.093	6.25
323.461	6.19
323.829	6.13
324.197	6.26
324.565	6.36
324.933	6.53
325.301	6.49
325.669	6.42
326.037	6.38
326.405	6.18
326.772	6.18
327.14	6.1
327.508	6.07
327.875	6.21
328.243	6.28
328.61	6.42
328.978	6.54
329.346	6.53
329.713	6.51
330.08	6.83
330.448	6.76
330.815	6.87
331.182	6.9
331.55	6.83
331.917	6.86
332.284	6.89
332.651	6.9
333.018	6.94
333.385	7.08
333.752	7.19
334.119	7.34
334.486	7.4
334.853	7.51
335.22	7.53
335.587	7.51
335.954	7.59
336.32	7.38
336.687	7.45
337.054	7.46
337.42	7.53
337.787	7.4
338.153	7.47
338.52	7.53
338.886	7.57
339.253	7.55
339.619	7.53
339.986	7.59
340.352	7.65
340.718	7.63
341.084	7.64
341.451	7.73
341.817	7.65
342.183	7.57
342.549	7.76
342.915	7.76
343.281	7.86
343.647	7.83
344.013	8
344.379	7.91
344.745	7.98
345.11	8.01
345.476	7.99
345.842	7.97
346.208	7.95
346.573	7.93
346.939	8.06
347.304	8.1
347.67	8.05
348.035	8.02
348.401	8.15
348.766	8.03
349.132	8
349.497	8.12
349.862	8.2
350.228	8.16
350.593	8.18
350.958	8.26
351.323	8.24
351.688	8.15
352.053	8.23
352.418	8.21
352.783	8.15
353.148	8.17
353.513	8.14
353.878	8.04
354.243	7.98
354.608	7.97
354.972	7.96
355.337	7.96
355.702	7.96
356.066	7.89
356.431	7.98
356.795	7.97
357.16	7.87
357.524	7.84
357.889	7.72
358.253	7.61
358.618	7.52
358.982	7.41
359.346	7.39
359.71	7.26
360.075	7.24
360.439	7.24
360.803	7.25
361.167	7.25
361.531	7.25
361.895	7.26
362.259	7.21
362.623	7.14
362.987	7.08
363.351	7.01
363.714	6.96
364.078	6.86
364.442	6.79
364.806	6.76
365.169	6.67
365.533	6.7
365.896	6.69
366.26	6.66
366.623	6.66
366.987	6.65
367.35	6.66
367.714	6.6
368.077	6.56
368.44	6.46
368.803	6.36
369.167	6.29
369.53	6.3
369.893	6.22
370.256	6.24
370.619	6.2
370.982	6.16
371.345	6.1
371.708	6.08
372.071	6.05
372.434	6.03
372.797	6
373.159	5.89
373.522	5.91
373.885	5.85
374.247	5.83
374.61	5.82
374.973	5.77
375.335	5.72
375.698	5.68
376.06	5.63
376.423	5.58
376.785	5.56
377.147	5.49
377.51	5.45
377.872	5.39
378.234	5.38
378.596	5.3
378.958	5.25
379.321	5.2
379.683	5.12
380.045	5.02
380.407	4.96
380.769	4.91
381.13	4.85
381.492	4.79
381.854	4.73
382.216	4.64
382.578	4.61
382.939	4.55
383.301	4.47
383.663	4.44
384.024	4.42
384.386	4.36
384.747	4.31
385.109	4.26
385.47	4.19
385.832	4.15
386.193	4.16
386.554	4.1
386.916	4.08
387.277	4.04
387.638	4.06
387.999	4.02
388.36	4.04
388.721	3.98
389.082	3.99
389.443	3.97
389.804	3.96
390.165	3.94
390.526	3.94
390.887	3.93
391.248	3.9
391.609	3.91
391.969	3.93
392.33	3.91
392.691	3.91
393.051	3.89
393.412	3.88
393.772	3.85
394.133	3.83
394.493	3.78
394.854	3.75
395.214	3.7
395.574	3.69
395.935	3.63
396.295	3.62
396.655	3.56
397.015	3.51
397.376	3.48
397.736	3.44
398.096	3.39
398.456	3.34
398.816	3.31
399.176	3.26
399.535	3.2
399.895	3.16
400.255	3.12
400.615	3.12
400.975	3.05
401.334	3.02
401.694	3.03
402.054	3.05
402.413	3.06
402.773	3.04
403.132	3.02
403.492	3.03
403.851	3.02
404.211	3.03
404.57	3.05
404.929	3.04
405.288	3.02
405.648	3.03
406.007	3.03
406.366	3.02
406.725	3
407.084	3.01
407.443	3.01
407.802	3.01
408.161	3.01
408.52	3.05
408.879	3.05
409.238	3.05
409.596	3
409.955	2.98
410.314	2.99
410.673	2.99
411.031	2.95
411.39	2.94
411.748	2.94
412.107	2.9
412.465	2.91
412.824	2.89
413.182	2.88
413.54	2.89
413.899	2.87
414.257	2.87
414.615	2.86
414.974	2.85
415.332	2.87
415.69	2.84
416.048	2.8
416.406	2.8
416.764	2.77
417.122	2.77
417.48	2.76
417.838	2.77
418.195	2.75
418.553	2.76
418.911	2.76
419.269	2.75
419.626	2.74
419.984	2.73
420.342	2.74
420.699	2.72
421.057	2.71
421.414	2.72
421.772	2.7
422.129	2.68
422.486	2.69
422.844	2.66
423.201	2.67
423.558	2.66
423.915	2.65
424.273	2.66
424.63	2.67
424.987	2.66
425.344	2.65
425.701	2.66
426.058	2.66
426.415	2.67
426.772	2.66
427.128	2.67
427.485	2.66
427.842	2.65
428.199	2.68
428.555	2.67
428.912	2.66
429.269	2.67
429.625	2.67
429.982	2.66
430.338	2.68
430.695	2.67
431.051	2.68
431.407	2.69
431.764	2.67
432.12	2.66
432.476	2.67
432.832	2.67
433.189	2.62
433.545	2.63
433.901	2.62
434.257	2.62
434.613	2.6
434.969	2.61
435.325	2.61
435.681	2.59
436.036	2.6
436.392	2.6
436.748	2.59
437.104	2.61
437.459	2.61
437.815	2.61
438.171	2.62
438.526	2.62
438.882	2.62
439.237	2.62
439.593	2.62
439.948	2.59
440.304	2.6
440.659	2.62
441.014	2.6
441.369	2.6
441.725	2.61
442.08	2.61
442.435	2.59
442.79	2.58
443.145	2.58
443.5	2.58
443.855	2.58
444.21	2.58
444.565	2.57
444.92	2.57
445.275	2.57
445.629	2.55
445.984	2.55
446.339	2.56
446.693	2.55
447.048	2.56
447.403	2.56
447.757	2.56
448.112	2.56
448.466	2.57
448.82	2.55
449.175	2.56
449.529	2.56
449.883	2.55
450.238	2.57
450.592	2.56
450.946	2.55
451.3	2.55
451.654	2.53
452.008	2.54
452.362	2.52
452.716	2.52
453.07	2.54
453.424	2.53
453.778	2.5
454.132	2.52
454.486	2.52
454.839	2.51
455.193	2.51
455.547	2.51
455.9	2.5
456.254	2.5
456.607	2.48
456.961	2.49
457.314	2.5
457.668	2.49
458.021	2.49
458.375	2.49
458.728	2.49
459.081	2.51
459.434	2.5
459.787	2.5
460.141	2.49
460.494	2.49
460.847	2.5
461.2	2.5
461.553	2.5
461.906	2.5
462.259	2.5
462.611	2.5
462.964	2.49
463.317	2.51
463.67	2.52
464.022	2.53
464.375	2.53
464.728	2.53
465.08	2.54
465.433	2.55
465.785	2.57
466.138	2.58
466.49	2.57
466.843	2.58
467.195	2.6
467.547	2.61
467.899	2.62
468.252	2.62
468.604	2.63
468.956	2.64
469.308	2.63
469.66	2.63
470.012	2.65
470.364	2.66
470.716	2.64
471.068	2.66
471.42	2.66
471.772	2.65
472.123	2.68
472.475	2.68
472.827	2.67
473.178	2.66
473.53	2.68
473.882	2.69
474.233	2.69
474.585	2.69
474.936	2.68
475.288	2.69
475.639	2.7
475.99	2.69
476.342	2.69
476.693	2.7
477.044	2.71
477.395	2.69
477.746	2.68
478.097	2.7
478.448	2.67
478.8	2.67
479.15	2.7
479.501	2.67
479.852	2.66
480.203	2.67
480.554	2.67
480.905	2.66
481.255	2.65
481.606	2.64
481.957	2.64
482.307	2.65
482.658	2.65
483.009	2.64
483.359	2.65
483.709	2.65
484.06	2.66
484.41	2.66
484.761	2.67
485.111	2.68
485.461	2.69
485.811	2.68
486.162	2.68
486.512	2.68
486.862	2.68
487.212	2.69
487.562	2.69
487.912	2.69
488.262	2.7
488.612	2.71
488.961	2.72
489.311	2.71
489.661	2.71
490.011	2.71
490.36	2.74
490.71	2.73
491.06	2.73
491.409	2.72
491.759	2.73
492.108	2.74
492.458	2.72
492.807	2.71
493.157	2.74
493.506	2.75
493.855	2.75
494.204	2.76
494.554	2.78
494.903	2.77
495.252	2.79
495.601	2.8
495.95	2.81
496.299	2.82
496.648	2.83
496.997	2.86
497.346	2.89
497.695	2.9
498.043	2.93
498.392	2.95
498.741	2.97
499.09	2.99
499.438	3.01
499.787	3.05
500.135	3.08
500.484	3.08
500.832	3.09
501.181	3.14
501.529	3.19
501.878	3.21
502.226	3.25
502.574	3.27
502.923	3.3
503.271	3.33
503.619	3.36
503.967	3.4
504.315	3.43
504.663	3.44
505.011	3.47
505.359	3.5
505.707	3.54
506.055	3.59
506.403	3.62
506.751	3.65
507.098	3.71
507.446	3.77
507.794	3.83
508.141	3.89
508.489	3.93
508.837	3.95
509.184	4.01
509.531	4.06
509.879	4.12
510.226	4.18
510.574	4.25
510.921	4.32
511.268	4.4
511.616	4.46
511.963	4.51
512.31	4.61
512.657	4.69
513.004	4.78
513.351	4.86
513.698	4.94
514.045	5.04
514.392	5.11
514.739	5.19
515.086	5.29
515.432	5.39
515.779	5.49
516.126	5.6
516.473	5.69
516.819	5.78
517.166	5.87
517.512	5.95
517.859	6.04
518.205	6.12
518.552	6.17
518.898	6.26
519.245	6.36
519.591	6.44
519.937	6.53
520.283	6.63
520.629	6.72
520.976	6.81
521.322	6.93
521.668	7.05
522.014	7.17
522.36	7.28
522.706	7.41
523.052	7.55
523.398	7.68
523.743	7.82
524.089	7.97
524.435	8.11
524.781	8.26
525.126	8.39
525.472	8.52
525.817	8.63
526.163	8.72
526.509	8.8
526.854	8.9
527.199	8.98
527.545	9.06
527.89	9.14
528.235	9.22
528.581	9.29
528.926	9.37
529.271	9.45
529.616	9.53
529.961	9.6
530.306	9.69
530.651	9.78
530.996	9.88
531.341	9.98
531.686	10.08
532.031	10.18
532.376	10.27
532.721	10.35
533.065	10.46
533.41	10.6
533.755	10.73
534.099	10.84
534.444	10.96
534.788	11.08
535.133	11.21
535.477	11.34
535.822	11.49
536.166	11.61
536.51	11.78
536.855	11.94
537.199	12.12
537.543	12.28
537.887	12.48
538.231	12.65
538.576	12.84
538.92	13.03
539.264	13.18
539.608	13.37
539.951	13.55
540.295	13.73
540.639	13.87
540.983	14.01
541.327	14.17
541.671	14.34
542.014	14.5
542.358	14.65
542.701	14.81
543.045	14.96
543.389	15.13
543.732	15.28
544.075	15.43
544.419	15.59
544.762	15.75
545.105	15.9
545.449	16.1
545.792	16.27
546.135	16.45
546.478	16.68
546.821	16.91
547.165	17.14
547.508	17.33
547.851	17.55
548.194	17.78
548.536	18
548.879	18.2
549.222	18.43
549.565	18.65
549.908	18.87
550.25	19.09
550.593	19.35
550.936	19.59
551.278	19.86
551.621	20.12
551.963	20.4
552.306	20.71
552.648	20.96
552.991	21.23
553.333	21.47
553.675	21.71
554.017	21.94
554.36	22.17
554.702	22.41
555.044	22.64
555.386	22.88
555.728	23.13
556.07	23.42
556.412	23.71
556.754	23.96
557.096	24.22
557.438	24.55
557.78	24.83
558.121	25.12
558.463	25.4
558.805	25.68
559.147	25.94
559.488	26.16
559.83	26.41
560.171	26.65
560.513	26.91
560.854	27.15
561.196	27.42
561.537	27.71
561.878	27.96
562.22	28.27
562.561	28.57
562.902	28.82
563.243	29.07
563.584	29.28
563.925	29.58
564.266	29.82
564.607	30.03
564.948	30.28
565.289	30.52
565.63	30.77
565.971	31.02
566.312	31.27
566.653	31.53
566.993	31.77
567.334	32.04
567.675	32.31
568.015	32.56
568.356	32.8
568.696	33.05
569.037	33.33
569.377	33.56
569.718	33.79
570.058	34.05
570.398	34.29
570.739	34.52
571.079	34.71
571.419	34.97
571.759	35.19
572.099	35.38
572.439	35.58
572.779	35.76
573.119	35.93
573.459	36.08
573.799	36.25
574.139	36.43
574.479	36.62
574.819	36.79
575.158	37.03
575.498	37.26
575.838	37.43
576.177	37.61
576.517	37.75
576.856	37.94
577.196	38.1
577.535	38.27
577.875	38.51
578.214	38.73
578.553	38.9
578.893	39.12
579.232	39.26
579.571	39.41
579.91	39.6
580.25	39.82
580.589	39.99
580.928	40.25
581.267	40.43
581.606	40.65
581.945	40.83
582.283	40.97
582.622	41.05
582.961	41.21
583.3	41.36
583.639	41.55
583.977	41.71
584.316	41.92
584.654	42.1
584.993	42.19
585.332	42.35
585.67	42.53
586.008	42.69
586.347	42.94
586.685	43.09
587.024	43.23
587.362	43.31
587.7	43.51
588.038	43.58
588.376	43.68
588.715	43.8
589.053	43.97
589.391	44.06
589.729	44.24
590.067	44.38
590.404	44.52
590.742	44.64
591.08	44.77
591.418	44.81
591.756	44.93
592.093	45.06
592.431	45.21
592.769	45.3
593.106	45.36
593.444	45.45
593.781	45.63
594.119	45.77
594.456	45.95
594.793	46.05
595.131	46.17
595.468	46.35
595.805	46.41
596.143	46.44
596.48	46.56
596.817	46.61
597.154	46.67
597.491	46.76
597.828	46.83
598.165	46.94
598.502	47.08
598.839	47.2
599.176	47.31
599.512	47.4
599.849	47.52
600.186	47.62
600.523	47.73
600.859	47.76
601.196	47.82
601.532	47.85
601.869	47.99
602.205	48.06
602.542	48.07
602.878	48.14
603.215	48.22
603.551	48.31
603.887	48.34
604.223	48.4
604.56	48.45
604.896	48.54
605.232	48.57
605.568	48.65
605.904	48.65
606.24	48.64
606.576	48.64
606.912	48.67
607.248	48.79
607.583	48.84
607.919	48.88
608.255	48.93
608.591	49.06
608.926	49.04
609.262	49.06
609.597	49.11
609.933	49.15
610.268	49.16
610.604	49.14
610.939	49.2
611.275	49.27
611.61	49.32
611.945	49.4
612.281	49.4
612.616	49.49
612.951	49.53
613.286	49.65
613.621	49.67
613.956	49.72
614.291	49.78
614.626	49.86
614.961	49.93
615.296	49.99
615.631	49.96
615.966	49.97
616.3	50.04
616.635	50.16
616.97	50.17
617.304	50.26
617.639	50.36
617.973	50.47
618.308	50.55
618.642	50.5
618.977	50.48
619.311	50.6
619.646	50.61
619.98	50.67
620.314	50.77
620.648	50.91
620.983	50.99
621.317	50.98
621.651	50.98
621.985	51.05
622.319	51.08
622.653	51.15
622.987	51.24
623.321	51.24
623.655	51.27
623.988	51.36
624.322	51.33
624.656	51.33
624.99	51.29
625.323	51.3
625.657	51.36
625.99	51.43
626.324	51.32
626.657	51.31
626.991	51.41
627.324	51.44
627.658	51.52
627.991	51.54
628.324	51.6
628.657	51.63
628.991	51.68
629.324	51.71
629.657	51.69
629.99	51.71
630.323	51.84
630.656	51.85
630.989	51.84
631.322	51.88
631.655	52.01
631.987	52.03
632.32	52.02
632.653	52.11
632.986	52.15
633.318	52.41
633.651	52.42
633.984	52.53
634.316	52.54
634.649	52.55
634.981	52.47
635.313	52.53
635.646	52.52
635.978	52.54
636.31	52.62
636.643	52.69
636.975	52.75
637.307	52.74
637.639	52.77
637.971	52.8
638.303	52.81
638.635	52.78
638.967	52.86
639.299	52.87
639.631	52.83
639.963	52.81
640.295	52.57
640.626	52.61
640.958	52.47
641.29	52.37
641.621	52.32
641.953	52.33
642.285	52.25
642.616	52.2
642.948	52.13
643.279	52.05
643.61	52.08
643.942	52.09
644.273	52.06
644.604	52.06
644.936	52.08
645.267	52.19
645.598	52.14
645.929	52.13
646.26	52.16
646.591	52.22
646.922	52.31
647.253	52.4
647.584	52.42
647.915	52.46
648.245	52.52
648.576	52.63
648.907	52.63
649.238	52.66
649.568	52.78
649.899	52.81
650.229	52.84
650.56	52.94
650.89	52.92
651.221	52.99
651.551	53.04
651.882	53.05
652.212	53.15
652.542	53.19
652.872	53.21
653.203	53.22
653.533	53.26
653.863	53.24
654.193	53.28
654.523	53.24
654.853	53.23
655.183	53.28
655.513	53.19
655.843	53.36
656.172	53.39
656.502	53.38
656.832	53.41
657.162	53.45
657.491	53.39
657.821	53.44
658.15	53.44
658.48	53.43
658.809	53.51
659.139	53.48
659.468	53.51
659.798	53.57
660.127	53.6
660.456	53.62
660.785	53.54
661.115	53.62
661.444	53.81
661.773	53.81
662.102	53.78
662.431	53.79
662.76	53.69
663.089	53.82
663.418	53.79
663.747	53.82
664.076	53.86
664.404	53.86
664.733	53.83
665.062	53.96
665.39	53.93
665.719	54.02
666.048	53.94
666.376	53.94
666.705	53.92
667.033	53.94
667.362	53.93
