Data from BU57737_Reflection_00012.txt Node
Date: Mon Nov 18 16:30:04 EST 2019
User: vgr7
Spectrometer: USB2G7710
Scans to average: 3
Trigger mode: 4
Integration Time (sec): 2.000000E-2
Electric dark correction enabled: true
Boxcar width: 10
XAxis mode: Wavelengths
Number of Pixels in Spectrum: 2048
>>>>>Begin Spectral Data<<<<<
177.721	93.22
178.105	-534.92
178.488	-26.36
178.871	13.75
179.254	45.5
179.636	-209.52
180.019	127.91
180.402	123.08
180.785	-37.71
181.168	433.33
181.55	-29.13
181.933	30.46
182.316	44.23
182.698	58.26
183.081	48.15
183.463	55.27
183.846	36.88
184.228	108.09
184.611	190.76
184.993	141.77
185.376	133.98
185.758	121.73
186.14	80.82
186.522	74.82
186.904	66.63
187.287	69.7
187.669	71.27
188.051	93.54
188.433	113.52
188.815	114.42
189.197	114.72
189.579	99.33
189.961	324.96
190.342	285.19
190.724	365.09
191.106	-3798.55
191.488	103766.67
191.869	-336.08
192.251	-293.42
192.633	-145.76
193.014	-102.83
193.396	-119.71
193.777	-105.87
194.159	-130.62
194.54	-95.78
194.922	-77.04
195.303	-59.99
195.684	-47.78
196.065	-62.56
196.447	-71.92
196.828	-75.57
197.209	-57.05
197.59	-58.17
197.971	-70.01
198.352	-63.24
198.733	-70.24
199.114	-70.82
199.495	-62.66
199.876	-58.4
200.257	-59.84
200.638	-56.42
201.018	-72
201.399	-63.36
201.78	-70.01
202.16	-91.97
202.541	-207.9
202.922	-231.14
203.302	-285.55
203.683	-363.08
204.063	-655.01
204.444	-1527.45
204.824	-609.64
205.204	-852.14
205.585	-558.3
205.965	-246.8
206.345	-573.88
206.725	-865.59
207.106	-765.13
207.486	-684.57
207.866	-1540.26
208.246	12978.79
208.626	43322.22
209.006	-644.14
209.386	3292.59
209.766	906.15
210.145	1087.06
210.525	-154.4
210.905	-155.92
211.285	-111.33
211.664	-85.68
212.044	-51.4
212.424	-50.62
212.803	-59.99
213.183	-74.1
213.562	-81.35
213.942	-99.86
214.321	-59.75
214.701	-61.09
215.08	-58.41
215.459	-45.96
215.838	-32.11
216.218	-32.17
216.597	-24.48
216.976	-33.6
217.355	-13.21
217.734	-15.47
218.113	-17.48
218.492	-17.59
218.871	-29.14
219.25	-42.06
219.629	-50.79
220.008	-55.89
220.387	-52.24
220.766	-58.21
221.144	-58.72
221.523	-72.12
221.902	-87.03
222.28	-133.84
222.659	-114.9
223.037	-101.16
223.416	-117.16
223.794	-124.67
224.173	-101.06
224.551	-88.23
224.929	-78.59
225.308	-67.65
225.686	-56.25
226.064	-44.01
226.442	-37.47
226.821	-28.31
227.199	-20.63
227.577	-21.98
227.955	-19.86
228.333	-15.58
228.711	-12.32
229.089	-8.65
229.467	-7.98
229.845	-2.93
230.222	0.86
230.6	2.77
230.978	1.45
231.356	3.62
231.733	4.43
232.111	5.89
232.488	7.84
232.866	9.82
233.243	7.05
233.621	7.16
233.998	5.88
234.376	3.99
234.753	2.93
235.13	0.76
235.508	2.56
235.885	1.43
236.262	-0.56
236.639	-1.01
237.016	0.16
237.393	1.63
237.77	1.71
238.147	2.79
238.524	2.78
238.901	3.75
239.278	4.05
239.655	4.83
240.032	4.46
240.409	3.69
240.785	4.07
241.162	4.6
241.539	4.03
241.915	4.15
242.292	4.1
242.668	4.2
243.045	4.44
243.421	4.13
243.798	4.04
244.174	4.07
244.551	4.01
244.927	3.77
245.303	3.73
245.679	3.52
246.056	3.29
246.432	3.04
246.808	3.13
247.184	2.91
247.56	2.76
247.936	2.83
248.312	2.74
248.688	2.46
249.064	2.42
249.44	2.51
249.815	2.27
250.191	2.5
250.567	2.55
250.943	2.38
251.318	2.53
251.694	2.54
252.069	2.72
252.445	2.4
252.82	2.33
253.196	2.15
253.571	2.13
253.947	2.47
254.322	2.62
254.697	2.49
255.073	2.39
255.448	2.16
255.823	2.28
256.198	2.7
256.573	2.93
256.948	2.92
257.323	3.04
257.698	3.13
258.073	2.99
258.448	3.1
258.823	3.2
259.198	3.08
259.573	3.12
259.948	2.89
260.322	3.19
260.697	3.15
261.072	3.08
261.446	3.2
261.821	3.06
262.195	3.19
262.57	3.05
262.944	3.06
263.319	3.16
263.693	2.9
264.067	2.89
264.442	2.98
264.816	3.06
265.19	2.94
265.564	3.08
265.938	3.2
266.313	3.11
266.687	3.25
267.061	3.45
267.435	3.47
267.809	3.7
268.183	3.44
268.556	3.45
268.93	3.48
269.304	3.49
269.678	3.57
270.051	3.44
270.425	3.45
270.799	3.49
271.172	3.58
271.546	3.68
271.919	3.38
272.293	3.28
272.666	3.24
273.04	3.25
273.413	3.17
273.787	3.05
274.16	2.92
274.533	2.82
274.906	2.75
275.279	2.75
275.653	2.6
276.026	2.72
276.399	2.59
276.772	2.83
277.145	2.57
277.518	2.46
277.891	2.56
278.263	2.51
278.636	2.73
279.009	2.58
279.382	2.64
279.755	2.81
280.127	2.86
280.5	2.95
280.872	2.9
281.245	2.89
281.617	3.07
281.99	3.26
282.362	3.28
282.735	3.28
283.107	3.17
283.479	3.31
283.852	3.28
284.224	3.37
284.596	3.19
284.968	3.3
285.34	3.48
285.713	3.41
286.085	3.42
286.457	3.38
286.829	3.42
287.201	3.43
287.572	3.37
287.944	3.26
288.316	3.18
288.688	3.31
289.06	3.22
289.431	3.06
289.803	2.99
290.175	3
290.546	2.98
290.918	3.04
291.289	3.08
291.661	3.24
292.032	3.28
292.403	3.36
292.775	3.38
293.146	3.16
293.517	3.15
293.889	3.21
294.26	3.23
294.631	3.28
295.002	3.28
295.373	3.48
295.744	3.62
296.115	3.76
296.486	3.6
296.857	3.82
297.228	3.84
297.599	3.81
297.97	3.79
298.34	3.88
298.711	3.91
299.082	3.84
299.452	3.73
299.823	3.82
300.194	3.79
300.564	3.81
300.935	3.84
301.305	3.85
301.676	3.93
302.046	3.89
302.416	4
302.787	3.95
303.157	3.8
303.527	3.73
303.897	3.58
304.267	3.86
304.637	3.73
305.008	3.97
305.378	4.13
305.748	4.18
306.117	4.08
306.487	4.24
306.857	4.35
307.227	4.43
307.597	4.37
307.967	4.43
308.336	4.57
308.706	4.65
309.076	4.83
309.445	4.83
309.815	4.74
310.184	4.56
310.554	4.77
310.923	4.83
311.293	4.82
311.662	4.84
312.031	4.87
312.401	4.95
312.77	4.92
313.139	4.92
313.508	5.02
313.877	5.15
314.246	5.07
314.616	5.01
314.985	5.01
315.353	5.1
315.722	5.16
316.091	4.98
316.46	5.02
316.829	4.98
317.198	5.16
317.567	5.21
317.935	5.48
318.304	5.49
318.672	5.52
319.041	5.64
319.41	5.93
319.778	5.84
320.147	5.95
320.515	5.92
320.883	6.04
321.252	6.08
321.62	6.01
321.988	6.1
322.357	6.13
322.725	6.12
323.093	6.16
323.461	6.19
323.829	6.31
324.197	6.29
324.565	6.26
324.933	6.13
325.301	6.25
325.669	6.05
326.037	6.08
326.405	6.24
326.772	6.28
327.14	6.21
327.508	6.22
327.875	6.09
328.243	6.27
328.61	6.25
328.978	6.18
329.346	6.22
329.713	6.09
330.08	6.22
330.448	6.13
330.815	6.02
331.182	5.94
331.55	6.13
331.917	6.15
332.284	6.34
332.651	6.43
333.018	6.5
333.385	6.66
333.752	6.76
334.119	6.69
334.486	6.68
334.853	6.61
335.22	6.61
335.587	6.78
335.954	6.6
336.32	6.52
336.687	6.66
337.054	6.8
337.42	6.94
337.787	6.99
338.153	7.24
338.52	7.41
338.886	7.5
339.253	7.43
339.619	7.55
339.986	7.38
340.352	7.32
340.718	7.27
341.084	7.32
341.451	7.3
341.817	7.38
342.183	7.45
342.549	7.54
342.915	7.67
343.281	7.57
343.647	7.65
344.013	7.71
344.379	7.63
344.745	7.55
345.11	7.56
345.476	7.54
345.842	7.46
346.208	7.39
346.573	7.4
346.939	7.41
347.304	7.34
347.67	7.28
348.035	7.25
348.401	7.31
348.766	7.19
349.132	7.15
349.497	7.03
349.862	7.08
350.228	7.04
350.593	6.94
350.958	6.94
351.323	6.97
351.688	6.99
352.053	6.96
352.418	6.96
352.783	6.92
353.148	6.85
353.513	6.83
353.878	6.78
354.243	6.76
354.608	6.74
354.972	6.83
355.337	6.95
355.702	7.03
356.066	6.98
356.431	7.02
356.795	7.01
357.16	6.98
357.524	6.81
357.889	6.75
358.253	6.75
358.618	6.77
358.982	6.66
359.346	6.51
359.71	6.5
360.075	6.46
360.439	6.48
360.803	6.46
361.167	6.43
361.531	6.42
361.895	6.36
362.259	6.3
362.623	6.26
362.987	6.17
363.351	6.12
363.714	6.1
364.078	6.03
364.442	5.95
364.806	5.93
365.169	5.93
365.533	5.91
365.896	5.88
366.26	5.85
366.623	5.87
366.987	5.97
367.35	6
367.714	5.99
368.077	5.88
368.44	5.83
368.803	5.78
369.167	5.7
369.53	5.62
369.893	5.62
370.256	5.54
370.619	5.56
370.982	5.52
371.345	5.49
371.708	5.51
372.071	5.52
372.434	5.41
372.797	5.34
373.159	5.32
373.522	5.29
373.885	5.25
374.247	5.22
374.61	5.14
374.973	5.05
375.335	4.97
375.698	5
376.06	4.94
376.423	4.9
376.785	4.95
377.147	5
377.51	4.97
377.872	4.97
378.234	4.93
378.596	4.91
378.958	4.83
379.321	4.76
379.683	4.69
380.045	4.73
380.407	4.74
380.769	4.7
381.13	4.64
381.492	4.62
381.854	4.54
382.216	4.52
382.578	4.47
382.939	4.43
383.301	4.33
383.663	4.34
384.024	4.31
384.386	4.26
384.747	4.24
385.109	4.22
385.47	4.13
385.832	4.1
386.193	4.07
386.554	4.07
386.916	4.07
387.277	4.06
387.638	4.04
387.999	4
388.36	3.99
388.721	3.96
389.082	3.9
389.443	3.94
389.804	3.88
390.165	3.89
390.526	3.88
390.887	3.85
391.248	3.84
391.609	3.85
391.969	3.81
392.33	3.73
392.691	3.7
393.051	3.73
393.412	3.68
393.772	3.63
394.133	3.62
394.493	3.58
394.854	3.56
395.214	3.5
395.574	3.46
395.935	3.42
396.295	3.43
396.655	3.4
397.015	3.35
397.376	3.37
397.736	3.3
398.096	3.29
398.456	3.31
398.816	3.28
399.176	3.24
399.535	3.21
399.895	3.24
400.255	3.19
400.615	3.16
400.975	3.14
401.334	3.14
401.694	3.08
402.054	3.06
402.413	3.06
402.773	3.05
403.132	3.06
403.492	3.04
403.851	3
404.211	2.98
404.57	2.98
404.929	2.96
405.288	2.97
405.648	2.96
406.007	2.97
406.366	2.94
406.725	2.95
407.084	2.95
407.443	2.92
407.802	2.95
408.161	2.91
408.52	2.91
408.879	2.9
409.238	2.92
409.596	2.93
409.955	2.89
410.314	2.93
410.673	2.93
411.031	2.94
411.39	2.93
411.748	2.91
412.107	2.91
412.465	2.94
412.824	2.92
413.182	2.9
413.54	2.87
413.899	2.87
414.257	2.85
414.615	2.84
414.974	2.85
415.332	2.82
415.69	2.82
416.048	2.81
416.406	2.82
416.764	2.81
417.122	2.79
417.48	2.79
417.838	2.78
418.195	2.76
418.553	2.74
418.911	2.74
419.269	2.74
419.626	2.72
419.984	2.69
420.342	2.69
420.699	2.68
421.057	2.68
421.414	2.67
421.772	2.67
422.129	2.67
422.486	2.66
422.844	2.67
423.201	2.66
423.558	2.66
423.915	2.65
424.273	2.65
424.63	2.64
424.987	2.63
425.344	2.64
425.701	2.62
426.058	2.63
426.415	2.63
426.772	2.63
427.128	2.63
427.485	2.64
427.842	2.65
428.199	2.66
428.555	2.63
428.912	2.63
429.269	2.63
429.625	2.62
429.982	2.62
430.338	2.6
430.695	2.59
431.051	2.57
431.407	2.56
431.764	2.54
432.12	2.53
432.476	2.55
432.832	2.52
433.189	2.54
433.545	2.54
433.901	2.51
434.257	2.52
434.613	2.55
434.969	2.54
435.325	2.54
435.681	2.53
436.036	2.53
436.392	2.54
436.748	2.53
437.104	2.54
437.459	2.55
437.815	2.55
438.171	2.54
438.526	2.55
438.882	2.55
439.237	2.56
439.593	2.59
439.948	2.58
440.304	2.58
440.659	2.57
441.014	2.58
441.369	2.58
441.725	2.57
442.08	2.54
442.435	2.54
442.79	2.53
443.145	2.54
443.5	2.54
443.855	2.53
444.21	2.53
444.565	2.52
444.92	2.52
445.275	2.52
445.629	2.53
445.984	2.53
446.339	2.52
446.693	2.51
447.048	2.49
447.403	2.48
447.757	2.49
448.112	2.5
448.466	2.49
448.82	2.49
449.175	2.49
449.529	2.48
449.883	2.47
450.238	2.47
450.592	2.46
450.946	2.45
451.3	2.46
451.654	2.44
452.008	2.44
452.362	2.43
452.716	2.44
453.07	2.43
453.424	2.42
453.778	2.44
454.132	2.44
454.486	2.42
454.839	2.41
455.193	2.4
455.547	2.38
455.9	2.37
456.254	2.38
456.607	2.38
456.961	2.38
457.314	2.4
457.668	2.4
458.021	2.41
458.375	2.41
458.728	2.4
459.081	2.4
459.434	2.39
459.787	2.4
460.141	2.41
460.494	2.42
460.847	2.43
461.2	2.41
461.553	2.43
461.906	2.44
462.259	2.45
462.611	2.48
462.964	2.49
463.317	2.5
463.67	2.49
464.022	2.49
464.375	2.51
464.728	2.51
465.08	2.49
465.433	2.49
465.785	2.49
466.138	2.49
466.49	2.52
466.843	2.53
467.195	2.54
467.547	2.53
467.899	2.51
468.252	2.5
468.604	2.52
468.956	2.49
469.308	2.51
469.66	2.5
470.012	2.48
470.364	2.47
470.716	2.47
471.068	2.47
471.42	2.48
471.772	2.49
472.123	2.49
472.475	2.52
472.827	2.52
473.178	2.52
473.53	2.54
473.882	2.54
474.233	2.53
474.585	2.5
474.936	2.5
475.288	2.51
475.639	2.53
475.99	2.53
476.342	2.53
476.693	2.52
477.044	2.55
477.395	2.55
477.746	2.56
478.097	2.55
478.448	2.54
478.8	2.54
479.15	2.52
479.501	2.54
479.852	2.54
480.203	2.54
480.554	2.53
480.905	2.52
481.255	2.52
481.606	2.52
481.957	2.52
482.307	2.52
482.658	2.51
483.009	2.5
483.359	2.51
483.709	2.52
484.06	2.52
484.41	2.51
484.761	2.51
485.111	2.51
485.461	2.52
485.811	2.53
486.162	2.53
486.512	2.54
486.862	2.52
487.212	2.52
487.562	2.52
487.912	2.52
488.262	2.52
488.612	2.53
488.961	2.53
489.311	2.53
489.661	2.54
490.011	2.54
490.36	2.54
490.71	2.54
491.06	2.53
491.409	2.53
491.759	2.54
492.108	2.52
492.458	2.53
492.807	2.51
493.157	2.51
493.506	2.52
493.855	2.52
494.204	2.54
494.554	2.54
494.903	2.52
495.252	2.51
495.601	2.52
495.95	2.53
496.299	2.54
496.648	2.56
496.997	2.55
497.346	2.58
497.695	2.58
498.043	2.59
498.392	2.59
498.741	2.61
499.09	2.61
499.438	2.66
499.787	2.66
500.135	2.7
500.484	2.71
500.832	2.7
501.181	2.7
501.529	2.69
501.878	2.71
502.226	2.76
502.574	2.8
502.923	2.81
503.271	2.82
503.619	2.81
503.967	2.84
504.315	2.87
504.663	2.88
505.011	2.9
505.359	2.93
505.707	2.97
506.055	2.99
506.403	3.02
506.751	3.03
507.098	3.06
507.446	3.08
507.794	3.08
508.141	3.12
508.489	3.16
508.837	3.2
509.184	3.23
509.531	3.27
509.879	3.29
510.226	3.33
510.574	3.37
510.921	3.42
511.268	3.45
511.616	3.49
511.963	3.53
512.31	3.59
512.657	3.63
513.004	3.68
513.351	3.71
513.698	3.77
514.045	3.82
514.392	3.87
514.739	3.93
515.086	4.01
515.432	4.08
515.779	4.12
516.126	4.17
516.473	4.22
516.819	4.27
517.166	4.31
517.512	4.36
517.859	4.43
518.205	4.48
518.552	4.53
518.898	4.58
519.245	4.61
519.591	4.65
519.937	4.68
520.283	4.73
520.629	4.81
520.976	4.87
521.322	4.94
521.668	5.01
522.014	5.07
522.36	5.13
522.706	5.2
523.052	5.3
523.398	5.42
523.743	5.53
524.089	5.63
524.435	5.73
524.781	5.79
525.126	5.87
525.472	5.97
525.817	6.06
526.163	6.15
526.509	6.24
526.854	6.32
527.199	6.43
527.545	6.5
527.89	6.58
528.235	6.65
528.581	6.73
528.926	6.82
529.271	6.91
529.616	6.99
529.961	7.08
530.306	7.18
530.651	7.27
530.996	7.36
531.341	7.47
531.686	7.59
532.031	7.73
532.376	7.86
532.721	7.99
533.065	8.12
533.41	8.25
533.755	8.39
534.099	8.53
534.444	8.67
534.788	8.83
535.133	8.96
535.477	9.11
535.822	9.28
536.166	9.47
536.51	9.65
536.855	9.89
537.199	10.1
537.543	10.33
537.887	10.51
538.231	10.74
538.576	10.98
538.92	11.21
539.264	11.44
539.608	11.67
539.951	11.85
540.295	12.04
540.639	12.26
540.983	12.43
541.327	12.63
541.671	12.82
542.014	13.02
542.358	13.22
542.701	13.42
543.045	13.62
543.389	13.8
543.732	13.99
544.075	14.19
544.419	14.38
544.762	14.6
545.105	14.9
545.449	15.15
545.792	15.42
546.135	15.68
546.478	15.94
546.821	16.25
547.165	16.55
547.508	16.88
547.851	17.19
548.194	17.5
548.536	17.8
548.879	18.12
549.222	18.42
549.565	18.73
549.908	19.07
550.25	19.39
550.593	19.76
550.936	20.16
551.278	20.5
551.621	20.86
551.963	21.22
552.306	21.52
552.648	21.85
552.991	22.21
553.333	22.48
553.675	22.83
554.017	23.12
554.36	23.42
554.702	23.72
555.044	24.03
555.386	24.37
555.728	24.74
556.07	25.06
556.412	25.39
556.754	25.75
557.096	26.1
557.438	26.44
557.78	26.76
558.121	27.08
558.463	27.41
558.805	27.76
559.147	28.11
559.488	28.4
559.83	28.77
560.171	29.08
560.513	29.48
560.854	29.77
561.196	30.08
561.537	30.42
561.878	30.73
562.22	31.07
562.561	31.42
562.902	31.68
563.243	31.98
563.584	32.3
563.925	32.59
564.266	32.83
564.607	33.12
564.948	33.4
565.289	33.65
565.63	33.93
565.971	34.17
566.312	34.41
566.653	34.73
566.993	34.95
567.334	35.19
567.675	35.43
568.015	35.68
568.356	35.94
568.696	36.24
569.037	36.53
569.377	36.77
569.718	37
570.058	37.25
570.398	37.48
570.739	37.73
571.079	38.01
571.419	38.23
571.759	38.49
572.099	38.72
572.439	38.9
572.779	39.12
573.119	39.36
573.459	39.59
573.799	39.76
574.139	39.99
574.479	40.25
574.819	40.46
575.158	40.65
575.498	40.85
575.838	41.06
576.177	41.24
576.517	41.47
576.856	41.7
577.196	41.89
577.535	42.13
577.875	42.33
578.214	42.48
578.553	42.72
578.893	42.9
579.232	43.1
579.571	43.41
579.91	43.6
580.25	43.84
580.589	44.02
580.928	44.17
581.267	44.34
581.606	44.45
581.945	44.56
582.283	44.78
582.622	44.95
582.961	45.13
583.3	45.25
583.639	45.38
583.977	45.48
584.316	45.71
584.654	45.9
584.993	46.05
585.332	46.15
585.67	46.35
586.008	46.54
586.347	46.7
586.685	46.78
587.024	46.95
587.362	47.01
587.7	47.2
588.038	47.42
588.376	47.59
588.715	47.71
589.053	47.84
589.391	47.94
589.729	48.12
590.067	48.22
590.404	48.38
590.742	48.53
591.08	48.66
591.418	48.8
591.756	48.88
592.093	49.03
592.431	49.25
592.769	49.3
593.106	49.37
593.444	49.48
593.781	49.63
594.119	49.77
594.456	49.87
594.793	49.97
595.131	50.02
595.468	50.08
595.805	50.2
596.143	50.34
596.48	50.45
596.817	50.48
597.154	50.49
597.491	50.62
597.828	50.71
598.165	50.82
598.502	50.89
598.839	50.97
599.176	51.08
599.512	51.14
599.849	51.22
600.186	51.28
600.523	51.4
600.859	51.49
601.196	51.57
601.532	51.74
601.869	51.88
602.205	52.02
602.542	52.16
602.878	52.26
603.215	52.32
603.551	52.37
603.887	52.5
604.223	52.64
604.56	52.63
604.896	52.71
605.232	52.81
605.568	52.84
605.904	52.96
606.24	53.01
606.576	53.06
606.912	53.2
607.248	53.26
607.583	53.37
607.919	53.5
608.255	53.58
608.591	53.63
608.926	53.61
609.262	53.64
609.597	53.68
609.933	53.77
610.268	53.82
610.604	53.88
610.939	53.9
611.275	53.95
611.61	54.01
611.945	54.07
612.281	54.08
612.616	54.18
612.951	54.16
613.286	54.25
613.621	54.41
613.956	54.45
614.291	54.63
614.626	54.66
614.961	54.58
615.296	54.53
615.631	54.6
615.966	54.69
616.3	54.82
616.635	54.9
616.97	54.83
617.304	54.95
617.639	55.06
617.973	55.04
618.308	54.94
618.642	55.08
618.977	55.11
619.311	55.23
619.646	55.34
619.98	55.48
620.314	55.51
620.648	55.49
620.983	55.55
621.317	55.62
621.651	55.61
621.985	55.79
622.319	55.83
622.653	55.95
622.987	55.98
623.321	55.91
623.655	55.84
623.988	55.95
624.322	55.95
624.656	55.97
624.99	56.12
625.323	56.28
625.657	56.26
625.99	56.38
626.324	56.35
626.657	56.39
626.991	56.38
627.324	56.32
627.658	56.39
627.991	56.36
628.324	56.33
628.657	56.32
628.991	56.24
629.324	56.34
629.657	56.36
629.99	56.4
630.323	56.47
630.656	56.64
630.989	56.71
631.322	56.75
631.655	56.73
631.987	56.82
632.32	56.87
632.653	56.79
632.986	56.71
633.318	56.82
633.651	56.77
633.984	56.77
634.316	56.92
634.649	56.9
634.981	57.01
635.313	57.08
635.646	57.15
635.978	57.25
636.31	57.29
636.643	57.27
636.975	57.25
637.307	57.29
637.639	57.33
637.971	57.29
638.303	57.32
638.635	57.51
638.967	57.39
639.299	57.35
639.631	57.47
639.963	57.45
640.295	57.37
640.626	57.47
640.958	57.6
641.29	57.49
641.621	57.55
641.953	57.56
642.285	57.62
642.616	57.73
642.948	57.75
643.279	57.74
643.61	57.84
643.942	57.95
644.273	58
644.604	57.91
644.936	57.91
645.267	57.92
645.598	57.82
645.929	57.88
646.26	57.89
646.591	58.02
646.922	58.15
647.253	58.19
647.584	58.05
647.915	57.99
648.245	58.18
648.576	58.22
648.907	58.16
649.238	58.09
649.568	58
649.899	58.02
650.229	58.11
650.56	58.1
650.89	58.11
651.221	58.15
651.551	58.17
651.882	58.28
652.212	58.42
652.542	58.39
652.872	58.35
653.203	58.43
653.533	58.41
653.863	58.42
654.193	58.34
654.523	58.38
654.853	58.42
655.183	58.29
655.513	58.32
655.843	58.35
656.172	58.33
656.502	58.37
656.832	58.41
657.162	58.32
657.491	58.21
657.821	58.16
658.15	58.15
658.48	58.19
658.809	58.19
659.139	58.12
659.468	58.22
659.798	58.29
660.127	58.29
660.456	58.35
660.785	58.37
661.115	58.54
661.444	58.64
661.773	58.6
662.102	58.74
662.431	58.73
662.76	58.77
663.089	58.9
663.418	58.92
663.747	58.88
664.076	58.99
664.404	59.2
664.733	59.29
665.062	59.3
665.39	59.27
665.719	59.35
666.048	59.36
666.376	59.36
666.705	59.39
667.033	59.46
