Data from BU57647_Reflection_00003.txt Node
Date: Mon Nov 18 16:49:23 EST 2019
User: vgr7
Spectrometer: USB2G7710
Scans to average: 3
Trigger mode: 4
Integration Time (sec): 2.000000E-2
Electric dark correction enabled: true
Boxcar width: 10
XAxis mode: Wavelengths
Number of Pixels in Spectrum: 2048
>>>>>Begin Spectral Data<<<<<
177.721	20.72
178.105	-81.56
178.488	-147.15
178.871	546.81
179.254	154.67
179.636	-14.13
180.019	175.24
180.402	90
180.785	116.09
181.168	111.41
181.55	159.55
181.933	206.4
182.316	115.43
182.698	81.43
183.081	200.49
183.463	357.29
183.846	-5786.79
184.228	-29354.55
184.611	-1687.76
184.993	-455.42
185.376	-347.2
185.758	-382.83
186.14	-313.79
186.522	-356.17
186.904	-337.83
187.287	-449.95
187.669	-471.08
188.051	-517.31
188.433	-258.34
188.815	-156.15
189.197	-139.76
189.579	-126.7
189.961	-102.06
190.342	-110.97
190.724	-78.56
191.106	-58.2
191.488	-44.63
191.869	-13.45
192.251	-15.71
192.633	6.63
193.014	-12.79
193.396	-29.71
193.777	12.64
194.159	30.94
194.54	49.21
194.922	7.46
195.303	-118.51
195.684	-104.04
196.065	-47.57
196.447	-75.85
196.828	-167.62
197.209	-127.25
197.59	-124.54
197.971	-97.29
198.352	-87.07
198.733	-89.5
199.114	-81.69
199.495	-52.02
199.876	-53.76
200.257	-59.84
200.638	-37.52
201.018	-29.96
201.399	-14.23
201.78	-13.57
202.16	-21.2
202.541	-40.84
202.922	-51.19
203.302	-27.99
203.683	-2.26
204.063	-9.74
204.444	-12.12
204.824	-8.24
205.204	19.53
205.585	10.39
205.965	-2.51
206.345	54.5
206.725	-123.26
207.106	-359.33
207.486	423.97
207.866	395.08
208.246	836.2
208.626	703.02
209.006	-431.15
209.386	2711.76
209.766	-6155.32
210.145	-1181.14
210.525	-155.73
210.905	-112.98
211.285	-114.2
211.664	-106.74
212.044	-74.05
212.424	-60.73
212.803	-50.04
213.183	-57.4
213.562	-58.84
213.942	-39.66
214.321	-38.14
214.701	-34.68
215.08	-30.21
215.459	-13.85
215.838	-22.12
216.218	-51.65
216.597	-36.22
216.976	-48.18
217.355	-29.63
217.734	-34.28
218.113	-21.44
218.492	-35.27
218.871	-51.2
219.25	-44.08
219.629	-74.33
220.008	-79.26
220.387	-87.36
220.766	-96.27
221.144	-97.97
221.523	-112.03
221.902	-112.48
222.28	-113.52
222.659	-116.62
223.037	-114.45
223.416	-122.28
223.794	-118.47
224.173	-88.54
224.551	-89.3
224.929	-79.62
225.308	-65.81
225.686	-47.55
226.064	-43.74
226.442	-29.07
226.821	-19.45
227.199	-14.08
227.577	-7.33
227.955	-9.61
228.333	-6.74
228.711	-2.58
229.089	-2.49
229.467	-4.79
229.845	-0.21
230.222	-1.69
230.6	-2.99
230.978	-5.39
231.356	-1.97
231.733	-1.78
232.111	2.81
232.488	1.63
232.866	2.14
233.243	2.39
233.621	0.18
233.998	0.17
234.376	-0
234.753	-1.55
235.13	-1.78
235.508	-2.27
235.885	0.08
236.262	-0.15
236.639	-1.09
237.016	-2.44
237.393	0.19
237.77	0.63
238.147	1.11
238.524	3.12
238.901	3.39
239.278	3.3
239.655	4.09
240.032	3.2
240.409	3.66
240.785	3.4
241.162	3.37
241.539	4.27
241.915	4.63
242.292	4.08
242.668	4.59
243.045	4.73
243.421	4.83
243.798	4.61
244.174	4.83
244.551	5.31
244.927	5.4
245.303	5.49
245.679	5.33
246.056	5.56
246.432	5.41
246.808	5.51
247.184	5.25
247.56	5.3
247.936	5.37
248.312	5.25
248.688	5.25
249.064	5.4
249.44	5.29
249.815	5.13
250.191	5.19
250.567	5.32
250.943	5.11
251.318	5.2
251.694	5.43
252.069	5.25
252.445	5.17
252.82	5.38
253.196	5.34
253.571	5.16
253.947	5.03
254.322	5.18
254.697	5.23
255.073	4.66
255.448	4.5
255.823	4.37
256.198	4.3
256.573	4.29
256.948	4.14
257.323	4.21
257.698	4.21
258.073	4.32
258.448	4.18
258.823	4.24
259.198	4.2
259.573	3.95
259.948	3.73
260.322	3.76
260.697	3.78
261.072	3.69
261.446	3.76
261.821	3.66
262.195	3.56
262.57	3.45
262.944	3.67
263.319	3.68
263.693	3.58
264.067	3.79
264.442	4.02
264.816	3.86
265.19	3.74
265.564	3.68
265.938	3.64
266.313	3.63
266.687	3.63
267.061	3.76
267.435	3.74
267.809	3.91
268.183	3.8
268.556	3.93
268.93	4.04
269.304	4.23
269.678	4.36
270.051	4.29
270.425	4.36
270.799	4.41
271.172	4.31
271.546	4.38
271.919	4.27
272.293	4.15
272.666	4.35
273.04	4.39
273.413	4.57
273.787	4.63
274.16	4.71
274.533	4.64
274.906	4.71
275.279	4.83
275.653	5.02
276.026	5.13
276.399	4.99
276.772	5.11
277.145	4.97
277.518	4.94
277.891	4.96
278.263	4.89
278.636	4.82
279.009	4.91
279.382	5.09
279.755	5.07
280.127	5.08
280.5	5.02
280.872	5.08
281.245	4.89
281.617	4.77
281.99	4.68
282.362	4.7
282.735	4.47
283.107	4.38
283.479	4.29
283.852	4.24
284.224	4.21
284.596	4.13
284.968	4.24
285.34	4.14
285.713	4.21
286.085	4.37
286.457	4.52
286.829	4.6
287.201	4.64
287.572	4.55
287.944	4.49
288.316	4.52
288.688	4.32
289.06	4.37
289.431	4.36
289.803	4.35
290.175	4.31
290.546	4.4
290.918	4.38
291.289	4.41
291.661	4.33
292.032	4.38
292.403	4.31
292.775	4.13
293.146	4.25
293.517	4.19
293.889	4.08
294.26	4.04
294.631	3.97
295.002	3.75
295.373	3.77
295.744	3.79
296.115	3.8
296.486	3.92
296.857	3.83
297.228	3.9
297.599	3.86
297.97	3.95
298.34	3.9
298.711	4.08
299.082	4.1
299.452	4.17
299.823	4.3
300.194	4.19
300.564	4.34
300.935	4.37
301.305	4.4
301.676	4.46
302.046	4.51
302.416	4.63
302.787	4.69
303.157	4.66
303.527	4.79
303.897	4.82
304.267	5
304.637	5.19
305.008	5.16
305.378	5.22
305.748	5.31
306.117	5.26
306.487	5.17
306.857	4.97
307.227	4.9
307.597	4.76
307.967	4.96
308.336	4.86
308.706	4.74
309.076	4.77
309.445	4.7
309.815	4.6
310.184	4.61
310.554	4.7
310.923	4.75
311.293	4.67
311.662	4.68
312.031	4.54
312.401	4.55
312.77	4.66
313.139	4.58
313.508	4.48
313.877	4.55
314.246	4.58
314.616	4.66
314.985	4.72
315.353	4.69
315.722	4.67
316.091	4.68
316.46	4.7
316.829	4.72
317.198	4.87
317.567	4.89
317.935	4.77
318.304	4.74
318.672	4.75
319.041	4.79
319.41	4.58
319.778	4.56
320.147	4.54
320.515	4.37
320.883	4.49
321.252	4.39
321.62	4.38
321.988	4.4
322.357	4.5
322.725	4.42
323.093	4.5
323.461	4.47
323.829	4.44
324.197	4.52
324.565	4.51
324.933	4.47
325.301	4.56
325.669	4.47
326.037	4.43
326.405	4.39
326.772	4.29
327.14	4.41
327.508	4.33
327.875	4.12
328.243	4.2
328.61	4.14
328.978	4.26
329.346	4.24
329.713	4.15
330.08	3.99
330.448	3.96
330.815	3.86
331.182	3.81
331.55	3.83
331.917	3.89
332.284	3.85
332.651	3.78
333.018	3.65
333.385	3.77
333.752	3.88
334.119	3.91
334.486	3.94
334.853	3.97
335.22	4.07
335.587	4.07
335.954	4.09
336.32	4.17
336.687	4.17
337.054	4.14
337.42	4.18
337.787	4.32
338.153	4.32
338.52	4.41
338.886	4.39
339.253	4.41
339.619	4.4
339.986	4.3
340.352	4.38
340.718	4.35
341.084	4.38
341.451	4.37
341.817	4.35
342.183	4.27
342.549	4.24
342.915	4.32
343.281	4.45
343.647	4.48
344.013	4.53
344.379	4.53
344.745	4.6
345.11	4.55
345.476	4.49
345.842	4.57
346.208	4.53
346.573	4.66
346.939	4.8
347.304	4.64
347.67	4.73
348.035	4.69
348.401	4.77
348.766	4.8
349.132	4.78
349.497	4.83
349.862	4.92
350.228	4.93
350.593	4.82
350.958	4.77
351.323	4.73
351.688	4.61
352.053	4.58
352.418	4.59
352.783	4.67
353.148	4.62
353.513	4.6
353.878	4.61
354.243	4.54
354.608	4.42
354.972	4.45
355.337	4.45
355.702	4.5
356.066	4.52
356.431	4.42
356.795	4.39
357.16	4.33
357.524	4.3
357.889	4.28
358.253	4.29
358.618	4.32
358.982	4.28
359.346	4.28
359.71	4.24
360.075	4.28
360.439	4.25
360.803	4.29
361.167	4.3
361.531	4.26
361.895	4.26
362.259	4.24
362.623	4.25
362.987	4.23
363.351	4.22
363.714	4.23
364.078	4.23
364.442	4.2
364.806	4.22
365.169	4.19
365.533	4.23
365.896	4.2
366.26	4.21
366.623	4.21
366.987	4.27
367.35	4.33
367.714	4.27
368.077	4.23
368.44	4.27
368.803	4.2
369.167	4.22
369.53	4.2
369.893	4.26
370.256	4.34
370.619	4.41
370.982	4.38
371.345	4.3
371.708	4.34
372.071	4.37
372.434	4.36
372.797	4.41
373.159	4.33
373.522	4.39
373.885	4.43
374.247	4.45
374.61	4.47
374.973	4.47
375.335	4.46
375.698	4.49
376.06	4.46
376.423	4.53
376.785	4.62
377.147	4.67
377.51	4.65
377.872	4.65
378.234	4.59
378.596	4.57
378.958	4.61
379.321	4.66
379.683	4.69
380.045	4.66
380.407	4.62
380.769	4.67
381.13	4.63
381.492	4.58
381.854	4.61
382.216	4.57
382.578	4.56
382.939	4.55
383.301	4.6
383.663	4.55
384.024	4.49
384.386	4.47
384.747	4.47
385.109	4.46
385.47	4.43
385.832	4.43
386.193	4.46
386.554	4.43
386.916	4.42
387.277	4.46
387.638	4.49
387.999	4.51
388.36	4.53
388.721	4.55
389.082	4.57
389.443	4.51
389.804	4.53
390.165	4.55
390.526	4.56
390.887	4.52
391.248	4.58
391.609	4.64
391.969	4.61
392.33	4.59
392.691	4.58
393.051	4.57
393.412	4.61
393.772	4.59
394.133	4.59
394.493	4.55
394.854	4.52
395.214	4.52
395.574	4.55
395.935	4.5
396.295	4.53
396.655	4.5
397.015	4.55
397.376	4.54
397.736	4.52
398.096	4.5
398.456	4.5
398.816	4.52
399.176	4.5
399.535	4.49
399.895	4.5
400.255	4.53
400.615	4.54
400.975	4.51
401.334	4.52
401.694	4.53
402.054	4.54
402.413	4.52
402.773	4.46
403.132	4.43
403.492	4.44
403.851	4.39
404.211	4.44
404.57	4.37
404.929	4.38
405.288	4.4
405.648	4.41
406.007	4.44
406.366	4.4
406.725	4.39
407.084	4.43
407.443	4.42
407.802	4.44
408.161	4.45
408.52	4.43
408.879	4.44
409.238	4.45
409.596	4.44
409.955	4.44
410.314	4.51
410.673	4.52
411.031	4.53
411.39	4.56
411.748	4.55
412.107	4.59
412.465	4.57
412.824	4.56
413.182	4.56
413.54	4.52
413.899	4.53
414.257	4.49
414.615	4.47
414.974	4.47
415.332	4.44
415.69	4.43
416.048	4.43
416.406	4.45
416.764	4.42
417.122	4.44
417.48	4.43
417.838	4.4
418.195	4.41
418.553	4.39
418.911	4.38
419.269	4.39
419.626	4.37
419.984	4.36
420.342	4.36
420.699	4.37
421.057	4.39
421.414	4.4
421.772	4.41
422.129	4.41
422.486	4.41
422.844	4.41
423.201	4.41
423.558	4.42
423.915	4.4
424.273	4.4
424.63	4.39
424.987	4.4
425.344	4.41
425.701	4.4
426.058	4.4
426.415	4.4
426.772	4.37
427.128	4.37
427.485	4.4
427.842	4.39
428.199	4.39
428.555	4.38
428.912	4.35
429.269	4.37
429.625	4.38
429.982	4.37
430.338	4.36
430.695	4.35
431.051	4.33
431.407	4.32
431.764	4.34
432.12	4.34
432.476	4.35
432.832	4.36
433.189	4.38
433.545	4.37
433.901	4.38
434.257	4.4
434.613	4.4
434.969	4.38
435.325	4.37
435.681	4.37
436.036	4.39
436.392	4.41
436.748	4.4
437.104	4.38
437.459	4.39
437.815	4.39
438.171	4.38
438.526	4.4
438.882	4.42
439.237	4.42
439.593	4.41
439.948	4.39
440.304	4.4
440.659	4.38
441.014	4.39
441.369	4.37
441.725	4.37
442.08	4.36
442.435	4.37
442.79	4.37
443.145	4.38
443.5	4.37
443.855	4.35
444.21	4.35
444.565	4.36
444.92	4.35
445.275	4.36
445.629	4.37
445.984	4.36
446.339	4.34
446.693	4.34
447.048	4.34
447.403	4.33
447.757	4.32
448.112	4.31
448.466	4.31
448.82	4.32
449.175	4.33
449.529	4.31
449.883	4.31
450.238	4.31
450.592	4.3
450.946	4.29
451.3	4.29
451.654	4.3
452.008	4.31
452.362	4.3
452.716	4.3
453.07	4.3
453.424	4.3
453.778	4.29
454.132	4.29
454.486	4.28
454.839	4.28
455.193	4.28
455.547	4.27
455.9	4.28
456.254	4.29
456.607	4.28
456.961	4.29
457.314	4.29
457.668	4.28
458.021	4.27
458.375	4.28
458.728	4.29
459.081	4.29
459.434	4.28
459.787	4.29
460.141	4.27
460.494	4.26
460.847	4.27
461.2	4.29
461.553	4.29
461.906	4.29
462.259	4.3
462.611	4.33
462.964	4.36
463.317	4.35
463.67	4.34
464.022	4.34
464.375	4.35
464.728	4.35
465.08	4.33
465.433	4.36
465.785	4.36
466.138	4.35
466.49	4.34
466.843	4.33
467.195	4.33
467.547	4.34
467.899	4.35
468.252	4.34
468.604	4.34
468.956	4.35
469.308	4.37
469.66	4.34
470.012	4.32
470.364	4.32
470.716	4.32
471.068	4.32
471.42	4.33
471.772	4.35
472.123	4.35
472.475	4.38
472.827	4.37
473.178	4.39
473.53	4.38
473.882	4.4
474.233	4.4
474.585	4.38
474.936	4.38
475.288	4.38
475.639	4.39
475.99	4.39
476.342	4.39
476.693	4.38
477.044	4.39
477.395	4.39
477.746	4.41
478.097	4.41
478.448	4.41
478.8	4.4
479.15	4.39
479.501	4.4
479.852	4.39
480.203	4.39
480.554	4.41
480.905	4.43
481.255	4.43
481.606	4.44
481.957	4.45
482.307	4.45
482.658	4.46
483.009	4.47
483.359	4.47
483.709	4.47
484.06	4.48
484.41	4.49
484.761	4.49
485.111	4.5
485.461	4.5
485.811	4.51
486.162	4.5
486.512	4.51
486.862	4.52
487.212	4.52
487.562	4.52
487.912	4.51
488.262	4.5
488.612	4.49
488.961	4.49
489.311	4.5
489.661	4.51
490.011	4.51
490.36	4.49
490.71	4.49
491.06	4.5
491.409	4.5
491.759	4.49
492.108	4.49
492.458	4.47
492.807	4.48
493.157	4.48
493.506	4.5
493.855	4.49
494.204	4.48
494.554	4.49
494.903	4.48
495.252	4.49
495.601	4.52
495.95	4.53
496.299	4.53
496.648	4.52
496.997	4.52
497.346	4.52
497.695	4.54
498.043	4.55
498.392	4.56
498.741	4.57
499.09	4.57
499.438	4.56
499.787	4.58
500.135	4.58
500.484	4.58
500.832	4.58
501.181	4.59
501.529	4.59
501.878	4.61
502.226	4.61
502.574	4.62
502.923	4.61
503.271	4.61
503.619	4.62
503.967	4.62
504.315	4.62
504.663	4.6
505.011	4.61
505.359	4.6
505.707	4.58
506.055	4.58
506.403	4.55
506.751	4.56
507.098	4.56
507.446	4.56
507.794	4.54
508.141	4.54
508.489	4.56
508.837	4.56
509.184	4.56
509.531	4.58
509.879	4.57
510.226	4.59
510.574	4.59
510.921	4.59
511.268	4.6
511.616	4.59
511.963	4.62
512.31	4.63
512.657	4.65
513.004	4.67
513.351	4.69
513.698	4.72
514.045	4.73
514.392	4.75
514.739	4.75
515.086	4.77
515.432	4.77
515.779	4.75
516.126	4.79
516.473	4.78
516.819	4.79
517.166	4.8
517.512	4.79
517.859	4.8
518.205	4.81
518.552	4.83
518.898	4.83
519.245	4.83
519.591	4.84
519.937	4.83
520.283	4.82
520.629	4.82
520.976	4.82
521.322	4.81
521.668	4.81
522.014	4.81
522.36	4.81
522.706	4.82
523.052	4.85
523.398	4.84
523.743	4.84
524.089	4.84
524.435	4.85
524.781	4.83
525.126	4.84
525.472	4.84
525.817	4.84
526.163	4.86
526.509	4.86
526.854	4.86
527.199	4.88
527.545	4.9
527.89	4.89
528.235	4.9
528.581	4.91
528.926	4.91
529.271	4.92
529.616	4.91
529.961	4.92
530.306	4.92
530.651	4.92
530.996	4.92
531.341	4.93
531.686	4.92
532.031	4.93
532.376	4.93
532.721	4.93
533.065	4.94
533.41	4.94
533.755	4.96
534.099	4.96
534.444	4.96
534.788	4.96
535.133	4.95
535.477	4.95
535.822	4.94
536.166	4.93
536.51	4.93
536.855	4.93
537.199	4.93
537.543	4.93
537.887	4.94
538.231	4.94
538.576	4.93
538.92	4.95
539.264	4.95
539.608	4.96
539.951	4.98
540.295	4.95
540.639	4.95
540.983	4.92
541.327	4.92
541.671	4.91
542.014	4.9
542.358	4.91
542.701	4.91
543.045	4.92
543.389	4.94
543.732	4.93
544.075	4.94
544.419	4.95
544.762	4.95
545.105	4.96
545.449	4.97
545.792	4.99
546.135	4.98
546.478	4.98
546.821	4.97
547.165	4.95
547.508	5
547.851	5.01
548.194	5.02
548.536	5.03
548.879	5.04
549.222	5.05
549.565	5.04
549.908	5.04
550.25	5.04
550.593	5.04
550.936	5.03
551.278	5.05
551.621	5.06
551.963	5.06
552.306	5.03
552.648	5.03
552.991	5.03
553.333	5.04
553.675	5.05
554.017	5.04
554.36	5.07
554.702	5.05
555.044	5.04
555.386	5.02
555.728	5.02
556.07	5.01
556.412	4.98
556.754	4.98
557.096	4.97
557.438	4.97
557.78	4.97
558.121	5
558.463	4.98
558.805	4.99
559.147	4.97
559.488	4.97
559.83	4.96
560.171	4.96
560.513	4.98
560.854	4.98
561.196	4.98
561.537	4.97
561.878	4.97
562.22	4.96
562.561	4.97
562.902	4.97
563.243	4.97
563.584	4.99
563.925	4.98
564.266	4.99
564.607	4.95
564.948	4.97
565.289	4.98
565.63	4.98
565.971	4.95
566.312	4.94
566.653	4.93
566.993	4.92
567.334	4.94
567.675	4.93
568.015	4.93
568.356	4.92
568.696	4.93
569.037	4.93
569.377	4.94
569.718	4.94
570.058	4.97
570.398	4.97
570.739	4.97
571.079	5.01
571.419	5.02
571.759	5.03
572.099	5.01
572.439	4.98
572.779	4.99
573.119	5.03
573.459	5.06
573.799	5.11
574.139	5.13
574.479	5.09
574.819	5.11
575.158	5.12
575.498	5.14
575.838	5.14
576.177	5.13
576.517	5.16
576.856	5.16
577.196	5.13
577.535	5.15
577.875	5.17
578.214	5.17
578.553	5.19
578.893	5.21
579.232	5.27
579.571	5.31
579.91	5.29
580.25	5.29
580.589	5.28
580.928	5.26
581.267	5.28
581.606	5.27
581.945	5.27
582.283	5.26
582.622	5.22
582.961	5.22
583.3	5.22
583.639	5.22
583.977	5.26
584.316	5.27
584.654	5.26
584.993	5.24
585.332	5.23
585.67	5.21
586.008	5.18
586.347	5.16
586.685	5.12
587.024	5.11
587.362	5.09
587.7	5.09
588.038	5.08
588.376	5.07
588.715	5.1
589.053	5.11
589.391	5.11
589.729	5.15
590.067	5.14
590.404	5.14
590.742	5.16
591.08	5.11
591.418	5.1
591.756	5.11
592.093	5.15
592.431	5.16
592.769	5.19
593.106	5.22
593.444	5.19
593.781	5.2
594.119	5.25
594.456	5.26
594.793	5.28
595.131	5.28
595.468	5.29
595.805	5.29
596.143	5.25
596.48	5.24
596.817	5.26
597.154	5.28
597.491	5.29
597.828	5.29
598.165	5.33
598.502	5.34
598.839	5.29
599.176	5.28
599.512	5.26
599.849	5.26
600.186	5.26
600.523	5.28
600.859	5.33
601.196	5.35
601.532	5.31
601.869	5.27
602.205	5.26
602.542	5.3
602.878	5.31
603.215	5.32
603.551	5.33
603.887	5.31
604.223	5.32
604.56	5.32
604.896	5.3
605.232	5.31
605.568	5.31
605.904	5.34
606.24	5.4
606.576	5.44
606.912	5.44
607.248	5.45
607.583	5.44
607.919	5.42
608.255	5.38
608.591	5.43
608.926	5.46
609.262	5.49
609.597	5.45
609.933	5.47
610.268	5.45
610.604	5.49
610.939	5.49
611.275	5.49
611.61	5.48
611.945	5.49
612.281	5.5
612.616	5.53
612.951	5.53
613.286	5.47
613.621	5.41
613.956	5.39
614.291	5.33
614.626	5.34
614.961	5.29
615.296	5.26
615.631	5.25
615.966	5.28
616.3	5.26
616.635	5.28
616.97	5.26
617.304	5.24
617.639	5.22
617.973	5.23
618.308	5.22
618.642	5.25
618.977	5.21
619.311	5.17
619.646	5.16
619.98	5.17
620.314	5.19
620.648	5.23
620.983	5.25
621.317	5.32
621.651	5.33
621.985	5.39
622.319	5.46
622.653	5.48
622.987	5.5
623.321	5.44
623.655	5.5
623.988	5.51
624.322	5.55
624.656	5.57
624.99	5.63
625.323	5.59
625.657	5.59
625.99	5.68
626.324	5.71
626.657	5.69
626.991	5.69
627.324	5.65
627.658	5.64
627.991	5.68
628.324	5.64
628.657	5.64
628.991	5.64
629.324	5.64
629.657	5.63
629.99	5.66
630.323	5.72
630.656	5.64
630.989	5.61
631.322	5.64
631.655	5.61
631.987	5.49
632.32	5.57
632.653	5.51
632.986	5.46
633.318	5.46
633.651	5.46
633.984	5.44
634.316	5.47
634.649	5.52
634.981	5.45
635.313	5.53
635.646	5.54
635.978	5.5
636.31	5.5
636.643	5.52
636.975	5.47
637.307	5.4
637.639	5.36
637.971	5.37
638.303	5.32
638.635	5.36
638.967	5.38
639.299	5.36
639.631	5.43
639.963	5.38
640.295	5.4
640.626	5.39
640.958	5.39
641.29	5.41
641.621	5.36
641.953	5.39
642.285	5.31
642.616	5.31
642.948	5.39
643.279	5.37
643.61	5.34
643.942	5.33
644.273	5.42
644.604	5.47
644.936	5.46
645.267	5.51
645.598	5.5
645.929	5.56
646.26	5.56
646.591	5.5
646.922	5.52
647.253	5.5
647.584	5.45
647.915	5.48
648.245	5.46
648.576	5.46
648.907	5.51
649.238	5.54
649.568	5.55
649.899	5.45
650.229	5.45
650.56	5.45
650.89	5.46
651.221	5.44
651.551	5.43
651.882	5.46
652.212	5.43
652.542	5.46
652.872	5.46
653.203	5.44
653.533	5.49
653.863	5.53
654.193	5.51
654.523	5.56
654.853	5.58
655.183	5.58
655.513	5.6
655.843	5.51
656.172	5.53
656.502	5.55
656.832	5.58
657.162	5.63
657.491	5.65
657.821	5.63
658.15	5.66
658.48	5.65
658.809	5.69
659.139	5.67
659.468	5.62
659.798	5.58
660.127	5.61
660.456	5.61
660.785	5.61
661.115	5.66
661.444	5.67
661.773	5.67
662.102	5.71
662.431	5.69
662.76	5.74
663.089	5.72
663.418	5.68
663.747	5.69
664.076	5.65
664.404	5.6
664.733	5.56
665.062	5.51
665.39	5.55
665.719	5.5
666.048	5.54
666.376	5.51
666.705	5.55
667.033	5.45
667.362	5.54
667.69	5.46
668.018	5.52
668.347	5.5
668.675	5.51
669.003	5.45
669.331	5.51
669.659	5.54
669.987	5.51
670.315	5.5
670.643	5.49
670.971	5.51
671.299	5.58
671.627	5.69
671.955	5.65
672.283	5.62
672.61	5.6
672.938	5.54
673.266	5.57
673.593	5.66
673.921	5.67
674.249	5.6
674.576	5.68
674.904	5.58
675.231	5.67
675.558	5.69
675.886	5.68
