Data from BU57653_Reflection_00003.txt Node
Date: Mon Nov 18 16:52:01 EST 2019
User: vgr7
Spectrometer: USB2G7710
Scans to average: 3
Trigger mode: 4
Integration Time (sec): 2.000000E-2
Electric dark correction enabled: true
Boxcar width: 10
XAxis mode: Wavelengths
Number of Pixels in Spectrum: 2048
>>>>>Begin Spectral Data<<<<<
177.721	149.67
178.105	196.26
178.488	81
178.871	100
179.254	94.45
179.636	50.63
180.019	-2.2
180.402	260
180.785	-28.33
181.168	42.01
181.55	47.86
181.933	89.83
182.316	126.44
182.698	128.35
183.081	152.77
183.463	887.07
183.846	466.31
184.228	496.23
184.611	529.92
184.993	932.78
185.376	-2002.36
185.758	1199.38
186.14	2041.18
186.522	-455.18
186.904	-166.32
187.287	-236.02
187.669	-191.45
188.051	-466.71
188.433	-439.38
188.815	-235.31
189.197	-200.57
189.579	-127.06
189.961	-131.15
190.342	-113.16
190.724	-93.71
191.106	-131.8
191.488	-149.21
191.869	-93.94
192.251	-80.44
192.633	-78.04
193.014	-115.94
193.396	-148.52
193.777	-154.71
194.159	-138.47
194.54	-148.48
194.922	-158.77
195.303	-166.64
195.684	-175.95
196.065	-143.24
196.447	-164.56
196.828	-154.39
197.209	-135.28
197.59	-111.06
197.971	-119.97
198.352	-117.08
198.733	-133.02
199.114	-84.39
199.495	-66.41
199.876	-69.1
200.257	-62.27
200.638	-54.59
201.018	-49.78
201.399	-34.78
201.78	-11.01
202.16	-30.43
202.541	-51.09
202.922	-100.77
203.302	-130.2
203.683	-85.51
204.063	-80.7
204.444	-74.59
204.824	-98.77
205.204	-106.36
205.585	-250.41
205.965	-182.94
206.345	-229.74
206.725	-449.74
207.106	-2900
207.486	-13764.86
207.866	638.9
208.246	1708.37
208.626	-2178.01
209.006	-440.27
209.386	-433.07
209.766	-525.11
210.145	-286.96
210.525	-243.76
210.905	-146.03
211.285	-134.71
211.664	-177.08
212.044	-190.94
212.424	-185.15
212.803	-185.77
213.183	-133.44
213.562	-115.92
213.942	-116.14
214.321	-97.99
214.701	-87.79
215.08	-82.71
215.459	-79.28
215.838	-76.7
216.218	-87.15
216.597	-80.29
216.976	-62.14
217.355	-73.9
217.734	-76.47
218.113	-61.72
218.492	-68.1
218.871	-91.73
219.25	-92.72
219.629	-82.31
220.008	-93.73
220.387	-97.49
220.766	-92.57
221.144	-150.34
221.523	-139.91
221.902	-123.13
222.28	-116.36
222.659	-112.35
223.037	-102.51
223.416	-109.67
223.794	-91.62
224.173	-90.47
224.551	-68.65
224.929	-73.2
225.308	-50.24
225.686	-42.8
226.064	-40.59
226.442	-32.76
226.821	-30.75
227.199	-27.01
227.577	-27.56
227.955	-24.28
228.333	-21.88
228.711	-17.99
229.089	-12.46
229.467	-16.27
229.845	-15.92
230.222	-13.3
230.6	-13.18
230.978	-13.52
231.356	-11.12
231.733	-12.53
232.111	-12.98
232.488	-13.06
232.866	-12.17
233.243	-12.54
233.621	-11.48
233.998	-10.92
234.376	-12.31
234.753	-11.55
235.13	-10.09
235.508	-8.38
235.885	-7.25
236.262	-9.3
236.639	-9.25
237.016	-9.06
237.393	-5.39
237.77	-3.51
238.147	-2.17
238.524	-1.06
238.901	-0.67
239.278	-0.04
239.655	0.95
240.032	1.29
240.409	0.47
240.785	0.58
241.162	0.91
241.539	1.43
241.915	2.09
242.292	1.93
242.668	2.28
243.045	2.21
243.421	2.2
243.798	2.3
244.174	3.03
244.551	3.03
244.927	2.99
245.303	3.08
245.679	3.04
246.056	2.89
246.432	2.92
246.808	3.12
247.184	3.15
247.56	3.07
247.936	2.94
248.312	3.24
248.688	3.3
249.064	3.15
249.44	2.97
249.815	2.69
250.191	2.89
250.567	2.9
250.943	2.92
251.318	3.06
251.694	2.88
252.069	2.72
252.445	2.95
252.82	3
253.196	2.65
253.571	2.3
253.947	2.13
254.322	2.18
254.697	2
255.073	1.93
255.448	1.58
255.823	1.98
256.198	2.22
256.573	2.28
256.948	2.49
257.323	2.64
257.698	2.53
258.073	2.52
258.448	2.52
258.823	2.61
259.198	2.65
259.573	2.75
259.948	2.71
260.322	2.59
260.697	2.48
261.072	2.59
261.446	2.64
261.821	2.71
262.195	2.81
262.57	2.64
262.944	2.59
263.319	2.8
263.693	2.7
264.067	2.55
264.442	2.53
264.816	2.26
265.19	2.1
265.564	2.36
265.938	2.33
266.313	2.34
266.687	2.05
267.061	2.16
267.435	2.3
267.809	2.23
268.183	2.14
268.556	2.23
268.93	2.29
269.304	2.37
269.678	2.44
270.051	2.48
270.425	2.63
270.799	2.73
271.172	2.62
271.546	2.67
271.919	2.66
272.293	2.7
272.666	2.83
273.04	2.96
273.413	2.76
273.787	2.8
274.16	2.73
274.533	2.8
274.906	2.66
275.279	2.53
275.653	2.55
276.026	2.55
276.399	2.67
276.772	2.72
277.145	2.82
277.518	2.92
277.891	2.92
278.263	2.87
278.636	2.88
279.009	2.89
279.382	2.91
279.755	2.94
280.127	3.13
280.5	3.22
280.872	3.07
281.245	3.11
281.617	3.26
281.99	3.28
282.362	3.41
282.735	3.41
283.107	3.45
283.479	3.48
283.852	3.53
284.224	3.46
284.596	3.38
284.968	3.29
285.34	3.11
285.713	3.16
286.085	3.28
286.457	3.32
286.829	3.37
287.201	3.32
287.572	3.39
287.944	3.17
288.316	3.03
288.688	3.1
289.06	3.13
289.431	3.13
289.803	3.1
290.175	3.12
290.546	3.22
290.918	3.27
291.289	3.28
291.661	3.4
292.032	3.46
292.403	3.45
292.775	3.57
293.146	3.65
293.517	3.55
293.889	3.59
294.26	3.53
294.631	3.65
295.002	3.65
295.373	3.67
295.744	3.75
296.115	3.81
296.486	3.69
296.857	3.72
297.228	3.64
297.599	3.57
297.97	3.53
298.34	3.49
298.711	3.42
299.082	3.49
299.452	3.55
299.823	3.51
300.194	3.54
300.564	3.46
300.935	3.54
301.305	3.41
301.676	3.43
302.046	3.53
302.416	3.46
302.787	3.47
303.157	3.47
303.527	3.47
303.897	3.49
304.267	3.69
304.637	3.73
305.008	3.81
305.378	4.01
305.748	4.15
306.117	4.04
306.487	4.15
306.857	4.11
307.227	4.02
307.597	4.01
307.967	4.11
308.336	4.21
308.706	4.05
309.076	4.2
309.445	4.1
309.815	4.01
310.184	4.02
310.554	4.06
310.923	3.98
311.293	3.96
311.662	3.98
312.031	3.95
312.401	3.85
312.77	3.86
313.139	3.88
313.508	3.75
313.877	3.84
314.246	3.67
314.616	3.68
314.985	3.64
315.353	3.66
315.722	3.52
316.091	3.4
316.46	3.52
316.829	3.59
317.198	3.63
317.567	3.4
317.935	3.34
318.304	3.33
318.672	3.35
319.041	3.47
319.41	3.46
319.778	3.35
320.147	3.39
320.515	3.3
320.883	3.28
321.252	3.44
321.62	3.43
321.988	3.55
322.357	3.59
322.725	3.59
323.093	3.59
323.461	3.67
323.829	3.71
324.197	3.7
324.565	3.68
324.933	3.69
325.301	3.85
325.669	3.8
326.037	3.8
326.405	3.78
326.772	3.6
327.14	3.66
327.508	3.74
327.875	3.67
328.243	3.65
328.61	3.57
328.978	3.55
329.346	3.62
329.713	3.52
330.08	3.5
330.448	3.45
330.815	3.45
331.182	3.44
331.55	3.35
331.917	3.28
332.284	3.32
332.651	3.28
333.018	3.26
333.385	3.22
333.752	3.19
334.119	3.24
334.486	3.31
334.853	3.19
335.22	3.1
335.587	3.07
335.954	3.11
336.32	3.07
336.687	2.96
337.054	3.02
337.42	3.23
337.787	3.2
338.153	3.22
338.52	3.29
338.886	3.2
339.253	3.16
339.619	3.2
339.986	3.05
340.352	3.12
340.718	3.21
341.084	3.29
341.451	3.38
341.817	3.43
342.183	3.55
342.549	3.67
342.915	3.75
343.281	3.83
343.647	3.83
344.013	3.91
344.379	3.89
344.745	3.86
345.11	3.8
345.476	3.83
345.842	3.79
346.208	3.78
346.573	3.93
346.939	4.03
347.304	3.99
347.67	4.03
348.035	4.05
348.401	4.01
348.766	4
349.132	3.92
349.497	3.79
349.862	3.68
350.228	3.61
350.593	3.55
350.958	3.6
351.323	3.66
351.688	3.58
352.053	3.64
352.418	3.74
352.783	3.69
353.148	3.68
353.513	3.84
353.878	3.87
354.243	3.83
354.608	3.85
354.972	3.89
355.337	3.94
355.702	3.99
356.066	4.02
356.431	3.96
356.795	4
357.16	4.02
357.524	4
357.889	4.02
358.253	4.08
358.618	4.04
358.982	3.96
359.346	3.98
359.71	3.99
360.075	3.88
360.439	3.9
360.803	3.85
361.167	3.79
361.531	3.74
361.895	3.75
362.259	3.77
362.623	3.77
362.987	3.78
363.351	3.7
363.714	3.76
364.078	3.8
364.442	3.79
364.806	3.8
365.169	3.87
365.533	3.82
365.896	3.81
366.26	3.84
366.623	3.87
366.987	3.89
367.35	3.9
367.714	3.98
368.077	3.93
368.44	3.97
368.803	3.98
369.167	3.92
369.53	3.87
369.893	3.9
370.256	3.92
370.619	3.87
370.982	3.79
371.345	3.74
371.708	3.79
372.071	3.78
372.434	3.77
372.797	3.82
373.159	3.81
373.522	3.83
373.885	3.83
374.247	3.8
374.61	3.8
374.973	3.76
375.335	3.73
375.698	3.73
376.06	3.75
376.423	3.73
376.785	3.78
377.147	3.85
377.51	3.77
377.872	3.78
378.234	3.84
378.596	3.94
378.958	3.94
379.321	3.91
379.683	3.9
380.045	3.92
380.407	3.84
380.769	3.86
381.13	3.87
381.492	3.87
381.854	3.92
382.216	3.94
382.578	3.96
382.939	3.97
383.301	3.99
383.663	4
384.024	4.03
384.386	4.11
384.747	4.09
385.109	4.1
385.47	4.09
385.832	4.1
386.193	4.09
386.554	4.07
386.916	4.07
387.277	4.11
387.638	4.12
387.999	4.14
388.36	4.18
388.721	4.2
389.082	4.2
389.443	4.2
389.804	4.18
390.165	4.18
390.526	4.16
390.887	4.17
391.248	4.18
391.609	4.2
391.969	4.17
392.33	4.17
392.691	4.21
393.051	4.23
393.412	4.24
393.772	4.23
394.133	4.28
394.493	4.28
394.854	4.27
395.214	4.29
395.574	4.33
395.935	4.3
396.295	4.29
396.655	4.29
397.015	4.27
397.376	4.29
397.736	4.29
398.096	4.3
398.456	4.33
398.816	4.34
399.176	4.34
399.535	4.3
399.895	4.3
400.255	4.27
400.615	4.29
400.975	4.24
401.334	4.23
401.694	4.21
402.054	4.22
402.413	4.24
402.773	4.2
403.132	4.15
403.492	4.17
403.851	4.16
404.211	4.15
404.57	4.17
404.929	4.15
405.288	4.15
405.648	4.13
406.007	4.08
406.366	4.04
406.725	4.05
407.084	4.05
407.443	4.04
407.802	4.05
408.161	4.01
408.52	4
408.879	4.02
409.238	4.01
409.596	4
409.955	3.95
410.314	3.99
410.673	4.02
411.031	4.01
411.39	4.01
411.748	4.02
412.107	4.03
412.465	4.02
412.824	4.01
413.182	4.02
413.54	4.02
413.899	4.04
414.257	4.06
414.615	4.06
414.974	4.08
415.332	4.06
415.69	4.07
416.048	4.06
416.406	4.08
416.764	4.07
417.122	4.09
417.48	4.11
417.838	4.07
418.195	4.09
418.553	4.11
418.911	4.12
419.269	4.14
419.626	4.14
419.984	4.14
420.342	4.15
420.699	4.16
421.057	4.19
421.414	4.17
421.772	4.17
422.129	4.18
422.486	4.18
422.844	4.2
423.201	4.18
423.558	4.2
423.915	4.18
424.273	4.21
424.63	4.2
424.987	4.2
425.344	4.21
425.701	4.19
426.058	4.17
426.415	4.15
426.772	4.15
427.128	4.15
427.485	4.14
427.842	4.14
428.199	4.13
428.555	4.12
428.912	4.16
429.269	4.14
429.625	4.13
429.982	4.13
430.338	4.12
430.695	4.14
431.051	4.13
431.407	4.16
431.764	4.12
432.12	4.13
432.476	4.15
432.832	4.12
433.189	4.12
433.545	4.13
433.901	4.13
434.257	4.12
434.613	4.13
434.969	4.13
435.325	4.13
435.681	4.14
436.036	4.12
436.392	4.11
436.748	4.1
437.104	4.1
437.459	4.11
437.815	4.12
438.171	4.12
438.526	4.13
438.882	4.14
439.237	4.15
439.593	4.16
439.948	4.14
440.304	4.17
440.659	4.18
441.014	4.18
441.369	4.17
441.725	4.17
442.08	4.18
442.435	4.18
442.79	4.18
443.145	4.16
443.5	4.17
443.855	4.18
444.21	4.18
444.565	4.18
444.92	4.17
445.275	4.16
445.629	4.16
445.984	4.16
446.339	4.13
446.693	4.12
447.048	4.1
447.403	4.11
447.757	4.1
448.112	4.08
448.466	4.08
448.82	4.08
449.175	4.09
449.529	4.06
449.883	4.06
450.238	4.06
450.592	4.08
450.946	4.07
451.3	4.06
451.654	4.05
452.008	4.07
452.362	4.07
452.716	4.06
453.07	4.06
453.424	4.05
453.778	4.06
454.132	4.06
454.486	4.07
454.839	4.07
455.193	4.07
455.547	4.06
455.9	4.07
456.254	4.09
456.607	4.08
456.961	4.08
457.314	4.07
457.668	4.07
458.021	4.06
458.375	4.06
458.728	4.07
459.081	4.08
459.434	4.06
459.787	4.07
460.141	4.07
460.494	4.09
460.847	4.09
461.2	4.09
461.553	4.1
461.906	4.09
462.259	4.1
462.611	4.11
462.964	4.13
463.317	4.12
463.67	4.13
464.022	4.14
464.375	4.15
464.728	4.15
465.08	4.15
465.433	4.16
465.785	4.15
466.138	4.16
466.49	4.14
466.843	4.16
467.195	4.13
467.547	4.14
467.899	4.1
468.252	4.09
468.604	4.1
468.956	4.09
469.308	4.12
469.66	4.11
470.012	4.09
470.364	4.08
470.716	4.07
471.068	4.05
471.42	4.05
471.772	4.04
472.123	4.06
472.475	4.05
472.827	4.06
473.178	4.07
473.53	4.07
473.882	4.07
474.233	4.07
474.585	4.07
474.936	4.07
475.288	4.09
475.639	4.09
475.99	4.09
476.342	4.1
476.693	4.1
477.044	4.11
477.395	4.12
477.746	4.11
478.097	4.11
478.448	4.11
478.8	4.13
479.15	4.13
479.501	4.14
479.852	4.15
480.203	4.16
480.554	4.18
480.905	4.19
481.255	4.21
481.606	4.22
481.957	4.24
482.307	4.25
482.658	4.26
483.009	4.27
483.359	4.28
483.709	4.28
484.06	4.28
484.41	4.28
484.761	4.28
485.111	4.3
485.461	4.32
485.811	4.31
486.162	4.31
486.512	4.32
486.862	4.32
487.212	4.32
487.562	4.31
487.912	4.31
488.262	4.3
488.612	4.29
488.961	4.29
489.311	4.29
489.661	4.28
490.011	4.28
490.36	4.28
490.71	4.27
491.06	4.27
491.409	4.27
491.759	4.28
492.108	4.29
492.458	4.28
492.807	4.25
493.157	4.26
493.506	4.26
493.855	4.25
494.204	4.24
494.554	4.24
494.903	4.25
495.252	4.25
495.601	4.26
495.95	4.26
496.299	4.27
496.648	4.28
496.997	4.29
497.346	4.29
497.695	4.3
498.043	4.29
498.392	4.29
498.741	4.29
499.09	4.29
499.438	4.32
499.787	4.32
500.135	4.33
500.484	4.35
500.832	4.36
501.181	4.37
501.529	4.39
501.878	4.42
502.226	4.44
502.574	4.47
502.923	4.46
503.271	4.46
503.619	4.5
503.967	4.5
504.315	4.49
504.663	4.5
505.011	4.48
505.359	4.51
505.707	4.52
506.055	4.52
506.403	4.53
506.751	4.5
507.098	4.51
507.446	4.54
507.794	4.55
508.141	4.57
508.489	4.58
508.837	4.59
509.184	4.6
509.531	4.59
509.879	4.62
510.226	4.65
510.574	4.67
510.921	4.65
511.268	4.65
511.616	4.68
511.963	4.68
512.31	4.69
512.657	4.7
513.004	4.72
513.351	4.74
513.698	4.75
514.045	4.75
514.392	4.76
514.739	4.73
515.086	4.74
515.432	4.73
515.779	4.72
516.126	4.73
516.473	4.73
516.819	4.74
517.166	4.71
517.512	4.71
517.859	4.7
518.205	4.69
518.552	4.71
518.898	4.71
519.245	4.69
519.591	4.7
519.937	4.68
520.283	4.7
520.629	4.67
520.976	4.67
521.322	4.69
521.668	4.68
522.014	4.7
522.36	4.71
522.706	4.72
523.052	4.75
523.398	4.75
523.743	4.75
524.089	4.75
524.435	4.79
524.781	4.81
525.126	4.82
525.472	4.84
525.817	4.85
526.163	4.86
526.509	4.87
526.854	4.89
527.199	4.91
527.545	4.91
527.89	4.92
528.235	4.92
528.581	4.93
528.926	4.94
529.271	4.94
529.616	4.94
529.961	4.93
530.306	4.94
530.651	4.94
530.996	4.95
531.341	4.96
531.686	4.94
532.031	4.94
532.376	4.93
532.721	4.93
533.065	4.93
533.41	4.93
533.755	4.95
534.099	4.94
534.444	4.94
534.788	4.94
535.133	4.96
535.477	4.96
535.822	4.95
536.166	4.95
536.51	4.95
536.855	4.97
537.199	4.98
537.543	4.98
537.887	4.97
538.231	4.97
538.576	4.96
538.92	4.98
539.264	4.98
539.608	5
539.951	5
540.295	4.99
540.639	5
540.983	4.99
541.327	5
541.671	5.01
542.014	5
542.358	4.99
542.701	5.01
543.045	5.02
543.389	5.03
543.732	5.03
544.075	5.02
544.419	5.01
544.762	5.02
545.105	5.04
545.449	5.05
545.792	5.07
546.135	5.07
546.478	5.07
546.821	5.08
547.165	5.07
547.508	5.1
547.851	5.1
548.194	5.07
548.536	5.05
548.879	5.04
549.222	5.05
549.565	5.04
549.908	5.02
550.25	5.02
550.593	5.04
550.936	5.03
551.278	5.05
551.621	5.06
551.963	5.05
552.306	5.06
552.648	5.03
552.991	5.06
553.333	5.06
553.675	5.06
554.017	5.04
554.36	5.05
554.702	5.05
555.044	5.08
555.386	5.1
555.728	5.15
556.07	5.14
556.412	5.13
556.754	5.13
557.096	5.15
557.438	5.16
557.78	5.15
558.121	5.18
558.463	5.16
558.805	5.13
559.147	5.13
559.488	5.09
559.83	5.13
560.171	5.11
560.513	5.1
560.854	5.09
561.196	5.07
561.537	5.1
561.878	5.07
562.22	5.05
562.561	5.08
562.902	5.07
563.243	5.06
563.584	5.07
563.925	5.05
564.266	5.04
564.607	5.01
564.948	5.04
565.289	5.02
565.63	5.03
565.971	5.06
566.312	5.06
566.653	5.04
566.993	5.02
567.334	4.98
567.675	5.01
568.015	5.04
568.356	5.06
568.696	5.06
569.037	5.1
569.377	5.09
569.718	5.08
570.058	5.07
570.398	5.08
570.739	5.11
571.079	5.16
571.419	5.17
571.759	5.21
572.099	5.2
572.439	5.18
572.779	5.2
573.119	5.21
573.459	5.24
573.799	5.26
574.139	5.27
574.479	5.31
574.819	5.29
575.158	5.27
575.498	5.25
575.838	5.23
576.177	5.2
576.517	5.21
576.856	5.2
577.196	5.19
577.535	5.19
577.875	5.16
578.214	5.15
578.553	5.14
578.893	5.12
579.232	5.11
579.571	5.13
579.91	5.11
580.25	5.12
580.589	5.11
580.928	5.16
581.267	5.15
581.606	5.14
581.945	5.14
582.283	5.16
582.622	5.15
582.961	5.16
583.3	5.21
583.639	5.26
583.977	5.28
584.316	5.29
584.654	5.28
584.993	5.25
585.332	5.22
585.67	5.25
586.008	5.22
586.347	5.2
586.685	5.17
587.024	5.18
587.362	5.16
587.7	5.16
588.038	5.18
588.376	5.18
588.715	5.16
589.053	5.2
589.391	5.23
589.729	5.29
590.067	5.26
590.404	5.24
590.742	5.22
591.08	5.21
591.418	5.24
591.756	5.22
592.093	5.25
592.431	5.27
592.769	5.26
593.106	5.24
593.444	5.24
593.781	5.28
594.119	5.28
594.456	5.29
594.793	5.29
595.131	5.24
595.468	5.26
595.805	5.27
596.143	5.27
596.48	5.27
596.817	5.2
597.154	5.27
597.491	5.27
597.828	5.26
598.165	5.25
598.502	5.23
598.839	5.28
599.176	5.29
599.512	5.26
599.849	5.29
600.186	5.34
600.523	5.4
600.859	5.39
601.196	5.43
601.532	5.42
601.869	5.4
602.205	5.45
602.542	5.45
602.878	5.44
603.215	5.43
603.551	5.44
603.887	5.5
604.223	5.49
604.56	5.53
604.896	5.53
605.232	5.53
605.568	5.53
605.904	5.51
606.24	5.53
606.576	5.56
606.912	5.57
607.248	5.56
607.583	5.54
607.919	5.54
608.255	5.49
608.591	5.51
608.926	5.52
609.262	5.52
609.597	5.51
609.933	5.53
610.268	5.57
610.604	5.56
610.939	5.54
611.275	5.51
611.61	5.49
611.945	5.48
612.281	5.47
612.616	5.49
612.951	5.49
613.286	5.49
613.621	5.48
613.956	5.44
614.291	5.44
614.626	5.4
614.961	5.41
615.296	5.42
615.631	5.43
615.966	5.4
616.3	5.4
616.635	5.47
616.97	5.44
617.304	5.4
617.639	5.4
617.973	5.37
618.308	5.38
618.642	5.37
618.977	5.41
619.311	5.44
619.646	5.43
619.98	5.43
620.314	5.44
620.648	5.49
620.983	5.53
621.317	5.57
621.651	5.61
621.985	5.6
622.319	5.64
622.653	5.62
622.987	5.64
623.321	5.62
623.655	5.61
623.988	5.64
624.322	5.62
624.656	5.68
624.99	5.72
625.323	5.68
625.657	5.68
625.99	5.63
626.324	5.62
626.657	5.62
626.991	5.65
627.324	5.62
627.658	5.6
627.991	5.6
628.324	5.56
628.657	5.56
628.991	5.55
629.324	5.55
629.657	5.55
629.99	5.57
630.323	5.53
630.656	5.51
630.989	5.54
631.322	5.6
631.655	5.49
631.987	5.52
632.32	5.55
632.653	5.58
632.986	5.61
633.318	5.64
633.651	5.61
633.984	5.6
634.316	5.63
634.649	5.59
634.981	5.56
635.313	5.6
635.646	5.61
635.978	5.62
636.31	5.63
636.643	5.66
636.975	5.66
637.307	5.65
637.639	5.7
637.971	5.63
638.303	5.55
638.635	5.57
638.967	5.61
639.299	5.63
639.631	5.63
639.963	5.58
640.295	5.57
640.626	5.6
640.958	5.65
641.29	5.64
641.621	5.64
641.953	5.65
642.285	5.6
642.616	5.6
642.948	5.58
643.279	5.57
643.61	5.58
643.942	5.56
644.273	5.67
644.604	5.63
644.936	5.59
645.267	5.66
645.598	5.74
645.929	5.62
646.26	5.68
646.591	5.66
646.922	5.64
647.253	5.69
647.584	5.68
647.915	5.53
648.245	5.45
648.576	5.55
648.907	5.61
649.238	5.61
649.568	5.6
649.899	5.61
650.229	5.59
650.56	5.65
650.89	5.66
651.221	5.58
651.551	5.57
651.882	5.63
652.212	5.65
652.542	5.59
652.872	5.66
653.203	5.58
653.533	5.61
653.863	5.67
654.193	5.67
654.523	5.69
654.853	5.79
655.183	5.88
655.513	5.82
655.843	5.77
656.172	5.84
656.502	5.86
656.832	5.87
657.162	5.91
657.491	5.78
657.821	5.8
658.15	5.82
658.48	5.79
658.809	5.75
659.139	5.69
659.468	5.74
659.798	5.69
660.127	5.78
660.456	5.82
660.785	5.79
661.115	5.7
661.444	5.71
661.773	5.7
662.102	5.67
662.431	5.68
662.76	5.7
663.089	5.71
663.418	5.67
663.747	5.65
664.076	5.61
664.404	5.62
664.733	5.65
665.062	5.66
665.39	5.65
665.719	5.64
666.048	5.76
666.376	5.67
666.705	5.72
667.033	5.66
667.362	5.62
667.69	5.65
668.018	5.67
668.347	5.66
668.675	5.69
669.003	5.77
669.331	5.85
669.659	5.8
669.987	5.65
670.315	5.69
670.643	5.7
670.971	5.77
671.299	5.83
671.627	5.84
671.955	5.88
672.283	5.92
672.61	5.99
672.938	5.96
673.266	6.05
673.593	6.12
673.921	6.05
674.249	6
674.576	5.99
674.904	6.07
675.231	6.07
675.558	6.11
