Data from BU57647_Reflection_00010.txt Node
Date: Mon Nov 18 16:49:39 EST 2019
User: vgr7
Spectrometer: USB2G7710
Scans to average: 3
Trigger mode: 4
Integration Time (sec): 2.000000E-2
Electric dark correction enabled: true
Boxcar width: 10
XAxis mode: Wavelengths
Number of Pixels in Spectrum: 2048
>>>>>Begin Spectral Data<<<<<
177.721	40.92
178.105	76.95
178.488	-56
178.871	105.32
179.254	-18.45
179.636	-215.22
180.019	31.03
180.402	85
180.785	-55.5
181.168	23.95
181.55	90.07
181.933	113.79
182.316	78.14
182.698	79.37
183.081	172.91
183.463	216.64
183.846	-2541.51
184.228	-14809.09
184.611	-300
184.993	-70.52
185.376	-8.25
185.758	21.49
186.14	43.7
186.522	-13.27
186.904	27.03
187.287	54.69
187.669	8.53
188.051	29.74
188.433	-15.08
188.815	17.63
189.197	27.97
189.579	44.58
189.961	33.73
190.342	12.63
190.724	19.68
191.106	3.84
191.488	-15.17
191.869	1.16
192.251	2.77
192.633	-34.28
193.014	-60.2
193.396	-123.59
193.777	-135.61
194.159	-360.43
194.54	-294.2
194.922	-645.5
195.303	-349.17
195.684	-150.8
196.065	-81.16
196.447	-39.57
196.828	-131.94
197.209	-68.33
197.59	-57.27
197.971	-44.68
198.352	-24.71
198.733	-37.35
199.114	-17.05
199.495	1.78
199.876	1.9
200.257	-20.88
200.638	-11.87
201.018	18.61
201.399	26.94
201.78	28.39
202.16	13.36
202.541	10.25
202.922	-16.67
203.302	-54.98
203.683	-69.69
204.063	-123.78
204.444	-128.08
204.824	-111.6
205.204	-142.57
205.585	-158.87
205.965	-245.73
206.345	-311.7
206.725	-1248.84
207.106	-1689.47
207.486	830.02
207.866	1003.98
208.246	2431.29
208.626	1979.4
209.006	-1401.64
209.386	5417.65
209.766	-9772.34
210.145	-1337.72
210.525	-175.97
210.905	-127.93
211.285	-100.41
211.664	-96.37
212.044	-70.99
212.424	-61.3
212.803	-69.59
213.183	-72.59
213.562	-50.02
213.942	-36.75
214.321	-28.71
214.701	-38.21
215.08	-30.7
215.459	-25.14
215.838	-13.88
216.218	-15.08
216.597	12.55
216.976	11.43
217.355	8.03
217.734	10.48
218.113	-0.06
218.492	5.92
218.871	-8.07
219.25	6.72
219.629	26.66
220.008	12.13
220.387	6.57
220.766	-5.16
221.144	-25.53
221.523	-47.62
221.902	-45.03
222.28	-62.41
222.659	-50.23
223.037	-38.27
223.416	-52.12
223.794	-55.01
224.173	-51.55
224.551	-71.82
224.929	-75.11
225.308	-52.35
225.686	-47.86
226.064	-31.11
226.442	-33.1
226.821	-22.21
227.199	-21.37
227.577	-19.2
227.955	-15.11
228.333	-14.97
228.711	-9.71
229.089	-4.56
229.467	-5.64
229.845	-5.55
230.222	-1.47
230.6	-2.46
230.978	-5.2
231.356	-3.41
231.733	-2.37
232.111	1.29
232.488	3.4
232.866	6.18
233.243	6.53
233.621	6.82
233.998	6.14
234.376	3.91
234.753	2.85
235.13	2.57
235.508	1.93
235.885	1.35
236.262	0.91
236.639	0.85
237.016	0.49
237.393	1.19
237.77	1.79
238.147	2.17
238.524	3.38
238.901	4.35
239.278	5.53
239.655	5.14
240.032	4.54
240.409	3.5
240.785	3.06
241.162	2.63
241.539	2.69
241.915	2.39
242.292	2.72
242.668	3.28
243.045	3.3
243.421	3.62
243.798	3.78
244.174	3.94
244.551	4.29
244.927	4.38
245.303	4.61
245.679	4.61
246.056	4.58
246.432	4.33
246.808	4.3
247.184	3.87
247.56	3.86
247.936	3.68
248.312	4.2
248.688	4.16
249.064	4.09
249.44	4.15
249.815	4.28
250.191	4.49
250.567	4.53
250.943	4.45
251.318	4.64
251.694	4.47
252.069	4.56
252.445	4.37
252.82	4.14
253.196	4.02
253.571	4.05
253.947	4.35
254.322	4.65
254.697	4.61
255.073	4.85
255.448	4.46
255.823	4.69
256.198	4.5
256.573	4.49
256.948	4.72
257.323	4.67
257.698	4.67
258.073	4.41
258.448	4.37
258.823	4.41
259.198	4.18
259.573	4.11
259.948	4.08
260.322	4.22
260.697	4.29
261.072	4.23
261.446	4.2
261.821	3.9
262.195	3.88
262.57	3.8
262.944	3.62
263.319	3.68
263.693	3.47
264.067	3.4
264.442	3.41
264.816	3.32
265.19	3.11
265.564	3.14
265.938	3.18
266.313	3.22
266.687	3.05
267.061	3.15
267.435	3.32
267.809	3.34
268.183	3.18
268.556	3.25
268.93	3.35
269.304	3.31
269.678	3.57
270.051	3.56
270.425	3.51
270.799	3.65
271.172	3.78
271.546	3.88
271.919	3.92
272.293	4.07
272.666	3.93
273.04	4.28
273.413	4.33
273.787	4.48
274.16	4.33
274.533	4.56
274.906	4.56
275.279	4.61
275.653	4.61
276.026	4.62
276.399	4.59
276.772	4.57
277.145	4.54
277.518	4.53
277.891	4.62
278.263	4.85
278.636	4.74
279.009	4.87
279.382	4.87
279.755	4.86
280.127	4.91
280.5	5.08
280.872	4.96
281.245	4.8
281.617	4.82
281.99	4.89
282.362	4.78
282.735	4.65
283.107	4.49
283.479	4.56
283.852	4.61
284.224	4.67
284.596	4.68
284.968	4.71
285.34	4.61
285.713	4.52
286.085	4.47
286.457	4.58
286.829	4.55
287.201	4.5
287.572	4.52
287.944	4.39
288.316	4.2
288.688	4.15
289.06	4.14
289.431	4.04
289.803	4.06
290.175	4.15
290.546	4.29
290.918	4.36
291.289	4.33
291.661	4.41
292.032	4.44
292.403	4.55
292.775	4.82
293.146	4.83
293.517	4.77
293.889	4.89
294.26	4.96
294.631	5.08
295.002	5.24
295.373	5.22
295.744	5.3
296.115	5.45
296.486	5.39
296.857	5.33
297.228	5.39
297.599	5.33
297.97	5.22
298.34	5.22
298.711	5.4
299.082	5.47
299.452	5.46
299.823	5.45
300.194	5.39
300.564	5.2
300.935	5.22
301.305	5.31
301.676	5.3
302.046	5.22
302.416	5.16
302.787	5.17
303.157	5.21
303.527	5.09
303.897	5.24
304.267	5.35
304.637	5.47
305.008	5.54
305.378	5.62
305.748	5.86
306.117	5.9
306.487	5.85
306.857	5.86
307.227	5.84
307.597	5.92
307.967	5.91
308.336	6.03
308.706	6.13
309.076	6.12
309.445	6.21
309.815	6.4
310.184	6.37
310.554	6.48
310.923	6.53
311.293	6.59
311.662	6.6
312.031	6.62
312.401	6.67
312.77	6.86
313.139	6.87
313.508	6.88
313.877	6.95
314.246	6.9
314.616	6.92
314.985	6.98
315.353	6.89
315.722	7.07
316.091	7.25
316.46	7.35
316.829	7.5
317.198	7.39
317.567	7.34
317.935	7.4
318.304	7.37
318.672	7.37
319.041	7.43
319.41	7.58
319.778	7.81
320.147	7.91
320.515	7.82
320.883	7.99
321.252	8.11
321.62	8.27
321.988	8.38
322.357	8.52
322.725	8.55
323.093	8.75
323.461	8.67
323.829	8.56
324.197	8.65
324.565	8.68
324.933	8.69
325.301	8.78
325.669	8.9
326.037	9.01
326.405	9.06
326.772	9.26
327.14	9.15
327.508	9.14
327.875	9.11
328.243	9.17
328.61	9.23
328.978	9.13
329.346	9.12
329.713	9.15
330.08	9.17
330.448	9.24
330.815	9.16
331.182	9.22
331.55	9.28
331.917	9.23
332.284	9.38
332.651	9.49
333.018	9.56
333.385	9.56
333.752	9.51
334.119	9.65
334.486	9.45
334.853	9.49
335.22	9.47
335.587	9.66
335.954	9.62
336.32	9.5
336.687	9.58
337.054	9.48
337.42	9.48
337.787	9.48
338.153	9.5
338.52	9.71
338.886	9.75
339.253	9.65
339.619	9.84
339.986	9.78
340.352	9.84
340.718	9.84
341.084	9.79
341.451	9.88
341.817	9.86
342.183	9.92
342.549	9.94
342.915	9.99
343.281	9.98
343.647	9.99
344.013	10.04
344.379	9.97
344.745	10.01
345.11	9.96
345.476	9.89
345.842	9.89
346.208	9.83
346.573	9.79
346.939	10.01
347.304	9.83
347.67	9.74
348.035	9.71
348.401	9.6
348.766	9.63
349.132	9.47
349.497	9.38
349.862	9.48
350.228	9.47
350.593	9.38
350.958	9.31
351.323	9.28
351.688	9.26
352.053	9.28
352.418	9.25
352.783	9.36
353.148	9.38
353.513	9.36
353.878	9.37
354.243	9.4
354.608	9.27
354.972	9.3
355.337	9.39
355.702	9.36
356.066	9.43
356.431	9.33
356.795	9.43
357.16	9.42
357.524	9.34
357.889	9.22
358.253	9.29
358.618	9.28
358.982	9.25
359.346	9.23
359.71	9.23
360.075	9.26
360.439	9.19
360.803	9.11
361.167	9.08
361.531	9
361.895	8.89
362.259	8.87
362.623	8.84
362.987	8.82
363.351	8.8
363.714	8.68
364.078	8.68
364.442	8.63
364.806	8.56
365.169	8.44
365.533	8.46
365.896	8.33
366.26	8.25
366.623	8.2
366.987	8.1
367.35	7.99
367.714	7.94
368.077	7.86
368.44	7.87
368.803	7.82
369.167	7.77
369.53	7.76
369.893	7.67
370.256	7.61
370.619	7.44
370.982	7.41
371.345	7.36
371.708	7.3
372.071	7.22
372.434	7.19
372.797	7.26
373.159	7.16
373.522	7.16
373.885	7.12
374.247	7.08
374.61	7.02
374.973	7
375.335	6.84
375.698	6.78
376.06	6.71
376.423	6.65
376.785	6.6
377.147	6.57
377.51	6.55
377.872	6.53
378.234	6.56
378.596	6.51
378.958	6.43
379.321	6.45
379.683	6.36
380.045	6.31
380.407	6.21
380.769	6.24
381.13	6.11
381.492	6.07
381.854	6
382.216	5.97
382.578	5.9
382.939	5.88
383.301	5.86
383.663	5.79
384.024	5.77
384.386	5.71
384.747	5.69
385.109	5.66
385.47	5.54
385.832	5.5
386.193	5.45
386.554	5.43
386.916	5.33
387.277	5.33
387.638	5.32
387.999	5.23
388.36	5.17
388.721	5.16
389.082	5.14
389.443	5.12
389.804	5.06
390.165	5.04
390.526	5.02
390.887	4.98
391.248	5.02
391.609	4.97
391.969	4.99
392.33	4.88
392.691	4.85
393.051	4.84
393.412	4.82
393.772	4.74
394.133	4.76
394.493	4.77
394.854	4.73
395.214	4.7
395.574	4.73
395.935	4.7
396.295	4.69
396.655	4.65
397.015	4.63
397.376	4.65
397.736	4.59
398.096	4.59
398.456	4.56
398.816	4.53
399.176	4.47
399.535	4.4
399.895	4.39
400.255	4.37
400.615	4.34
400.975	4.28
401.334	4.26
401.694	4.18
402.054	4.11
402.413	4.08
402.773	4.03
403.132	3.98
403.492	3.97
403.851	3.93
404.211	3.9
404.57	3.87
404.929	3.85
405.288	3.86
405.648	3.83
406.007	3.83
406.366	3.81
406.725	3.84
407.084	3.84
407.443	3.84
407.802	3.81
408.161	3.76
408.52	3.74
408.879	3.75
409.238	3.78
409.596	3.78
409.955	3.79
410.314	3.8
410.673	3.8
411.031	3.77
411.39	3.8
411.748	3.8
412.107	3.81
412.465	3.75
412.824	3.74
413.182	3.74
413.54	3.72
413.899	3.71
414.257	3.69
414.615	3.65
414.974	3.65
415.332	3.63
415.69	3.66
416.048	3.63
416.406	3.61
416.764	3.58
417.122	3.56
417.48	3.52
417.838	3.52
418.195	3.51
418.553	3.49
418.911	3.47
419.269	3.46
419.626	3.43
419.984	3.42
420.342	3.4
420.699	3.37
421.057	3.37
421.414	3.35
421.772	3.35
422.129	3.34
422.486	3.33
422.844	3.34
423.201	3.32
423.558	3.32
423.915	3.32
424.273	3.32
424.63	3.32
424.987	3.33
425.344	3.33
425.701	3.31
426.058	3.32
426.415	3.31
426.772	3.3
427.128	3.3
427.485	3.32
427.842	3.33
428.199	3.35
428.555	3.34
428.912	3.34
429.269	3.33
429.625	3.33
429.982	3.32
430.338	3.3
430.695	3.31
431.051	3.29
431.407	3.29
431.764	3.26
432.12	3.24
432.476	3.22
432.832	3.19
433.189	3.2
433.545	3.21
433.901	3.2
434.257	3.2
434.613	3.21
434.969	3.21
435.325	3.21
435.681	3.19
436.036	3.18
436.392	3.2
436.748	3.18
437.104	3.17
437.459	3.18
437.815	3.19
438.171	3.19
438.526	3.22
438.882	3.25
439.237	3.26
439.593	3.27
439.948	3.27
440.304	3.28
440.659	3.27
441.014	3.26
441.369	3.23
441.725	3.23
442.08	3.23
442.435	3.21
442.79	3.2
443.145	3.21
443.5	3.21
443.855	3.19
444.21	3.2
444.565	3.2
444.92	3.2
445.275	3.17
445.629	3.18
445.984	3.15
446.339	3.12
446.693	3.11
447.048	3.1
447.403	3.11
447.757	3.1
448.112	3.1
448.466	3.08
448.82	3.09
449.175	3.09
449.529	3.08
449.883	3.06
450.238	3.05
450.592	3.04
450.946	3.03
451.3	3.02
451.654	3.02
452.008	3.01
452.362	3
452.716	3
453.07	2.99
453.424	3
453.778	2.99
454.132	2.98
454.486	2.98
454.839	2.94
455.193	2.91
455.547	2.92
455.9	2.96
456.254	2.96
456.607	2.95
456.961	2.97
457.314	2.99
457.668	3
458.021	2.99
458.375	2.99
458.728	3
459.081	2.99
459.434	2.99
459.787	3.01
460.141	3.01
460.494	3.01
460.847	3.01
461.2	3.02
461.553	3.02
461.906	3.03
462.259	3.06
462.611	3.09
462.964	3.09
463.317	3.08
463.67	3.08
464.022	3.09
464.375	3.08
464.728	3.09
465.08	3.1
465.433	3.12
465.785	3.12
466.138	3.12
466.49	3.15
466.843	3.13
467.195	3.13
467.547	3.16
467.899	3.17
468.252	3.19
468.604	3.22
468.956	3.22
469.308	3.23
469.66	3.22
470.012	3.23
470.364	3.23
470.716	3.24
471.068	3.28
471.42	3.27
471.772	3.31
472.123	3.3
472.475	3.29
472.827	3.31
473.178	3.32
473.53	3.34
473.882	3.33
474.233	3.35
474.585	3.37
474.936	3.35
475.288	3.33
475.639	3.33
475.99	3.32
476.342	3.35
476.693	3.35
477.044	3.36
477.395	3.36
477.746	3.36
478.097	3.34
478.448	3.32
478.8	3.3
479.15	3.28
479.501	3.29
479.852	3.28
480.203	3.28
480.554	3.28
480.905	3.26
481.255	3.27
481.606	3.26
481.957	3.26
482.307	3.27
482.658	3.26
483.009	3.26
483.359	3.26
483.709	3.25
484.06	3.25
484.41	3.25
484.761	3.25
485.111	3.24
485.461	3.26
485.811	3.25
486.162	3.26
486.512	3.27
486.862	3.26
487.212	3.27
487.562	3.27
487.912	3.26
488.262	3.27
488.612	3.26
488.961	3.27
489.311	3.27
489.661	3.26
490.011	3.27
490.36	3.27
490.71	3.28
491.06	3.28
491.409	3.28
491.759	3.28
492.108	3.29
492.458	3.3
492.807	3.29
493.157	3.29
493.506	3.31
493.855	3.31
494.204	3.31
494.554	3.32
494.903	3.31
495.252	3.31
495.601	3.33
495.95	3.34
496.299	3.34
496.648	3.35
496.997	3.39
497.346	3.42
497.695	3.44
498.043	3.45
498.392	3.48
498.741	3.49
499.09	3.51
499.438	3.54
499.787	3.59
500.135	3.63
500.484	3.66
500.832	3.69
501.181	3.74
501.529	3.8
501.878	3.84
502.226	3.91
502.574	3.97
502.923	4.01
503.271	4.04
503.619	4.11
503.967	4.14
504.315	4.17
504.663	4.22
505.011	4.26
505.359	4.31
505.707	4.4
506.055	4.47
506.403	4.51
506.751	4.56
507.098	4.62
507.446	4.68
507.794	4.73
508.141	4.8
508.489	4.84
508.837	4.87
509.184	4.95
509.531	5
509.879	5.08
510.226	5.15
510.574	5.22
510.921	5.3
511.268	5.36
511.616	5.43
511.963	5.52
512.31	5.61
512.657	5.7
513.004	5.75
513.351	5.85
513.698	5.97
514.045	6.09
514.392	6.2
514.739	6.3
515.086	6.45
515.432	6.53
515.779	6.65
516.126	6.79
516.473	6.9
516.819	7.02
517.166	7.12
517.512	7.24
517.859	7.34
518.205	7.44
518.552	7.55
518.898	7.68
519.245	7.77
519.591	7.86
519.937	7.97
520.283	8.1
520.629	8.22
520.976	8.34
521.322	8.46
521.668	8.58
522.014	8.73
522.36	8.85
522.706	9.03
523.052	9.17
523.398	9.33
523.743	9.52
524.089	9.71
524.435	9.89
524.781	10.05
525.126	10.21
525.472	10.33
525.817	10.48
526.163	10.6
526.509	10.72
526.854	10.84
527.199	10.95
527.545	11.03
527.89	11.13
528.235	11.23
528.581	11.33
528.926	11.43
529.271	11.55
529.616	11.66
529.961	11.77
530.306	11.89
530.651	11.99
530.996	12.11
531.341	12.23
531.686	12.36
532.031	12.51
532.376	12.63
532.721	12.81
533.065	12.95
533.41	13.09
533.755	13.26
534.099	13.43
534.444	13.56
534.788	13.75
535.133	13.92
535.477	14.12
535.822	14.3
536.166	14.53
536.51	14.72
536.855	14.92
537.199	15.14
537.543	15.34
537.887	15.6
538.231	15.82
538.576	16.05
538.92	16.25
539.264	16.43
539.608	16.64
539.951	16.8
540.295	17
540.639	17.19
540.983	17.36
541.327	17.53
541.671	17.74
542.014	17.91
542.358	18.05
542.701	18.19
543.045	18.35
543.389	18.51
543.732	18.7
544.075	18.89
544.419	19.09
544.762	19.3
545.105	19.47
545.449	19.71
545.792	19.94
546.135	20.18
546.478	20.44
546.821	20.69
547.165	20.96
547.508	21.22
547.851	21.46
548.194	21.73
548.536	22
548.879	22.28
549.222	22.61
549.565	22.94
549.908	23.25
550.25	23.56
550.593	23.9
550.936	24.15
551.278	24.44
551.621	24.72
551.963	25.04
552.306	25.35
552.648	25.62
552.991	25.94
553.333	26.21
553.675	26.52
554.017	26.81
554.36	27.11
554.702	27.37
555.044	27.7
555.386	28.02
555.728	28.27
556.07	28.53
556.412	28.79
556.754	29.08
557.096	29.39
557.438	29.66
557.78	29.89
558.121	30.24
558.463	30.55
558.805	30.9
559.147	31.18
559.488	31.46
559.83	31.76
560.171	31.97
560.513	32.31
560.854	32.61
561.196	32.96
561.537	33.27
561.878	33.56
562.22	33.83
562.561	34.12
562.902	34.43
563.243	34.73
563.584	34.96
563.925	35.28
564.266	35.55
564.607	35.78
564.948	36
565.289	36.21
565.63	36.45
565.971	36.65
566.312	36.87
566.653	37.08
566.993	37.28
567.334	37.53
567.675	37.72
568.015	37.94
568.356	38.11
568.696	38.33
569.037	38.58
569.377	38.8
569.718	39.02
570.058	39.26
570.398	39.5
570.739	39.76
571.079	39.9
571.419	40.08
571.759	40.32
572.099	40.55
572.439	40.81
572.779	41.04
573.119	41.21
573.459	41.43
573.799	41.64
574.139	41.83
574.479	41.99
574.819	42.15
575.158	42.35
575.498	42.54
575.838	42.73
576.177	42.88
576.517	43.01
576.856	43.16
577.196	43.29
577.535	43.48
577.875	43.65
578.214	43.89
578.553	44.08
578.893	44.23
579.232	44.36
579.571	44.5
579.91	44.66
580.25	44.87
580.589	45.07
580.928	45.24
581.267	45.41
581.606	45.66
581.945	45.89
582.283	46.04
582.622	46.19
582.961	46.32
583.3	46.49
583.639	46.68
583.977	46.89
584.316	47.09
584.654	47.22
584.993	47.4
585.332	47.51
585.67	47.71
586.008	47.87
586.347	48.07
586.685	48.25
587.024	48.36
587.362	48.52
587.7	48.67
588.038	48.78
588.376	48.91
588.715	49.02
589.053	49.19
589.391	49.23
589.729	49.34
590.067	49.51
590.404	49.65
590.742	49.84
591.08	49.92
591.418	50.06
591.756	50.17
592.093	50.23
592.431	50.36
592.769	50.47
593.106	50.59
593.444	50.71
593.781	50.78
594.119	50.95
594.456	51.06
594.793	51.17
595.131	51.24
595.468	51.41
595.805	51.43
596.143	51.46
596.48	51.63
596.817	51.73
597.154	51.82
597.491	51.9
597.828	51.9
598.165	51.97
598.502	52.04
598.839	52.17
599.176	52.31
599.512	52.37
599.849	52.46
600.186	52.63
600.523	52.72
600.859	52.91
601.196	52.97
601.532	53.02
601.869	53.03
602.205	53.16
602.542	53.19
602.878	53.31
603.215	53.44
603.551	53.46
603.887	53.49
604.223	53.51
604.56	53.57
604.896	53.69
605.232	53.78
605.568	53.8
605.904	53.85
606.24	53.84
606.576	53.95
606.912	53.99
607.248	54.02
607.583	54.06
607.919	53.98
608.255	54.04
608.591	54.13
608.926	54.21
609.262	54.28
609.597	54.42
609.933	54.52
610.268	54.56
610.604	54.69
610.939	54.85
611.275	54.89
611.61	54.93
611.945	54.99
612.281	55.02
612.616	55.08
612.951	55.09
613.286	55.15
613.621	55.17
613.956	55.25
614.291	55.2
614.626	55.24
614.961	55.35
615.296	55.43
615.631	55.45
615.966	55.49
616.3	55.46
616.635	55.43
616.97	55.46
617.304	55.46
617.639	55.45
617.973	55.36
618.308	55.46
618.642	55.44
618.977	55.48
619.311	55.59
619.646	55.66
619.98	55.7
620.314	55.8
620.648	55.86
620.983	55.89
621.317	55.99
621.651	56.01
621.985	56.07
622.319	56.09
622.653	56.2
622.987	56.3
623.321	56.25
623.655	56.33
623.988	56.36
624.322	56.36
624.656	56.42
624.99	56.6
625.323	56.58
625.657	56.63
625.99	56.69
626.324	56.77
626.657	56.85
626.991	56.91
627.324	56.9
627.658	56.98
627.991	56.99
628.324	56.95
628.657	57.03
628.991	57.01
629.324	57.02
629.657	57.05
629.99	57.08
630.323	57.21
630.656	57.17
630.989	57.16
631.322	57.27
631.655	57.28
631.987	57.2
632.32	57.25
632.653	57.3
632.986	57.28
633.318	57.28
633.651	57.19
633.984	57.2
634.316	57.24
634.649	57.17
634.981	57.17
635.313	57.34
635.646	57.43
635.978	57.51
636.31	57.63
636.643	57.66
636.975	57.63
637.307	57.68
637.639	57.78
637.971	57.84
638.303	57.8
638.635	57.86
638.967	57.91
639.299	57.98
639.631	57.98
639.963	58.13
640.295	58.08
640.626	58.22
640.958	58.25
641.29	58.27
641.621	58.26
641.953	58.37
642.285	58.33
642.616	58.26
642.948	58.35
643.279	58.2
643.61	58.04
643.942	58.1
644.273	58.14
644.604	58.14
644.936	58.1
645.267	58.11
645.598	58.15
645.929	58.15
646.26	58.11
646.591	58.12
646.922	58.01
647.253	58.04
647.584	57.99
647.915	57.9
648.245	57.96
648.576	58.03
648.907	58.03
649.238	57.94
649.568	58.09
649.899	58.17
650.229	58.3
650.56	58.36
650.89	58.35
651.221	58.27
651.551	58.22
651.882	58.14
652.212	58.13
652.542	58.09
652.872	58.14
653.203	58.17
653.533	58.25
653.863	58.21
654.193	58.23
654.523	58.28
654.853	58.46
655.183	58.42
655.513	58.48
655.843	58.45
656.172	58.57
656.502	58.51
656.832	58.44
657.162	58.41
657.491	58.42
657.821	58.53
658.15	58.64
658.48	58.72
658.809	58.83
659.139	58.89
659.468	58.9
659.798	58.94
660.127	58.99
660.456	58.96
660.785	59.07
661.115	59.07
661.444	59.04
661.773	59.05
662.102	59.13
662.431	59.08
662.76	59.13
663.089	59.25
663.418	59.28
663.747	59.27
664.076	59.28
664.404	59.35
664.733	59.33
665.062	59.3
665.39	59.26
665.719	59.2
666.048	59.23
666.376	59.17
666.705	59.1
667.033	59.14
667.362	59.17
667.69	59.08
