Data from BU57650_Reflection_00014.txt Node
Date: Tue Nov 19 11:01:37 EST 2019
User: vgr7
Spectrometer: USB2G7710
Scans to average: 3
Trigger mode: 4
Integration Time (sec): 2.000000E-2
Electric dark correction enabled: true
Boxcar width: 10
XAxis mode: Wavelengths
Number of Pixels in Spectrum: 2048
>>>>>Begin Spectral Data<<<<<
177.721	71.93
178.105	35.06
178.488	-2.8
178.871	-210.81
179.254	-279.31
179.636	1216.07
180.019	-869.07
180.402	18.18
180.785	-873.91
181.168	-171.03
181.55	538.36
181.933	160.49
182.316	182.07
182.698	176.01
183.081	10242.86
183.463	285.77
183.846	271.75
184.228	668.81
184.611	-251.92
184.993	-81.82
185.376	-71.75
185.758	-49.52
186.14	-79.27
186.522	-65.81
186.904	-23.08
187.287	13.22
187.669	-9.17
188.051	-31.78
188.433	-38.19
188.815	-68.61
189.197	-53.26
189.579	-31.78
189.961	-19.21
190.342	-21.02
190.724	-29.64
191.106	-31.01
191.488	-27.15
191.869	-15.86
192.251	-11.61
192.633	-2.32
193.014	-7.13
193.396	-20.13
193.777	-15.62
194.159	-21.16
194.54	-26.18
194.922	-33.68
195.303	-37.34
195.684	-42.73
196.065	-41.55
196.447	-43.46
196.828	-38.09
197.209	-42.97
197.59	-30.41
197.971	-37.49
198.352	-46.02
198.733	-46.96
199.114	-53.17
199.495	-56.44
199.876	-58.27
200.257	-63.01
200.638	-63.65
201.018	-69.26
201.399	-49.55
201.78	-49.73
202.16	-52.57
202.541	-50.69
202.922	-50.21
203.302	-52.48
203.683	-40.93
204.063	-37.72
204.444	-38.74
204.824	-24.36
205.204	-19.27
205.585	-25.24
205.965	-25.81
206.345	-11.94
206.725	9.63
207.106	16.82
207.486	26.36
207.866	23.6
208.246	26.71
208.626	16.8
209.006	15.41
209.386	4.55
209.766	-1.37
210.145	4.93
210.525	1.43
210.905	4.56
211.285	0.09
211.664	4.54
212.044	2.14
212.424	7.69
212.803	0.67
213.183	4.47
213.562	1.25
213.942	14.97
214.321	9.12
214.701	-12.1
215.08	-16.85
215.459	-14.38
215.838	-18.99
216.218	-18.64
216.597	-15.61
216.976	-24.95
217.355	-24.96
217.734	-10.81
218.113	-6.04
218.492	2.4
218.871	13.28
219.25	15.76
219.629	11.19
220.008	14.82
220.387	-2.27
220.766	-1.85
221.144	-6.8
221.523	-2.98
221.902	-3.97
222.28	1.73
222.659	10.54
223.037	18.92
223.416	14.39
223.794	13.75
224.173	6.85
224.551	12.46
224.929	18.12
225.308	19.65
225.686	11.03
226.064	1.22
226.442	-0.21
226.821	-5.64
227.199	-6.53
227.577	-4.03
227.955	-4.62
228.333	-5.79
228.711	-5.63
229.089	-6.41
229.467	-6.24
229.845	-6.12
230.222	-5.9
230.6	-9.16
230.978	-9.52
231.356	-8.64
231.733	-7.93
232.111	-6.13
232.488	-6.97
232.866	-7.01
233.243	-5.9
233.621	-3.34
233.998	-2.25
234.376	-1.36
234.753	-1.25
235.13	0.29
235.508	-0.24
235.885	-0.69
236.262	2.16
236.639	3.29
237.016	5.19
237.393	4.88
237.77	4.03
238.147	3.44
238.524	4.62
238.901	3.57
239.278	4.56
239.655	4.3
240.032	4.41
240.409	5.04
240.785	4.85
241.162	4.52
241.539	4.48
241.915	4.42
242.292	4.59
242.668	4.94
243.045	5.14
243.421	4.76
243.798	5.06
244.174	5.05
244.551	4.93
244.927	4.51
245.303	4.33
245.679	4.49
246.056	4.51
246.432	4.56
246.808	4.81
247.184	4.6
247.56	4.57
247.936	4.49
248.312	4.22
248.688	4.16
249.064	4.34
249.44	4.18
249.815	4.3
250.191	4.36
250.567	4.25
250.943	3.98
251.318	4.2
251.694	3.98
252.069	3.93
252.445	3.52
252.82	3.85
253.196	4.3
253.571	4.1
253.947	4.03
254.322	3.79
254.697	3.81
255.073	3.73
255.448	3.95
255.823	4.07
256.198	4.02
256.573	4.11
256.948	3.71
257.323	3.85
257.698	4.1
258.073	3.9
258.448	3.96
258.823	3.89
259.198	3.91
259.573	3.96
259.948	4.03
260.322	4.15
260.697	4.04
261.072	3.86
261.446	3.85
261.821	3.93
262.195	4
262.57	3.97
262.944	4
263.319	3.91
263.693	4
264.067	4.1
264.442	4.04
264.816	4.27
265.19	4.14
265.564	3.94
265.938	3.91
266.313	3.92
266.687	3.83
267.061	3.76
267.435	3.88
267.809	3.78
268.183	3.76
268.556	3.76
268.93	3.82
269.304	3.81
269.678	3.83
270.051	3.69
270.425	3.52
270.799	3.48
271.172	3.41
271.546	3.22
271.919	3.49
272.293	3.59
272.666	3.6
273.04	3.76
273.413	3.7
273.787	3.74
274.16	3.6
274.533	3.87
274.906	3.82
275.279	3.71
275.653	3.75
276.026	3.92
276.399	3.9
276.772	3.84
277.145	3.8
277.518	3.68
277.891	3.82
278.263	4.03
278.636	4.19
279.009	4.24
279.382	4.34
279.755	4.06
280.127	4.19
280.5	3.96
280.872	3.95
281.245	3.88
281.617	3.91
281.99	3.97
282.362	3.84
282.735	3.99
283.107	4.06
283.479	4.08
283.852	4.01
284.224	3.92
284.596	3.91
284.968	4.07
285.34	4.12
285.713	4.23
286.085	4.23
286.457	4.28
286.829	4.28
287.201	4.31
287.572	4.4
287.944	4.42
288.316	4.53
288.688	4.47
289.06	4.6
289.431	4.64
289.803	4.7
290.175	4.66
290.546	4.63
290.918	4.62
291.289	4.43
291.661	4.43
292.032	4.57
292.403	4.61
292.775	4.51
293.146	4.55
293.517	4.41
293.889	4.48
294.26	4.49
294.631	4.59
295.002	4.59
295.373	4.47
295.744	4.52
296.115	4.69
296.486	4.84
296.857	4.98
297.228	4.85
297.599	4.83
297.97	4.93
298.34	4.95
298.711	4.95
299.082	5.05
299.452	4.98
299.823	5.13
300.194	5.28
300.564	5.44
300.935	5.38
301.305	5.46
301.676	5.37
302.046	5.31
302.416	5.25
302.787	5.41
303.157	5.66
303.527	5.62
303.897	5.45
304.267	5.42
304.637	5.38
305.008	5.64
305.378	5.82
305.748	5.9
306.117	5.99
306.487	6.1
306.857	6.19
307.227	6.46
307.597	6.44
307.967	6.38
308.336	6.26
308.706	6.44
309.076	6.44
309.445	6.54
309.815	6.62
310.184	6.72
310.554	6.63
310.923	6.54
311.293	6.6
311.662	6.75
312.031	6.63
312.401	6.49
312.77	6.35
313.139	6.27
313.508	6.31
313.877	6.35
314.246	6.39
314.616	6.45
314.985	6.32
315.353	6.26
315.722	6.39
316.091	6.49
316.46	6.53
316.829	6.71
317.198	6.72
317.567	6.9
317.935	6.92
318.304	7.23
318.672	7.4
319.041	7.33
319.41	7.37
319.778	7.59
320.147	7.79
320.515	7.99
320.883	8.06
321.252	8.22
321.62	8.19
321.988	8.16
322.357	8.26
322.725	8.44
323.093	8.6
323.461	8.51
323.829	8.45
324.197	8.43
324.565	8.39
324.933	8.27
325.301	8.11
325.669	8.15
326.037	8.01
326.405	7.91
326.772	8.04
327.14	8.09
327.508	8.08
327.875	8.08
328.243	8.11
328.61	8.1
328.978	8.04
329.346	8.14
329.713	8.26
330.08	8.32
330.448	8.36
330.815	8.39
331.182	8.44
331.55	8.66
331.917	8.81
332.284	8.76
332.651	8.95
333.018	9.04
333.385	9.04
333.752	9.04
334.119	9.19
334.486	9.13
334.853	8.97
335.22	9.1
335.587	9.1
335.954	9.05
336.32	9.08
336.687	9.04
337.054	8.99
337.42	8.96
337.787	8.91
338.153	8.8
338.52	8.81
338.886	8.85
339.253	8.77
339.619	8.7
339.986	8.81
340.352	8.77
340.718	8.77
341.084	8.76
341.451	8.79
341.817	8.77
342.183	8.76
342.549	8.95
342.915	8.91
343.281	8.94
343.647	9.01
344.013	9.1
344.379	9.16
344.745	9.18
345.11	9.12
345.476	9.26
345.842	9.32
346.208	9.31
346.573	9.32
346.939	9.38
347.304	9.51
347.67	9.43
348.035	9.51
348.401	9.64
348.766	9.62
349.132	9.64
349.497	9.52
349.862	9.59
350.228	9.46
350.593	9.46
350.958	9.54
351.323	9.51
351.688	9.47
352.053	9.44
352.418	9.39
352.783	9.4
353.148	9.26
353.513	9.22
353.878	9.19
354.243	9.09
354.608	9.02
354.972	8.89
355.337	9
355.702	8.92
356.066	8.8
356.431	8.78
356.795	8.75
357.16	8.87
357.524	8.83
357.889	8.87
358.253	8.89
358.618	8.8
358.982	8.79
359.346	8.78
359.71	8.74
360.075	8.79
360.439	8.79
360.803	8.79
361.167	8.76
361.531	8.75
361.895	8.8
362.259	8.8
362.623	8.75
362.987	8.7
363.351	8.62
363.714	8.61
364.078	8.58
364.442	8.55
364.806	8.47
365.169	8.49
365.533	8.47
365.896	8.33
366.26	8.28
366.623	8.2
366.987	8.14
367.35	8.17
367.714	8.08
368.077	7.98
368.44	7.96
368.803	7.93
369.167	7.87
369.53	7.83
369.893	7.78
370.256	7.74
370.619	7.58
370.982	7.53
371.345	7.46
371.708	7.45
372.071	7.34
372.434	7.27
372.797	7.21
373.159	7.08
373.522	7.09
373.885	6.99
374.247	6.94
374.61	6.9
374.973	6.78
375.335	6.71
375.698	6.72
376.06	6.61
376.423	6.57
376.785	6.54
377.147	6.49
377.51	6.43
377.872	6.35
378.234	6.32
378.596	6.38
378.958	6.33
379.321	6.26
379.683	6.23
380.045	6.21
380.407	6.08
380.769	6.09
381.13	5.99
381.492	5.96
381.854	5.93
382.216	5.9
382.578	5.88
382.939	5.83
383.301	5.77
383.663	5.76
384.024	5.7
384.386	5.67
384.747	5.61
385.109	5.59
385.47	5.63
385.832	5.64
386.193	5.61
386.554	5.52
386.916	5.5
387.277	5.51
387.638	5.47
387.999	5.49
388.36	5.46
388.721	5.44
389.082	5.41
389.443	5.37
389.804	5.3
390.165	5.28
390.526	5.28
390.887	5.25
391.248	5.19
391.609	5.17
391.969	5.15
392.33	5.11
392.691	5.06
393.051	5
393.412	4.95
393.772	4.88
394.133	4.9
394.493	4.89
394.854	4.85
395.214	4.8
395.574	4.74
395.935	4.67
396.295	4.65
396.655	4.64
397.015	4.62
397.376	4.58
397.736	4.52
398.096	4.49
398.456	4.5
398.816	4.51
399.176	4.49
399.535	4.42
399.895	4.41
400.255	4.39
400.615	4.36
400.975	4.34
401.334	4.31
401.694	4.29
402.054	4.28
402.413	4.24
402.773	4.25
403.132	4.22
403.492	4.24
403.851	4.2
404.211	4.18
404.57	4.19
404.929	4.2
405.288	4.19
405.648	4.17
406.007	4.17
406.366	4.11
406.725	4.09
407.084	4.09
407.443	4.06
407.802	4.07
408.161	4.09
408.52	4.08
408.879	4.06
409.238	4.06
409.596	4.03
409.955	4
410.314	3.98
410.673	4
411.031	3.98
411.39	3.98
411.748	4
412.107	3.96
412.465	3.96
412.824	3.94
413.182	3.92
413.54	3.89
413.899	3.92
414.257	3.9
414.615	3.89
414.974	3.88
415.332	3.85
415.69	3.82
416.048	3.81
416.406	3.8
416.764	3.77
417.122	3.76
417.48	3.75
417.838	3.72
418.195	3.69
418.553	3.67
418.911	3.68
419.269	3.66
419.626	3.66
419.984	3.64
420.342	3.64
420.699	3.63
421.057	3.61
421.414	3.59
421.772	3.58
422.129	3.58
422.486	3.58
422.844	3.57
423.201	3.56
423.558	3.53
423.915	3.53
424.273	3.52
424.63	3.52
424.987	3.52
425.344	3.51
425.701	3.51
426.058	3.5
426.415	3.47
426.772	3.48
427.128	3.45
427.485	3.45
427.842	3.44
428.199	3.43
428.555	3.41
428.912	3.39
429.269	3.37
429.625	3.35
429.982	3.34
430.338	3.34
430.695	3.31
431.051	3.32
431.407	3.34
431.764	3.32
432.12	3.32
432.476	3.32
432.832	3.31
433.189	3.29
433.545	3.3
433.901	3.3
434.257	3.29
434.613	3.28
434.969	3.28
435.325	3.29
435.681	3.3
436.036	3.32
436.392	3.33
436.748	3.33
437.104	3.33
437.459	3.33
437.815	3.35
438.171	3.38
438.526	3.38
438.882	3.35
439.237	3.35
439.593	3.36
439.948	3.36
440.304	3.37
440.659	3.37
441.014	3.36
441.369	3.35
441.725	3.34
442.08	3.35
442.435	3.35
442.79	3.34
443.145	3.33
443.5	3.33
443.855	3.33
444.21	3.33
444.565	3.32
444.92	3.31
445.275	3.29
445.629	3.27
445.984	3.27
446.339	3.27
446.693	3.27
447.048	3.24
447.403	3.23
447.757	3.24
448.112	3.24
448.466	3.23
448.82	3.25
449.175	3.24
449.529	3.24
449.883	3.24
450.238	3.26
450.592	3.27
450.946	3.26
451.3	3.24
451.654	3.22
452.008	3.22
452.362	3.2
452.716	3.2
453.07	3.2
453.424	3.18
453.778	3.18
454.132	3.18
454.486	3.19
454.839	3.19
455.193	3.17
455.547	3.18
455.9	3.2
456.254	3.2
456.607	3.2
456.961	3.18
457.314	3.17
457.668	3.13
458.021	3.12
458.375	3.11
458.728	3.11
459.081	3.13
459.434	3.13
459.787	3.16
460.141	3.15
460.494	3.15
460.847	3.16
461.2	3.17
461.553	3.17
461.906	3.19
462.259	3.19
462.611	3.2
462.964	3.21
463.317	3.2
463.67	3.2
464.022	3.21
464.375	3.22
464.728	3.24
465.08	3.26
465.433	3.28
465.785	3.29
466.138	3.29
466.49	3.3
466.843	3.32
467.195	3.31
467.547	3.33
467.899	3.36
468.252	3.38
468.604	3.38
468.956	3.38
469.308	3.38
469.66	3.4
470.012	3.39
470.364	3.38
470.716	3.4
471.068	3.4
471.42	3.39
471.772	3.39
472.123	3.39
472.475	3.4
472.827	3.39
473.178	3.38
473.53	3.41
473.882	3.4
474.233	3.39
474.585	3.38
474.936	3.39
475.288	3.38
475.639	3.38
475.99	3.36
476.342	3.36
476.693	3.35
477.044	3.36
477.395	3.37
477.746	3.38
478.097	3.37
478.448	3.38
478.8	3.39
479.15	3.39
479.501	3.39
479.852	3.38
480.203	3.4
480.554	3.4
480.905	3.41
481.255	3.41
481.606	3.41
481.957	3.42
482.307	3.42
482.658	3.42
483.009	3.41
483.359	3.42
483.709	3.41
484.06	3.41
484.41	3.4
484.761	3.4
485.111	3.4
485.461	3.39
485.811	3.39
486.162	3.38
486.512	3.39
486.862	3.38
487.212	3.39
487.562	3.39
487.912	3.39
488.262	3.38
488.612	3.38
488.961	3.38
489.311	3.37
489.661	3.37
490.011	3.37
490.36	3.38
490.71	3.38
491.06	3.39
491.409	3.39
491.759	3.4
492.108	3.4
492.458	3.39
492.807	3.4
493.157	3.42
493.506	3.42
493.855	3.43
494.204	3.45
494.554	3.46
494.903	3.46
495.252	3.46
495.601	3.48
495.95	3.5
496.299	3.51
496.648	3.54
496.997	3.55
497.346	3.57
497.695	3.59
498.043	3.62
498.392	3.62
498.741	3.63
499.09	3.66
499.438	3.68
499.787	3.72
500.135	3.76
500.484	3.77
500.832	3.78
501.181	3.82
501.529	3.86
501.878	3.86
502.226	3.88
502.574	3.93
502.923	3.95
503.271	3.97
503.619	4.01
503.967	4.04
504.315	4.09
504.663	4.12
505.011	4.13
505.359	4.14
505.707	4.19
506.055	4.23
506.403	4.25
506.751	4.3
507.098	4.33
507.446	4.36
507.794	4.39
508.141	4.45
508.489	4.48
508.837	4.51
509.184	4.57
509.531	4.62
509.879	4.64
510.226	4.67
510.574	4.74
510.921	4.76
511.268	4.81
511.616	4.85
511.963	4.9
512.31	4.97
512.657	5.05
513.004	5.09
513.351	5.15
513.698	5.21
514.045	5.29
514.392	5.37
514.739	5.47
515.086	5.57
515.432	5.65
515.779	5.71
516.126	5.79
516.473	5.86
516.819	5.93
517.166	6.02
517.512	6.1
517.859	6.16
518.205	6.23
518.552	6.29
518.898	6.34
519.245	6.42
519.591	6.47
519.937	6.56
520.283	6.65
520.629	6.74
520.976	6.84
521.322	6.92
521.668	6.99
522.014	7.06
522.36	7.17
522.706	7.27
523.052	7.39
523.398	7.5
523.743	7.62
524.089	7.76
524.435	7.86
524.781	7.98
525.126	8.09
525.472	8.21
525.817	8.31
526.163	8.39
526.509	8.48
526.854	8.56
527.199	8.64
527.545	8.7
527.89	8.77
528.235	8.83
528.581	8.9
528.926	8.98
529.271	9.06
529.616	9.13
529.961	9.2
530.306	9.27
530.651	9.34
530.996	9.43
531.341	9.51
531.686	9.62
532.031	9.71
532.376	9.82
532.721	9.91
533.065	10.01
533.41	10.14
533.755	10.23
534.099	10.35
534.444	10.45
534.788	10.56
535.133	10.66
535.477	10.78
535.822	10.9
536.166	11.05
536.51	11.21
536.855	11.37
537.199	11.54
537.543	11.71
537.887	11.9
538.231	12.07
538.576	12.26
538.92	12.44
539.264	12.59
539.608	12.73
539.951	12.89
540.295	13.06
540.639	13.2
540.983	13.34
541.327	13.49
541.671	13.66
542.014	13.82
542.358	13.98
542.701	14.13
543.045	14.29
543.389	14.45
543.732	14.61
544.075	14.77
544.419	14.96
544.762	15.13
545.105	15.33
545.449	15.53
545.792	15.74
546.135	15.93
546.478	16.19
546.821	16.43
547.165	16.65
547.508	16.89
547.851	17.14
548.194	17.41
548.536	17.67
548.879	17.93
549.222	18.2
549.565	18.46
549.908	18.75
550.25	19.02
550.593	19.28
550.936	19.55
551.278	19.88
551.621	20.13
551.963	20.42
552.306	20.7
552.648	20.99
552.991	21.25
553.333	21.58
553.675	21.87
554.017	22.17
554.36	22.49
554.702	22.81
555.044	23.09
555.386	23.39
555.728	23.71
556.07	24.02
556.412	24.33
556.754	24.65
557.096	25
557.438	25.36
557.78	25.69
558.121	26.03
558.463	26.35
558.805	26.72
559.147	27.09
559.488	27.42
559.83	27.72
560.171	28.08
560.513	28.38
560.854	28.68
561.196	29.02
561.537	29.36
561.878	29.73
562.22	30.1
562.561	30.45
562.902	30.75
563.243	31.05
563.584	31.4
563.925	31.7
564.266	32.04
564.607	32.35
564.948	32.66
565.289	32.97
565.63	33.28
565.971	33.54
566.312	33.83
566.653	34.18
566.993	34.53
567.334	34.88
567.675	35.22
568.015	35.56
568.356	35.84
568.696	36.12
569.037	36.43
569.377	36.69
569.718	36.97
570.058	37.3
570.398	37.63
570.739	37.87
571.079	38.22
571.419	38.45
571.759	38.72
572.099	39.03
572.439	39.35
572.779	39.62
573.119	39.85
573.459	40.14
573.799	40.36
574.139	40.57
574.479	40.75
574.819	41.03
575.158	41.28
575.498	41.56
575.838	41.83
576.177	42.03
576.517	42.36
576.856	42.66
577.196	42.96
577.535	43.2
577.875	43.5
578.214	43.71
578.553	44.03
578.893	44.33
579.232	44.51
579.571	44.72
579.91	44.94
580.25	45.31
580.589	45.56
580.928	45.82
581.267	46.14
581.606	46.43
581.945	46.64
582.283	46.9
582.622	47.1
582.961	47.33
583.3	47.56
583.639	47.7
583.977	47.91
584.316	48.1
584.654	48.36
584.993	48.62
585.332	48.9
585.67	49.15
586.008	49.34
586.347	49.62
586.685	49.8
587.024	50.05
587.362	50.21
587.7	50.46
588.038	50.64
588.376	50.83
588.715	50.97
589.053	51.17
589.391	51.36
589.729	51.63
590.067	51.82
590.404	52.03
590.742	52.27
591.08	52.42
591.418	52.66
591.756	52.78
592.093	52.92
592.431	53.12
592.769	53.25
593.106	53.43
593.444	53.58
593.781	53.8
594.119	53.97
594.456	54.11
594.793	54.27
595.131	54.48
595.468	54.62
595.805	54.78
596.143	54.77
596.48	54.96
596.817	55.06
597.154	55.24
597.491	55.35
597.828	55.5
598.165	55.62
598.502	55.76
598.839	55.9
599.176	56.02
599.512	56.14
599.849	56.29
600.186	56.36
600.523	56.48
600.859	56.55
601.196	56.65
601.532	56.78
601.869	56.81
602.205	56.93
602.542	57.04
602.878	57.2
603.215	57.4
603.551	57.41
603.887	57.51
604.223	57.51
604.56	57.6
604.896	57.69
605.232	57.74
605.568	57.79
605.904	57.88
606.24	58.01
606.576	58.06
606.912	58.17
607.248	58.41
607.583	58.53
607.919	58.66
608.255	58.77
608.591	58.88
608.926	58.96
609.262	58.97
609.597	59.12
609.933	59.2
610.268	59.3
610.604	59.41
610.939	59.52
611.275	59.65
611.61	59.73
611.945	59.73
612.281	59.89
612.616	60.01
612.951	60.16
613.286	60.23
613.621	60.29
613.956	60.39
614.291	60.36
614.626	60.38
614.961	60.54
615.296	60.64
615.631	60.71
615.966	60.84
616.3	60.89
616.635	60.92
616.97	60.98
617.304	61.05
617.639	61.16
617.973	61.21
618.308	61.34
618.642	61.41
618.977	61.55
619.311	61.63
619.646	61.64
619.98	61.68
620.314	61.8
620.648	61.91
620.983	61.85
621.317	61.89
621.651	62
621.985	61.99
622.319	62.05
622.653	62.05
622.987	62.13
623.321	62.26
623.655	62.32
623.988	62.48
624.322	62.46
624.656	62.43
624.99	62.38
625.323	62.32
625.657	62.34
625.99	62.33
626.324	62.38
626.657	62.33
626.991	62.37
627.324	62.35
627.658	62.43
627.991	62.53
628.324	62.65
628.657	62.62
628.991	62.65
629.324	62.7
629.657	62.78
629.99	62.83
630.323	62.87
630.656	62.89
630.989	62.83
631.322	62.97
631.655	63
631.987	63.09
632.32	63.11
632.653	63.18
632.986	63.17
633.318	63.29
633.651	63.34
633.984	63.39
634.316	63.47
634.649	63.5
634.981	63.58
635.313	63.5
635.646	63.6
635.978	63.61
636.31	63.65
636.643	63.71
636.975	63.66
637.307	63.67
637.639	63.6
637.971	63.59
638.303	63.43
638.635	63.51
638.967	63.57
639.299	63.62
639.631	63.61
639.963	63.69
640.295	63.66
640.626	63.68
640.958	63.72
641.29	63.72
641.621	63.76
641.953	63.67
642.285	63.8
642.616	63.86
642.948	64.03
643.279	64.04
643.61	64.03
643.942	64.27
644.273	64.33
644.604	64.5
644.936	64.6
645.267	64.84
645.598	64.91
645.929	65.01
646.26	65.2
646.591	65.27
646.922	65.3
647.253	65.31
647.584	65.43
647.915	65.48
648.245	65.53
648.576	65.66
648.907	65.73
649.238	65.8
649.568	65.86
649.899	65.81
650.229	65.83
650.56	65.85
650.89	65.7
651.221	65.83
651.551	65.75
651.882	65.64
652.212	65.74
652.542	65.68
652.872	65.69
653.203	65.67
653.533	65.65
653.863	65.66
654.193	65.5
654.523	65.63
654.853	65.54
655.183	65.53
655.513	65.44
655.843	65.55
656.172	65.44
656.502	65.38
656.832	65.37
657.162	65.37
657.491	65.31
657.821	65.4
658.15	65.34
658.48	65.45
658.809	65.49
659.139	65.45
659.468	65.56
659.798	65.48
660.127	65.49
660.456	65.56
660.785	65.65
661.115	65.77
661.444	65.65
661.773	65.67
662.102	65.74
662.431	65.67
662.76	65.67
663.089	65.72
663.418	65.8
663.747	65.88
664.076	65.88
664.404	66.03
664.733	66.07
665.062	66.04
665.39	66.11
665.719	66.03
666.048	65.97
666.376	65.95
666.705	65.98
667.033	65.98
667.362	65.95
667.69	65.94
668.018	65.96
668.347	66.06
668.675	66.1
669.003	66.07
