Data from BU57994_Reflection_00008.txt Node
Date: Mon Nov 18 16:53:12 EST 2019
User: vgr7
Spectrometer: USB2G7710
Scans to average: 3
Trigger mode: 4
Integration Time (sec): 2.000000E-2
Electric dark correction enabled: true
Boxcar width: 10
XAxis mode: Wavelengths
Number of Pixels in Spectrum: 2048
>>>>>Begin Spectral Data<<<<<
177.721	108.75
178.105	64.39
178.488	75.72
178.871	114.78
179.254	53.03
179.636	33.39
180.019	89.75
180.402	73.08
180.785	25.7
181.168	-1212.5
181.55	87.32
181.933	96.01
182.316	67.83
182.698	66.14
183.081	65.92
183.463	44.84
183.846	100
184.228	57.12
184.611	66.8
184.993	341.61
185.376	-53.26
185.758	-232.18
186.14	-407.55
186.522	-135.04
186.904	-122.88
187.287	-143.5
187.669	-81.42
188.051	-108.37
188.433	-118.09
188.815	-83.77
189.197	-58.69
189.579	-47.69
189.961	-30.65
190.342	-41.85
190.724	-29.18
191.106	-24.11
191.488	-16.84
191.869	-16.32
192.251	-21.91
192.633	-37.62
193.014	-55.19
193.396	-70.03
193.777	-81.19
194.159	-79.26
194.54	-94.88
194.922	-68.12
195.303	-98.52
195.684	-128.06
196.065	-91.63
196.447	-93.37
196.828	-108.59
197.209	-99.91
197.59	-107.8
197.971	-141.77
198.352	-92.39
198.733	-90.98
199.114	-68.85
199.495	-61.49
199.876	-61.01
200.257	-53.3
200.638	-41.11
201.018	-39.15
201.399	-36.57
201.78	-17.85
202.16	-24.48
202.541	-27.89
202.922	-71.63
203.302	-60.03
203.683	-53.36
204.063	-79.52
204.444	-89.14
204.824	-73.09
205.204	-82.28
205.585	-82.95
205.965	-76.96
206.345	-97.77
206.725	-101.87
207.106	-149.45
207.486	-232.26
207.866	-194.59
208.246	-247.41
208.626	-286.67
209.006	-242.01
209.386	-223.19
209.766	-151.08
210.145	-126.29
210.525	-83.53
210.905	-59.97
211.285	-45.83
211.664	-39.37
212.044	-23.02
212.424	-16.23
212.803	-36.46
213.183	-39.15
213.562	-19.62
213.942	-13.64
214.321	-0.1
214.701	-1.37
215.08	2.97
215.459	2.89
215.838	6.78
216.218	13.74
216.597	21.51
216.976	8.89
217.355	6.34
217.734	-3.72
218.113	-8.37
218.492	-6.35
218.871	-12.23
219.25	-19.45
219.629	-20.09
220.008	-31.99
220.387	-26
220.766	-15.92
221.144	-1.09
221.523	-11.35
221.902	-12.88
222.28	-22.25
222.659	-12.13
223.037	3.84
223.416	1.15
223.794	-1.85
224.173	-6.33
224.551	-6.91
224.929	1.63
225.308	2.46
225.686	8.34
226.064	11.99
226.442	10.08
226.821	11.43
227.199	14.73
227.577	12.45
227.955	11.71
228.333	11.36
228.711	9.41
229.089	9.89
229.467	9.19
229.845	8.55
230.222	9.03
230.6	6.72
230.978	3.96
231.356	7.95
231.733	7.61
232.111	9.17
232.488	8.64
232.866	7.37
233.243	7.96
233.621	5.81
233.998	6.03
234.376	5.19
234.753	6.09
235.13	7.36
235.508	8.9
235.885	8.7
236.262	7.18
236.639	7.85
237.016	6.68
237.393	7.01
237.77	6.93
238.147	7.23
238.524	7.52
238.901	7.43
239.278	6.85
239.655	7.12
240.032	6.88
240.409	6.28
240.785	6.49
241.162	6.34
241.539	6.46
241.915	6.07
242.292	5.71
242.668	5.35
243.045	5.11
243.421	4.57
243.798	4.65
244.174	4.89
244.551	4.58
244.927	4.28
245.303	4.61
245.679	4.66
246.056	4.48
246.432	4.33
246.808	4.36
247.184	3.98
247.56	3.82
247.936	3.74
248.312	3.78
248.688	3.72
249.064	3.5
249.44	3.43
249.815	3.55
250.191	3.58
250.567	3.54
250.943	3.31
251.318	3.56
251.694	3.54
252.069	3.46
252.445	3.59
252.82	3.82
253.196	3.57
253.571	3.58
253.947	3.63
254.322	3.91
254.697	3.65
255.073	3.86
255.448	3.75
255.823	3.58
256.198	3.63
256.573	3.47
256.948	3.59
257.323	3.98
257.698	3.78
258.073	3.85
258.448	3.99
258.823	4.17
259.198	4.04
259.573	3.87
259.948	3.8
260.322	3.79
260.697	3.68
261.072	3.59
261.446	3.58
261.821	3.55
262.195	3.4
262.57	3.49
262.944	3.52
263.319	3.52
263.693	3.62
264.067	3.69
264.442	3.89
264.816	3.97
265.19	3.8
265.564	3.84
265.938	3.73
266.313	3.63
266.687	3.42
267.061	3.39
267.435	3.42
267.809	3.38
268.183	3.5
268.556	3.55
268.93	3.65
269.304	3.64
269.678	3.7
270.051	3.69
270.425	3.73
270.799	3.65
271.172	3.73
271.546	3.71
271.919	3.76
272.293	3.77
272.666	3.83
273.04	3.81
273.413	3.88
273.787	3.88
274.16	3.92
274.533	3.87
274.906	3.83
275.279	3.89
275.653	3.93
276.026	3.73
276.399	3.72
276.772	3.79
277.145	3.72
277.518	3.71
277.891	3.82
278.263	3.78
278.636	3.67
279.009	3.69
279.382	3.83
279.755	3.65
280.127	3.74
280.5	3.65
280.872	3.75
281.245	3.68
281.617	3.78
281.99	3.76
282.362	3.96
282.735	3.86
283.107	3.85
283.479	3.86
283.852	3.97
284.224	3.98
284.596	3.97
284.968	4.05
285.34	4.09
285.713	4.05
286.085	3.98
286.457	4.08
286.829	4.05
287.201	3.91
287.572	3.93
287.944	3.83
288.316	3.82
288.688	3.77
289.06	3.87
289.431	3.88
289.803	3.98
290.175	3.9
290.546	4.17
290.918	4.27
291.289	4.2
291.661	4.18
292.032	4.29
292.403	4.24
292.775	4.29
293.146	4.22
293.517	4.03
293.889	4.15
294.26	4.21
294.631	4.32
295.002	4.34
295.373	4.39
295.744	4.46
296.115	4.44
296.486	4.49
296.857	4.43
297.228	4.55
297.599	4.43
297.97	4.51
298.34	4.46
298.711	4.48
299.082	4.63
299.452	4.63
299.823	4.72
300.194	4.72
300.564	4.75
300.935	4.9
301.305	5.18
301.676	5.31
302.046	5.49
302.416	5.42
302.787	5.34
303.157	5.29
303.527	5.3
303.897	5.46
304.267	5.62
304.637	5.8
305.008	5.84
305.378	6.04
305.748	6.11
306.117	6.18
306.487	6.28
306.857	6.29
307.227	6.48
307.597	6.44
307.967	6.63
308.336	6.72
308.706	6.74
309.076	6.76
309.445	6.78
309.815	6.69
310.184	6.85
310.554	7.12
310.923	7.28
311.293	7.33
311.662	7.35
312.031	7.29
312.401	7.32
312.77	7.53
313.139	7.53
313.508	7.6
313.877	7.67
314.246	7.82
314.616	8.01
314.985	8.19
315.353	8.35
315.722	8.53
316.091	8.41
316.46	8.47
316.829	8.63
317.198	8.77
317.567	8.73
317.935	8.68
318.304	8.75
318.672	8.81
319.041	9
319.41	9.2
319.778	9.28
320.147	9.28
320.515	8.99
320.883	9.08
321.252	9.12
321.62	9.24
321.988	9.23
322.357	9.25
322.725	9.22
323.093	9.37
323.461	9.32
323.829	9.63
324.197	9.64
324.565	9.64
324.933	9.66
325.301	9.87
325.669	9.96
326.037	10.12
326.405	10.21
326.772	10.21
327.14	10.26
327.508	10.22
327.875	10.27
328.243	10.56
328.61	10.6
328.978	10.72
329.346	10.82
329.713	10.76
330.08	10.82
330.448	10.8
330.815	10.69
331.182	10.68
331.55	10.6
331.917	10.78
332.284	10.85
332.651	11.04
333.018	11.16
333.385	11.36
333.752	11.36
334.119	11.45
334.486	11.49
334.853	11.39
335.22	11.59
335.587	11.72
335.954	11.73
336.32	11.77
336.687	11.7
337.054	11.68
337.42	11.84
337.787	11.77
338.153	11.85
338.52	11.89
338.886	11.9
339.253	11.98
339.619	11.86
339.986	11.95
340.352	11.93
340.718	11.84
341.084	11.66
341.451	11.61
341.817	11.67
342.183	11.74
342.549	11.77
342.915	11.86
343.281	11.87
343.647	11.88
344.013	12.04
344.379	12.04
344.745	12.1
345.11	12.05
345.476	12.1
345.842	12.11
346.208	12.16
346.573	12.28
346.939	12.38
347.304	12.49
347.67	12.44
348.035	12.29
348.401	12.32
348.766	12.43
349.132	12.46
349.497	12.43
349.862	12.37
350.228	12.49
350.593	12.34
350.958	12.28
351.323	12.33
351.688	12.19
352.053	12.28
352.418	12.22
352.783	12.32
353.148	12.33
353.513	12.38
353.878	12.37
354.243	12.32
354.608	12.33
354.972	12.39
355.337	12.42
355.702	12.45
356.066	12.4
356.431	12.33
356.795	12.28
357.16	12.3
357.524	12.33
357.889	12.21
358.253	12.26
358.618	12.31
358.982	12.17
359.346	12.05
359.71	12.02
360.075	12.01
360.439	11.95
360.803	11.91
361.167	11.79
361.531	11.73
361.895	11.58
362.259	11.45
362.623	11.36
362.987	11.34
363.351	11.28
363.714	11.25
364.078	11.27
364.442	11.19
364.806	11.19
365.169	11.04
365.533	11.05
365.896	10.94
366.26	10.81
366.623	10.79
366.987	10.74
367.35	10.67
367.714	10.6
368.077	10.47
368.44	10.36
368.803	10.37
369.167	10.31
369.53	10.29
369.893	10.22
370.256	10.14
370.619	10.05
370.982	9.94
371.345	9.8
371.708	9.77
372.071	9.77
372.434	9.55
372.797	9.5
373.159	9.4
373.522	9.34
373.885	9.24
374.247	9.14
374.61	9.09
374.973	9.02
375.335	8.87
375.698	8.78
376.06	8.7
376.423	8.62
376.785	8.53
377.147	8.46
377.51	8.42
377.872	8.37
378.234	8.28
378.596	8.37
378.958	8.3
379.321	8.21
379.683	8.09
380.045	8.03
380.407	7.99
380.769	7.92
381.13	7.81
381.492	7.73
381.854	7.69
382.216	7.66
382.578	7.61
382.939	7.55
383.301	7.51
383.663	7.44
384.024	7.31
384.386	7.3
384.747	7.28
385.109	7.27
385.47	7.18
385.832	7.16
386.193	7.04
386.554	7.04
386.916	6.97
387.277	6.99
387.638	6.97
387.999	6.85
388.36	6.81
388.721	6.8
389.082	6.77
389.443	6.69
389.804	6.59
390.165	6.5
390.526	6.48
390.887	6.46
391.248	6.47
391.609	6.45
391.969	6.4
392.33	6.33
392.691	6.29
393.051	6.26
393.412	6.2
393.772	6.14
394.133	6.11
394.493	6.05
394.854	5.95
395.214	5.91
395.574	5.93
395.935	5.87
396.295	5.85
396.655	5.83
397.015	5.8
397.376	5.8
397.736	5.77
398.096	5.72
398.456	5.68
398.816	5.6
399.176	5.54
399.535	5.44
399.895	5.4
400.255	5.35
400.615	5.3
400.975	5.26
401.334	5.2
401.694	5.14
402.054	5.12
402.413	5.11
402.773	5.06
403.132	5
403.492	5.02
403.851	4.96
404.211	4.94
404.57	4.91
404.929	4.92
405.288	4.89
405.648	4.89
406.007	4.86
406.366	4.87
406.725	4.91
407.084	4.91
407.443	4.9
407.802	4.89
408.161	4.9
408.52	4.87
408.879	4.88
409.238	4.9
409.596	4.86
409.955	4.82
410.314	4.83
410.673	4.82
411.031	4.77
411.39	4.74
411.748	4.72
412.107	4.74
412.465	4.69
412.824	4.68
413.182	4.63
413.54	4.62
413.899	4.57
414.257	4.52
414.615	4.51
414.974	4.55
415.332	4.49
415.69	4.46
416.048	4.46
416.406	4.45
416.764	4.39
417.122	4.4
417.48	4.39
417.838	4.39
418.195	4.37
418.553	4.35
418.911	4.34
419.269	4.33
419.626	4.31
419.984	4.29
420.342	4.28
420.699	4.29
421.057	4.28
421.414	4.28
421.772	4.27
422.129	4.26
422.486	4.22
422.844	4.23
423.201	4.22
423.558	4.18
423.915	4.19
424.273	4.19
424.63	4.16
424.987	4.16
425.344	4.14
425.701	4.13
426.058	4.14
426.415	4.12
426.772	4.12
427.128	4.11
427.485	4.11
427.842	4.09
428.199	4.08
428.555	4.06
428.912	4.07
429.269	4.06
429.625	4.05
429.982	4.04
430.338	4.04
430.695	4.06
431.051	4.09
431.407	4.08
431.764	4.11
432.12	4.12
432.476	4.11
432.832	4.1
433.189	4.11
433.545	4.08
433.901	4.08
434.257	4.08
434.613	4.07
434.969	4.08
435.325	4.09
435.681	4.09
436.036	4.1
436.392	4.06
436.748	4.05
437.104	4.05
437.459	4.05
437.815	4.07
438.171	4.05
438.526	4.04
438.882	4.02
439.237	4.01
439.593	4.02
439.948	4.02
440.304	4.01
440.659	4.01
441.014	4.02
441.369	4.03
441.725	4.02
442.08	4.03
442.435	4.03
442.79	4.02
443.145	4.01
443.5	3.99
443.855	4
444.21	4.02
444.565	4.02
444.92	4.02
445.275	3.99
445.629	3.99
445.984	3.99
446.339	3.98
446.693	3.96
447.048	3.93
447.403	3.91
447.757	3.9
448.112	3.89
448.466	3.89
448.82	3.87
449.175	3.87
449.529	3.85
449.883	3.84
450.238	3.81
450.592	3.81
450.946	3.81
451.3	3.81
451.654	3.78
452.008	3.76
452.362	3.72
452.716	3.72
453.07	3.71
453.424	3.7
453.778	3.71
454.132	3.72
454.486	3.71
454.839	3.73
455.193	3.74
455.547	3.74
455.9	3.74
456.254	3.75
456.607	3.75
456.961	3.76
457.314	3.75
457.668	3.75
458.021	3.75
458.375	3.74
458.728	3.73
459.081	3.73
459.434	3.74
459.787	3.76
460.141	3.76
460.494	3.76
460.847	3.77
461.2	3.76
461.553	3.78
461.906	3.78
462.259	3.79
462.611	3.8
462.964	3.8
463.317	3.82
463.67	3.82
464.022	3.82
464.375	3.82
464.728	3.82
465.08	3.85
465.433	3.87
465.785	3.88
466.138	3.9
466.49	3.94
466.843	3.95
467.195	3.98
467.547	3.99
467.899	4
468.252	4.01
468.604	4.02
468.956	4.01
469.308	4.03
469.66	4.01
470.012	3.99
470.364	4
470.716	4.01
471.068	4.03
471.42	4.04
471.772	4.07
472.123	4.09
472.475	4.09
472.827	4.1
473.178	4.12
473.53	4.13
473.882	4.11
474.233	4.14
474.585	4.12
474.936	4.13
475.288	4.12
475.639	4.13
475.99	4.16
476.342	4.16
476.693	4.15
477.044	4.18
477.395	4.18
477.746	4.19
478.097	4.19
478.448	4.17
478.8	4.17
479.15	4.13
479.501	4.13
479.852	4.13
480.203	4.12
480.554	4.1
480.905	4.1
481.255	4.09
481.606	4.09
481.957	4.09
482.307	4.09
482.658	4.09
483.009	4.08
483.359	4.07
483.709	4.07
484.06	4.07
484.41	4.07
484.761	4.08
485.111	4.07
485.461	4.08
485.811	4.07
486.162	4.07
486.512	4.08
486.862	4.07
487.212	4.06
487.562	4.07
487.912	4.07
488.262	4.08
488.612	4.09
488.961	4.09
489.311	4.08
489.661	4.09
490.011	4.1
490.36	4.08
490.71	4.09
491.06	4.09
491.409	4.1
491.759	4.11
492.108	4.12
492.458	4.11
492.807	4.11
493.157	4.14
493.506	4.16
493.855	4.16
494.204	4.2
494.554	4.21
494.903	4.22
495.252	4.24
495.601	4.24
495.95	4.26
496.299	4.28
496.648	4.3
496.997	4.31
497.346	4.35
497.695	4.4
498.043	4.42
498.392	4.45
498.741	4.48
499.09	4.5
499.438	4.54
499.787	4.6
500.135	4.66
500.484	4.69
500.832	4.73
501.181	4.79
501.529	4.82
501.878	4.87
502.226	4.93
502.574	4.99
502.923	5.05
503.271	5.09
503.619	5.16
503.967	5.25
504.315	5.3
504.663	5.36
505.011	5.44
505.359	5.53
505.707	5.6
506.055	5.7
506.403	5.8
506.751	5.88
507.098	5.95
507.446	6.03
507.794	6.12
508.141	6.21
508.489	6.3
508.837	6.4
509.184	6.52
509.531	6.63
509.879	6.75
510.226	6.88
510.574	7
510.921	7.1
511.268	7.19
511.616	7.34
511.963	7.47
512.31	7.59
512.657	7.73
513.004	7.87
513.351	8.02
513.698	8.21
514.045	8.37
514.392	8.57
514.739	8.73
515.086	8.91
515.432	9.1
515.779	9.27
516.126	9.46
516.473	9.63
516.819	9.79
517.166	9.93
517.512	10.1
517.859	10.25
518.205	10.4
518.552	10.55
518.898	10.7
519.245	10.86
519.591	11.04
519.937	11.21
520.283	11.4
520.629	11.59
520.976	11.76
521.322	11.97
521.668	12.15
522.014	12.37
522.36	12.6
522.706	12.85
523.052	13.14
523.398	13.39
523.743	13.66
524.089	13.95
524.435	14.21
524.781	14.45
525.126	14.71
525.472	14.93
525.817	15.15
526.163	15.36
526.509	15.54
526.854	15.68
527.199	15.85
527.545	16
527.89	16.14
528.235	16.3
528.581	16.43
528.926	16.6
529.271	16.75
529.616	16.92
529.961	17.06
530.306	17.24
530.651	17.4
530.996	17.56
531.341	17.74
531.686	17.93
532.031	18.12
532.376	18.32
532.721	18.53
533.065	18.75
533.41	18.95
533.755	19.17
534.099	19.41
534.444	19.6
534.788	19.83
535.133	20.05
535.477	20.25
535.822	20.51
536.166	20.74
536.51	21.02
536.855	21.3
537.199	21.58
537.543	21.85
537.887	22.15
538.231	22.44
538.576	22.74
538.92	23.04
539.264	23.31
539.608	23.57
539.951	23.82
540.295	24.03
540.639	24.27
540.983	24.49
541.327	24.73
541.671	24.97
542.014	25.19
542.358	25.39
542.701	25.64
543.045	25.83
543.389	26.04
543.732	26.25
544.075	26.49
544.419	26.74
544.762	26.96
545.105	27.22
545.449	27.52
545.792	27.8
546.135	28.09
546.478	28.4
546.821	28.7
547.165	29.05
547.508	29.4
547.851	29.71
548.194	30.05
548.536	30.35
548.879	30.72
549.222	31.06
549.565	31.41
549.908	31.71
550.25	32.07
550.593	32.48
550.936	32.82
551.278	33.12
551.621	33.41
551.963	33.77
552.306	34.12
552.648	34.44
552.991	34.77
553.333	35.03
553.675	35.3
554.017	35.63
554.36	35.9
554.702	36.17
555.044	36.5
555.386	36.77
555.728	37.1
556.07	37.41
556.412	37.67
556.754	37.96
557.096	38.33
557.438	38.66
557.78	38.98
558.121	39.28
558.463	39.61
558.805	39.98
559.147	40.33
559.488	40.63
559.83	40.92
560.171	41.19
560.513	41.53
560.854	41.82
561.196	42.06
561.537	42.36
561.878	42.72
562.22	43.03
562.561	43.31
562.902	43.58
563.243	43.85
563.584	44.15
563.925	44.46
564.266	44.69
564.607	44.92
564.948	45.16
565.289	45.51
565.63	45.75
565.971	46
566.312	46.18
566.653	46.45
566.993	46.7
567.334	46.93
567.675	47.12
568.015	47.37
568.356	47.62
568.696	47.83
569.037	48.06
569.377	48.24
569.718	48.46
570.058	48.66
570.398	48.87
570.739	49.16
571.079	49.4
571.419	49.61
571.759	49.81
572.099	50.02
572.439	50.18
572.779	50.35
573.119	50.52
573.459	50.74
573.799	50.87
574.139	51.08
574.479	51.27
574.819	51.45
575.158	51.57
575.498	51.78
575.838	52.02
576.177	52.11
576.517	52.29
576.856	52.52
577.196	52.71
577.535	52.82
577.875	52.92
578.214	53.09
578.553	53.27
578.893	53.49
579.232	53.59
579.571	53.78
579.91	53.95
580.25	54.05
580.589	54.15
580.928	54.34
581.267	54.46
581.606	54.71
581.945	54.89
582.283	55.16
582.622	55.29
582.961	55.34
583.3	55.51
583.639	55.68
583.977	55.76
584.316	55.85
584.654	56.02
584.993	56.12
585.332	56.21
585.67	56.37
586.008	56.47
586.347	56.62
586.685	56.65
587.024	56.8
587.362	56.93
587.7	57.18
588.038	57.31
588.376	57.38
588.715	57.4
589.053	57.5
589.391	57.64
589.729	57.72
590.067	57.86
590.404	57.97
590.742	58.04
591.08	58.1
591.418	58.23
591.756	58.35
592.093	58.43
592.431	58.49
592.769	58.58
593.106	58.69
593.444	58.86
593.781	59.06
594.119	59.19
594.456	59.32
594.793	59.31
595.131	59.36
595.468	59.43
595.805	59.51
596.143	59.61
596.48	59.61
596.817	59.68
597.154	59.79
597.491	59.86
597.828	59.96
598.165	60.12
598.502	60.18
598.839	60.21
599.176	60.31
599.512	60.48
599.849	60.55
600.186	60.57
600.523	60.61
600.859	60.68
601.196	60.7
601.532	60.82
601.869	60.85
602.205	60.88
602.542	60.96
602.878	61.05
603.215	61.13
603.551	61.24
603.887	61.3
604.223	61.3
604.56	61.3
604.896	61.35
605.232	61.37
605.568	61.35
605.904	61.45
606.24	61.53
606.576	61.49
606.912	61.51
607.248	61.68
607.583	61.67
607.919	61.67
608.255	61.73
608.591	61.75
608.926	61.82
609.262	61.95
609.597	62
609.933	62.03
610.268	62.04
610.604	62.05
610.939	62.07
611.275	62.09
611.61	62.19
611.945	62.21
612.281	62.28
612.616	62.46
612.951	62.47
613.286	62.46
613.621	62.47
613.956	62.53
614.291	62.55
614.626	62.63
614.961	62.64
615.296	62.57
615.631	62.6
615.966	62.67
616.3	62.63
616.635	62.68
616.97	62.68
617.304	62.69
617.639	62.69
617.973	62.71
618.308	62.77
618.642	62.82
618.977	62.8
619.311	62.82
619.646	62.87
619.98	62.98
620.314	63.02
620.648	63.15
620.983	63.26
621.317	63.31
621.651	63.4
621.985	63.41
622.319	63.56
622.653	63.56
622.987	63.66
623.321	63.75
623.655	63.79
623.988	63.8
624.322	63.91
624.656	64.02
624.99	64.12
625.323	64.15
625.657	64.12
625.99	64.14
626.324	64.1
626.657	64.04
626.991	64.03
627.324	64.09
627.658	64.11
627.991	64.11
628.324	64.12
628.657	64.08
628.991	64.1
629.324	64
629.657	63.91
629.99	63.97
630.323	63.93
630.656	63.96
630.989	64
631.322	63.97
631.655	63.9
631.987	63.93
632.32	63.92
632.653	63.99
632.986	64.01
633.318	64.1
633.651	64.18
633.984	64.11
634.316	64.12
634.649	64.21
634.981	64.22
635.313	64.2
635.646	64.31
635.978	64.41
636.31	64.53
636.643	64.72
636.975	64.71
637.307	64.75
637.639	64.77
637.971	64.75
638.303	64.76
638.635	64.71
638.967	64.61
639.299	64.78
639.631	64.8
639.963	64.86
640.295	64.91
640.626	65.04
640.958	65.14
641.29	65.2
641.621	65.05
641.953	65.03
642.285	65.08
642.616	65.16
642.948	65.05
643.279	65.09
643.61	65.01
643.942	64.87
644.273	64.87
644.604	64.87
644.936	64.93
645.267	64.97
645.598	65.09
645.929	65.19
646.26	65.13
646.591	65.08
646.922	65.09
647.253	64.98
647.584	64.86
647.915	64.86
648.245	64.77
648.576	64.8
648.907	64.73
649.238	64.67
649.568	64.49
649.899	64.56
650.229	64.45
650.56	64.54
650.89	64.68
651.221	64.62
651.551	64.62
651.882	64.56
652.212	64.5
652.542	64.51
652.872	64.56
653.203	64.53
653.533	64.61
653.863	64.56
654.193	64.65
654.523	64.74
654.853	64.79
655.183	64.95
655.513	65.02
655.843	65.1
656.172	65.24
656.502	65.34
656.832	65.44
657.162	65.57
657.491	65.59
657.821	65.56
658.15	65.64
658.48	65.74
658.809	65.82
659.139	65.88
659.468	65.88
659.798	65.93
660.127	65.93
660.456	66.01
660.785	66.12
661.115	66.08
661.444	66.04
661.773	66.02
662.102	66.07
662.431	66.09
662.76	66.12
663.089	66.09
663.418	65.97
663.747	65.83
664.076	65.81
664.404	65.82
664.733	65.87
