Data from BU57614_Reflection_00009.txt Node
Date: Mon Nov 18 16:24:31 EST 2019
User: vgr7
Spectrometer: USB2G7710
Scans to average: 3
Trigger mode: 4
Integration Time (sec): 2.000000E-2
Electric dark correction enabled: true
Boxcar width: 10
XAxis mode: Wavelengths
Number of Pixels in Spectrum: 2048
>>>>>Begin Spectral Data<<<<<
177.721	1337.02
178.105	-222.68
178.488	-127.34
178.871	-422.61
179.254	-259.86
179.636	692.23
180.019	-74.43
180.402	1.89
180.785	107.65
181.168	-1627.27
181.55	206.24
181.933	148.09
182.316	168.97
182.698	193.24
183.081	188.06
183.463	201.86
183.846	248.75
184.228	377.07
184.611	309.95
184.993	402
185.376	-12135.29
185.758	-6451.72
186.14	2228.44
186.522	-4340.68
186.904	-1075.97
187.287	-981.85
187.669	-344.16
188.051	-564.61
188.433	-185.71
188.815	-151.22
189.197	-178.42
189.579	-115.26
189.961	-86.38
190.342	-84.59
190.724	-53.38
191.106	-59.74
191.488	-74.04
191.869	-54.22
192.251	-37.38
192.633	-16.71
193.014	-24.07
193.396	-39.97
193.777	-47.94
194.159	-77.43
194.54	-79.06
194.922	-47.38
195.303	-63.48
195.684	-68.41
196.065	-51.51
196.447	-74.32
196.828	-84.23
197.209	-76.77
197.59	-91.15
197.971	-99.28
198.352	-77.2
198.733	-87.96
199.114	-86.98
199.495	-75.77
199.876	-69.47
200.257	-75.77
200.638	-65.22
201.018	-66.54
201.399	-68.92
201.78	-59.06
202.16	-62.95
202.541	-73.61
202.922	-104.44
203.302	-133.65
203.683	-148.93
204.063	-198.16
204.444	-162.34
204.824	-131.07
205.204	-112.08
205.585	-87.34
205.965	-93.58
206.345	-128.97
206.725	-113.92
207.106	-110.47
207.486	-134.71
207.866	-125.8
208.246	-110.32
208.626	-121.29
209.006	-103.35
209.386	-127.99
209.766	-139.33
210.145	-111.5
210.525	-108.79
210.905	-109.22
211.285	-76.7
211.664	-60.09
212.044	-51.54
212.424	-52.21
212.803	-61.34
213.183	-49.99
213.562	-47.88
213.942	-34.61
214.321	-26.66
214.701	-28.84
215.08	-30.33
215.459	-19.95
215.838	-31.19
216.218	-37.04
216.597	-32.34
216.976	-34.06
217.355	-25.47
217.734	-21.86
218.113	-25.28
218.492	-14.7
218.871	-15.21
219.25	-17.02
219.629	-21.54
220.008	-28.37
220.387	-27.46
220.766	-22.79
221.144	-31.36
221.523	-42.96
221.902	-51.92
222.28	-60.36
222.659	-54.98
223.037	-39.57
223.416	-43.22
223.794	-30.63
224.173	-26.02
224.551	-20.9
224.929	-27.99
225.308	-23.18
225.686	-23.97
226.064	-22.59
226.442	-25.09
226.821	-20.09
227.199	-20.24
227.577	-21.68
227.955	-20.88
228.333	-20.04
228.711	-17.78
229.089	-15.52
229.467	-14.12
229.845	-14.51
230.222	-12.67
230.6	-13.91
230.978	-16.66
231.356	-16.69
231.733	-16.69
232.111	-15.12
232.488	-15.23
232.866	-12.09
233.243	-10.8
233.621	-13.01
233.998	-10.02
234.376	-9.2
234.753	-9.28
235.13	-7.19
235.508	-5.54
235.885	-4.65
236.262	-3.31
236.639	-2.81
237.016	-3.29
237.393	-1.42
237.77	0.01
238.147	0.2
238.524	0.95
238.901	1.61
239.278	2.31
239.655	2.82
240.032	2.19
240.409	2.72
240.785	2.07
241.162	1.67
241.539	3.02
241.915	2.65
242.292	2.07
242.668	2.05
243.045	1.93
243.421	2.06
243.798	2.09
244.174	1.48
244.551	1.43
244.927	1.74
245.303	1.49
245.679	1.43
246.056	1.56
246.432	1.82
246.808	1.93
247.184	1.81
247.56	1.7
247.936	1.89
248.312	1.67
248.688	1.9
249.064	1.74
249.44	1.5
249.815	1.63
250.191	1.88
250.567	1.99
250.943	1.94
251.318	1.98
251.694	2.07
252.069	2.31
252.445	2.21
252.82	2.1
253.196	2.1
253.571	2.12
253.947	2.06
254.322	2.1
254.697	1.92
255.073	1.6
255.448	1.6
255.823	1.48
256.198	1.53
256.573	1.76
256.948	2.09
257.323	2.2
257.698	2.2
258.073	2.3
258.448	2.29
258.823	2.14
259.198	2.09
259.573	2.17
259.948	2.13
260.322	2.08
260.697	1.95
261.072	2.01
261.446	2.01
261.821	2.02
262.195	2
262.57	1.93
262.944	2.02
263.319	2.09
263.693	2.02
264.067	2.13
264.442	2
264.816	1.84
265.19	1.69
265.564	1.63
265.938	1.38
266.313	1.31
266.687	1.48
267.061	1.51
267.435	1.4
267.809	1.41
268.183	1.6
268.556	1.68
268.93	1.7
269.304	1.68
269.678	1.7
270.051	1.65
270.425	1.65
270.799	1.69
271.172	1.63
271.546	1.7
271.919	1.64
272.293	1.75
272.666	1.72
273.04	1.82
273.413	1.81
273.787	1.94
274.16	1.91
274.533	1.89
274.906	1.84
275.279	1.79
275.653	1.89
276.026	1.76
276.399	1.73
276.772	1.72
277.145	1.82
277.518	1.74
277.891	1.66
278.263	1.72
278.636	1.72
279.009	1.75
279.382	1.96
279.755	1.89
280.127	1.8
280.5	1.9
280.872	1.95
281.245	1.91
281.617	1.85
281.99	1.92
282.362	1.93
282.735	1.79
283.107	1.78
283.479	1.78
283.852	1.86
284.224	1.96
284.596	1.89
284.968	1.88
285.34	2.02
285.713	2.08
286.085	2.14
286.457	2.19
286.829	2.22
287.201	2.09
287.572	2.14
287.944	2.05
288.316	2.11
288.688	2
289.06	1.95
289.431	1.91
289.803	2
290.175	2.04
290.546	2.4
290.918	2.44
291.289	2.49
291.661	2.51
292.032	2.63
292.403	2.7
292.775	2.73
293.146	2.59
293.517	2.56
293.889	2.5
294.26	2.53
294.631	2.52
295.002	2.59
295.373	2.62
295.744	2.63
296.115	2.57
296.486	2.51
296.857	2.58
297.228	2.75
297.599	2.59
297.97	2.65
298.34	2.49
298.711	2.51
299.082	2.45
299.452	2.53
299.823	2.48
300.194	2.53
300.564	2.5
300.935	2.75
301.305	2.72
301.676	2.88
302.046	2.95
302.416	3.14
302.787	3.13
303.157	3.15
303.527	3.31
303.897	3.27
304.267	3.46
304.637	3.5
305.008	3.62
305.378	3.85
305.748	3.96
306.117	3.94
306.487	4.16
306.857	4.35
307.227	4.21
307.597	4.28
307.967	4.25
308.336	4.29
308.706	4.15
309.076	4.3
309.445	4.17
309.815	4.23
310.184	4.1
310.554	4.11
310.923	4.12
311.293	4.1
311.662	4.33
312.031	4.42
312.401	4.5
312.77	4.4
313.139	4.44
313.508	4.38
313.877	4.46
314.246	4.39
314.616	4.38
314.985	4.55
315.353	4.47
315.722	4.69
316.091	4.84
316.46	4.94
316.829	4.95
317.198	5.08
317.567	5.04
317.935	5.07
318.304	5.07
318.672	5.18
319.041	5.4
319.41	5.38
319.778	5.22
320.147	5.32
320.515	5.38
320.883	5.34
321.252	5.46
321.62	5.6
321.988	5.67
322.357	5.65
322.725	5.58
323.093	5.88
323.461	5.89
323.829	5.87
324.197	5.96
324.565	6.08
324.933	6.2
325.301	6.36
325.669	6.48
326.037	6.56
326.405	6.56
326.772	6.64
327.14	6.68
327.508	6.88
327.875	6.9
328.243	7
328.61	7.14
328.978	7.19
329.346	7.32
329.713	7.35
330.08	7.4
330.448	7.55
330.815	7.42
331.182	7.49
331.55	7.52
331.917	7.6
332.284	7.7
332.651	7.58
333.018	7.64
333.385	7.76
333.752	7.88
334.119	7.99
334.486	7.95
334.853	7.93
335.22	7.86
335.587	7.9
335.954	7.8
336.32	7.78
336.687	7.8
337.054	7.61
337.42	7.61
337.787	7.73
338.153	7.7
338.52	7.86
338.886	7.68
339.253	7.77
339.619	7.83
339.986	7.76
340.352	8.08
340.718	8
341.084	7.96
341.451	7.98
341.817	7.95
342.183	7.89
342.549	8.04
342.915	8.15
343.281	8.15
343.647	8.25
344.013	8.32
344.379	8.3
344.745	8.42
345.11	8.44
345.476	8.38
345.842	8.41
346.208	8.35
346.573	8.51
346.939	8.48
347.304	8.36
347.67	8.34
348.035	8.2
348.401	8.3
348.766	8.35
349.132	8.35
349.497	8.39
349.862	8.51
350.228	8.45
350.593	8.39
350.958	8.41
351.323	8.38
351.688	8.38
352.053	8.46
352.418	8.59
352.783	8.73
353.148	8.78
353.513	8.84
353.878	8.89
354.243	8.98
354.608	9.02
354.972	8.98
355.337	9.13
355.702	9.1
356.066	9.03
356.431	8.97
356.795	8.96
357.16	8.96
357.524	8.86
357.889	8.76
358.253	8.76
358.618	8.72
358.982	8.67
359.346	8.59
359.71	8.5
360.075	8.45
360.439	8.37
360.803	8.34
361.167	8.25
361.531	8.2
361.895	8.07
362.259	7.96
362.623	8.02
362.987	7.9
363.351	7.87
363.714	7.84
364.078	7.79
364.442	7.7
364.806	7.59
365.169	7.55
365.533	7.57
365.896	7.61
366.26	7.58
366.623	7.57
366.987	7.53
367.35	7.5
367.714	7.33
368.077	7.24
368.44	7.16
368.803	7.17
369.167	7.1
369.53	7.12
369.893	7.16
370.256	7.05
370.619	7.02
370.982	6.89
371.345	6.78
371.708	6.76
372.071	6.75
372.434	6.73
372.797	6.69
373.159	6.6
373.522	6.53
373.885	6.44
374.247	6.42
374.61	6.43
374.973	6.31
375.335	6.2
375.698	6.17
376.06	6.15
376.423	6
376.785	5.93
377.147	5.78
377.51	5.67
377.872	5.63
378.234	5.57
378.596	5.57
378.958	5.51
379.321	5.45
379.683	5.4
380.045	5.32
380.407	5.24
380.769	5.23
381.13	5.12
381.492	5.05
381.854	4.95
382.216	4.83
382.578	4.82
382.939	4.84
383.301	4.82
383.663	4.74
384.024	4.77
384.386	4.75
384.747	4.72
385.109	4.75
385.47	4.69
385.832	4.64
386.193	4.61
386.554	4.61
386.916	4.56
387.277	4.53
387.638	4.47
387.999	4.39
388.36	4.32
388.721	4.29
389.082	4.28
389.443	4.23
389.804	4.23
390.165	4.18
390.526	4.12
390.887	4.02
391.248	4.02
391.609	3.96
391.969	3.91
392.33	3.89
392.691	3.8
393.051	3.76
393.412	3.74
393.772	3.66
394.133	3.63
394.493	3.61
394.854	3.54
395.214	3.52
395.574	3.53
395.935	3.5
396.295	3.5
396.655	3.45
397.015	3.43
397.376	3.36
397.736	3.3
398.096	3.31
398.456	3.31
398.816	3.28
399.176	3.24
399.535	3.21
399.895	3.19
400.255	3.17
400.615	3.17
400.975	3.16
401.334	3.13
401.694	3.12
402.054	3.08
402.413	3.08
402.773	3.01
403.132	2.98
403.492	2.98
403.851	2.96
404.211	2.94
404.57	2.92
404.929	2.91
405.288	2.92
405.648	2.88
406.007	2.86
406.366	2.8
406.725	2.81
407.084	2.81
407.443	2.79
407.802	2.79
408.161	2.74
408.52	2.67
408.879	2.67
409.238	2.66
409.596	2.65
409.955	2.63
410.314	2.64
410.673	2.63
411.031	2.59
411.39	2.58
411.748	2.56
412.107	2.55
412.465	2.54
412.824	2.54
413.182	2.54
413.54	2.55
413.899	2.56
414.257	2.54
414.615	2.54
414.974	2.54
415.332	2.51
415.69	2.51
416.048	2.51
416.406	2.53
416.764	2.52
417.122	2.52
417.48	2.51
417.838	2.52
418.195	2.52
418.553	2.52
418.911	2.5
419.269	2.49
419.626	2.48
419.984	2.48
420.342	2.47
420.699	2.45
421.057	2.43
421.414	2.41
421.772	2.4
422.129	2.4
422.486	2.39
422.844	2.39
423.201	2.37
423.558	2.38
423.915	2.36
424.273	2.35
424.63	2.33
424.987	2.31
425.344	2.3
425.701	2.28
426.058	2.26
426.415	2.26
426.772	2.25
427.128	2.26
427.485	2.24
427.842	2.24
428.199	2.24
428.555	2.22
428.912	2.23
429.269	2.23
429.625	2.2
429.982	2.18
430.338	2.17
430.695	2.18
431.051	2.15
431.407	2.15
431.764	2.12
432.12	2.12
432.476	2.14
432.832	2.12
433.189	2.14
433.545	2.15
433.901	2.13
434.257	2.13
434.613	2.13
434.969	2.12
435.325	2.13
435.681	2.14
436.036	2.14
436.392	2.13
436.748	2.13
437.104	2.12
437.459	2.13
437.815	2.13
438.171	2.14
438.526	2.15
438.882	2.14
439.237	2.15
439.593	2.17
439.948	2.15
440.304	2.15
440.659	2.13
441.014	2.11
441.369	2.11
441.725	2.1
442.08	2.09
442.435	2.1
442.79	2.1
443.145	2.08
443.5	2.08
443.855	2.08
444.21	2.07
444.565	2.08
444.92	2.08
445.275	2.07
445.629	2.07
445.984	2.06
446.339	2.07
446.693	2.06
447.048	2.04
447.403	2.04
447.757	2.05
448.112	2.05
448.466	2.05
448.82	2.05
449.175	2.06
449.529	2.04
449.883	2.02
450.238	1.99
450.592	1.97
450.946	1.98
451.3	1.98
451.654	1.98
452.008	1.98
452.362	1.96
452.716	1.96
453.07	1.95
453.424	1.96
453.778	1.95
454.132	1.96
454.486	1.95
454.839	1.94
455.193	1.92
455.547	1.93
455.9	1.95
456.254	1.95
456.607	1.95
456.961	1.97
457.314	1.97
457.668	1.99
458.021	1.99
458.375	1.98
458.728	1.98
459.081	1.98
459.434	1.97
459.787	1.97
460.141	1.97
460.494	1.96
460.847	1.95
461.2	1.95
461.553	1.94
461.906	1.96
462.259	1.98
462.611	2
462.964	1.99
463.317	1.99
463.67	2
464.022	2
464.375	1.99
464.728	2.01
465.08	2.01
465.433	2.02
465.785	2.02
466.138	2.01
466.49	2.01
466.843	2.03
467.195	2.05
467.547	2.06
467.899	2.04
468.252	2.06
468.604	2.08
468.956	2.09
469.308	2.09
469.66	2.09
470.012	2.09
470.364	2.09
470.716	2.1
471.068	2.12
471.42	2.11
471.772	2.12
472.123	2.13
472.475	2.13
472.827	2.15
473.178	2.17
473.53	2.17
473.882	2.18
474.233	2.18
474.585	2.16
474.936	2.15
475.288	2.16
475.639	2.14
475.99	2.13
476.342	2.12
476.693	2.12
477.044	2.14
477.395	2.12
477.746	2.13
478.097	2.12
478.448	2.11
478.8	2.1
479.15	2.09
479.501	2.09
479.852	2.09
480.203	2.08
480.554	2.08
480.905	2.1
481.255	2.11
481.606	2.1
481.957	2.11
482.307	2.13
482.658	2.13
483.009	2.14
483.359	2.14
483.709	2.13
484.06	2.13
484.41	2.13
484.761	2.14
485.111	2.14
485.461	2.13
485.811	2.13
486.162	2.14
486.512	2.15
486.862	2.15
487.212	2.15
487.562	2.15
487.912	2.15
488.262	2.14
488.612	2.14
488.961	2.14
489.311	2.14
489.661	2.14
490.011	2.15
490.36	2.15
490.71	2.15
491.06	2.16
491.409	2.17
491.759	2.17
492.108	2.18
492.458	2.18
492.807	2.19
493.157	2.18
493.506	2.18
493.855	2.18
494.204	2.19
494.554	2.19
494.903	2.19
495.252	2.19
495.601	2.2
495.95	2.23
496.299	2.24
496.648	2.24
496.997	2.24
497.346	2.25
497.695	2.26
498.043	2.26
498.392	2.26
498.741	2.27
499.09	2.28
499.438	2.29
499.787	2.32
500.135	2.35
500.484	2.38
500.832	2.41
501.181	2.46
501.529	2.48
501.878	2.53
502.226	2.57
502.574	2.6
502.923	2.62
503.271	2.62
503.619	2.66
503.967	2.71
504.315	2.74
504.663	2.76
505.011	2.81
505.359	2.86
505.707	2.91
506.055	2.97
506.403	3
506.751	3.04
507.098	3.08
507.446	3.13
507.794	3.17
508.141	3.22
508.489	3.27
508.837	3.33
509.184	3.37
509.531	3.43
509.879	3.5
510.226	3.57
510.574	3.63
510.921	3.68
511.268	3.74
511.616	3.8
511.963	3.88
512.31	3.95
512.657	4.04
513.004	4.12
513.351	4.19
513.698	4.29
514.045	4.37
514.392	4.46
514.739	4.55
515.086	4.64
515.432	4.71
515.779	4.79
516.126	4.87
516.473	4.97
516.819	5.05
517.166	5.14
517.512	5.22
517.859	5.31
518.205	5.39
518.552	5.47
518.898	5.54
519.245	5.63
519.591	5.71
519.937	5.79
520.283	5.88
520.629	5.97
520.976	6.08
521.322	6.19
521.668	6.29
522.014	6.42
522.36	6.57
522.706	6.71
523.052	6.87
523.398	7.04
523.743	7.18
524.089	7.36
524.435	7.51
524.781	7.67
525.126	7.82
525.472	7.96
525.817	8.09
526.163	8.22
526.509	8.34
526.854	8.44
527.199	8.56
527.545	8.67
527.89	8.78
528.235	8.89
528.581	9.01
528.926	9.13
529.271	9.25
529.616	9.37
529.961	9.49
530.306	9.62
530.651	9.75
530.996	9.9
531.341	10.04
531.686	10.19
532.031	10.36
532.376	10.52
532.721	10.68
533.065	10.86
533.41	11.05
533.755	11.22
534.099	11.41
534.444	11.61
534.788	11.81
535.133	11.99
535.477	12.18
535.822	12.39
536.166	12.62
536.51	12.88
536.855	13.13
537.199	13.4
537.543	13.66
537.887	13.95
538.231	14.24
538.576	14.52
538.92	14.81
539.264	15.08
539.608	15.33
539.951	15.58
540.295	15.81
540.639	16.04
540.983	16.26
541.327	16.47
541.671	16.7
542.014	16.9
542.358	17.13
542.701	17.35
543.045	17.57
543.389	17.8
543.732	18.01
544.075	18.25
544.419	18.47
544.762	18.72
545.105	18.96
545.449	19.2
545.792	19.44
546.135	19.71
546.478	20.01
546.821	20.31
547.165	20.63
547.508	20.95
547.851	21.28
548.194	21.59
548.536	21.95
548.879	22.27
549.222	22.61
549.565	22.96
549.908	23.29
550.25	23.61
550.593	23.9
550.936	24.23
551.278	24.52
551.621	24.85
551.963	25.19
552.306	25.51
552.648	25.81
552.991	26.12
553.333	26.44
553.675	26.73
554.017	27.02
554.36	27.27
554.702	27.53
555.044	27.78
555.386	28.06
555.728	28.36
556.07	28.68
556.412	28.97
556.754	29.21
557.096	29.53
557.438	29.8
557.78	30.16
558.121	30.42
558.463	30.74
558.805	30.99
559.147	31.24
559.488	31.54
559.83	31.85
560.171	32.14
560.513	32.42
560.854	32.68
561.196	32.94
561.537	33.29
561.878	33.48
562.22	33.72
562.561	33.97
562.902	34.2
563.243	34.42
563.584	34.65
563.925	34.9
564.266	35.07
564.607	35.29
564.948	35.5
565.289	35.75
565.63	35.94
565.971	36.16
566.312	36.37
566.653	36.51
566.993	36.65
567.334	36.87
567.675	37.04
568.015	37.17
568.356	37.34
568.696	37.46
569.037	37.67
569.377	37.83
569.718	37.96
570.058	38.11
570.398	38.24
570.739	38.37
571.079	38.52
571.419	38.74
571.759	38.9
572.099	38.97
572.439	39.07
572.779	39.17
573.119	39.32
573.459	39.48
573.799	39.67
574.139	39.8
574.479	39.95
574.819	40.03
575.158	40.17
575.498	40.26
575.838	40.4
576.177	40.57
576.517	40.75
576.856	40.95
577.196	41.11
577.535	41.24
577.875	41.36
578.214	41.56
578.553	41.69
578.893	41.84
579.232	42.04
579.571	42.16
579.91	42.39
580.25	42.49
580.589	42.6
580.928	42.68
581.267	42.82
581.606	42.83
581.945	42.95
582.283	43.05
582.622	43.15
582.961	43.22
583.3	43.26
583.639	43.36
583.977	43.41
584.316	43.44
584.654	43.56
584.993	43.71
585.332	43.69
585.67	43.76
586.008	43.82
586.347	43.85
586.685	43.88
587.024	43.9
587.362	43.97
587.7	44.08
588.038	44.16
588.376	44.27
588.715	44.41
589.053	44.53
589.391	44.63
589.729	44.78
590.067	44.81
590.404	44.91
590.742	44.93
591.08	45.01
591.418	45.11
591.756	45.16
592.093	45.21
592.431	45.29
592.769	45.35
593.106	45.42
593.444	45.49
593.781	45.55
594.119	45.61
594.456	45.66
594.793	45.59
595.131	45.65
595.468	45.65
595.805	45.62
596.143	45.65
596.48	45.7
596.817	45.74
597.154	45.83
597.491	45.9
597.828	45.94
598.165	45.98
598.502	46
598.839	46.04
599.176	46.07
599.512	46.12
599.849	46.16
600.186	46.18
600.523	46.24
600.859	46.35
601.196	46.42
601.532	46.46
601.869	46.53
602.205	46.6
602.542	46.7
602.878	46.87
603.215	46.9
603.551	46.92
603.887	47.02
604.223	47.04
604.56	47.03
604.896	47.15
605.232	47.18
605.568	47.23
605.904	47.31
606.24	47.41
606.576	47.44
606.912	47.5
607.248	47.54
607.583	47.57
607.919	47.59
608.255	47.6
608.591	47.66
608.926	47.73
609.262	47.71
609.597	47.69
609.933	47.7
610.268	47.73
610.604	47.77
610.939	47.66
611.275	47.71
611.61	47.77
611.945	47.72
612.281	47.81
612.616	47.77
612.951	47.73
613.286	47.64
613.621	47.66
613.956	47.62
614.291	47.62
614.626	47.74
614.961	47.69
615.296	47.77
615.631	47.77
615.966	47.82
616.3	47.83
616.635	47.87
616.97	47.81
617.304	47.89
617.639	47.86
617.973	48
618.308	47.98
618.642	48
618.977	47.97
619.311	47.9
619.646	47.97
619.98	48.02
620.314	48.07
620.648	48.09
620.983	48.1
621.317	48.15
621.651	48.06
621.985	48.19
622.319	48.21
622.653	48.23
622.987	48.2
623.321	48.28
623.655	48.25
623.988	48.3
624.322	48.29
624.656	48.28
624.99	48.2
625.323	48.25
625.657	48.24
625.99	48.35
626.324	48.4
626.657	48.4
626.991	48.39
627.324	48.35
627.658	48.35
627.991	48.44
628.324	48.53
628.657	48.57
628.991	48.62
629.324	48.68
629.657	48.73
629.99	48.82
630.323	48.79
630.656	48.86
630.989	48.85
631.322	48.92
631.655	48.99
631.987	49.12
632.32	49.17
632.653	49.12
632.986	49.11
633.318	49.13
633.651	49.13
633.984	49.18
634.316	49.27
634.649	49.35
634.981	49.3
635.313	49.28
635.646	49.25
635.978	49.21
636.31	49.19
636.643	49.25
636.975	49.29
637.307	49.3
637.639	49.31
637.971	49.28
638.303	49.25
638.635	49.29
638.967	49.19
639.299	49.09
639.631	49.22
639.963	49.21
640.295	49.22
640.626	49.25
640.958	49.31
641.29	49.34
641.621	49.35
641.953	49.29
642.285	49.15
642.616	49.17
642.948	49.23
643.279	49.16
643.61	49.06
643.942	49.06
644.273	49.15
644.604	49.12
644.936	49.15
645.267	49.16
645.598	49.12
645.929	49.25
646.26	49.41
646.591	49.31
646.922	49.25
647.253	49.2
647.584	49.17
647.915	49.11
648.245	49.18
648.576	49.18
648.907	49.29
649.238	49.3
649.568	49.38
649.899	49.32
650.229	49.34
650.56	49.35
650.89	49.31
651.221	49.25
651.551	49.31
651.882	49.3
652.212	49.31
652.542	49.26
652.872	49.14
653.203	49.05
653.533	49.1
653.863	49.2
654.193	49.23
654.523	49.39
654.853	49.32
655.183	49.2
655.513	49.25
655.843	49.26
656.172	49.41
656.502	49.39
656.832	49.39
657.162	49.48
657.491	49.41
657.821	49.46
658.15	49.46
658.48	49.4
658.809	49.5
659.139	49.54
659.468	49.59
659.798	49.59
660.127	49.6
660.456	49.68
660.785	49.68
661.115	49.77
661.444	49.67
661.773	49.67
662.102	49.77
662.431	49.72
662.76	49.72
663.089	49.76
663.418	49.76
663.747	49.77
664.076	49.74
664.404	49.89
664.733	49.87
665.062	49.96
665.39	50.07
665.719	50.02
666.048	49.97
666.376	49.89
