Data from BU57649_Reflection_00009.txt Node
Date: Tue Nov 19 10:55:46 EST 2019
User: vgr7
Spectrometer: USB2G7710
Scans to average: 3
Trigger mode: 4
Integration Time (sec): 2.000000E-2
Electric dark correction enabled: true
Boxcar width: 10
XAxis mode: Wavelengths
Number of Pixels in Spectrum: 2048
>>>>>Begin Spectral Data<<<<<
177.721	41.05
178.105	50.2
178.488	50.25
178.871	47.35
179.254	56.83
179.636	65.01
180.019	48
180.402	200
180.785	-605.88
181.168	-7025
181.55	-133.77
181.933	188.76
182.316	247.24
182.698	-100.61
183.081	-117.92
183.463	-59.67
183.846	-62.31
184.228	-32.96
184.611	-31.16
184.993	-21.64
185.376	-22.89
185.758	-23.69
186.14	-20
186.522	-14.05
186.904	-12.75
187.287	-12.53
187.669	-14.13
188.051	-24.83
188.433	-39.33
188.815	-40.9
189.197	-42.9
189.579	-47.39
189.961	-52.84
190.342	-53.55
190.724	-72.86
191.106	-62.64
191.488	-67.73
191.869	-65.99
192.251	-64.28
192.633	-70.77
193.014	-65.1
193.396	-72.07
193.777	-67.39
194.159	-64.48
194.54	-83.5
194.922	-109.75
195.303	-119.27
195.684	-114.42
196.065	-114.14
196.447	-98.27
196.828	-111.9
197.209	-106.72
197.59	-75.09
197.971	-56.06
198.352	-50.42
198.733	-39.4
199.114	-56.93
199.495	-52.29
199.876	-51.76
200.257	-49.83
200.638	-56
201.018	-61.59
201.399	-49
201.78	-55.5
202.16	-60.48
202.541	-56.19
202.922	-48.84
203.302	-49.7
203.683	-54.41
204.063	-58.32
204.444	-50.36
204.824	-40.59
205.204	-37.76
205.585	-34.68
205.965	-37.24
206.345	-30.37
206.725	-34.74
207.106	-13.36
207.486	-8.5
207.866	-7.94
208.246	-9.18
208.626	-5.57
209.006	-3.73
209.386	-6.57
209.766	-18.45
210.145	-21.07
210.525	-20.67
210.905	-20.89
211.285	-15.71
211.664	-4.48
212.044	-3.98
212.424	-5.16
212.803	-15.95
213.183	-20
213.562	-21.68
213.942	-22.1
214.321	-28.58
214.701	-30.66
215.08	-49.12
215.459	-52.65
215.838	-58.78
216.218	-60.99
216.597	-46.89
216.976	-46.89
217.355	-58.3
217.734	-47.27
218.113	-38.63
218.492	-46.87
218.871	-34.14
219.25	-51.39
219.629	-62.09
220.008	-50.6
220.387	-54.77
220.766	-42.44
221.144	-43.39
221.523	-54.1
221.902	-40.74
222.28	-30.2
222.659	-8.42
223.037	-4.54
223.416	-2.46
223.794	-4.52
224.173	-10
224.551	-12.44
224.929	-14.7
225.308	-9.72
225.686	-10.94
226.064	-13.88
226.442	-7.43
226.821	-15.16
227.199	-12.95
227.577	-10.14
227.955	-10.39
228.333	-12.85
228.711	-12.72
229.089	-9.87
229.467	-8.69
229.845	-9.64
230.222	-9.02
230.6	-13.27
230.978	-12.44
231.356	-13.52
231.733	-12.16
232.111	-9.49
232.488	-8.27
232.866	-3.71
233.243	-2.96
233.621	-1.78
233.998	-1.58
234.376	-4.43
234.753	-2.3
235.13	-2.19
235.508	-2.98
235.885	-3.29
236.262	-3.9
236.639	-4.66
237.016	-3.6
237.393	-3.22
237.77	-1.86
238.147	-1.72
238.524	-0.42
238.901	-1.19
239.278	-0.8
239.655	-0.05
240.032	-0.78
240.409	-1.35
240.785	-1.97
241.162	-2.06
241.539	-2.07
241.915	-2.25
242.292	-1.53
242.668	-1.14
243.045	-0.55
243.421	-0.12
243.798	0.35
244.174	1.2
244.551	1.57
244.927	1.77
245.303	1.86
245.679	2
246.056	1.89
246.432	1.96
246.808	2.28
247.184	2.4
247.56	2.1
247.936	2.34
248.312	2.65
248.688	2.71
249.064	2.74
249.44	2.65
249.815	2.91
250.191	2.98
250.567	2.85
250.943	2.59
251.318	2.42
251.694	2.47
252.069	2.38
252.445	2.36
252.82	2.09
253.196	2.04
253.571	1.94
253.947	1.98
254.322	1.79
254.697	1.72
255.073	1.85
255.448	1.98
255.823	1.73
256.198	1.77
256.573	1.96
256.948	2.21
257.323	2.4
257.698	2.49
258.073	2.31
258.448	2.49
258.823	2.55
259.198	2.59
259.573	2.43
259.948	2.27
260.322	2.05
260.697	2.19
261.072	2.17
261.446	2.13
261.821	2.23
262.195	2.11
262.57	2.06
262.944	1.98
263.319	2.16
263.693	2.29
264.067	2.3
264.442	2.14
264.816	2.05
265.19	2.11
265.564	2.12
265.938	2.23
266.313	2.02
266.687	2.31
267.061	2.42
267.435	2.69
267.809	2.68
268.183	2.76
268.556	2.63
268.93	2.8
269.304	2.75
269.678	2.79
270.051	2.93
270.425	3
270.799	2.88
271.172	2.65
271.546	2.71
271.919	2.76
272.293	2.78
272.666	2.8
273.04	2.72
273.413	2.61
273.787	2.69
274.16	2.71
274.533	2.63
274.906	2.58
275.279	2.4
275.653	2.55
276.026	2.63
276.399	2.69
276.772	2.6
277.145	2.55
277.518	2.3
277.891	2.29
278.263	2.21
278.636	2.39
279.009	2.52
279.382	2.44
279.755	2.35
280.127	2.34
280.5	2.24
280.872	2.39
281.245	2.48
281.617	2.29
281.99	2.27
282.362	2.25
282.735	2.23
283.107	2.29
283.479	2.22
283.852	2.14
284.224	2.19
284.596	2.13
284.968	2.12
285.34	2.23
285.713	2.21
286.085	2.23
286.457	2.11
286.829	2.1
287.201	2.06
287.572	2.03
287.944	2.13
288.316	2.26
288.688	2.22
289.06	2.21
289.431	2.34
289.803	2.4
290.175	2.25
290.546	2.23
290.918	2.2
291.289	2.09
291.661	2.18
292.032	2.18
292.403	2.26
292.775	2.4
293.146	2.38
293.517	2.4
293.889	2.45
294.26	2.53
294.631	2.59
295.002	2.8
295.373	2.89
295.744	2.85
296.115	2.8
296.486	2.8
296.857	2.9
297.228	2.74
297.599	2.74
297.97	2.87
298.34	2.94
298.711	3.08
299.082	3.2
299.452	3.27
299.823	3.3
300.194	3.42
300.564	3.34
300.935	3.44
301.305	3.54
301.676	3.47
302.046	3.62
302.416	3.53
302.787	3.38
303.157	3.35
303.527	3.44
303.897	3.38
304.267	3.38
304.637	3.38
305.008	3.58
305.378	3.7
305.748	3.81
306.117	3.86
306.487	3.73
306.857	3.93
307.227	4.07
307.597	4.02
307.967	3.91
308.336	4.05
308.706	4.11
309.076	4.21
309.445	4.36
309.815	4.3
310.184	4.38
310.554	4.54
310.923	4.67
311.293	4.65
311.662	4.82
312.031	4.89
312.401	4.83
312.77	4.93
313.139	4.91
313.508	4.89
313.877	4.97
314.246	5.04
314.616	5.07
314.985	4.89
315.353	4.93
315.722	4.94
316.091	4.94
316.46	4.94
316.829	4.95
317.198	4.96
317.567	5.13
317.935	5.35
318.304	5.45
318.672	5.55
319.041	5.57
319.41	5.53
319.778	5.61
320.147	5.73
320.515	5.68
320.883	5.71
321.252	5.76
321.62	5.77
321.988	5.89
322.357	5.97
322.725	6.11
323.093	6.13
323.461	6.22
323.829	6.35
324.197	6.39
324.565	6.26
324.933	6.31
325.301	6.28
325.669	6.22
326.037	6.16
326.405	6.15
326.772	6.21
327.14	6.22
327.508	6.23
327.875	6.33
328.243	6.23
328.61	6.34
328.978	6.26
329.346	6.33
329.713	6.29
330.08	6.4
330.448	6.49
330.815	6.49
331.182	6.6
331.55	6.61
331.917	6.51
332.284	6.67
332.651	6.76
333.018	6.77
333.385	6.83
333.752	6.85
334.119	6.79
334.486	6.93
334.853	7.02
335.22	7.05
335.587	6.92
335.954	7.14
336.32	7.13
336.687	7.29
337.054	7.36
337.42	7.51
337.787	7.33
338.153	7.24
338.52	7.4
338.886	7.41
339.253	7.32
339.619	7.48
339.986	7.59
340.352	7.55
340.718	7.64
341.084	7.65
341.451	7.69
341.817	7.75
342.183	7.63
342.549	7.61
342.915	7.7
343.281	7.83
343.647	7.9
344.013	7.85
344.379	7.8
344.745	7.76
345.11	7.68
345.476	7.67
345.842	7.69
346.208	7.64
346.573	7.62
346.939	7.73
347.304	7.82
347.67	7.73
348.035	7.76
348.401	7.76
348.766	7.7
349.132	7.72
349.497	7.76
349.862	7.76
350.228	7.8
350.593	7.72
350.958	7.7
351.323	7.59
351.688	7.65
352.053	7.71
352.418	7.67
352.783	7.71
353.148	7.71
353.513	7.73
353.878	7.71
354.243	7.67
354.608	7.68
354.972	7.56
355.337	7.54
355.702	7.48
356.066	7.49
356.431	7.57
356.795	7.59
357.16	7.55
357.524	7.58
357.889	7.45
358.253	7.43
358.618	7.38
358.982	7.39
359.346	7.35
359.71	7.3
360.075	7.26
360.439	7.29
360.803	7.25
361.167	7.15
361.531	7.14
361.895	7.09
362.259	6.99
362.623	6.9
362.987	6.85
363.351	6.82
363.714	6.77
364.078	6.65
364.442	6.55
364.806	6.56
365.169	6.49
365.533	6.52
365.896	6.49
366.26	6.43
366.623	6.4
366.987	6.37
367.35	6.36
367.714	6.37
368.077	6.28
368.44	6.32
368.803	6.33
369.167	6.26
369.53	6.25
369.893	6.18
370.256	6.19
370.619	6.07
370.982	6.05
371.345	5.95
371.708	5.96
372.071	5.95
372.434	5.82
372.797	5.76
373.159	5.65
373.522	5.6
373.885	5.56
374.247	5.52
374.61	5.45
374.973	5.38
375.335	5.32
375.698	5.22
376.06	5.13
376.423	5.09
376.785	5.04
377.147	4.96
377.51	4.96
377.872	4.93
378.234	4.98
378.596	4.96
378.958	4.9
379.321	4.8
379.683	4.74
380.045	4.69
380.407	4.68
380.769	4.67
381.13	4.58
381.492	4.59
381.854	4.52
382.216	4.48
382.578	4.44
382.939	4.36
383.301	4.33
383.663	4.28
384.024	4.25
384.386	4.24
384.747	4.23
385.109	4.25
385.47	4.24
385.832	4.15
386.193	4.09
386.554	4.06
386.916	4.04
387.277	4.05
387.638	4.03
387.999	4.01
388.36	4.02
388.721	4.05
389.082	4
389.443	4.02
389.804	3.98
390.165	3.97
390.526	3.95
390.887	3.94
391.248	3.91
391.609	3.9
391.969	3.87
392.33	3.83
392.691	3.76
393.051	3.73
393.412	3.73
393.772	3.71
394.133	3.67
394.493	3.64
394.854	3.59
395.214	3.53
395.574	3.51
395.935	3.46
396.295	3.42
396.655	3.39
397.015	3.34
397.376	3.32
397.736	3.22
398.096	3.18
398.456	3.17
398.816	3.2
399.176	3.14
399.535	3.1
399.895	3.11
400.255	3.09
400.615	3.08
400.975	3.05
401.334	3.05
401.694	3.08
402.054	3.09
402.413	3.1
402.773	3.11
403.132	3.08
403.492	3.04
403.851	3.05
404.211	3.01
404.57	2.99
404.929	2.98
405.288	3.05
405.648	3.05
406.007	3
406.366	2.96
406.725	2.98
407.084	3
407.443	2.99
407.802	2.99
408.161	2.97
408.52	2.99
408.879	2.96
409.238	2.95
409.596	2.93
409.955	2.9
410.314	2.87
410.673	2.83
411.031	2.86
411.39	2.87
411.748	2.87
412.107	2.87
412.465	2.86
412.824	2.81
413.182	2.79
413.54	2.8
413.899	2.79
414.257	2.76
414.615	2.72
414.974	2.7
415.332	2.7
415.69	2.68
416.048	2.68
416.406	2.67
416.764	2.67
417.122	2.66
417.48	2.66
417.838	2.66
418.195	2.67
418.553	2.65
418.911	2.62
419.269	2.63
419.626	2.62
419.984	2.62
420.342	2.63
420.699	2.62
421.057	2.62
421.414	2.61
421.772	2.62
422.129	2.62
422.486	2.61
422.844	2.61
423.201	2.61
423.558	2.59
423.915	2.6
424.273	2.58
424.63	2.59
424.987	2.57
425.344	2.58
425.701	2.57
426.058	2.57
426.415	2.56
426.772	2.54
427.128	2.53
427.485	2.53
427.842	2.53
428.199	2.54
428.555	2.54
428.912	2.54
429.269	2.54
429.625	2.53
429.982	2.55
430.338	2.54
430.695	2.54
431.051	2.55
431.407	2.55
431.764	2.54
432.12	2.54
432.476	2.55
432.832	2.55
433.189	2.55
433.545	2.55
433.901	2.56
434.257	2.55
434.613	2.54
434.969	2.53
435.325	2.53
435.681	2.51
436.036	2.51
436.392	2.5
436.748	2.51
437.104	2.51
437.459	2.49
437.815	2.5
438.171	2.49
438.526	2.49
438.882	2.48
439.237	2.48
439.593	2.46
439.948	2.46
440.304	2.45
440.659	2.46
441.014	2.45
441.369	2.45
441.725	2.46
442.08	2.46
442.435	2.46
442.79	2.45
443.145	2.45
443.5	2.44
443.855	2.43
444.21	2.43
444.565	2.43
444.92	2.42
445.275	2.42
445.629	2.43
445.984	2.41
446.339	2.41
446.693	2.41
447.048	2.41
447.403	2.39
447.757	2.4
448.112	2.39
448.466	2.4
448.82	2.39
449.175	2.39
449.529	2.41
449.883	2.4
450.238	2.4
450.592	2.41
450.946	2.41
451.3	2.41
451.654	2.41
452.008	2.39
452.362	2.39
452.716	2.39
453.07	2.39
453.424	2.41
453.778	2.41
454.132	2.4
454.486	2.41
454.839	2.41
455.193	2.4
455.547	2.41
455.9	2.42
456.254	2.44
456.607	2.43
456.961	2.43
457.314	2.42
457.668	2.4
458.021	2.4
458.375	2.4
458.728	2.41
459.081	2.42
459.434	2.42
459.787	2.41
460.141	2.4
460.494	2.4
460.847	2.38
461.2	2.39
461.553	2.42
461.906	2.41
462.259	2.41
462.611	2.4
462.964	2.4
463.317	2.38
463.67	2.36
464.022	2.37
464.375	2.36
464.728	2.38
465.08	2.39
465.433	2.4
465.785	2.41
466.138	2.41
466.49	2.4
466.843	2.42
467.195	2.43
467.547	2.46
467.899	2.46
468.252	2.46
468.604	2.46
468.956	2.44
469.308	2.44
469.66	2.48
470.012	2.47
470.364	2.47
470.716	2.49
471.068	2.49
471.42	2.49
471.772	2.49
472.123	2.51
472.475	2.54
472.827	2.53
473.178	2.52
473.53	2.53
473.882	2.53
474.233	2.51
474.585	2.51
474.936	2.51
475.288	2.51
475.639	2.54
475.99	2.53
476.342	2.54
476.693	2.55
477.044	2.54
477.395	2.56
477.746	2.56
478.097	2.54
478.448	2.55
478.8	2.55
479.15	2.56
479.501	2.55
479.852	2.53
480.203	2.53
480.554	2.54
480.905	2.55
481.255	2.55
481.606	2.56
481.957	2.58
482.307	2.57
482.658	2.58
483.009	2.57
483.359	2.57
483.709	2.57
484.06	2.57
484.41	2.56
484.761	2.57
485.111	2.57
485.461	2.58
485.811	2.58
486.162	2.58
486.512	2.57
486.862	2.58
487.212	2.59
487.562	2.59
487.912	2.59
488.262	2.58
488.612	2.59
488.961	2.59
489.311	2.58
489.661	2.58
490.011	2.57
490.36	2.56
490.71	2.58
491.06	2.57
491.409	2.57
491.759	2.57
492.108	2.55
492.458	2.56
492.807	2.55
493.157	2.55
493.506	2.54
493.855	2.56
494.204	2.55
494.554	2.55
494.903	2.54
495.252	2.55
495.601	2.56
495.95	2.55
496.299	2.55
496.648	2.56
496.997	2.58
497.346	2.6
497.695	2.61
498.043	2.64
498.392	2.64
498.741	2.68
499.09	2.71
499.438	2.75
499.787	2.77
500.135	2.79
500.484	2.81
500.832	2.84
501.181	2.85
501.529	2.89
501.878	2.93
502.226	2.97
502.574	3
502.923	3.04
503.271	3.09
503.619	3.14
503.967	3.14
504.315	3.18
504.663	3.21
505.011	3.25
505.359	3.27
505.707	3.34
506.055	3.39
506.403	3.43
506.751	3.47
507.098	3.52
507.446	3.56
507.794	3.62
508.141	3.67
508.489	3.72
508.837	3.76
509.184	3.8
509.531	3.86
509.879	3.9
510.226	3.93
510.574	3.99
510.921	4.03
511.268	4.13
511.616	4.2
511.963	4.26
512.31	4.33
512.657	4.39
513.004	4.45
513.351	4.5
513.698	4.57
514.045	4.66
514.392	4.76
514.739	4.86
515.086	4.93
515.432	5.03
515.779	5.1
516.126	5.22
516.473	5.3
516.819	5.36
517.166	5.45
517.512	5.55
517.859	5.61
518.205	5.68
518.552	5.75
518.898	5.81
519.245	5.89
519.591	5.98
519.937	6.07
520.283	6.15
520.629	6.25
520.976	6.35
521.322	6.43
521.668	6.51
522.014	6.62
522.36	6.74
522.706	6.85
523.052	6.99
523.398	7.09
523.743	7.22
524.089	7.36
524.435	7.5
524.781	7.62
525.126	7.73
525.472	7.84
525.817	7.93
526.163	8.03
526.509	8.12
526.854	8.2
527.199	8.29
527.545	8.38
527.89	8.45
528.235	8.52
528.581	8.6
528.926	8.68
529.271	8.74
529.616	8.82
529.961	8.89
530.306	8.97
530.651	9.07
530.996	9.17
531.341	9.27
531.686	9.36
532.031	9.45
532.376	9.56
532.721	9.67
533.065	9.79
533.41	9.91
533.755	10.01
534.099	10.12
534.444	10.22
534.788	10.32
535.133	10.43
535.477	10.56
535.822	10.68
536.166	10.82
536.51	10.96
536.855	11.11
537.199	11.28
537.543	11.46
537.887	11.61
538.231	11.77
538.576	11.95
538.92	12.12
539.264	12.3
539.608	12.45
539.951	12.59
540.295	12.73
540.639	12.88
540.983	13.03
541.327	13.17
541.671	13.31
542.014	13.47
542.358	13.61
542.701	13.76
543.045	13.91
543.389	14.08
543.732	14.24
544.075	14.39
544.419	14.54
544.762	14.67
545.105	14.84
545.449	15.02
545.792	15.16
546.135	15.35
546.478	15.56
546.821	15.79
547.165	16
547.508	16.21
547.851	16.42
548.194	16.65
548.536	16.89
548.879	17.12
549.222	17.33
549.565	17.57
549.908	17.81
550.25	18.06
550.593	18.28
550.936	18.51
551.278	18.74
551.621	19
551.963	19.28
552.306	19.56
552.648	19.78
552.991	20.05
553.333	20.29
553.675	20.51
554.017	20.68
554.36	20.91
554.702	21.14
555.044	21.39
555.386	21.64
555.728	21.91
556.07	22.17
556.412	22.45
556.754	22.69
557.096	22.95
557.438	23.2
557.78	23.43
558.121	23.73
558.463	24.03
558.805	24.3
559.147	24.57
559.488	24.8
559.83	25.07
560.171	25.32
560.513	25.57
560.854	25.87
561.196	26.24
561.537	26.54
561.878	26.85
562.22	27.1
562.561	27.32
562.902	27.53
563.243	27.77
563.584	28.02
563.925	28.33
564.266	28.57
564.607	28.79
564.948	29.05
565.289	29.28
565.63	29.55
565.971	29.8
566.312	30.07
566.653	30.31
566.993	30.55
567.334	30.82
567.675	31.14
568.015	31.38
568.356	31.59
568.696	31.87
569.037	32.12
569.377	32.39
569.718	32.64
570.058	32.98
570.398	33.27
570.739	33.47
571.079	33.71
571.419	33.94
571.759	34.19
572.099	34.44
572.439	34.66
572.779	34.9
573.119	35.08
573.459	35.23
573.799	35.45
574.139	35.71
574.479	35.92
574.819	36.09
575.158	36.28
575.498	36.45
575.838	36.61
576.177	36.83
576.517	37.07
576.856	37.31
577.196	37.44
577.535	37.63
577.875	37.88
578.214	38.02
578.553	38.23
578.893	38.47
579.232	38.63
579.571	38.84
579.91	39.02
580.25	39.21
580.589	39.42
580.928	39.68
581.267	39.87
581.606	40.05
581.945	40.13
582.283	40.33
582.622	40.53
582.961	40.72
583.3	40.84
583.639	40.91
583.977	41.04
584.316	41.25
584.654	41.45
584.993	41.7
585.332	41.94
585.67	42.1
586.008	42.27
586.347	42.45
586.685	42.67
587.024	42.81
587.362	42.97
587.7	43.19
588.038	43.34
588.376	43.48
588.715	43.63
589.053	43.87
589.391	44.01
589.729	44.24
590.067	44.29
590.404	44.45
590.742	44.65
591.08	44.86
591.418	44.94
591.756	45.07
592.093	45.1
592.431	45.21
592.769	45.35
593.106	45.45
593.444	45.57
593.781	45.68
594.119	45.78
594.456	45.94
594.793	46.02
595.131	46.07
595.468	46.17
595.805	46.23
596.143	46.26
596.48	46.36
596.817	46.36
597.154	46.5
597.491	46.56
597.828	46.62
598.165	46.68
598.502	46.79
598.839	46.92
599.176	47.08
599.512	47.14
599.849	47.31
600.186	47.43
600.523	47.61
600.859	47.71
601.196	47.85
601.532	47.89
601.869	48
602.205	48.06
602.542	48.09
602.878	48.18
603.215	48.32
603.551	48.37
603.887	48.45
604.223	48.51
604.56	48.55
604.896	48.57
605.232	48.64
605.568	48.69
605.904	48.65
606.24	48.66
606.576	48.75
606.912	48.74
607.248	48.82
607.583	48.82
607.919	48.82
608.255	48.89
608.591	49.01
608.926	49.06
609.262	49.12
609.597	49.22
609.933	49.25
610.268	49.26
610.604	49.32
610.939	49.48
611.275	49.56
611.61	49.64
611.945	49.78
612.281	49.78
612.616	49.94
612.951	50.03
613.286	50.11
613.621	50.19
613.956	50.25
614.291	50.3
614.626	50.33
614.961	50.4
615.296	50.38
615.631	50.37
615.966	50.41
616.3	50.45
616.635	50.55
616.97	50.57
617.304	50.73
617.639	50.8
617.973	50.77
618.308	50.88
618.642	50.95
618.977	50.92
619.311	50.97
619.646	50.87
619.98	50.88
620.314	50.98
620.648	51.02
620.983	51.08
621.317	51.09
621.651	51.25
621.985	51.33
622.319	51.47
622.653	51.58
622.987	51.61
623.321	51.71
623.655	51.66
623.988	51.7
624.322	51.62
624.656	51.7
624.99	51.74
625.323	51.76
625.657	51.81
625.99	51.88
626.324	51.97
626.657	52.07
626.991	52.15
627.324	52.2
627.658	52.23
627.991	52.28
628.324	52.33
628.657	52.26
628.991	52.26
629.324	52.18
629.657	52.15
629.99	52.18
630.323	52.21
630.656	52.3
630.989	52.44
631.322	52.42
631.655	52.39
631.987	52.36
632.32	52.28
632.653	52.32
632.986	52.36
633.318	52.34
633.651	52.25
633.984	52.28
634.316	52.22
634.649	52.27
634.981	52.29
635.313	52.33
635.646	52.35
635.978	52.32
636.31	52.5
636.643	52.58
636.975	52.62
637.307	52.7
637.639	52.68
637.971	52.64
638.303	52.72
638.635	52.82
638.967	52.86
639.299	52.93
639.631	53
639.963	52.95
640.295	52.98
640.626	53.06
640.958	53.04
641.29	53.1
641.621	53.08
641.953	53.01
642.285	52.95
642.616	52.95
642.948	53.03
643.279	52.84
643.61	52.88
643.942	52.9
644.273	52.82
644.604	52.75
644.936	52.75
645.267	52.85
645.598	52.78
645.929	52.8
646.26	52.68
646.591	52.68
646.922	52.86
647.253	52.83
647.584	52.97
647.915	52.93
648.245	52.96
648.576	52.98
648.907	53.07
649.238	53.15
649.568	53.26
649.899	53.21
650.229	53.26
650.56	53.33
650.89	53.29
651.221	53.3
651.551	53.39
651.882	53.41
652.212	53.43
652.542	53.53
652.872	53.55
653.203	53.76
653.533	53.76
653.863	53.7
654.193	53.73
654.523	53.63
654.853	53.75
655.183	53.76
655.513	53.68
655.843	53.67
656.172	53.71
656.502	53.62
656.832	53.69
657.162	53.71
657.491	53.62
657.821	53.64
658.15	53.62
658.48	53.65
658.809	53.74
659.139	53.77
659.468	53.71
659.798	53.76
660.127	53.69
660.456	53.69
660.785	53.67
661.115	53.69
661.444	53.81
661.773	53.91
662.102	53.9
662.431	53.95
662.76	53.93
663.089	53.95
663.418	53.94
663.747	53.97
664.076	54
664.404	54.13
664.733	54.16
665.062	54.24
665.39	54.17
665.719	54.2
666.048	54.08
666.376	54.14
666.705	54.2
667.033	54.3
667.362	54.34
667.69	54.37
