Data from BU57653_Reflection_00004.txt Node
Date: Mon Nov 18 16:52:03 EST 2019
User: vgr7
Spectrometer: USB2G7710
Scans to average: 3
Trigger mode: 4
Integration Time (sec): 2.000000E-2
Electric dark correction enabled: true
Boxcar width: 10
XAxis mode: Wavelengths
Number of Pixels in Spectrum: 2048
>>>>>Begin Spectral Data<<<<<
177.721	-121.27
178.105	-172.73
178.488	-83.67
178.871	-45.68
179.254	-16.45
179.636	36.52
180.019	-43.07
180.402	20
180.785	-6.01
181.168	18.81
181.55	40.9
181.933	65.42
182.316	118.31
182.698	108.34
183.081	152.77
183.463	773
183.846	392.12
184.228	470.1
184.611	435.43
184.993	932.78
185.376	-1766.14
185.758	1758.39
186.14	2192.44
186.522	-332.94
186.904	-135.51
187.287	-163.37
187.669	-51.21
188.051	-173.45
188.433	-154.09
188.815	-48.78
189.197	-74.22
189.579	-50.95
189.961	-73.68
190.342	-31.26
190.724	-29.47
191.106	-11.21
191.488	-11.81
191.869	-11.93
192.251	-1.32
192.633	-17.86
193.014	-35.07
193.396	-52.86
193.777	-26.05
194.159	-31.54
194.54	-33.35
194.922	-42.67
195.303	-50.05
195.684	-67.65
196.065	-36.32
196.447	-31.79
196.828	-34.78
197.209	-2.56
197.59	5.95
197.971	17.21
198.352	22.65
198.733	18.67
199.114	10.96
199.495	17.12
199.876	26.55
200.257	30.61
200.638	55.58
201.018	57.66
201.399	53.65
201.78	44.84
202.16	42.54
202.541	13.53
202.922	17.67
203.302	17.52
203.683	16.11
204.063	-21.52
204.444	-32.69
204.824	-32.13
205.204	-53.88
205.585	-92.16
205.965	-114.72
206.345	-156.91
206.725	-261.26
207.106	-1692.9
207.486	-9386.49
207.866	494.63
208.246	1594.3
208.626	-2153.11
209.006	-413.12
209.386	-332.67
209.766	-352.48
210.145	-152.74
210.525	-100.63
210.905	-58.55
211.285	-56.21
211.664	-73.98
212.044	-69.45
212.424	-69.81
212.803	-90.88
213.183	-57.07
213.562	-55.81
213.942	-43.83
214.321	-24.22
214.701	-28.9
215.08	-35.68
215.459	-44.13
215.838	-39.92
216.218	-36.61
216.597	-18.39
216.976	-18.24
217.355	-16.69
217.734	-11.34
218.113	-16.84
218.492	-14.73
218.871	-38.53
219.25	-35.01
219.629	-17.26
220.008	-7.63
220.387	-17.92
220.766	-12.17
221.144	-31.37
221.523	-25.74
221.902	-21.17
222.28	-31.29
222.659	-18.51
223.037	-7.64
223.416	-10.44
223.794	-13.16
224.173	-12.13
224.551	-9.43
224.929	-11.48
225.308	-9.71
225.686	-8.03
226.064	-8.51
226.442	-8.54
226.821	0.09
227.199	-1.49
227.577	-3.45
227.955	-2.02
228.333	2.09
228.711	2.41
229.089	5.26
229.467	2.86
229.845	2.68
230.222	3.74
230.6	3.93
230.978	4.44
231.356	6.81
231.733	7.04
232.111	7.13
232.488	7.08
232.866	7.14
233.243	7.44
233.621	5.39
233.998	6.54
234.376	6.98
234.753	5.82
235.13	6.32
235.508	7.27
235.885	5.33
236.262	4.11
236.639	4.71
237.016	3.34
237.393	3.3
237.77	3.31
238.147	4.22
238.524	4.39
238.901	4.92
239.278	4.66
239.655	5.54
240.032	5.52
240.409	4.76
240.785	4.29
241.162	4.35
241.539	4.77
241.915	4.63
242.292	4.09
242.668	4
243.045	4.24
243.421	4.25
243.798	4.07
244.174	4.21
244.551	4.07
244.927	4.13
245.303	4.35
245.679	4.21
246.056	3.91
246.432	3.75
246.808	3.8
247.184	3.87
247.56	3.39
247.936	3.13
248.312	3.35
248.688	3.43
249.064	3.28
249.44	3.19
249.815	3.55
250.191	3.81
250.567	3.61
250.943	3.43
251.318	3.36
251.694	3.49
252.069	3.45
252.445	3.38
252.82	3.35
253.196	3.28
253.571	3.38
253.947	3.27
254.322	3.58
254.697	3.2
255.073	2.93
255.448	3.08
255.823	3.26
256.198	3.37
256.573	3.44
256.948	3.54
257.323	3.71
257.698	3.33
258.073	3.32
258.448	3.46
258.823	3.51
259.198	3.52
259.573	3.41
259.948	3.36
260.322	3.38
260.697	3.27
261.072	3.23
261.446	3.26
261.821	3.39
262.195	3.23
262.57	3.24
262.944	3.3
263.319	3.4
263.693	3.31
264.067	3.26
264.442	3.43
264.816	3.41
265.19	3.28
265.564	3.33
265.938	3.12
266.313	3.08
266.687	2.99
267.061	2.89
267.435	2.92
267.809	3.14
268.183	3.15
268.556	3.15
268.93	3.19
269.304	3.14
269.678	3.31
270.051	3.24
270.425	3.26
270.799	3.21
271.172	3.21
271.546	3.21
271.919	3.04
272.293	2.91
272.666	2.97
273.04	2.97
273.413	2.92
273.787	3
274.16	2.95
274.533	2.97
274.906	3.03
275.279	3.09
275.653	3
276.026	3.04
276.399	3.14
276.772	3.23
277.145	3.28
277.518	3.1
277.891	3.28
278.263	3.35
278.636	3.39
279.009	3.39
279.382	3.64
279.755	3.68
280.127	3.81
280.5	3.93
280.872	3.91
281.245	3.96
281.617	3.99
281.99	4.11
282.362	4.24
282.735	4.13
283.107	4.14
283.479	4.01
283.852	3.99
284.224	4.09
284.596	4.01
284.968	3.9
285.34	4.02
285.713	3.99
286.085	4.13
286.457	4.15
286.829	4.19
287.201	4.1
287.572	4.1
287.944	3.99
288.316	3.93
288.688	3.98
289.06	3.92
289.431	3.96
289.803	4.05
290.175	3.97
290.546	3.98
290.918	3.99
291.289	4.07
291.661	4
292.032	3.97
292.403	4.04
292.775	4.15
293.146	4.01
293.517	4.09
293.889	4.05
294.26	4.09
294.631	3.99
295.002	3.96
295.373	4.1
295.744	4.03
296.115	3.9
296.486	3.78
296.857	3.76
297.228	3.67
297.599	3.54
297.97	3.4
298.34	3.5
298.711	3.5
299.082	3.54
299.452	3.63
299.823	3.71
300.194	3.65
300.564	3.55
300.935	3.46
301.305	3.36
301.676	3.32
302.046	3.23
302.416	3.25
302.787	3.27
303.157	3.12
303.527	3.19
303.897	3.33
304.267	3.62
304.637	3.6
305.008	3.8
305.378	3.81
305.748	4.02
306.117	3.95
306.487	4.03
306.857	3.96
307.227	3.82
307.597	3.66
307.967	3.63
308.336	3.86
308.706	3.94
309.076	3.92
309.445	3.76
309.815	3.85
310.184	3.78
310.554	3.77
310.923	3.71
311.293	3.75
311.662	3.6
312.031	3.38
312.401	3.42
312.77	3.35
313.139	3.24
313.508	3.15
313.877	3.19
314.246	3.12
314.616	3.04
314.985	3.11
315.353	2.99
315.722	3.07
316.091	2.87
316.46	2.82
316.829	2.96
317.198	3.08
317.567	3.02
317.935	3.12
318.304	3.2
318.672	3.3
319.041	3.31
319.41	3.38
319.778	3.59
320.147	3.6
320.515	3.37
320.883	3.44
321.252	3.54
321.62	3.41
321.988	3.42
322.357	3.6
322.725	3.54
323.093	3.76
323.461	3.65
323.829	3.73
324.197	3.77
324.565	3.6
324.933	3.49
325.301	3.42
325.669	3.4
326.037	3.26
326.405	3.3
326.772	3.31
327.14	3.31
327.508	3.23
327.875	3.29
328.243	3.44
328.61	3.44
328.978	3.4
329.346	3.57
329.713	3.57
330.08	3.53
330.448	3.56
330.815	3.32
331.182	3.23
331.55	3.16
331.917	3.23
332.284	3.32
332.651	3.3
333.018	3.24
333.385	3.15
333.752	3.23
334.119	3.24
334.486	3.11
334.853	3.09
335.22	3.09
335.587	3.12
335.954	3.11
336.32	3.17
336.687	3.15
337.054	2.99
337.42	3.01
337.787	2.98
338.153	2.99
338.52	3.08
338.886	3.11
339.253	3.09
339.619	3.06
339.986	2.98
340.352	3.08
340.718	3.07
341.084	3.12
341.451	3.17
341.817	3.05
342.183	3.12
342.549	3.09
342.915	3.12
343.281	3.07
343.647	3.07
344.013	3.11
344.379	3.06
344.745	3.23
345.11	3.23
345.476	3.2
345.842	3.17
346.208	3.12
346.573	3.3
346.939	3.36
347.304	3.31
347.67	3.37
348.035	3.32
348.401	3.4
348.766	3.41
349.132	3.29
349.497	3.24
349.862	3.3
350.228	3.35
350.593	3.22
350.958	3.16
351.323	3.11
351.688	3.01
352.053	3.08
352.418	3
352.783	2.95
353.148	2.98
353.513	2.98
353.878	3.1
354.243	3
354.608	3
354.972	3.11
355.337	3.17
355.702	3.29
356.066	3.32
356.431	3.29
356.795	3.35
357.16	3.44
357.524	3.33
357.889	3.23
358.253	3.3
358.618	3.39
358.982	3.4
359.346	3.33
359.71	3.33
360.075	3.32
360.439	3.39
360.803	3.34
361.167	3.33
361.531	3.29
361.895	3.25
362.259	3.26
362.623	3.16
362.987	3.08
363.351	3.02
363.714	3.06
364.078	3.05
364.442	3
364.806	2.99
365.169	3
365.533	3.05
365.896	3.02
366.26	2.99
366.623	2.93
366.987	3.02
367.35	2.95
367.714	2.93
368.077	2.88
368.44	2.92
368.803	2.91
369.167	2.87
369.53	2.88
369.893	2.92
370.256	2.93
370.619	2.95
370.982	2.88
371.345	2.84
371.708	2.83
372.071	2.83
372.434	2.83
372.797	2.89
373.159	2.87
373.522	2.88
373.885	2.89
374.247	2.96
374.61	2.92
374.973	2.96
375.335	2.99
375.698	2.96
376.06	2.96
376.423	2.97
376.785	3.01
377.147	3.01
377.51	3
377.872	3.06
378.234	3.11
378.596	3.17
378.958	3.14
379.321	3.17
379.683	3.21
380.045	3.19
380.407	3.14
380.769	3.18
381.13	3.2
381.492	3.15
381.854	3.16
382.216	3.17
382.578	3.19
382.939	3.15
383.301	3.14
383.663	3.12
384.024	3.13
384.386	3.16
384.747	3.19
385.109	3.14
385.47	3.07
385.832	3.03
386.193	3.03
386.554	3.02
386.916	3
387.277	2.98
387.638	3.01
387.999	2.99
388.36	2.98
388.721	2.98
389.082	3
389.443	3
389.804	2.97
390.165	2.93
390.526	2.99
390.887	3.02
391.248	3.04
391.609	3.07
391.969	3.07
392.33	3.05
392.691	3.09
393.051	3.1
393.412	3.11
393.772	3.09
394.133	3.1
394.493	3.11
394.854	3.1
395.214	3.08
395.574	3.13
395.935	3.13
396.295	3.13
396.655	3.1
397.015	3.08
397.376	3.1
397.736	3.11
398.096	3.07
398.456	3.08
398.816	3.07
399.176	3.03
399.535	3
399.895	2.98
400.255	2.93
400.615	2.92
400.975	2.89
401.334	2.89
401.694	2.88
402.054	2.86
402.413	2.87
402.773	2.88
403.132	2.83
403.492	2.82
403.851	2.82
404.211	2.82
404.57	2.81
404.929	2.82
405.288	2.84
405.648	2.82
406.007	2.83
406.366	2.82
406.725	2.85
407.084	2.87
407.443	2.89
407.802	2.94
408.161	2.96
408.52	2.94
408.879	2.91
409.238	2.93
409.596	2.97
409.955	2.98
410.314	2.99
410.673	3.03
411.031	3.03
411.39	3.05
411.748	3.07
412.107	3.1
412.465	3.1
412.824	3.08
413.182	3.07
413.54	3.04
413.899	3.06
414.257	3.05
414.615	3.05
414.974	3.05
415.332	3.05
415.69	3.06
416.048	3.05
416.406	3.05
416.764	3.05
417.122	3.05
417.48	3.03
417.838	3.03
418.195	3.03
418.553	3.02
418.911	3.02
419.269	3.02
419.626	3.02
419.984	3
420.342	3.01
420.699	3.02
421.057	3.01
421.414	2.99
421.772	2.98
422.129	2.97
422.486	2.96
422.844	2.96
423.201	2.94
423.558	2.96
423.915	2.97
424.273	2.98
424.63	2.96
424.987	2.96
425.344	2.97
425.701	2.97
426.058	2.97
426.415	2.95
426.772	2.95
427.128	2.94
427.485	2.96
427.842	2.94
428.199	2.96
428.555	2.98
428.912	3.01
429.269	3.03
429.625	3.02
429.982	3.01
430.338	3
430.695	3.02
431.051	2.99
431.407	2.99
431.764	2.97
432.12	2.98
432.476	2.97
432.832	2.94
433.189	2.93
433.545	2.93
433.901	2.94
434.257	2.92
434.613	2.94
434.969	2.93
435.325	2.94
435.681	2.92
436.036	2.9
436.392	2.9
436.748	2.88
437.104	2.89
437.459	2.91
437.815	2.92
438.171	2.91
438.526	2.95
438.882	2.95
439.237	2.95
439.593	2.97
439.948	2.97
440.304	2.98
440.659	2.98
441.014	2.99
441.369	2.97
441.725	2.96
442.08	2.94
442.435	2.94
442.79	2.94
443.145	2.94
443.5	2.94
443.855	2.93
444.21	2.93
444.565	2.94
444.92	2.93
445.275	2.92
445.629	2.93
445.984	2.92
446.339	2.9
446.693	2.89
447.048	2.86
447.403	2.86
447.757	2.86
448.112	2.86
448.466	2.85
448.82	2.85
449.175	2.88
449.529	2.88
449.883	2.87
450.238	2.87
450.592	2.88
450.946	2.87
451.3	2.88
451.654	2.87
452.008	2.87
452.362	2.86
452.716	2.85
453.07	2.83
453.424	2.84
453.778	2.86
454.132	2.88
454.486	2.89
454.839	2.88
455.193	2.88
455.547	2.88
455.9	2.89
456.254	2.9
456.607	2.9
456.961	2.91
457.314	2.94
457.668	2.95
458.021	2.94
458.375	2.96
458.728	2.96
459.081	2.97
459.434	2.95
459.787	2.95
460.141	2.96
460.494	2.97
460.847	2.97
461.2	2.94
461.553	2.95
461.906	2.96
462.259	2.97
462.611	2.97
462.964	2.97
463.317	2.98
463.67	2.97
464.022	2.98
464.375	2.96
464.728	2.94
465.08	2.93
465.433	2.92
465.785	2.91
466.138	2.91
466.49	2.9
466.843	2.91
467.195	2.95
467.547	2.96
467.899	2.97
468.252	2.97
468.604	3
468.956	2.98
469.308	2.98
469.66	3
470.012	3
470.364	3.01
470.716	3.01
471.068	3.03
471.42	3.02
471.772	3.04
472.123	3.05
472.475	3.08
472.827	3.09
473.178	3.1
473.53	3.1
473.882	3.09
474.233	3.09
474.585	3.07
474.936	3.06
475.288	3.05
475.639	3.06
475.99	3.05
476.342	3.05
476.693	3.05
477.044	3.06
477.395	3.04
477.746	3.03
478.097	3.03
478.448	3.01
478.8	3.02
479.15	3
479.501	3.01
479.852	3
480.203	3
480.554	3
480.905	3.01
481.255	3.03
481.606	3.04
481.957	3.04
482.307	3.04
482.658	3.04
483.009	3.03
483.359	3.03
483.709	3.03
484.06	3.03
484.41	3.02
484.761	3.03
485.111	3.03
485.461	3.04
485.811	3.05
486.162	3.04
486.512	3.06
486.862	3.05
487.212	3.04
487.562	3.05
487.912	3.04
488.262	3.04
488.612	3.03
488.961	3.04
489.311	3.04
489.661	3.04
490.011	3.04
490.36	3.04
490.71	3.04
491.06	3.04
491.409	3.04
491.759	3.04
492.108	3.03
492.458	3.03
492.807	3.02
493.157	3.01
493.506	3.02
493.855	3.02
494.204	3.02
494.554	3.02
494.903	3
495.252	3
495.601	3.01
495.95	3.01
496.299	2.99
496.648	2.98
496.997	2.98
497.346	3
497.695	3
498.043	3.02
498.392	3.03
498.741	3.02
499.09	3.03
499.438	3.06
499.787	3.07
500.135	3.1
500.484	3.12
500.832	3.12
501.181	3.13
501.529	3.12
501.878	3.15
502.226	3.18
502.574	3.19
502.923	3.17
503.271	3.16
503.619	3.2
503.967	3.2
504.315	3.19
504.663	3.18
505.011	3.2
505.359	3.2
505.707	3.2
506.055	3.23
506.403	3.22
506.751	3.22
507.098	3.22
507.446	3.22
507.794	3.19
508.141	3.21
508.489	3.21
508.837	3.25
509.184	3.26
509.531	3.25
509.879	3.27
510.226	3.31
510.574	3.32
510.921	3.32
511.268	3.33
511.616	3.35
511.963	3.36
512.31	3.36
512.657	3.38
513.004	3.4
513.351	3.39
513.698	3.41
514.045	3.39
514.392	3.38
514.739	3.38
515.086	3.42
515.432	3.4
515.779	3.41
516.126	3.41
516.473	3.41
516.819	3.43
517.166	3.44
517.512	3.41
517.859	3.41
518.205	3.42
518.552	3.44
518.898	3.42
519.245	3.44
519.591	3.43
519.937	3.42
520.283	3.41
520.629	3.42
520.976	3.44
521.322	3.44
521.668	3.45
522.014	3.45
522.36	3.45
522.706	3.45
523.052	3.46
523.398	3.44
523.743	3.43
524.089	3.44
524.435	3.41
524.781	3.42
525.126	3.42
525.472	3.43
525.817	3.43
526.163	3.45
526.509	3.44
526.854	3.46
527.199	3.47
527.545	3.46
527.89	3.46
528.235	3.46
528.581	3.47
528.926	3.48
529.271	3.48
529.616	3.47
529.961	3.48
530.306	3.48
530.651	3.48
530.996	3.5
531.341	3.5
531.686	3.52
532.031	3.53
532.376	3.53
532.721	3.52
533.065	3.52
533.41	3.52
533.755	3.53
534.099	3.53
534.444	3.52
534.788	3.54
535.133	3.55
535.477	3.54
535.822	3.53
536.166	3.5
536.51	3.51
536.855	3.52
537.199	3.53
537.543	3.53
537.887	3.54
538.231	3.53
538.576	3.53
538.92	3.54
539.264	3.53
539.608	3.54
539.951	3.55
540.295	3.54
540.639	3.55
540.983	3.54
541.327	3.53
541.671	3.55
542.014	3.54
542.358	3.54
542.701	3.54
543.045	3.55
543.389	3.58
543.732	3.59
544.075	3.61
544.419	3.6
544.762	3.58
545.105	3.59
545.449	3.6
545.792	3.61
546.135	3.61
546.478	3.61
546.821	3.6
547.165	3.6
547.508	3.61
547.851	3.58
548.194	3.58
548.536	3.57
548.879	3.56
549.222	3.55
549.565	3.55
549.908	3.55
550.25	3.57
550.593	3.56
550.936	3.53
551.278	3.53
551.621	3.57
551.963	3.59
552.306	3.58
552.648	3.55
552.991	3.58
553.333	3.58
553.675	3.58
554.017	3.6
554.36	3.6
554.702	3.62
555.044	3.63
555.386	3.65
555.728	3.68
556.07	3.71
556.412	3.75
556.754	3.76
557.096	3.75
557.438	3.73
557.78	3.74
558.121	3.77
558.463	3.76
558.805	3.75
559.147	3.74
559.488	3.76
559.83	3.74
560.171	3.74
560.513	3.75
560.854	3.76
561.196	3.75
561.537	3.75
561.878	3.72
562.22	3.75
562.561	3.72
562.902	3.74
563.243	3.69
563.584	3.64
563.925	3.66
564.266	3.68
564.607	3.71
564.948	3.71
565.289	3.72
565.63	3.73
565.971	3.71
566.312	3.72
566.653	3.72
566.993	3.72
567.334	3.67
567.675	3.64
568.015	3.65
568.356	3.64
568.696	3.66
569.037	3.67
569.377	3.66
569.718	3.7
570.058	3.7
570.398	3.73
570.739	3.73
571.079	3.72
571.419	3.7
571.759	3.7
572.099	3.67
572.439	3.64
572.779	3.62
573.119	3.63
573.459	3.62
573.799	3.61
574.139	3.61
574.479	3.63
574.819	3.66
575.158	3.64
575.498	3.63
575.838	3.63
576.177	3.62
576.517	3.61
576.856	3.59
577.196	3.56
577.535	3.54
577.875	3.54
578.214	3.54
578.553	3.56
578.893	3.53
579.232	3.56
579.571	3.58
579.91	3.59
580.25	3.6
580.589	3.61
580.928	3.63
581.267	3.68
581.606	3.69
581.945	3.68
582.283	3.66
582.622	3.65
582.961	3.64
583.3	3.64
583.639	3.68
583.977	3.7
584.316	3.73
584.654	3.73
584.993	3.76
585.332	3.78
585.67	3.77
586.008	3.79
586.347	3.78
586.685	3.79
587.024	3.79
587.362	3.76
587.7	3.78
588.038	3.77
588.376	3.74
588.715	3.76
589.053	3.77
589.391	3.78
589.729	3.8
590.067	3.81
590.404	3.82
590.742	3.77
591.08	3.76
591.418	3.75
591.756	3.75
592.093	3.72
592.431	3.69
592.769	3.7
593.106	3.68
593.444	3.69
593.781	3.67
594.119	3.68
594.456	3.71
594.793	3.7
595.131	3.69
595.468	3.71
595.805	3.69
596.143	3.7
596.48	3.68
596.817	3.71
597.154	3.71
597.491	3.71
597.828	3.74
598.165	3.73
598.502	3.69
598.839	3.71
599.176	3.72
599.512	3.74
599.849	3.74
600.186	3.72
600.523	3.77
600.859	3.79
601.196	3.8
601.532	3.77
601.869	3.76
602.205	3.77
602.542	3.76
602.878	3.75
603.215	3.75
603.551	3.8
603.887	3.78
604.223	3.76
604.56	3.79
604.896	3.79
605.232	3.81
605.568	3.85
605.904	3.82
606.24	3.84
606.576	3.84
606.912	3.86
607.248	3.87
607.583	3.82
607.919	3.78
608.255	3.73
608.591	3.74
608.926	3.77
609.262	3.81
609.597	3.82
609.933	3.82
610.268	3.8
610.604	3.79
610.939	3.79
611.275	3.78
611.61	3.73
611.945	3.73
612.281	3.74
612.616	3.71
612.951	3.71
613.286	3.7
613.621	3.72
613.956	3.69
614.291	3.71
614.626	3.78
614.961	3.81
615.296	3.84
615.631	3.87
615.966	3.85
616.3	3.84
616.635	3.83
616.97	3.91
617.304	3.93
617.639	3.96
617.973	3.91
618.308	3.94
618.642	3.98
618.977	3.99
619.311	3.94
619.646	3.99
619.98	4.02
620.314	4
620.648	3.99
620.983	3.99
621.317	3.97
621.651	3.96
621.985	3.98
622.319	4
622.653	3.99
622.987	4
623.321	3.98
623.655	4.01
623.988	3.95
624.322	3.94
624.656	3.96
624.99	4
625.323	3.93
625.657	3.92
625.99	3.96
626.324	3.99
626.657	4
626.991	4.01
627.324	4.05
627.658	4.08
627.991	4.08
628.324	4.06
628.657	4.02
628.991	4.01
629.324	4.05
629.657	4.03
629.99	4.06
630.323	4.02
630.656	4.02
630.989	4.02
631.322	4.04
631.655	4.01
631.987	4
632.32	4.06
632.653	4.06
632.986	4.05
633.318	4.05
633.651	4.04
633.984	4
634.316	3.99
634.649	3.98
634.981	3.98
635.313	3.97
635.646	4.01
635.978	3.97
636.31	3.86
636.643	3.86
636.975	3.78
637.307	3.81
637.639	3.81
637.971	3.82
638.303	3.81
638.635	3.75
638.967	3.77
639.299	3.8
639.631	3.77
639.963	3.66
640.295	3.63
640.626	3.63
640.958	3.64
641.29	3.66
641.621	3.61
641.953	3.55
642.285	3.64
642.616	3.68
642.948	3.71
643.279	3.8
643.61	3.78
643.942	3.82
644.273	3.78
644.604	3.74
644.936	3.71
645.267	3.73
645.598	3.84
645.929	3.85
646.26	3.86
646.591	3.88
646.922	3.92
647.253	3.93
647.584	3.95
647.915	3.98
648.245	3.91
648.576	3.91
648.907	4
649.238	3.95
649.568	3.9
649.899	3.91
650.229	3.89
650.56	3.88
650.89	3.9
651.221	3.92
651.551	3.91
651.882	3.88
652.212	3.86
652.542	3.84
652.872	3.75
653.203	3.69
653.533	3.73
653.863	3.72
654.193	3.75
654.523	3.73
654.853	3.71
655.183	3.73
655.513	3.69
655.843	3.63
656.172	3.64
656.502	3.66
656.832	3.59
657.162	3.61
657.491	3.66
657.821	3.61
658.15	3.6
658.48	3.63
658.809	3.62
659.139	3.65
659.468	3.57
659.798	3.64
660.127	3.68
660.456	3.72
660.785	3.76
661.115	3.76
661.444	3.75
661.773	3.84
662.102	3.85
662.431	3.97
662.76	4.04
663.089	4.04
663.418	4
663.747	4.02
664.076	4
664.404	4
664.733	4.09
665.062	4.13
665.39	4.13
665.719	4.21
666.048	4.16
666.376	4.2
666.705	4.19
667.033	4.16
667.362	4.14
667.69	4.05
668.018	4.03
668.347	4.07
668.675	3.99
669.003	4.08
669.331	4.07
669.659	4
669.987	3.98
670.315	4.04
670.643	4.04
670.971	4.07
671.299	4.12
671.627	4.11
671.955	4.08
672.283	4.05
672.61	4.07
672.938	4.08
673.266	4.15
673.593	4.26
673.921	4.26
674.249	4.18
674.576	4.3
674.904	4.37
675.231	4.33
675.558	4.33
675.886	4.24
676.213	4.21
676.54	4.24
676.867	4.33
677.195	4.27
677.522	4.34
677.849	4.31
678.176	4.19
678.503	4.19
678.83	4.22
679.157	4.27
