Data from BU57994_Reflection_00013.txt Node
Date: Mon Nov 18 16:53:24 EST 2019
User: vgr7
Spectrometer: USB2G7710
Scans to average: 3
Trigger mode: 4
Integration Time (sec): 2.000000E-2
Electric dark correction enabled: true
Boxcar width: 10
XAxis mode: Wavelengths
Number of Pixels in Spectrum: 2048
>>>>>Begin Spectral Data<<<<<
177.721	20.16
178.105	-24.63
178.488	-44.48
178.871	-84.73
179.254	-152.45
179.636	-70.52
180.019	-148.51
180.402	84.62
180.785	332.2
181.168	-1353.13
181.55	157.08
181.933	117.94
182.316	133.78
182.698	98.46
183.081	72.01
183.463	71.17
183.846	129.66
184.228	87.49
184.611	126.09
184.993	603.36
185.376	-135.57
185.758	-429.41
186.14	-561.63
186.522	-216.65
186.904	-243.24
187.287	-221.54
187.669	-109.46
188.051	-191.24
188.433	-151.06
188.815	-69.26
189.197	-87.39
189.579	-38.46
189.961	-19.76
190.342	-18.58
190.724	-28.19
191.106	-16.46
191.488	4.61
191.869	8.04
192.251	3.41
192.633	-8
193.014	-27.98
193.396	-14.64
193.777	-26
194.159	-23.37
194.54	-15.78
194.922	-25.64
195.303	-20.28
195.684	-14.03
196.065	18.43
196.447	19.66
196.828	31.92
197.209	54.82
197.59	35.55
197.971	21.87
198.352	28.98
198.733	36.06
199.114	28.95
199.495	21.46
199.876	29.01
200.257	32.68
200.638	37.89
201.018	34.94
201.399	38.8
201.78	41.08
202.16	46.93
202.541	41.51
202.922	68.69
203.302	42.58
203.683	51.72
204.063	37.52
204.444	43.71
204.824	30.61
205.204	27.5
205.585	19.48
205.965	32.19
206.345	21.36
206.725	7.88
207.106	9.03
207.486	4.48
207.866	-4.49
208.246	-26.72
208.626	-65.48
209.006	-51.84
209.386	-81.05
209.766	-56.04
210.145	-74.66
210.525	-48.91
210.905	-41.26
211.285	-20.49
211.664	-22.67
212.044	-10.16
212.424	-14.45
212.803	-7.91
213.183	-2.09
213.562	13.61
213.942	4.02
214.321	20.29
214.701	15.73
215.08	20.78
215.459	21.1
215.838	21.63
216.218	27.19
216.597	38.9
216.976	39.66
217.355	35.56
217.734	26.57
218.113	36.08
218.492	35.93
218.871	31.56
219.25	23.46
219.629	12.21
220.008	9.06
220.387	12.41
220.766	11.51
221.144	0.57
221.523	-8.42
221.902	0.56
222.28	-9.54
222.659	-5.7
223.037	-10.12
223.416	-18.15
223.794	-21.77
224.173	-23.91
224.551	-24.98
224.929	-29.5
225.308	-17.99
225.686	-8.14
226.064	-7.54
226.442	-5.05
226.821	-2.64
227.199	-4.84
227.577	-0.78
227.955	-3.17
228.333	-6.02
228.711	-7.03
229.089	-3.99
229.467	-1.78
229.845	-1.07
230.222	-0.18
230.6	1.29
230.978	0.86
231.356	5.37
231.733	7.71
232.111	8.48
232.488	7.77
232.866	8.58
233.243	9.15
233.621	6.44
233.998	6.46
234.376	5.62
234.753	5.66
235.13	8.63
235.508	9.47
235.885	10.32
236.262	9.9
236.639	9.47
237.016	8.73
237.393	8.16
237.77	7.42
238.147	7.68
238.524	6.64
238.901	6.71
239.278	5.59
239.655	5.55
240.032	5.36
240.409	5.89
240.785	5.67
241.162	5.83
241.539	6.48
241.915	6.99
242.292	6.67
242.668	6.4
243.045	6
243.421	5.53
243.798	5.25
244.174	5.18
244.551	5.32
244.927	5.14
245.303	5
245.679	4.86
246.056	4.68
246.432	4.55
246.808	4.48
247.184	4.52
247.56	4.27
247.936	4.18
248.312	4.03
248.688	3.81
249.064	3.79
249.44	3.52
249.815	3.19
250.191	3.32
250.567	3.32
250.943	3.26
251.318	3.42
251.694	3.59
252.069	3.61
252.445	3.63
252.82	3.58
253.196	3.51
253.571	3.54
253.947	3.45
254.322	3.87
254.697	3.92
255.073	3.5
255.448	3.38
255.823	3.47
256.198	3.48
256.573	3.66
256.948	3.68
257.323	3.87
257.698	3.96
258.073	4.05
258.448	4.15
258.823	4.08
259.198	4.03
259.573	4.02
259.948	3.98
260.322	3.96
260.697	3.95
261.072	3.86
261.446	3.92
261.821	3.8
262.195	3.68
262.57	3.71
262.944	3.84
263.319	3.87
263.693	3.64
264.067	3.72
264.442	3.86
264.816	3.67
265.19	3.54
265.564	3.47
265.938	3.18
266.313	3.06
266.687	3.13
267.061	3.15
267.435	2.97
267.809	3.08
268.183	3.05
268.556	3.02
268.93	3.12
269.304	3.23
269.678	3.46
270.051	3.39
270.425	3.3
270.799	3.29
271.172	3.46
271.546	3.7
271.919	3.62
272.293	3.53
272.666	3.71
273.04	3.9
273.413	3.79
273.787	3.81
274.16	3.76
274.533	3.62
274.906	3.46
275.279	3.38
275.653	3.29
276.026	3.14
276.399	3.18
276.772	3.22
277.145	3.02
277.518	2.96
277.891	2.99
278.263	2.98
278.636	2.87
279.009	2.64
279.382	2.65
279.755	2.68
280.127	2.76
280.5	2.7
280.872	2.72
281.245	2.67
281.617	2.76
281.99	2.91
282.362	2.95
282.735	2.83
283.107	2.85
283.479	2.81
283.852	3.01
284.224	2.99
284.596	3
284.968	3.06
285.34	3.02
285.713	3.14
286.085	3.25
286.457	3.46
286.829	3.53
287.201	3.46
287.572	3.45
287.944	3.4
288.316	3.32
288.688	3.12
289.06	3.23
289.431	3.27
289.803	3.29
290.175	3.29
290.546	3.46
290.918	3.57
291.289	3.66
291.661	3.64
292.032	3.78
292.403	3.75
292.775	3.84
293.146	3.87
293.517	3.8
293.889	3.81
294.26	3.77
294.631	3.82
295.002	3.88
295.373	3.88
295.744	3.83
296.115	4.05
296.486	4.05
296.857	4.17
297.228	4.27
297.599	4.17
297.97	4.35
298.34	4.44
298.711	4.51
299.082	4.51
299.452	4.57
299.823	4.65
300.194	4.78
300.564	4.71
300.935	4.75
301.305	4.87
301.676	4.97
302.046	4.98
302.416	5.14
302.787	5.21
303.157	5.38
303.527	5.54
303.897	5.56
304.267	5.95
304.637	6.03
305.008	6.07
305.378	6.31
305.748	6.32
306.117	6.33
306.487	6.39
306.857	6.53
307.227	6.58
307.597	6.64
307.967	6.66
308.336	6.68
308.706	6.8
309.076	6.76
309.445	6.75
309.815	6.8
310.184	6.7
310.554	6.75
310.923	6.7
311.293	6.7
311.662	6.65
312.031	6.56
312.401	6.59
312.77	6.67
313.139	6.59
313.508	6.69
313.877	6.69
314.246	6.68
314.616	6.75
314.985	6.91
315.353	6.98
315.722	7.12
316.091	7.22
316.46	7.31
316.829	7.38
317.198	7.51
317.567	7.56
317.935	7.73
318.304	7.87
318.672	8.05
319.041	8.34
319.41	8.57
319.778	8.65
320.147	8.74
320.515	8.73
320.883	8.82
321.252	8.85
321.62	8.96
321.988	9.01
322.357	9.07
322.725	9.09
323.093	9.08
323.461	9.09
323.829	9.13
324.197	9.19
324.565	9.29
324.933	9.35
325.301	9.49
325.669	9.52
326.037	9.58
326.405	9.57
326.772	9.52
327.14	9.44
327.508	9.45
327.875	9.4
328.243	9.48
328.61	9.49
328.978	9.45
329.346	9.58
329.713	9.59
330.08	9.63
330.448	9.53
330.815	9.52
331.182	9.51
331.55	9.61
331.917	9.61
332.284	9.71
332.651	9.56
333.018	9.6
333.385	9.8
333.752	9.8
334.119	9.94
334.486	9.96
334.853	9.98
335.22	10.06
335.587	10.23
335.954	10.22
336.32	10.34
336.687	10.35
337.054	10.31
337.42	10.32
337.787	10.38
338.153	10.57
338.52	10.63
338.886	10.62
339.253	10.58
339.619	10.67
339.986	10.6
340.352	10.71
340.718	10.69
341.084	10.62
341.451	10.69
341.817	10.68
342.183	10.69
342.549	10.73
342.915	10.78
343.281	10.67
343.647	10.66
344.013	10.64
344.379	10.65
344.745	10.79
345.11	10.97
345.476	10.98
345.842	10.98
346.208	11.07
346.573	11.18
346.939	11.31
347.304	11.14
347.67	11.25
348.035	11.31
348.401	11.4
348.766	11.46
349.132	11.45
349.497	11.4
349.862	11.47
350.228	11.55
350.593	11.49
350.958	11.63
351.323	11.73
351.688	11.73
352.053	11.83
352.418	11.76
352.783	11.66
353.148	11.62
353.513	11.59
353.878	11.54
354.243	11.57
354.608	11.57
354.972	11.7
355.337	11.72
355.702	11.74
356.066	11.63
356.431	11.49
356.795	11.43
357.16	11.37
357.524	11.27
357.889	11.19
358.253	11.24
358.618	11.18
358.982	11.01
359.346	10.93
359.71	10.88
360.075	10.76
360.439	10.73
360.803	10.67
361.167	10.58
361.531	10.54
361.895	10.4
362.259	10.29
362.623	10.2
362.987	10.05
363.351	10
363.714	10.01
364.078	9.98
364.442	9.86
364.806	9.87
365.169	9.86
365.533	9.79
365.896	9.67
366.26	9.63
366.623	9.61
366.987	9.62
367.35	9.54
367.714	9.55
368.077	9.47
368.44	9.38
368.803	9.34
369.167	9.19
369.53	9.15
369.893	9.12
370.256	9.1
370.619	9.07
370.982	8.9
371.345	8.76
371.708	8.75
372.071	8.74
372.434	8.63
372.797	8.56
373.159	8.53
373.522	8.45
373.885	8.34
374.247	8.34
374.61	8.26
374.973	8.14
375.335	8.08
375.698	8.01
376.06	7.95
376.423	7.91
376.785	7.92
377.147	7.87
377.51	7.75
377.872	7.67
378.234	7.59
378.596	7.56
378.958	7.48
379.321	7.4
379.683	7.33
380.045	7.26
380.407	7.2
380.769	7.13
381.13	7.04
381.492	6.99
381.854	6.88
382.216	6.82
382.578	6.79
382.939	6.65
383.301	6.62
383.663	6.57
384.024	6.49
384.386	6.46
384.747	6.38
385.109	6.37
385.47	6.32
385.832	6.21
386.193	6.16
386.554	6.11
386.916	6.07
387.277	6.05
387.638	6.03
387.999	5.94
388.36	5.88
388.721	5.87
389.082	5.82
389.443	5.75
389.804	5.71
390.165	5.64
390.526	5.66
390.887	5.6
391.248	5.56
391.609	5.48
391.969	5.39
392.33	5.34
392.691	5.3
393.051	5.24
393.412	5.25
393.772	5.21
394.133	5.21
394.493	5.18
394.854	5.11
395.214	5.08
395.574	5.05
395.935	5.02
396.295	4.97
396.655	4.91
397.015	4.9
397.376	4.85
397.736	4.83
398.096	4.77
398.456	4.74
398.816	4.73
399.176	4.66
399.535	4.61
399.895	4.6
400.255	4.6
400.615	4.6
400.975	4.56
401.334	4.56
401.694	4.51
402.054	4.44
402.413	4.43
402.773	4.35
403.132	4.33
403.492	4.32
403.851	4.3
404.211	4.31
404.57	4.27
404.929	4.25
405.288	4.21
405.648	4.19
406.007	4.14
406.366	4.12
406.725	4.18
407.084	4.17
407.443	4.14
407.802	4.09
408.161	4.06
408.52	4.03
408.879	4
409.238	3.98
409.596	3.98
409.955	3.96
410.314	3.96
410.673	3.93
411.031	3.89
411.39	3.85
411.748	3.83
412.107	3.85
412.465	3.83
412.824	3.79
413.182	3.79
413.54	3.79
413.899	3.78
414.257	3.75
414.615	3.75
414.974	3.75
415.332	3.72
415.69	3.69
416.048	3.69
416.406	3.68
416.764	3.65
417.122	3.65
417.48	3.63
417.838	3.63
418.195	3.62
418.553	3.6
418.911	3.58
419.269	3.58
419.626	3.57
419.984	3.54
420.342	3.54
420.699	3.51
421.057	3.49
421.414	3.47
421.772	3.46
422.129	3.45
422.486	3.42
422.844	3.42
423.201	3.42
423.558	3.4
423.915	3.4
424.273	3.41
424.63	3.38
424.987	3.38
425.344	3.37
425.701	3.35
426.058	3.35
426.415	3.34
426.772	3.33
427.128	3.31
427.485	3.3
427.842	3.29
428.199	3.31
428.555	3.32
428.912	3.32
429.269	3.32
429.625	3.3
429.982	3.29
430.338	3.27
430.695	3.27
431.051	3.27
431.407	3.26
431.764	3.25
432.12	3.26
432.476	3.24
432.832	3.23
433.189	3.24
433.545	3.25
433.901	3.27
434.257	3.24
434.613	3.24
434.969	3.26
435.325	3.25
435.681	3.24
436.036	3.22
436.392	3.21
436.748	3.21
437.104	3.2
437.459	3.2
437.815	3.2
438.171	3.19
438.526	3.2
438.882	3.2
439.237	3.2
439.593	3.21
439.948	3.21
440.304	3.2
440.659	3.2
441.014	3.2
441.369	3.19
441.725	3.19
442.08	3.19
442.435	3.19
442.79	3.19
443.145	3.17
443.5	3.18
443.855	3.18
444.21	3.18
444.565	3.19
444.92	3.21
445.275	3.21
445.629	3.21
445.984	3.2
446.339	3.17
446.693	3.14
447.048	3.12
447.403	3.11
447.757	3.1
448.112	3.08
448.466	3.07
448.82	3.06
449.175	3.06
449.529	3.05
449.883	3.03
450.238	3.03
450.592	3.04
450.946	3.03
451.3	3.01
451.654	3.01
452.008	2.99
452.362	2.97
452.716	2.94
453.07	2.93
453.424	2.94
453.778	2.96
454.132	2.95
454.486	2.95
454.839	2.95
455.193	2.95
455.547	2.96
455.9	2.96
456.254	2.97
456.607	2.97
456.961	2.97
457.314	2.96
457.668	2.97
458.021	2.96
458.375	2.95
458.728	2.95
459.081	2.95
459.434	2.94
459.787	2.94
460.141	2.95
460.494	2.95
460.847	2.95
461.2	2.94
461.553	2.95
461.906	2.97
462.259	2.99
462.611	3.02
462.964	3.04
463.317	3.03
463.67	3.04
464.022	3.04
464.375	3.04
464.728	3.07
465.08	3.08
465.433	3.1
465.785	3.13
466.138	3.16
466.49	3.18
466.843	3.2
467.195	3.22
467.547	3.26
467.899	3.24
468.252	3.27
468.604	3.28
468.956	3.29
469.308	3.3
469.66	3.3
470.012	3.3
470.364	3.32
470.716	3.34
471.068	3.36
471.42	3.36
471.772	3.38
472.123	3.39
472.475	3.41
472.827	3.41
473.178	3.41
473.53	3.4
473.882	3.39
474.233	3.4
474.585	3.38
474.936	3.37
475.288	3.4
475.639	3.4
475.99	3.41
476.342	3.41
476.693	3.41
477.044	3.42
477.395	3.4
477.746	3.39
478.097	3.39
478.448	3.37
478.8	3.37
479.15	3.34
479.501	3.31
479.852	3.3
480.203	3.28
480.554	3.27
480.905	3.27
481.255	3.28
481.606	3.28
481.957	3.29
482.307	3.3
482.658	3.28
483.009	3.27
483.359	3.27
483.709	3.26
484.06	3.24
484.41	3.24
484.761	3.24
485.111	3.23
485.461	3.23
485.811	3.23
486.162	3.23
486.512	3.24
486.862	3.25
487.212	3.25
487.562	3.25
487.912	3.25
488.262	3.25
488.612	3.25
488.961	3.25
489.311	3.24
489.661	3.22
490.011	3.23
490.36	3.24
490.71	3.25
491.06	3.25
491.409	3.27
491.759	3.26
492.108	3.27
492.458	3.29
492.807	3.3
493.157	3.3
493.506	3.31
493.855	3.33
494.204	3.35
494.554	3.36
494.903	3.38
495.252	3.4
495.601	3.43
495.95	3.45
496.299	3.47
496.648	3.49
496.997	3.54
497.346	3.58
497.695	3.61
498.043	3.6
498.392	3.64
498.741	3.67
499.09	3.7
499.438	3.75
499.787	3.79
500.135	3.85
500.484	3.91
500.832	3.96
501.181	4
501.529	4.05
501.878	4.12
502.226	4.19
502.574	4.24
502.923	4.31
503.271	4.36
503.619	4.44
503.967	4.54
504.315	4.59
504.663	4.66
505.011	4.77
505.359	4.89
505.707	5
506.055	5.11
506.403	5.23
506.751	5.32
507.098	5.42
507.446	5.52
507.794	5.62
508.141	5.74
508.489	5.84
508.837	5.98
509.184	6.11
509.531	6.23
509.879	6.39
510.226	6.51
510.574	6.65
510.921	6.78
511.268	6.91
511.616	7.07
511.963	7.22
512.31	7.37
512.657	7.54
513.004	7.75
513.351	7.93
513.698	8.11
514.045	8.31
514.392	8.5
514.739	8.71
515.086	8.92
515.432	9.12
515.779	9.33
516.126	9.53
516.473	9.74
516.819	9.94
517.166	10.12
517.512	10.34
517.859	10.52
518.205	10.72
518.552	10.91
518.898	11.09
519.245	11.28
519.591	11.45
519.937	11.64
520.283	11.79
520.629	12
520.976	12.22
521.322	12.42
521.668	12.65
522.014	12.87
522.36	13.11
522.706	13.38
523.052	13.69
523.398	13.99
523.743	14.28
524.089	14.57
524.435	14.87
524.781	15.12
525.126	15.36
525.472	15.59
525.817	15.79
526.163	15.98
526.509	16.17
526.854	16.34
527.199	16.5
527.545	16.64
527.89	16.82
528.235	16.98
528.581	17.15
528.926	17.34
529.271	17.53
529.616	17.69
529.961	17.82
530.306	18
530.651	18.15
530.996	18.33
531.341	18.51
531.686	18.7
532.031	18.9
532.376	19.12
532.721	19.32
533.065	19.55
533.41	19.79
533.755	20.04
534.099	20.27
534.444	20.5
534.788	20.77
535.133	20.99
535.477	21.24
535.822	21.48
536.166	21.75
536.51	22.01
536.855	22.33
537.199	22.66
537.543	22.94
537.887	23.27
538.231	23.55
538.576	23.88
538.92	24.19
539.264	24.46
539.608	24.72
539.951	24.97
540.295	25.19
540.639	25.42
540.983	25.64
541.327	25.87
541.671	26.08
542.014	26.31
542.358	26.55
542.701	26.75
543.045	26.96
543.389	27.15
543.732	27.37
544.075	27.59
544.419	27.81
544.762	28.04
545.105	28.29
545.449	28.58
545.792	28.83
546.135	29.12
546.478	29.4
546.821	29.7
547.165	30.04
547.508	30.38
547.851	30.72
548.194	31.02
548.536	31.32
548.879	31.72
549.222	31.99
549.565	32.27
549.908	32.61
550.25	32.95
550.593	33.25
550.936	33.58
551.278	33.85
551.621	34.21
551.963	34.51
552.306	34.8
552.648	35.11
552.991	35.45
553.333	35.72
553.675	36.01
554.017	36.34
554.36	36.62
554.702	36.87
555.044	37.13
555.386	37.46
555.728	37.79
556.07	38.03
556.412	38.28
556.754	38.59
557.096	38.87
557.438	39.15
557.78	39.49
558.121	39.77
558.463	40.08
558.805	40.36
559.147	40.63
559.488	40.92
559.83	41.18
560.171	41.4
560.513	41.67
560.854	41.91
561.196	42.05
561.537	42.32
561.878	42.58
562.22	42.79
562.561	42.96
562.902	43.21
563.243	43.47
563.584	43.77
563.925	43.95
564.266	44.17
564.607	44.42
564.948	44.68
565.289	44.92
565.63	45.09
565.971	45.31
566.312	45.55
566.653	45.77
566.993	45.93
567.334	46.18
567.675	46.35
568.015	46.59
568.356	46.9
568.696	47.03
569.037	47.23
569.377	47.44
569.718	47.65
570.058	47.75
570.398	47.94
570.739	48.15
571.079	48.37
571.419	48.57
571.759	48.68
572.099	48.81
572.439	48.94
572.779	49.14
573.119	49.25
573.459	49.43
573.799	49.59
574.139	49.76
574.479	49.9
574.819	50.01
575.158	50.1
575.498	50.19
575.838	50.4
576.177	50.54
576.517	50.68
576.856	50.87
577.196	51.01
577.535	51.12
577.875	51.26
578.214	51.37
578.553	51.47
578.893	51.66
579.232	51.77
579.571	51.94
579.91	52.02
580.25	52.19
580.589	52.28
580.928	52.43
581.267	52.54
581.606	52.62
581.945	52.77
582.283	52.93
582.622	53.01
582.961	53.07
583.3	53.23
583.639	53.34
583.977	53.42
584.316	53.6
584.654	53.66
584.993	53.72
585.332	53.84
585.67	54.03
586.008	54.15
586.347	54.25
586.685	54.3
587.024	54.5
587.362	54.59
587.7	54.73
588.038	54.75
588.376	54.8
588.715	54.93
589.053	55.02
589.391	55.19
589.729	55.34
590.067	55.43
590.404	55.49
590.742	55.57
591.08	55.61
591.418	55.72
591.756	55.86
592.093	55.99
592.431	56.04
592.769	56.06
593.106	56.08
593.444	56.21
593.781	56.33
594.119	56.38
594.456	56.42
594.793	56.47
595.131	56.51
595.468	56.6
595.805	56.67
596.143	56.77
596.48	56.8
596.817	56.88
597.154	57
597.491	57.06
597.828	57.16
598.165	57.32
598.502	57.33
598.839	57.4
599.176	57.41
599.512	57.54
599.849	57.58
600.186	57.67
600.523	57.69
600.859	57.79
601.196	57.91
601.532	58.04
601.869	58.06
602.205	58.13
602.542	58.19
602.878	58.25
603.215	58.36
603.551	58.4
603.887	58.43
604.223	58.47
604.56	58.48
604.896	58.53
605.232	58.49
605.568	58.49
605.904	58.55
606.24	58.64
606.576	58.61
606.912	58.69
607.248	58.77
607.583	58.8
607.919	58.77
608.255	58.74
608.591	58.72
608.926	58.75
609.262	58.86
609.597	58.89
609.933	58.94
610.268	58.88
610.604	58.91
610.939	58.95
611.275	59
611.61	58.98
611.945	59
612.281	59.04
612.616	59.17
612.951	59.17
613.286	59.18
613.621	59.27
613.956	59.3
614.291	59.42
614.626	59.42
614.961	59.43
615.296	59.46
615.631	59.53
615.966	59.57
616.3	59.56
616.635	59.57
616.97	59.52
617.304	59.54
617.639	59.57
617.973	59.5
618.308	59.47
618.642	59.64
618.977	59.59
619.311	59.57
619.646	59.63
619.98	59.76
620.314	59.75
620.648	59.79
620.983	59.96
621.317	59.94
621.651	59.99
621.985	60.1
622.319	60.19
622.653	60.27
622.987	60.41
623.321	60.41
623.655	60.51
623.988	60.59
624.322	60.64
624.656	60.73
624.99	60.79
625.323	60.76
625.657	60.76
625.99	60.85
626.324	60.89
626.657	60.86
626.991	60.76
627.324	60.82
627.658	60.83
627.991	60.73
628.324	60.78
628.657	60.84
628.991	60.79
629.324	60.76
629.657	60.64
629.99	60.64
630.323	60.59
630.656	60.55
630.989	60.58
631.322	60.61
631.655	60.52
631.987	60.54
632.32	60.56
632.653	60.51
632.986	60.48
633.318	60.5
633.651	60.54
633.984	60.62
634.316	60.62
634.649	60.69
634.981	60.7
635.313	60.57
635.646	60.64
635.978	60.79
636.31	60.89
636.643	61.05
636.975	61.04
637.307	61.12
637.639	61.2
637.971	61.18
638.303	61.16
638.635	61.21
638.967	61.19
639.299	61.29
639.631	61.37
639.963	61.37
640.295	61.46
640.626	61.47
640.958	61.46
641.29	61.52
641.621	61.45
641.953	61.46
642.285	61.57
642.616	61.42
642.948	61.29
643.279	61.33
643.61	61.22
643.942	61.16
644.273	61.2
644.604	61.16
644.936	61.17
645.267	61.31
645.598	61.32
645.929	61.39
646.26	61.36
646.591	61.48
646.922	61.54
647.253	61.48
647.584	61.52
647.915	61.55
648.245	61.52
648.576	61.46
648.907	61.5
649.238	61.48
649.568	61.56
649.899	61.64
650.229	61.56
650.56	61.65
650.89	61.79
651.221	61.82
651.551	61.82
651.882	61.71
652.212	61.64
652.542	61.67
652.872	61.71
653.203	61.71
653.533	61.68
653.863	61.67
654.193	61.78
654.523	61.79
654.853	61.85
655.183	61.8
655.513	61.91
655.843	61.85
656.172	61.96
656.502	62.11
656.832	62
657.162	62.02
657.491	61.96
657.821	61.95
658.15	62.01
658.48	62
658.809	62.14
659.139	62.15
659.468	62.07
659.798	62.05
660.127	62.01
660.456	62.05
660.785	62.09
661.115	62.13
661.444	62.07
661.773	61.92
662.102	62.04
662.431	62.09
662.76	62.16
663.089	62.12
663.418	61.91
663.747	62
664.076	62
664.404	62.15
664.733	62.13
665.062	62.11
665.39	62.19
665.719	62.18
666.048	62.14
666.376	62.12
666.705	62.12
