Data from BU57652_Reflection_00007.txt Node
Date: Tue Nov 19 10:43:15 EST 2019
User: vgr7
Spectrometer: USB2G7710
Scans to average: 3
Trigger mode: 4
Integration Time (sec): 2.000000E-2
Electric dark correction enabled: true
Boxcar width: 10
XAxis mode: Wavelengths
Number of Pixels in Spectrum: 2048
>>>>>Begin Spectral Data<<<<<
177.721	188.63
178.105	132.85
178.488	272.63
178.871	172.63
179.254	312.9
179.636	135.47
180.019	64.59
180.402	45.83
180.785	90.16
181.168	13.85
181.55	1253.85
181.933	-137.62
182.316	100
182.698	125.1
183.081	256.07
183.463	225.75
183.846	100
184.228	337.62
184.611	55.77
184.993	0.52
185.376	11.83
185.758	23.34
186.14	12.99
186.522	24.64
186.904	31.86
187.287	30.87
187.669	24.36
188.051	20.93
188.433	11.71
188.815	-1.21
189.197	2.96
189.579	12.22
189.961	22.85
190.342	21.92
190.724	-0.27
191.106	9.4
191.488	17.25
191.869	14.42
192.251	8.52
192.633	13.49
193.014	30.15
193.396	21.73
193.777	10.59
194.159	7.81
194.54	14.71
194.922	-2.24
195.303	-5.36
195.684	-10.07
196.065	-18.14
196.447	-11.74
196.828	-12.55
197.209	-10.69
197.59	-13.49
197.971	-33.3
198.352	-31.33
198.733	-20.59
199.114	-16.9
199.495	-13.63
199.876	-21.05
200.257	-33.29
200.638	-36.77
201.018	-44.1
201.399	-17.71
201.78	-17.81
202.16	-15.93
202.541	-27.53
202.922	4.95
203.302	-0.72
203.683	5.09
204.063	-16.13
204.444	-15.86
204.824	-11.02
205.204	-8.63
205.585	-19.42
205.965	-18.25
206.345	-19.85
206.725	14.84
207.106	32.65
207.486	26.07
207.866	33.96
208.246	29.37
208.626	23.53
209.006	22.85
209.386	9.8
209.766	13.37
210.145	16.57
210.525	0.59
210.905	-1.39
211.285	22.38
211.664	19.43
212.044	66.16
212.424	69.07
212.803	75.79
213.183	61.66
213.562	51.5
213.942	45.5
214.321	34.38
214.701	11.34
215.08	-15.05
215.459	-4.31
215.838	-4.37
216.218	-5.58
216.597	-1
216.976	-10.69
217.355	-0.03
217.734	2.16
218.113	14.72
218.492	13.09
218.871	8.25
219.25	8.99
219.629	0.92
220.008	3.36
220.387	-9.82
220.766	-6.15
221.144	-4.03
221.523	-6.87
221.902	-17.69
222.28	-9.92
222.659	3.4
223.037	-0.03
223.416	-8.73
223.794	0.16
224.173	2.13
224.551	2.6
224.929	8.09
225.308	-7.27
225.686	-9.34
226.064	-17.18
226.442	-11
226.821	-8.72
227.199	-9.17
227.577	-10.34
227.955	-13.27
228.333	-11.91
228.711	-8.18
229.089	-7.43
229.467	-5.81
229.845	-1.44
230.222	-0.93
230.6	-5.39
230.978	1.33
231.356	0.36
231.733	3.03
232.111	4.19
232.488	3.62
232.866	4.75
233.243	6.89
233.621	6.84
233.998	7.57
234.376	6.98
234.753	5.8
235.13	5.89
235.508	5.78
235.885	5.83
236.262	4.6
236.639	3.32
237.016	3.64
237.393	3.49
237.77	4.04
238.147	4.53
238.524	5.31
238.901	3.62
239.278	3.89
239.655	3.25
240.032	3.16
240.409	3.72
240.785	2.96
241.162	3.34
241.539	4.39
241.915	4.26
242.292	4.17
242.668	4.28
243.045	4.23
243.421	4.33
243.798	4.44
244.174	4.61
244.551	4.63
244.927	4.27
245.303	4.18
245.679	3.94
246.056	3.97
246.432	4.09
246.808	4.37
247.184	4.34
247.56	3.97
247.936	3.88
248.312	3.56
248.688	3.67
249.064	3.24
249.44	3.11
249.815	2.88
250.191	2.92
250.567	2.86
250.943	2.89
251.318	2.7
251.694	2.57
252.069	2.72
252.445	2.49
252.82	2.62
253.196	3
253.571	3.25
253.947	3.2
254.322	3.05
254.697	2.95
255.073	2.77
255.448	3.27
255.823	3.3
256.198	3.52
256.573	3.76
256.948	3.98
257.323	3.87
257.698	3.8
258.073	3.68
258.448	3.7
258.823	3.59
259.198	3.79
259.573	3.64
259.948	3.79
260.322	3.92
260.697	4.02
261.072	3.81
261.446	3.63
261.821	3.62
262.195	3.43
262.57	3.47
262.944	3.62
263.319	3.62
263.693	3.73
264.067	3.6
264.442	3.38
264.816	3.37
265.19	3.09
265.564	3.3
265.938	3.33
266.313	3.21
266.687	3.29
267.061	3.18
267.435	3.43
267.809	3.06
268.183	2.95
268.556	2.79
268.93	2.95
269.304	3.09
269.678	3.09
270.051	3.28
270.425	3.2
270.799	2.94
271.172	2.86
271.546	2.98
271.919	3.11
272.293	3.13
272.666	3.17
273.04	3.48
273.413	3.5
273.787	3.53
274.16	3.52
274.533	3.65
274.906	3.67
275.279	3.49
275.653	3.54
276.026	3.59
276.399	3.87
276.772	3.77
277.145	3.79
277.518	3.63
277.891	3.65
278.263	3.61
278.636	3.86
279.009	3.83
279.382	3.55
279.755	3.5
280.127	3.54
280.5	3.44
280.872	3.39
281.245	3.4
281.617	3.38
281.99	3.48
282.362	3.45
282.735	3.38
283.107	3.56
283.479	3.6
283.852	3.54
284.224	3.3
284.596	3.31
284.968	3.28
285.34	3.38
285.713	3.4
286.085	3.45
286.457	3.52
286.829	3.53
287.201	3.71
287.572	3.78
287.944	3.79
288.316	3.85
288.688	3.82
289.06	3.81
289.431	3.86
289.803	3.81
290.175	3.84
290.546	3.85
290.918	3.8
291.289	3.73
291.661	3.85
292.032	3.86
292.403	3.8
292.775	3.89
293.146	3.84
293.517	3.79
293.889	3.93
294.26	3.94
294.631	3.95
295.002	3.8
295.373	3.82
295.744	3.92
296.115	3.93
296.486	4.05
296.857	4.11
297.228	4.16
297.599	4.12
297.97	4.12
298.34	4.32
298.711	4.44
299.082	4.48
299.452	4.42
299.823	4.51
300.194	4.54
300.564	4.5
300.935	4.6
301.305	4.79
301.676	4.7
302.046	4.66
302.416	4.76
302.787	4.92
303.157	5.03
303.527	5.05
303.897	4.91
304.267	4.99
304.637	4.95
305.008	4.97
305.378	5.13
305.748	5.09
306.117	4.92
306.487	4.98
306.857	5.05
307.227	5.38
307.597	5.65
307.967	6.02
308.336	6.17
308.706	6.3
309.076	6.4
309.445	6.53
309.815	6.62
310.184	6.55
310.554	6.63
310.923	6.66
311.293	6.82
311.662	7.19
312.031	7.17
312.401	7.23
312.77	7.33
313.139	7.38
313.508	7.49
313.877	7.8
314.246	7.76
314.616	8.05
314.985	7.84
315.353	7.72
315.722	7.74
316.091	7.7
316.46	7.75
316.829	7.63
317.198	7.73
317.567	7.85
317.935	8.07
318.304	8.12
318.672	8.05
319.041	7.98
319.41	7.95
319.778	8.06
320.147	8.16
320.515	8.28
320.883	8.41
321.252	8.49
321.62	8.4
321.988	8.48
322.357	8.49
322.725	8.73
323.093	8.75
323.461	8.84
323.829	8.97
324.197	9.02
324.565	9.13
324.933	9.14
325.301	9.08
325.669	9.05
326.037	9.18
326.405	9.4
326.772	9.46
327.14	9.39
327.508	9.43
327.875	9.52
328.243	9.59
328.61	9.57
328.978	9.54
329.346	9.63
329.713	9.79
330.08	9.82
330.448	9.67
330.815	9.8
331.182	9.6
331.55	9.59
331.917	9.61
332.284	9.74
332.651	9.66
333.018	9.73
333.385	9.84
333.752	9.83
334.119	9.82
334.486	9.82
334.853	9.94
335.22	9.89
335.587	9.91
335.954	9.82
336.32	9.9
336.687	10.02
337.054	9.94
337.42	9.87
337.787	9.85
338.153	9.92
338.52	9.94
338.886	10.12
339.253	10.08
339.619	10.09
339.986	10
340.352	10.05
340.718	10
341.084	9.96
341.451	9.95
341.817	9.93
342.183	9.93
342.549	9.96
342.915	10
343.281	10.02
343.647	10.12
344.013	10.17
344.379	10.1
344.745	10.24
345.11	10.23
345.476	10.3
345.842	10.42
346.208	10.39
346.573	10.39
346.939	10.51
347.304	10.53
347.67	10.5
348.035	10.5
348.401	10.58
348.766	10.64
349.132	10.63
349.497	10.65
349.862	10.74
350.228	10.75
350.593	10.72
350.958	10.72
351.323	10.67
351.688	10.67
352.053	10.69
352.418	10.56
352.783	10.55
353.148	10.51
353.513	10.49
353.878	10.48
354.243	10.38
354.608	10.42
354.972	10.39
355.337	10.41
355.702	10.44
356.066	10.44
356.431	10.43
356.795	10.43
357.16	10.43
357.524	10.32
357.889	10.25
358.253	10.22
358.618	10.16
358.982	10.13
359.346	10.08
359.71	10.03
360.075	10.08
360.439	10.04
360.803	10.03
361.167	9.95
361.531	9.86
361.895	9.83
362.259	9.75
362.623	9.77
362.987	9.76
363.351	9.7
363.714	9.59
364.078	9.52
364.442	9.44
364.806	9.36
365.169	9.34
365.533	9.22
365.896	9.17
366.26	9.14
366.623	9
366.987	8.91
367.35	8.88
367.714	8.79
368.077	8.83
368.44	8.77
368.803	8.66
369.167	8.6
369.53	8.53
369.893	8.41
370.256	8.31
370.619	8.23
370.982	8.12
371.345	8.13
371.708	8.05
372.071	7.91
372.434	7.88
372.797	7.82
373.159	7.85
373.522	7.77
373.885	7.64
374.247	7.67
374.61	7.61
374.973	7.51
375.335	7.48
375.698	7.28
376.06	7.18
376.423	7.17
376.785	7.19
377.147	7.15
377.51	7.07
377.872	7
378.234	6.92
378.596	6.88
378.958	6.84
379.321	6.81
379.683	6.83
380.045	6.74
380.407	6.63
380.769	6.57
381.13	6.52
381.492	6.51
381.854	6.43
382.216	6.4
382.578	6.34
382.939	6.22
383.301	6.2
383.663	6.17
384.024	6.1
384.386	5.99
384.747	5.95
385.109	5.94
385.47	5.91
385.832	5.86
386.193	5.79
386.554	5.67
386.916	5.6
387.277	5.54
387.638	5.48
387.999	5.49
388.36	5.44
388.721	5.43
389.082	5.36
389.443	5.35
389.804	5.34
390.165	5.34
390.526	5.31
390.887	5.28
391.248	5.23
391.609	5.2
391.969	5.16
392.33	5.13
392.691	5.08
393.051	5.03
393.412	5.01
393.772	5
394.133	4.95
394.493	4.91
394.854	4.88
395.214	4.88
395.574	4.83
395.935	4.75
396.295	4.72
396.655	4.64
397.015	4.62
397.376	4.54
397.736	4.48
398.096	4.46
398.456	4.43
398.816	4.4
399.176	4.34
399.535	4.31
399.895	4.28
400.255	4.24
400.615	4.2
400.975	4.15
401.334	4.13
401.694	4.13
402.054	4.09
402.413	4.07
402.773	4.01
403.132	3.99
403.492	3.98
403.851	3.93
404.211	3.94
404.57	3.9
404.929	3.89
405.288	3.89
405.648	3.86
406.007	3.83
406.366	3.79
406.725	3.78
407.084	3.78
407.443	3.75
407.802	3.73
408.161	3.7
408.52	3.68
408.879	3.68
409.238	3.66
409.596	3.65
409.955	3.64
410.314	3.63
410.673	3.6
411.031	3.58
411.39	3.59
411.748	3.55
412.107	3.52
412.465	3.51
412.824	3.48
413.182	3.48
413.54	3.48
413.899	3.47
414.257	3.47
414.615	3.43
414.974	3.44
415.332	3.43
415.69	3.42
416.048	3.41
416.406	3.36
416.764	3.36
417.122	3.33
417.48	3.31
417.838	3.29
418.195	3.29
418.553	3.27
418.911	3.25
419.269	3.25
419.626	3.23
419.984	3.2
420.342	3.18
420.699	3.15
421.057	3.13
421.414	3.13
421.772	3.12
422.129	3.11
422.486	3.09
422.844	3.07
423.201	3.08
423.558	3.06
423.915	3.07
424.273	3.06
424.63	3.06
424.987	3.06
425.344	3.05
425.701	3.04
426.058	3.04
426.415	3.01
426.772	2.99
427.128	2.99
427.485	3
427.842	2.99
428.199	3.01
428.555	3
428.912	3
429.269	3
429.625	2.97
429.982	2.97
430.338	2.98
430.695	2.96
431.051	2.95
431.407	2.95
431.764	2.94
432.12	2.96
432.476	2.95
432.832	2.97
433.189	2.94
433.545	2.94
433.901	2.96
434.257	2.96
434.613	2.93
434.969	2.91
435.325	2.91
435.681	2.89
436.036	2.89
436.392	2.88
436.748	2.88
437.104	2.89
437.459	2.89
437.815	2.89
438.171	2.89
438.526	2.89
438.882	2.89
439.237	2.9
439.593	2.89
439.948	2.88
440.304	2.86
440.659	2.87
441.014	2.87
441.369	2.88
441.725	2.89
442.08	2.89
442.435	2.91
442.79	2.9
443.145	2.9
443.5	2.9
443.855	2.88
444.21	2.89
444.565	2.89
444.92	2.87
445.275	2.87
445.629	2.87
445.984	2.87
446.339	2.86
446.693	2.85
447.048	2.83
447.403	2.83
447.757	2.84
448.112	2.85
448.466	2.84
448.82	2.83
449.175	2.83
449.529	2.83
449.883	2.82
450.238	2.83
450.592	2.82
450.946	2.81
451.3	2.82
451.654	2.79
452.008	2.79
452.362	2.79
452.716	2.78
453.07	2.8
453.424	2.79
453.778	2.76
454.132	2.76
454.486	2.78
454.839	2.77
455.193	2.77
455.547	2.76
455.9	2.76
456.254	2.75
456.607	2.75
456.961	2.76
457.314	2.75
457.668	2.75
458.021	2.75
458.375	2.76
458.728	2.75
459.081	2.76
459.434	2.77
459.787	2.78
460.141	2.8
460.494	2.78
460.847	2.78
461.2	2.8
461.553	2.8
461.906	2.79
462.259	2.8
462.611	2.8
462.964	2.81
463.317	2.82
463.67	2.84
464.022	2.84
464.375	2.84
464.728	2.84
465.08	2.84
465.433	2.85
465.785	2.84
466.138	2.86
466.49	2.87
466.843	2.86
467.195	2.84
467.547	2.82
467.899	2.84
468.252	2.85
468.604	2.86
468.956	2.89
469.308	2.9
469.66	2.91
470.012	2.91
470.364	2.93
470.716	2.94
471.068	2.93
471.42	2.95
471.772	2.96
472.123	2.99
472.475	3
472.827	3
473.178	3.04
473.53	3.05
473.882	3.04
474.233	3.05
474.585	3.08
474.936	3.1
475.288	3.1
475.639	3.13
475.99	3.12
476.342	3.12
476.693	3.12
477.044	3.12
477.395	3.11
477.746	3.09
478.097	3.07
478.448	3.05
478.8	3.04
479.15	3.03
479.501	3
479.852	2.98
480.203	2.99
480.554	2.99
480.905	2.98
481.255	2.98
481.606	2.98
481.957	2.95
482.307	2.93
482.658	2.94
483.009	2.93
483.359	2.93
483.709	2.93
484.06	2.93
484.41	2.93
484.761	2.93
485.111	2.93
485.461	2.94
485.811	2.94
486.162	2.94
486.512	2.93
486.862	2.95
487.212	2.95
487.562	2.95
487.912	2.93
488.262	2.93
488.612	2.94
488.961	2.92
489.311	2.93
489.661	2.95
490.011	2.94
490.36	2.93
490.71	2.93
491.06	2.93
491.409	2.92
491.759	2.91
492.108	2.92
492.458	2.92
492.807	2.91
493.157	2.92
493.506	2.94
493.855	2.96
494.204	2.95
494.554	2.96
494.903	2.98
495.252	3.01
495.601	3.03
495.95	3.03
496.299	3.07
496.648	3.09
496.997	3.11
497.346	3.14
497.695	3.15
498.043	3.2
498.392	3.23
498.741	3.26
499.09	3.29
499.438	3.32
499.787	3.35
500.135	3.39
500.484	3.4
500.832	3.43
501.181	3.47
501.529	3.53
501.878	3.58
502.226	3.61
502.574	3.65
502.923	3.67
503.271	3.74
503.619	3.77
503.967	3.82
504.315	3.89
504.663	3.94
505.011	4
505.359	4.04
505.707	4.08
506.055	4.14
506.403	4.22
506.751	4.27
507.098	4.35
507.446	4.43
507.794	4.52
508.141	4.6
508.489	4.66
508.837	4.71
509.184	4.78
509.531	4.84
509.879	4.89
510.226	4.98
510.574	5.07
510.921	5.13
511.268	5.2
511.616	5.26
511.963	5.34
512.31	5.43
512.657	5.52
513.004	5.61
513.351	5.71
513.698	5.79
514.045	5.89
514.392	5.99
514.739	6.08
515.086	6.18
515.432	6.29
515.779	6.39
516.126	6.5
516.473	6.6
516.819	6.71
517.166	6.83
517.512	6.91
517.859	6.98
518.205	7.1
518.552	7.21
518.898	7.33
519.245	7.42
519.591	7.52
519.937	7.62
520.283	7.74
520.629	7.86
520.976	7.96
521.322	8.09
521.668	8.22
522.014	8.34
522.36	8.47
522.706	8.59
523.052	8.75
523.398	8.89
523.743	9.05
524.089	9.21
524.435	9.35
524.781	9.49
525.126	9.62
525.472	9.75
525.817	9.86
526.163	9.95
526.509	10.04
526.854	10.14
527.199	10.22
527.545	10.32
527.89	10.39
528.235	10.48
528.581	10.56
528.926	10.63
529.271	10.73
529.616	10.82
529.961	10.89
530.306	10.99
530.651	11.09
530.996	11.18
531.341	11.28
531.686	11.4
532.031	11.51
532.376	11.62
532.721	11.74
533.065	11.85
533.41	11.97
533.755	12.11
534.099	12.24
534.444	12.37
534.788	12.45
535.133	12.6
535.477	12.74
535.822	12.88
536.166	13.06
536.51	13.2
536.855	13.36
537.199	13.56
537.543	13.73
537.887	13.89
538.231	14.08
538.576	14.28
538.92	14.46
539.264	14.62
539.608	14.79
539.951	14.95
540.295	15.11
540.639	15.26
540.983	15.4
541.327	15.55
541.671	15.72
542.014	15.91
542.358	16.06
542.701	16.22
543.045	16.38
543.389	16.54
543.732	16.72
544.075	16.88
544.419	17.07
544.762	17.24
545.105	17.43
545.449	17.63
545.792	17.82
546.135	18.03
546.478	18.24
546.821	18.46
547.165	18.72
547.508	18.99
547.851	19.28
548.194	19.53
548.536	19.78
548.879	20.01
549.222	20.26
549.565	20.51
549.908	20.71
550.25	21.01
550.593	21.23
550.936	21.52
551.278	21.82
551.621	22.06
551.963	22.33
552.306	22.63
552.648	22.9
552.991	23.21
553.333	23.48
553.675	23.78
554.017	24.06
554.36	24.28
554.702	24.53
555.044	24.79
555.386	25.05
555.728	25.36
556.07	25.64
556.412	25.94
556.754	26.23
557.096	26.65
557.438	26.93
557.78	27.31
558.121	27.62
558.463	27.89
558.805	28.24
559.147	28.57
559.488	28.91
559.83	29.21
560.171	29.49
560.513	29.82
560.854	30.13
561.196	30.47
561.537	30.84
561.878	31.13
562.22	31.44
562.561	31.8
562.902	32.1
563.243	32.45
563.584	32.77
563.925	33.05
564.266	33.32
564.607	33.62
564.948	33.86
565.289	34.11
565.63	34.41
565.971	34.69
566.312	34.98
566.653	35.26
566.993	35.54
567.334	35.86
567.675	36.13
568.015	36.39
568.356	36.68
568.696	36.94
569.037	37.24
569.377	37.5
569.718	37.78
570.058	38.11
570.398	38.43
570.739	38.67
571.079	39.03
571.419	39.3
571.759	39.57
572.099	39.85
572.439	40.14
572.779	40.37
573.119	40.66
573.459	40.92
573.799	41.13
574.139	41.41
574.479	41.65
574.819	41.88
575.158	42.15
575.498	42.38
575.838	42.58
576.177	42.85
576.517	43.14
576.856	43.35
577.196	43.55
577.535	43.77
577.875	44.03
578.214	44.23
578.553	44.48
578.893	44.71
579.232	44.98
579.571	45.28
579.91	45.55
580.25	45.76
580.589	46.03
580.928	46.36
581.267	46.58
581.606	46.86
581.945	47.16
582.283	47.47
582.622	47.68
582.961	48.01
583.3	48.23
583.639	48.38
583.977	48.66
584.316	48.84
584.654	49.06
584.993	49.33
585.332	49.5
585.67	49.67
586.008	49.82
586.347	49.97
586.685	50.14
587.024	50.37
587.362	50.52
587.7	50.69
588.038	50.8
588.376	51.03
588.715	51.18
589.053	51.34
589.391	51.45
589.729	51.64
590.067	51.8
590.404	51.95
590.742	52.22
591.08	52.44
591.418	52.62
591.756	52.76
592.093	52.92
592.431	53.12
592.769	53.3
593.106	53.5
593.444	53.73
593.781	53.89
594.119	54.06
594.456	54.15
594.793	54.22
595.131	54.4
595.468	54.58
595.805	54.67
596.143	54.81
596.48	54.98
596.817	55.09
597.154	55.24
597.491	55.31
597.828	55.39
598.165	55.47
598.502	55.64
598.839	55.82
599.176	56
599.512	56.18
599.849	56.41
600.186	56.57
600.523	56.69
600.859	56.84
601.196	56.93
601.532	57.16
601.869	57.42
602.205	57.45
602.542	57.53
602.878	57.69
603.215	57.75
603.551	57.78
603.887	57.9
604.223	57.92
604.56	58.01
604.896	58.08
605.232	58.15
605.568	58.28
605.904	58.27
606.24	58.29
606.576	58.34
606.912	58.38
607.248	58.43
607.583	58.54
607.919	58.54
608.255	58.69
608.591	58.71
608.926	58.67
609.262	58.81
609.597	58.83
609.933	58.88
610.268	58.94
610.604	58.99
610.939	59.11
611.275	59.26
611.61	59.4
611.945	59.44
612.281	59.57
612.616	59.55
612.951	59.71
613.286	59.83
613.621	59.92
613.956	59.89
614.291	60.02
614.626	60.01
614.961	60.1
615.296	60.09
615.631	60.17
615.966	60.35
616.3	60.35
616.635	60.37
616.97	60.38
617.304	60.48
617.639	60.63
617.973	60.6
618.308	60.63
618.642	60.66
618.977	60.68
619.311	60.73
619.646	60.82
619.98	60.86
620.314	60.86
620.648	60.92
620.983	61.07
621.317	61.09
621.651	61.2
621.985	61.32
622.319	61.44
622.653	61.53
622.987	61.67
623.321	61.85
623.655	61.97
623.988	62.05
624.322	62.01
624.656	62.16
624.99	62.23
625.323	62.22
625.657	62.34
625.99	62.45
626.324	62.48
626.657	62.54
626.991	62.58
627.324	62.53
627.658	62.63
627.991	62.63
628.324	62.63
628.657	62.65
628.991	62.65
629.324	62.64
629.657	62.67
629.99	62.51
630.323	62.47
630.656	62.53
630.989	62.55
631.322	62.6
631.655	62.46
631.987	62.49
632.32	62.54
632.653	62.56
632.986	62.66
633.318	62.66
633.651	62.63
633.984	62.71
634.316	62.88
634.649	62.84
634.981	62.9
635.313	62.95
635.646	62.99
635.978	62.95
636.31	62.91
636.643	62.94
636.975	62.94
637.307	63.02
637.639	63.05
637.971	63.13
638.303	63.22
638.635	63.25
638.967	63.26
639.299	63.33
639.631	63.25
639.963	63.22
640.295	63.24
640.626	63.28
640.958	63.34
641.29	63.4
641.621	63.36
641.953	63.35
642.285	63.48
642.616	63.53
642.948	63.7
643.279	63.77
643.61	63.72
643.942	63.8
644.273	63.75
644.604	63.89
644.936	63.87
645.267	63.87
645.598	63.94
645.929	63.96
646.26	63.93
646.591	64.01
646.922	64.11
647.253	64.18
647.584	64.24
647.915	64.21
648.245	64.24
648.576	64.29
648.907	64.32
649.238	64.23
649.568	64.31
649.899	64.31
650.229	64.36
650.56	64.42
650.89	64.54
651.221	64.49
651.551	64.35
651.882	64.38
652.212	64.4
652.542	64.38
652.872	64.56
653.203	64.68
653.533	64.69
653.863	64.61
654.193	64.48
654.523	64.45
654.853	64.38
655.183	64.37
655.513	64.39
655.843	64.47
656.172	64.43
656.502	64.51
656.832	64.63
657.162	64.65
657.491	64.74
657.821	64.64
658.15	64.77
658.48	64.8
658.809	64.96
659.139	64.99
659.468	65.06
659.798	64.88
660.127	64.8
660.456	64.82
660.785	64.88
661.115	64.97
661.444	65.05
661.773	65.08
662.102	65
662.431	65.01
662.76	64.95
663.089	65.05
663.418	64.87
663.747	64.78
664.076	64.68
664.404	64.61
664.733	64.54
665.062	64.6
665.39	64.74
665.719	64.59
666.048	64.62
666.376	64.65
666.705	64.81
667.033	64.77
667.362	64.79
667.69	64.79
668.018	64.93
668.347	65
668.675	65.07
