Data from BU57653_Reflection_00005.txt Node
Date: Mon Nov 18 16:52:05 EST 2019
User: vgr7
Spectrometer: USB2G7710
Scans to average: 3
Trigger mode: 4
Integration Time (sec): 2.000000E-2
Electric dark correction enabled: true
Boxcar width: 10
XAxis mode: Wavelengths
Number of Pixels in Spectrum: 2048
>>>>>Begin Spectral Data<<<<<
177.721	166.73
178.105	201.6
178.488	103.52
178.871	61.33
179.254	24.21
179.636	79.62
180.019	32.63
180.402	126.67
180.785	110.54
181.168	179.9
181.55	168.37
181.933	140
182.316	168.47
182.698	139.47
183.081	142.35
183.463	803.42
183.846	330.29
184.228	359.8
184.611	344.09
184.993	778.93
185.376	-1545.67
185.758	1286.34
186.14	1957.14
186.522	-397.45
186.904	-211.81
187.287	-371.24
187.669	-219.21
188.051	-564.46
188.433	-602.82
188.815	-250.11
189.197	-182.71
189.579	-115.22
189.961	-104.5
190.342	-80.26
190.724	-52.22
191.106	-81.78
191.488	-77.37
191.869	-76.95
192.251	-67.58
192.633	-80.27
193.014	-80.38
193.396	-113.5
193.777	-92.7
194.159	-98.3
194.54	-104.99
194.922	-68.91
195.303	-63.73
195.684	-55.85
196.065	-11.97
196.447	-34.4
196.828	-30.02
197.209	-30.71
197.59	-22.69
197.971	-27.46
198.352	-7.85
198.733	-22.14
199.114	-3.53
199.495	11.46
199.876	22.76
200.257	17.14
200.638	31.49
201.018	30.69
201.399	40.34
201.78	41.66
202.16	60.17
202.541	47.1
202.922	42.71
203.302	31.47
203.683	8.23
204.063	-9.55
204.444	-19.39
204.824	-37.5
205.204	-76.14
205.585	-102.71
205.965	-112.04
206.345	-166.35
206.725	-238.22
207.106	-1633.73
207.486	-10251.35
207.866	582.32
208.246	1396.58
208.626	-1364.73
209.006	-257.47
209.386	-267.33
209.766	-286.22
210.145	-173.68
210.525	-113.14
210.905	-70.01
211.285	-47.13
211.664	-41.45
212.044	-40.32
212.424	-6.44
212.803	-1.14
213.183	23.92
213.562	16.42
213.942	18.52
214.321	37.01
214.701	33.48
215.08	21.81
215.459	43.99
215.838	41.1
216.218	48.14
216.597	41.45
216.976	36.51
217.355	59.6
217.734	66.93
218.113	98.71
218.492	86.07
218.871	113.67
219.25	81.79
219.629	67.76
220.008	62
220.387	49.6
220.766	41.86
221.144	52.35
221.523	38.54
221.902	24.74
222.28	16.38
222.659	25.61
223.037	44.25
223.416	30.82
223.794	34.79
224.173	32.59
224.551	25.48
224.929	23.75
225.308	20.97
225.686	19.14
226.064	12.87
226.442	16.9
226.821	18.12
227.199	17.14
227.577	13.7
227.955	15.74
228.333	14.91
228.711	15.71
229.089	17.46
229.467	15.97
229.845	17
230.222	17.14
230.6	13.25
230.978	10.95
231.356	12.13
231.733	10.09
232.111	11.17
232.488	12
232.866	12.38
233.243	11.26
233.621	10.23
233.998	10.94
234.376	9.03
234.753	5.93
235.13	5.09
235.508	5.62
235.885	4.19
236.262	4.36
236.639	3.68
237.016	3.69
237.393	4.58
237.77	5.25
238.147	5.56
238.524	5.61
238.901	5.38
239.278	5
239.655	5.72
240.032	5.19
240.409	4.33
240.785	4.5
241.162	4.44
241.539	4.36
241.915	3.92
242.292	3.99
242.668	4.11
243.045	4.23
243.421	4.44
243.798	4.38
244.174	4.29
244.551	4.45
244.927	4.25
245.303	4.61
245.679	4.48
246.056	4.31
246.432	4.43
246.808	4.49
247.184	4.36
247.56	4.26
247.936	4.12
248.312	4.18
248.688	4.11
249.064	4.14
249.44	4.26
249.815	4.2
250.191	4.32
250.567	4.28
250.943	4.31
251.318	4.35
251.694	4.39
252.069	4.51
252.445	4.24
252.82	4.11
253.196	3.55
253.571	3.56
253.947	3.7
254.322	3.57
254.697	3.36
255.073	3.41
255.448	3.18
255.823	3.45
256.198	3.53
256.573	3.43
256.948	3.29
257.323	3.34
257.698	3.46
258.073	3.33
258.448	3.25
258.823	3.13
259.198	3.15
259.573	3.13
259.948	3.04
260.322	3.18
260.697	3.09
261.072	3.11
261.446	3.08
261.821	2.98
262.195	3.15
262.57	3.31
262.944	3.38
263.319	3.52
263.693	3.54
264.067	3.67
264.442	3.75
264.816	3.88
265.19	3.76
265.564	3.73
265.938	3.73
266.313	3.79
266.687	3.88
267.061	3.81
267.435	3.77
267.809	3.87
268.183	3.87
268.556	4.02
268.93	4.1
269.304	4.05
269.678	4.04
270.051	3.75
270.425	3.53
270.799	3.51
271.172	3.43
271.546	3.32
271.919	3.34
272.293	3.26
272.666	3.39
273.04	3.37
273.413	3.35
273.787	3.44
274.16	3.46
274.533	3.43
274.906	3.45
275.279	3.43
275.653	3.27
276.026	3.19
276.399	3.12
276.772	3.22
277.145	3.26
277.518	3.32
277.891	3.44
278.263	3.52
278.636	3.39
279.009	3.38
279.382	3.58
279.755	3.44
280.127	3.55
280.5	3.43
280.872	3.47
281.245	3.41
281.617	3.28
281.99	3.42
282.362	3.54
282.735	3.39
283.107	3.41
283.479	3.52
283.852	3.57
284.224	3.6
284.596	3.52
284.968	3.44
285.34	3.49
285.713	3.44
286.085	3.48
286.457	3.45
286.829	3.44
287.201	3.25
287.572	3.25
287.944	3.18
288.316	3.1
288.688	3.08
289.06	3.04
289.431	3.1
289.803	3.09
290.175	3.06
290.546	3.14
290.918	3.11
291.289	3.15
291.661	3.21
292.032	3.16
292.403	3.17
292.775	3.33
293.146	3.24
293.517	3.18
293.889	3.22
294.26	3.33
294.631	3.36
295.002	3.44
295.373	3.32
295.744	3.37
296.115	3.46
296.486	3.41
296.857	3.44
297.228	3.4
297.599	3.34
297.97	3.27
298.34	3.34
298.711	3.4
299.082	3.37
299.452	3.26
299.823	3.38
300.194	3.38
300.564	3.27
300.935	3.26
301.305	3.34
301.676	3.32
302.046	3.28
302.416	3.34
302.787	3.25
303.157	3.37
303.527	3.42
303.897	3.26
304.267	3.44
304.637	3.53
305.008	3.63
305.378	3.66
305.748	3.6
306.117	3.5
306.487	3.53
306.857	3.59
307.227	3.69
307.597	3.5
307.967	3.52
308.336	3.56
308.706	3.57
309.076	3.59
309.445	3.53
309.815	3.44
310.184	3.35
310.554	3.42
310.923	3.44
311.293	3.39
311.662	3.41
312.031	3.23
312.401	3.19
312.77	3.2
313.139	3.2
313.508	3.23
313.877	3.22
314.246	3.08
314.616	3
314.985	2.98
315.353	3.11
315.722	3.06
316.091	3.01
316.46	2.98
316.829	2.99
317.198	3.09
317.567	3.16
317.935	3.1
318.304	3.14
318.672	3.07
319.041	2.93
319.41	2.82
319.778	2.8
320.147	2.82
320.515	2.72
320.883	2.59
321.252	2.6
321.62	2.58
321.988	2.74
322.357	2.6
322.725	2.59
323.093	2.56
323.461	2.55
323.829	2.51
324.197	2.5
324.565	2.54
324.933	2.44
325.301	2.53
325.669	2.63
326.037	2.61
326.405	2.66
326.772	2.79
327.14	3
327.508	2.98
327.875	2.96
328.243	3.01
328.61	3.09
328.978	3.2
329.346	3.27
329.713	3.08
330.08	3.31
330.448	3.29
330.815	3.21
331.182	3.22
331.55	3.16
331.917	3.26
332.284	3.28
332.651	3.19
333.018	3.18
333.385	3.22
333.752	3.14
334.119	3.2
334.486	2.99
334.853	2.92
335.22	2.99
335.587	3.07
335.954	2.99
336.32	2.98
336.687	2.84
337.054	2.91
337.42	3
337.787	2.97
338.153	2.96
338.52	3.08
338.886	3.04
339.253	3.1
339.619	3.04
339.986	2.97
340.352	3.11
340.718	3.11
341.084	3.06
341.451	3.13
341.817	3.09
342.183	3.16
342.549	3.17
342.915	3.19
343.281	3.15
343.647	3.19
344.013	3.22
344.379	3.29
344.745	3.25
345.11	3.24
345.476	3.26
345.842	3.2
346.208	3.21
346.573	3.19
346.939	3.27
347.304	3.37
347.67	3.27
348.035	3.16
348.401	3.12
348.766	3.14
349.132	3.11
349.497	3.04
349.862	3.12
350.228	3.09
350.593	3.1
350.958	3.06
351.323	3.06
351.688	3.06
352.053	3.11
352.418	3.08
352.783	3.05
353.148	2.99
353.513	3.03
353.878	2.97
354.243	3.05
354.608	3.07
354.972	3.06
355.337	3.14
355.702	3.26
356.066	3.34
356.431	3.32
356.795	3.3
357.16	3.29
357.524	3.23
357.889	3.2
358.253	3.24
358.618	3.19
358.982	3.2
359.346	3.14
359.71	3.07
360.075	3.13
360.439	3.14
360.803	3.12
361.167	3.12
361.531	3.1
361.895	3.04
362.259	3.01
362.623	3.01
362.987	3.03
363.351	3
363.714	2.99
364.078	2.95
364.442	2.89
364.806	2.91
365.169	2.94
365.533	2.96
365.896	2.95
366.26	3.01
366.623	3.01
366.987	3.11
367.35	3.1
367.714	3.08
368.077	3.17
368.44	3.19
368.803	3.18
369.167	3.25
369.53	3.24
369.893	3.25
370.256	3.19
370.619	3.17
370.982	3.17
371.345	3.12
371.708	3.15
372.071	3.24
372.434	3.25
372.797	3.29
373.159	3.31
373.522	3.27
373.885	3.23
374.247	3.23
374.61	3.15
374.973	3.08
375.335	3.06
375.698	3.04
376.06	3
376.423	2.95
376.785	2.89
377.147	2.94
377.51	2.91
377.872	2.94
378.234	2.94
378.596	2.89
378.958	2.87
379.321	2.82
379.683	2.77
380.045	2.77
380.407	2.69
380.769	2.65
381.13	2.68
381.492	2.66
381.854	2.68
382.216	2.73
382.578	2.82
382.939	2.79
383.301	2.76
383.663	2.78
384.024	2.88
384.386	2.95
384.747	2.92
385.109	2.92
385.47	2.89
385.832	2.91
386.193	2.91
386.554	2.9
386.916	2.93
387.277	2.97
387.638	2.94
387.999	2.99
388.36	3
388.721	2.95
389.082	2.98
389.443	2.91
389.804	2.88
390.165	2.87
390.526	2.87
390.887	2.88
391.248	2.9
391.609	2.88
391.969	2.86
392.33	2.9
392.691	2.87
393.051	2.87
393.412	2.87
393.772	2.86
394.133	2.88
394.493	2.91
394.854	2.87
395.214	2.87
395.574	2.87
395.935	2.86
396.295	2.9
396.655	2.91
397.015	2.95
397.376	2.98
397.736	2.98
398.096	3.02
398.456	3.04
398.816	3.01
399.176	2.96
399.535	2.91
399.895	2.87
400.255	2.91
400.615	2.89
400.975	2.87
401.334	2.88
401.694	2.9
402.054	2.9
402.413	2.92
402.773	2.91
403.132	2.89
403.492	2.93
403.851	2.94
404.211	2.94
404.57	2.92
404.929	2.9
405.288	2.89
405.648	2.85
406.007	2.82
406.366	2.85
406.725	2.87
407.084	2.89
407.443	2.9
407.802	2.9
408.161	2.9
408.52	2.91
408.879	2.9
409.238	2.89
409.596	2.9
409.955	2.88
410.314	2.91
410.673	2.89
411.031	2.84
411.39	2.81
411.748	2.79
412.107	2.79
412.465	2.79
412.824	2.78
413.182	2.77
413.54	2.78
413.899	2.76
414.257	2.78
414.615	2.79
414.974	2.8
415.332	2.81
415.69	2.83
416.048	2.84
416.406	2.85
416.764	2.85
417.122	2.83
417.48	2.84
417.838	2.84
418.195	2.86
418.553	2.86
418.911	2.88
419.269	2.9
419.626	2.89
419.984	2.89
420.342	2.91
420.699	2.91
421.057	2.92
421.414	2.91
421.772	2.9
422.129	2.9
422.486	2.9
422.844	2.91
423.201	2.9
423.558	2.9
423.915	2.9
424.273	2.89
424.63	2.89
424.987	2.89
425.344	2.89
425.701	2.88
426.058	2.88
426.415	2.87
426.772	2.86
427.128	2.86
427.485	2.87
427.842	2.87
428.199	2.89
428.555	2.87
428.912	2.89
429.269	2.9
429.625	2.88
429.982	2.87
430.338	2.85
430.695	2.85
431.051	2.84
431.407	2.86
431.764	2.86
432.12	2.85
432.476	2.85
432.832	2.85
433.189	2.84
433.545	2.86
433.901	2.85
434.257	2.85
434.613	2.87
434.969	2.85
435.325	2.85
435.681	2.85
436.036	2.85
436.392	2.84
436.748	2.83
437.104	2.84
437.459	2.86
437.815	2.86
438.171	2.86
438.526	2.86
438.882	2.84
439.237	2.83
439.593	2.85
439.948	2.83
440.304	2.83
440.659	2.84
441.014	2.85
441.369	2.85
441.725	2.84
442.08	2.83
442.435	2.83
442.79	2.83
443.145	2.81
443.5	2.81
443.855	2.8
444.21	2.8
444.565	2.8
444.92	2.81
445.275	2.8
445.629	2.81
445.984	2.8
446.339	2.8
446.693	2.8
447.048	2.78
447.403	2.8
447.757	2.79
448.112	2.79
448.466	2.78
448.82	2.77
449.175	2.79
449.529	2.78
449.883	2.78
450.238	2.79
450.592	2.8
450.946	2.79
451.3	2.8
451.654	2.79
452.008	2.81
452.362	2.79
452.716	2.8
453.07	2.81
453.424	2.82
453.778	2.82
454.132	2.84
454.486	2.85
454.839	2.85
455.193	2.86
455.547	2.86
455.9	2.87
456.254	2.89
456.607	2.89
456.961	2.89
457.314	2.88
457.668	2.86
458.021	2.86
458.375	2.86
458.728	2.88
459.081	2.88
459.434	2.85
459.787	2.85
460.141	2.84
460.494	2.85
460.847	2.84
461.2	2.84
461.553	2.83
461.906	2.83
462.259	2.84
462.611	2.87
462.964	2.88
463.317	2.87
463.67	2.87
464.022	2.86
464.375	2.86
464.728	2.88
465.08	2.89
465.433	2.9
465.785	2.9
466.138	2.87
466.49	2.89
466.843	2.91
467.195	2.92
467.547	2.93
467.899	2.91
468.252	2.9
468.604	2.9
468.956	2.9
469.308	2.9
469.66	2.9
470.012	2.87
470.364	2.86
470.716	2.87
471.068	2.85
471.42	2.84
471.772	2.85
472.123	2.85
472.475	2.84
472.827	2.84
473.178	2.83
473.53	2.83
473.882	2.83
474.233	2.82
474.585	2.83
474.936	2.81
475.288	2.8
475.639	2.83
475.99	2.84
476.342	2.86
476.693	2.87
477.044	2.87
477.395	2.88
477.746	2.88
478.097	2.88
478.448	2.89
478.8	2.88
479.15	2.85
479.501	2.85
479.852	2.87
480.203	2.88
480.554	2.9
480.905	2.91
481.255	2.91
481.606	2.91
481.957	2.92
482.307	2.93
482.658	2.94
483.009	2.94
483.359	2.95
483.709	2.95
484.06	2.94
484.41	2.95
484.761	2.95
485.111	2.96
485.461	2.96
485.811	2.96
486.162	2.97
486.512	2.98
486.862	2.98
487.212	2.98
487.562	2.97
487.912	2.97
488.262	2.96
488.612	2.97
488.961	2.98
489.311	2.98
489.661	2.97
490.011	2.97
490.36	2.96
490.71	2.96
491.06	2.95
491.409	2.94
491.759	2.94
492.108	2.94
492.458	2.93
492.807	2.92
493.157	2.93
493.506	2.94
493.855	2.93
494.204	2.94
494.554	2.94
494.903	2.95
495.252	2.95
495.601	2.97
495.95	2.97
496.299	2.96
496.648	2.96
496.997	2.96
497.346	2.96
497.695	2.97
498.043	2.97
498.392	2.99
498.741	3
499.09	2.99
499.438	3
499.787	3.02
500.135	3.05
500.484	3.06
500.832	3.06
501.181	3.07
501.529	3.06
501.878	3.07
502.226	3.07
502.574	3.08
502.923	3.07
503.271	3.07
503.619	3.09
503.967	3.11
504.315	3.1
504.663	3.11
505.011	3.12
505.359	3.09
505.707	3.08
506.055	3.09
506.403	3.1
506.751	3.09
507.098	3.08
507.446	3.09
507.794	3.07
508.141	3.06
508.489	3.08
508.837	3.09
509.184	3.09
509.531	3.09
509.879	3.09
510.226	3.1
510.574	3.09
510.921	3.09
511.268	3.09
511.616	3.12
511.963	3.12
512.31	3.12
512.657	3.15
513.004	3.16
513.351	3.18
513.698	3.17
514.045	3.18
514.392	3.19
514.739	3.18
515.086	3.2
515.432	3.2
515.779	3.19
516.126	3.2
516.473	3.22
516.819	3.24
517.166	3.26
517.512	3.28
517.859	3.31
518.205	3.32
518.552	3.32
518.898	3.32
519.245	3.33
519.591	3.34
519.937	3.31
520.283	3.31
520.629	3.31
520.976	3.33
521.322	3.32
521.668	3.31
522.014	3.34
522.36	3.35
522.706	3.35
523.052	3.36
523.398	3.37
523.743	3.37
524.089	3.37
524.435	3.35
524.781	3.33
525.126	3.33
525.472	3.34
525.817	3.34
526.163	3.34
526.509	3.34
526.854	3.35
527.199	3.38
527.545	3.37
527.89	3.36
528.235	3.36
528.581	3.38
528.926	3.38
529.271	3.38
529.616	3.38
529.961	3.38
530.306	3.38
530.651	3.37
530.996	3.38
531.341	3.37
531.686	3.39
532.031	3.4
532.376	3.4
532.721	3.4
533.065	3.4
533.41	3.41
533.755	3.41
534.099	3.41
534.444	3.41
534.788	3.44
535.133	3.46
535.477	3.48
535.822	3.47
536.166	3.48
536.51	3.49
536.855	3.48
537.199	3.5
537.543	3.51
537.887	3.52
538.231	3.51
538.576	3.52
538.92	3.51
539.264	3.51
539.608	3.51
539.951	3.5
540.295	3.5
540.639	3.49
540.983	3.5
541.327	3.5
541.671	3.47
542.014	3.47
542.358	3.46
542.701	3.45
543.045	3.44
543.389	3.44
543.732	3.44
544.075	3.47
544.419	3.45
544.762	3.46
545.105	3.47
545.449	3.48
545.792	3.49
546.135	3.5
546.478	3.5
546.821	3.51
547.165	3.52
547.508	3.55
547.851	3.56
548.194	3.54
548.536	3.57
548.879	3.59
549.222	3.59
549.565	3.61
549.908	3.62
550.25	3.64
550.593	3.64
550.936	3.61
551.278	3.6
551.621	3.63
551.963	3.61
552.306	3.61
552.648	3.59
552.991	3.61
553.333	3.63
553.675	3.62
554.017	3.61
554.36	3.61
554.702	3.6
555.044	3.61
555.386	3.62
555.728	3.6
556.07	3.63
556.412	3.66
556.754	3.64
557.096	3.61
557.438	3.58
557.78	3.58
558.121	3.59
558.463	3.58
558.805	3.56
559.147	3.55
559.488	3.51
559.83	3.5
560.171	3.48
560.513	3.5
560.854	3.51
561.196	3.5
561.537	3.51
561.878	3.47
562.22	3.45
562.561	3.46
562.902	3.47
563.243	3.44
563.584	3.44
563.925	3.44
564.266	3.44
564.607	3.45
564.948	3.47
565.289	3.48
565.63	3.47
565.971	3.44
566.312	3.46
566.653	3.48
566.993	3.49
567.334	3.48
567.675	3.44
568.015	3.44
568.356	3.44
568.696	3.44
569.037	3.46
569.377	3.47
569.718	3.46
570.058	3.47
570.398	3.46
570.739	3.44
571.079	3.47
571.419	3.52
571.759	3.54
572.099	3.52
572.439	3.5
572.779	3.52
573.119	3.56
573.459	3.57
573.799	3.6
574.139	3.6
574.479	3.58
574.819	3.6
575.158	3.58
575.498	3.6
575.838	3.59
576.177	3.58
576.517	3.58
576.856	3.59
577.196	3.57
577.535	3.56
577.875	3.56
578.214	3.54
578.553	3.5
578.893	3.48
579.232	3.44
579.571	3.46
579.91	3.43
580.25	3.41
580.589	3.38
580.928	3.38
581.267	3.36
581.606	3.37
581.945	3.34
582.283	3.38
582.622	3.37
582.961	3.38
583.3	3.4
583.639	3.4
583.977	3.41
584.316	3.42
584.654	3.44
584.993	3.45
585.332	3.45
585.67	3.43
586.008	3.46
586.347	3.48
586.685	3.5
587.024	3.49
587.362	3.53
587.7	3.56
588.038	3.53
588.376	3.55
588.715	3.57
589.053	3.61
589.391	3.61
589.729	3.58
590.067	3.58
590.404	3.56
590.742	3.57
591.08	3.53
591.418	3.55
591.756	3.56
592.093	3.58
592.431	3.58
592.769	3.6
593.106	3.6
593.444	3.6
593.781	3.58
594.119	3.62
594.456	3.61
594.793	3.57
595.131	3.57
595.468	3.57
595.805	3.54
596.143	3.52
596.48	3.5
596.817	3.51
597.154	3.51
597.491	3.51
597.828	3.5
598.165	3.53
598.502	3.48
598.839	3.48
599.176	3.46
599.512	3.45
599.849	3.46
600.186	3.46
600.523	3.48
600.859	3.5
601.196	3.47
601.532	3.47
601.869	3.49
602.205	3.5
602.542	3.51
602.878	3.53
603.215	3.54
603.551	3.57
603.887	3.6
604.223	3.58
604.56	3.62
604.896	3.62
605.232	3.66
605.568	3.69
605.904	3.69
606.24	3.72
606.576	3.73
606.912	3.73
607.248	3.71
607.583	3.7
607.919	3.68
608.255	3.7
608.591	3.72
608.926	3.73
609.262	3.74
609.597	3.76
609.933	3.77
610.268	3.76
610.604	3.76
610.939	3.74
611.275	3.75
611.61	3.74
611.945	3.71
612.281	3.68
612.616	3.68
612.951	3.69
613.286	3.66
613.621	3.64
613.956	3.66
614.291	3.69
614.626	3.69
614.961	3.72
615.296	3.73
615.631	3.73
615.966	3.77
616.3	3.74
616.635	3.8
616.97	3.8
617.304	3.82
617.639	3.82
617.973	3.84
618.308	3.84
618.642	3.81
618.977	3.84
619.311	3.81
619.646	3.83
619.98	3.8
620.314	3.81
620.648	3.84
620.983	3.81
621.317	3.83
621.651	3.84
621.985	3.82
622.319	3.83
622.653	3.85
622.987	3.79
623.321	3.8
623.655	3.76
623.988	3.82
624.322	3.81
624.656	3.84
624.99	3.84
625.323	3.87
625.657	3.9
625.99	3.91
626.324	3.91
626.657	3.87
626.991	3.9
627.324	3.88
627.658	3.91
627.991	3.95
628.324	3.93
628.657	3.95
628.991	3.95
629.324	3.91
629.657	3.87
629.99	3.9
630.323	3.89
630.656	3.9
630.989	3.88
631.322	3.86
631.655	3.83
631.987	3.85
632.32	3.84
632.653	3.87
632.986	3.87
633.318	3.91
633.651	3.9
633.984	3.93
634.316	3.93
634.649	3.87
634.981	3.82
635.313	3.82
635.646	3.81
635.978	3.83
636.31	3.86
636.643	3.91
636.975	3.89
637.307	3.91
637.639	3.89
637.971	3.81
638.303	3.82
638.635	3.8
638.967	3.76
639.299	3.75
639.631	3.69
639.963	3.65
640.295	3.63
640.626	3.63
640.958	3.62
641.29	3.66
641.621	3.7
641.953	3.74
642.285	3.75
642.616	3.73
642.948	3.71
643.279	3.73
643.61	3.72
643.942	3.68
644.273	3.7
644.604	3.71
644.936	3.73
645.267	3.72
645.598	3.72
645.929	3.73
646.26	3.77
646.591	3.8
646.922	3.77
647.253	3.77
647.584	3.8
647.915	3.81
648.245	3.78
648.576	3.83
648.907	3.82
649.238	3.8
649.568	3.82
649.899	3.82
650.229	3.8
650.56	3.81
650.89	3.86
651.221	3.86
651.551	3.82
651.882	3.87
652.212	3.91
652.542	3.95
652.872	3.95
653.203	3.91
653.533	3.93
653.863	4.04
654.193	4.04
654.523	4.09
654.853	4.06
655.183	4.07
655.513	4.01
655.843	3.94
656.172	3.91
656.502	3.87
656.832	3.88
657.162	3.92
657.491	3.86
657.821	3.85
658.15	3.84
658.48	3.87
658.809	3.87
659.139	3.85
659.468	3.73
659.798	3.77
660.127	3.79
660.456	3.79
660.785	3.74
661.115	3.76
661.444	3.65
661.773	3.68
662.102	3.65
662.431	3.67
662.76	3.68
663.089	3.68
663.418	3.65
663.747	3.66
664.076	3.65
664.404	3.7
664.733	3.72
665.062	3.72
665.39	3.71
665.719	3.65
666.048	3.7
666.376	3.82
666.705	3.74
667.033	3.71
667.362	3.64
667.69	3.61
668.018	3.58
668.347	3.68
668.675	3.72
669.003	3.78
669.331	3.76
669.659	3.86
669.987	3.84
670.315	3.91
670.643	3.92
670.971	3.91
671.299	3.88
671.627	3.9
671.955	3.84
672.283	3.87
672.61	3.9
672.938	3.92
673.266	3.89
673.593	3.98
673.921	3.95
674.249	4.05
674.576	4.02
674.904	4.06
675.231	4.09
675.558	4.09
675.886	4.02
676.213	4.02
676.54	4.03
676.867	4.16
677.195	4.11
677.522	4.11
677.849	4.07
678.176	4.07
678.503	4
