Data from BU57650_Reflection_00009.txt Node
Date: Tue Nov 19 11:01:26 EST 2019
User: vgr7
Spectrometer: USB2G7710
Scans to average: 3
Trigger mode: 4
Integration Time (sec): 2.000000E-2
Electric dark correction enabled: true
Boxcar width: 10
XAxis mode: Wavelengths
Number of Pixels in Spectrum: 2048
>>>>>Begin Spectral Data<<<<<
177.721	31.44
178.105	-75.32
178.488	814.95
178.871	172.97
179.254	110.34
179.636	-60.71
180.019	53.61
180.402	54.55
180.785	-95.65
181.168	-110.28
181.55	-208.22
181.933	17.77
182.316	31.97
182.698	-24.7
183.081	-3114.29
183.463	-12.65
183.846	-12.19
184.228	-133.94
184.611	11.15
184.993	18.18
185.376	-17.98
185.758	-7.61
186.14	-44.56
186.522	-71.47
186.904	-54.44
187.287	-34.18
187.669	-19.21
188.051	-41.37
188.433	-29.68
188.815	-27.84
189.197	-36.81
189.579	-34.57
189.961	-16.59
190.342	-14.09
190.724	-17.33
191.106	-25.69
191.488	-17.08
191.869	-14.69
192.251	-16.67
192.633	-14.28
193.014	-25.56
193.396	-11.71
193.777	0.26
194.159	6.52
194.54	13.88
194.922	2.26
195.303	3.92
195.684	10.51
196.065	20.79
196.447	13
196.828	11.23
197.209	4.91
197.59	4.41
197.971	-3.95
198.352	0.24
198.733	-2.81
199.114	2.54
199.495	5.37
199.876	5.69
200.257	3.96
200.638	6.51
201.018	9.97
201.399	-1.62
201.78	-2.39
202.16	0.71
202.541	3.33
202.922	15.99
203.302	15.03
203.683	13.08
204.063	7.74
204.444	23.83
204.824	30.5
205.204	50.34
205.585	50.56
205.965	43.73
206.345	46.2
206.725	48.54
207.106	52.18
207.486	56.82
207.866	55.81
208.246	58.95
208.626	49.43
209.006	62.63
209.386	68.56
209.766	53.74
210.145	43.85
210.525	44.37
210.905	39.61
211.285	42.29
211.664	40.99
212.044	39.46
212.424	33.94
212.803	26.8
213.183	24.9
213.562	28.85
213.942	34.35
214.321	38
214.701	33.51
215.08	32.86
215.459	33.4
215.838	31.75
216.218	25.54
216.597	36.9
216.976	27.08
217.355	35.24
217.734	42.91
218.113	40.11
218.492	36.37
218.871	34.5
219.25	29.12
219.629	18.61
220.008	20.43
220.387	30.56
220.766	37.04
221.144	34.75
221.523	27.73
221.902	23.89
222.28	17.11
222.659	19.95
223.037	21.86
223.416	20.13
223.794	18.33
224.173	21.51
224.551	24.29
224.929	20.81
225.308	13.74
225.686	12.12
226.064	11.1
226.442	17.79
226.821	16.59
227.199	12.44
227.577	13.66
227.955	14.54
228.333	8.19
228.711	10.99
229.089	8.73
229.467	10.32
229.845	9.58
230.222	13.03
230.6	12.9
230.978	11.93
231.356	9.76
231.733	11.88
232.111	10.34
232.488	9.13
232.866	10.08
233.243	10.95
233.621	11.94
233.998	12.06
234.376	9.09
234.753	8.95
235.13	9.63
235.508	9.56
235.885	9.43
236.262	9.03
236.639	5.71
237.016	5.22
237.393	4.77
237.77	6.36
238.147	5.24
238.524	5.59
238.901	5.72
239.278	5.65
239.655	5.04
240.032	4.35
240.409	4.29
240.785	4.2
241.162	4.59
241.539	4.26
241.915	4.32
242.292	4.7
242.668	4.76
243.045	4.97
243.421	4.89
243.798	4.96
244.174	5.43
244.551	5.89
244.927	6.23
245.303	6.17
245.679	5.81
246.056	5.64
246.432	5.81
246.808	5.6
247.184	5.81
247.56	5.63
247.936	5.91
248.312	6.02
248.688	6.27
249.064	6.06
249.44	6.1
249.815	6.12
250.191	6.41
250.567	6.42
250.943	6.65
251.318	6.91
251.694	6.71
252.069	6.75
252.445	6.73
252.82	6.51
253.196	6.57
253.571	6.75
253.947	6.96
254.322	6.67
254.697	6.61
255.073	6.39
255.448	6.33
255.823	6.37
256.198	6.06
256.573	5.81
256.948	5.92
257.323	5.78
257.698	5.8
258.073	5.42
258.448	5.5
258.823	5.2
259.198	5.21
259.573	5.3
259.948	5.27
260.322	5.12
260.697	5.12
261.072	5.1
261.446	5.21
261.821	5.11
262.195	5.06
262.57	5.11
262.944	5.15
263.319	5.15
263.693	5.01
264.067	5.08
264.442	4.99
264.816	4.93
265.19	4.9
265.564	4.77
265.938	4.76
266.313	4.5
266.687	4.51
267.061	4.25
267.435	4.5
267.809	4.51
268.183	4.38
268.556	4.49
268.93	4.44
269.304	4.43
269.678	4.49
270.051	4.65
270.425	4.69
270.799	4.59
271.172	4.56
271.546	4.54
271.919	4.6
272.293	4.63
272.666	4.71
273.04	4.86
273.413	4.93
273.787	4.9
274.16	5.06
274.533	5.31
274.906	5.46
275.279	5.25
275.653	5.32
276.026	5.56
276.399	5.57
276.772	5.54
277.145	5.5
277.518	5.43
277.891	5.4
278.263	5.25
278.636	5.42
279.009	5.66
279.382	5.75
279.755	5.66
280.127	5.82
280.5	5.74
280.872	5.55
281.245	5.46
281.617	5.44
281.99	5.41
282.362	5.18
282.735	5.12
283.107	5.17
283.479	5.15
283.852	5.19
284.224	5.35
284.596	5.37
284.968	5.34
285.34	5.44
285.713	5.52
286.085	5.71
286.457	5.66
286.829	5.51
287.201	5.49
287.572	5.63
287.944	5.62
288.316	5.62
288.688	5.82
289.06	5.99
289.431	6.14
289.803	6.19
290.175	6.17
290.546	6.17
290.918	6.21
291.289	6.2
291.661	6.29
292.032	6.34
292.403	6.52
292.775	6.7
293.146	6.8
293.517	6.72
293.889	6.75
294.26	6.89
294.631	7.19
295.002	7.26
295.373	7.25
295.744	7.33
296.115	7.53
296.486	7.51
296.857	7.57
297.228	7.59
297.599	7.65
297.97	8.02
298.34	8.22
298.711	8.28
299.082	8.32
299.452	8.22
299.823	8.31
300.194	8.49
300.564	8.46
300.935	8.57
301.305	8.68
301.676	8.73
302.046	8.77
302.416	8.84
302.787	9.05
303.157	9.23
303.527	9.42
303.897	9.49
304.267	9.67
304.637	9.81
305.008	10.05
305.378	10.39
305.748	10.42
306.117	10.58
306.487	10.9
306.857	11.13
307.227	11.55
307.597	11.63
307.967	11.77
308.336	12.09
308.706	12.22
309.076	12.48
309.445	12.7
309.815	12.94
310.184	13.11
310.554	13.2
310.923	13.3
311.293	13.45
311.662	13.61
312.031	13.76
312.401	13.86
312.77	13.91
313.139	13.87
313.508	13.96
313.877	14.06
314.246	14.09
314.616	14.38
314.985	14.32
315.353	14.51
315.722	14.76
316.091	14.94
316.46	15.11
316.829	15.21
317.198	15.42
317.567	15.64
317.935	15.61
318.304	15.91
318.672	16.02
319.041	16.06
319.41	16.16
319.778	16.29
320.147	16.25
320.515	16.53
320.883	16.53
321.252	16.67
321.62	16.82
321.988	16.81
322.357	16.73
322.725	16.98
323.093	16.93
323.461	16.79
323.829	16.86
324.197	17.01
324.565	17.03
324.933	17.05
325.301	16.84
325.669	16.85
326.037	16.83
326.405	16.91
326.772	16.92
327.14	16.87
327.508	16.95
327.875	17.25
328.243	17.2
328.61	17.3
328.978	17.3
329.346	17.29
329.713	17.4
330.08	17.61
330.448	17.61
330.815	17.79
331.182	17.88
331.55	17.87
331.917	17.83
332.284	17.99
332.651	17.98
333.018	18.19
333.385	18.36
333.752	18.45
334.119	18.56
334.486	18.71
334.853	18.73
335.22	18.67
335.587	18.63
335.954	18.62
336.32	18.78
336.687	18.89
337.054	19
337.42	19.05
337.787	19.05
338.153	19.04
338.52	19.03
338.886	19.11
339.253	19.15
339.619	19.22
339.986	19.13
340.352	19.11
340.718	19.1
341.084	19.14
341.451	19.23
341.817	19.33
342.183	19.32
342.549	19.45
342.915	19.51
343.281	19.46
343.647	19.41
344.013	19.35
344.379	19.29
344.745	19.29
345.11	19.37
345.476	19.38
345.842	19.39
346.208	19.4
346.573	19.47
346.939	19.46
347.304	19.49
347.67	19.48
348.035	19.6
348.401	19.62
348.766	19.59
349.132	19.51
349.497	19.52
349.862	19.53
350.228	19.58
350.593	19.53
350.958	19.72
351.323	19.81
351.688	19.79
352.053	19.74
352.418	19.76
352.783	19.71
353.148	19.63
353.513	19.6
353.878	19.51
354.243	19.48
354.608	19.49
354.972	19.33
355.337	19.4
355.702	19.38
356.066	19.33
356.431	19.24
356.795	19.14
357.16	19
357.524	18.92
357.889	18.8
358.253	18.73
358.618	18.56
358.982	18.48
359.346	18.41
359.71	18.38
360.075	18.28
360.439	18.3
360.803	18.25
361.167	18.16
361.531	18.19
361.895	18.03
362.259	17.94
362.623	17.92
362.987	17.78
363.351	17.66
363.714	17.65
364.078	17.61
364.442	17.56
364.806	17.48
365.169	17.42
365.533	17.27
365.896	17.21
366.26	17
366.623	16.91
366.987	16.9
367.35	16.78
367.714	16.64
368.077	16.46
368.44	16.39
368.803	16.33
369.167	16.15
369.53	16.07
369.893	15.95
370.256	15.87
370.619	15.71
370.982	15.53
371.345	15.41
371.708	15.29
372.071	15.12
372.434	14.99
372.797	14.84
373.159	14.73
373.522	14.54
373.885	14.57
374.247	14.45
374.61	14.21
374.973	14.12
375.335	14.02
375.698	13.91
376.06	13.77
376.423	13.62
376.785	13.52
377.147	13.41
377.51	13.27
377.872	13.13
378.234	13.06
378.596	12.97
378.958	12.84
379.321	12.73
379.683	12.62
380.045	12.5
380.407	12.4
380.769	12.33
381.13	12.27
381.492	12.09
381.854	11.97
382.216	11.97
382.578	11.81
382.939	11.68
383.301	11.59
383.663	11.43
384.024	11.29
384.386	11.16
384.747	11.08
385.109	11.01
385.47	10.93
385.832	10.84
386.193	10.76
386.554	10.63
386.916	10.52
387.277	10.51
387.638	10.4
387.999	10.31
388.36	10.21
388.721	10.15
389.082	10.14
389.443	10.03
389.804	9.91
390.165	9.87
390.526	9.79
390.887	9.69
391.248	9.61
391.609	9.64
391.969	9.59
392.33	9.48
392.691	9.46
393.051	9.36
393.412	9.31
393.772	9.26
394.133	9.15
394.493	9.1
394.854	9
395.214	8.96
395.574	8.85
395.935	8.77
396.295	8.66
396.655	8.52
397.015	8.47
397.376	8.38
397.736	8.27
398.096	8.18
398.456	8.11
398.816	8.07
399.176	7.91
399.535	7.85
399.895	7.81
400.255	7.71
400.615	7.68
400.975	7.6
401.334	7.49
401.694	7.45
402.054	7.34
402.413	7.28
402.773	7.21
403.132	7.17
403.492	7.14
403.851	7.09
404.211	7.05
404.57	7.02
404.929	6.99
405.288	6.95
405.648	6.95
406.007	6.89
406.366	6.87
406.725	6.83
407.084	6.78
407.443	6.73
407.802	6.7
408.161	6.64
408.52	6.62
408.879	6.63
409.238	6.66
409.596	6.64
409.955	6.59
410.314	6.57
410.673	6.56
411.031	6.53
411.39	6.54
411.748	6.53
412.107	6.47
412.465	6.44
412.824	6.43
413.182	6.4
413.54	6.38
413.899	6.37
414.257	6.38
414.615	6.32
414.974	6.31
415.332	6.26
415.69	6.22
416.048	6.16
416.406	6.11
416.764	6.04
417.122	5.99
417.48	5.96
417.838	5.93
418.195	5.88
418.553	5.85
418.911	5.78
419.269	5.76
419.626	5.73
419.984	5.7
420.342	5.68
420.699	5.66
421.057	5.63
421.414	5.59
421.772	5.55
422.129	5.53
422.486	5.48
422.844	5.45
423.201	5.42
423.558	5.4
423.915	5.39
424.273	5.37
424.63	5.36
424.987	5.34
425.344	5.31
425.701	5.31
426.058	5.3
426.415	5.28
426.772	5.26
427.128	5.25
427.485	5.23
427.842	5.2
428.199	5.18
428.555	5.13
428.912	5.12
429.269	5.1
429.625	5.09
429.982	5.08
430.338	5.09
430.695	5.06
431.051	5.05
431.407	5.04
431.764	5.01
432.12	5.02
432.476	5
432.832	4.98
433.189	4.96
433.545	4.96
433.901	4.96
434.257	4.95
434.613	4.95
434.969	4.95
435.325	4.93
435.681	4.91
436.036	4.93
436.392	4.91
436.748	4.91
437.104	4.92
437.459	4.91
437.815	4.92
438.171	4.92
438.526	4.93
438.882	4.92
439.237	4.92
439.593	4.92
439.948	4.9
440.304	4.91
440.659	4.91
441.014	4.89
441.369	4.89
441.725	4.89
442.08	4.88
442.435	4.88
442.79	4.88
443.145	4.89
443.5	4.86
443.855	4.85
444.21	4.85
444.565	4.82
444.92	4.81
445.275	4.77
445.629	4.76
445.984	4.74
446.339	4.74
446.693	4.72
447.048	4.69
447.403	4.69
447.757	4.68
448.112	4.67
448.466	4.66
448.82	4.64
449.175	4.61
449.529	4.59
449.883	4.56
450.238	4.53
450.592	4.51
450.946	4.51
451.3	4.5
451.654	4.48
452.008	4.47
452.362	4.44
452.716	4.45
453.07	4.43
453.424	4.43
453.778	4.41
454.132	4.41
454.486	4.41
454.839	4.41
455.193	4.41
455.547	4.41
455.9	4.41
456.254	4.41
456.607	4.42
456.961	4.44
457.314	4.45
457.668	4.46
458.021	4.47
458.375	4.48
458.728	4.47
459.081	4.49
459.434	4.49
459.787	4.51
460.141	4.52
460.494	4.52
460.847	4.53
461.2	4.55
461.553	4.56
461.906	4.59
462.259	4.59
462.611	4.59
462.964	4.58
463.317	4.6
463.67	4.62
464.022	4.63
464.375	4.61
464.728	4.63
465.08	4.64
465.433	4.65
465.785	4.67
466.138	4.69
466.49	4.68
466.843	4.75
467.195	4.74
467.547	4.75
467.899	4.75
468.252	4.75
468.604	4.78
468.956	4.81
469.308	4.81
469.66	4.82
470.012	4.87
470.364	4.92
470.716	4.95
471.068	4.98
471.42	4.99
471.772	5.02
472.123	5.04
472.475	5.07
472.827	5.09
473.178	5.1
473.53	5.11
473.882	5.12
474.233	5.08
474.585	5.11
474.936	5.13
475.288	5.14
475.639	5.17
475.99	5.15
476.342	5.14
476.693	5.14
477.044	5.13
477.395	5.12
477.746	5.08
478.097	5.06
478.448	5.02
478.8	5.03
479.15	5.01
479.501	4.99
479.852	4.96
480.203	4.96
480.554	4.96
480.905	4.96
481.255	4.96
481.606	4.96
481.957	4.95
482.307	4.94
482.658	4.94
483.009	4.92
483.359	4.93
483.709	4.92
484.06	4.92
484.41	4.92
484.761	4.91
485.111	4.91
485.461	4.91
485.811	4.91
486.162	4.91
486.512	4.91
486.862	4.91
487.212	4.92
487.562	4.92
487.912	4.92
488.262	4.92
488.612	4.92
488.961	4.92
489.311	4.93
489.661	4.95
490.011	4.95
490.36	4.95
490.71	4.94
491.06	4.96
491.409	4.96
491.759	4.96
492.108	4.97
492.458	5
492.807	5.02
493.157	5.04
493.506	5.05
493.855	5.09
494.204	5.1
494.554	5.13
494.903	5.16
495.252	5.18
495.601	5.22
495.95	5.26
496.299	5.3
496.648	5.33
496.997	5.36
497.346	5.41
497.695	5.47
498.043	5.53
498.392	5.56
498.741	5.63
499.09	5.69
499.438	5.76
499.787	5.8
500.135	5.86
500.484	5.91
500.832	5.97
501.181	6.01
501.529	6.11
501.878	6.17
502.226	6.24
502.574	6.34
502.923	6.41
503.271	6.5
503.619	6.6
503.967	6.7
504.315	6.76
504.663	6.85
505.011	6.94
505.359	7.04
505.707	7.15
506.055	7.24
506.403	7.34
506.751	7.46
507.098	7.56
507.446	7.69
507.794	7.81
508.141	7.94
508.489	8.06
508.837	8.17
509.184	8.27
509.531	8.39
509.879	8.49
510.226	8.61
510.574	8.74
510.921	8.84
511.268	8.97
511.616	9.1
511.963	9.24
512.31	9.38
512.657	9.53
513.004	9.69
513.351	9.85
513.698	10.03
514.045	10.19
514.392	10.37
514.739	10.53
515.086	10.72
515.432	10.9
515.779	11.05
516.126	11.24
516.473	11.41
516.819	11.57
517.166	11.75
517.512	11.9
517.859	12.05
518.205	12.2
518.552	12.35
518.898	12.52
519.245	12.69
519.591	12.84
519.937	12.99
520.283	13.14
520.629	13.3
520.976	13.47
521.322	13.65
521.668	13.84
522.014	14.02
522.36	14.21
522.706	14.39
523.052	14.61
523.398	14.83
523.743	15.09
524.089	15.35
524.435	15.57
524.781	15.79
525.126	16.02
525.472	16.19
525.817	16.36
526.163	16.49
526.509	16.64
526.854	16.77
527.199	16.91
527.545	17.04
527.89	17.17
528.235	17.3
528.581	17.43
528.926	17.57
529.271	17.73
529.616	17.87
529.961	18
530.306	18.17
530.651	18.31
530.996	18.44
531.341	18.59
531.686	18.75
532.031	18.91
532.376	19.06
532.721	19.26
533.065	19.45
533.41	19.65
533.755	19.83
534.099	20.02
534.444	20.23
534.788	20.42
535.133	20.63
535.477	20.83
535.822	21.03
536.166	21.24
536.51	21.45
536.855	21.68
537.199	21.93
537.543	22.18
537.887	22.45
538.231	22.69
538.576	22.97
538.92	23.24
539.264	23.49
539.608	23.69
539.951	23.9
540.295	24.1
540.639	24.3
540.983	24.52
541.327	24.72
541.671	24.9
542.014	25.14
542.358	25.34
542.701	25.53
543.045	25.75
543.389	25.95
543.732	26.17
544.075	26.38
544.419	26.59
544.762	26.79
545.105	27.01
545.449	27.28
545.792	27.51
546.135	27.77
546.478	28.06
546.821	28.38
547.165	28.68
547.508	28.96
547.851	29.3
548.194	29.66
548.536	29.99
548.879	30.32
549.222	30.6
549.565	30.92
549.908	31.29
550.25	31.59
550.593	31.89
550.936	32.21
551.278	32.59
551.621	32.92
551.963	33.3
552.306	33.64
552.648	34
552.991	34.29
553.333	34.61
553.675	34.92
554.017	35.23
554.36	35.55
554.702	35.88
555.044	36.15
555.386	36.42
555.728	36.73
556.07	37.06
556.412	37.37
556.754	37.62
557.096	37.87
557.438	38.25
557.78	38.61
558.121	38.91
558.463	39.17
558.805	39.46
559.147	39.76
559.488	40.07
559.83	40.27
560.171	40.6
560.513	40.88
560.854	41.21
561.196	41.45
561.537	41.75
561.878	42.05
562.22	42.33
562.561	42.67
562.902	42.94
563.243	43.18
563.584	43.49
563.925	43.78
564.266	44.02
564.607	44.24
564.948	44.54
565.289	44.78
565.63	45.09
565.971	45.37
566.312	45.61
566.653	45.89
566.993	46.2
567.334	46.57
567.675	46.8
568.015	47.04
568.356	47.32
568.696	47.56
569.037	47.85
569.377	48.1
569.718	48.27
570.058	48.54
570.398	48.8
570.739	49
571.079	49.27
571.419	49.56
571.759	49.74
572.099	49.97
572.439	50.24
572.779	50.43
573.119	50.62
573.459	50.83
573.799	51.01
574.139	51.2
574.479	51.3
574.819	51.56
575.158	51.76
575.498	51.99
575.838	52.2
576.177	52.39
576.517	52.63
576.856	52.86
577.196	53.05
577.535	53.23
577.875	53.48
578.214	53.65
578.553	53.89
578.893	54.17
579.232	54.34
579.571	54.47
579.91	54.66
580.25	54.87
580.589	55.08
580.928	55.27
581.267	55.49
581.606	55.67
581.945	55.82
582.283	55.93
582.622	56.04
582.961	56.22
583.3	56.35
583.639	56.37
583.977	56.45
584.316	56.62
584.654	56.77
584.993	56.98
585.332	57.13
585.67	57.29
586.008	57.44
586.347	57.7
586.685	57.83
587.024	58.04
587.362	58.19
587.7	58.29
588.038	58.4
588.376	58.5
588.715	58.61
589.053	58.72
589.391	58.92
589.729	59.1
590.067	59.24
590.404	59.38
590.742	59.65
591.08	59.78
591.418	59.94
591.756	59.99
592.093	59.99
592.431	60.09
592.769	60.17
593.106	60.24
593.444	60.23
593.781	60.38
594.119	60.44
594.456	60.55
594.793	60.63
595.131	60.75
595.468	60.88
595.805	60.94
596.143	61
596.48	61.08
596.817	61.15
597.154	61.15
597.491	61.19
597.828	61.24
598.165	61.43
598.502	61.47
598.839	61.62
599.176	61.68
599.512	61.8
599.849	61.91
600.186	62.03
600.523	62.1
600.859	62.11
601.196	62.17
601.532	62.22
601.869	62.3
602.205	62.33
602.542	62.39
602.878	62.54
603.215	62.65
603.551	62.65
603.887	62.7
604.223	62.76
604.56	62.79
604.896	62.86
605.232	62.91
605.568	62.93
605.904	63
606.24	63.12
606.576	63.18
606.912	63.18
607.248	63.23
607.583	63.33
607.919	63.4
608.255	63.47
608.591	63.56
608.926	63.63
609.262	63.73
609.597	63.8
609.933	63.85
610.268	63.89
610.604	64.01
610.939	63.99
611.275	64.06
611.61	64.19
611.945	64.18
612.281	64.16
612.616	64.31
612.951	64.33
613.286	64.39
613.621	64.39
613.956	64.51
614.291	64.61
614.626	64.55
614.961	64.69
615.296	64.68
615.631	64.77
615.966	64.89
616.3	64.87
616.635	64.83
616.97	64.81
617.304	64.94
617.639	64.95
617.973	65.04
618.308	65.16
618.642	65.21
618.977	65.3
619.311	65.4
619.646	65.38
619.98	65.48
620.314	65.52
620.648	65.65
620.983	65.59
621.317	65.53
621.651	65.66
621.985	65.66
622.319	65.83
622.653	65.82
622.987	65.75
623.321	65.78
623.655	65.88
623.988	66.04
624.322	65.97
624.656	65.89
624.99	65.91
625.323	65.81
625.657	65.74
625.99	65.75
626.324	65.72
626.657	65.73
626.991	65.65
627.324	65.7
627.658	65.68
627.991	65.74
628.324	65.8
628.657	65.8
628.991	65.85
629.324	65.81
629.657	65.81
629.99	65.91
630.323	65.99
630.656	65.94
630.989	65.88
631.322	65.93
631.655	65.98
631.987	66.04
632.32	66.1
632.653	66.12
632.986	66.05
633.318	66.09
633.651	66.08
633.984	66.19
634.316	66.18
634.649	66.14
634.981	66.16
635.313	66.13
635.646	66.17
635.978	66.13
636.31	66.21
636.643	66.17
636.975	66.08
637.307	66.07
637.639	66.2
637.971	66.18
638.303	66.07
638.635	66.06
638.967	66.11
639.299	66.17
639.631	66.26
639.963	66.34
640.295	66.43
640.626	66.42
640.958	66.37
641.29	66.39
641.621	66.49
641.953	66.57
642.285	66.57
642.616	66.57
642.948	66.6
643.279	66.56
643.61	66.6
643.942	66.67
644.273	66.71
644.604	66.61
644.936	66.7
645.267	66.89
645.598	67.08
645.929	67
646.26	66.93
646.591	66.98
646.922	67.04
647.253	67
647.584	67
647.915	67.03
648.245	67.01
648.576	67.13
648.907	67.1
649.238	67.21
649.568	67.23
649.899	67.24
650.229	67.15
650.56	67.27
650.89	67.28
651.221	67.31
651.551	67.35
651.882	67.3
652.212	67.25
652.542	67.11
652.872	67.16
653.203	67.39
653.533	67.35
653.863	67.31
654.193	67.18
654.523	67.36
654.853	67.31
655.183	67.29
655.513	67.16
655.843	67.19
656.172	67.16
656.502	67.12
656.832	67.13
657.162	67.19
657.491	67.16
657.821	67.19
658.15	67.19
658.48	67.22
658.809	67.18
659.139	67.16
659.468	67.27
659.798	67.26
660.127	67.15
660.456	67.19
660.785	67.22
661.115	67.29
661.444	67.21
661.773	67.27
662.102	67.34
662.431	67.36
662.76	67.37
663.089	67.35
663.418	67.52
663.747	67.54
