Data from BU57650_Reflection_00006.txt Node
Date: Tue Nov 19 11:01:20 EST 2019
User: vgr7
Spectrometer: USB2G7710
Scans to average: 3
Trigger mode: 4
Integration Time (sec): 2.000000E-2
Electric dark correction enabled: true
Boxcar width: 10
XAxis mode: Wavelengths
Number of Pixels in Spectrum: 2048
>>>>>Begin Spectral Data<<<<<
177.721	38.65
178.105	80.52
178.488	-26.17
178.871	-94.59
179.254	-13.79
179.636	582.14
180.019	-317.53
180.402	209.09
180.785	452.17
181.168	100
181.55	572.6
181.933	102.84
182.316	155.08
182.698	82.19
183.081	4171.43
183.463	-12.65
183.846	-37.12
184.228	-216.51
184.611	167.94
184.993	107.44
185.376	78.33
185.758	75.37
186.14	58.03
186.522	30.48
186.904	30.77
187.287	29.91
187.669	59.39
188.051	71.23
188.433	25.46
188.815	45.74
189.197	39.29
189.579	49.06
189.961	34.15
190.342	29.75
190.724	13.51
191.106	13.87
191.488	-2.78
191.869	-6.6
192.251	-3.07
192.633	-12.07
193.014	-21.43
193.396	-27.34
193.777	-35.11
194.159	-21.01
194.54	-19.2
194.922	-15.17
195.303	-15.38
195.684	-14.33
196.065	-23.17
196.447	-21.46
196.828	-22.95
197.209	-29.08
197.59	-29.47
197.971	-29
198.352	-24.59
198.733	-14.49
199.114	-10.73
199.495	-16.04
199.876	-20.58
200.257	-30.37
200.638	-22.04
201.018	-22.42
201.399	-11.93
201.78	-15.6
202.16	-25.84
202.541	-20.71
202.922	-19.94
203.302	-17.03
203.683	-29.53
204.063	-27.08
204.444	-24.15
204.824	-34.85
205.204	-21.46
205.585	-22.72
205.965	-24.48
206.345	-28.3
206.725	-23.39
207.106	-17.08
207.486	-12.71
207.866	-4.4
208.246	-5.22
208.626	-12.74
209.006	-15.81
209.386	-15.61
209.766	-18.63
210.145	-11.1
210.525	-18.38
210.905	-14.97
211.285	-31.08
211.664	-29.16
212.044	-28.59
212.424	-19.81
212.803	-16.3
213.183	-28.69
213.562	-21.91
213.942	-20.02
214.321	-21.95
214.701	-30.83
215.08	-45.54
215.459	-30.11
215.838	-32.2
216.218	-29.72
216.597	-24.81
216.976	-32.34
217.355	-35.31
217.734	-28.83
218.113	-27.91
218.492	-24.15
218.871	-28.7
219.25	-15.79
219.629	-25.95
220.008	-19.58
220.387	-31.16
220.766	-34.28
221.144	-27.77
221.523	-31.15
221.902	-29.34
222.28	-19.65
222.659	-13.24
223.037	-11.1
223.416	-13.17
223.794	-15.9
224.173	-15.72
224.551	-12.59
224.929	-9.31
225.308	-10.77
225.686	-9.03
226.064	-13.88
226.442	-13.38
226.821	-9.07
227.199	-7.54
227.577	-3.64
227.955	-2.65
228.333	1.07
228.711	3.45
229.089	4.08
229.467	4.44
229.845	1.47
230.222	-0.09
230.6	-0.69
230.978	2.39
231.356	3.89
231.733	6.46
232.111	7.1
232.488	7.4
232.866	9.26
233.243	10.95
233.621	10.96
233.998	11.87
234.376	14.01
234.753	12.41
235.13	12.86
235.508	12.14
235.885	9.79
236.262	7.86
236.639	6.82
237.016	7.35
237.393	7.58
237.77	9.17
238.147	9.74
238.524	9.96
238.901	8.16
239.278	7.36
239.655	7
240.032	6.01
240.409	5.54
240.785	5.19
241.162	5.02
241.539	5.13
241.915	4.98
242.292	5.16
242.668	5.23
243.045	5.32
243.421	5.36
243.798	5.43
244.174	5.7
244.551	5.92
244.927	5.7
245.303	5.32
245.679	5.11
246.056	4.95
246.432	4.71
246.808	4.81
247.184	4.58
247.56	4.34
247.936	4.63
248.312	4.69
248.688	4.61
249.064	4.57
249.44	4.39
249.815	4.62
250.191	4.43
250.567	4.57
250.943	4.24
251.318	4.4
251.694	4.37
252.069	4.27
252.445	3.92
252.82	4.24
253.196	4.14
253.571	4.4
253.947	4.6
254.322	4.68
254.697	4.64
255.073	4.62
255.448	4.6
255.823	4.48
256.198	4.33
256.573	4.45
256.948	4.5
257.323	4.58
257.698	4.67
258.073	4.54
258.448	4.48
258.823	4.6
259.198	4.54
259.573	4.48
259.948	4.55
260.322	4.58
260.697	4.47
261.072	4.57
261.446	4.56
261.821	4.41
262.195	4.35
262.57	4.28
262.944	4.37
263.319	4.42
263.693	4.47
264.067	4.63
264.442	4.55
264.816	4.42
265.19	4.62
265.564	4.42
265.938	4.44
266.313	4.29
266.687	4.19
267.061	4.16
267.435	4.26
267.809	4.32
268.183	4.5
268.556	4.49
268.93	4.51
269.304	4.47
269.678	4.42
270.051	4.33
270.425	4.52
270.799	4.37
271.172	4.49
271.546	4.44
271.919	4.31
272.293	4.21
272.666	4.24
273.04	4.03
273.413	4.14
273.787	4.16
274.16	4.1
274.533	4.21
274.906	4.15
275.279	4.12
275.653	3.97
276.026	4
276.399	3.92
276.772	3.94
277.145	3.77
277.518	3.63
277.891	3.81
278.263	3.82
278.636	3.92
279.009	3.94
279.382	3.92
279.755	3.95
280.127	4.03
280.5	3.86
280.872	3.92
281.245	3.8
281.617	3.94
281.99	3.84
282.362	3.87
282.735	3.85
283.107	3.83
283.479	3.85
283.852	3.81
284.224	3.79
284.596	3.69
284.968	3.62
285.34	3.75
285.713	3.71
286.085	3.64
286.457	3.68
286.829	3.55
287.201	3.66
287.572	3.65
287.944	3.67
288.316	3.82
288.688	3.92
289.06	3.89
289.431	3.86
289.803	4.13
290.175	3.95
290.546	3.94
290.918	4.02
291.289	4.03
291.661	4.02
292.032	4.02
292.403	4.13
292.775	4.29
293.146	4.27
293.517	4.28
293.889	4.19
294.26	4.23
294.631	4.27
295.002	4.2
295.373	4.18
295.744	4.18
296.115	4.19
296.486	4.09
296.857	4.23
297.228	4.16
297.599	4
297.97	4.1
298.34	4.16
298.711	4.13
299.082	4.12
299.452	4.05
299.823	4.15
300.194	4.09
300.564	3.97
300.935	4.04
301.305	4.02
301.676	4.02
302.046	3.99
302.416	3.94
302.787	3.83
303.157	3.8
303.527	3.87
303.897	3.84
304.267	3.76
304.637	3.61
305.008	3.69
305.378	3.75
305.748	3.8
306.117	3.65
306.487	3.56
306.857	3.6
307.227	3.65
307.597	3.57
307.967	3.49
308.336	3.5
308.706	3.38
309.076	3.46
309.445	3.58
309.815	3.48
310.184	3.51
310.554	3.55
310.923	3.59
311.293	3.58
311.662	3.56
312.031	3.5
312.401	3.54
312.77	3.55
313.139	3.53
313.508	3.52
313.877	3.74
314.246	3.78
314.616	3.78
314.985	3.72
315.353	3.72
315.722	3.86
316.091	3.94
316.46	4.05
316.829	3.96
317.198	3.9
317.567	3.94
317.935	3.9
318.304	4.11
318.672	4.01
319.041	4.08
319.41	4.04
319.778	4.29
320.147	4.17
320.515	4.12
320.883	3.96
321.252	3.8
321.62	3.76
321.988	3.82
322.357	3.85
322.725	3.88
323.093	3.87
323.461	3.94
323.829	3.93
324.197	3.94
324.565	3.96
324.933	3.97
325.301	3.76
325.669	3.73
326.037	3.7
326.405	3.89
326.772	3.74
327.14	3.75
327.508	3.61
327.875	3.7
328.243	3.63
328.61	3.81
328.978	3.95
329.346	3.87
329.713	3.83
330.08	3.77
330.448	3.82
330.815	3.95
331.182	3.88
331.55	3.83
331.917	3.85
332.284	3.87
332.651	3.78
333.018	3.92
333.385	3.96
333.752	3.93
334.119	3.79
334.486	3.71
334.853	3.76
335.22	3.67
335.587	3.55
335.954	3.53
336.32	3.49
336.687	3.4
337.054	3.41
337.42	3.36
337.787	3.39
338.153	3.38
338.52	3.27
338.886	3.31
339.253	3.29
339.619	3.32
339.986	3.35
340.352	3.49
340.718	3.57
341.084	3.61
341.451	3.54
341.817	3.51
342.183	3.42
342.549	3.28
342.915	3.43
343.281	3.57
343.647	3.69
344.013	3.68
344.379	3.67
344.745	3.71
345.11	3.65
345.476	3.55
345.842	3.5
346.208	3.51
346.573	3.47
346.939	3.53
347.304	3.45
347.67	3.43
348.035	3.34
348.401	3.34
348.766	3.32
349.132	3.36
349.497	3.48
349.862	3.62
350.228	3.64
350.593	3.62
350.958	3.65
351.323	3.61
351.688	3.74
352.053	3.78
352.418	3.79
352.783	3.86
353.148	3.85
353.513	3.87
353.878	3.83
354.243	3.79
354.608	3.7
354.972	3.74
355.337	3.73
355.702	3.74
356.066	3.78
356.431	3.72
356.795	3.65
357.16	3.59
357.524	3.61
357.889	3.64
358.253	3.65
358.618	3.6
358.982	3.6
359.346	3.52
359.71	3.53
360.075	3.5
360.439	3.56
360.803	3.64
361.167	3.58
361.531	3.62
361.895	3.64
362.259	3.74
362.623	3.69
362.987	3.65
363.351	3.63
363.714	3.55
364.078	3.62
364.442	3.64
364.806	3.67
365.169	3.69
365.533	3.7
365.896	3.68
366.26	3.67
366.623	3.66
366.987	3.65
367.35	3.71
367.714	3.72
368.077	3.69
368.44	3.68
368.803	3.67
369.167	3.61
369.53	3.59
369.893	3.56
370.256	3.56
370.619	3.66
370.982	3.6
371.345	3.64
371.708	3.6
372.071	3.6
372.434	3.64
372.797	3.6
373.159	3.59
373.522	3.55
373.885	3.54
374.247	3.54
374.61	3.61
374.973	3.58
375.335	3.61
375.698	3.54
376.06	3.54
376.423	3.57
376.785	3.65
377.147	3.64
377.51	3.63
377.872	3.61
378.234	3.62
378.596	3.65
378.958	3.67
379.321	3.68
379.683	3.69
380.045	3.61
380.407	3.63
380.769	3.64
381.13	3.64
381.492	3.62
381.854	3.65
382.216	3.59
382.578	3.55
382.939	3.52
383.301	3.54
383.663	3.52
384.024	3.52
384.386	3.52
384.747	3.51
385.109	3.53
385.47	3.6
385.832	3.53
386.193	3.55
386.554	3.53
386.916	3.51
387.277	3.5
387.638	3.51
387.999	3.52
388.36	3.49
388.721	3.54
389.082	3.56
389.443	3.55
389.804	3.59
390.165	3.57
390.526	3.58
390.887	3.56
391.248	3.6
391.609	3.59
391.969	3.6
392.33	3.54
392.691	3.55
393.051	3.5
393.412	3.52
393.772	3.51
394.133	3.51
394.493	3.5
394.854	3.51
395.214	3.5
395.574	3.46
395.935	3.44
396.295	3.4
396.655	3.37
397.015	3.35
397.376	3.3
397.736	3.32
398.096	3.29
398.456	3.3
398.816	3.26
399.176	3.26
399.535	3.21
399.895	3.23
400.255	3.23
400.615	3.25
400.975	3.21
401.334	3.22
401.694	3.22
402.054	3.25
402.413	3.23
402.773	3.23
403.132	3.23
403.492	3.27
403.851	3.28
404.211	3.28
404.57	3.3
404.929	3.3
405.288	3.31
405.648	3.32
406.007	3.32
406.366	3.35
406.725	3.36
407.084	3.38
407.443	3.42
407.802	3.41
408.161	3.4
408.52	3.41
408.879	3.4
409.238	3.39
409.596	3.35
409.955	3.37
410.314	3.37
410.673	3.39
411.031	3.35
411.39	3.34
411.748	3.35
412.107	3.35
412.465	3.35
412.824	3.33
413.182	3.33
413.54	3.34
413.899	3.3
414.257	3.28
414.615	3.25
414.974	3.24
415.332	3.21
415.69	3.21
416.048	3.19
416.406	3.21
416.764	3.22
417.122	3.24
417.48	3.24
417.838	3.25
418.195	3.23
418.553	3.22
418.911	3.23
419.269	3.23
419.626	3.23
419.984	3.25
420.342	3.25
420.699	3.24
421.057	3.23
421.414	3.24
421.772	3.24
422.129	3.24
422.486	3.24
422.844	3.24
423.201	3.23
423.558	3.25
423.915	3.23
424.273	3.23
424.63	3.23
424.987	3.22
425.344	3.21
425.701	3.22
426.058	3.23
426.415	3.23
426.772	3.24
427.128	3.2
427.485	3.2
427.842	3.19
428.199	3.2
428.555	3.2
428.912	3.19
429.269	3.19
429.625	3.19
429.982	3.18
430.338	3.22
430.695	3.2
431.051	3.19
431.407	3.19
431.764	3.18
432.12	3.18
432.476	3.19
432.832	3.18
433.189	3.19
433.545	3.18
433.901	3.16
434.257	3.14
434.613	3.15
434.969	3.14
435.325	3.15
435.681	3.13
436.036	3.14
436.392	3.15
436.748	3.16
437.104	3.18
437.459	3.17
437.815	3.16
438.171	3.19
438.526	3.21
438.882	3.21
439.237	3.22
439.593	3.21
439.948	3.22
440.304	3.23
440.659	3.24
441.014	3.25
441.369	3.26
441.725	3.27
442.08	3.27
442.435	3.27
442.79	3.27
443.145	3.28
443.5	3.26
443.855	3.24
444.21	3.23
444.565	3.24
444.92	3.26
445.275	3.26
445.629	3.23
445.984	3.22
446.339	3.21
446.693	3.19
447.048	3.2
447.403	3.18
447.757	3.18
448.112	3.18
448.466	3.19
448.82	3.18
449.175	3.17
449.529	3.17
449.883	3.17
450.238	3.16
450.592	3.14
450.946	3.15
451.3	3.17
451.654	3.17
452.008	3.16
452.362	3.14
452.716	3.12
453.07	3.13
453.424	3.13
453.778	3.14
454.132	3.16
454.486	3.15
454.839	3.16
455.193	3.16
455.547	3.14
455.9	3.15
456.254	3.16
456.607	3.14
456.961	3.15
457.314	3.15
457.668	3.15
458.021	3.17
458.375	3.16
458.728	3.17
459.081	3.17
459.434	3.16
459.787	3.18
460.141	3.19
460.494	3.2
460.847	3.2
461.2	3.19
461.553	3.2
461.906	3.2
462.259	3.2
462.611	3.18
462.964	3.19
463.317	3.17
463.67	3.17
464.022	3.19
464.375	3.19
464.728	3.19
465.08	3.19
465.433	3.19
465.785	3.2
466.138	3.2
466.49	3.19
466.843	3.19
467.195	3.19
467.547	3.19
467.899	3.2
468.252	3.21
468.604	3.21
468.956	3.21
469.308	3.22
469.66	3.23
470.012	3.24
470.364	3.23
470.716	3.25
471.068	3.24
471.42	3.24
471.772	3.23
472.123	3.24
472.475	3.25
472.827	3.24
473.178	3.26
473.53	3.27
473.882	3.27
474.233	3.27
474.585	3.25
474.936	3.25
475.288	3.27
475.639	3.28
475.99	3.27
476.342	3.27
476.693	3.25
477.044	3.25
477.395	3.24
477.746	3.25
478.097	3.24
478.448	3.24
478.8	3.24
479.15	3.24
479.501	3.24
479.852	3.26
480.203	3.25
480.554	3.23
480.905	3.24
481.255	3.25
481.606	3.26
481.957	3.27
482.307	3.28
482.658	3.27
483.009	3.27
483.359	3.28
483.709	3.28
484.06	3.29
484.41	3.29
484.761	3.3
485.111	3.3
485.461	3.29
485.811	3.29
486.162	3.29
486.512	3.3
486.862	3.3
487.212	3.3
487.562	3.3
487.912	3.32
488.262	3.32
488.612	3.32
488.961	3.32
489.311	3.31
489.661	3.3
490.011	3.29
490.36	3.29
490.71	3.28
491.06	3.28
491.409	3.27
491.759	3.27
492.108	3.28
492.458	3.27
492.807	3.28
493.157	3.29
493.506	3.29
493.855	3.29
494.204	3.27
494.554	3.27
494.903	3.27
495.252	3.26
495.601	3.26
495.95	3.26
496.299	3.26
496.648	3.27
496.997	3.29
497.346	3.3
497.695	3.33
498.043	3.34
498.392	3.35
498.741	3.34
499.09	3.35
499.438	3.34
499.787	3.35
500.135	3.36
500.484	3.36
500.832	3.33
501.181	3.35
501.529	3.37
501.878	3.36
502.226	3.37
502.574	3.39
502.923	3.36
503.271	3.37
503.619	3.37
503.967	3.36
504.315	3.37
504.663	3.35
505.011	3.35
505.359	3.35
505.707	3.35
506.055	3.37
506.403	3.37
506.751	3.38
507.098	3.37
507.446	3.37
507.794	3.38
508.141	3.41
508.489	3.42
508.837	3.41
509.184	3.42
509.531	3.42
509.879	3.41
510.226	3.43
510.574	3.43
510.921	3.44
511.268	3.45
511.616	3.45
511.963	3.46
512.31	3.47
512.657	3.49
513.004	3.48
513.351	3.49
513.698	3.48
514.045	3.48
514.392	3.49
514.739	3.51
515.086	3.52
515.432	3.51
515.779	3.51
516.126	3.53
516.473	3.53
516.819	3.53
517.166	3.56
517.512	3.54
517.859	3.55
518.205	3.55
518.552	3.56
518.898	3.57
519.245	3.59
519.591	3.57
519.937	3.56
520.283	3.58
520.629	3.58
520.976	3.59
521.322	3.59
521.668	3.59
522.014	3.6
522.36	3.58
522.706	3.59
523.052	3.6
523.398	3.59
523.743	3.62
524.089	3.63
524.435	3.62
524.781	3.64
525.126	3.64
525.472	3.64
525.817	3.64
526.163	3.63
526.509	3.62
526.854	3.64
527.199	3.65
527.545	3.66
527.89	3.66
528.235	3.66
528.581	3.67
528.926	3.68
529.271	3.68
529.616	3.68
529.961	3.68
530.306	3.68
530.651	3.67
530.996	3.67
531.341	3.66
531.686	3.66
532.031	3.66
532.376	3.67
532.721	3.66
533.065	3.66
533.41	3.67
533.755	3.68
534.099	3.66
534.444	3.65
534.788	3.63
535.133	3.64
535.477	3.64
535.822	3.64
536.166	3.65
536.51	3.66
536.855	3.67
537.199	3.67
537.543	3.67
537.887	3.68
538.231	3.69
538.576	3.7
538.92	3.7
539.264	3.71
539.608	3.7
539.951	3.71
540.295	3.72
540.639	3.73
540.983	3.73
541.327	3.76
541.671	3.76
542.014	3.78
542.358	3.78
542.701	3.78
543.045	3.79
543.389	3.79
543.732	3.77
544.075	3.77
544.419	3.78
544.762	3.8
545.105	3.81
545.449	3.82
545.792	3.82
546.135	3.82
546.478	3.82
546.821	3.83
547.165	3.83
547.508	3.84
547.851	3.84
548.194	3.84
548.536	3.83
548.879	3.84
549.222	3.85
549.565	3.84
549.908	3.84
550.25	3.83
550.593	3.8
550.936	3.81
551.278	3.82
551.621	3.8
551.963	3.81
552.306	3.79
552.648	3.8
552.991	3.8
553.333	3.8
553.675	3.82
554.017	3.8
554.36	3.8
554.702	3.77
555.044	3.77
555.386	3.77
555.728	3.76
556.07	3.77
556.412	3.75
556.754	3.76
557.096	3.76
557.438	3.78
557.78	3.81
558.121	3.79
558.463	3.77
558.805	3.79
559.147	3.78
559.488	3.79
559.83	3.8
560.171	3.78
560.513	3.8
560.854	3.77
561.196	3.77
561.537	3.78
561.878	3.8
562.22	3.79
562.561	3.79
562.902	3.77
563.243	3.78
563.584	3.77
563.925	3.77
564.266	3.77
564.607	3.78
564.948	3.77
565.289	3.79
565.63	3.78
565.971	3.77
566.312	3.77
566.653	3.76
566.993	3.76
567.334	3.8
567.675	3.8
568.015	3.83
568.356	3.84
568.696	3.84
569.037	3.82
569.377	3.86
569.718	3.87
570.058	3.85
570.398	3.84
570.739	3.86
571.079	3.86
571.419	3.84
571.759	3.83
572.099	3.83
572.439	3.82
572.779	3.84
573.119	3.84
573.459	3.84
573.799	3.85
574.139	3.85
574.479	3.83
574.819	3.85
575.158	3.86
575.498	3.87
575.838	3.87
576.177	3.86
576.517	3.84
576.856	3.83
577.196	3.87
577.535	3.9
577.875	3.89
578.214	3.87
578.553	3.87
578.893	3.88
579.232	3.92
579.571	3.95
579.91	3.96
580.25	3.96
580.589	3.96
580.928	3.95
581.267	3.91
581.606	3.9
581.945	3.87
582.283	3.84
582.622	3.85
582.961	3.84
583.3	3.87
583.639	3.85
583.977	3.87
584.316	3.85
584.654	3.86
584.993	3.87
585.332	3.9
585.67	3.95
586.008	3.93
586.347	3.91
586.685	3.87
587.024	3.84
587.362	3.89
587.7	3.92
588.038	3.93
588.376	3.94
588.715	3.93
589.053	3.94
589.391	3.92
589.729	3.93
590.067	3.94
590.404	3.94
590.742	3.93
591.08	3.96
591.418	3.94
591.756	3.95
592.093	3.94
592.431	3.95
592.769	3.94
593.106	3.95
593.444	3.95
593.781	3.99
594.119	4
594.456	3.95
594.793	3.92
595.131	3.88
595.468	3.9
595.805	3.93
596.143	3.88
596.48	3.9
596.817	3.89
597.154	3.95
597.491	3.93
597.828	3.94
598.165	3.91
598.502	3.92
598.839	3.89
599.176	3.9
599.512	3.9
599.849	3.89
600.186	3.88
600.523	3.85
600.859	3.87
601.196	3.89
601.532	3.89
601.869	3.9
602.205	3.93
602.542	3.94
602.878	3.92
603.215	3.97
603.551	3.95
603.887	3.94
604.223	3.91
604.56	3.93
604.896	3.95
605.232	3.93
605.568	3.97
605.904	3.93
606.24	3.93
606.576	3.93
606.912	3.92
607.248	3.95
607.583	4.01
607.919	3.97
608.255	3.98
608.591	4.03
608.926	4
609.262	4.01
609.597	4.02
609.933	4
610.268	3.99
610.604	3.99
610.939	4.03
611.275	4
611.61	4
611.945	3.93
612.281	3.98
612.616	3.98
612.951	4.05
613.286	4.08
613.621	4.08
613.956	4.13
614.291	4.09
614.626	4.05
614.961	4.08
615.296	4.07
615.631	4.03
615.966	4.07
616.3	4.09
616.635	4.05
616.97	4.1
617.304	4.13
617.639	4.14
617.973	4.04
618.308	4.05
618.642	4.06
618.977	4.1
619.311	4.09
619.646	4.08
619.98	4.09
620.314	4.11
620.648	4.07
620.983	3.99
621.317	4.04
621.651	4.08
621.985	4.11
622.319	4.07
622.653	4.07
622.987	4.05
623.321	4.04
623.655	4.11
623.988	4.09
624.322	4.08
624.656	4.09
624.99	4.13
625.323	4.16
625.657	4.19
625.99	4.23
626.324	4.24
626.657	4.24
626.991	4.22
627.324	4.18
627.658	4.22
627.991	4.27
628.324	4.24
628.657	4.23
628.991	4.2
629.324	4.21
629.657	4.2
629.99	4.26
630.323	4.2
630.656	4.18
630.989	4.21
631.322	4.22
631.655	4.2
631.987	4.25
632.32	4.24
632.653	4.22
632.986	4.19
633.318	4.19
633.651	4.08
633.984	4.1
634.316	4.08
634.649	4.04
634.981	4.04
635.313	4.04
635.646	4.05
635.978	4.05
636.31	4.08
636.643	4.13
636.975	4.14
637.307	4.23
637.639	4.2
637.971	4.19
638.303	4.16
638.635	4.15
638.967	4.13
639.299	4.15
639.631	4.12
639.963	4.13
640.295	4.14
640.626	4.21
640.958	4.19
641.29	4.24
641.621	4.24
641.953	4.21
642.285	4.23
642.616	4.21
642.948	4.19
643.279	4.15
643.61	4.14
643.942	4.17
644.273	4.07
644.604	4.11
644.936	4.16
645.267	4.17
645.598	4.22
645.929	4.22
646.26	4.16
646.591	4.14
646.922	4.11
647.253	4.1
647.584	4.18
647.915	4.17
648.245	4.15
648.576	4.15
648.907	4.19
649.238	4.18
649.568	4.21
649.899	4.19
650.229	4.26
650.56	4.22
650.89	4.21
651.221	4.29
651.551	4.27
651.882	4.23
652.212	4.18
652.542	4.18
652.872	4.17
653.203	4.27
653.533	4.34
653.863	4.38
654.193	4.36
654.523	4.25
654.853	4.33
655.183	4.42
655.513	4.51
655.843	4.49
656.172	4.51
656.502	4.46
656.832	4.54
657.162	4.41
657.491	4.41
657.821	4.39
658.15	4.41
658.48	4.46
658.809	4.47
659.139	4.51
659.468	4.52
659.798	4.55
660.127	4.54
660.456	4.49
660.785	4.54
661.115	4.58
661.444	4.63
661.773	4.62
662.102	4.55
662.431	4.55
662.76	4.61
663.089	4.6
663.418	4.59
663.747	4.54
664.076	4.65
664.404	4.74
664.733	4.74
665.062	4.76
665.39	4.72
665.719	4.69
666.048	4.67
666.376	4.64
666.705	4.68
667.033	4.7
667.362	4.68
667.69	4.62
668.018	4.6
668.347	4.6
668.675	4.56
669.003	4.6
669.331	4.57
669.659	4.51
669.987	4.45
670.315	4.51
670.643	4.5
670.971	4.58
671.299	4.53
671.627	4.58
671.955	4.46
672.283	4.51
672.61	4.53
672.938	4.57
673.266	4.55
673.593	4.47
673.921	4.41
674.249	4.41
674.576	4.46
674.904	4.49
675.231	4.55
675.558	4.55
675.886	4.51
676.213	4.45
676.54	4.46
676.867	4.57
677.195	4.62
677.522	4.63
677.849	4.53
