Data from BU57737_Reflection_00003.txt Node
Date: Mon Nov 18 16:29:40 EST 2019
User: vgr7
Spectrometer: USB2G7710
Scans to average: 3
Trigger mode: 4
Integration Time (sec): 2.000000E-2
Electric dark correction enabled: true
Boxcar width: 10
XAxis mode: Wavelengths
Number of Pixels in Spectrum: 2048
>>>>>Begin Spectral Data<<<<<
177.721	18.67
178.105	-90.48
178.488	-16.64
178.871	9.09
179.254	84.79
179.636	120.41
180.019	109.85
180.402	96.15
180.785	-232.05
181.168	-1364.29
181.55	298.2
181.933	105.76
182.316	97.48
182.698	89.71
183.081	195.24
183.463	186.58
183.846	100
184.228	170.64
184.611	201.2
184.993	265.48
185.376	212.8
185.758	200.56
186.14	177.76
186.522	136.08
186.904	120.64
187.287	117.65
187.669	135.42
188.051	198.36
188.433	324.34
188.815	278.12
189.197	222.84
189.579	221.21
189.961	602.46
190.342	696.49
190.724	840.16
191.106	-4073.91
191.488	106100
191.869	-365.95
192.251	-483.69
192.633	-275.34
193.014	-133.69
193.396	-171.49
193.777	-136.59
194.159	-145.93
194.54	-85.9
194.922	-75.62
195.303	-70.82
195.684	-88.13
196.065	-59.82
196.447	-55.27
196.828	-61.05
197.209	-39.51
197.59	-39.17
197.971	-31.31
198.352	-15.62
198.733	-20.17
199.114	-18.32
199.495	3.8
199.876	14.08
200.257	18.08
200.638	11.97
201.018	4.84
201.399	22.16
201.78	19.68
202.16	11.95
202.541	-17.65
202.922	-51.07
203.302	-78.51
203.683	-57.35
204.063	-189.75
204.444	-471.43
204.824	-248.43
205.204	-402.56
205.585	-265.59
205.965	-182.83
206.345	-558.01
206.725	-919.35
207.106	-905.78
207.486	-738.43
207.866	-1701.98
208.246	13372.73
208.626	44766.67
209.006	-602.7
209.386	3388.89
209.766	1021.99
210.145	1265.05
210.525	-184.15
210.905	-135.7
211.285	-90.85
211.664	-79.4
212.044	-65.52
212.424	-54.38
212.803	-45.18
213.183	-18.93
213.562	-12.62
213.942	-11.95
214.321	-1.13
214.701	-0.98
215.08	7.87
215.459	-6.8
215.838	-12.28
216.218	-13.29
216.597	-7.16
216.976	-5.2
217.355	4.46
217.734	11.2
218.113	20.56
218.492	20.29
218.871	-0.06
219.25	11.25
219.629	17.6
220.008	24.43
220.387	34.87
220.766	16.61
221.144	-9.19
221.523	-8.54
221.902	-6.8
222.28	-21.54
222.659	-13.43
223.037	-9.44
223.416	-16.71
223.794	-22.42
224.173	-30.76
224.551	-27.11
224.929	-28.11
225.308	-19.24
225.686	-29.98
226.064	-27.84
226.442	-27.59
226.821	-12.28
227.199	-14.8
227.577	-14.23
227.955	-14.65
228.333	-16.63
228.711	-14.6
229.089	-6.85
229.467	-11.29
229.845	-9.8
230.222	-8.86
230.6	-11.35
230.978	-9.9
231.356	-6.36
231.733	-4.33
232.111	-1.71
232.488	-4.14
232.866	-4.77
233.243	-5.78
233.621	-3.94
233.998	-4.89
234.376	-4.84
234.753	-8.45
235.13	-8.31
235.508	-7.54
235.885	-5.89
236.262	-5.15
236.639	-4.3
237.016	-5.3
237.393	-2.71
237.77	-1.23
238.147	-0.18
238.524	0.43
238.901	0.18
239.278	0.95
239.655	1.87
240.032	1.42
240.409	2.2
240.785	2.56
241.162	3.24
241.539	3.65
241.915	3.75
242.292	3.3
242.668	3.8
243.045	4.08
243.421	3.97
243.798	3.79
244.174	3.78
244.551	3.98
244.927	4.16
245.303	4.25
245.679	4.36
246.056	4.3
246.432	4.32
246.808	4.3
247.184	4.16
247.56	4.07
247.936	4.08
248.312	3.95
248.688	3.81
249.064	3.63
249.44	3.57
249.815	3.46
250.191	3.77
250.567	3.64
250.943	3.49
251.318	3.52
251.694	3.65
252.069	3.66
252.445	3.35
252.82	2.79
253.196	2.52
253.571	2.18
253.947	2.2
254.322	2.18
254.697	2.34
255.073	2.36
255.448	2.1
255.823	2.46
256.198	2.64
256.573	2.83
256.948	3.13
257.323	3.16
257.698	3.42
258.073	3.4
258.448	3.49
258.823	3.66
259.198	3.43
259.573	3.3
259.948	3.11
260.322	3.32
260.697	3.57
261.072	3.51
261.446	3.46
261.821	3.3
262.195	3.32
262.57	3.05
262.944	2.94
263.319	2.97
263.693	2.71
264.067	2.93
264.442	2.91
264.816	2.63
265.19	2.53
265.564	2.52
265.938	2.48
266.313	2.34
266.687	2.33
267.061	2.72
267.435	2.77
267.809	2.94
268.183	2.82
268.556	2.7
268.93	2.8
269.304	3.02
269.678	3.27
270.051	3.31
270.425	3.47
270.799	3.6
271.172	3.61
271.546	3.66
271.919	3.34
272.293	3.31
272.666	3.37
273.04	3.5
273.413	3.24
273.787	3.15
274.16	3.22
274.533	2.98
274.906	2.83
275.279	2.92
275.653	2.93
276.026	2.88
276.399	2.92
276.772	3.03
277.145	2.92
277.518	2.88
277.891	2.89
278.263	2.9
278.636	2.67
279.009	2.66
279.382	2.75
279.755	2.79
280.127	2.98
280.5	3.05
280.872	3.06
281.245	3.05
281.617	3.08
281.99	3.16
282.362	3.28
282.735	3.21
283.107	3.14
283.479	3.12
283.852	3.11
284.224	3.07
284.596	3.09
284.968	3.09
285.34	3.2
285.713	3.11
286.085	3.12
286.457	3.28
286.829	3.33
287.201	3.32
287.572	3.24
287.944	3.14
288.316	3.11
288.688	3.09
289.06	3.17
289.431	3.12
289.803	3.06
290.175	3.05
290.546	3.25
290.918	3.18
291.289	3.14
291.661	3.26
292.032	3.38
292.403	3.37
292.775	3.41
293.146	3.27
293.517	3.33
293.889	3.29
294.26	3.15
294.631	3.22
295.002	3.24
295.373	3.39
295.744	3.4
296.115	3.43
296.486	3.3
296.857	3.37
297.228	3.48
297.599	3.58
297.97	3.52
298.34	3.44
298.711	3.45
299.082	3.57
299.452	3.58
299.823	3.64
300.194	3.76
300.564	3.7
300.935	3.78
301.305	3.72
301.676	3.79
302.046	3.9
302.416	3.96
302.787	3.87
303.157	3.83
303.527	3.8
303.897	3.79
304.267	4.03
304.637	4.03
305.008	4.08
305.378	4.07
305.748	4.16
306.117	4.03
306.487	4.06
306.857	4.04
307.227	3.94
307.597	3.91
307.967	3.73
308.336	3.77
308.706	3.75
309.076	3.73
309.445	3.7
309.815	3.76
310.184	3.73
310.554	3.71
310.923	3.72
311.293	3.78
311.662	3.73
312.031	3.77
312.401	3.73
312.77	3.79
313.139	3.73
313.508	3.73
313.877	3.76
314.246	3.84
314.616	3.87
314.985	3.77
315.353	3.63
315.722	3.74
316.091	3.75
316.46	3.74
316.829	3.9
317.198	3.91
317.567	3.85
317.935	3.78
318.304	3.89
318.672	3.87
319.041	3.84
319.41	3.81
319.778	3.85
320.147	3.82
320.515	3.65
320.883	3.6
321.252	3.57
321.62	3.58
321.988	3.54
322.357	3.37
322.725	3.43
323.093	3.51
323.461	3.42
323.829	3.48
324.197	3.45
324.565	3.38
324.933	3.53
325.301	3.69
325.669	3.68
326.037	3.58
326.405	3.67
326.772	3.72
327.14	3.75
327.508	3.59
327.875	3.59
328.243	3.73
328.61	3.78
328.978	3.87
329.346	3.94
329.713	3.86
330.08	4
330.448	3.99
330.815	3.92
331.182	3.8
331.55	3.66
331.917	3.65
332.284	3.8
332.651	3.68
333.018	3.56
333.385	3.57
333.752	3.69
334.119	3.65
334.486	3.64
334.853	3.68
335.22	3.61
335.587	3.8
335.954	3.65
336.32	3.61
336.687	3.64
337.054	3.6
337.42	3.63
337.787	3.64
338.153	3.67
338.52	3.72
338.886	3.75
339.253	3.76
339.619	3.76
339.986	3.7
340.352	3.71
340.718	3.74
341.084	3.68
341.451	3.73
341.817	3.7
342.183	3.61
342.549	3.62
342.915	3.6
343.281	3.47
343.647	3.47
344.013	3.48
344.379	3.39
344.745	3.43
345.11	3.44
345.476	3.44
345.842	3.47
346.208	3.52
346.573	3.59
346.939	3.74
347.304	3.77
347.67	3.76
348.035	3.77
348.401	3.73
348.766	3.82
349.132	3.86
349.497	3.87
349.862	3.97
350.228	4.01
350.593	4.02
350.958	4
351.323	4.17
351.688	4.19
352.053	4.24
352.418	4.24
352.783	4.2
353.148	4.18
353.513	4.15
353.878	4.1
354.243	4.13
354.608	4.05
354.972	4.07
355.337	3.97
355.702	3.98
356.066	3.99
356.431	3.97
356.795	3.97
357.16	3.92
357.524	3.85
357.889	3.8
358.253	3.92
358.618	3.94
358.982	3.84
359.346	3.81
359.71	3.76
360.075	3.74
360.439	3.8
360.803	3.75
361.167	3.73
361.531	3.73
361.895	3.69
362.259	3.66
362.623	3.61
362.987	3.67
363.351	3.7
363.714	3.7
364.078	3.69
364.442	3.61
364.806	3.64
365.169	3.62
365.533	3.59
365.896	3.49
366.26	3.44
366.623	3.43
366.987	3.43
367.35	3.39
367.714	3.4
368.077	3.38
368.44	3.41
368.803	3.4
369.167	3.41
369.53	3.42
369.893	3.42
370.256	3.46
370.619	3.49
370.982	3.41
371.345	3.37
371.708	3.4
372.071	3.44
372.434	3.43
372.797	3.44
373.159	3.41
373.522	3.48
373.885	3.49
374.247	3.48
374.61	3.46
374.973	3.54
375.335	3.5
375.698	3.48
376.06	3.51
376.423	3.53
376.785	3.51
377.147	3.49
377.51	3.49
377.872	3.5
378.234	3.49
378.596	3.45
378.958	3.48
379.321	3.43
379.683	3.43
380.045	3.43
380.407	3.46
380.769	3.46
381.13	3.44
381.492	3.44
381.854	3.43
382.216	3.5
382.578	3.48
382.939	3.52
383.301	3.53
383.663	3.52
384.024	3.46
384.386	3.52
384.747	3.53
385.109	3.59
385.47	3.53
385.832	3.5
386.193	3.57
386.554	3.55
386.916	3.52
387.277	3.47
387.638	3.5
387.999	3.5
388.36	3.54
388.721	3.56
389.082	3.61
389.443	3.6
389.804	3.55
390.165	3.56
390.526	3.56
390.887	3.53
391.248	3.54
391.609	3.58
391.969	3.55
392.33	3.51
392.691	3.52
393.051	3.54
393.412	3.55
393.772	3.57
394.133	3.57
394.493	3.62
394.854	3.66
395.214	3.65
395.574	3.64
395.935	3.65
396.295	3.58
396.655	3.55
397.015	3.58
397.376	3.57
397.736	3.55
398.096	3.55
398.456	3.56
398.816	3.56
399.176	3.55
399.535	3.55
399.895	3.58
400.255	3.53
400.615	3.53
400.975	3.51
401.334	3.44
401.694	3.43
402.054	3.38
402.413	3.36
402.773	3.32
403.132	3.29
403.492	3.29
403.851	3.33
404.211	3.33
404.57	3.3
404.929	3.32
405.288	3.34
405.648	3.31
406.007	3.38
406.366	3.38
406.725	3.38
407.084	3.38
407.443	3.38
407.802	3.4
408.161	3.39
408.52	3.4
408.879	3.45
409.238	3.47
409.596	3.52
409.955	3.51
410.314	3.54
410.673	3.56
411.031	3.57
411.39	3.55
411.748	3.53
412.107	3.53
412.465	3.53
412.824	3.51
413.182	3.51
413.54	3.46
413.899	3.44
414.257	3.42
414.615	3.43
414.974	3.42
415.332	3.4
415.69	3.4
416.048	3.39
416.406	3.36
416.764	3.34
417.122	3.31
417.48	3.3
417.838	3.28
418.195	3.29
418.553	3.28
418.911	3.29
419.269	3.29
419.626	3.29
419.984	3.29
420.342	3.3
420.699	3.28
421.057	3.28
421.414	3.28
421.772	3.28
422.129	3.27
422.486	3.26
422.844	3.26
423.201	3.23
423.558	3.24
423.915	3.24
424.273	3.25
424.63	3.25
424.987	3.27
425.344	3.27
425.701	3.25
426.058	3.25
426.415	3.24
426.772	3.23
427.128	3.21
427.485	3.22
427.842	3.2
428.199	3.22
428.555	3.21
428.912	3.21
429.269	3.22
429.625	3.21
429.982	3.21
430.338	3.22
430.695	3.25
431.051	3.22
431.407	3.22
431.764	3.2
432.12	3.2
432.476	3.18
432.832	3.19
433.189	3.19
433.545	3.18
433.901	3.18
434.257	3.17
434.613	3.17
434.969	3.16
435.325	3.17
435.681	3.16
436.036	3.16
436.392	3.15
436.748	3.15
437.104	3.16
437.459	3.16
437.815	3.15
438.171	3.14
438.526	3.16
438.882	3.16
439.237	3.17
439.593	3.2
439.948	3.2
440.304	3.2
440.659	3.19
441.014	3.2
441.369	3.2
441.725	3.2
442.08	3.22
442.435	3.23
442.79	3.24
443.145	3.24
443.5	3.23
443.855	3.24
444.21	3.23
444.565	3.21
444.92	3.23
445.275	3.22
445.629	3.23
445.984	3.23
446.339	3.21
446.693	3.21
447.048	3.18
447.403	3.16
447.757	3.17
448.112	3.17
448.466	3.15
448.82	3.14
449.175	3.16
449.529	3.14
449.883	3.12
450.238	3.11
450.592	3.1
450.946	3.09
451.3	3.08
451.654	3.08
452.008	3.1
452.362	3.06
452.716	3.06
453.07	3.07
453.424	3.06
453.778	3.06
454.132	3.05
454.486	3.07
454.839	3.08
455.193	3.08
455.547	3.08
455.9	3.09
456.254	3.1
456.607	3.09
456.961	3.1
457.314	3.12
457.668	3.12
458.021	3.11
458.375	3.12
458.728	3.12
459.081	3.12
459.434	3.11
459.787	3.13
460.141	3.14
460.494	3.14
460.847	3.14
461.2	3.13
461.553	3.15
461.906	3.14
462.259	3.14
462.611	3.15
462.964	3.18
463.317	3.17
463.67	3.19
464.022	3.19
464.375	3.18
464.728	3.17
465.08	3.19
465.433	3.2
465.785	3.22
466.138	3.23
466.49	3.25
466.843	3.26
467.195	3.28
467.547	3.29
467.899	3.27
468.252	3.27
468.604	3.31
468.956	3.28
469.308	3.29
469.66	3.29
470.012	3.28
470.364	3.27
470.716	3.3
471.068	3.28
471.42	3.29
471.772	3.32
472.123	3.33
472.475	3.32
472.827	3.33
473.178	3.32
473.53	3.29
473.882	3.28
474.233	3.28
474.585	3.24
474.936	3.22
475.288	3.23
475.639	3.24
475.99	3.24
476.342	3.24
476.693	3.26
477.044	3.28
477.395	3.29
477.746	3.28
478.097	3.27
478.448	3.28
478.8	3.28
479.15	3.25
479.501	3.25
479.852	3.25
480.203	3.26
480.554	3.27
480.905	3.28
481.255	3.29
481.606	3.31
481.957	3.32
482.307	3.34
482.658	3.34
483.009	3.34
483.359	3.33
483.709	3.34
484.06	3.33
484.41	3.34
484.761	3.33
485.111	3.34
485.461	3.33
485.811	3.34
486.162	3.33
486.512	3.36
486.862	3.35
487.212	3.34
487.562	3.34
487.912	3.34
488.262	3.34
488.612	3.35
488.961	3.33
489.311	3.33
489.661	3.33
490.011	3.33
490.36	3.33
490.71	3.34
491.06	3.34
491.409	3.33
491.759	3.32
492.108	3.32
492.458	3.32
492.807	3.32
493.157	3.31
493.506	3.32
493.855	3.29
494.204	3.31
494.554	3.33
494.903	3.34
495.252	3.34
495.601	3.33
495.95	3.32
496.299	3.32
496.648	3.32
496.997	3.31
497.346	3.31
497.695	3.32
498.043	3.32
498.392	3.32
498.741	3.34
499.09	3.36
499.438	3.36
499.787	3.38
500.135	3.41
500.484	3.43
500.832	3.43
501.181	3.45
501.529	3.44
501.878	3.45
502.226	3.46
502.574	3.45
502.923	3.46
503.271	3.47
503.619	3.51
503.967	3.52
504.315	3.52
504.663	3.52
505.011	3.52
505.359	3.52
505.707	3.53
506.055	3.52
506.403	3.54
506.751	3.55
507.098	3.55
507.446	3.55
507.794	3.54
508.141	3.55
508.489	3.55
508.837	3.57
509.184	3.58
509.531	3.57
509.879	3.57
510.226	3.61
510.574	3.63
510.921	3.6
511.268	3.6
511.616	3.62
511.963	3.64
512.31	3.67
512.657	3.67
513.004	3.67
513.351	3.69
513.698	3.68
514.045	3.68
514.392	3.69
514.739	3.69
515.086	3.72
515.432	3.73
515.779	3.73
516.126	3.75
516.473	3.76
516.819	3.78
517.166	3.79
517.512	3.78
517.859	3.78
518.205	3.81
518.552	3.81
518.898	3.79
519.245	3.8
519.591	3.79
519.937	3.79
520.283	3.81
520.629	3.8
520.976	3.79
521.322	3.8
521.668	3.8
522.014	3.82
522.36	3.81
522.706	3.81
523.052	3.82
523.398	3.83
523.743	3.83
524.089	3.83
524.435	3.83
524.781	3.85
525.126	3.87
525.472	3.87
525.817	3.88
526.163	3.9
526.509	3.89
526.854	3.9
527.199	3.91
527.545	3.91
527.89	3.92
528.235	3.94
528.581	3.94
528.926	3.95
529.271	3.95
529.616	3.94
529.961	3.94
530.306	3.95
530.651	3.95
530.996	3.97
531.341	3.96
531.686	3.96
532.031	3.96
532.376	3.97
532.721	3.97
533.065	3.97
533.41	3.97
533.755	3.98
534.099	3.99
534.444	3.99
534.788	3.98
535.133	3.98
535.477	3.99
535.822	3.99
536.166	3.99
536.51	4
536.855	4.02
537.199	4.04
537.543	4.03
537.887	4.02
538.231	4.01
538.576	4.03
538.92	4.05
539.264	4.03
539.608	4.03
539.951	4.04
540.295	4.04
540.639	4.04
540.983	4.05
541.327	4.04
541.671	4.04
542.014	4.05
542.358	4.05
542.701	4.06
543.045	4.07
543.389	4.06
543.732	4.06
544.075	4.06
544.419	4.06
544.762	4.05
545.105	4.07
545.449	4.08
545.792	4.07
546.135	4.05
546.478	4.08
546.821	4.06
547.165	4.05
547.508	4.05
547.851	4.08
548.194	4.09
548.536	4.09
548.879	4.12
549.222	4.11
549.565	4.13
549.908	4.12
550.25	4.12
550.593	4.13
550.936	4.13
551.278	4.12
551.621	4.15
551.963	4.15
552.306	4.11
552.648	4.12
552.991	4.15
553.333	4.18
553.675	4.18
554.017	4.21
554.36	4.22
554.702	4.22
555.044	4.2
555.386	4.19
555.728	4.2
556.07	4.19
556.412	4.19
556.754	4.17
557.096	4.17
557.438	4.16
557.78	4.16
558.121	4.19
558.463	4.21
558.805	4.17
559.147	4.2
559.488	4.21
559.83	4.19
560.171	4.17
560.513	4.15
560.854	4.16
561.196	4.16
561.537	4.15
561.878	4.15
562.22	4.13
562.561	4.14
562.902	4.12
563.243	4.1
563.584	4.11
563.925	4.12
564.266	4.12
564.607	4.12
564.948	4.12
565.289	4.09
565.63	4.1
565.971	4.09
566.312	4.09
566.653	4.11
566.993	4.1
567.334	4.12
567.675	4.14
568.015	4.13
568.356	4.11
568.696	4.14
569.037	4.15
569.377	4.18
569.718	4.17
570.058	4.19
570.398	4.22
570.739	4.21
571.079	4.21
571.419	4.18
571.759	4.2
572.099	4.21
572.439	4.24
572.779	4.23
573.119	4.28
573.459	4.27
573.799	4.3
574.139	4.3
574.479	4.26
574.819	4.26
575.158	4.26
575.498	4.25
575.838	4.24
576.177	4.2
576.517	4.18
576.856	4.19
577.196	4.18
577.535	4.14
577.875	4.14
578.214	4.12
578.553	4.21
578.893	4.18
579.232	4.16
579.571	4.15
579.91	4.14
580.25	4.15
580.589	4.17
580.928	4.14
581.267	4.17
581.606	4.2
581.945	4.19
582.283	4.17
582.622	4.18
582.961	4.18
583.3	4.25
583.639	4.27
583.977	4.3
584.316	4.31
584.654	4.35
584.993	4.37
585.332	4.38
585.67	4.33
586.008	4.35
586.347	4.34
586.685	4.34
587.024	4.31
587.362	4.28
587.7	4.26
588.038	4.3
588.376	4.3
588.715	4.29
589.053	4.33
589.391	4.36
589.729	4.37
590.067	4.39
590.404	4.39
590.742	4.43
591.08	4.41
591.418	4.45
591.756	4.45
592.093	4.45
592.431	4.47
592.769	4.49
593.106	4.48
593.444	4.51
593.781	4.53
594.119	4.58
594.456	4.58
594.793	4.59
595.131	4.56
595.468	4.57
595.805	4.59
596.143	4.56
596.48	4.55
596.817	4.55
597.154	4.55
597.491	4.52
597.828	4.49
598.165	4.5
598.502	4.49
598.839	4.5
599.176	4.46
599.512	4.44
599.849	4.43
600.186	4.44
600.523	4.46
600.859	4.45
601.196	4.46
601.532	4.44
601.869	4.41
602.205	4.41
602.542	4.43
602.878	4.42
603.215	4.44
603.551	4.46
603.887	4.47
604.223	4.46
604.56	4.48
604.896	4.49
605.232	4.51
605.568	4.48
605.904	4.47
606.24	4.52
606.576	4.5
606.912	4.52
607.248	4.48
607.583	4.5
607.919	4.5
608.255	4.47
608.591	4.55
608.926	4.56
609.262	4.6
609.597	4.58
609.933	4.57
610.268	4.59
610.604	4.59
610.939	4.59
611.275	4.61
611.61	4.61
611.945	4.63
612.281	4.58
612.616	4.6
612.951	4.61
613.286	4.66
613.621	4.68
613.956	4.65
614.291	4.68
614.626	4.66
614.961	4.67
615.296	4.63
615.631	4.58
615.966	4.63
616.3	4.59
616.635	4.59
616.97	4.67
617.304	4.67
617.639	4.67
617.973	4.71
618.308	4.68
618.642	4.72
618.977	4.65
619.311	4.66
619.646	4.69
619.98	4.67
620.314	4.64
620.648	4.67
620.983	4.7
621.317	4.72
621.651	4.72
621.985	4.76
622.319	4.79
622.653	4.76
622.987	4.76
623.321	4.73
623.655	4.79
623.988	4.73
624.322	4.71
624.656	4.66
624.99	4.62
625.323	4.59
625.657	4.55
625.99	4.58
626.324	4.6
626.657	4.6
626.991	4.61
627.324	4.59
627.658	4.59
627.991	4.6
628.324	4.59
628.657	4.57
628.991	4.56
629.324	4.59
629.657	4.63
629.99	4.65
630.323	4.69
630.656	4.67
630.989	4.7
631.322	4.7
631.655	4.73
631.987	4.8
632.32	4.82
632.653	4.81
632.986	4.83
633.318	4.77
633.651	4.76
633.984	4.75
634.316	4.76
634.649	4.74
634.981	4.71
635.313	4.7
635.646	4.71
635.978	4.66
636.31	4.64
636.643	4.66
636.975	4.69
637.307	4.63
637.639	4.56
637.971	4.58
638.303	4.59
638.635	4.59
638.967	4.49
639.299	4.57
639.631	4.59
639.963	4.53
640.295	4.61
640.626	4.6
640.958	4.65
641.29	4.69
641.621	4.69
641.953	4.68
642.285	4.72
642.616	4.75
642.948	4.82
643.279	4.86
643.61	4.84
643.942	4.79
644.273	4.87
644.604	4.83
644.936	4.79
645.267	4.77
645.598	4.82
645.929	4.86
646.26	4.86
646.591	4.88
646.922	4.87
647.253	4.84
647.584	4.82
647.915	4.78
648.245	4.72
648.576	4.78
648.907	4.81
649.238	4.78
649.568	4.81
649.899	4.76
650.229	4.72
650.56	4.7
650.89	4.72
651.221	4.72
651.551	4.82
651.882	4.81
652.212	4.87
652.542	4.83
652.872	4.81
653.203	4.74
653.533	4.81
653.863	4.89
654.193	4.88
654.523	4.94
654.853	4.93
655.183	4.93
655.513	4.89
655.843	4.89
656.172	4.91
656.502	4.92
656.832	4.94
657.162	4.95
657.491	4.97
657.821	4.89
658.15	4.89
658.48	4.89
658.809	4.96
659.139	4.94
659.468	4.93
659.798	4.94
660.127	5.02
660.456	4.99
660.785	5
661.115	4.99
661.444	5.03
661.773	5.08
662.102	5.05
662.431	5.06
662.76	5.04
663.089	5.09
663.418	5.02
663.747	5.02
664.076	5.06
664.404	5.02
664.733	5.14
665.062	5.11
665.39	5.07
665.719	5
666.048	5
666.376	5.06
666.705	5.03
667.033	4.93
667.362	5.02
667.69	4.98
668.018	5.04
668.347	5
668.675	4.93
669.003	4.98
669.331	5.02
669.659	5.08
669.987	4.99
670.315	5.02
670.643	4.98
670.971	4.98
671.299	5.05
671.627	4.99
671.955	4.98
672.283	5.02
672.61	5.01
672.938	5
673.266	4.99
673.593	5.15
673.921	5.21
674.249	5.05
674.576	5.03
674.904	4.92
675.231	4.89
675.558	4.92
675.886	4.9
676.213	4.87
676.54	4.9
676.867	5.01
