Data from BU57614_Reflection_00006.txt Node
Date: Mon Nov 18 16:24:23 EST 2019
User: vgr7
Spectrometer: USB2G7710
Scans to average: 3
Trigger mode: 4
Integration Time (sec): 2.000000E-2
Electric dark correction enabled: true
Boxcar width: 10
XAxis mode: Wavelengths
Number of Pixels in Spectrum: 2048
>>>>>Begin Spectral Data<<<<<
177.721	-586.23
178.105	160.7
178.488	165.76
178.871	263.32
179.254	176.12
179.636	-123.3
180.019	127.75
180.402	26.42
180.785	-87.38
181.168	1100
181.55	-167.9
181.933	49.56
182.316	35.28
182.698	42.38
183.081	38.46
183.463	57.33
183.846	78.98
184.228	146.57
184.611	65.61
184.993	41.45
185.376	-4723.53
185.758	-6244.83
186.14	2008.26
186.522	-4238.98
186.904	-766.95
187.287	-618.86
187.669	-244.03
188.051	-332.77
188.433	-102.87
188.815	-92.84
189.197	-127.34
189.579	-115.26
189.961	-84.34
190.342	-111.39
190.724	-83.39
191.106	-114.08
191.488	-126.54
191.869	-88.13
192.251	-69.39
192.633	-88.47
193.014	-93.87
193.396	-82.25
193.777	-67.13
194.159	-77.43
194.54	-55.8
194.922	-35.78
195.303	-40.25
195.684	-22.36
196.065	-16.26
196.447	-9.79
196.828	-19.52
197.209	-1.95
197.59	3.99
197.971	-1.56
198.352	8.73
198.733	-2.13
199.114	1.92
199.495	14.71
199.876	-0.71
200.257	-7.45
200.638	-4.48
201.018	-14.86
201.399	-21.72
201.78	-14.16
202.16	-14.99
202.541	-20.61
202.922	-32.79
203.302	-46.27
203.683	-65.73
204.063	-66.34
204.444	-73.28
204.824	-59.23
205.204	-73.42
205.585	-78.8
205.965	-80.74
206.345	-118.04
206.725	-107.37
207.106	-105.78
207.486	-126.49
207.866	-81.12
208.246	-75.43
208.626	-79.61
209.006	-49.72
209.386	-58.39
209.766	-69.16
210.145	-45
210.525	-34.52
210.905	-41.02
211.285	-25.97
211.664	-27.23
212.044	-33.56
212.424	-24.94
212.803	-32.32
213.183	-18.68
213.562	-9.95
213.942	-6.22
214.321	-6.9
214.701	-5.51
215.08	-10.64
215.459	-18.49
215.838	-31.19
216.218	-25.97
216.597	-21.53
216.976	-28.75
217.355	-32.34
217.734	-31
218.113	-32.88
218.492	-38.06
218.871	-40.79
219.25	-41.25
219.629	-39.12
220.008	-36.86
220.387	-37.74
220.766	-34.38
221.144	-50.49
221.523	-63.3
221.902	-75.2
222.28	-75.37
222.659	-78.4
223.037	-86.2
223.416	-82.19
223.794	-68.26
224.173	-75.91
224.551	-67.05
224.929	-64.98
225.308	-46.91
225.686	-43.33
226.064	-39.03
226.442	-30.13
226.821	-19.25
227.199	-19.49
227.577	-20.27
227.955	-19.55
228.333	-18.46
228.711	-16.61
229.089	-11.21
229.467	-9.36
229.845	-7.47
230.222	-4.88
230.6	-2.11
230.978	0.53
231.356	1.3
231.733	2.64
232.111	6.07
232.488	6.07
232.866	6.83
233.243	4.04
233.621	3.24
233.998	3.98
234.376	2.06
234.753	1.19
235.13	2.44
235.508	4.03
235.885	2.4
236.262	1.57
236.639	2.46
237.016	0.73
237.393	0.89
237.77	0.91
238.147	1.75
238.524	0.86
238.901	1.69
239.278	2.39
239.655	2.17
240.032	1.38
240.409	1.01
240.785	1.29
241.162	1.5
241.539	1.97
241.915	2.05
242.292	1.84
242.668	1.92
243.045	2.17
243.421	2.06
243.798	2.57
244.174	2.73
244.551	2.51
244.927	2.45
245.303	2.65
245.679	2.89
246.056	2.7
246.432	2.87
246.808	2.57
247.184	2.29
247.56	2.28
247.936	2.33
248.312	2.22
248.688	2.23
249.064	2.28
249.44	2.06
249.815	2.12
250.191	2.61
250.567	2.61
250.943	2.53
251.318	2.65
251.694	2.42
252.069	2.28
252.445	2.31
252.82	2.39
253.196	2.1
253.571	2.01
253.947	2.14
254.322	2.47
254.697	2.43
255.073	2.39
255.448	2.34
255.823	2.41
256.198	2.81
256.573	2.92
256.948	3.12
257.323	3.5
257.698	3.33
258.073	2.94
258.448	2.78
258.823	2.82
259.198	2.73
259.573	2.86
259.948	2.84
260.322	2.91
260.697	2.97
261.072	3.02
261.446	2.98
261.821	2.83
262.195	2.66
262.57	2.63
262.944	2.6
263.319	2.6
263.693	2.47
264.067	2.49
264.442	2.56
264.816	2.39
265.19	2.26
265.564	2.2
265.938	2.32
266.313	2.35
266.687	2.33
267.061	2.35
267.435	2.38
267.809	2.43
268.183	2.35
268.556	2.32
268.93	2.33
269.304	2.57
269.678	2.79
270.051	2.76
270.425	3.02
270.799	3.21
271.172	3.13
271.546	3.2
271.919	3.06
272.293	2.93
272.666	2.98
273.04	2.96
273.413	3.19
273.787	3.16
274.16	3.16
274.533	3.1
274.906	3.06
275.279	3.04
275.653	3.1
276.026	3.06
276.399	3.07
276.772	3.09
277.145	2.85
277.518	2.67
277.891	2.74
278.263	2.48
278.636	2.44
279.009	2.47
279.382	2.59
279.755	2.59
280.127	2.73
280.5	2.65
280.872	2.62
281.245	2.43
281.617	2.47
281.99	2.59
282.362	2.77
282.735	2.8
283.107	2.77
283.479	2.71
283.852	2.68
284.224	2.73
284.596	2.74
284.968	2.87
285.34	2.95
285.713	2.88
286.085	3.02
286.457	3.04
286.829	3.05
287.201	3.07
287.572	3.13
287.944	3.15
288.316	3.21
288.688	3.16
289.06	3.28
289.431	3.26
289.803	3.16
290.175	3.06
290.546	3.2
290.918	3.18
291.289	3.18
291.661	3.35
292.032	3.45
292.403	3.38
292.775	3.4
293.146	3.26
293.517	3.22
293.889	3.21
294.26	3.21
294.631	3.3
295.002	3.13
295.373	3.07
295.744	2.99
296.115	3.02
296.486	2.99
296.857	2.85
297.228	2.87
297.599	2.93
297.97	2.94
298.34	2.87
298.711	2.87
299.082	2.86
299.452	2.83
299.823	2.79
300.194	2.76
300.564	2.64
300.935	2.74
301.305	2.84
301.676	2.85
302.046	2.8
302.416	2.74
302.787	2.73
303.157	2.84
303.527	2.8
303.897	2.73
304.267	2.93
304.637	2.94
305.008	3
305.378	3.02
305.748	2.95
306.117	2.84
306.487	2.77
306.857	2.86
307.227	2.82
307.597	2.67
307.967	2.78
308.336	2.96
308.706	2.95
309.076	2.87
309.445	2.83
309.815	2.84
310.184	2.77
310.554	2.85
310.923	2.79
311.293	2.83
311.662	2.84
312.031	2.71
312.401	2.78
312.77	2.68
313.139	2.63
313.508	2.56
313.877	2.63
314.246	2.69
314.616	2.69
314.985	2.76
315.353	2.82
315.722	2.81
316.091	2.62
316.46	2.45
316.829	2.42
317.198	2.39
317.567	2.33
317.935	2.36
318.304	2.36
318.672	2.23
319.041	2.21
319.41	2.14
319.778	2.13
320.147	1.98
320.515	2.14
320.883	2.07
321.252	2.19
321.62	2.16
321.988	2.28
322.357	2.18
322.725	2.18
323.093	2.16
323.461	2.13
323.829	2.13
324.197	2.18
324.565	2.26
324.933	2.36
325.301	2.38
325.669	2.37
326.037	2.28
326.405	2.41
326.772	2.57
327.14	2.66
327.508	2.73
327.875	2.71
328.243	2.66
328.61	2.64
328.978	2.67
329.346	2.8
329.713	2.64
330.08	2.7
330.448	2.61
330.815	2.62
331.182	2.56
331.55	2.5
331.917	2.63
332.284	2.75
332.651	2.64
333.018	2.66
333.385	2.72
333.752	2.71
334.119	2.73
334.486	2.57
334.853	2.61
335.22	2.43
335.587	2.63
335.954	2.64
336.32	2.68
336.687	2.63
337.054	2.49
337.42	2.52
337.787	2.46
338.153	2.49
338.52	2.55
338.886	2.55
339.253	2.69
339.619	2.68
339.986	2.49
340.352	2.55
340.718	2.61
341.084	2.55
341.451	2.62
341.817	2.63
342.183	2.6
342.549	2.59
342.915	2.77
343.281	2.69
343.647	2.62
344.013	2.6
344.379	2.45
344.745	2.57
345.11	2.63
345.476	2.71
345.842	2.68
346.208	2.62
346.573	2.74
346.939	2.66
347.304	2.58
347.67	2.53
348.035	2.51
348.401	2.48
348.766	2.42
349.132	2.36
349.497	2.31
349.862	2.41
350.228	2.45
350.593	2.34
350.958	2.31
351.323	2.35
351.688	2.4
352.053	2.55
352.418	2.58
352.783	2.63
353.148	2.64
353.513	2.65
353.878	2.69
354.243	2.7
354.608	2.8
354.972	2.87
355.337	3.03
355.702	3.07
356.066	3.11
356.431	3.12
356.795	3.23
357.16	3.22
357.524	3.17
357.889	3.08
358.253	3.17
358.618	3.15
358.982	3.07
359.346	3
359.71	2.93
360.075	2.84
360.439	2.84
360.803	2.81
361.167	2.73
361.531	2.68
361.895	2.58
362.259	2.5
362.623	2.53
362.987	2.49
363.351	2.5
363.714	2.46
364.078	2.48
364.442	2.45
364.806	2.44
365.169	2.45
365.533	2.48
365.896	2.42
366.26	2.42
366.623	2.5
366.987	2.55
367.35	2.58
367.714	2.63
368.077	2.55
368.44	2.53
368.803	2.63
369.167	2.61
369.53	2.67
369.893	2.73
370.256	2.65
370.619	2.66
370.982	2.63
371.345	2.59
371.708	2.67
372.071	2.64
372.434	2.57
372.797	2.5
373.159	2.48
373.522	2.47
373.885	2.5
374.247	2.52
374.61	2.55
374.973	2.54
375.335	2.52
375.698	2.57
376.06	2.58
376.423	2.52
376.785	2.55
377.147	2.52
377.51	2.53
377.872	2.59
378.234	2.6
378.596	2.59
378.958	2.57
379.321	2.56
379.683	2.56
380.045	2.6
380.407	2.6
380.769	2.58
381.13	2.62
381.492	2.6
381.854	2.59
382.216	2.54
382.578	2.59
382.939	2.58
383.301	2.59
383.663	2.6
384.024	2.62
384.386	2.67
384.747	2.69
385.109	2.68
385.47	2.67
385.832	2.64
386.193	2.64
386.554	2.67
386.916	2.66
387.277	2.65
387.638	2.67
387.999	2.69
388.36	2.76
388.721	2.74
389.082	2.77
389.443	2.7
389.804	2.75
390.165	2.75
390.526	2.77
390.887	2.74
391.248	2.75
391.609	2.73
391.969	2.68
392.33	2.68
392.691	2.69
393.051	2.67
393.412	2.71
393.772	2.68
394.133	2.7
394.493	2.69
394.854	2.67
395.214	2.64
395.574	2.65
395.935	2.6
396.295	2.63
396.655	2.62
397.015	2.65
397.376	2.62
397.736	2.61
398.096	2.6
398.456	2.61
398.816	2.61
399.176	2.63
399.535	2.68
399.895	2.69
400.255	2.69
400.615	2.68
400.975	2.67
401.334	2.66
401.694	2.65
402.054	2.65
402.413	2.68
402.773	2.68
403.132	2.67
403.492	2.65
403.851	2.63
404.211	2.62
404.57	2.63
404.929	2.67
405.288	2.65
405.648	2.66
406.007	2.69
406.366	2.69
406.725	2.7
407.084	2.67
407.443	2.67
407.802	2.69
408.161	2.67
408.52	2.66
408.879	2.7
409.238	2.72
409.596	2.72
409.955	2.74
410.314	2.78
410.673	2.8
411.031	2.81
411.39	2.8
411.748	2.85
412.107	2.86
412.465	2.82
412.824	2.81
413.182	2.8
413.54	2.77
413.899	2.76
414.257	2.75
414.615	2.75
414.974	2.76
415.332	2.74
415.69	2.75
416.048	2.74
416.406	2.72
416.764	2.72
417.122	2.71
417.48	2.68
417.838	2.67
418.195	2.67
418.553	2.68
418.911	2.67
419.269	2.67
419.626	2.66
419.984	2.65
420.342	2.67
420.699	2.66
421.057	2.67
421.414	2.65
421.772	2.64
422.129	2.65
422.486	2.64
422.844	2.66
423.201	2.64
423.558	2.65
423.915	2.65
424.273	2.67
424.63	2.67
424.987	2.69
425.344	2.68
425.701	2.69
426.058	2.69
426.415	2.7
426.772	2.68
427.128	2.68
427.485	2.7
427.842	2.68
428.199	2.7
428.555	2.69
428.912	2.73
429.269	2.76
429.625	2.74
429.982	2.72
430.338	2.71
430.695	2.73
431.051	2.73
431.407	2.73
431.764	2.71
432.12	2.7
432.476	2.7
432.832	2.7
433.189	2.67
433.545	2.67
433.901	2.67
434.257	2.68
434.613	2.69
434.969	2.7
435.325	2.7
435.681	2.7
436.036	2.7
436.392	2.69
436.748	2.66
437.104	2.66
437.459	2.68
437.815	2.67
438.171	2.66
438.526	2.66
438.882	2.66
439.237	2.65
439.593	2.67
439.948	2.65
440.304	2.66
440.659	2.67
441.014	2.68
441.369	2.68
441.725	2.67
442.08	2.67
442.435	2.66
442.79	2.66
443.145	2.65
443.5	2.67
443.855	2.67
444.21	2.67
444.565	2.67
444.92	2.67
445.275	2.67
445.629	2.68
445.984	2.67
446.339	2.66
446.693	2.66
447.048	2.65
447.403	2.65
447.757	2.64
448.112	2.64
448.466	2.65
448.82	2.65
449.175	2.66
449.529	2.66
449.883	2.66
450.238	2.67
450.592	2.64
450.946	2.62
451.3	2.61
451.654	2.61
452.008	2.62
452.362	2.6
452.716	2.61
453.07	2.62
453.424	2.62
453.778	2.62
454.132	2.62
454.486	2.61
454.839	2.62
455.193	2.63
455.547	2.62
455.9	2.62
456.254	2.61
456.607	2.6
456.961	2.59
457.314	2.6
457.668	2.6
458.021	2.62
458.375	2.64
458.728	2.65
459.081	2.64
459.434	2.63
459.787	2.66
460.141	2.66
460.494	2.66
460.847	2.66
461.2	2.65
461.553	2.65
461.906	2.66
462.259	2.66
462.611	2.66
462.964	2.67
463.317	2.65
463.67	2.65
464.022	2.66
464.375	2.65
464.728	2.65
465.08	2.64
465.433	2.62
465.785	2.62
466.138	2.61
466.49	2.61
466.843	2.61
467.195	2.61
467.547	2.6
467.899	2.59
468.252	2.59
468.604	2.61
468.956	2.61
469.308	2.61
469.66	2.6
470.012	2.61
470.364	2.61
470.716	2.63
471.068	2.64
471.42	2.64
471.772	2.66
472.123	2.65
472.475	2.67
472.827	2.69
473.178	2.69
473.53	2.7
473.882	2.7
474.233	2.7
474.585	2.68
474.936	2.67
475.288	2.69
475.639	2.7
475.99	2.69
476.342	2.69
476.693	2.69
477.044	2.71
477.395	2.69
477.746	2.69
478.097	2.68
478.448	2.69
478.8	2.7
479.15	2.68
479.501	2.69
479.852	2.69
480.203	2.69
480.554	2.69
480.905	2.7
481.255	2.71
481.606	2.73
481.957	2.75
482.307	2.76
482.658	2.76
483.009	2.76
483.359	2.77
483.709	2.77
484.06	2.78
484.41	2.78
484.761	2.78
485.111	2.78
485.461	2.79
485.811	2.79
486.162	2.79
486.512	2.8
486.862	2.8
487.212	2.8
487.562	2.81
487.912	2.8
488.262	2.81
488.612	2.81
488.961	2.8
489.311	2.8
489.661	2.79
490.011	2.8
490.36	2.8
490.71	2.79
491.06	2.79
491.409	2.79
491.759	2.77
492.108	2.78
492.458	2.79
492.807	2.78
493.157	2.79
493.506	2.79
493.855	2.78
494.204	2.78
494.554	2.78
494.903	2.76
495.252	2.77
495.601	2.77
495.95	2.76
496.299	2.75
496.648	2.75
496.997	2.74
497.346	2.73
497.695	2.73
498.043	2.73
498.392	2.74
498.741	2.73
499.09	2.73
499.438	2.73
499.787	2.72
500.135	2.72
500.484	2.71
500.832	2.71
501.181	2.71
501.529	2.69
501.878	2.7
502.226	2.71
502.574	2.73
502.923	2.7
503.271	2.69
503.619	2.7
503.967	2.71
504.315	2.71
504.663	2.7
505.011	2.7
505.359	2.69
505.707	2.71
506.055	2.71
506.403	2.73
506.751	2.73
507.098	2.75
507.446	2.75
507.794	2.74
508.141	2.74
508.489	2.77
508.837	2.8
509.184	2.8
509.531	2.8
509.879	2.79
510.226	2.82
510.574	2.84
510.921	2.84
511.268	2.85
511.616	2.86
511.963	2.88
512.31	2.87
512.657	2.9
513.004	2.88
513.351	2.88
513.698	2.88
514.045	2.89
514.392	2.87
514.739	2.88
515.086	2.9
515.432	2.91
515.779	2.9
516.126	2.91
516.473	2.89
516.819	2.92
517.166	2.92
517.512	2.93
517.859	2.92
518.205	2.93
518.552	2.93
518.898	2.94
519.245	2.93
519.591	2.93
519.937	2.92
520.283	2.92
520.629	2.93
520.976	2.96
521.322	2.95
521.668	2.95
522.014	2.96
522.36	2.96
522.706	2.96
523.052	2.97
523.398	2.98
523.743	2.98
524.089	2.98
524.435	2.98
524.781	2.98
525.126	3
525.472	3
525.817	3.01
526.163	3.01
526.509	3.02
526.854	3.02
527.199	3.02
527.545	3.02
527.89	3.02
528.235	3.01
528.581	3.01
528.926	3.01
529.271	3.02
529.616	3.01
529.961	3.02
530.306	3.02
530.651	3
530.996	3
531.341	3
531.686	2.99
532.031	2.99
532.376	2.98
532.721	2.99
533.065	2.98
533.41	2.98
533.755	2.98
534.099	2.99
534.444	3
534.788	3
535.133	3
535.477	3
535.822	3.02
536.166	3.02
536.51	3.02
536.855	3.03
537.199	3.02
537.543	3.03
537.887	3.05
538.231	3.06
538.576	3.07
538.92	3.08
539.264	3.08
539.608	3.09
539.951	3.09
540.295	3.09
540.639	3.11
540.983	3.1
541.327	3.08
541.671	3.07
542.014	3.07
542.358	3.09
542.701	3.09
543.045	3.09
543.389	3.1
543.732	3.1
544.075	3.1
544.419	3.09
544.762	3.09
545.105	3.09
545.449	3.08
545.792	3.07
546.135	3.08
546.478	3.08
546.821	3.08
547.165	3.06
547.508	3.08
547.851	3.06
548.194	3.07
548.536	3.08
548.879	3.09
549.222	3.09
549.565	3.08
549.908	3.08
550.25	3.08
550.593	3.07
550.936	3.05
551.278	3.04
551.621	3.04
551.963	3.06
552.306	3.06
552.648	3.07
552.991	3.09
553.333	3.08
553.675	3.09
554.017	3.09
554.36	3.11
554.702	3.1
555.044	3.13
555.386	3.13
555.728	3.14
556.07	3.15
556.412	3.15
556.754	3.16
557.096	3.17
557.438	3.19
557.78	3.21
558.121	3.24
558.463	3.26
558.805	3.27
559.147	3.26
559.488	3.24
559.83	3.23
560.171	3.22
560.513	3.25
560.854	3.23
561.196	3.22
561.537	3.22
561.878	3.2
562.22	3.18
562.561	3.15
562.902	3.18
563.243	3.2
563.584	3.19
563.925	3.18
564.266	3.18
564.607	3.15
564.948	3.18
565.289	3.17
565.63	3.15
565.971	3.13
566.312	3.13
566.653	3.15
566.993	3.15
567.334	3.14
567.675	3.13
568.015	3.14
568.356	3.15
568.696	3.17
569.037	3.18
569.377	3.19
569.718	3.2
570.058	3.19
570.398	3.17
570.739	3.19
571.079	3.2
571.419	3.19
571.759	3.21
572.099	3.16
572.439	3.16
572.779	3.15
573.119	3.2
573.459	3.22
573.799	3.2
574.139	3.23
574.479	3.23
574.819	3.22
575.158	3.23
575.498	3.23
575.838	3.21
576.177	3.22
576.517	3.22
576.856	3.24
577.196	3.23
577.535	3.22
577.875	3.23
578.214	3.21
578.553	3.21
578.893	3.2
579.232	3.23
579.571	3.25
579.91	3.26
580.25	3.23
580.589	3.19
580.928	3.2
581.267	3.18
581.606	3.18
581.945	3.2
582.283	3.21
582.622	3.19
582.961	3.18
583.3	3.19
583.639	3.2
583.977	3.19
584.316	3.17
584.654	3.16
584.993	3.13
585.332	3.18
585.67	3.2
586.008	3.19
586.347	3.18
586.685	3.17
587.024	3.16
587.362	3.14
587.7	3.16
588.038	3.19
588.376	3.18
588.715	3.16
589.053	3.17
589.391	3.15
589.729	3.17
590.067	3.18
590.404	3.19
590.742	3.18
591.08	3.15
591.418	3.17
591.756	3.19
592.093	3.2
592.431	3.2
592.769	3.19
593.106	3.17
593.444	3.15
593.781	3.15
594.119	3.19
594.456	3.2
594.793	3.2
595.131	3.17
595.468	3.19
595.805	3.21
596.143	3.18
596.48	3.22
596.817	3.21
597.154	3.17
597.491	3.15
597.828	3.13
598.165	3.17
598.502	3.17
598.839	3.17
599.176	3.14
599.512	3.12
599.849	3.16
600.186	3.16
600.523	3.16
600.859	3.16
601.196	3.17
601.532	3.17
601.869	3.18
602.205	3.19
602.542	3.18
602.878	3.18
603.215	3.19
603.551	3.19
603.887	3.21
604.223	3.26
604.56	3.26
604.896	3.28
605.232	3.25
605.568	3.23
605.904	3.24
606.24	3.29
606.576	3.3
606.912	3.25
607.248	3.23
607.583	3.25
607.919	3.23
608.255	3.2
608.591	3.23
608.926	3.22
609.262	3.24
609.597	3.23
609.933	3.2
610.268	3.2
610.604	3.2
610.939	3.16
611.275	3.16
611.61	3.15
611.945	3.17
612.281	3.2
612.616	3.22
612.951	3.23
613.286	3.18
613.621	3.17
613.956	3.18
614.291	3.23
614.626	3.22
614.961	3.26
615.296	3.26
615.631	3.2
615.966	3.2
616.3	3.19
616.635	3.15
616.97	3.19
617.304	3.14
617.639	3.15
617.973	3.15
618.308	3.08
618.642	3.1
618.977	3.01
619.311	2.99
619.646	3
619.98	2.98
620.314	2.97
620.648	2.99
620.983	3.02
621.317	3.02
621.651	3.04
621.985	3.06
622.319	3.08
622.653	3.1
622.987	3.09
623.321	3.07
623.655	3.11
623.988	3.08
624.322	3.08
624.656	3.14
624.99	3.14
625.323	3.15
625.657	3.16
625.99	3.22
626.324	3.24
626.657	3.25
626.991	3.25
627.324	3.25
627.658	3.22
627.991	3.23
628.324	3.22
628.657	3.18
628.991	3.13
629.324	3.15
629.657	3.14
629.99	3.18
630.323	3.17
630.656	3.19
630.989	3.2
631.322	3.24
631.655	3.18
631.987	3.23
632.32	3.28
632.653	3.23
632.986	3.25
633.318	3.2
633.651	3.22
633.984	3.2
634.316	3.21
634.649	3.29
634.981	3.22
635.313	3.24
635.646	3.24
635.978	3.27
636.31	3.2
636.643	3.2
636.975	3.15
637.307	3.17
637.639	3.16
637.971	3.13
638.303	3.11
638.635	3.09
638.967	3.05
639.299	3.05
639.631	3.04
639.963	2.96
640.295	3.04
640.626	3.01
640.958	3.07
641.29	3.08
641.621	3.05
641.953	3.07
642.285	3.08
642.616	3.14
642.948	3.13
643.279	3.15
643.61	3.19
643.942	3.22
644.273	3.24
644.604	3.24
644.936	3.27
645.267	3.3
645.598	3.25
645.929	3.27
646.26	3.31
646.591	3.39
646.922	3.45
647.253	3.39
647.584	3.38
647.915	3.34
648.245	3.34
648.576	3.34
648.907	3.38
649.238	3.37
649.568	3.29
649.899	3.27
650.229	3.3
650.56	3.28
650.89	3.25
651.221	3.26
651.551	3.24
651.882	3.23
652.212	3.21
652.542	3.27
652.872	3.21
653.203	3.19
653.533	3.16
653.863	3.13
654.193	3.12
654.523	3.13
654.853	3.13
655.183	3.15
655.513	3.07
655.843	3.03
656.172	3.01
656.502	3.12
656.832	3.1
657.162	3.12
657.491	3.07
657.821	3.1
658.15	3.13
658.48	3.21
658.809	3.24
659.139	3.22
659.468	3.25
659.798	3.27
660.127	3.24
660.456	3.21
660.785	3.24
661.115	3.3
661.444	3.33
661.773	3.29
662.102	3.26
662.431	3.28
662.76	3.33
663.089	3.33
663.418	3.28
663.747	3.31
664.076	3.33
664.404	3.39
664.733	3.39
665.062	3.36
665.39	3.27
665.719	3.26
666.048	3.28
666.376	3.24
666.705	3.25
667.033	3.24
667.362	3.32
667.69	3.36
668.018	3.3
668.347	3.27
668.675	3.29
669.003	3.28
669.331	3.38
669.659	3.32
669.987	3.31
670.315	3.36
670.643	3.37
670.971	3.38
671.299	3.44
671.627	3.5
671.955	3.45
672.283	3.49
672.61	3.38
672.938	3.41
673.266	3.45
673.593	3.52
673.921	3.56
674.249	3.54
674.576	3.45
674.904	3.43
675.231	3.44
675.558	3.48
675.886	3.49
676.213	3.4
676.54	3.44
676.867	3.49
677.195	3.41
677.522	3.37
677.849	3.36
