Data from BU57647_Reflection_00013.txt Node
Date: Mon Nov 18 16:49:47 EST 2019
User: vgr7
Spectrometer: USB2G7710
Scans to average: 3
Trigger mode: 4
Integration Time (sec): 2.000000E-2
Electric dark correction enabled: true
Boxcar width: 10
XAxis mode: Wavelengths
Number of Pixels in Spectrum: 2048
>>>>>Begin Spectral Data<<<<<
177.721	58.03
178.105	56.77
178.488	257.76
178.871	-474.47
179.254	-146.01
179.636	-438.04
180.019	-351.41
180.402	80
180.785	-237.8
181.168	-53.99
181.55	-19.11
181.933	58.62
182.316	72.99
182.698	115.47
183.081	230.05
183.463	316.12
183.846	-1371.7
184.228	-6445.45
184.611	-144.9
184.993	-46.16
185.376	-91.66
185.758	-100.2
186.14	-94.23
186.522	-53.61
186.904	-42.96
187.287	-17.4
187.669	-63.16
188.051	-65.62
188.433	-57.32
188.815	-38.62
189.197	-50.96
189.579	-29.97
189.961	-49.92
190.342	-40.65
190.724	-1.11
191.106	-9.34
191.488	-14.5
191.869	-41.81
192.251	-71.15
192.633	-57.4
193.014	-47.12
193.396	-55.65
193.777	-82.66
194.159	-210.79
194.54	-103.14
194.922	-270.18
195.303	-191.35
195.684	-97.66
196.065	-43.97
196.447	-25.61
196.828	-71.28
197.209	-13.62
197.59	-33.59
197.971	-18.38
198.352	-0.43
198.733	9.66
199.114	36.71
199.495	56.83
199.876	48.75
200.257	74.22
200.638	62.35
201.018	72.43
201.399	61.41
201.78	57.58
202.16	76.64
202.541	77.22
202.922	48.22
203.302	45.15
203.683	17.75
204.063	-16.19
204.444	-46.62
204.824	-28.72
205.204	-50.44
205.585	-34.41
205.965	-50.75
206.345	-56.01
206.725	-625.58
207.106	-1134.45
207.486	696.11
207.866	690.16
208.246	1719.63
208.626	1517.09
209.006	-942.62
209.386	4264.71
209.766	-7814.89
210.145	-1416.01
210.525	-200.48
210.905	-141.01
211.285	-121.5
211.664	-77.84
212.044	-46.56
212.424	-41.92
212.803	-39.7
213.183	-34.62
213.562	-32.37
213.942	-8.23
214.321	1.8
214.701	1.64
215.08	8.26
215.459	14.61
215.838	12.77
216.218	12.88
216.597	24.32
216.976	20.8
217.355	28.64
217.734	25.96
218.113	31.26
218.492	50.57
218.871	49.12
219.25	36.27
219.629	32.3
220.008	30.71
220.387	51.32
220.766	37.48
221.144	25.58
221.523	17.93
221.902	-11.3
222.28	-23.24
222.659	-20.67
223.037	-12.71
223.416	-38.09
223.794	-37.32
224.173	-44.42
224.551	-40.69
224.929	-37.79
225.308	-20.11
225.686	-14.86
226.064	-16.2
226.442	-21.52
226.821	-15.01
227.199	-13.49
227.577	-11.4
227.955	-13.49
228.333	-14.81
228.711	-15.24
229.089	-11.42
229.467	-13.13
229.845	-12.39
230.222	-12.63
230.6	-13.66
230.978	-10.99
231.356	-3.32
231.733	-0.77
232.111	1.85
232.488	0.02
232.866	2.14
233.243	0.92
233.621	0.99
233.998	2.12
234.376	0.75
234.753	-1.55
235.13	-0.02
235.508	1.48
235.885	2.73
236.262	2.71
236.639	3.95
237.016	3.79
237.393	5.15
237.77	5.55
238.147	5.96
238.524	6.01
238.901	4.92
239.278	4.89
239.655	4.56
240.032	3.99
240.409	4.47
240.785	4.48
241.162	4.55
241.539	4.61
241.915	4.69
242.292	4.53
242.668	4.96
243.045	5.07
243.421	4.43
243.798	4.42
244.174	4.01
244.551	3.98
244.927	4.12
245.303	4.59
245.679	4.51
246.056	4.43
246.432	4.76
246.808	5.05
247.184	4.69
247.56	4.4
247.936	4.36
248.312	4.21
248.688	4.1
249.064	3.98
249.44	4.02
249.815	3.87
250.191	4.2
250.567	4.47
250.943	4.51
251.318	4.86
251.694	4.84
252.069	4.92
252.445	4.77
252.82	4.91
253.196	4.48
253.571	4.51
253.947	4.94
254.322	5
254.697	4.71
255.073	4.66
255.448	4.55
255.823	4.78
256.198	4.93
256.573	4.88
256.948	4.99
257.323	5
257.698	4.93
258.073	4.8
258.448	4.49
258.823	4.22
259.198	4.03
259.573	4.05
259.948	4.07
260.322	4.34
260.697	4.18
261.072	4.13
261.446	4.24
261.821	4.16
262.195	4.28
262.57	4.15
262.944	4.12
263.319	4.3
263.693	4.27
264.067	4.33
264.442	4.37
264.816	4.26
265.19	3.98
265.564	3.96
265.938	3.82
266.313	3.78
266.687	4.22
267.061	4.21
267.435	4.27
267.809	4.33
268.183	4.27
268.556	4.2
268.93	4.4
269.304	4.28
269.678	4.31
270.051	4.06
270.425	4.2
270.799	4.34
271.172	4.27
271.546	4.18
271.919	4.08
272.293	3.96
272.666	3.97
273.04	4.15
273.413	4.22
273.787	4.22
274.16	4.3
274.533	4.17
274.906	4.25
275.279	4.12
275.653	4.07
276.026	4.06
276.399	4.07
276.772	3.99
277.145	4.02
277.518	3.97
277.891	3.92
278.263	4
278.636	4.02
279.009	4.13
279.382	4.41
279.755	4.41
280.127	4.59
280.5	4.54
280.872	4.56
281.245	4.59
281.617	4.72
281.99	4.79
282.362	4.77
282.735	4.6
283.107	4.58
283.479	4.53
283.852	4.4
284.224	4.39
284.596	4.43
284.968	4.55
285.34	4.42
285.713	4.51
286.085	4.5
286.457	4.48
286.829	4.55
287.201	4.38
287.572	4.28
287.944	4.18
288.316	4.27
288.688	4.28
289.06	4.22
289.431	4.26
289.803	4.33
290.175	4.36
290.546	4.4
290.918	4.4
291.289	4.54
291.661	4.65
292.032	4.83
292.403	4.78
292.775	4.92
293.146	4.95
293.517	4.98
293.889	4.93
294.26	4.99
294.631	4.95
295.002	4.87
295.373	5.02
295.744	5.2
296.115	5.29
296.486	5.28
296.857	5.38
297.228	5.51
297.599	5.5
297.97	5.58
298.34	5.72
298.711	5.89
299.082	5.83
299.452	5.89
299.823	5.96
300.194	5.96
300.564	5.91
300.935	6.06
301.305	6.06
301.676	6.23
302.046	6.32
302.416	6.49
302.787	6.76
303.157	6.84
303.527	6.83
303.897	6.91
304.267	7.2
304.637	7.27
305.008	7.31
305.378	7.44
305.748	7.52
306.117	7.67
306.487	7.68
306.857	7.78
307.227	7.96
307.597	7.97
307.967	8.08
308.336	8.19
308.706	8.3
309.076	8.48
309.445	8.55
309.815	8.58
310.184	8.62
310.554	8.7
310.923	8.73
311.293	8.77
311.662	8.86
312.031	8.87
312.401	8.98
312.77	8.99
313.139	9.19
313.508	9.21
313.877	9.27
314.246	9.52
314.616	9.64
314.985	9.67
315.353	9.78
315.722	10.11
316.091	10.01
316.46	10
316.829	10.06
317.198	10.26
317.567	10.47
317.935	10.45
318.304	10.62
318.672	10.7
319.041	10.9
319.41	11.11
319.778	11.21
320.147	11.19
320.515	11.16
320.883	11.02
321.252	11.43
321.62	11.58
321.988	11.58
322.357	11.86
322.725	12.06
323.093	12.23
323.461	12.16
323.829	12.47
324.197	12.75
324.565	12.88
324.933	12.88
325.301	12.93
325.669	13.15
326.037	13.15
326.405	13.37
326.772	13.43
327.14	13.48
327.508	13.65
327.875	13.81
328.243	14.01
328.61	14.2
328.978	14.14
329.346	14.29
329.713	14.33
330.08	14.39
330.448	14.29
330.815	14.19
331.182	14.33
331.55	14.38
331.917	14.33
332.284	14.44
332.651	14.53
333.018	14.59
333.385	14.56
333.752	14.72
334.119	14.98
334.486	14.98
334.853	14.96
335.22	14.85
335.587	14.98
335.954	15.05
336.32	15.02
336.687	15.02
337.054	15.06
337.42	15.11
337.787	15.11
338.153	15.28
338.52	15.54
338.886	15.49
339.253	15.49
339.619	15.61
339.986	15.54
340.352	15.65
340.718	15.71
341.084	15.71
341.451	15.8
341.817	15.68
342.183	15.65
342.549	15.63
342.915	15.75
343.281	15.72
343.647	15.71
344.013	15.73
344.379	15.78
344.745	15.92
345.11	15.98
345.476	16
345.842	15.91
346.208	15.78
346.573	15.86
346.939	15.9
347.304	15.89
347.67	15.97
348.035	15.86
348.401	15.85
348.766	15.92
349.132	15.82
349.497	15.78
349.862	15.96
350.228	15.99
350.593	15.88
350.958	15.86
351.323	15.86
351.688	15.89
352.053	15.82
352.418	15.65
352.783	15.6
353.148	15.54
353.513	15.61
353.878	15.64
354.243	15.58
354.608	15.56
354.972	15.53
355.337	15.55
355.702	15.66
356.066	15.67
356.431	15.7
356.795	15.77
357.16	15.65
357.524	15.51
357.889	15.41
358.253	15.54
358.618	15.55
358.982	15.45
359.346	15.38
359.71	15.33
360.075	15.37
360.439	15.33
360.803	15.27
361.167	15.17
361.531	15.09
361.895	15.11
362.259	15.03
362.623	15.03
362.987	14.9
363.351	14.77
363.714	14.67
364.078	14.55
364.442	14.34
364.806	14.3
365.169	14.25
365.533	14.24
365.896	14.13
366.26	14.01
366.623	13.98
366.987	13.93
367.35	13.95
367.714	13.78
368.077	13.69
368.44	13.57
368.803	13.5
369.167	13.41
369.53	13.28
369.893	13.21
370.256	13.06
370.619	12.99
370.982	12.81
371.345	12.73
371.708	12.69
372.071	12.65
372.434	12.55
372.797	12.47
373.159	12.37
373.522	12.25
373.885	12.14
374.247	12.04
374.61	11.92
374.973	11.73
375.335	11.64
375.698	11.54
376.06	11.43
376.423	11.41
376.785	11.43
377.147	11.31
377.51	11.22
377.872	11.12
378.234	11.03
378.596	10.97
378.958	10.83
379.321	10.65
379.683	10.61
380.045	10.51
380.407	10.41
380.769	10.34
381.13	10.2
381.492	10.1
381.854	10.04
382.216	10.03
382.578	9.94
382.939	9.81
383.301	9.66
383.663	9.59
384.024	9.47
384.386	9.29
384.747	9.23
385.109	9.18
385.47	9.07
385.832	9.01
386.193	8.97
386.554	8.95
386.916	8.94
387.277	8.8
387.638	8.81
387.999	8.72
388.36	8.6
388.721	8.59
389.082	8.51
389.443	8.43
389.804	8.3
390.165	8.2
390.526	8.17
390.887	8.15
391.248	8.14
391.609	8.11
391.969	8.08
392.33	7.97
392.691	7.92
393.051	7.86
393.412	7.8
393.772	7.67
394.133	7.58
394.493	7.49
394.854	7.47
395.214	7.33
395.574	7.3
395.935	7.24
396.295	7.19
396.655	7.16
397.015	7.07
397.376	7.03
397.736	6.98
398.096	6.93
398.456	6.87
398.816	6.81
399.176	6.69
399.535	6.6
399.895	6.53
400.255	6.46
400.615	6.43
400.975	6.36
401.334	6.34
401.694	6.28
402.054	6.22
402.413	6.18
402.773	6.17
403.132	6.09
403.492	6.07
403.851	6
404.211	5.94
404.57	5.92
404.929	5.86
405.288	5.83
405.648	5.78
406.007	5.78
406.366	5.71
406.725	5.72
407.084	5.71
407.443	5.74
407.802	5.75
408.161	5.7
408.52	5.68
408.879	5.65
409.238	5.66
409.596	5.68
409.955	5.62
410.314	5.59
410.673	5.58
411.031	5.55
411.39	5.53
411.748	5.49
412.107	5.49
412.465	5.47
412.824	5.45
413.182	5.41
413.54	5.38
413.899	5.39
414.257	5.34
414.615	5.29
414.974	5.22
415.332	5.14
415.69	5.13
416.048	5.1
416.406	5.07
416.764	5.04
417.122	5
417.48	4.99
417.838	4.97
418.195	4.94
418.553	4.9
418.911	4.86
419.269	4.84
419.626	4.8
419.984	4.77
420.342	4.76
420.699	4.73
421.057	4.71
421.414	4.67
421.772	4.66
422.129	4.64
422.486	4.64
422.844	4.62
423.201	4.61
423.558	4.58
423.915	4.57
424.273	4.55
424.63	4.52
424.987	4.48
425.344	4.48
425.701	4.46
426.058	4.45
426.415	4.44
426.772	4.41
427.128	4.38
427.485	4.37
427.842	4.32
428.199	4.33
428.555	4.3
428.912	4.29
429.269	4.27
429.625	4.24
429.982	4.22
430.338	4.23
430.695	4.21
431.051	4.18
431.407	4.18
431.764	4.16
432.12	4.14
432.476	4.13
432.832	4.1
433.189	4.12
433.545	4.12
433.901	4.12
434.257	4.11
434.613	4.15
434.969	4.16
435.325	4.18
435.681	4.17
436.036	4.19
436.392	4.17
436.748	4.16
437.104	4.17
437.459	4.15
437.815	4.13
438.171	4.1
438.526	4.14
438.882	4.13
439.237	4.14
439.593	4.17
439.948	4.17
440.304	4.17
440.659	4.17
441.014	4.16
441.369	4.15
441.725	4.15
442.08	4.13
442.435	4.13
442.79	4.11
443.145	4.09
443.5	4.06
443.855	4.07
444.21	4.08
444.565	4.1
444.92	4.11
445.275	4.11
445.629	4.13
445.984	4.11
446.339	4.1
446.693	4.08
447.048	4.06
447.403	4.05
447.757	4.03
448.112	4
448.466	3.99
448.82	3.98
449.175	3.98
449.529	3.96
449.883	3.94
450.238	3.92
450.592	3.95
450.946	3.93
451.3	3.91
451.654	3.88
452.008	3.85
452.362	3.83
452.716	3.81
453.07	3.79
453.424	3.77
453.778	3.76
454.132	3.75
454.486	3.73
454.839	3.72
455.193	3.7
455.547	3.67
455.9	3.68
456.254	3.7
456.607	3.7
456.961	3.69
457.314	3.69
457.668	3.69
458.021	3.67
458.375	3.68
458.728	3.67
459.081	3.69
459.434	3.69
459.787	3.67
460.141	3.7
460.494	3.69
460.847	3.69
461.2	3.67
461.553	3.7
461.906	3.71
462.259	3.74
462.611	3.79
462.964	3.83
463.317	3.84
463.67	3.85
464.022	3.86
464.375	3.89
464.728	3.91
465.08	3.95
465.433	3.96
465.785	3.98
466.138	4
466.49	4.02
466.843	4.03
467.195	4.07
467.547	4.09
467.899	4.13
468.252	4.14
468.604	4.18
468.956	4.17
469.308	4.19
469.66	4.19
470.012	4.19
470.364	4.18
470.716	4.19
471.068	4.19
471.42	4.22
471.772	4.23
472.123	4.25
472.475	4.26
472.827	4.29
473.178	4.3
473.53	4.31
473.882	4.32
474.233	4.34
474.585	4.34
474.936	4.31
475.288	4.31
475.639	4.33
475.99	4.34
476.342	4.36
476.693	4.35
477.044	4.37
477.395	4.37
477.746	4.38
478.097	4.35
478.448	4.35
478.8	4.33
479.15	4.3
479.501	4.28
479.852	4.28
480.203	4.27
480.554	4.27
480.905	4.27
481.255	4.27
481.606	4.27
481.957	4.26
482.307	4.25
482.658	4.24
483.009	4.23
483.359	4.22
483.709	4.22
484.06	4.22
484.41	4.21
484.761	4.21
485.111	4.2
485.461	4.21
485.811	4.21
486.162	4.21
486.512	4.22
486.862	4.22
487.212	4.21
487.562	4.21
487.912	4.2
488.262	4.19
488.612	4.18
488.961	4.18
489.311	4.19
489.661	4.2
490.011	4.2
490.36	4.2
490.71	4.2
491.06	4.2
491.409	4.2
491.759	4.22
492.108	4.21
492.458	4.22
492.807	4.21
493.157	4.23
493.506	4.24
493.855	4.24
494.204	4.25
494.554	4.28
494.903	4.28
495.252	4.3
495.601	4.33
495.95	4.36
496.299	4.39
496.648	4.42
496.997	4.46
497.346	4.5
497.695	4.54
498.043	4.56
498.392	4.59
498.741	4.65
499.09	4.69
499.438	4.77
499.787	4.82
500.135	4.89
500.484	4.95
500.832	5.01
501.181	5.08
501.529	5.16
501.878	5.24
502.226	5.33
502.574	5.42
502.923	5.51
503.271	5.58
503.619	5.67
503.967	5.76
504.315	5.85
504.663	5.94
505.011	6.04
505.359	6.16
505.707	6.29
506.055	6.38
506.403	6.5
506.751	6.62
507.098	6.76
507.446	6.88
507.794	6.97
508.141	7.11
508.489	7.25
508.837	7.38
509.184	7.51
509.531	7.65
509.879	7.77
510.226	7.91
510.574	8.03
510.921	8.17
511.268	8.31
511.616	8.47
511.963	8.63
512.31	8.79
512.657	8.97
513.004	9.11
513.351	9.33
513.698	9.52
514.045	9.71
514.392	9.9
514.739	10.09
515.086	10.32
515.432	10.52
515.779	10.71
516.126	10.93
516.473	11.13
516.819	11.33
517.166	11.54
517.512	11.72
517.859	11.93
518.205	12.15
518.552	12.34
518.898	12.51
519.245	12.7
519.591	12.91
519.937	13.07
520.283	13.28
520.629	13.49
520.976	13.71
521.322	13.94
521.668	14.16
522.014	14.42
522.36	14.69
522.706	14.96
523.052	15.27
523.398	15.58
523.743	15.9
524.089	16.22
524.435	16.51
524.781	16.83
525.126	17.1
525.472	17.3
525.817	17.51
526.163	17.72
526.509	17.9
526.854	18.1
527.199	18.28
527.545	18.44
527.89	18.59
528.235	18.76
528.581	18.95
528.926	19.14
529.271	19.31
529.616	19.46
529.961	19.62
530.306	19.79
530.651	19.96
530.996	20.15
531.341	20.32
531.686	20.53
532.031	20.72
532.376	20.93
532.721	21.17
533.065	21.4
533.41	21.64
533.755	21.9
534.099	22.13
534.444	22.38
534.788	22.62
535.133	22.87
535.477	23.11
535.822	23.34
536.166	23.6
536.51	23.87
536.855	24.17
537.199	24.48
537.543	24.79
537.887	25.09
538.231	25.39
538.576	25.68
538.92	25.98
539.264	26.25
539.608	26.51
539.951	26.73
540.295	26.98
540.639	27.22
540.983	27.43
541.327	27.66
541.671	27.87
542.014	28.1
542.358	28.31
542.701	28.51
543.045	28.71
543.389	28.92
543.732	29.14
544.075	29.35
544.419	29.59
544.762	29.81
545.105	30.08
545.449	30.29
545.792	30.59
546.135	30.87
546.478	31.13
546.821	31.39
547.165	31.71
547.508	32.02
547.851	32.29
548.194	32.6
548.536	32.89
548.879	33.22
549.222	33.56
549.565	33.85
549.908	34.18
550.25	34.51
550.593	34.82
550.936	35.16
551.278	35.5
551.621	35.8
551.963	36.07
552.306	36.34
552.648	36.64
552.991	36.88
553.333	37.13
553.675	37.43
554.017	37.74
554.36	38.02
554.702	38.31
555.044	38.62
555.386	38.91
555.728	39.16
556.07	39.44
556.412	39.67
556.754	39.98
557.096	40.25
557.438	40.54
557.78	40.83
558.121	41.11
558.463	41.38
558.805	41.66
559.147	41.94
559.488	42.21
559.83	42.5
560.171	42.8
560.513	43.11
560.854	43.44
561.196	43.73
561.537	43.98
561.878	44.19
562.22	44.42
562.561	44.67
562.902	44.86
563.243	45.06
563.584	45.21
563.925	45.47
564.266	45.68
564.607	45.85
564.948	46.03
565.289	46.24
565.63	46.46
565.971	46.64
566.312	46.82
566.653	47.01
566.993	47.2
567.334	47.4
567.675	47.55
568.015	47.67
568.356	47.8
568.696	47.95
569.037	48.24
569.377	48.43
569.718	48.61
570.058	48.8
570.398	49
570.739	49.21
571.079	49.33
571.419	49.55
571.759	49.7
572.099	49.88
572.439	50.03
572.779	50.23
573.119	50.37
573.459	50.56
573.799	50.72
574.139	50.85
574.479	50.88
574.819	50.96
575.158	51.12
575.498	51.31
575.838	51.45
576.177	51.47
576.517	51.66
576.856	51.74
577.196	51.88
577.535	52.08
577.875	52.22
578.214	52.37
578.553	52.42
578.893	52.6
579.232	52.75
579.571	52.89
579.91	52.96
580.25	53.09
580.589	53.22
580.928	53.34
581.267	53.48
581.606	53.68
581.945	53.87
582.283	53.93
582.622	54.01
582.961	54.17
583.3	54.27
583.639	54.35
583.977	54.5
584.316	54.58
584.654	54.61
584.993	54.72
585.332	54.83
585.67	54.95
586.008	55
586.347	55.03
586.685	55.14
587.024	55.16
587.362	55.27
587.7	55.37
588.038	55.38
588.376	55.41
588.715	55.52
589.053	55.64
589.391	55.71
589.729	55.73
590.067	55.82
590.404	55.92
590.742	55.97
591.08	56.02
591.418	56.2
591.756	56.34
592.093	56.43
592.431	56.52
592.769	56.6
593.106	56.67
593.444	56.73
593.781	56.73
594.119	56.89
594.456	56.97
594.793	56.99
595.131	57.12
595.468	57.31
595.805	57.31
596.143	57.33
596.48	57.41
596.817	57.54
597.154	57.56
597.491	57.65
597.828	57.68
598.165	57.78
598.502	57.8
598.839	57.85
599.176	57.94
599.512	58
599.849	58.12
600.186	58.25
600.523	58.35
600.859	58.52
601.196	58.57
601.532	58.6
601.869	58.64
602.205	58.74
602.542	58.74
602.878	58.8
603.215	58.84
603.551	58.86
603.887	58.85
604.223	58.91
604.56	58.93
604.896	58.9
605.232	58.87
605.568	58.88
605.904	58.93
606.24	58.88
606.576	58.89
606.912	58.85
607.248	58.89
607.583	58.93
607.919	58.85
608.255	58.81
608.591	58.87
608.926	58.83
609.262	58.82
609.597	58.9
609.933	58.95
610.268	59.07
610.604	59.2
610.939	59.29
611.275	59.35
611.61	59.39
611.945	59.57
612.281	59.69
612.616	59.74
612.951	59.7
613.286	59.77
613.621	59.83
613.956	59.88
614.291	59.86
614.626	59.91
614.961	60.04
615.296	60.13
615.631	60.16
615.966	60.33
616.3	60.29
616.635	60.11
616.97	60.16
617.304	60.06
617.639	59.97
617.973	59.94
618.308	59.91
618.642	59.89
618.977	59.86
619.311	59.85
619.646	59.91
619.98	60.02
620.314	60.11
620.648	60.08
620.983	60.19
621.317	60.32
621.651	60.31
621.985	60.32
622.319	60.35
622.653	60.36
622.987	60.49
623.321	60.61
623.655	60.74
623.988	60.78
624.322	60.93
624.656	61.03
624.99	61.04
625.323	61.09
625.657	61.12
625.99	61.09
626.324	61.13
626.657	61.08
626.991	61.06
627.324	61.1
627.658	61.19
627.991	61.13
628.324	61
628.657	60.99
628.991	60.94
629.324	61
629.657	61.04
629.99	60.95
630.323	60.92
630.656	60.95
630.989	60.99
631.322	60.94
631.655	61.02
631.987	61.05
632.32	61
632.653	61.08
632.986	61.12
633.318	61.1
633.651	61.24
633.984	61.27
634.316	61.25
634.649	61.31
634.981	61.32
635.313	61.39
635.646	61.43
635.978	61.49
636.31	61.49
636.643	61.57
636.975	61.57
637.307	61.65
637.639	61.63
637.971	61.55
638.303	61.47
638.635	61.36
638.967	61.44
639.299	61.57
639.631	61.5
639.963	61.51
640.295	61.59
640.626	61.62
640.958	61.62
641.29	61.62
641.621	61.48
641.953	61.57
642.285	61.66
642.616	61.75
642.948	61.89
643.279	61.89
643.61	61.75
643.942	61.69
644.273	61.7
644.604	61.75
644.936	61.8
645.267	61.87
645.598	61.89
645.929	61.91
646.26	61.86
646.591	62.02
646.922	62.03
647.253	61.98
647.584	61.9
647.915	61.84
648.245	61.89
648.576	61.98
648.907	61.93
649.238	61.79
649.568	61.8
649.899	61.65
650.229	61.65
650.56	61.78
650.89	61.87
651.221	61.74
651.551	61.73
651.882	61.78
652.212	61.75
652.542	61.79
652.872	61.69
653.203	61.64
653.533	61.56
653.863	61.55
654.193	61.48
654.523	61.48
654.853	61.57
655.183	61.52
655.513	61.49
655.843	61.5
656.172	61.52
656.502	61.56
656.832	61.51
657.162	61.55
657.491	61.48
657.821	61.62
658.15	61.77
658.48	61.78
658.809	61.65
659.139	61.67
659.468	61.66
659.798	61.76
660.127	61.79
660.456	61.69
660.785	61.73
661.115	61.81
661.444	61.82
661.773	61.79
662.102	61.85
662.431	61.87
662.76	61.84
663.089	61.83
