Data from BU57648_Reflection_00007.txt Node
Date: Tue Nov 19 10:46:40 EST 2019
User: vgr7
Spectrometer: USB2G7710
Scans to average: 3
Trigger mode: 4
Integration Time (sec): 2.000000E-2
Electric dark correction enabled: true
Boxcar width: 10
XAxis mode: Wavelengths
Number of Pixels in Spectrum: 2048
>>>>>Begin Spectral Data<<<<<
177.721	91.55
178.105	90.74
178.488	83.63
178.871	58.33
179.254	36.67
179.636	56.35
180.019	-37.82
180.402	114.29
180.785	-51.67
181.168	-198.61
181.55	-679.41
181.933	-252.68
182.316	-123.04
182.698	-141.53
183.081	-131.93
183.463	-139.69
183.846	-242.26
184.228	-1259.38
184.611	-169.02
184.993	-72.86
185.376	-60.8
185.758	-54.67
186.14	-86.9
186.522	-98.05
186.904	-90.18
187.287	-98.06
187.669	-104.55
188.051	-141.97
188.433	-176.87
188.815	-174.86
189.197	-123.74
189.579	-92.54
189.961	-100.78
190.342	-119.83
190.724	-123.99
191.106	-100.23
191.488	-103.97
191.869	-89.33
192.251	-54.97
192.633	-82.49
193.014	-119.04
193.396	-140.69
193.777	-131.97
194.159	-107.71
194.54	-88.74
194.922	-86.68
195.303	-83.7
195.684	-82.81
196.065	-90.53
196.447	-68.22
196.828	-93.9
197.209	-112.79
197.59	-97.96
197.971	-98.74
198.352	-96.89
198.733	-88.14
199.114	-90.43
199.495	-88.76
199.876	-82.66
200.257	-131.36
200.638	-107.64
201.018	-89.96
201.399	-79.38
201.78	-78.09
202.16	-77.5
202.541	-83.92
202.922	-82.41
203.302	-89.39
203.683	-78.7
204.063	-75.42
204.444	-59.97
204.824	-75
205.204	-52.14
205.585	-72.15
205.965	-89.76
206.345	-81.91
206.725	-72.51
207.106	-72.45
207.486	-60.17
207.866	-48.92
208.246	-32.21
208.626	-50.85
209.006	-60.81
209.386	-54.98
209.766	-53.51
210.145	-53.29
210.525	-30.68
210.905	-13.53
211.285	-23.72
211.664	-20.83
212.044	-24.6
212.424	-38.98
212.803	-16.45
213.183	-33
213.562	-19.23
213.942	-20.03
214.321	-35.27
214.701	-48.29
215.08	-58.44
215.459	-36.16
215.838	-57.12
216.218	-84.9
216.597	-59.47
216.976	-59.41
217.355	-57.29
217.734	-77.73
218.113	-72.55
218.492	-95.55
218.871	-93.18
219.25	-120.82
219.629	-118.65
220.008	-123.98
220.387	-115.12
220.766	-142.12
221.144	-108.94
221.523	-138.45
221.902	-112.2
222.28	-86.62
222.659	-61.8
223.037	-50.36
223.416	-66
223.794	-52.53
224.173	-43.31
224.551	-39.28
224.929	-46.85
225.308	-51.4
225.686	-35.36
226.064	-42.28
226.442	-28.06
226.821	-27.94
227.199	-22.3
227.577	-14.87
227.955	-14.32
228.333	-20.14
228.711	-13.74
229.089	-13.05
229.467	-12.51
229.845	-13.54
230.222	-11.51
230.6	-14.77
230.978	-11.44
231.356	-10.05
231.733	-6.9
232.111	-6.62
232.488	-6.81
232.866	-3.86
233.243	-4.7
233.621	-4.15
233.998	-0.81
234.376	-2.68
234.753	-2.99
235.13	-4.18
235.508	-4.5
235.885	-4.48
236.262	-4.49
236.639	-5.91
237.016	-5.37
237.393	-3.25
237.77	-0.35
238.147	-0.77
238.524	0.62
238.901	-0.36
239.278	-0.91
239.655	-1.95
240.032	-0.72
240.409	-1.01
240.785	-0.45
241.162	0.17
241.539	-0.05
241.915	0.21
242.292	0.01
242.668	-0.2
243.045	0.5
243.421	0.68
243.798	1.12
244.174	1.72
244.551	2.42
244.927	2.55
245.303	2.6
245.679	2.55
246.056	2.84
246.432	2.75
246.808	2.98
247.184	3.33
247.56	3.62
247.936	3.5
248.312	3.62
248.688	3.67
249.064	3.85
249.44	4.12
249.815	4.14
250.191	4.39
250.567	4.53
250.943	4.58
251.318	4.4
251.694	4.08
252.069	4.04
252.445	3.85
252.82	4.06
253.196	4.01
253.571	4.24
253.947	4.22
254.322	3.99
254.697	3.65
255.073	3.33
255.448	3.22
255.823	3.25
256.198	3.29
256.573	3.41
256.948	3.46
257.323	3.61
257.698	3.48
258.073	3.42
258.448	3.66
258.823	3.43
259.198	3.69
259.573	3.67
259.948	3.58
260.322	3.63
260.697	3.49
261.072	3.54
261.446	3.27
261.821	3.26
262.195	3.38
262.57	3.44
262.944	3.42
263.319	3.39
263.693	3.24
264.067	3.29
264.442	3.29
264.816	3.21
265.19	2.89
265.564	2.91
265.938	3.02
266.313	2.84
266.687	2.96
267.061	2.93
267.435	3.39
267.809	3.24
268.183	3.15
268.556	3.13
268.93	3.13
269.304	3.15
269.678	3.37
270.051	3.46
270.425	3.51
270.799	3.46
271.172	3.37
271.546	3.58
271.919	3.56
272.293	3.55
272.666	3.56
273.04	3.53
273.413	3.69
273.787	3.49
274.16	3.5
274.533	3.53
274.906	3.63
275.279	3.3
275.653	3.41
276.026	3.38
276.399	3.39
276.772	3.37
277.145	3.55
277.518	3.27
277.891	3.14
278.263	3.41
278.636	3.48
279.009	3.56
279.382	3.38
279.755	3.39
280.127	3.38
280.5	3.46
280.872	3.6
281.245	3.62
281.617	3.74
281.99	3.83
282.362	3.87
282.735	3.74
283.107	3.87
283.479	4.02
283.852	4.1
284.224	4.12
284.596	4.15
284.968	4.27
285.34	4.38
285.713	4.56
286.085	4.31
286.457	4.33
286.829	4.4
287.201	4.46
287.572	4.51
287.944	4.46
288.316	4.44
288.688	4.55
289.06	4.51
289.431	4.58
289.803	4.66
290.175	4.59
290.546	4.61
290.918	4.75
291.289	4.68
291.661	4.67
292.032	4.69
292.403	4.61
292.775	4.61
293.146	4.8
293.517	4.79
293.889	4.86
294.26	4.98
294.631	5.14
295.002	5.22
295.373	5.31
295.744	5.34
296.115	5.36
296.486	5.46
296.857	5.55
297.228	5.53
297.599	5.45
297.97	5.69
298.34	5.86
298.711	5.95
299.082	6.05
299.452	6.09
299.823	6.16
300.194	6.53
300.564	6.4
300.935	6.44
301.305	6.54
301.676	6.67
302.046	6.81
302.416	6.94
302.787	7.08
303.157	7.19
303.527	7.51
303.897	7.64
304.267	7.73
304.637	7.79
305.008	7.97
305.378	8.11
305.748	8.06
306.117	8.14
306.487	8.2
306.857	8.45
307.227	8.81
307.597	8.89
307.967	8.7
308.336	8.94
308.706	9.04
309.076	9.3
309.445	9.51
309.815	9.55
310.184	9.54
310.554	9.61
310.923	9.59
311.293	9.58
311.662	9.76
312.031	9.67
312.401	9.61
312.77	9.62
313.139	9.73
313.508	9.77
313.877	9.76
314.246	9.84
314.616	9.98
314.985	9.87
315.353	10.11
315.722	10.32
316.091	10.5
316.46	10.54
316.829	10.51
317.198	10.46
317.567	10.53
317.935	10.61
318.304	10.71
318.672	11.18
319.041	11.37
319.41	11.39
319.778	11.64
320.147	12.06
320.515	12.33
320.883	12.61
321.252	12.76
321.62	13.01
321.988	13.06
322.357	13.14
322.725	13.32
323.093	13.28
323.461	13.47
323.829	13.54
324.197	13.69
324.565	13.7
324.933	13.86
325.301	13.85
325.669	13.97
326.037	14.13
326.405	14.07
326.772	14.14
327.14	14.2
327.508	14.24
327.875	14.23
328.243	14.39
328.61	14.25
328.978	14.55
329.346	14.62
329.713	14.8
330.08	14.88
330.448	14.96
330.815	15.16
331.182	15.09
331.55	15.02
331.917	15
332.284	15.04
332.651	15
333.018	15.18
333.385	15.17
333.752	15.15
334.119	15.19
334.486	15.22
334.853	15.17
335.22	15.2
335.587	15.16
335.954	15.13
336.32	15.34
336.687	15.32
337.054	15.16
337.42	15.21
337.787	15.29
338.153	15.35
338.52	15.38
338.886	15.52
339.253	15.65
339.619	15.73
339.986	15.76
340.352	15.92
340.718	16.02
341.084	16.18
341.451	16.33
341.817	16.42
342.183	16.36
342.549	16.56
342.915	16.66
343.281	16.78
343.647	16.97
344.013	16.98
344.379	17.02
344.745	17.23
345.11	17.28
345.476	17.12
345.842	17.18
346.208	17.26
346.573	17.23
346.939	17.21
347.304	17.26
347.67	17.3
348.035	17.35
348.401	17.27
348.766	17.31
349.132	17.28
349.497	17.21
349.862	17.09
350.228	17.03
350.593	16.97
350.958	17.09
351.323	16.96
351.688	17.02
352.053	17.09
352.418	17.06
352.783	16.89
353.148	16.82
353.513	16.78
353.878	16.7
354.243	16.69
354.608	16.78
354.972	16.73
355.337	16.77
355.702	16.68
356.066	16.72
356.431	16.6
356.795	16.54
357.16	16.47
357.524	16.58
357.889	16.49
358.253	16.51
358.618	16.43
358.982	16.41
359.346	16.36
359.71	16.19
360.075	16.14
360.439	16.2
360.803	16.25
361.167	16.07
361.531	16.04
361.895	15.99
362.259	15.94
362.623	15.84
362.987	15.74
363.351	15.68
363.714	15.56
364.078	15.55
364.442	15.48
364.806	15.49
365.169	15.41
365.533	15.42
365.896	15.38
366.26	15.3
366.623	15.2
366.987	15.04
367.35	15.02
367.714	14.95
368.077	14.8
368.44	14.76
368.803	14.73
369.167	14.65
369.53	14.54
369.893	14.46
370.256	14.39
370.619	14.3
370.982	14.15
371.345	14.15
371.708	14.01
372.071	13.89
372.434	13.74
372.797	13.59
373.159	13.42
373.522	13.26
373.885	13.16
374.247	13.02
374.61	12.95
374.973	12.8
375.335	12.76
375.698	12.59
376.06	12.42
376.423	12.37
376.785	12.22
377.147	12.14
377.51	11.95
377.872	11.83
378.234	11.71
378.596	11.69
378.958	11.54
379.321	11.41
379.683	11.36
380.045	11.28
380.407	11.2
380.769	11.14
381.13	11.05
381.492	10.89
381.854	10.87
382.216	10.83
382.578	10.81
382.939	10.66
383.301	10.6
383.663	10.5
384.024	10.43
384.386	10.37
384.747	10.29
385.109	10.23
385.47	10.2
385.832	10.18
386.193	10.09
386.554	10
386.916	9.97
387.277	9.88
387.638	9.79
387.999	9.75
388.36	9.69
388.721	9.62
389.082	9.55
389.443	9.47
389.804	9.33
390.165	9.22
390.526	9.16
390.887	9.12
391.248	9.06
391.609	9.01
391.969	8.92
392.33	8.84
392.691	8.81
393.051	8.74
393.412	8.64
393.772	8.56
394.133	8.47
394.493	8.34
394.854	8.2
395.214	8.11
395.574	8.01
395.935	7.91
396.295	7.8
396.655	7.72
397.015	7.61
397.376	7.56
397.736	7.47
398.096	7.39
398.456	7.3
398.816	7.23
399.176	7.06
399.535	6.97
399.895	6.86
400.255	6.79
400.615	6.75
400.975	6.69
401.334	6.63
401.694	6.57
402.054	6.56
402.413	6.53
402.773	6.52
403.132	6.45
403.492	6.41
403.851	6.39
404.211	6.36
404.57	6.32
404.929	6.25
405.288	6.21
405.648	6.18
406.007	6.15
406.366	6.1
406.725	6.09
407.084	6.1
407.443	6.07
407.802	5.97
408.161	5.91
408.52	5.85
408.879	5.83
409.238	5.8
409.596	5.76
409.955	5.73
410.314	5.7
410.673	5.65
411.031	5.6
411.39	5.54
411.748	5.49
412.107	5.45
412.465	5.43
412.824	5.37
413.182	5.33
413.54	5.29
413.899	5.27
414.257	5.25
414.615	5.23
414.974	5.22
415.332	5.24
415.69	5.2
416.048	5.18
416.406	5.13
416.764	5.11
417.122	5.09
417.48	5.06
417.838	5.02
418.195	4.99
418.553	4.97
418.911	4.96
419.269	4.92
419.626	4.91
419.984	4.87
420.342	4.86
420.699	4.81
421.057	4.79
421.414	4.75
421.772	4.72
422.129	4.66
422.486	4.63
422.844	4.6
423.201	4.58
423.558	4.55
423.915	4.53
424.273	4.49
424.63	4.46
424.987	4.45
425.344	4.42
425.701	4.4
426.058	4.39
426.415	4.37
426.772	4.37
427.128	4.33
427.485	4.32
427.842	4.31
428.199	4.29
428.555	4.28
428.912	4.26
429.269	4.26
429.625	4.24
429.982	4.24
430.338	4.22
430.695	4.21
431.051	4.21
431.407	4.22
431.764	4.21
432.12	4.21
432.476	4.21
432.832	4.22
433.189	4.22
433.545	4.2
433.901	4.16
434.257	4.15
434.613	4.16
434.969	4.15
435.325	4.14
435.681	4.13
436.036	4.12
436.392	4.12
436.748	4.12
437.104	4.11
437.459	4.1
437.815	4.11
438.171	4.09
438.526	4.11
438.882	4.1
439.237	4.11
439.593	4.1
439.948	4.08
440.304	4.06
440.659	4.06
441.014	4.07
441.369	4.09
441.725	4.08
442.08	4.05
442.435	4.05
442.79	4.03
443.145	4.02
443.5	4.01
443.855	4
444.21	3.98
444.565	3.98
444.92	3.97
445.275	3.95
445.629	3.93
445.984	3.9
446.339	3.88
446.693	3.87
447.048	3.84
447.403	3.82
447.757	3.82
448.112	3.8
448.466	3.77
448.82	3.75
449.175	3.73
449.529	3.73
449.883	3.72
450.238	3.73
450.592	3.72
450.946	3.71
451.3	3.71
451.654	3.69
452.008	3.69
452.362	3.66
452.716	3.64
453.07	3.62
453.424	3.61
453.778	3.6
454.132	3.57
454.486	3.57
454.839	3.58
455.193	3.59
455.547	3.59
455.9	3.61
456.254	3.61
456.607	3.61
456.961	3.6
457.314	3.6
457.668	3.59
458.021	3.58
458.375	3.57
458.728	3.57
459.081	3.58
459.434	3.56
459.787	3.6
460.141	3.62
460.494	3.63
460.847	3.63
461.2	3.64
461.553	3.66
461.906	3.68
462.259	3.68
462.611	3.67
462.964	3.67
463.317	3.65
463.67	3.67
464.022	3.7
464.375	3.71
464.728	3.71
465.08	3.73
465.433	3.73
465.785	3.76
466.138	3.77
466.49	3.78
466.843	3.82
467.195	3.83
467.547	3.82
467.899	3.85
468.252	3.89
468.604	3.92
468.956	3.92
469.308	3.9
469.66	3.94
470.012	3.95
470.364	3.97
470.716	4.01
471.068	4.02
471.42	4.01
471.772	4.02
472.123	4.04
472.475	4.05
472.827	4.06
473.178	4.07
473.53	4.07
473.882	4.06
474.233	4.06
474.585	4.08
474.936	4.08
475.288	4.06
475.639	4.07
475.99	4.05
476.342	4.07
476.693	4.08
477.044	4.05
477.395	4.04
477.746	4.02
478.097	4
478.448	3.98
478.8	3.96
479.15	3.98
479.501	3.98
479.852	3.97
480.203	3.98
480.554	4
480.905	4.01
481.255	4.02
481.606	4.02
481.957	4.02
482.307	4.03
482.658	4.03
483.009	4.04
483.359	4.04
483.709	4.03
484.06	4.04
484.41	4.04
484.761	4.06
485.111	4.06
485.461	4.06
485.811	4.08
486.162	4.09
486.512	4.08
486.862	4.09
487.212	4.09
487.562	4.09
487.912	4.09
488.262	4.08
488.612	4.09
488.961	4.1
489.311	4.09
489.661	4.09
490.011	4.09
490.36	4.08
490.71	4.09
491.06	4.1
491.409	4.1
491.759	4.11
492.108	4.12
492.458	4.13
492.807	4.13
493.157	4.14
493.506	4.15
493.855	4.17
494.204	4.19
494.554	4.21
494.903	4.23
495.252	4.24
495.601	4.29
495.95	4.32
496.299	4.33
496.648	4.37
496.997	4.42
497.346	4.48
497.695	4.51
498.043	4.55
498.392	4.59
498.741	4.63
499.09	4.69
499.438	4.74
499.787	4.8
500.135	4.87
500.484	4.95
500.832	5
501.181	5.06
501.529	5.12
501.878	5.17
502.226	5.24
502.574	5.3
502.923	5.35
503.271	5.4
503.619	5.48
503.967	5.52
504.315	5.61
504.663	5.67
505.011	5.73
505.359	5.81
505.707	5.88
506.055	5.96
506.403	6.03
506.751	6.08
507.098	6.18
507.446	6.26
507.794	6.32
508.141	6.43
508.489	6.5
508.837	6.6
509.184	6.7
509.531	6.77
509.879	6.86
510.226	6.96
510.574	7.06
510.921	7.16
511.268	7.28
511.616	7.38
511.963	7.48
512.31	7.59
512.657	7.68
513.004	7.81
513.351	7.93
513.698	8.06
514.045	8.22
514.392	8.34
514.739	8.46
515.086	8.6
515.432	8.75
515.779	8.89
516.126	9.01
516.473	9.13
516.819	9.28
517.166	9.41
517.512	9.53
517.859	9.66
518.205	9.77
518.552	9.91
518.898	10
519.245	10.14
519.591	10.27
519.937	10.42
520.283	10.57
520.629	10.68
520.976	10.82
521.322	10.97
521.668	11.08
522.014	11.26
522.36	11.43
522.706	11.58
523.052	11.76
523.398	11.94
523.743	12.15
524.089	12.33
524.435	12.54
524.781	12.71
525.126	12.86
525.472	13.02
525.817	13.15
526.163	13.3
526.509	13.41
526.854	13.51
527.199	13.59
527.545	13.68
527.89	13.82
528.235	13.9
528.581	14
528.926	14.12
529.271	14.22
529.616	14.33
529.961	14.43
530.306	14.55
530.651	14.68
530.996	14.81
531.341	14.95
531.686	15.06
532.031	15.21
532.376	15.34
532.721	15.46
533.065	15.61
533.41	15.75
533.755	15.91
534.099	16.09
534.444	16.27
534.788	16.43
535.133	16.56
535.477	16.73
535.822	16.9
536.166	17.09
536.51	17.28
536.855	17.49
537.199	17.7
537.543	17.89
537.887	18.09
538.231	18.3
538.576	18.53
538.92	18.74
539.264	18.94
539.608	19.17
539.951	19.36
540.295	19.5
540.639	19.71
540.983	19.89
541.327	20.08
541.671	20.26
542.014	20.49
542.358	20.65
542.701	20.84
543.045	21.01
543.389	21.2
543.732	21.38
544.075	21.54
544.419	21.77
544.762	21.99
545.105	22.21
545.449	22.41
545.792	22.61
546.135	22.86
546.478	23.1
546.821	23.33
547.165	23.62
547.508	23.91
547.851	24.09
548.194	24.36
548.536	24.6
548.879	24.87
549.222	25.07
549.565	25.35
549.908	25.63
550.25	25.94
550.593	26.25
550.936	26.55
551.278	26.92
551.621	27.23
551.963	27.54
552.306	27.8
552.648	28.13
552.991	28.41
553.333	28.63
553.675	28.93
554.017	29.19
554.36	29.49
554.702	29.81
555.044	30.12
555.386	30.38
555.728	30.66
556.07	30.92
556.412	31.22
556.754	31.53
557.096	31.85
557.438	32.09
557.78	32.42
558.121	32.73
558.463	32.96
558.805	33.22
559.147	33.51
559.488	33.83
559.83	34.05
560.171	34.37
560.513	34.7
560.854	35.01
561.196	35.35
561.537	35.6
561.878	35.88
562.22	36.25
562.561	36.58
562.902	36.85
563.243	37.18
563.584	37.5
563.925	37.83
564.266	38.13
564.607	38.42
564.948	38.69
565.289	38.95
565.63	39.23
565.971	39.51
566.312	39.77
566.653	40.03
566.993	40.31
567.334	40.56
567.675	40.86
568.015	41.13
568.356	41.38
568.696	41.7
569.037	41.97
569.377	42.25
569.718	42.52
570.058	42.8
570.398	43.07
570.739	43.3
571.079	43.47
571.419	43.76
571.759	44.05
572.099	44.24
572.439	44.45
572.779	44.59
573.119	44.81
573.459	45.02
573.799	45.21
574.139	45.45
574.479	45.67
574.819	45.87
575.158	46.06
575.498	46.29
575.838	46.44
576.177	46.57
576.517	46.77
576.856	46.91
577.196	47.11
577.535	47.3
577.875	47.51
578.214	47.75
578.553	47.88
578.893	48
579.232	48.15
579.571	48.37
579.91	48.61
580.25	48.71
580.589	48.84
580.928	49.07
581.267	49.17
581.606	49.31
581.945	49.5
582.283	49.69
582.622	49.77
582.961	49.97
583.3	50.26
583.639	50.4
583.977	50.53
584.316	50.64
584.654	50.74
584.993	50.91
585.332	51.09
585.67	51.28
586.008	51.48
586.347	51.74
586.685	51.82
587.024	51.97
587.362	52.15
587.7	52.36
588.038	52.53
588.376	52.79
588.715	52.93
589.053	53.05
589.391	53.13
589.729	53.32
590.067	53.44
590.404	53.52
590.742	53.62
591.08	53.84
591.418	53.95
591.756	54.15
592.093	54.33
592.431	54.45
592.769	54.56
593.106	54.66
593.444	54.72
593.781	54.91
594.119	55.07
594.456	55.18
594.793	55.18
595.131	55.25
595.468	55.28
595.805	55.44
596.143	55.5
596.48	55.67
596.817	55.73
597.154	55.81
597.491	55.9
597.828	56
598.165	56.11
598.502	56.27
598.839	56.35
599.176	56.39
599.512	56.45
599.849	56.5
600.186	56.59
600.523	56.68
600.859	56.75
601.196	56.77
601.532	56.8
601.869	57.05
602.205	57.11
602.542	57.17
602.878	57.28
603.215	57.38
603.551	57.42
603.887	57.48
604.223	57.58
604.56	57.63
604.896	57.71
605.232	57.74
605.568	57.7
605.904	57.67
606.24	57.76
606.576	57.82
606.912	57.89
607.248	57.96
607.583	57.97
607.919	58.11
608.255	58.19
608.591	58.27
608.926	58.2
609.262	58.26
609.597	58.34
609.933	58.25
610.268	58.27
610.604	58.32
610.939	58.36
611.275	58.39
611.61	58.47
611.945	58.44
612.281	58.42
612.616	58.47
612.951	58.59
613.286	58.6
613.621	58.69
613.956	58.77
614.291	58.78
614.626	58.85
614.961	58.76
615.296	58.82
615.631	58.91
615.966	58.96
616.3	59.05
616.635	59.02
616.97	59.19
617.304	59.15
617.639	59.14
617.973	59.27
618.308	59.29
618.642	59.33
618.977	59.35
619.311	59.44
619.646	59.58
619.98	59.54
620.314	59.49
620.648	59.5
620.983	59.44
621.317	59.52
621.651	59.58
621.985	59.61
622.319	59.64
622.653	59.67
622.987	59.69
623.321	59.62
623.655	59.7
623.988	59.8
624.322	59.84
624.656	59.84
624.99	59.71
625.323	59.67
625.657	59.61
625.99	59.63
626.324	59.6
626.657	59.64
626.991	59.72
627.324	59.8
627.658	59.76
627.991	59.82
628.324	59.83
628.657	59.74
628.991	59.73
629.324	59.8
629.657	59.79
629.99	59.78
630.323	59.82
630.656	59.95
630.989	59.87
631.322	60.02
631.655	60.11
631.987	60.26
632.32	60.29
632.653	60.38
632.986	60.52
633.318	60.6
633.651	60.5
633.984	60.53
634.316	60.55
634.649	60.55
634.981	60.55
635.313	60.64
635.646	60.72
635.978	60.74
636.31	60.78
636.643	60.83
636.975	60.98
637.307	60.92
637.639	60.88
637.971	60.9
638.303	60.84
638.635	60.79
638.967	60.8
639.299	60.89
639.631	60.74
639.963	60.55
640.295	60.69
640.626	60.8
640.958	60.68
641.29	60.7
641.621	60.74
641.953	60.75
642.285	60.68
642.616	60.85
642.948	60.99
643.279	60.9
643.61	60.85
643.942	60.79
644.273	60.93
644.604	60.83
644.936	60.78
645.267	60.82
645.598	60.85
645.929	60.73
646.26	60.76
646.591	60.87
646.922	61.03
647.253	60.95
647.584	60.88
647.915	61
648.245	60.99
648.576	61.07
648.907	61.08
649.238	61.07
649.568	60.88
649.899	60.79
650.229	60.82
650.56	60.87
650.89	60.89
651.221	60.9
651.551	60.96
651.882	60.84
652.212	60.78
652.542	60.83
652.872	61
653.203	60.95
653.533	61.07
653.863	61.05
654.193	60.96
654.523	61
654.853	61.04
655.183	61.12
655.513	61
655.843	61.11
656.172	61.05
656.502	61.17
656.832	61.29
657.162	61.37
657.491	61.35
657.821	61.42
658.15	61.48
658.48	61.6
658.809	61.81
659.139	61.84
659.468	61.86
659.798	61.86
660.127	61.81
660.456	61.87
660.785	61.86
661.115	61.82
661.444	61.94
