Data from BU57650_Reflection_00008.txt Node
Date: Tue Nov 19 11:01:24 EST 2019
User: vgr7
Spectrometer: USB2G7710
Scans to average: 3
Trigger mode: 4
Integration Time (sec): 2.000000E-2
Electric dark correction enabled: true
Boxcar width: 10
XAxis mode: Wavelengths
Number of Pixels in Spectrum: 2048
>>>>>Begin Spectral Data<<<<<
177.721	-5.05
178.105	-3.9
178.488	277.57
178.871	0
179.254	-31.03
179.636	546.43
180.019	-64.95
180.402	9.09
180.785	-195.65
181.168	-37.85
181.55	4.11
181.933	47.07
182.316	13.61
182.698	40.62
183.081	-471.43
183.463	-117.39
183.846	-44.04
184.228	-101.83
184.611	19.86
184.993	-32.23
185.376	-38.04
185.758	-18.41
186.14	-32.64
186.522	-25.64
186.904	5.33
187.287	21.23
187.669	22.27
188.051	-1.75
188.433	-11.64
188.815	-22.62
189.197	-19.27
189.579	-15.05
189.961	-18
190.342	-17.65
190.724	-23.03
191.106	-32.28
191.488	-39.25
191.869	-35.06
192.251	-35.68
192.633	-29.92
193.014	-21.6
193.396	-17.38
193.777	-22.5
194.159	-17.37
194.54	-15.47
194.922	-25.42
195.303	-25.59
195.684	-27.32
196.065	-31.6
196.447	-28.33
196.828	-27.26
197.209	-23.55
197.59	-20.73
197.971	-22.46
198.352	-26.51
198.733	-20.92
199.114	-20.82
199.495	-16.19
199.876	-14.17
200.257	-9.19
200.638	-13.91
201.018	-10.19
201.399	-12.08
201.78	-8.21
202.16	-12.21
202.541	-23.76
202.922	-21.07
203.302	-26.83
203.683	-31.96
204.063	-24.95
204.444	-25.55
204.824	-19.6
205.204	-27.64
205.585	-32.22
205.965	-38.31
206.345	-40.32
206.725	-47.92
207.106	-45.84
207.486	-61.12
207.866	-50.21
208.246	-49.73
208.626	-50.94
209.006	-63.95
209.386	-69.95
209.766	-68.24
210.145	-54.05
210.525	-61.33
210.905	-54.49
211.285	-42.86
211.664	-24.35
212.044	-19.23
212.424	-21.42
212.803	-26.83
213.183	-28.82
213.562	-22.88
213.942	-19.32
214.321	-13.06
214.701	-12.1
215.08	-10.54
215.459	-2.91
215.838	-13.27
216.218	-25.2
216.597	-22.16
216.976	-20.63
217.355	-17.59
217.734	-21.93
218.113	-28.07
218.492	-22.52
218.871	-27.02
219.25	-30.91
219.629	-44.29
220.008	-47.01
220.387	-40.39
220.766	-32.67
221.144	-37.28
221.523	-45.81
221.902	-36.22
222.28	-33.64
222.659	-23.81
223.037	-21.99
223.416	-22.86
223.794	-22.73
224.173	-17.96
224.551	-16.6
224.929	-15.11
225.308	-12.35
225.686	-10.63
226.064	-9.06
226.442	-5.77
226.821	-1.36
227.199	-1.89
227.577	-0.37
227.955	0.16
228.333	1.02
228.711	-0.51
229.089	4.32
229.467	6.07
229.845	7.02
230.222	7.74
230.6	6.06
230.978	5.44
231.356	6.29
231.733	8.78
232.111	7.06
232.488	6.27
232.866	7.17
233.243	6.67
233.621	8.58
233.998	7.73
234.376	8.08
234.753	5.85
235.13	4.47
235.508	3.82
235.885	3.74
236.262	3.32
236.639	3.61
237.016	4.89
237.393	4.88
237.77	4.54
238.147	3.92
238.524	5.79
238.901	5.42
239.278	4.56
239.655	4.3
240.032	4.79
240.409	4.97
240.785	5.63
241.162	6.79
241.539	6.57
241.915	6.92
242.292	6.66
242.668	6.91
243.045	6.99
243.421	6.9
243.798	6.71
244.174	6.58
244.551	6.83
244.927	6.26
245.303	6.33
245.679	6.42
246.056	6.49
246.432	6.48
246.808	6.58
247.184	6.91
247.56	6.82
247.936	6.89
248.312	6.9
248.688	6.78
249.064	6.31
249.44	6.21
249.815	6.16
250.191	6.14
250.567	6.11
250.943	6.08
251.318	6.09
251.694	6.22
252.069	6.23
252.445	6.35
252.82	6.83
253.196	6.85
253.571	7.01
253.947	6.9
254.322	6.51
254.697	6.7
255.073	6.45
255.448	6.49
255.823	6.61
256.198	6.46
256.573	6.15
256.948	6.28
257.323	6.35
257.698	6.29
258.073	6.09
258.448	5.98
258.823	5.96
259.198	5.97
259.573	5.88
259.948	5.93
260.322	5.69
260.697	5.52
261.072	5.52
261.446	5.38
261.821	5.37
262.195	5.4
262.57	5.26
262.944	5.32
263.319	5.39
263.693	5.21
264.067	5.21
264.442	5.15
264.816	5.13
265.19	4.76
265.564	4.57
265.938	4.74
266.313	4.6
266.687	4.52
267.061	4.44
267.435	4.68
267.809	4.67
268.183	4.75
268.556	4.68
268.93	4.7
269.304	4.57
269.678	4.53
270.051	4.7
270.425	4.67
270.799	4.6
271.172	4.58
271.546	4.77
271.919	4.73
272.293	4.81
272.666	4.81
273.04	5.08
273.413	5.2
273.787	5.07
274.16	5.23
274.533	5.36
274.906	5.41
275.279	5.23
275.653	5.22
276.026	5.33
276.399	5.43
276.772	5.25
277.145	5.41
277.518	5.33
277.891	5.08
278.263	5.21
278.636	5.21
279.009	5.14
279.382	4.95
279.755	5.11
280.127	4.98
280.5	4.81
280.872	4.81
281.245	4.86
281.617	4.95
281.99	4.89
282.362	4.88
282.735	4.91
283.107	4.88
283.479	4.88
283.852	4.8
284.224	4.78
284.596	5
284.968	4.97
285.34	5.09
285.713	5.36
286.085	5.23
286.457	5.37
286.829	5.39
287.201	5.46
287.572	5.48
287.944	5.7
288.316	5.83
288.688	5.96
289.06	6.04
289.431	6.09
289.803	6.32
290.175	6.32
290.546	6.42
290.918	6.57
291.289	6.44
291.661	6.65
292.032	6.86
292.403	6.78
292.775	7
293.146	7.18
293.517	7.05
293.889	7.22
294.26	7.29
294.631	7.49
295.002	7.55
295.373	7.7
295.744	7.73
296.115	7.87
296.486	7.83
296.857	8.01
297.228	8.1
297.599	8.04
297.97	8.23
298.34	8.3
298.711	8.42
299.082	8.71
299.452	8.64
299.823	8.58
300.194	8.76
300.564	8.76
300.935	8.83
301.305	9.05
301.676	9.11
302.046	9.21
302.416	9.18
302.787	9.42
303.157	9.34
303.527	9.56
303.897	9.53
304.267	9.73
304.637	9.75
305.008	9.77
305.378	10.02
305.748	10.25
306.117	10.35
306.487	10.47
306.857	10.55
307.227	10.78
307.597	10.98
307.967	11.09
308.336	11.2
308.706	11.28
309.076	11.38
309.445	11.69
309.815	11.84
310.184	11.85
310.554	11.99
310.923	12.27
311.293	12.34
311.662	12.6
312.031	12.66
312.401	12.74
312.77	13.02
313.139	13.12
313.508	13.16
313.877	13.28
314.246	13.41
314.616	13.72
314.985	13.78
315.353	13.94
315.722	14.2
316.091	14.3
316.46	14.49
316.829	14.72
317.198	14.86
317.567	15.06
317.935	15.45
318.304	15.65
318.672	15.76
319.041	15.95
319.41	16.02
319.778	16.18
320.147	16.23
320.515	16.34
320.883	16.34
321.252	16.42
321.62	16.6
321.988	16.81
322.357	16.78
322.725	16.91
323.093	17
323.461	17.25
323.829	17.47
324.197	17.56
324.565	17.7
324.933	17.58
325.301	17.54
325.669	17.6
326.037	17.56
326.405	17.53
326.772	17.6
327.14	17.66
327.508	17.68
327.875	17.87
328.243	17.85
328.61	17.95
328.978	18.14
329.346	18.23
329.713	18.21
330.08	18.2
330.448	18.34
330.815	18.55
331.182	18.41
331.55	18.44
331.917	18.64
332.284	18.5
332.651	18.69
333.018	18.71
333.385	18.76
333.752	18.83
334.119	19.05
334.486	18.97
334.853	19.02
335.22	19.11
335.587	19.02
335.954	19.11
336.32	19.17
336.687	19.13
337.054	19.12
337.42	19.15
337.787	19.29
338.153	19.28
338.52	19.22
338.886	19.29
339.253	19.3
339.619	19.23
339.986	19.31
340.352	19.4
340.718	19.5
341.084	19.54
341.451	19.66
341.817	19.62
342.183	19.74
342.549	19.69
342.915	19.74
343.281	19.86
343.647	19.87
344.013	19.89
344.379	19.85
344.745	19.96
345.11	19.98
345.476	19.97
345.842	20.08
346.208	20.12
346.573	20.19
346.939	20.13
347.304	20.14
347.67	20.15
348.035	20.12
348.401	20.11
348.766	20.21
349.132	20.13
349.497	20.07
349.862	19.99
350.228	20.03
350.593	20.07
350.958	20.07
351.323	20.04
351.688	20.08
352.053	20.12
352.418	20
352.783	20.03
353.148	19.9
353.513	19.81
353.878	19.66
354.243	19.5
354.608	19.54
354.972	19.5
355.337	19.5
355.702	19.45
356.066	19.45
356.431	19.3
356.795	19.3
357.16	19.3
357.524	19.32
357.889	19.32
358.253	19.18
358.618	19.04
358.982	19.03
359.346	18.98
359.71	18.86
360.075	18.75
360.439	18.72
360.803	18.74
361.167	18.65
361.531	18.7
361.895	18.73
362.259	18.71
362.623	18.65
362.987	18.6
363.351	18.52
363.714	18.48
364.078	18.38
364.442	18.26
364.806	18.16
365.169	18.07
365.533	17.93
365.896	17.88
366.26	17.83
366.623	17.74
366.987	17.61
367.35	17.55
367.714	17.55
368.077	17.35
368.44	17.26
368.803	17.11
369.167	16.96
369.53	16.79
369.893	16.57
370.256	16.46
370.619	16.3
370.982	16.15
371.345	16.01
371.708	15.91
372.071	15.75
372.434	15.65
372.797	15.5
373.159	15.38
373.522	15.21
373.885	15.11
374.247	14.94
374.61	14.84
374.973	14.71
375.335	14.54
375.698	14.45
376.06	14.24
376.423	14.18
376.785	14.02
377.147	13.92
377.51	13.86
377.872	13.72
378.234	13.61
378.596	13.48
378.958	13.34
379.321	13.26
379.683	13.21
380.045	13.06
380.407	12.9
380.769	12.81
381.13	12.71
381.492	12.57
381.854	12.46
382.216	12.38
382.578	12.3
382.939	12.17
383.301	12.05
383.663	11.99
384.024	11.87
384.386	11.83
384.747	11.74
385.109	11.64
385.47	11.58
385.832	11.51
386.193	11.44
386.554	11.31
386.916	11.22
387.277	11.11
387.638	11.03
387.999	10.99
388.36	10.95
388.721	10.89
389.082	10.85
389.443	10.78
389.804	10.66
390.165	10.6
390.526	10.52
390.887	10.47
391.248	10.38
391.609	10.38
391.969	10.28
392.33	10.18
392.691	10.12
393.051	9.98
393.412	9.87
393.772	9.78
394.133	9.71
394.493	9.65
394.854	9.58
395.214	9.48
395.574	9.38
395.935	9.29
396.295	9.2
396.655	9.1
397.015	9.03
397.376	8.95
397.736	8.82
398.096	8.73
398.456	8.62
398.816	8.55
399.176	8.41
399.535	8.34
399.895	8.28
400.255	8.23
400.615	8.2
400.975	8.12
401.334	8.04
401.694	8.02
402.054	7.92
402.413	7.86
402.773	7.82
403.132	7.78
403.492	7.71
403.851	7.65
404.211	7.6
404.57	7.55
404.929	7.5
405.288	7.49
405.648	7.48
406.007	7.44
406.366	7.41
406.725	7.35
407.084	7.32
407.443	7.3
407.802	7.24
408.161	7.22
408.52	7.2
408.879	7.17
409.238	7.13
409.596	7.14
409.955	7.07
410.314	7.05
410.673	7.03
411.031	6.98
411.39	6.98
411.748	6.95
412.107	6.87
412.465	6.85
412.824	6.78
413.182	6.73
413.54	6.69
413.899	6.68
414.257	6.67
414.615	6.63
414.974	6.58
415.332	6.56
415.69	6.5
416.048	6.48
416.406	6.44
416.764	6.4
417.122	6.34
417.48	6.32
417.838	6.29
418.195	6.23
418.553	6.21
418.911	6.18
419.269	6.15
419.626	6.15
419.984	6.11
420.342	6.07
420.699	6.04
421.057	6.01
421.414	5.98
421.772	5.93
422.129	5.9
422.486	5.87
422.844	5.84
423.201	5.81
423.558	5.77
423.915	5.75
424.273	5.72
424.63	5.69
424.987	5.67
425.344	5.65
425.701	5.63
426.058	5.61
426.415	5.56
426.772	5.54
427.128	5.52
427.485	5.5
427.842	5.5
428.199	5.48
428.555	5.45
428.912	5.41
429.269	5.41
429.625	5.39
429.982	5.37
430.338	5.36
430.695	5.34
431.051	5.33
431.407	5.31
431.764	5.3
432.12	5.3
432.476	5.3
432.832	5.3
433.189	5.31
433.545	5.3
433.901	5.29
434.257	5.28
434.613	5.25
434.969	5.25
435.325	5.24
435.681	5.25
436.036	5.26
436.392	5.27
436.748	5.28
437.104	5.25
437.459	5.26
437.815	5.25
438.171	5.25
438.526	5.24
438.882	5.27
439.237	5.28
439.593	5.29
439.948	5.28
440.304	5.26
440.659	5.24
441.014	5.23
441.369	5.23
441.725	5.21
442.08	5.22
442.435	5.21
442.79	5.2
443.145	5.2
443.5	5.18
443.855	5.17
444.21	5.15
444.565	5.14
444.92	5.13
445.275	5.12
445.629	5.1
445.984	5.1
446.339	5.06
446.693	5.05
447.048	5.02
447.403	5.01
447.757	5
448.112	4.97
448.466	4.96
448.82	4.95
449.175	4.93
449.529	4.91
449.883	4.88
450.238	4.86
450.592	4.84
450.946	4.82
451.3	4.79
451.654	4.77
452.008	4.77
452.362	4.74
452.716	4.72
453.07	4.7
453.424	4.7
453.778	4.69
454.132	4.68
454.486	4.67
454.839	4.65
455.193	4.64
455.547	4.66
455.9	4.65
456.254	4.65
456.607	4.66
456.961	4.66
457.314	4.68
457.668	4.67
458.021	4.66
458.375	4.67
458.728	4.68
459.081	4.69
459.434	4.7
459.787	4.71
460.141	4.73
460.494	4.74
460.847	4.74
461.2	4.72
461.553	4.72
461.906	4.73
462.259	4.72
462.611	4.75
462.964	4.76
463.317	4.78
463.67	4.79
464.022	4.8
464.375	4.82
464.728	4.82
465.08	4.84
465.433	4.85
465.785	4.88
466.138	4.89
466.49	4.89
466.843	4.93
467.195	4.96
467.547	4.96
467.899	4.99
468.252	5
468.604	5.05
468.956	5.08
469.308	5.1
469.66	5.14
470.012	5.14
470.364	5.16
470.716	5.2
471.068	5.22
471.42	5.23
471.772	5.26
472.123	5.28
472.475	5.31
472.827	5.35
473.178	5.35
473.53	5.37
473.882	5.38
474.233	5.35
474.585	5.34
474.936	5.37
475.288	5.36
475.639	5.38
475.99	5.38
476.342	5.37
476.693	5.37
477.044	5.37
477.395	5.37
477.746	5.35
478.097	5.35
478.448	5.33
478.8	5.33
479.15	5.32
479.501	5.31
479.852	5.3
480.203	5.28
480.554	5.28
480.905	5.27
481.255	5.28
481.606	5.28
481.957	5.28
482.307	5.28
482.658	5.28
483.009	5.27
483.359	5.26
483.709	5.26
484.06	5.25
484.41	5.24
484.761	5.25
485.111	5.24
485.461	5.23
485.811	5.22
486.162	5.22
486.512	5.22
486.862	5.21
487.212	5.22
487.562	5.21
487.912	5.21
488.262	5.21
488.612	5.2
488.961	5.2
489.311	5.19
489.661	5.18
490.011	5.18
490.36	5.17
490.71	5.19
491.06	5.2
491.409	5.2
491.759	5.2
492.108	5.21
492.458	5.23
492.807	5.25
493.157	5.29
493.506	5.28
493.855	5.3
494.204	5.32
494.554	5.33
494.903	5.36
495.252	5.38
495.601	5.44
495.95	5.47
496.299	5.52
496.648	5.56
496.997	5.62
497.346	5.68
497.695	5.74
498.043	5.79
498.392	5.84
498.741	5.91
499.09	5.96
499.438	6.03
499.787	6.08
500.135	6.16
500.484	6.22
500.832	6.3
501.181	6.38
501.529	6.48
501.878	6.55
502.226	6.64
502.574	6.73
502.923	6.77
503.271	6.88
503.619	6.98
503.967	7.08
504.315	7.17
504.663	7.26
505.011	7.37
505.359	7.46
505.707	7.58
506.055	7.66
506.403	7.79
506.751	7.91
507.098	8.04
507.446	8.15
507.794	8.25
508.141	8.4
508.489	8.52
508.837	8.62
509.184	8.74
509.531	8.86
509.879	8.99
510.226	9.13
510.574	9.23
510.921	9.35
511.268	9.51
511.616	9.66
511.963	9.81
512.31	9.96
512.657	10.13
513.004	10.29
513.351	10.48
513.698	10.66
514.045	10.81
514.392	10.97
514.739	11.15
515.086	11.36
515.432	11.53
515.779	11.72
516.126	11.91
516.473	12.08
516.819	12.26
517.166	12.41
517.512	12.57
517.859	12.78
518.205	12.94
518.552	13.09
518.898	13.24
519.245	13.4
519.591	13.55
519.937	13.7
520.283	13.86
520.629	14.03
520.976	14.19
521.322	14.42
521.668	14.63
522.014	14.82
522.36	15.03
522.706	15.24
523.052	15.48
523.398	15.72
523.743	16.02
524.089	16.29
524.435	16.56
524.781	16.81
525.126	17.02
525.472	17.22
525.817	17.39
526.163	17.55
526.509	17.7
526.854	17.85
527.199	18
527.545	18.12
527.89	18.24
528.235	18.39
528.581	18.5
528.926	18.64
529.271	18.79
529.616	18.94
529.961	19.08
530.306	19.23
530.651	19.38
530.996	19.52
531.341	19.68
531.686	19.85
532.031	19.98
532.376	20.16
532.721	20.35
533.065	20.53
533.41	20.74
533.755	20.96
534.099	21.15
534.444	21.34
534.788	21.55
535.133	21.76
535.477	21.96
535.822	22.16
536.166	22.41
536.51	22.65
536.855	22.87
537.199	23.16
537.543	23.42
537.887	23.68
538.231	23.96
538.576	24.24
538.92	24.48
539.264	24.74
539.608	24.99
539.951	25.2
540.295	25.46
540.639	25.67
540.983	25.9
541.327	26.1
541.671	26.31
542.014	26.54
542.358	26.74
542.701	26.92
543.045	27.16
543.389	27.36
543.732	27.57
544.075	27.82
544.419	28
544.762	28.23
545.105	28.48
545.449	28.74
545.792	28.98
546.135	29.27
546.478	29.57
546.821	29.84
547.165	30.1
547.508	30.38
547.851	30.67
548.194	30.92
548.536	31.26
548.879	31.56
549.222	31.87
549.565	32.21
549.908	32.54
550.25	32.8
550.593	33.09
550.936	33.41
551.278	33.72
551.621	34.06
551.963	34.38
552.306	34.74
552.648	35
552.991	35.28
553.333	35.58
553.675	35.84
554.017	36.16
554.36	36.48
554.702	36.8
555.044	37.11
555.386	37.36
555.728	37.65
556.07	37.97
556.412	38.28
556.754	38.53
557.096	38.88
557.438	39.22
557.78	39.55
558.121	39.89
558.463	40.11
558.805	40.41
559.147	40.67
559.488	40.94
559.83	41.23
560.171	41.54
560.513	41.81
560.854	42.08
561.196	42.34
561.537	42.67
561.878	42.95
562.22	43.2
562.561	43.5
562.902	43.78
563.243	44
563.584	44.23
563.925	44.49
564.266	44.71
564.607	44.92
564.948	45.15
565.289	45.41
565.63	45.74
565.971	45.95
566.312	46.2
566.653	46.44
566.993	46.71
567.334	47
567.675	47.23
568.015	47.45
568.356	47.7
568.696	47.88
569.037	48.14
569.377	48.34
569.718	48.54
570.058	48.78
570.398	49.05
570.739	49.29
571.079	49.45
571.419	49.75
571.759	49.94
572.099	50.16
572.439	50.33
572.779	50.45
573.119	50.6
573.459	50.79
573.799	50.95
574.139	51.07
574.479	51.18
574.819	51.43
575.158	51.66
575.498	51.8
575.838	51.95
576.177	52.06
576.517	52.34
576.856	52.56
577.196	52.71
577.535	52.88
577.875	53.04
578.214	53.27
578.553	53.35
578.893	53.58
579.232	53.68
579.571	53.89
579.91	54.08
580.25	54.32
580.589	54.51
580.928	54.63
581.267	54.79
581.606	54.97
581.945	55.06
582.283	55.16
582.622	55.3
582.961	55.46
583.3	55.64
583.639	55.68
583.977	55.73
584.316	55.81
584.654	55.99
584.993	56.14
585.332	56.3
585.67	56.5
586.008	56.68
586.347	56.88
586.685	56.95
587.024	57.14
587.362	57.3
587.7	57.42
588.038	57.59
588.376	57.71
588.715	57.8
589.053	57.88
589.391	58.1
589.729	58.25
590.067	58.35
590.404	58.41
590.742	58.49
591.08	58.69
591.418	58.86
591.756	58.87
592.093	58.96
592.431	59.02
592.769	59.02
593.106	59.07
593.444	59.09
593.781	59.17
594.119	59.23
594.456	59.23
594.793	59.34
595.131	59.45
595.468	59.65
595.805	59.71
596.143	59.69
596.48	59.76
596.817	59.83
597.154	59.9
597.491	59.98
597.828	60.14
598.165	60.17
598.502	60.24
598.839	60.3
599.176	60.39
599.512	60.47
599.849	60.62
600.186	60.65
600.523	60.69
600.859	60.71
601.196	60.75
601.532	60.87
601.869	60.86
602.205	60.83
602.542	60.87
602.878	60.95
603.215	61.17
603.551	61.09
603.887	61.11
604.223	61.2
604.56	61.21
604.896	61.18
605.232	61.26
605.568	61.27
605.904	61.36
606.24	61.42
606.576	61.49
606.912	61.51
607.248	61.63
607.583	61.75
607.919	61.78
608.255	61.79
608.591	61.78
608.926	61.83
609.262	61.87
609.597	61.97
609.933	62.08
610.268	62.07
610.604	62.19
610.939	62.25
611.275	62.23
611.61	62.35
611.945	62.34
612.281	62.38
612.616	62.47
612.951	62.46
613.286	62.43
613.621	62.48
613.956	62.51
614.291	62.56
614.626	62.51
614.961	62.63
615.296	62.67
615.631	62.8
615.966	62.88
616.3	63.01
616.635	62.87
616.97	62.78
617.304	62.71
617.639	62.74
617.973	62.81
618.308	62.87
618.642	62.87
618.977	62.94
619.311	62.98
619.646	63.03
619.98	63.13
620.314	63.17
620.648	63.25
620.983	63.31
621.317	63.24
621.651	63.36
621.985	63.38
622.319	63.49
622.653	63.56
622.987	63.61
623.321	63.53
623.655	63.62
623.988	63.69
624.322	63.77
624.656	63.74
624.99	63.64
625.323	63.62
625.657	63.59
625.99	63.61
626.324	63.6
626.657	63.49
626.991	63.47
627.324	63.48
627.658	63.5
627.991	63.58
628.324	63.67
628.657	63.72
628.991	63.78
629.324	63.76
629.657	63.65
629.99	63.66
630.323	63.72
630.656	63.73
630.989	63.71
631.322	63.79
631.655	63.88
631.987	63.97
632.32	64.11
632.653	64.17
632.986	64.18
633.318	64.22
633.651	64.27
633.984	64.32
634.316	64.36
634.649	64.36
634.981	64.35
635.313	64.37
635.646	64.35
635.978	64.24
636.31	64.42
636.643	64.56
636.975	64.45
637.307	64.43
637.639	64.37
637.971	64.47
638.303	64.41
638.635	64.46
638.967	64.53
639.299	64.38
639.631	64.34
639.963	64.44
640.295	64.43
640.626	64.56
640.958	64.6
641.29	64.56
641.621	64.51
641.953	64.37
642.285	64.31
642.616	64.38
642.948	64.5
643.279	64.44
643.61	64.39
643.942	64.51
644.273	64.59
644.604	64.67
644.936	64.59
645.267	64.66
645.598	64.66
645.929	64.65
646.26	64.77
646.591	64.73
646.922	64.62
647.253	64.61
647.584	64.49
647.915	64.59
648.245	64.67
648.576	64.87
648.907	65.02
649.238	64.97
649.568	65.04
649.899	65.04
650.229	64.92
650.56	64.95
650.89	64.89
651.221	64.97
651.551	64.99
651.882	64.91
652.212	64.9
652.542	64.94
652.872	64.91
653.203	64.93
653.533	65.04
653.863	65.12
654.193	65.14
654.523	65.35
654.853	65.27
655.183	65.08
655.513	64.96
655.843	64.97
656.172	65.06
656.502	64.97
656.832	65.05
657.162	65.18
657.491	65.23
657.821	65.28
658.15	65.24
658.48	65.35
658.809	65.48
659.139	65.42
659.468	65.37
659.798	65.42
660.127	65.4
660.456	65.43
660.785	65.5
661.115	65.43
661.444	65.37
661.773	65.41
