Data from BU57994_Reflection_00004.txt Node
Date: Mon Nov 18 16:53:03 EST 2019
User: vgr7
Spectrometer: USB2G7710
Scans to average: 3
Trigger mode: 4
Integration Time (sec): 2.000000E-2
Electric dark correction enabled: true
Boxcar width: 10
XAxis mode: Wavelengths
Number of Pixels in Spectrum: 2048
>>>>>Begin Spectral Data<<<<<
177.721	20.52
178.105	49.55
178.488	-10.89
178.871	-52.71
179.254	-162.23
179.636	-98.93
180.019	-229.63
180.402	48.08
180.785	180.5
181.168	-1993.75
181.55	205.71
181.933	137.21
182.316	136.46
182.698	137.97
183.081	91.08
183.463	83.28
183.846	132.96
184.228	151.22
184.611	201.19
184.993	1804.7
185.376	-276.54
185.758	-903.46
186.14	-685.5
186.522	-320.02
186.904	-482.47
187.287	-451.51
187.669	-234.25
188.051	-370.4
188.433	-358.16
188.815	-210.59
189.197	-201.63
189.579	-169.89
189.961	-126.33
190.342	-129.04
190.724	-123.25
191.106	-102.89
191.488	-86.84
191.869	-95.44
192.251	-97.56
192.633	-103.25
193.014	-104.23
193.396	-161.06
193.777	-138.11
194.159	-162.21
194.54	-173.6
194.922	-142.84
195.303	-181.04
195.684	-216.28
196.065	-162.41
196.447	-151.48
196.828	-190.68
197.209	-182.98
197.59	-169.18
197.971	-175.18
198.352	-96.58
198.733	-83.23
199.114	-64.39
199.495	-64.91
199.876	-65.89
200.257	-72.41
200.638	-64.42
201.018	-83.38
201.399	-69.21
201.78	-68.95
202.16	-77.33
202.541	-95.48
202.922	-153.58
203.302	-124.66
203.683	-122.15
204.063	-120.59
204.444	-94.15
204.824	-90
205.204	-81.36
205.585	-80.8
205.965	-77.4
206.345	-115.42
206.725	-124.83
207.106	-195.09
207.486	-263.64
207.866	-250.82
208.246	-282.53
208.626	-294.32
209.006	-243
209.386	-272.07
209.766	-208.17
210.145	-181.95
210.525	-135.58
210.905	-96.52
211.285	-95.67
211.664	-93.9
212.044	-98.32
212.424	-105.57
212.803	-110.72
213.183	-110.74
213.562	-86.56
213.942	-84.8
214.321	-56.13
214.701	-63.89
215.08	-60.08
215.459	-61.49
215.838	-49.91
216.218	-45
216.597	-47.47
216.976	-40.94
217.355	-41.96
217.734	-43
218.113	-38.28
218.492	-44.12
218.871	-45.67
219.25	-46.29
219.629	-47.69
220.008	-47.93
220.387	-50.93
220.766	-68.02
221.144	-70.34
221.523	-83.24
221.902	-85.27
222.28	-106.17
222.659	-98.95
223.037	-77.15
223.416	-65.07
223.794	-72.1
224.173	-66.64
224.551	-55.62
224.929	-63.19
225.308	-44.94
225.686	-37.99
226.064	-35.58
226.442	-24.86
226.821	-21.46
227.199	-19.89
227.577	-18.22
227.955	-15.16
228.333	-13.62
228.711	-4.12
229.089	-2.36
229.467	-4.05
229.845	-5.03
230.222	-1.78
230.6	-0.89
230.978	-2.53
231.356	-1.2
231.733	0.1
232.111	1.42
232.488	2.04
232.866	7.68
233.243	7.53
233.621	5.75
233.998	5.62
234.376	5.48
234.753	3.63
235.13	3.77
235.508	4.52
235.885	3.55
236.262	1.11
236.639	-1.07
237.016	-0.89
237.393	0.48
237.77	1.84
238.147	1.77
238.524	2.48
238.901	4.22
239.278	3.92
239.655	4.59
240.032	4.79
240.409	4.39
240.785	3.64
241.162	3.65
241.539	4.22
241.915	4.49
242.292	4.06
242.668	4.63
243.045	4.72
243.421	4.45
243.798	4.51
244.174	4.73
244.551	4.57
244.927	4.22
245.303	4.62
245.679	4.55
246.056	4.38
246.432	4.33
246.808	4.02
247.184	3.69
247.56	3.73
247.936	3.6
248.312	3.63
248.688	3.69
249.064	3.64
249.44	3.48
249.815	3.65
250.191	3.85
250.567	3.89
250.943	3.94
251.318	4.01
251.694	4
252.069	3.96
252.445	4.09
252.82	4.16
253.196	3.59
253.571	3.46
253.947	3.62
254.322	3.51
254.697	3.59
255.073	3.8
255.448	3.59
255.823	3.53
256.198	3.63
256.573	3.44
256.948	3.64
257.323	3.84
257.698	3.76
258.073	3.93
258.448	3.87
258.823	3.95
259.198	3.97
259.573	3.99
259.948	4.18
260.322	4.28
260.697	4.33
261.072	4.45
261.446	4.51
261.821	4.41
262.195	4.48
262.57	4.55
262.944	4.56
263.319	4.64
263.693	4.71
264.067	4.78
264.442	5
264.816	5.01
265.19	4.88
265.564	4.91
265.938	4.69
266.313	4.73
266.687	4.84
267.061	4.66
267.435	4.75
267.809	4.57
268.183	4.55
268.556	4.46
268.93	4.55
269.304	4.73
269.678	5.03
270.051	4.99
270.425	5
270.799	5.03
271.172	5.02
271.546	5.14
271.919	5.04
272.293	4.81
272.666	4.8
273.04	4.88
273.413	4.86
273.787	4.9
274.16	4.78
274.533	4.67
274.906	4.83
275.279	4.77
275.653	4.91
276.026	4.87
276.399	4.91
276.772	4.81
277.145	4.63
277.518	4.52
277.891	4.64
278.263	4.35
278.636	4.31
279.009	4.43
279.382	4.46
279.755	4.44
280.127	4.58
280.5	4.64
280.872	4.68
281.245	4.69
281.617	4.7
281.99	4.84
282.362	5.01
282.735	4.81
283.107	4.77
283.479	4.78
283.852	4.74
284.224	4.8
284.596	4.72
284.968	4.7
285.34	4.67
285.713	4.6
286.085	4.73
286.457	4.74
286.829	4.65
287.201	4.6
287.572	4.53
287.944	4.54
288.316	4.55
288.688	4.46
289.06	4.38
289.431	4.37
289.803	4.36
290.175	4.22
290.546	4.25
290.918	4.26
291.289	4.2
291.661	4.28
292.032	4.27
292.403	4.41
292.775	4.46
293.146	4.41
293.517	4.43
293.889	4.54
294.26	4.53
294.631	4.57
295.002	4.48
295.373	4.6
295.744	4.66
296.115	4.68
296.486	4.62
296.857	4.67
297.228	4.74
297.599	4.77
297.97	4.76
298.34	4.81
298.711	4.9
299.082	4.83
299.452	4.84
299.823	4.95
300.194	4.91
300.564	4.83
300.935	4.95
301.305	4.95
301.676	4.92
302.046	4.93
302.416	5.03
302.787	5.07
303.157	5.15
303.527	5.18
303.897	5.07
304.267	5.33
304.637	5.44
305.008	5.47
305.378	5.5
305.748	5.56
306.117	5.6
306.487	5.45
306.857	5.47
307.227	5.49
307.597	5.37
307.967	5.35
308.336	5.5
308.706	5.53
309.076	5.51
309.445	5.55
309.815	5.58
310.184	5.56
310.554	5.67
310.923	5.6
311.293	5.57
311.662	5.56
312.031	5.43
312.401	5.4
312.77	5.49
313.139	5.45
313.508	5.44
313.877	5.52
314.246	5.58
314.616	5.72
314.985	5.69
315.353	5.65
315.722	5.69
316.091	5.69
316.46	5.58
316.829	5.53
317.198	5.52
317.567	5.61
317.935	5.47
318.304	5.33
318.672	5.29
319.041	5.16
319.41	5.21
319.778	5.2
320.147	5.25
320.515	5.07
320.883	5.03
321.252	5.05
321.62	4.98
321.988	5.07
322.357	4.96
322.725	4.96
323.093	5.14
323.461	5.13
323.829	5.04
324.197	5.03
324.565	4.97
324.933	4.99
325.301	4.87
325.669	4.97
326.037	4.92
326.405	4.96
326.772	5.08
327.14	5.19
327.508	5.06
327.875	4.99
328.243	5.06
328.61	5.14
328.978	5.09
329.346	5.16
329.713	5.01
330.08	5.1
330.448	4.93
330.815	4.84
331.182	4.83
331.55	4.92
331.917	5.03
332.284	5.24
332.651	5.19
333.018	5.2
333.385	5.09
333.752	5.15
334.119	5.19
334.486	5.07
334.853	4.92
335.22	5.02
335.587	4.97
335.954	4.89
336.32	4.75
336.687	4.74
337.054	4.79
337.42	4.82
337.787	4.75
338.153	4.87
338.52	4.81
338.886	4.78
339.253	4.66
339.619	4.58
339.986	4.56
340.352	4.59
340.718	4.66
341.084	4.7
341.451	4.73
341.817	4.78
342.183	4.87
342.549	4.98
342.915	5
343.281	5.02
343.647	5.08
344.013	5.19
344.379	5.25
344.745	5.18
345.11	5.14
345.476	5.19
345.842	5.17
346.208	5.16
346.573	5.25
346.939	5.37
347.304	5.32
347.67	5.27
348.035	5.25
348.401	5.25
348.766	5.33
349.132	5.26
349.497	5.23
349.862	5.17
350.228	5.11
350.593	5.08
350.958	5.1
351.323	5.03
351.688	4.98
352.053	4.92
352.418	4.93
352.783	5.07
353.148	5.02
353.513	5.1
353.878	5.13
354.243	5.09
354.608	5.03
354.972	5.08
355.337	5.07
355.702	5.05
356.066	5.04
356.431	4.99
356.795	5.06
357.16	5.04
357.524	5.03
357.889	5.02
358.253	5.05
358.618	5.1
358.982	5.1
359.346	5.12
359.71	5.07
360.075	5.06
360.439	4.96
360.803	4.96
361.167	4.92
361.531	4.89
361.895	4.86
362.259	4.85
362.623	4.8
362.987	4.76
363.351	4.79
363.714	4.76
364.078	4.74
364.442	4.66
364.806	4.63
365.169	4.6
365.533	4.56
365.896	4.51
366.26	4.44
366.623	4.46
366.987	4.45
367.35	4.49
367.714	4.55
368.077	4.55
368.44	4.58
368.803	4.59
369.167	4.57
369.53	4.56
369.893	4.64
370.256	4.67
370.619	4.71
370.982	4.66
371.345	4.73
371.708	4.82
372.071	4.9
372.434	4.85
372.797	4.89
373.159	4.87
373.522	4.93
373.885	4.93
374.247	4.94
374.61	4.92
374.973	4.92
375.335	4.92
375.698	4.96
376.06	4.98
376.423	4.98
376.785	5
377.147	5.09
377.51	5.03
377.872	5.12
378.234	5.17
378.596	5.16
378.958	5.13
379.321	5.1
379.683	5.12
380.045	5.12
380.407	5.13
380.769	5.16
381.13	5.17
381.492	5.17
381.854	5.17
382.216	5.16
382.578	5.23
382.939	5.16
383.301	5.16
383.663	5.13
384.024	5.12
384.386	5.16
384.747	5.14
385.109	5.16
385.47	5.11
385.832	5.05
386.193	5.07
386.554	5
386.916	4.99
387.277	4.94
387.638	5
387.999	5
388.36	5.05
388.721	5.06
389.082	5.06
389.443	5.02
389.804	5
390.165	4.98
390.526	4.98
390.887	4.95
391.248	4.93
391.609	4.94
391.969	4.92
392.33	4.89
392.691	4.86
393.051	4.87
393.412	4.93
393.772	4.91
394.133	4.93
394.493	4.95
394.854	4.94
395.214	4.94
395.574	4.93
395.935	4.9
396.295	4.89
396.655	4.88
397.015	4.88
397.376	4.91
397.736	4.9
398.096	4.91
398.456	4.9
398.816	4.94
399.176	4.91
399.535	4.87
399.895	4.87
400.255	4.87
400.615	4.86
400.975	4.81
401.334	4.82
401.694	4.84
402.054	4.83
402.413	4.85
402.773	4.81
403.132	4.8
403.492	4.81
403.851	4.82
404.211	4.82
404.57	4.82
404.929	4.84
405.288	4.85
405.648	4.85
406.007	4.87
406.366	4.85
406.725	4.87
407.084	4.93
407.443	4.92
407.802	4.94
408.161	4.93
408.52	4.91
408.879	4.93
409.238	4.91
409.596	4.89
409.955	4.89
410.314	4.91
410.673	4.94
411.031	4.92
411.39	4.92
411.748	4.95
412.107	4.99
412.465	4.97
412.824	4.94
413.182	4.95
413.54	4.97
413.899	4.99
414.257	4.97
414.615	4.94
414.974	4.98
415.332	4.97
415.69	4.97
416.048	5
416.406	5.01
416.764	4.98
417.122	4.98
417.48	4.96
417.838	4.97
418.195	4.96
418.553	4.97
418.911	4.96
419.269	4.96
419.626	4.94
419.984	4.94
420.342	4.95
420.699	4.92
421.057	4.9
421.414	4.89
421.772	4.89
422.129	4.89
422.486	4.88
422.844	4.88
423.201	4.87
423.558	4.86
423.915	4.86
424.273	4.88
424.63	4.88
424.987	4.9
425.344	4.89
425.701	4.87
426.058	4.87
426.415	4.88
426.772	4.84
427.128	4.83
427.485	4.82
427.842	4.82
428.199	4.83
428.555	4.86
428.912	4.87
429.269	4.88
429.625	4.87
429.982	4.86
430.338	4.84
430.695	4.85
431.051	4.83
431.407	4.83
431.764	4.84
432.12	4.81
432.476	4.81
432.832	4.79
433.189	4.79
433.545	4.78
433.901	4.77
434.257	4.79
434.613	4.82
434.969	4.84
435.325	4.82
435.681	4.82
436.036	4.8
436.392	4.78
436.748	4.78
437.104	4.78
437.459	4.79
437.815	4.81
438.171	4.81
438.526	4.83
438.882	4.83
439.237	4.83
439.593	4.86
439.948	4.86
440.304	4.87
440.659	4.88
441.014	4.89
441.369	4.87
441.725	4.87
442.08	4.88
442.435	4.88
442.79	4.87
443.145	4.87
443.5	4.89
443.855	4.89
444.21	4.89
444.565	4.89
444.92	4.89
445.275	4.89
445.629	4.89
445.984	4.88
446.339	4.87
446.693	4.84
447.048	4.82
447.403	4.81
447.757	4.81
448.112	4.81
448.466	4.81
448.82	4.84
449.175	4.83
449.529	4.82
449.883	4.81
450.238	4.81
450.592	4.82
450.946	4.8
451.3	4.81
451.654	4.79
452.008	4.79
452.362	4.78
452.716	4.77
453.07	4.75
453.424	4.74
453.778	4.74
454.132	4.76
454.486	4.76
454.839	4.75
455.193	4.76
455.547	4.74
455.9	4.73
456.254	4.73
456.607	4.75
456.961	4.76
457.314	4.77
457.668	4.77
458.021	4.76
458.375	4.76
458.728	4.76
459.081	4.79
459.434	4.76
459.787	4.77
460.141	4.76
460.494	4.76
460.847	4.78
461.2	4.78
461.553	4.79
461.906	4.8
462.259	4.81
462.611	4.81
462.964	4.82
463.317	4.81
463.67	4.8
464.022	4.79
464.375	4.76
464.728	4.76
465.08	4.77
465.433	4.77
465.785	4.78
466.138	4.78
466.49	4.78
466.843	4.79
467.195	4.8
467.547	4.82
467.899	4.84
468.252	4.83
468.604	4.82
468.956	4.81
469.308	4.83
469.66	4.83
470.012	4.81
470.364	4.84
470.716	4.85
471.068	4.85
471.42	4.86
471.772	4.87
472.123	4.85
472.475	4.86
472.827	4.89
473.178	4.88
473.53	4.88
473.882	4.88
474.233	4.91
474.585	4.89
474.936	4.87
475.288	4.86
475.639	4.87
475.99	4.9
476.342	4.91
476.693	4.9
477.044	4.9
477.395	4.89
477.746	4.87
478.097	4.88
478.448	4.89
478.8	4.9
479.15	4.89
479.501	4.91
479.852	4.91
480.203	4.91
480.554	4.92
480.905	4.93
481.255	4.93
481.606	4.92
481.957	4.94
482.307	4.95
482.658	4.97
483.009	4.99
483.359	4.99
483.709	4.99
484.06	4.98
484.41	4.98
484.761	4.99
485.111	5
485.461	5
485.811	5
486.162	4.99
486.512	5.01
486.862	5
487.212	5
487.562	5
487.912	4.99
488.262	4.99
488.612	4.99
488.961	4.99
489.311	4.99
489.661	4.99
490.011	4.97
490.36	4.95
490.71	4.95
491.06	4.96
491.409	4.96
491.759	4.96
492.108	4.95
492.458	4.95
492.807	4.93
493.157	4.95
493.506	4.97
493.855	4.96
494.204	4.94
494.554	4.94
494.903	4.92
495.252	4.93
495.601	4.93
495.95	4.94
496.299	4.93
496.648	4.92
496.997	4.93
497.346	4.95
497.695	4.95
498.043	4.95
498.392	4.95
498.741	4.97
499.09	4.96
499.438	4.98
499.787	4.97
500.135	4.99
500.484	4.98
500.832	4.98
501.181	4.97
501.529	5
501.878	5.04
502.226	5.05
502.574	5.07
502.923	5.07
503.271	5.06
503.619	5.08
503.967	5.09
504.315	5.09
504.663	5.09
505.011	5.11
505.359	5.09
505.707	5.1
506.055	5.09
506.403	5.11
506.751	5.13
507.098	5.13
507.446	5.16
507.794	5.15
508.141	5.15
508.489	5.18
508.837	5.18
509.184	5.17
509.531	5.19
509.879	5.22
510.226	5.24
510.574	5.27
510.921	5.27
511.268	5.27
511.616	5.27
511.963	5.27
512.31	5.26
512.657	5.29
513.004	5.3
513.351	5.34
513.698	5.32
514.045	5.31
514.392	5.33
514.739	5.32
515.086	5.33
515.432	5.32
515.779	5.32
516.126	5.33
516.473	5.36
516.819	5.37
517.166	5.33
517.512	5.32
517.859	5.33
518.205	5.33
518.552	5.33
518.898	5.34
519.245	5.35
519.591	5.35
519.937	5.35
520.283	5.34
520.629	5.32
520.976	5.35
521.322	5.36
521.668	5.36
522.014	5.39
522.36	5.41
522.706	5.42
523.052	5.42
523.398	5.43
523.743	5.41
524.089	5.4
524.435	5.43
524.781	5.44
525.126	5.45
525.472	5.46
525.817	5.47
526.163	5.47
526.509	5.48
526.854	5.49
527.199	5.5
527.545	5.51
527.89	5.53
528.235	5.53
528.581	5.53
528.926	5.53
529.271	5.52
529.616	5.52
529.961	5.53
530.306	5.54
530.651	5.54
530.996	5.55
531.341	5.55
531.686	5.54
532.031	5.55
532.376	5.53
532.721	5.54
533.065	5.53
533.41	5.52
533.755	5.52
534.099	5.52
534.444	5.51
534.788	5.53
535.133	5.51
535.477	5.5
535.822	5.5
536.166	5.47
536.51	5.5
536.855	5.5
537.199	5.49
537.543	5.49
537.887	5.5
538.231	5.49
538.576	5.49
538.92	5.5
539.264	5.5
539.608	5.5
539.951	5.49
540.295	5.5
540.639	5.5
540.983	5.51
541.327	5.51
541.671	5.51
542.014	5.49
542.358	5.5
542.701	5.53
543.045	5.54
543.389	5.56
543.732	5.53
544.075	5.54
544.419	5.54
544.762	5.52
545.105	5.53
545.449	5.53
545.792	5.53
546.135	5.53
546.478	5.52
546.821	5.52
547.165	5.52
547.508	5.54
547.851	5.54
548.194	5.55
548.536	5.54
548.879	5.53
549.222	5.54
549.565	5.53
549.908	5.53
550.25	5.49
550.593	5.48
550.936	5.47
551.278	5.44
551.621	5.46
551.963	5.45
552.306	5.44
552.648	5.46
552.991	5.48
553.333	5.48
553.675	5.48
554.017	5.5
554.36	5.47
554.702	5.48
555.044	5.46
555.386	5.46
555.728	5.42
556.07	5.44
556.412	5.42
556.754	5.45
557.096	5.42
557.438	5.43
557.78	5.45
558.121	5.48
558.463	5.48
558.805	5.43
559.147	5.43
559.488	5.45
559.83	5.45
560.171	5.47
560.513	5.47
560.854	5.47
561.196	5.45
561.537	5.49
561.878	5.46
562.22	5.48
562.561	5.45
562.902	5.49
563.243	5.48
563.584	5.5
563.925	5.47
564.266	5.47
564.607	5.51
564.948	5.51
565.289	5.47
565.63	5.51
565.971	5.55
566.312	5.55
566.653	5.54
566.993	5.49
567.334	5.46
567.675	5.48
568.015	5.5
568.356	5.49
568.696	5.51
569.037	5.5
569.377	5.52
569.718	5.53
570.058	5.53
570.398	5.56
570.739	5.55
571.079	5.6
571.419	5.61
571.759	5.59
572.099	5.59
572.439	5.63
572.779	5.62
573.119	5.63
573.459	5.64
573.799	5.67
574.139	5.71
574.479	5.72
574.819	5.7
575.158	5.68
575.498	5.69
575.838	5.68
576.177	5.66
576.517	5.63
576.856	5.65
577.196	5.66
577.535	5.62
577.875	5.62
578.214	5.56
578.553	5.56
578.893	5.56
579.232	5.54
579.571	5.55
579.91	5.53
580.25	5.48
580.589	5.5
580.928	5.46
581.267	5.46
581.606	5.46
581.945	5.46
582.283	5.48
582.622	5.5
582.961	5.49
583.3	5.53
583.639	5.6
583.977	5.59
584.316	5.58
584.654	5.59
584.993	5.62
585.332	5.66
585.67	5.65
586.008	5.63
586.347	5.64
586.685	5.6
587.024	5.59
587.362	5.63
587.7	5.59
588.038	5.61
588.376	5.58
588.715	5.61
589.053	5.64
589.391	5.63
589.729	5.62
590.067	5.65
590.404	5.62
590.742	5.58
591.08	5.57
591.418	5.57
591.756	5.62
592.093	5.61
592.431	5.58
592.769	5.59
593.106	5.57
593.444	5.56
593.781	5.57
594.119	5.62
594.456	5.58
594.793	5.61
595.131	5.57
595.468	5.6
595.805	5.56
596.143	5.57
596.48	5.58
596.817	5.57
597.154	5.55
597.491	5.57
597.828	5.58
598.165	5.6
598.502	5.59
598.839	5.58
599.176	5.58
599.512	5.57
599.849	5.55
600.186	5.6
600.523	5.65
600.859	5.65
601.196	5.65
601.532	5.69
601.869	5.68
602.205	5.71
602.542	5.72
602.878	5.72
603.215	5.69
603.551	5.7
603.887	5.69
604.223	5.69
604.56	5.71
604.896	5.72
605.232	5.75
605.568	5.77
605.904	5.75
606.24	5.76
606.576	5.78
606.912	5.79
607.248	5.78
607.583	5.78
607.919	5.8
608.255	5.74
608.591	5.74
608.926	5.75
609.262	5.79
609.597	5.81
609.933	5.83
610.268	5.82
610.604	5.8
610.939	5.83
611.275	5.83
611.61	5.8
611.945	5.8
612.281	5.75
612.616	5.73
612.951	5.77
613.286	5.79
613.621	5.77
613.956	5.79
614.291	5.81
614.626	5.76
614.961	5.75
615.296	5.82
615.631	5.82
615.966	5.79
616.3	5.77
616.635	5.74
616.97	5.74
617.304	5.79
617.639	5.81
617.973	5.78
618.308	5.77
618.642	5.73
618.977	5.72
619.311	5.74
619.646	5.77
619.98	5.75
620.314	5.66
620.648	5.69
620.983	5.67
621.317	5.64
621.651	5.74
621.985	5.78
622.319	5.76
622.653	5.74
622.987	5.8
623.321	5.75
623.655	5.77
623.988	5.78
624.322	5.73
624.656	5.78
624.99	5.8
625.323	5.8
625.657	5.84
625.99	5.87
626.324	5.86
626.657	5.85
626.991	5.87
627.324	5.9
627.658	5.89
627.991	5.92
628.324	5.92
628.657	5.86
628.991	5.82
629.324	5.82
629.657	5.81
629.99	5.78
630.323	5.8
630.656	5.77
630.989	5.73
631.322	5.75
631.655	5.69
631.987	5.66
632.32	5.67
632.653	5.66
632.986	5.68
633.318	5.68
633.651	5.66
633.984	5.65
634.316	5.65
634.649	5.67
634.981	5.66
635.313	5.67
635.646	5.71
635.978	5.69
636.31	5.69
636.643	5.74
636.975	5.75
637.307	5.74
637.639	5.79
637.971	5.83
638.303	5.87
638.635	5.89
638.967	5.93
639.299	5.97
639.631	5.99
639.963	5.96
640.295	6.02
640.626	6.03
640.958	6.08
641.29	6.17
641.621	6.18
641.953	6.17
642.285	6.13
642.616	6.18
642.948	6.19
643.279	6.21
643.61	6.18
643.942	6.15
644.273	6.15
644.604	6.06
644.936	6
645.267	6.02
645.598	6.06
645.929	6.07
646.26	6.07
646.591	6.04
646.922	6
647.253	5.92
647.584	5.93
647.915	5.85
648.245	5.8
648.576	5.8
648.907	5.79
649.238	5.9
649.568	5.93
649.899	5.98
650.229	5.92
650.56	5.95
650.89	5.98
651.221	5.99
651.551	6.04
651.882	6.08
652.212	6.05
652.542	6.06
652.872	5.96
653.203	5.89
653.533	5.92
653.863	5.93
654.193	5.93
654.523	5.89
654.853	5.89
655.183	5.93
655.513	5.96
655.843	5.9
656.172	5.79
656.502	5.73
656.832	5.74
657.162	5.84
657.491	5.79
657.821	5.8
658.15	5.86
658.48	5.82
658.809	5.83
659.139	5.8
659.468	5.74
659.798	5.77
660.127	5.86
660.456	5.85
660.785	5.85
661.115	5.87
661.444	5.9
661.773	5.91
662.102	5.83
662.431	5.79
662.76	5.9
663.089	5.98
663.418	5.91
663.747	5.9
664.076	5.89
664.404	5.89
664.733	5.95
665.062	5.83
665.39	5.83
665.719	5.81
666.048	5.9
666.376	5.93
666.705	5.96
667.033	5.86
667.362	5.88
667.69	5.79
668.018	5.79
668.347	5.78
668.675	5.75
669.003	5.77
669.331	5.87
669.659	5.86
669.987	5.78
670.315	5.79
670.643	5.84
670.971	5.87
671.299	5.98
671.627	5.86
671.955	5.87
672.283	5.94
672.61	6.02
672.938	5.93
673.266	5.98
673.593	6.1
673.921	6.14
674.249	6.13
674.576	6.24
674.904	6.22
675.231	6.19
675.558	6.23
675.886	6.29
676.213	6.18
