Data from BU57650_Reflection_00002.txt Node
Date: Tue Nov 19 11:01:11 EST 2019
User: vgr7
Spectrometer: USB2G7710
Scans to average: 3
Trigger mode: 4
Integration Time (sec): 2.000000E-2
Electric dark correction enabled: true
Boxcar width: 10
XAxis mode: Wavelengths
Number of Pixels in Spectrum: 2048
>>>>>Begin Spectral Data<<<<<
177.721	47.87
178.105	190.91
178.488	-114.95
178.871	-56.76
179.254	-10.34
179.636	-42.86
180.019	-188.66
180.402	45.45
180.785	560.87
181.168	326.64
181.55	661.64
181.933	149.15
182.316	195.03
182.698	161.76
183.081	3814.29
183.463	13.04
183.846	5.82
184.228	-239.45
184.611	176.66
184.993	76.86
185.376	72.71
185.758	36.04
186.14	38.86
186.522	-7.11
186.904	-26.63
187.287	-38.85
187.669	-11.79
188.051	-21.77
188.433	-19.81
188.815	10.48
189.197	19.59
189.579	21.44
189.961	30.33
190.342	32.93
190.724	18.84
191.106	14.93
191.488	17.92
191.869	17.48
192.251	11.41
192.633	14.24
193.014	16.64
193.396	14.8
193.777	12.87
194.159	22.49
194.54	29.29
194.922	28.72
195.303	30.63
195.684	28.35
196.065	38.07
196.447	47.32
196.828	40.26
197.209	42.81
197.59	47.84
197.971	45.17
198.352	48.86
198.733	55.4
199.114	53.83
199.495	51.47
199.876	44.95
200.257	41.85
200.638	33.07
201.018	43.16
201.399	37.56
201.78	30.48
202.16	23.89
202.541	13.75
202.922	17.77
203.302	22.34
203.683	25.23
204.063	17.99
204.444	6.84
204.824	12.48
205.204	19.03
205.585	16.63
205.965	12.85
206.345	15.25
206.725	17.37
207.106	15.72
207.486	25.23
207.866	36.23
208.246	38.97
208.626	30.71
209.006	16.33
209.386	16.16
209.766	21.53
210.145	18.66
210.525	25.2
210.905	27.83
211.285	28.72
211.664	32.6
212.044	29.83
212.424	33.07
212.803	26.68
213.183	19.08
213.562	16.23
213.942	10.79
214.321	10.76
214.701	12.78
215.08	11.99
215.459	15.61
215.838	7.73
216.218	1.03
216.597	15.24
216.976	22.58
217.355	31.91
217.734	27.59
218.113	30.37
218.492	38
218.871	30.69
219.25	22.81
219.629	19.37
220.008	29.37
220.387	20.42
220.766	32.49
221.144	33.84
221.523	29.14
221.902	33.52
222.28	30.87
222.659	29.17
223.037	32.56
223.416	29.63
223.794	33.96
224.173	31.67
224.551	32.02
224.929	30.59
225.308	29.65
225.686	32.68
226.064	32.08
226.442	24.98
226.821	27.03
227.199	22.36
227.577	18.27
227.955	17.35
228.333	19.29
228.711	17.56
229.089	17.38
229.467	17.82
229.845	16.24
230.222	16.4
230.6	15.03
230.978	14.21
231.356	11.44
231.733	11.13
232.111	13.31
232.488	13.66
232.866	13.75
233.243	12.34
233.621	13.47
233.998	14.18
234.376	16.33
234.753	14.87
235.13	16.25
235.508	16.17
235.885	15.07
236.262	13.85
236.639	12.84
237.016	12.35
237.393	13.05
237.77	13.76
238.147	12.56
238.524	11.97
238.901	10.28
239.278	9.85
239.655	8.78
240.032	8.03
240.409	7.56
240.785	6.95
241.162	7.22
241.539	6.92
241.915	6.6
242.292	6.46
242.668	6.53
243.045	6.39
243.421	6.67
243.798	6.38
244.174	6.07
244.551	5.94
244.927	5.87
245.303	5.54
245.679	5.3
246.056	5.36
246.432	5.13
246.808	5.52
247.184	5.88
247.56	5.99
247.936	5.9
248.312	5.87
248.688	5.92
249.064	5.85
249.44	5.55
249.815	5.66
250.191	5.68
250.567	5.77
250.943	5.82
251.318	5.66
251.694	5.85
252.069	6.11
252.445	6.06
252.82	6.29
253.196	6.34
253.571	6.51
253.947	6.68
254.322	6.73
254.697	6.21
255.073	5.65
255.448	5.45
255.823	5.61
256.198	5.57
256.573	5.52
256.948	5.38
257.323	5.65
257.698	5.5
258.073	5.26
258.448	5.34
258.823	5
259.198	5
259.573	4.96
259.948	4.96
260.322	4.86
260.697	4.75
261.072	4.54
261.446	4.52
261.821	4.39
262.195	4.6
262.57	4.66
262.944	4.81
263.319	4.93
263.693	4.86
264.067	4.73
264.442	4.55
264.816	4.34
265.19	4.14
265.564	4.13
265.938	4.2
266.313	3.98
266.687	4.17
267.061	3.97
267.435	4.07
267.809	3.99
268.183	4.12
268.556	4.13
268.93	4.53
269.304	4.28
269.678	4.34
270.051	4.14
270.425	4.09
270.799	4.01
271.172	4.02
271.546	4.1
271.919	4.14
272.293	4.2
272.666	4.39
273.04	4.52
273.413	4.51
273.787	4.37
274.16	4.27
274.533	4.39
274.906	4.55
275.279	4.46
275.653	4.56
276.026	4.56
276.399	4.66
276.772	4.72
277.145	4.92
277.518	4.85
277.891	4.97
278.263	5.02
278.636	5.03
279.009	4.89
279.382	4.77
279.755	4.87
280.127	4.96
280.5	5.02
280.872	4.95
281.245	4.92
281.617	5.01
281.99	4.96
282.362	4.91
282.735	4.93
283.107	4.88
283.479	4.83
283.852	4.83
284.224	4.74
284.596	4.53
284.968	4.38
285.34	4.36
285.713	4.37
286.085	4.39
286.457	4.35
286.829	4.38
287.201	4.36
287.572	4.33
287.944	4.15
288.316	4.21
288.688	4.25
289.06	4.3
289.431	4.31
289.803	4.37
290.175	4.4
290.546	4.28
290.918	4.33
291.289	4.27
291.661	4.34
292.032	4.3
292.403	4.32
292.775	4.52
293.146	4.52
293.517	4.43
293.889	4.37
294.26	4.46
294.631	4.61
295.002	4.67
295.373	4.7
295.744	4.91
296.115	4.75
296.486	4.68
296.857	4.78
297.228	4.74
297.599	4.82
297.97	4.78
298.34	4.86
298.711	4.83
299.082	4.82
299.452	4.78
299.823	4.74
300.194	4.71
300.564	4.51
300.935	4.47
301.305	4.46
301.676	4.46
302.046	4.37
302.416	4.24
302.787	4.28
303.157	4.19
303.527	4.17
303.897	4.23
304.267	4.23
304.637	3.95
305.008	3.95
305.378	3.93
305.748	3.88
306.117	3.68
306.487	3.54
306.857	3.48
307.227	3.46
307.597	3.52
307.967	3.56
308.336	3.63
308.706	3.73
309.076	3.85
309.445	4
309.815	3.97
310.184	3.93
310.554	3.81
310.923	3.73
311.293	3.61
311.662	3.56
312.031	3.52
312.401	3.58
312.77	3.56
313.139	3.55
313.508	3.57
313.877	3.7
314.246	3.88
314.616	3.92
314.985	3.95
315.353	3.93
315.722	4.01
316.091	3.99
316.46	3.95
316.829	3.96
317.198	3.75
317.567	3.95
317.935	3.95
318.304	4.16
318.672	4.27
319.041	4.49
319.41	4.51
319.778	4.59
320.147	4.63
320.515	4.67
320.883	4.54
321.252	4.53
321.62	4.57
321.988	4.56
322.357	4.56
322.725	4.56
323.093	4.46
323.461	4.24
323.829	4.31
324.197	4.16
324.565	4.03
324.933	4.21
325.301	4.09
325.669	4.07
326.037	3.86
326.405	3.8
326.772	3.66
327.14	3.56
327.508	3.52
327.875	3.5
328.243	3.44
328.61	3.43
328.978	3.4
329.346	3.4
329.713	3.34
330.08	3.43
330.448	3.38
330.815	3.47
331.182	3.56
331.55	3.53
331.917	3.7
332.284	3.73
332.651	3.71
333.018	3.73
333.385	3.75
333.752	3.79
334.119	3.91
334.486	3.97
334.853	4.06
335.22	3.97
335.587	3.92
335.954	4.02
336.32	4.04
336.687	3.98
337.054	3.89
337.42	3.85
337.787	3.72
338.153	3.62
338.52	3.6
338.886	3.64
339.253	3.64
339.619	3.59
339.986	3.55
340.352	3.47
340.718	3.51
341.084	3.52
341.451	3.61
341.817	3.53
342.183	3.53
342.549	3.58
342.915	3.63
343.281	3.64
343.647	3.66
344.013	3.59
344.379	3.66
344.745	3.69
345.11	3.69
345.476	3.7
345.842	3.82
346.208	3.87
346.573	3.83
346.939	3.81
347.304	3.77
347.67	3.78
348.035	3.69
348.401	3.66
348.766	3.63
349.132	3.64
349.497	3.63
349.862	3.61
350.228	3.6
350.593	3.58
350.958	3.65
351.323	3.55
351.688	3.63
352.053	3.63
352.418	3.61
352.783	3.59
353.148	3.65
353.513	3.56
353.878	3.42
354.243	3.42
354.608	3.45
354.972	3.43
355.337	3.43
355.702	3.54
356.066	3.5
356.431	3.51
356.795	3.42
357.16	3.47
357.524	3.45
357.889	3.36
358.253	3.34
358.618	3.31
358.982	3.38
359.346	3.35
359.71	3.32
360.075	3.3
360.439	3.3
360.803	3.3
361.167	3.3
361.531	3.39
361.895	3.4
362.259	3.39
362.623	3.4
362.987	3.34
363.351	3.27
363.714	3.29
364.078	3.28
364.442	3.22
364.806	3.19
365.169	3.13
365.533	3.19
365.896	3.22
366.26	3.22
366.623	3.16
366.987	3.17
367.35	3.25
367.714	3.23
368.077	3.25
368.44	3.23
368.803	3.25
369.167	3.26
369.53	3.23
369.893	3.25
370.256	3.21
370.619	3.26
370.982	3.22
371.345	3.2
371.708	3.22
372.071	3.28
372.434	3.24
372.797	3.34
373.159	3.33
373.522	3.29
373.885	3.28
374.247	3.23
374.61	3.3
374.973	3.26
375.335	3.29
375.698	3.24
376.06	3.23
376.423	3.24
376.785	3.21
377.147	3.2
377.51	3.15
377.872	3.14
378.234	3.19
378.596	3.27
378.958	3.28
379.321	3.25
379.683	3.26
380.045	3.22
380.407	3.18
380.769	3.17
381.13	3.18
381.492	3.15
381.854	3.17
382.216	3.13
382.578	3.11
382.939	3.1
383.301	3.12
383.663	3.11
384.024	3.11
384.386	3.1
384.747	3.1
385.109	3.1
385.47	3.14
385.832	3.06
386.193	3.02
386.554	2.99
386.916	3.02
387.277	2.96
387.638	3
387.999	3.03
388.36	3.02
388.721	3.04
389.082	3.1
389.443	3.09
389.804	3.08
390.165	3.08
390.526	3.12
390.887	3.06
391.248	3.06
391.609	3.04
391.969	3.05
392.33	3.07
392.691	3.07
393.051	3.07
393.412	3.12
393.772	3.15
394.133	3.17
394.493	3.15
394.854	3.22
395.214	3.24
395.574	3.2
395.935	3.21
396.295	3.19
396.655	3.16
397.015	3.2
397.376	3.2
397.736	3.19
398.096	3.15
398.456	3.19
398.816	3.19
399.176	3.16
399.535	3.16
399.895	3.16
400.255	3.18
400.615	3.18
400.975	3.13
401.334	3.11
401.694	3.1
402.054	3.12
402.413	3.12
402.773	3.12
403.132	3.15
403.492	3.17
403.851	3.14
404.211	3.16
404.57	3.16
404.929	3.18
405.288	3.17
405.648	3.21
406.007	3.2
406.366	3.16
406.725	3.2
407.084	3.2
407.443	3.18
407.802	3.15
408.161	3.14
408.52	3.16
408.879	3.21
409.238	3.19
409.596	3.17
409.955	3.16
410.314	3.13
410.673	3.11
411.031	3.06
411.39	3.07
411.748	3.07
412.107	3.04
412.465	3.03
412.824	3.04
413.182	3.01
413.54	3.02
413.899	3.05
414.257	3.05
414.615	3.04
414.974	3.06
415.332	3.05
415.69	3.08
416.048	3.06
416.406	3.01
416.764	3.02
417.122	3
417.48	3
417.838	3.02
418.195	3.02
418.553	3.01
418.911	3.02
419.269	3.01
419.626	3.01
419.984	2.99
420.342	2.99
420.699	2.98
421.057	2.97
421.414	2.97
421.772	2.97
422.129	2.97
422.486	2.96
422.844	2.97
423.201	2.96
423.558	2.95
423.915	2.97
424.273	2.96
424.63	2.98
424.987	2.97
425.344	2.97
425.701	2.96
426.058	2.97
426.415	2.95
426.772	2.95
427.128	2.97
427.485	2.98
427.842	2.98
428.199	3
428.555	3.02
428.912	3
429.269	3.01
429.625	3
429.982	2.99
430.338	3.02
430.695	3.01
431.051	3.01
431.407	3.02
431.764	3.02
432.12	3.04
432.476	3.05
432.832	3.05
433.189	3.07
433.545	3.07
433.901	3.08
434.257	3.1
434.613	3.08
434.969	3.08
435.325	3.07
435.681	3.08
436.036	3.07
436.392	3.06
436.748	3.04
437.104	3.04
437.459	3.03
437.815	3.01
438.171	3
438.526	3.01
438.882	2.99
439.237	2.98
439.593	2.97
439.948	2.94
440.304	2.93
440.659	2.92
441.014	2.93
441.369	2.92
441.725	2.92
442.08	2.9
442.435	2.9
442.79	2.9
443.145	2.89
443.5	2.88
443.855	2.87
444.21	2.87
444.565	2.89
444.92	2.89
445.275	2.89
445.629	2.92
445.984	2.92
446.339	2.93
446.693	2.93
447.048	2.92
447.403	2.93
447.757	2.93
448.112	2.91
448.466	2.92
448.82	2.93
449.175	2.92
449.529	2.94
449.883	2.93
450.238	2.93
450.592	2.95
450.946	2.95
451.3	2.97
451.654	2.95
452.008	2.95
452.362	2.96
452.716	2.95
453.07	2.92
453.424	2.91
453.778	2.91
454.132	2.91
454.486	2.92
454.839	2.94
455.193	2.95
455.547	2.95
455.9	2.94
456.254	2.94
456.607	2.93
456.961	2.92
457.314	2.95
457.668	2.96
458.021	2.95
458.375	2.94
458.728	2.96
459.081	2.97
459.434	2.96
459.787	2.97
460.141	2.98
460.494	3
460.847	3.01
461.2	3.01
461.553	3.02
461.906	3.02
462.259	3
462.611	3.01
462.964	3.02
463.317	3.04
463.67	3.05
464.022	3.05
464.375	3.08
464.728	3.06
465.08	3.05
465.433	3.06
465.785	3.07
466.138	3.07
466.49	3.09
466.843	3.12
467.195	3.13
467.547	3.11
467.899	3.12
468.252	3.11
468.604	3.12
468.956	3.11
469.308	3.12
469.66	3.15
470.012	3.12
470.364	3.12
470.716	3.1
471.068	3.1
471.42	3.11
471.772	3.09
472.123	3.08
472.475	3.09
472.827	3.09
473.178	3.1
473.53	3.11
473.882	3.1
474.233	3.07
474.585	3.06
474.936	3.07
475.288	3.04
475.639	3.06
475.99	3.06
476.342	3.06
476.693	3.05
477.044	3.03
477.395	3.04
477.746	3.04
478.097	3.03
478.448	3.01
478.8	3.01
479.15	3
479.501	3.01
479.852	2.99
480.203	2.98
480.554	2.97
480.905	2.96
481.255	2.97
481.606	2.98
481.957	2.96
482.307	2.96
482.658	2.97
483.009	2.97
483.359	2.97
483.709	2.97
484.06	2.97
484.41	2.98
484.761	2.98
485.111	2.99
485.461	3
485.811	3.01
486.162	3.02
486.512	3.03
486.862	3.03
487.212	3.04
487.562	3.04
487.912	3.06
488.262	3.06
488.612	3.06
488.961	3.06
489.311	3.08
489.661	3.09
490.011	3.09
490.36	3.09
490.71	3.09
491.06	3.1
491.409	3.1
491.759	3.1
492.108	3.09
492.458	3.08
492.807	3.08
493.157	3.08
493.506	3.08
493.855	3.08
494.204	3.08
494.554	3.08
494.903	3.09
495.252	3.09
495.601	3.09
495.95	3.08
496.299	3.09
496.648	3.08
496.997	3.07
497.346	3.08
497.695	3.09
498.043	3.09
498.392	3.08
498.741	3.1
499.09	3.09
499.438	3.11
499.787	3.1
500.135	3.09
500.484	3.1
500.832	3.09
501.181	3.11
501.529	3.12
501.878	3.13
502.226	3.12
502.574	3.13
502.923	3.1
503.271	3.11
503.619	3.11
503.967	3.11
504.315	3.11
504.663	3.11
505.011	3.09
505.359	3.07
505.707	3.07
506.055	3.07
506.403	3.09
506.751	3.09
507.098	3.11
507.446	3.14
507.794	3.13
508.141	3.13
508.489	3.15
508.837	3.13
509.184	3.12
509.531	3.12
509.879	3.12
510.226	3.14
510.574	3.15
510.921	3.14
511.268	3.15
511.616	3.18
511.963	3.19
512.31	3.2
512.657	3.2
513.004	3.21
513.351	3.2
513.698	3.19
514.045	3.18
514.392	3.17
514.739	3.16
515.086	3.15
515.432	3.17
515.779	3.15
516.126	3.17
516.473	3.18
516.819	3.19
517.166	3.2
517.512	3.19
517.859	3.19
518.205	3.17
518.552	3.17
518.898	3.15
519.245	3.16
519.591	3.17
519.937	3.18
520.283	3.19
520.629	3.2
520.976	3.19
521.322	3.21
521.668	3.21
522.014	3.22
522.36	3.22
522.706	3.22
523.052	3.21
523.398	3.21
523.743	3.18
524.089	3.19
524.435	3.17
524.781	3.18
525.126	3.17
525.472	3.2
525.817	3.19
526.163	3.2
526.509	3.2
526.854	3.19
527.199	3.2
527.545	3.19
527.89	3.19
528.235	3.2
528.581	3.2
528.926	3.2
529.271	3.2
529.616	3.21
529.961	3.21
530.306	3.21
530.651	3.2
530.996	3.22
531.341	3.22
531.686	3.22
532.031	3.21
532.376	3.22
532.721	3.22
533.065	3.23
533.41	3.23
533.755	3.22
534.099	3.22
534.444	3.22
534.788	3.22
535.133	3.21
535.477	3.21
535.822	3.2
536.166	3.21
536.51	3.2
536.855	3.2
537.199	3.19
537.543	3.19
537.887	3.19
538.231	3.19
538.576	3.19
538.92	3.2
539.264	3.21
539.608	3.21
539.951	3.2
540.295	3.19
540.639	3.2
540.983	3.23
541.327	3.23
541.671	3.23
542.014	3.24
542.358	3.26
542.701	3.27
543.045	3.27
543.389	3.28
543.732	3.26
544.075	3.26
544.419	3.27
544.762	3.27
545.105	3.27
545.449	3.29
545.792	3.29
546.135	3.29
546.478	3.3
546.821	3.31
547.165	3.31
547.508	3.32
547.851	3.32
548.194	3.3
548.536	3.28
548.879	3.29
549.222	3.28
549.565	3.28
549.908	3.25
550.25	3.26
550.593	3.24
550.936	3.27
551.278	3.27
551.621	3.26
551.963	3.28
552.306	3.29
552.648	3.28
552.991	3.28
553.333	3.29
553.675	3.3
554.017	3.3
554.36	3.3
554.702	3.29
555.044	3.3
555.386	3.28
555.728	3.29
556.07	3.3
556.412	3.3
556.754	3.3
557.096	3.35
557.438	3.32
557.78	3.34
558.121	3.35
558.463	3.33
558.805	3.34
559.147	3.34
559.488	3.33
559.83	3.34
560.171	3.31
560.513	3.29
560.854	3.28
561.196	3.26
561.537	3.26
561.878	3.29
562.22	3.27
562.561	3.28
562.902	3.29
563.243	3.28
563.584	3.28
563.925	3.31
564.266	3.29
564.607	3.33
564.948	3.35
565.289	3.33
565.63	3.34
565.971	3.34
566.312	3.33
566.653	3.34
566.993	3.34
567.334	3.38
567.675	3.4
568.015	3.42
568.356	3.43
568.696	3.42
569.037	3.4
569.377	3.39
569.718	3.4
570.058	3.39
570.398	3.39
570.739	3.4
571.079	3.35
571.419	3.35
571.759	3.32
572.099	3.29
572.439	3.3
572.779	3.29
573.119	3.28
573.459	3.27
573.799	3.26
574.139	3.25
574.479	3.26
574.819	3.27
575.158	3.25
575.498	3.26
575.838	3.27
576.177	3.29
576.517	3.3
576.856	3.29
577.196	3.3
577.535	3.29
577.875	3.25
578.214	3.28
578.553	3.28
578.893	3.28
579.232	3.33
579.571	3.32
579.91	3.33
580.25	3.32
580.589	3.35
580.928	3.37
581.267	3.32
581.606	3.33
581.945	3.28
582.283	3.28
582.622	3.25
582.961	3.27
583.3	3.26
583.639	3.28
583.977	3.27
584.316	3.26
584.654	3.26
584.993	3.29
585.332	3.27
585.67	3.26
586.008	3.26
586.347	3.26
586.685	3.24
587.024	3.25
587.362	3.27
587.7	3.27
588.038	3.28
588.376	3.29
588.715	3.24
589.053	3.29
589.391	3.28
589.729	3.33
590.067	3.3
590.404	3.29
590.742	3.28
591.08	3.32
591.418	3.37
591.756	3.36
592.093	3.39
592.431	3.42
592.769	3.43
593.106	3.45
593.444	3.43
593.781	3.45
594.119	3.48
594.456	3.46
594.793	3.45
595.131	3.43
595.468	3.45
595.805	3.49
596.143	3.47
596.48	3.46
596.817	3.46
597.154	3.47
597.491	3.51
597.828	3.51
598.165	3.45
598.502	3.43
598.839	3.44
599.176	3.45
599.512	3.43
599.849	3.43
600.186	3.41
600.523	3.44
600.859	3.44
601.196	3.43
601.532	3.43
601.869	3.42
602.205	3.42
602.542	3.44
602.878	3.45
603.215	3.48
603.551	3.47
603.887	3.45
604.223	3.47
604.56	3.45
604.896	3.47
605.232	3.49
605.568	3.48
605.904	3.48
606.24	3.46
606.576	3.49
606.912	3.49
607.248	3.5
607.583	3.48
607.919	3.48
608.255	3.47
608.591	3.51
608.926	3.51
609.262	3.51
609.597	3.47
609.933	3.45
610.268	3.46
610.604	3.49
610.939	3.52
611.275	3.47
611.61	3.44
611.945	3.44
612.281	3.47
612.616	3.5
612.951	3.52
613.286	3.5
613.621	3.48
613.956	3.5
614.291	3.52
614.626	3.51
614.961	3.56
615.296	3.59
615.631	3.57
615.966	3.59
616.3	3.64
616.635	3.69
616.97	3.7
617.304	3.7
617.639	3.65
617.973	3.63
618.308	3.66
618.642	3.68
618.977	3.66
619.311	3.68
619.646	3.67
619.98	3.66
620.314	3.65
620.648	3.63
620.983	3.62
621.317	3.59
621.651	3.6
621.985	3.55
622.319	3.57
622.653	3.56
622.987	3.56
623.321	3.56
623.655	3.51
623.988	3.54
624.322	3.55
624.656	3.57
624.99	3.56
625.323	3.57
625.657	3.57
625.99	3.56
626.324	3.55
626.657	3.54
626.991	3.54
627.324	3.59
627.658	3.62
627.991	3.63
628.324	3.62
628.657	3.65
628.991	3.64
629.324	3.61
629.657	3.6
629.99	3.59
630.323	3.57
630.656	3.58
630.989	3.52
631.322	3.46
631.655	3.46
631.987	3.47
632.32	3.5
632.653	3.5
632.986	3.52
633.318	3.54
633.651	3.48
633.984	3.49
634.316	3.49
634.649	3.44
634.981	3.43
635.313	3.48
635.646	3.46
635.978	3.49
636.31	3.53
636.643	3.58
636.975	3.57
637.307	3.56
637.639	3.59
637.971	3.6
638.303	3.66
638.635	3.69
638.967	3.69
639.299	3.67
639.631	3.67
639.963	3.7
640.295	3.6
640.626	3.67
640.958	3.67
641.29	3.72
641.621	3.77
641.953	3.77
642.285	3.74
642.616	3.72
642.948	3.68
643.279	3.64
643.61	3.66
643.942	3.66
644.273	3.72
644.604	3.68
644.936	3.73
645.267	3.71
645.598	3.71
645.929	3.73
646.26	3.69
646.591	3.7
646.922	3.68
647.253	3.81
647.584	3.84
647.915	3.82
648.245	3.79
648.576	3.75
648.907	3.8
649.238	3.78
649.568	3.82
649.899	3.86
650.229	3.92
650.56	3.91
650.89	3.9
651.221	3.84
651.551	3.86
651.882	3.83
652.212	3.87
652.542	3.85
652.872	3.79
653.203	3.87
653.533	3.87
653.863	3.88
654.193	3.81
654.523	3.71
654.853	3.72
655.183	3.71
655.513	3.71
655.843	3.65
656.172	3.68
656.502	3.62
656.832	3.62
657.162	3.54
657.491	3.55
657.821	3.56
658.15	3.58
658.48	3.63
658.809	3.66
659.139	3.63
659.468	3.64
659.798	3.67
660.127	3.66
660.456	3.63
660.785	3.64
661.115	3.63
661.444	3.73
661.773	3.74
662.102	3.69
662.431	3.74
662.76	3.78
663.089	3.81
663.418	3.85
663.747	3.82
664.076	3.83
664.404	3.84
664.733	3.88
665.062	3.88
665.39	3.88
665.719	3.86
666.048	3.86
666.376	3.89
666.705	3.94
667.033	3.92
667.362	3.99
667.69	4.03
668.018	4.05
668.347	4.08
668.675	4.14
669.003	4.21
669.331	4.16
669.659	4.16
669.987	4.15
670.315	4.17
670.643	4.14
670.971	4.19
671.299	4.14
671.627	4.1
671.955	4.16
672.283	4.16
672.61	4.13
672.938	4.08
673.266	4.08
673.593	3.95
673.921	3.97
674.249	3.93
674.576	3.88
674.904	3.8
675.231	3.74
675.558	3.7
675.886	3.73
676.213	3.73
676.54	3.69
676.867	3.71
677.195	3.69
677.522	3.77
677.849	3.76
678.176	3.81
678.503	3.76
678.83	3.61
679.157	3.61
679.484	3.65
