Data from BU57994_Reflection_00005.txt Node
Date: Mon Nov 18 16:53:05 EST 2019
User: vgr7
Spectrometer: USB2G7710
Scans to average: 3
Trigger mode: 4
Integration Time (sec): 2.000000E-2
Electric dark correction enabled: true
Boxcar width: 10
XAxis mode: Wavelengths
Number of Pixels in Spectrum: 2048
>>>>>Begin Spectral Data<<<<<
177.721	53.34
178.105	40.65
178.488	-3.6
178.871	2.71
179.254	-33.07
179.636	20.96
180.019	-91.29
180.402	71.15
180.785	-432.51
181.168	1240.63
181.55	-98.73
181.933	17.61
182.316	23.86
182.698	33.3
183.081	-8.72
183.463	-59.63
183.846	-104.35
184.228	-116.8
184.611	-201.98
184.993	-2061.07
185.376	234.34
185.758	944.29
186.14	710.27
186.522	176.17
186.904	346.66
187.287	210.3
187.669	145.08
188.051	174.19
188.433	220.03
188.815	115.05
189.197	122.51
189.579	99.12
189.961	55.79
190.342	63.8
190.724	49.65
191.106	26.32
191.488	13.73
191.869	2.02
192.251	-7.53
192.633	-9.59
193.014	-21.6
193.396	-34.82
193.777	-33.98
194.159	-31.46
194.54	-3.94
194.922	-7.26
195.303	17.48
195.684	17.41
196.065	29.22
196.447	33.73
196.828	20.81
197.209	-2.24
197.59	-24.51
197.971	13.51
198.352	9.5
198.733	16.41
199.114	17.53
199.495	5.55
199.876	19
200.257	30.24
200.638	32.06
201.018	24.84
201.399	28.71
201.78	19.75
202.16	18.32
202.541	4.34
202.922	-21.38
203.302	-24.88
203.683	-14.23
204.063	-30.83
204.444	-25.09
204.824	-7.93
205.204	4.26
205.585	19.69
205.965	27.23
206.345	26.29
206.725	28.97
207.106	35.6
207.486	29.86
207.866	26.14
208.246	36.4
208.626	7.15
209.006	7.62
209.386	-20.7
209.766	3.01
210.145	4.8
210.525	17.36
210.905	18.3
211.285	15.55
211.664	6.32
212.044	15.75
212.424	18.96
212.803	20.17
213.183	14.8
213.562	16.81
213.942	4.27
214.321	8.14
214.701	8.34
215.08	2.56
215.459	11.35
215.838	3.36
216.218	-6.97
216.597	0.7
216.976	4.62
217.355	14.88
217.734	11.77
218.113	6.59
218.492	-1.41
218.871	-6.56
219.25	-9.13
219.629	-11.3
220.008	-17.79
220.387	-19.17
220.766	-19.37
221.144	-25.9
221.523	-30.49
221.902	-25.07
222.28	-39.6
222.659	-35.88
223.037	-23.38
223.416	-21.76
223.794	-22.51
224.173	-13.48
224.551	-11.01
224.929	-2.47
225.308	-0.89
225.686	3.94
226.064	5.04
226.442	8.58
226.821	9.19
227.199	6.08
227.577	6.36
227.955	4.24
228.333	4.55
228.711	4.74
229.089	7.69
229.467	4.46
229.845	1.22
230.222	2.89
230.6	1.1
230.978	1.96
231.356	2.31
231.733	1.71
232.111	2.2
232.488	1.84
232.866	-1.23
233.243	-0.57
233.621	-2.6
233.998	-0.98
234.376	-2.87
234.753	-2.88
235.13	-1.45
235.508	0.67
235.885	2.62
236.262	1.99
236.639	1.74
237.016	2.02
237.393	3.25
237.77	3.82
238.147	4.88
238.524	5.08
238.901	4.22
239.278	4.22
239.655	5.56
240.032	4.98
240.409	5.42
240.785	6.24
241.162	6.27
241.539	7.04
241.915	6.58
242.292	6.59
242.668	6.53
243.045	6.87
243.421	6.02
243.798	5.74
244.174	5.91
244.551	5.75
244.927	5.78
245.303	6.03
245.679	6.28
246.056	5.86
246.432	5.85
246.808	5.88
247.184	5.82
247.56	5.53
247.936	5.6
248.312	5.55
248.688	5.4
249.064	5.18
249.44	5.01
249.815	5.15
250.191	5.31
250.567	5.44
250.943	5.07
251.318	5.23
251.694	5.27
252.069	5.25
252.445	5.45
252.82	5.31
253.196	5.01
253.571	4.64
253.947	4.94
254.322	5.21
254.697	5.2
255.073	5.12
255.448	5.42
255.823	5.38
256.198	5.18
256.573	5.11
256.948	5.28
257.323	5.5
257.698	5.49
258.073	5.48
258.448	5.33
258.823	5.5
259.198	5.51
259.573	5.53
259.948	5.52
260.322	5.48
260.697	5.5
261.072	5.46
261.446	5.53
261.821	5.49
262.195	5.57
262.57	5.57
262.944	5.53
263.319	5.4
263.693	5.48
264.067	5.68
264.442	5.82
264.816	5.67
265.19	5.43
265.564	5.4
265.938	5.18
266.313	5.26
266.687	5.17
267.061	5.19
267.435	5.14
267.809	5.11
268.183	5.08
268.556	4.97
268.93	5.2
269.304	5.29
269.678	5.3
270.051	4.93
270.425	4.94
270.799	5.05
271.172	5.07
271.546	4.87
271.919	4.77
272.293	4.65
272.666	4.8
273.04	4.89
273.413	4.79
273.787	4.95
274.16	4.98
274.533	4.84
274.906	4.89
275.279	4.84
275.653	4.75
276.026	4.7
276.399	4.85
276.772	4.82
277.145	4.66
277.518	4.68
277.891	4.92
278.263	4.93
278.636	4.86
279.009	4.79
279.382	5.06
279.755	4.87
280.127	5.08
280.5	5.13
280.872	5.13
281.245	5.16
281.617	5.25
281.99	5.26
282.362	5.3
282.735	5.05
283.107	5.14
283.479	5.15
283.852	5.15
284.224	5.15
284.596	5.15
284.968	5.27
285.34	5.31
285.713	5.32
286.085	5.37
286.457	5.45
286.829	5.56
287.201	5.36
287.572	5.55
287.944	5.42
288.316	5.32
288.688	5.33
289.06	5.43
289.431	5.4
289.803	5.42
290.175	5.42
290.546	5.66
290.918	5.55
291.289	5.6
291.661	5.62
292.032	5.56
292.403	5.49
292.775	5.62
293.146	5.68
293.517	5.63
293.889	5.62
294.26	5.55
294.631	5.51
295.002	5.58
295.373	5.54
295.744	5.62
296.115	5.61
296.486	5.55
296.857	5.46
297.228	5.38
297.599	5.38
297.97	5.46
298.34	5.39
298.711	5.65
299.082	5.53
299.452	5.65
299.823	5.71
300.194	5.57
300.564	5.4
300.935	5.34
301.305	5.38
301.676	5.44
302.046	5.5
302.416	5.54
302.787	5.68
303.157	5.69
303.527	5.64
303.897	5.74
304.267	5.76
304.637	5.85
305.008	6.02
305.378	6.08
305.748	6.11
306.117	6.08
306.487	5.95
306.857	6.19
307.227	6.04
307.597	5.94
307.967	6.19
308.336	6.18
308.706	6.01
309.076	6.06
309.445	6.09
309.815	6.11
310.184	6.06
310.554	5.96
310.923	5.83
311.293	5.72
311.662	5.66
312.031	5.68
312.401	5.73
312.77	5.77
313.139	5.71
313.508	5.77
313.877	5.73
314.246	5.66
314.616	5.48
314.985	5.55
315.353	5.53
315.722	5.35
316.091	5.34
316.46	5.38
316.829	5.25
317.198	5.15
317.567	4.96
317.935	4.89
318.304	4.85
318.672	4.88
319.041	5.12
319.41	5.08
319.778	5.05
320.147	5.01
320.515	4.75
320.883	4.69
321.252	4.6
321.62	4.73
321.988	4.81
322.357	4.92
322.725	4.86
323.093	4.98
323.461	5
323.829	5.09
324.197	5.16
324.565	5.2
324.933	5.25
325.301	5.39
325.669	5.41
326.037	5.43
326.405	5.43
326.772	5.38
327.14	5.54
327.508	5.56
327.875	5.44
328.243	5.55
328.61	5.62
328.978	5.63
329.346	5.68
329.713	5.55
330.08	5.56
330.448	5.55
330.815	5.41
331.182	5.43
331.55	5.43
331.917	5.42
332.284	5.49
332.651	5.51
333.018	5.67
333.385	5.71
333.752	5.66
334.119	5.83
334.486	5.69
334.853	5.59
335.22	5.6
335.587	5.76
335.954	5.58
336.32	5.49
336.687	5.5
337.054	5.39
337.42	5.5
337.787	5.5
338.153	5.46
338.52	5.69
338.886	5.68
339.253	5.65
339.619	5.67
339.986	5.65
340.352	5.54
340.718	5.42
341.084	5.43
341.451	5.59
341.817	5.6
342.183	5.65
342.549	5.56
342.915	5.56
343.281	5.47
343.647	5.55
344.013	5.59
344.379	5.45
344.745	5.42
345.11	5.38
345.476	5.4
345.842	5.43
346.208	5.37
346.573	5.39
346.939	5.48
347.304	5.43
347.67	5.31
348.035	5.32
348.401	5.37
348.766	5.34
349.132	5.33
349.497	5.31
349.862	5.42
350.228	5.42
350.593	5.43
350.958	5.45
351.323	5.51
351.688	5.52
352.053	5.6
352.418	5.67
352.783	5.71
353.148	5.75
353.513	5.77
353.878	5.65
354.243	5.72
354.608	5.62
354.972	5.74
355.337	5.88
355.702	5.94
356.066	5.97
356.431	6.03
356.795	5.99
357.16	5.87
357.524	5.76
357.889	5.75
358.253	5.8
358.618	5.77
358.982	5.81
359.346	5.8
359.71	5.82
360.075	5.85
360.439	5.85
360.803	5.81
361.167	5.81
361.531	5.84
361.895	5.75
362.259	5.77
362.623	5.72
362.987	5.62
363.351	5.61
363.714	5.58
364.078	5.46
364.442	5.44
364.806	5.48
365.169	5.52
365.533	5.52
365.896	5.44
366.26	5.41
366.623	5.38
366.987	5.33
367.35	5.32
367.714	5.28
368.077	5.24
368.44	5.23
368.803	5.23
369.167	5.18
369.53	5.2
369.893	5.18
370.256	5.16
370.619	5.25
370.982	5.23
371.345	5.16
371.708	5.2
372.071	5.2
372.434	5.27
372.797	5.23
373.159	5.22
373.522	5.23
373.885	5.31
374.247	5.23
374.61	5.28
374.973	5.26
375.335	5.26
375.698	5.28
376.06	5.27
376.423	5.24
376.785	5.34
377.147	5.37
377.51	5.39
377.872	5.43
378.234	5.39
378.596	5.43
378.958	5.43
379.321	5.42
379.683	5.46
380.045	5.39
380.407	5.45
380.769	5.47
381.13	5.45
381.492	5.41
381.854	5.51
382.216	5.46
382.578	5.48
382.939	5.44
383.301	5.45
383.663	5.41
384.024	5.42
384.386	5.4
384.747	5.36
385.109	5.37
385.47	5.36
385.832	5.34
386.193	5.3
386.554	5.3
386.916	5.33
387.277	5.32
387.638	5.37
387.999	5.33
388.36	5.33
388.721	5.36
389.082	5.37
389.443	5.34
389.804	5.37
390.165	5.34
390.526	5.38
390.887	5.35
391.248	5.4
391.609	5.39
391.969	5.4
392.33	5.39
392.691	5.4
393.051	5.35
393.412	5.36
393.772	5.38
394.133	5.41
394.493	5.41
394.854	5.36
395.214	5.31
395.574	5.29
395.935	5.3
396.295	5.33
396.655	5.32
397.015	5.28
397.376	5.3
397.736	5.3
398.096	5.3
398.456	5.29
398.816	5.28
399.176	5.25
399.535	5.21
399.895	5.22
400.255	5.22
400.615	5.28
400.975	5.31
401.334	5.27
401.694	5.24
402.054	5.24
402.413	5.28
402.773	5.27
403.132	5.29
403.492	5.26
403.851	5.22
404.211	5.24
404.57	5.26
404.929	5.27
405.288	5.29
405.648	5.26
406.007	5.26
406.366	5.24
406.725	5.29
407.084	5.33
407.443	5.31
407.802	5.32
408.161	5.29
408.52	5.25
408.879	5.26
409.238	5.25
409.596	5.24
409.955	5.24
410.314	5.26
410.673	5.28
411.031	5.27
411.39	5.28
411.748	5.29
412.107	5.32
412.465	5.31
412.824	5.31
413.182	5.32
413.54	5.34
413.899	5.37
414.257	5.36
414.615	5.34
414.974	5.38
415.332	5.36
415.69	5.36
416.048	5.38
416.406	5.39
416.764	5.36
417.122	5.38
417.48	5.33
417.838	5.34
418.195	5.34
418.553	5.35
418.911	5.36
419.269	5.34
419.626	5.33
419.984	5.31
420.342	5.3
420.699	5.29
421.057	5.28
421.414	5.26
421.772	5.26
422.129	5.25
422.486	5.22
422.844	5.22
423.201	5.22
423.558	5.21
423.915	5.22
424.273	5.24
424.63	5.22
424.987	5.22
425.344	5.2
425.701	5.2
426.058	5.19
426.415	5.18
426.772	5.16
427.128	5.15
427.485	5.16
427.842	5.15
428.199	5.16
428.555	5.17
428.912	5.18
429.269	5.19
429.625	5.18
429.982	5.19
430.338	5.2
430.695	5.22
431.051	5.21
431.407	5.19
431.764	5.18
432.12	5.18
432.476	5.21
432.832	5.21
433.189	5.2
433.545	5.19
433.901	5.2
434.257	5.2
434.613	5.2
434.969	5.19
435.325	5.19
435.681	5.19
436.036	5.18
436.392	5.19
436.748	5.17
437.104	5.18
437.459	5.18
437.815	5.17
438.171	5.15
438.526	5.15
438.882	5.16
439.237	5.16
439.593	5.17
439.948	5.16
440.304	5.17
440.659	5.17
441.014	5.18
441.369	5.17
441.725	5.17
442.08	5.17
442.435	5.18
442.79	5.19
443.145	5.18
443.5	5.18
443.855	5.17
444.21	5.17
444.565	5.17
444.92	5.18
445.275	5.18
445.629	5.18
445.984	5.19
446.339	5.18
446.693	5.16
447.048	5.16
447.403	5.16
447.757	5.16
448.112	5.14
448.466	5.12
448.82	5.13
449.175	5.12
449.529	5.12
449.883	5.11
450.238	5.08
450.592	5.1
450.946	5.08
451.3	5.07
451.654	5.05
452.008	5.05
452.362	5.03
452.716	5.03
453.07	5.02
453.424	5.02
453.778	5.02
454.132	5.02
454.486	5.02
454.839	5.02
455.193	5
455.547	5
455.9	5.05
456.254	5.08
456.607	5.09
456.961	5.09
457.314	5.09
457.668	5.12
458.021	5.11
458.375	5.14
458.728	5.15
459.081	5.18
459.434	5.18
459.787	5.19
460.141	5.19
460.494	5.19
460.847	5.19
461.2	5.19
461.553	5.21
461.906	5.21
462.259	5.23
462.611	5.25
462.964	5.25
463.317	5.23
463.67	5.22
464.022	5.21
464.375	5.2
464.728	5.19
465.08	5.2
465.433	5.21
465.785	5.2
466.138	5.21
466.49	5.22
466.843	5.21
467.195	5.21
467.547	5.22
467.899	5.23
468.252	5.21
468.604	5.22
468.956	5.2
469.308	5.21
469.66	5.19
470.012	5.2
470.364	5.22
470.716	5.22
471.068	5.22
471.42	5.2
471.772	5.23
472.123	5.25
472.475	5.25
472.827	5.24
473.178	5.24
473.53	5.23
473.882	5.2
474.233	5.23
474.585	5.21
474.936	5.18
475.288	5.21
475.639	5.22
475.99	5.22
476.342	5.23
476.693	5.22
477.044	5.22
477.395	5.22
477.746	5.22
478.097	5.21
478.448	5.21
478.8	5.23
479.15	5.22
479.501	5.22
479.852	5.23
480.203	5.22
480.554	5.24
480.905	5.25
481.255	5.25
481.606	5.26
481.957	5.28
482.307	5.29
482.658	5.29
483.009	5.3
483.359	5.3
483.709	5.31
484.06	5.31
484.41	5.31
484.761	5.31
485.111	5.31
485.461	5.32
485.811	5.32
486.162	5.33
486.512	5.33
486.862	5.34
487.212	5.33
487.562	5.34
487.912	5.35
488.262	5.36
488.612	5.36
488.961	5.35
489.311	5.35
489.661	5.34
490.011	5.34
490.36	5.33
490.71	5.33
491.06	5.33
491.409	5.34
491.759	5.34
492.108	5.36
492.458	5.37
492.807	5.36
493.157	5.36
493.506	5.36
493.855	5.35
494.204	5.36
494.554	5.36
494.903	5.32
495.252	5.3
495.601	5.29
495.95	5.3
496.299	5.29
496.648	5.29
496.997	5.29
497.346	5.3
497.695	5.32
498.043	5.31
498.392	5.3
498.741	5.29
499.09	5.28
499.438	5.27
499.787	5.25
500.135	5.28
500.484	5.29
500.832	5.28
501.181	5.28
501.529	5.28
501.878	5.31
502.226	5.36
502.574	5.38
502.923	5.39
503.271	5.38
503.619	5.42
503.967	5.42
504.315	5.42
504.663	5.43
505.011	5.44
505.359	5.44
505.707	5.47
506.055	5.44
506.403	5.47
506.751	5.49
507.098	5.51
507.446	5.51
507.794	5.51
508.141	5.54
508.489	5.54
508.837	5.55
509.184	5.56
509.531	5.56
509.879	5.58
510.226	5.59
510.574	5.6
510.921	5.58
511.268	5.57
511.616	5.57
511.963	5.58
512.31	5.58
512.657	5.6
513.004	5.61
513.351	5.67
513.698	5.68
514.045	5.66
514.392	5.65
514.739	5.66
515.086	5.68
515.432	5.69
515.779	5.7
516.126	5.71
516.473	5.72
516.819	5.74
517.166	5.72
517.512	5.72
517.859	5.75
518.205	5.75
518.552	5.76
518.898	5.77
519.245	5.77
519.591	5.77
519.937	5.76
520.283	5.73
520.629	5.75
520.976	5.75
521.322	5.75
521.668	5.75
522.014	5.74
522.36	5.74
522.706	5.73
523.052	5.74
523.398	5.75
523.743	5.73
524.089	5.71
524.435	5.72
524.781	5.73
525.126	5.73
525.472	5.76
525.817	5.78
526.163	5.78
526.509	5.78
526.854	5.8
527.199	5.81
527.545	5.82
527.89	5.81
528.235	5.81
528.581	5.82
528.926	5.82
529.271	5.82
529.616	5.81
529.961	5.8
530.306	5.79
530.651	5.78
530.996	5.79
531.341	5.79
531.686	5.79
532.031	5.79
532.376	5.79
532.721	5.79
533.065	5.77
533.41	5.78
533.755	5.77
534.099	5.75
534.444	5.75
534.788	5.74
535.133	5.75
535.477	5.74
535.822	5.74
536.166	5.75
536.51	5.76
536.855	5.78
537.199	5.79
537.543	5.8
537.887	5.8
538.231	5.8
538.576	5.8
538.92	5.82
539.264	5.83
539.608	5.82
539.951	5.81
540.295	5.82
540.639	5.83
540.983	5.84
541.327	5.84
541.671	5.84
542.014	5.84
542.358	5.83
542.701	5.82
543.045	5.83
543.389	5.82
543.732	5.82
544.075	5.8
544.419	5.8
544.762	5.8
545.105	5.82
545.449	5.84
545.792	5.84
546.135	5.83
546.478	5.82
546.821	5.8
547.165	5.82
547.508	5.81
547.851	5.79
548.194	5.79
548.536	5.79
548.879	5.81
549.222	5.82
549.565	5.83
549.908	5.85
550.25	5.82
550.593	5.82
550.936	5.81
551.278	5.83
551.621	5.83
551.963	5.84
552.306	5.86
552.648	5.8
552.991	5.82
553.333	5.82
553.675	5.83
554.017	5.85
554.36	5.85
554.702	5.84
555.044	5.84
555.386	5.83
555.728	5.84
556.07	5.87
556.412	5.82
556.754	5.8
557.096	5.81
557.438	5.84
557.78	5.87
558.121	5.86
558.463	5.88
558.805	5.87
559.147	5.87
559.488	5.83
559.83	5.82
560.171	5.83
560.513	5.85
560.854	5.85
561.196	5.85
561.537	5.84
561.878	5.83
562.22	5.84
562.561	5.84
562.902	5.83
563.243	5.79
563.584	5.83
563.925	5.83
564.266	5.82
564.607	5.8
564.948	5.79
565.289	5.82
565.63	5.82
565.971	5.83
566.312	5.83
566.653	5.85
566.993	5.87
567.334	5.83
567.675	5.82
568.015	5.8
568.356	5.8
568.696	5.82
569.037	5.87
569.377	5.87
569.718	5.9
570.058	5.9
570.398	5.87
570.739	5.88
571.079	5.9
571.419	5.91
571.759	5.93
572.099	5.92
572.439	5.93
572.779	5.93
573.119	5.92
573.459	5.94
573.799	5.95
574.139	5.95
574.479	5.95
574.819	5.95
575.158	5.97
575.498	5.98
575.838	5.95
576.177	5.9
576.517	5.88
576.856	5.91
577.196	5.9
577.535	5.95
577.875	5.96
578.214	5.92
578.553	5.94
578.893	5.92
579.232	5.91
579.571	5.92
579.91	5.91
580.25	5.92
580.589	5.91
580.928	5.91
581.267	5.87
581.606	5.88
581.945	5.86
582.283	5.85
582.622	5.82
582.961	5.82
583.3	5.85
583.639	5.92
583.977	5.88
584.316	5.87
584.654	5.84
584.993	5.82
585.332	5.87
585.67	5.86
586.008	5.88
586.347	5.89
586.685	5.87
587.024	5.84
587.362	5.82
587.7	5.81
588.038	5.83
588.376	5.84
588.715	5.88
589.053	5.89
589.391	5.94
589.729	5.95
590.067	5.95
590.404	5.93
590.742	5.95
591.08	5.93
591.418	5.94
591.756	6
592.093	5.98
592.431	5.95
592.769	5.95
593.106	5.95
593.444	5.95
593.781	5.95
594.119	6
594.456	6.02
594.793	6.04
595.131	5.99
595.468	6.01
595.805	6.01
596.143	6.03
596.48	5.99
596.817	6.04
597.154	6.04
597.491	6.06
597.828	5.98
598.165	6.01
598.502	6
598.839	5.96
599.176	5.97
599.512	6
599.849	6
600.186	5.98
600.523	6
600.859	6.05
601.196	6.06
601.532	6.06
601.869	6.03
602.205	6.07
602.542	6.07
602.878	6.08
603.215	6.08
603.551	6.08
603.887	6.08
604.223	6.07
604.56	6.09
604.896	6.13
605.232	6.13
605.568	6.12
605.904	6.1
606.24	6.12
606.576	6.11
606.912	6.15
607.248	6.18
607.583	6.16
607.919	6.15
608.255	6.13
608.591	6.15
608.926	6.16
609.262	6.17
609.597	6.16
609.933	6.14
610.268	6.17
610.604	6.21
610.939	6.19
611.275	6.21
611.61	6.14
611.945	6.13
612.281	6.12
612.616	6.17
612.951	6.15
613.286	6.13
613.621	6.13
613.956	6.06
614.291	6.06
614.626	6.04
614.961	6.01
615.296	6.05
615.631	6.03
615.966	6.03
616.3	6.02
616.635	6.05
616.97	6.07
617.304	6.02
617.639	5.98
617.973	5.99
618.308	6.01
618.642	6.06
618.977	6.09
619.311	6.11
619.646	6.11
619.98	6.2
620.314	6.25
620.648	6.28
620.983	6.34
621.317	6.36
621.651	6.37
621.985	6.41
622.319	6.4
622.653	6.45
622.987	6.47
623.321	6.48
623.655	6.47
623.988	6.46
624.322	6.48
624.656	6.47
624.99	6.48
625.323	6.44
625.657	6.43
625.99	6.47
626.324	6.45
626.657	6.46
626.991	6.44
627.324	6.41
627.658	6.43
627.991	6.41
628.324	6.4
628.657	6.43
628.991	6.39
629.324	6.39
629.657	6.34
629.99	6.35
630.323	6.28
630.656	6.27
630.989	6.29
631.322	6.29
631.655	6.33
631.987	6.32
632.32	6.29
632.653	6.27
632.986	6.2
633.318	6.24
633.651	6.2
633.984	6.2
634.316	6.15
634.649	6.11
634.981	6.09
635.313	6.07
635.646	6.07
635.978	6.09
636.31	6.08
636.643	6.11
636.975	6.09
637.307	6.11
637.639	6.11
637.971	6.09
638.303	6.04
638.635	6.03
638.967	6.05
639.299	6.17
639.631	6.14
639.963	6.17
640.295	6.15
640.626	6.18
640.958	6.23
641.29	6.25
641.621	6.25
641.953	6.34
642.285	6.39
642.616	6.39
642.948	6.4
643.279	6.4
643.61	6.4
643.942	6.41
644.273	6.44
644.604	6.41
644.936	6.46
645.267	6.5
645.598	6.5
645.929	6.49
646.26	6.48
646.591	6.52
646.922	6.48
647.253	6.42
647.584	6.44
647.915	6.39
648.245	6.42
648.576	6.41
648.907	6.33
649.238	6.3
649.568	6.36
649.899	6.36
650.229	6.41
650.56	6.4
650.89	6.41
651.221	6.48
651.551	6.47
651.882	6.47
652.212	6.49
652.542	6.54
652.872	6.47
653.203	6.45
653.533	6.47
653.863	6.51
654.193	6.57
654.523	6.6
654.853	6.56
655.183	6.55
655.513	6.55
655.843	6.59
656.172	6.62
656.502	6.6
656.832	6.6
657.162	6.56
657.491	6.51
657.821	6.52
658.15	6.51
658.48	6.54
658.809	6.47
659.139	6.49
659.468	6.4
659.798	6.48
660.127	6.48
660.456	6.53
660.785	6.58
661.115	6.54
661.444	6.57
661.773	6.6
662.102	6.57
662.431	6.61
662.76	6.62
663.089	6.58
663.418	6.53
663.747	6.46
664.076	6.47
664.404	6.52
664.733	6.5
665.062	6.59
665.39	6.58
665.719	6.58
666.048	6.63
666.376	6.71
666.705	6.63
667.033	6.63
667.362	6.64
667.69	6.54
668.018	6.56
668.347	6.51
668.675	6.51
669.003	6.52
669.331	6.58
669.659	6.61
669.987	6.59
670.315	6.63
670.643	6.7
670.971	6.81
671.299	6.82
671.627	6.83
671.955	6.75
672.283	6.85
672.61	6.82
672.938	6.74
673.266	6.73
673.593	6.81
673.921	6.86
674.249	6.76
674.576	6.81
674.904	6.81
675.231	6.72
675.558	6.75
675.886	6.77
676.213	6.71
676.54	6.64
676.867	6.68
677.195	6.67
677.522	6.66
677.849	6.55
678.176	6.61
678.503	6.55
678.83	6.52
679.157	6.43
679.484	6.52
679.81	6.5
