Data from BU57650_Reflection_00010.txt Node
Date: Tue Nov 19 11:01:28 EST 2019
User: vgr7
Spectrometer: USB2G7710
Scans to average: 3
Trigger mode: 4
Integration Time (sec): 2.000000E-2
Electric dark correction enabled: true
Boxcar width: 10
XAxis mode: Wavelengths
Number of Pixels in Spectrum: 2048
>>>>>Begin Spectral Data<<<<<
177.721	-0.24
178.105	-3.9
178.488	81.31
178.871	-89.19
179.254	175.86
179.636	-230.36
180.019	244.33
180.402	227.27
180.785	221.74
181.168	165.42
181.55	497.26
181.933	92.44
182.316	149.68
182.698	90.5
183.081	6385.71
183.463	226.48
183.846	280.06
184.228	1136.7
184.611	-398.26
184.993	-161.16
185.376	-139.17
185.758	-75.45
186.14	-122.8
186.522	-136.87
186.904	-115.38
187.287	-183.04
187.669	-111.35
188.051	-129.36
188.433	-103.54
188.815	-101.72
189.197	-82.41
189.579	-72.83
189.961	-57.87
190.342	-48
190.724	-62.69
191.106	-64.19
191.488	-59.03
191.869	-50.22
192.251	-45.1
192.633	-50.9
193.014	-46.4
193.396	-46.8
193.777	-37.24
194.159	-28.76
194.54	-17.42
194.922	-30.01
195.303	-23.08
195.684	-31.6
196.065	-26.62
196.447	-30.01
196.828	-25.59
197.209	-19.5
197.59	-13.47
197.971	-17.45
198.352	-18.53
198.733	-15.53
199.114	-21.65
199.495	-17.9
199.876	-27.31
200.257	-24.03
200.638	-24.04
201.018	-31.15
201.399	-35.5
201.78	-40.3
202.16	-45.13
202.541	-52.61
202.922	-53.12
203.302	-66.37
203.683	-64.49
204.063	-65.57
204.444	-62.73
204.824	-65.94
205.204	-71.92
205.585	-68.28
205.965	-71.28
206.345	-75.8
206.725	-74.47
207.106	-67.83
207.486	-66.73
207.866	-40.5
208.246	-37.46
208.626	-44.45
209.006	-40.88
209.386	-37.05
209.766	-41.68
210.145	-36.28
210.525	-38.51
210.905	-27.65
211.285	-24.96
211.664	-20.22
212.044	-16.06
212.424	-21.42
212.803	-32.77
213.183	-34.51
213.562	-41.19
213.942	-37.72
214.321	-48.37
214.701	-49.84
215.08	-61.91
215.459	-49.66
215.838	-67.67
216.218	-72.96
216.597	-67.03
216.976	-87.61
217.355	-86.03
217.734	-82.55
218.113	-77.9
218.492	-74.13
218.871	-84.73
219.25	-83.74
219.629	-81.57
220.008	-77.93
220.387	-72.16
220.766	-50.28
221.144	-49.78
221.523	-53.45
221.902	-56.46
222.28	-41.27
222.659	-28.47
223.037	-21.99
223.416	-27.94
223.794	-23.29
224.173	-21.2
224.551	-17.15
224.929	-14.07
225.308	-16.35
225.686	-12.14
226.064	-13.96
226.442	-8.75
226.821	-3.31
227.199	-1.89
227.577	-3.03
227.955	-4.93
228.333	-3.93
228.711	-0.51
229.089	-0.61
229.467	-2.04
229.845	-0.53
230.222	1.71
230.6	-1.55
230.978	-1.01
231.356	1.89
231.733	1.72
232.111	1.74
232.488	-0.02
232.866	2.03
233.243	0.79
233.621	1.15
233.998	4.01
234.376	5.33
234.753	3.17
235.13	1.24
235.508	1.42
235.885	1.97
236.262	1.82
236.639	-0.21
237.016	0.93
237.393	3.2
237.77	3.39
238.147	2.73
238.524	3.44
238.901	2.4
239.278	2.23
239.655	1.77
240.032	2.07
240.409	2.32
240.785	2.09
241.162	3.29
241.539	2.8
241.915	2.58
242.292	1.77
242.668	2.45
243.045	3.03
243.421	3.53
243.798	3.74
244.174	3.76
244.551	3.95
244.927	3.94
245.303	3.88
245.679	3.77
246.056	3.91
246.432	3.93
246.808	4.32
247.184	4.21
247.56	4.45
247.936	4.67
248.312	4.82
248.688	4.72
249.064	4.36
249.44	4.57
249.815	4.43
250.191	4.52
250.567	4.34
250.943	4.14
251.318	4.11
251.694	3.93
252.069	4.06
252.445	3.86
252.82	3.85
253.196	4.02
253.571	4.04
253.947	3.91
254.322	3.76
254.697	3.66
255.073	3.47
255.448	3.21
255.823	3.26
256.198	3.33
256.573	3.65
256.948	3.86
257.323	3.79
257.698	3.96
258.073	3.99
258.448	4.14
258.823	4.28
259.198	4.23
259.573	4.18
259.948	4.12
260.322	4.11
260.697	4.09
261.072	4.03
261.446	4.12
261.821	3.99
262.195	4.06
262.57	4.16
262.944	4.2
263.319	4.34
263.693	4.19
264.067	4.03
264.442	4
264.816	3.97
265.19	3.97
265.564	3.96
265.938	3.9
266.313	3.64
266.687	3.68
267.061	3.55
267.435	3.49
267.809	3.38
268.183	3.47
268.556	3.34
268.93	3.3
269.304	3.22
269.678	3.37
270.051	3.54
270.425	3.42
270.799	3.36
271.172	3.24
271.546	3.23
271.919	3.34
272.293	3.37
272.666	3.35
273.04	3.37
273.413	3.19
273.787	3.11
274.16	3.11
274.533	3.09
274.906	3.17
275.279	3.27
275.653	3.35
276.026	3.41
276.399	3.43
276.772	3.43
277.145	3.6
277.518	3.44
277.891	3.14
278.263	3.23
278.636	3.44
279.009	3.46
279.382	3.6
279.755	3.57
280.127	3.56
280.5	3.57
280.872	3.39
281.245	3.5
281.617	3.61
281.99	3.73
282.362	3.78
282.735	3.58
283.107	3.59
283.479	3.54
283.852	3.46
284.224	3.68
284.596	3.55
284.968	3.39
285.34	3.54
285.713	3.66
286.085	3.54
286.457	3.52
286.829	3.52
287.201	3.52
287.572	3.57
287.944	3.51
288.316	3.54
288.688	3.69
289.06	3.76
289.431	3.81
289.803	3.87
290.175	3.79
290.546	3.88
290.918	3.9
291.289	3.85
291.661	3.89
292.032	3.76
292.403	3.77
292.775	4.06
293.146	4.12
293.517	4.13
293.889	4.21
294.26	4.22
294.631	4.36
295.002	4.32
295.373	4.42
295.744	4.48
296.115	4.51
296.486	4.55
296.857	4.55
297.228	4.61
297.599	4.68
297.97	4.72
298.34	4.91
298.711	4.88
299.082	5.01
299.452	5.12
299.823	5.21
300.194	5.44
300.564	5.31
300.935	5.27
301.305	5.27
301.676	5.37
302.046	5.51
302.416	5.62
302.787	5.67
303.157	5.62
303.527	5.74
303.897	5.91
304.267	6
304.637	6.09
305.008	6.13
305.378	6.2
305.748	6.42
306.117	6.42
306.487	6.62
306.857	6.81
307.227	6.97
307.597	6.94
307.967	7.03
308.336	7.07
308.706	7.13
309.076	7.41
309.445	7.44
309.815	7.44
310.184	7.48
310.554	7.53
310.923	7.66
311.293	7.68
311.662	7.76
312.031	7.8
312.401	7.89
312.77	7.91
313.139	7.86
313.508	7.87
313.877	7.88
314.246	7.92
314.616	7.89
314.985	7.87
315.353	8.06
315.722	8.12
316.091	8.22
316.46	8.45
316.829	8.4
317.198	8.47
317.567	8.53
317.935	8.53
318.304	8.83
318.672	8.93
319.041	9.04
319.41	9.23
319.778	9.45
320.147	9.43
320.515	9.64
320.883	9.85
321.252	10.14
321.62	10.32
321.988	10.58
322.357	10.8
322.725	10.84
323.093	10.9
323.461	11.05
323.829	11.14
324.197	10.96
324.565	10.96
324.933	11.04
325.301	11.03
325.669	11.11
326.037	11.02
326.405	10.97
326.772	11.01
327.14	10.81
327.508	10.78
327.875	10.9
328.243	10.98
328.61	10.98
328.978	10.68
329.346	10.59
329.713	10.42
330.08	10.23
330.448	10.21
330.815	10.2
331.182	10.08
331.55	10.11
331.917	10.43
332.284	10.54
332.651	10.66
333.018	10.66
333.385	10.73
333.752	10.76
334.119	10.82
334.486	10.77
334.853	10.77
335.22	10.86
335.587	10.85
335.954	10.73
336.32	10.87
336.687	11.06
337.054	11.11
337.42	11.17
337.787	11.31
338.153	11.35
338.52	11.46
338.886	11.59
339.253	11.61
339.619	11.62
339.986	11.64
340.352	11.65
340.718	11.79
341.084	11.9
341.451	11.99
341.817	12.09
342.183	12.17
342.549	12.31
342.915	12.38
343.281	12.34
343.647	12.44
344.013	12.44
344.379	12.4
344.745	12.5
345.11	12.51
345.476	12.51
345.842	12.65
346.208	12.62
346.573	12.64
346.939	12.75
347.304	12.7
347.67	12.64
348.035	12.61
348.401	12.51
348.766	12.39
349.132	12.37
349.497	12.39
349.862	12.38
350.228	12.43
350.593	12.41
350.958	12.58
351.323	12.54
351.688	12.39
352.053	12.42
352.418	12.45
352.783	12.45
353.148	12.54
353.513	12.4
353.878	12.35
354.243	12.23
354.608	12.09
354.972	12.05
355.337	12.05
355.702	11.99
356.066	11.94
356.431	11.92
356.795	11.86
357.16	11.79
357.524	11.72
357.889	11.71
358.253	11.54
358.618	11.42
358.982	11.35
359.346	11.35
359.71	11.28
360.075	11.19
360.439	11.2
360.803	11.15
361.167	11.13
361.531	11.05
361.895	11.05
362.259	11.04
362.623	11
362.987	10.93
363.351	10.93
363.714	10.97
364.078	10.94
364.442	10.92
364.806	10.82
365.169	10.77
365.533	10.58
365.896	10.55
366.26	10.49
366.623	10.37
366.987	10.32
367.35	10.32
367.714	10.26
368.077	10.15
368.44	10.08
368.803	9.97
369.167	9.92
369.53	9.84
369.893	9.84
370.256	9.74
370.619	9.72
370.982	9.54
371.345	9.44
371.708	9.36
372.071	9.27
372.434	9.14
372.797	9.1
373.159	9.02
373.522	8.98
373.885	8.91
374.247	8.84
374.61	8.69
374.973	8.6
375.335	8.53
375.698	8.38
376.06	8.24
376.423	8.14
376.785	8.08
377.147	7.97
377.51	7.85
377.872	7.75
378.234	7.68
378.596	7.66
378.958	7.56
379.321	7.47
379.683	7.43
380.045	7.4
380.407	7.31
380.769	7.25
381.13	7.14
381.492	7.05
381.854	7.04
382.216	7.05
382.578	6.95
382.939	6.86
383.301	6.84
383.663	6.83
384.024	6.79
384.386	6.77
384.747	6.7
385.109	6.58
385.47	6.54
385.832	6.47
386.193	6.43
386.554	6.33
386.916	6.27
387.277	6.19
387.638	6.12
387.999	6.05
388.36	6.05
388.721	6
389.082	6
389.443	5.95
389.804	5.93
390.165	5.89
390.526	5.8
390.887	5.74
391.248	5.65
391.609	5.65
391.969	5.58
392.33	5.55
392.691	5.58
393.051	5.49
393.412	5.43
393.772	5.37
394.133	5.34
394.493	5.34
394.854	5.29
395.214	5.28
395.574	5.23
395.935	5.18
396.295	5.16
396.655	5.05
397.015	5.02
397.376	4.93
397.736	4.85
398.096	4.83
398.456	4.81
398.816	4.77
399.176	4.68
399.535	4.63
399.895	4.61
400.255	4.56
400.615	4.58
400.975	4.54
401.334	4.5
401.694	4.46
402.054	4.36
402.413	4.34
402.773	4.32
403.132	4.32
403.492	4.26
403.851	4.22
404.211	4.23
404.57	4.23
404.929	4.18
405.288	4.15
405.648	4.15
406.007	4.12
406.366	4.09
406.725	4.11
407.084	4.09
407.443	4.04
407.802	4.01
408.161	3.99
408.52	4
408.879	4.03
409.238	4.04
409.596	4.05
409.955	4.01
410.314	4.02
410.673	4
411.031	3.99
411.39	3.95
411.748	3.98
412.107	3.93
412.465	3.94
412.824	3.94
413.182	3.91
413.54	3.91
413.899	3.91
414.257	3.89
414.615	3.86
414.974	3.85
415.332	3.85
415.69	3.82
416.048	3.79
416.406	3.74
416.764	3.72
417.122	3.69
417.48	3.71
417.838	3.67
418.195	3.64
418.553	3.64
418.911	3.63
419.269	3.6
419.626	3.59
419.984	3.56
420.342	3.54
420.699	3.54
421.057	3.53
421.414	3.52
421.772	3.5
422.129	3.49
422.486	3.49
422.844	3.48
423.201	3.46
423.558	3.46
423.915	3.44
424.273	3.42
424.63	3.42
424.987	3.39
425.344	3.38
425.701	3.37
426.058	3.36
426.415	3.35
426.772	3.33
427.128	3.31
427.485	3.31
427.842	3.31
428.199	3.3
428.555	3.27
428.912	3.24
429.269	3.21
429.625	3.2
429.982	3.18
430.338	3.17
430.695	3.15
431.051	3.16
431.407	3.15
431.764	3.16
432.12	3.16
432.476	3.17
432.832	3.18
433.189	3.17
433.545	3.16
433.901	3.17
434.257	3.17
434.613	3.15
434.969	3.15
435.325	3.16
435.681	3.16
436.036	3.15
436.392	3.18
436.748	3.21
437.104	3.21
437.459	3.2
437.815	3.21
438.171	3.2
438.526	3.21
438.882	3.22
439.237	3.23
439.593	3.22
439.948	3.22
440.304	3.2
440.659	3.2
441.014	3.21
441.369	3.2
441.725	3.2
442.08	3.2
442.435	3.22
442.79	3.21
443.145	3.2
443.5	3.21
443.855	3.19
444.21	3.18
444.565	3.17
444.92	3.18
445.275	3.17
445.629	3.17
445.984	3.16
446.339	3.16
446.693	3.15
447.048	3.14
447.403	3.13
447.757	3.12
448.112	3.11
448.466	3.1
448.82	3.09
449.175	3.08
449.529	3.07
449.883	3.04
450.238	3.03
450.592	3.01
450.946	3.01
451.3	3.02
451.654	3.01
452.008	3
452.362	3.01
452.716	3
453.07	2.98
453.424	2.96
453.778	2.94
454.132	2.93
454.486	2.92
454.839	2.92
455.193	2.93
455.547	2.94
455.9	2.93
456.254	2.95
456.607	2.94
456.961	2.95
457.314	2.96
457.668	2.96
458.021	2.97
458.375	2.97
458.728	2.97
459.081	2.97
459.434	2.96
459.787	2.97
460.141	2.99
460.494	3.01
460.847	3.02
461.2	3.03
461.553	3.03
461.906	3.04
462.259	3.03
462.611	3.05
462.964	3.06
463.317	3.07
463.67	3.07
464.022	3.08
464.375	3.08
464.728	3.09
465.08	3.07
465.433	3.09
465.785	3.11
466.138	3.12
466.49	3.12
466.843	3.14
467.195	3.14
467.547	3.12
467.899	3.13
468.252	3.13
468.604	3.13
468.956	3.15
469.308	3.16
469.66	3.19
470.012	3.18
470.364	3.19
470.716	3.23
471.068	3.24
471.42	3.25
471.772	3.28
472.123	3.28
472.475	3.31
472.827	3.3
473.178	3.33
473.53	3.33
473.882	3.34
474.233	3.31
474.585	3.31
474.936	3.32
475.288	3.3
475.639	3.31
475.99	3.31
476.342	3.32
476.693	3.32
477.044	3.3
477.395	3.3
477.746	3.28
478.097	3.26
478.448	3.24
478.8	3.27
479.15	3.25
479.501	3.24
479.852	3.21
480.203	3.22
480.554	3.2
480.905	3.2
481.255	3.2
481.606	3.21
481.957	3.21
482.307	3.21
482.658	3.22
483.009	3.23
483.359	3.23
483.709	3.23
484.06	3.23
484.41	3.24
484.761	3.24
485.111	3.24
485.461	3.24
485.811	3.24
486.162	3.23
486.512	3.23
486.862	3.24
487.212	3.25
487.562	3.25
487.912	3.26
488.262	3.27
488.612	3.27
488.961	3.27
489.311	3.27
489.661	3.27
490.011	3.27
490.36	3.26
490.71	3.27
491.06	3.26
491.409	3.26
491.759	3.27
492.108	3.26
492.458	3.27
492.807	3.3
493.157	3.31
493.506	3.32
493.855	3.33
494.204	3.34
494.554	3.35
494.903	3.36
495.252	3.37
495.601	3.38
495.95	3.39
496.299	3.41
496.648	3.44
496.997	3.46
497.346	3.5
497.695	3.54
498.043	3.56
498.392	3.58
498.741	3.62
499.09	3.65
499.438	3.7
499.787	3.73
500.135	3.73
500.484	3.76
500.832	3.81
501.181	3.85
501.529	3.91
501.878	3.96
502.226	4.01
502.574	4.05
502.923	4.09
503.271	4.16
503.619	4.21
503.967	4.26
504.315	4.32
504.663	4.35
505.011	4.4
505.359	4.44
505.707	4.52
506.055	4.58
506.403	4.62
506.751	4.69
507.098	4.76
507.446	4.83
507.794	4.9
508.141	4.97
508.489	5.06
508.837	5.13
509.184	5.19
509.531	5.27
509.879	5.35
510.226	5.42
510.574	5.5
510.921	5.59
511.268	5.69
511.616	5.77
511.963	5.86
512.31	5.96
512.657	6.06
513.004	6.15
513.351	6.26
513.698	6.4
514.045	6.49
514.392	6.61
514.739	6.73
515.086	6.86
515.432	6.97
515.779	7.04
516.126	7.16
516.473	7.28
516.819	7.37
517.166	7.49
517.512	7.61
517.859	7.72
518.205	7.81
518.552	7.91
518.898	8.02
519.245	8.13
519.591	8.23
519.937	8.33
520.283	8.43
520.629	8.54
520.976	8.64
521.322	8.77
521.668	8.88
522.014	9.01
522.36	9.14
522.706	9.27
523.052	9.44
523.398	9.61
523.743	9.78
524.089	9.97
524.435	10.13
524.781	10.26
525.126	10.41
525.472	10.55
525.817	10.67
526.163	10.78
526.509	10.9
526.854	11
527.199	11.09
527.545	11.19
527.89	11.3
528.235	11.4
528.581	11.51
528.926	11.63
529.271	11.73
529.616	11.84
529.961	11.94
530.306	12.04
530.651	12.15
530.996	12.26
531.341	12.38
531.686	12.51
532.031	12.65
532.376	12.78
532.721	12.92
533.065	13.06
533.41	13.22
533.755	13.37
534.099	13.52
534.444	13.69
534.788	13.87
535.133	14.02
535.477	14.19
535.822	14.34
536.166	14.52
536.51	14.73
536.855	14.93
537.199	15.14
537.543	15.36
537.887	15.6
538.231	15.82
538.576	16.06
538.92	16.29
539.264	16.49
539.608	16.69
539.951	16.89
540.295	17.08
540.639	17.27
540.983	17.47
541.327	17.65
541.671	17.83
542.014	18.01
542.358	18.2
542.701	18.38
543.045	18.57
543.389	18.76
543.732	18.95
544.075	19.17
544.419	19.39
544.762	19.63
545.105	19.86
545.449	20.12
545.792	20.34
546.135	20.57
546.478	20.84
546.821	21.11
547.165	21.38
547.508	21.65
547.851	21.92
548.194	22.2
548.536	22.55
548.879	22.86
549.222	23.17
549.565	23.48
549.908	23.81
550.25	24.09
550.593	24.39
550.936	24.71
551.278	25.02
551.621	25.31
551.963	25.65
552.306	25.95
552.648	26.26
552.991	26.6
553.333	26.92
553.675	27.27
554.017	27.59
554.36	27.97
554.702	28.28
555.044	28.6
555.386	28.88
555.728	29.14
556.07	29.48
556.412	29.83
556.754	30.11
557.096	30.41
557.438	30.75
557.78	31.1
558.121	31.45
558.463	31.77
558.805	32.13
559.147	32.41
559.488	32.71
559.83	33
560.171	33.34
560.513	33.67
560.854	33.94
561.196	34.28
561.537	34.57
561.878	34.93
562.22	35.23
562.561	35.62
562.902	35.93
563.243	36.2
563.584	36.44
563.925	36.73
564.266	36.99
564.607	37.3
564.948	37.58
565.289	37.84
565.63	38.14
565.971	38.41
566.312	38.67
566.653	38.99
566.993	39.26
567.334	39.53
567.675	39.8
568.015	40.09
568.356	40.35
568.696	40.62
569.037	40.89
569.377	41.18
569.718	41.37
570.058	41.67
570.398	41.97
570.739	42.24
571.079	42.5
571.419	42.83
571.759	43.07
572.099	43.32
572.439	43.56
572.779	43.78
573.119	43.98
573.459	44.27
573.799	44.49
574.139	44.7
574.479	44.86
574.819	45.12
575.158	45.37
575.498	45.57
575.838	45.76
576.177	45.96
576.517	46.24
576.856	46.46
577.196	46.65
577.535	46.87
577.875	47.12
578.214	47.33
578.553	47.49
578.893	47.75
579.232	47.92
579.571	48.15
579.91	48.39
580.25	48.63
580.589	48.79
580.928	48.95
581.267	49.16
581.606	49.43
581.945	49.58
582.283	49.75
582.622	49.95
582.961	50.18
583.3	50.4
583.639	50.48
583.977	50.66
584.316	50.87
584.654	50.99
584.993	51.16
585.332	51.43
585.67	51.59
586.008	51.78
586.347	51.92
586.685	52.03
587.024	52.19
587.362	52.32
587.7	52.5
588.038	52.67
588.376	52.87
588.715	52.91
589.053	53.04
589.391	53.21
589.729	53.38
590.067	53.44
590.404	53.53
590.742	53.63
591.08	53.85
591.418	53.94
591.756	54.11
592.093	54.21
592.431	54.31
592.769	54.47
593.106	54.57
593.444	54.69
593.781	54.85
594.119	54.94
594.456	55.02
594.793	55.11
595.131	55.2
595.468	55.33
595.805	55.42
596.143	55.48
596.48	55.59
596.817	55.63
597.154	55.71
597.491	55.8
597.828	55.95
598.165	56.06
598.502	56.18
598.839	56.22
599.176	56.29
599.512	56.35
599.849	56.48
600.186	56.54
600.523	56.65
600.859	56.71
601.196	56.79
601.532	56.91
601.869	57.04
602.205	57.19
602.542	57.27
602.878	57.41
603.215	57.62
603.551	57.63
603.887	57.72
604.223	57.78
604.56	57.84
604.896	57.93
605.232	57.94
605.568	57.97
605.904	58.08
606.24	58.16
606.576	58.29
606.912	58.31
607.248	58.45
607.583	58.57
607.919	58.67
608.255	58.76
608.591	58.82
608.926	58.85
609.262	58.87
609.597	58.89
609.933	58.99
610.268	58.97
610.604	59.05
610.939	59.12
611.275	59.18
611.61	59.3
611.945	59.3
612.281	59.35
612.616	59.5
612.951	59.53
613.286	59.62
613.621	59.63
613.956	59.73
614.291	59.72
614.626	59.69
614.961	59.83
615.296	59.81
615.631	59.95
615.966	59.99
616.3	60.03
616.635	60.07
616.97	60.09
617.304	60.06
617.639	60.09
617.973	60.07
618.308	60.2
618.642	60.25
618.977	60.29
619.311	60.4
619.646	60.4
619.98	60.5
620.314	60.59
620.648	60.7
620.983	60.66
621.317	60.75
621.651	60.79
621.985	60.8
622.319	60.96
622.653	60.92
622.987	60.99
623.321	61.01
623.655	61.06
623.988	61.17
624.322	61.22
624.656	61.17
624.99	61.24
625.323	61.18
625.657	61.21
625.99	61.26
626.324	61.22
626.657	61.16
626.991	61.17
627.324	61.16
627.658	61.08
627.991	61.21
628.324	61.21
628.657	61.32
628.991	61.31
629.324	61.29
629.657	61.29
629.99	61.24
630.323	61.22
630.656	61.26
630.989	61.22
631.322	61.3
631.655	61.43
631.987	61.45
632.32	61.48
632.653	61.44
632.986	61.41
633.318	61.43
633.651	61.51
633.984	61.55
634.316	61.6
634.649	61.64
634.981	61.61
635.313	61.6
635.646	61.62
635.978	61.64
636.31	61.74
636.643	61.75
636.975	61.77
637.307	61.82
637.639	61.77
637.971	61.84
638.303	61.76
638.635	61.78
638.967	61.79
639.299	61.88
639.631	61.99
639.963	62.01
640.295	62.11
640.626	62.07
640.958	62.17
641.29	62.12
641.621	62.19
641.953	62.23
642.285	62.29
642.616	62.35
642.948	62.35
643.279	62.34
643.61	62.5
643.942	62.6
644.273	62.58
644.604	62.69
644.936	62.76
645.267	62.83
645.598	62.86
645.929	62.95
646.26	62.9
646.591	62.76
646.922	62.78
647.253	62.81
647.584	62.83
647.915	62.74
648.245	62.82
648.576	62.91
648.907	62.92
649.238	62.93
649.568	62.93
649.899	62.91
650.229	62.9
650.56	62.86
650.89	62.85
651.221	62.88
651.551	62.89
651.882	62.77
652.212	62.82
652.542	62.8
652.872	62.84
653.203	62.9
653.533	62.92
653.863	62.96
654.193	62.89
654.523	62.98
654.853	63
655.183	62.98
655.513	62.94
655.843	63.02
656.172	62.99
656.502	62.98
656.832	63.09
657.162	63.13
657.491	63.13
657.821	63.22
658.15	63.3
658.48	63.32
658.809	63.36
659.139	63.29
659.468	63.34
659.798	63.24
660.127	63.29
660.456	63.43
660.785	63.5
661.115	63.49
661.444	63.5
661.773	63.49
662.102	63.6
662.431	63.7
662.76	63.63
663.089	63.74
663.418	63.8
663.747	63.72
664.076	63.67
