Data from BU57649_Reflection_00007.txt Node
Date: Tue Nov 19 10:55:42 EST 2019
User: vgr7
Spectrometer: USB2G7710
Scans to average: 3
Trigger mode: 4
Integration Time (sec): 2.000000E-2
Electric dark correction enabled: true
Boxcar width: 10
XAxis mode: Wavelengths
Number of Pixels in Spectrum: 2048
>>>>>Begin Spectral Data<<<<<
177.721	21.25
178.105	20.9
178.488	30.46
178.871	37.55
179.254	28.78
179.636	17.85
180.019	36.62
180.402	300
180.785	-270.59
181.168	-2150
181.55	-231.17
181.933	250.89
182.316	366.87
182.698	-132.52
183.081	-85.23
183.463	-21.29
183.846	-39.31
184.228	-2.74
184.611	1.63
184.993	20.05
185.376	25.08
185.758	26.05
186.14	22.48
186.522	22.7
186.904	30.34
187.287	25.37
187.669	25.89
188.051	29.32
188.433	21.85
188.815	22.96
189.197	17.47
189.579	29.2
189.961	27.4
190.342	34.63
190.724	34.03
191.106	24.32
191.488	16.64
191.869	19.2
192.251	18.9
192.633	18.25
193.014	18.67
193.396	11.58
193.777	15.38
194.159	8.34
194.54	35.08
194.922	37.46
195.303	29.24
195.684	27.56
196.065	22.79
196.447	43.48
196.828	34.27
197.209	40.07
197.59	19.49
197.971	19.88
198.352	11.06
198.733	6.87
199.114	4.99
199.495	6.52
199.876	-7.41
200.257	-17.33
200.638	-17.48
201.018	-26.48
201.399	-8.48
201.78	-5.03
202.16	-2.08
202.541	-14.51
202.922	-16.43
203.302	-9.3
203.683	-13.71
204.063	-13.26
204.444	-16.99
204.824	-14.08
205.204	-9.68
205.585	-7.51
205.965	-7.39
206.345	0.05
206.725	6.75
207.106	12.2
207.486	11.26
207.866	21.2
208.246	25.69
208.626	31.8
209.006	32.86
209.386	28.83
209.766	28.39
210.145	36.96
210.525	29.68
210.905	26.72
211.285	21.18
211.664	28.17
212.044	31.68
212.424	27.76
212.803	26.88
213.183	29.01
213.562	31.61
213.942	33.52
214.321	20.63
214.701	21.69
215.08	18.03
215.459	24.12
215.838	23.09
216.218	17.48
216.597	7.63
216.976	4.71
217.355	1.42
217.734	2.28
218.113	6.22
218.492	11.16
218.871	14.21
219.25	9.77
219.629	8.19
220.008	3.81
220.387	2.99
220.766	12.22
221.144	8.3
221.523	10.11
221.902	17.18
222.28	32.19
222.659	31.98
223.037	23.85
223.416	25.76
223.794	26.84
224.173	30.7
224.551	31.36
224.929	27.57
225.308	21.5
225.686	22
226.064	14.32
226.442	14.39
226.821	14.64
227.199	15.5
227.577	12.22
227.955	15.21
228.333	17.05
228.711	12.53
229.089	13.52
229.467	10.59
229.845	9.07
230.222	6.77
230.6	6.23
230.978	6.26
231.356	6.9
231.733	7.97
232.111	4.07
232.488	2.66
232.866	6.57
233.243	7.49
233.621	6.15
233.998	7.59
234.376	7.43
234.753	5.56
235.13	5.31
235.508	5.9
235.885	4.83
236.262	4.01
236.639	4.22
237.016	2.12
237.393	3.53
237.77	3.34
238.147	3.76
238.524	3.66
238.901	4.03
239.278	3.07
239.655	2.26
240.032	3.02
240.409	3.68
240.785	3.32
241.162	3.41
241.539	3.27
241.915	2.82
242.292	3.2
242.668	3.75
243.045	4.08
243.421	4.25
243.798	4.16
244.174	4.33
244.551	4.83
244.927	5.03
245.303	4.54
245.679	4.68
246.056	4.74
246.432	4.64
246.808	4.61
247.184	4.74
247.56	4.81
247.936	4.77
248.312	4.65
248.688	4.42
249.064	4.42
249.44	4.5
249.815	4.62
250.191	4.4
250.567	4.12
250.943	4.25
251.318	4.07
251.694	4.07
252.069	3.97
252.445	3.62
252.82	3.79
253.196	4.02
253.571	3.86
253.947	3.92
254.322	3.89
254.697	3.75
255.073	3.68
255.448	3.57
255.823	3.6
256.198	3.52
256.573	3.52
256.948	3.55
257.323	3.52
257.698	3.6
258.073	3.63
258.448	3.79
258.823	3.44
259.198	3.4
259.573	3.33
259.948	3.32
260.322	3.19
260.697	3.24
261.072	3.25
261.446	3.27
261.821	3.08
262.195	3.18
262.57	3.25
262.944	3.07
263.319	3.08
263.693	2.96
264.067	2.91
264.442	3.08
264.816	3.03
265.19	2.94
265.564	2.79
265.938	2.92
266.313	2.81
266.687	2.98
267.061	3.03
267.435	3.16
267.809	2.94
268.183	2.98
268.556	2.86
268.93	2.99
269.304	2.94
269.678	3.13
270.051	3.05
270.425	3.02
270.799	3.15
271.172	3.22
271.546	3.44
271.919	3.43
272.293	3.32
272.666	3.25
273.04	3.13
273.413	3.06
273.787	2.99
274.16	3.08
274.533	3.2
274.906	3.09
275.279	3
275.653	3.3
276.026	3.31
276.399	3.2
276.772	3.07
277.145	3.09
277.518	2.97
277.891	2.93
278.263	3
278.636	3.04
279.009	3.1
279.382	2.87
279.755	2.96
280.127	2.94
280.5	2.94
280.872	3.1
281.245	3.15
281.617	3.12
281.99	3.07
282.362	2.93
282.735	2.99
283.107	3.03
283.479	2.94
283.852	3
284.224	3.1
284.596	3.03
284.968	3.02
285.34	3.02
285.713	3.15
286.085	3.06
286.457	3.01
286.829	2.87
287.201	2.99
287.572	3.02
287.944	3.08
288.316	3.04
288.688	3.08
289.06	3.21
289.431	3.3
289.803	3.22
290.175	3.25
290.546	3.2
290.918	3.23
291.289	3.21
291.661	3.26
292.032	3.13
292.403	3.18
292.775	3.27
293.146	3.28
293.517	3.3
293.889	3.47
294.26	3.45
294.631	3.53
295.002	3.46
295.373	3.45
295.744	3.36
296.115	3.49
296.486	3.55
296.857	3.45
297.228	3.31
297.599	3.33
297.97	3.38
298.34	3.49
298.711	3.53
299.082	3.58
299.452	3.53
299.823	3.68
300.194	3.73
300.564	3.68
300.935	3.8
301.305	3.71
301.676	3.66
302.046	3.79
302.416	3.87
302.787	3.87
303.157	3.91
303.527	4.11
303.897	4.16
304.267	4.18
304.637	4.29
305.008	4.46
305.378	4.53
305.748	4.6
306.117	4.72
306.487	4.7
306.857	4.77
307.227	4.95
307.597	4.99
307.967	5.14
308.336	5.14
308.706	5.1
309.076	5.26
309.445	5.33
309.815	5.33
310.184	5.3
310.554	5.39
310.923	5.36
311.293	5.41
311.662	5.44
312.031	5.4
312.401	5.45
312.77	5.46
313.139	5.63
313.508	5.61
313.877	5.62
314.246	5.67
314.616	5.89
314.985	5.92
315.353	5.85
315.722	5.92
316.091	6.16
316.46	6.23
316.829	6.27
317.198	6.29
317.567	6.46
317.935	6.61
318.304	6.73
318.672	6.94
319.041	6.91
319.41	6.92
319.778	7.05
320.147	7
320.515	7.09
320.883	6.97
321.252	7.06
321.62	7.06
321.988	7.08
322.357	6.88
322.725	6.85
323.093	6.9
323.461	6.92
323.829	6.71
324.197	6.82
324.565	6.84
324.933	6.83
325.301	6.63
325.669	6.59
326.037	6.68
326.405	6.62
326.772	6.73
327.14	6.8
327.508	6.77
327.875	6.86
328.243	6.79
328.61	6.84
328.978	6.74
329.346	6.7
329.713	6.79
330.08	6.99
330.448	7.03
330.815	7.04
331.182	6.88
331.55	6.94
331.917	6.82
332.284	6.76
332.651	6.76
333.018	7.06
333.385	7.17
333.752	7.21
334.119	7.29
334.486	7.23
334.853	7.25
335.22	7.23
335.587	7.22
335.954	7.25
336.32	7.32
336.687	7.44
337.054	7.56
337.42	7.51
337.787	7.39
338.153	7.48
338.52	7.53
338.886	7.66
339.253	7.8
339.619	7.92
339.986	7.9
340.352	7.97
340.718	7.81
341.084	7.77
341.451	7.66
341.817	7.61
342.183	7.62
342.549	7.6
342.915	7.66
343.281	7.61
343.647	7.66
344.013	7.65
344.379	7.67
344.745	7.61
345.11	7.64
345.476	7.69
345.842	7.64
346.208	7.77
346.573	7.75
346.939	7.73
347.304	7.78
347.67	7.78
348.035	7.76
348.401	7.78
348.766	7.79
349.132	7.84
349.497	7.82
349.862	7.82
350.228	7.8
350.593	7.77
350.958	7.92
351.323	7.94
351.688	7.93
352.053	7.91
352.418	7.99
352.783	7.94
353.148	7.92
353.513	7.88
353.878	7.82
354.243	7.79
354.608	7.82
354.972	7.74
355.337	7.76
355.702	7.75
356.066	7.79
356.431	7.72
356.795	7.7
357.16	7.64
357.524	7.63
357.889	7.6
358.253	7.53
358.618	7.44
358.982	7.33
359.346	7.32
359.71	7.27
360.075	7.21
360.439	7.18
360.803	7.13
361.167	7.1
361.531	7.04
361.895	7.04
362.259	6.98
362.623	6.93
362.987	6.79
363.351	6.69
363.714	6.57
364.078	6.54
364.442	6.42
364.806	6.45
365.169	6.39
365.533	6.33
365.896	6.37
366.26	6.26
366.623	6.27
366.987	6.23
367.35	6.27
367.714	6.16
368.077	6.11
368.44	6.04
368.803	5.93
369.167	5.84
369.53	5.8
369.893	5.75
370.256	5.69
370.619	5.7
370.982	5.61
371.345	5.62
371.708	5.62
372.071	5.63
372.434	5.53
372.797	5.51
373.159	5.45
373.522	5.36
373.885	5.35
374.247	5.36
374.61	5.29
374.973	5.18
375.335	5.19
375.698	5.14
376.06	5.09
376.423	5.08
376.785	5.08
377.147	5.02
377.51	4.9
377.872	4.91
378.234	4.9
378.596	4.92
378.958	4.87
379.321	4.8
379.683	4.76
380.045	4.76
380.407	4.75
380.769	4.75
381.13	4.71
381.492	4.66
381.854	4.59
382.216	4.6
382.578	4.59
382.939	4.58
383.301	4.55
383.663	4.57
384.024	4.51
384.386	4.45
384.747	4.46
385.109	4.48
385.47	4.43
385.832	4.4
386.193	4.39
386.554	4.33
386.916	4.3
387.277	4.28
387.638	4.24
387.999	4.17
388.36	4.14
388.721	4.1
389.082	4.08
389.443	4.01
389.804	3.96
390.165	3.93
390.526	3.9
390.887	3.86
391.248	3.82
391.609	3.85
391.969	3.82
392.33	3.74
392.691	3.74
393.051	3.72
393.412	3.68
393.772	3.68
394.133	3.65
394.493	3.59
394.854	3.57
395.214	3.55
395.574	3.52
395.935	3.5
396.295	3.51
396.655	3.45
397.015	3.46
397.376	3.41
397.736	3.37
398.096	3.32
398.456	3.29
398.816	3.28
399.176	3.23
399.535	3.22
399.895	3.18
400.255	3.16
400.615	3.13
400.975	3.11
401.334	3.08
401.694	3.1
402.054	3.11
402.413	3.09
402.773	3.06
403.132	3.05
403.492	3.06
403.851	3.02
404.211	3.04
404.57	3.01
404.929	3.02
405.288	3.03
405.648	3.02
406.007	3.04
406.366	3.02
406.725	3
407.084	2.98
407.443	3
407.802	2.97
408.161	2.98
408.52	3
408.879	3
409.238	2.99
409.596	2.98
409.955	2.95
410.314	2.96
410.673	2.97
411.031	2.92
411.39	2.93
411.748	2.94
412.107	2.94
412.465	2.92
412.824	2.9
413.182	2.85
413.54	2.84
413.899	2.8
414.257	2.79
414.615	2.78
414.974	2.77
415.332	2.76
415.69	2.73
416.048	2.72
416.406	2.69
416.764	2.68
417.122	2.67
417.48	2.7
417.838	2.66
418.195	2.63
418.553	2.63
418.911	2.61
419.269	2.59
419.626	2.58
419.984	2.58
420.342	2.59
420.699	2.6
421.057	2.58
421.414	2.59
421.772	2.58
422.129	2.55
422.486	2.54
422.844	2.54
423.201	2.53
423.558	2.5
423.915	2.51
424.273	2.49
424.63	2.5
424.987	2.49
425.344	2.49
425.701	2.5
426.058	2.5
426.415	2.51
426.772	2.51
427.128	2.51
427.485	2.49
427.842	2.47
428.199	2.47
428.555	2.48
428.912	2.45
429.269	2.44
429.625	2.48
429.982	2.5
430.338	2.5
430.695	2.48
431.051	2.5
431.407	2.47
431.764	2.47
432.12	2.46
432.476	2.46
432.832	2.46
433.189	2.44
433.545	2.44
433.901	2.43
434.257	2.43
434.613	2.42
434.969	2.42
435.325	2.42
435.681	2.42
436.036	2.4
436.392	2.41
436.748	2.43
437.104	2.43
437.459	2.41
437.815	2.4
438.171	2.42
438.526	2.42
438.882	2.44
439.237	2.43
439.593	2.44
439.948	2.44
440.304	2.43
440.659	2.44
441.014	2.45
441.369	2.42
441.725	2.43
442.08	2.42
442.435	2.42
442.79	2.41
443.145	2.41
443.5	2.4
443.855	2.4
444.21	2.4
444.565	2.39
444.92	2.4
445.275	2.4
445.629	2.4
445.984	2.4
446.339	2.38
446.693	2.38
447.048	2.36
447.403	2.36
447.757	2.36
448.112	2.36
448.466	2.35
448.82	2.35
449.175	2.34
449.529	2.34
449.883	2.33
450.238	2.34
450.592	2.34
450.946	2.33
451.3	2.34
451.654	2.33
452.008	2.34
452.362	2.31
452.716	2.32
453.07	2.32
453.424	2.31
453.778	2.32
454.132	2.32
454.486	2.32
454.839	2.33
455.193	2.34
455.547	2.34
455.9	2.32
456.254	2.34
456.607	2.35
456.961	2.35
457.314	2.36
457.668	2.37
458.021	2.37
458.375	2.36
458.728	2.37
459.081	2.37
459.434	2.36
459.787	2.38
460.141	2.37
460.494	2.38
460.847	2.37
461.2	2.38
461.553	2.39
461.906	2.39
462.259	2.36
462.611	2.36
462.964	2.37
463.317	2.38
463.67	2.38
464.022	2.39
464.375	2.38
464.728	2.38
465.08	2.38
465.433	2.39
465.785	2.4
466.138	2.39
466.49	2.41
466.843	2.43
467.195	2.44
467.547	2.44
467.899	2.43
468.252	2.46
468.604	2.46
468.956	2.48
469.308	2.48
469.66	2.51
470.012	2.52
470.364	2.51
470.716	2.5
471.068	2.52
471.42	2.52
471.772	2.55
472.123	2.53
472.475	2.54
472.827	2.53
473.178	2.54
473.53	2.56
473.882	2.54
474.233	2.53
474.585	2.53
474.936	2.51
475.288	2.49
475.639	2.49
475.99	2.47
476.342	2.47
476.693	2.47
477.044	2.47
477.395	2.46
477.746	2.45
478.097	2.45
478.448	2.44
478.8	2.46
479.15	2.44
479.501	2.46
479.852	2.46
480.203	2.46
480.554	2.46
480.905	2.45
481.255	2.45
481.606	2.46
481.957	2.46
482.307	2.47
482.658	2.49
483.009	2.49
483.359	2.48
483.709	2.48
484.06	2.49
484.41	2.48
484.761	2.49
485.111	2.49
485.461	2.48
485.811	2.48
486.162	2.47
486.512	2.48
486.862	2.47
487.212	2.47
487.562	2.46
487.912	2.47
488.262	2.47
488.612	2.47
488.961	2.46
489.311	2.44
489.661	2.44
490.011	2.44
490.36	2.44
490.71	2.45
491.06	2.44
491.409	2.43
491.759	2.43
492.108	2.43
492.458	2.45
492.807	2.46
493.157	2.47
493.506	2.48
493.855	2.48
494.204	2.49
494.554	2.49
494.903	2.51
495.252	2.5
495.601	2.51
495.95	2.52
496.299	2.54
496.648	2.58
496.997	2.61
497.346	2.64
497.695	2.66
498.043	2.68
498.392	2.71
498.741	2.75
499.09	2.78
499.438	2.81
499.787	2.82
500.135	2.84
500.484	2.85
500.832	2.87
501.181	2.91
501.529	2.95
501.878	2.99
502.226	3.01
502.574	3.06
502.923	3.1
503.271	3.13
503.619	3.18
503.967	3.2
504.315	3.23
504.663	3.24
505.011	3.25
505.359	3.27
505.707	3.31
506.055	3.33
506.403	3.39
506.751	3.4
507.098	3.45
507.446	3.5
507.794	3.56
508.141	3.6
508.489	3.63
508.837	3.67
509.184	3.73
509.531	3.76
509.879	3.79
510.226	3.83
510.574	3.88
510.921	3.92
511.268	3.98
511.616	4.03
511.963	4.07
512.31	4.15
512.657	4.22
513.004	4.27
513.351	4.35
513.698	4.43
514.045	4.51
514.392	4.57
514.739	4.65
515.086	4.73
515.432	4.83
515.779	4.91
516.126	5.01
516.473	5.07
516.819	5.16
517.166	5.25
517.512	5.32
517.859	5.41
518.205	5.46
518.552	5.53
518.898	5.6
519.245	5.7
519.591	5.76
519.937	5.84
520.283	5.91
520.629	5.98
520.976	6.06
521.322	6.17
521.668	6.27
522.014	6.37
522.36	6.47
522.706	6.59
523.052	6.71
523.398	6.81
523.743	6.92
524.089	7.05
524.435	7.16
524.781	7.27
525.126	7.37
525.472	7.49
525.817	7.58
526.163	7.67
526.509	7.74
526.854	7.82
527.199	7.9
527.545	8
527.89	8.09
528.235	8.17
528.581	8.23
528.926	8.31
529.271	8.37
529.616	8.44
529.961	8.5
530.306	8.59
530.651	8.66
530.996	8.77
531.341	8.85
531.686	8.95
532.031	9.06
532.376	9.15
532.721	9.24
533.065	9.35
533.41	9.47
533.755	9.58
534.099	9.69
534.444	9.81
534.788	9.9
535.133	10
535.477	10.11
535.822	10.24
536.166	10.37
536.51	10.52
536.855	10.67
537.199	10.83
537.543	10.98
537.887	11.15
538.231	11.29
538.576	11.46
538.92	11.62
539.264	11.78
539.608	11.92
539.951	12.08
540.295	12.22
540.639	12.37
540.983	12.51
541.327	12.66
541.671	12.8
542.014	12.97
542.358	13.11
542.701	13.25
543.045	13.4
543.389	13.54
543.732	13.7
544.075	13.84
544.419	14
544.762	14.15
545.105	14.31
545.449	14.5
545.792	14.69
546.135	14.9
546.478	15.08
546.821	15.33
547.165	15.57
547.508	15.79
547.851	16
548.194	16.23
548.536	16.46
548.879	16.65
549.222	16.86
549.565	17.09
549.908	17.31
550.25	17.53
550.593	17.76
550.936	18.04
551.278	18.31
551.621	18.55
551.963	18.8
552.306	19.05
552.648	19.33
552.991	19.54
553.333	19.75
553.675	20.03
554.017	20.24
554.36	20.43
554.702	20.64
555.044	20.87
555.386	21.13
555.728	21.38
556.07	21.65
556.412	21.92
556.754	22.16
557.096	22.4
557.438	22.68
557.78	22.95
558.121	23.16
558.463	23.42
558.805	23.7
559.147	23.96
559.488	24.27
559.83	24.54
560.171	24.84
560.513	25.12
560.854	25.45
561.196	25.75
561.537	26.02
561.878	26.3
562.22	26.59
562.561	26.83
562.902	27.07
563.243	27.3
563.584	27.53
563.925	27.82
564.266	28.14
564.607	28.43
564.948	28.7
565.289	29
565.63	29.25
565.971	29.51
566.312	29.82
566.653	30.02
566.993	30.22
567.334	30.49
567.675	30.74
568.015	30.96
568.356	31.17
568.696	31.47
569.037	31.72
569.377	32
569.718	32.26
570.058	32.53
570.398	32.79
570.739	33.01
571.079	33.24
571.419	33.48
571.759	33.7
572.099	33.94
572.439	34.09
572.779	34.34
573.119	34.58
573.459	34.76
573.799	35
574.139	35.26
574.479	35.43
574.819	35.65
575.158	35.83
575.498	36.02
575.838	36.18
576.177	36.4
576.517	36.56
576.856	36.79
577.196	37
577.535	37.24
577.875	37.5
578.214	37.68
578.553	37.86
578.893	38.11
579.232	38.33
579.571	38.59
579.91	38.76
580.25	38.94
580.589	39.13
580.928	39.39
581.267	39.57
581.606	39.86
581.945	39.99
582.283	40.2
582.622	40.46
582.961	40.68
583.3	40.84
583.639	41.08
583.977	41.25
584.316	41.49
584.654	41.69
584.993	41.87
585.332	42.12
585.67	42.35
586.008	42.48
586.347	42.55
586.685	42.69
587.024	42.89
587.362	43
587.7	43.16
588.038	43.23
588.376	43.33
588.715	43.45
589.053	43.64
589.391	43.76
589.729	43.91
590.067	44.01
590.404	44.14
590.742	44.24
591.08	44.41
591.418	44.42
591.756	44.56
592.093	44.64
592.431	44.72
592.769	44.79
593.106	44.91
593.444	45.1
593.781	45.26
594.119	45.38
594.456	45.57
594.793	45.66
595.131	45.79
595.468	45.93
595.805	46.04
596.143	46.12
596.48	46.22
596.817	46.2
597.154	46.34
597.491	46.5
597.828	46.59
598.165	46.72
598.502	46.93
598.839	47.05
599.176	47.18
599.512	47.29
599.849	47.46
600.186	47.58
600.523	47.68
600.859	47.75
601.196	47.87
601.532	47.9
601.869	48.04
602.205	48.15
602.542	48.19
602.878	48.25
603.215	48.33
603.551	48.48
603.887	48.64
604.223	48.66
604.56	48.67
604.896	48.76
605.232	48.75
605.568	48.83
605.904	48.83
606.24	48.95
606.576	49.04
606.912	49.07
607.248	49.15
607.583	49.2
607.919	49.29
608.255	49.39
608.591	49.53
608.926	49.59
609.262	49.7
609.597	49.85
609.933	49.89
610.268	49.98
610.604	49.96
610.939	50.01
611.275	50.14
611.61	50.26
611.945	50.29
612.281	50.38
612.616	50.41
612.951	50.47
613.286	50.53
613.621	50.62
613.956	50.71
614.291	50.73
614.626	50.84
614.961	50.96
615.296	50.96
615.631	50.87
615.966	50.91
616.3	50.92
616.635	50.96
616.97	50.99
617.304	51.02
617.639	51.08
617.973	51.17
618.308	51.24
618.642	51.27
618.977	51.25
619.311	51.36
619.646	51.3
619.98	51.37
620.314	51.37
620.648	51.47
620.983	51.49
621.317	51.51
621.651	51.58
621.985	51.64
622.319	51.76
622.653	51.95
622.987	52.01
623.321	51.98
623.655	52.05
623.988	52.2
624.322	52.21
624.656	52.25
624.99	52.27
625.323	52.25
625.657	52.34
625.99	52.44
626.324	52.44
626.657	52.55
626.991	52.58
627.324	52.65
627.658	52.65
627.991	52.65
628.324	52.75
628.657	52.72
628.991	52.7
629.324	52.63
629.657	52.58
629.99	52.61
630.323	52.75
630.656	52.78
630.989	52.72
631.322	52.73
631.655	52.83
631.987	52.83
632.32	52.91
632.653	52.98
632.986	53.04
633.318	53.09
633.651	52.95
633.984	53.06
634.316	53.05
634.649	53.07
634.981	53.15
635.313	53.25
635.646	53.31
635.978	53.29
636.31	53.34
636.643	53.39
636.975	53.43
637.307	53.49
637.639	53.51
637.971	53.55
638.303	53.66
638.635	53.73
638.967	53.74
639.299	53.7
639.631	53.61
639.963	53.59
640.295	53.56
640.626	53.72
640.958	53.79
641.29	53.75
641.621	53.75
641.953	53.72
642.285	53.63
642.616	53.61
642.948	53.62
643.279	53.69
643.61	53.76
643.942	53.76
644.273	53.56
644.604	53.54
644.936	53.58
645.267	53.56
645.598	53.44
645.929	53.47
646.26	53.43
646.591	53.51
646.922	53.63
647.253	53.67
647.584	53.72
647.915	53.67
648.245	53.65
648.576	53.68
648.907	53.74
649.238	53.74
649.568	53.82
649.899	53.87
650.229	53.84
650.56	53.91
650.89	53.93
651.221	54.13
651.551	54.17
651.882	54.17
652.212	54.35
652.542	54.37
652.872	54.46
653.203	54.54
653.533	54.54
653.863	54.53
654.193	54.6
654.523	54.55
654.853	54.56
655.183	54.64
655.513	54.68
655.843	54.61
656.172	54.72
656.502	54.68
656.832	54.76
657.162	54.84
657.491	54.87
657.821	54.77
658.15	54.73
658.48	54.76
658.809	54.79
659.139	54.74
659.468	54.79
659.798	54.7
660.127	54.7
660.456	54.7
660.785	54.65
661.115	54.66
661.444	54.8
661.773	54.75
662.102	54.84
662.431	54.82
662.76	54.91
663.089	54.97
663.418	54.96
663.747	55.05
664.076	55
664.404	55.03
664.733	55.15
665.062	55.3
665.39	55.2
665.719	55.23
666.048	55.26
666.376	55.19
666.705	55.48
667.033	55.5
667.362	55.58
667.69	55.66
668.018	55.7
668.347	55.73
668.675	55.82
669.003	55.99
669.331	55.97
669.659	55.95
669.987	55.88
670.315	55.94
670.643	55.86
670.971	55.89
671.299	55.87
