Data from BU57737_Reflection_00009.txt Node
Date: Mon Nov 18 16:29:56 EST 2019
User: vgr7
Spectrometer: USB2G7710
Scans to average: 3
Trigger mode: 4
Integration Time (sec): 2.000000E-2
Electric dark correction enabled: true
Boxcar width: 10
XAxis mode: Wavelengths
Number of Pixels in Spectrum: 2048
>>>>>Begin Spectral Data<<<<<
177.721	120.95
178.105	-296.83
178.488	-93.25
178.871	-80.65
179.254	3.68
179.636	157.82
180.019	349.59
180.402	50
180.785	-95.62
181.168	-852.38
181.55	124.02
181.933	83.69
182.316	133.54
182.698	204.06
183.081	375.13
183.463	518.47
183.846	160.51
184.228	256
184.611	260.64
184.993	257.6
185.376	261.97
185.758	198.08
186.14	200.57
186.522	148.1
186.904	152.29
187.287	146.48
187.669	207.04
188.051	288.77
188.433	378.44
188.815	407.04
189.197	323.93
189.579	368.01
189.961	842.2
190.342	887.52
190.724	1002.89
191.106	-6015.94
191.488	136766.67
191.869	-497.37
192.251	-666.81
192.633	-400.45
193.014	-222.71
193.396	-247.91
193.777	-253.05
194.159	-244.69
194.54	-162.17
194.922	-111.99
195.303	-109.12
195.684	-121.02
196.065	-118.57
196.447	-137.25
196.828	-160.2
197.209	-104.61
197.59	-105.56
197.971	-110.74
198.352	-88.25
198.733	-112.55
199.114	-127.13
199.495	-120.84
199.876	-110.62
200.257	-94.5
200.638	-104.96
201.018	-128.6
201.399	-118.16
201.78	-104.55
202.16	-146.78
202.541	-308.06
202.922	-341.16
203.302	-400.3
203.683	-460.39
204.063	-792.82
204.444	-1855.18
204.824	-689.78
205.204	-1041.88
205.585	-676.58
205.965	-382.15
206.345	-985.14
206.725	-1413.98
207.106	-1279.58
207.486	-1055.75
207.866	-2104.62
208.246	19251.52
208.626	71655.56
209.006	-1071.17
209.386	4203.7
209.766	1395.51
210.145	1737.54
210.525	-280.09
210.905	-292.84
211.285	-193.68
211.664	-144.37
212.044	-117.41
212.424	-112.2
212.803	-136.91
213.183	-114.73
213.562	-100.42
213.942	-113.85
214.321	-66.54
214.701	-69.62
215.08	-69.48
215.459	-65.64
215.838	-74.91
216.218	-80.97
216.597	-68.76
216.976	-89.06
217.355	-86.18
217.734	-83.1
218.113	-71.28
218.492	-86
218.871	-93.21
219.25	-113.21
219.629	-118.6
220.008	-110.47
220.387	-92.75
220.766	-92.26
221.144	-109.17
221.523	-133.57
221.902	-122.87
222.28	-163.33
222.659	-135.75
223.037	-120.99
223.416	-111.56
223.794	-96.92
224.173	-75.48
224.551	-63.08
224.929	-53.68
225.308	-47.89
225.686	-45.26
226.064	-37.56
226.442	-33.73
226.821	-28.53
227.199	-29.09
227.577	-34.45
227.955	-34.46
228.333	-32.03
228.711	-28.76
229.089	-25.43
229.467	-25.93
229.845	-25.54
230.222	-23.19
230.6	-21.42
230.978	-18.15
231.356	-15.92
231.733	-15.54
232.111	-14.6
232.488	-15.1
232.866	-13.57
233.243	-11.73
233.621	-11.52
233.998	-11.92
234.376	-11.64
234.753	-9.07
235.13	-6.02
235.508	-4.69
235.885	-3.03
236.262	-4.26
236.639	-3.46
237.016	-4.37
237.393	-3.26
237.77	-2.79
238.147	-1.7
238.524	-0.96
238.901	-0.65
239.278	-0.61
239.655	0.45
240.032	0.92
240.409	1.22
240.785	1.35
241.162	1.93
241.539	2.43
241.915	2.54
242.292	2.73
242.668	2.49
243.045	2.45
243.421	2.49
243.798	2.08
244.174	2.34
244.551	2.31
244.927	2.51
245.303	2.69
245.679	2.83
246.056	2.7
246.432	2.42
246.808	2.54
247.184	2.42
247.56	2.25
247.936	2.26
248.312	2.42
248.688	2.25
249.064	2.12
249.44	1.96
249.815	1.98
250.191	1.92
250.567	1.84
250.943	1.68
251.318	1.84
251.694	1.85
252.069	1.75
252.445	1.72
252.82	1.59
253.196	1.67
253.571	1.7
253.947	1.55
254.322	1.85
254.697	1.54
255.073	1.5
255.448	1.31
255.823	1.54
256.198	1.29
256.573	1.44
256.948	1.49
257.323	1.65
257.698	1.65
258.073	1.54
258.448	1.57
258.823	1.57
259.198	1.55
259.573	1.57
259.948	1.62
260.322	1.63
260.697	1.53
261.072	1.29
261.446	1.18
261.821	1.31
262.195	1.48
262.57	1.47
262.944	1.49
263.319	1.49
263.693	1.42
264.067	1.51
264.442	1.48
264.816	1.35
265.19	1.26
265.564	1.18
265.938	1.17
266.313	1.31
266.687	1.35
267.061	1.41
267.435	1.59
267.809	1.53
268.183	1.6
268.556	1.61
268.93	1.7
269.304	1.71
269.678	1.81
270.051	1.65
270.425	1.86
270.799	1.92
271.172	1.95
271.546	1.8
271.919	1.92
272.293	2.01
272.666	2.18
273.04	2.15
273.413	2.08
273.787	2.3
274.16	2.32
274.533	2.32
274.906	2.19
275.279	2.19
275.653	2.2
276.026	2.01
276.399	2.16
276.772	2.35
277.145	2.28
277.518	2.17
277.891	2.13
278.263	1.97
278.636	2
279.009	2.02
279.382	2.15
279.755	1.93
280.127	2
280.5	2.1
280.872	2.14
281.245	2.07
281.617	2.08
281.99	2.02
282.362	1.99
282.735	1.98
283.107	1.89
283.479	1.95
283.852	2.08
284.224	2.05
284.596	1.94
284.968	1.99
285.34	2
285.713	1.92
286.085	2.01
286.457	1.98
286.829	2.03
287.201	2.12
287.572	2.14
287.944	2.03
288.316	1.85
288.688	1.77
289.06	1.87
289.431	1.78
289.803	1.76
290.175	1.93
290.546	2.01
290.918	2.08
291.289	2.14
291.661	2.18
292.032	2.21
292.403	2.4
292.775	2.45
293.146	2.39
293.517	2.39
293.889	2.35
294.26	2.31
294.631	2.29
295.002	2.27
295.373	2.28
295.744	2.33
296.115	2.31
296.486	2.37
296.857	2.38
297.228	2.41
297.599	2.37
297.97	2.25
298.34	2.25
298.711	2.13
299.082	2.07
299.452	2.06
299.823	2.1
300.194	1.98
300.564	1.97
300.935	2.12
301.305	2.18
301.676	2.32
302.046	2.35
302.416	2.43
302.787	2.34
303.157	2.44
303.527	2.45
303.897	2.57
304.267	2.72
304.637	2.76
305.008	2.73
305.378	3.02
305.748	3.17
306.117	3.19
306.487	3.33
306.857	3.37
307.227	3.32
307.597	3.32
307.967	3.39
308.336	3.54
308.706	3.55
309.076	3.59
309.445	3.48
309.815	3.61
310.184	3.56
310.554	3.66
310.923	3.61
311.293	3.64
311.662	3.63
312.031	3.6
312.401	3.59
312.77	3.78
313.139	3.71
313.508	3.73
313.877	3.89
314.246	3.87
314.616	3.98
314.985	4.13
315.353	4.17
315.722	4.27
316.091	4.2
316.46	4.1
316.829	4.14
317.198	4.33
317.567	4.29
317.935	4.35
318.304	4.3
318.672	4.45
319.041	4.57
319.41	4.57
319.778	4.63
320.147	4.66
320.515	4.43
320.883	4.42
321.252	4.36
321.62	4.25
321.988	4.46
322.357	4.52
322.725	4.51
323.093	4.68
323.461	4.68
323.829	4.76
324.197	4.94
324.565	5
324.933	4.93
325.301	5.03
325.669	5.16
326.037	5.2
326.405	5.19
326.772	5.13
327.14	5.31
327.508	5.28
327.875	5.36
328.243	5.56
328.61	5.57
328.978	5.74
329.346	5.82
329.713	5.73
330.08	5.67
330.448	5.7
330.815	5.61
331.182	5.64
331.55	5.61
331.917	5.65
332.284	5.82
332.651	5.9
333.018	5.93
333.385	5.84
333.752	6.02
334.119	6.17
334.486	6.25
334.853	6.21
335.22	6.17
335.587	6.26
335.954	6.23
336.32	6.24
336.687	6.16
337.054	6.18
337.42	6.23
337.787	6.34
338.153	6.33
338.52	6.38
338.886	6.34
339.253	6.39
339.619	6.46
339.986	6.44
340.352	6.5
340.718	6.46
341.084	6.5
341.451	6.49
341.817	6.46
342.183	6.5
342.549	6.47
342.915	6.64
343.281	6.56
343.647	6.5
344.013	6.54
344.379	6.49
344.745	6.49
345.11	6.53
345.476	6.48
345.842	6.61
346.208	6.58
346.573	6.69
346.939	6.73
347.304	6.65
347.67	6.53
348.035	6.57
348.401	6.49
348.766	6.51
349.132	6.45
349.497	6.5
349.862	6.5
350.228	6.59
350.593	6.54
350.958	6.63
351.323	6.68
351.688	6.67
352.053	6.76
352.418	6.82
352.783	6.84
353.148	6.85
353.513	6.68
353.878	6.72
354.243	6.78
354.608	6.73
354.972	6.68
355.337	6.76
355.702	6.73
356.066	6.81
356.431	6.77
356.795	6.78
357.16	6.68
357.524	6.61
357.889	6.58
358.253	6.56
358.618	6.46
358.982	6.42
359.346	6.41
359.71	6.35
360.075	6.3
360.439	6.26
360.803	6.23
361.167	6.27
361.531	6.22
361.895	6.12
362.259	6.08
362.623	6.11
362.987	6.1
363.351	6.05
363.714	6.03
364.078	6.03
364.442	5.95
364.806	5.93
365.169	5.97
365.533	5.88
365.896	5.86
366.26	5.91
366.623	5.83
366.987	5.77
367.35	5.79
367.714	5.76
368.077	5.7
368.44	5.65
368.803	5.56
369.167	5.48
369.53	5.37
369.893	5.41
370.256	5.4
370.619	5.31
370.982	5.24
371.345	5.12
371.708	5.1
372.071	5.09
372.434	5.07
372.797	5.04
373.159	5
373.522	4.96
373.885	4.94
374.247	5.01
374.61	4.99
374.973	4.88
375.335	4.82
375.698	4.83
376.06	4.77
376.423	4.75
376.785	4.75
377.147	4.77
377.51	4.71
377.872	4.63
378.234	4.61
378.596	4.54
378.958	4.55
379.321	4.49
379.683	4.46
380.045	4.37
380.407	4.29
380.769	4.25
381.13	4.16
381.492	4.07
381.854	4.01
382.216	3.93
382.578	3.94
382.939	3.89
383.301	3.85
383.663	3.81
384.024	3.81
384.386	3.8
384.747	3.75
385.109	3.73
385.47	3.68
385.832	3.62
386.193	3.63
386.554	3.57
386.916	3.52
387.277	3.49
387.638	3.49
387.999	3.43
388.36	3.41
388.721	3.43
389.082	3.45
389.443	3.41
389.804	3.4
390.165	3.39
390.526	3.38
390.887	3.32
391.248	3.34
391.609	3.28
391.969	3.25
392.33	3.23
392.691	3.19
393.051	3.16
393.412	3.15
393.772	3.14
394.133	3.16
394.493	3.17
394.854	3.13
395.214	3.11
395.574	3.09
395.935	3.05
396.295	3.03
396.655	2.96
397.015	2.96
397.376	2.96
397.736	2.92
398.096	2.87
398.456	2.88
398.816	2.81
399.176	2.77
399.535	2.77
399.895	2.73
400.255	2.71
400.615	2.69
400.975	2.67
401.334	2.66
401.694	2.62
402.054	2.6
402.413	2.59
402.773	2.55
403.132	2.52
403.492	2.54
403.851	2.5
404.211	2.48
404.57	2.45
404.929	2.43
405.288	2.41
405.648	2.46
406.007	2.4
406.366	2.44
406.725	2.45
407.084	2.44
407.443	2.45
407.802	2.46
408.161	2.46
408.52	2.45
408.879	2.42
409.238	2.41
409.596	2.4
409.955	2.37
410.314	2.38
410.673	2.38
411.031	2.35
411.39	2.35
411.748	2.36
412.107	2.38
412.465	2.36
412.824	2.32
413.182	2.29
413.54	2.3
413.899	2.29
414.257	2.27
414.615	2.25
414.974	2.24
415.332	2.21
415.69	2.21
416.048	2.18
416.406	2.19
416.764	2.17
417.122	2.15
417.48	2.13
417.838	2.11
418.195	2.1
418.553	2.1
418.911	2.07
419.269	2.07
419.626	2.05
419.984	2.06
420.342	2.07
420.699	2.04
421.057	2.03
421.414	2.01
421.772	2.01
422.129	2
422.486	2
422.844	2.01
423.201	1.99
423.558	1.99
423.915	1.99
424.273	1.99
424.63	1.98
424.987	1.99
425.344	1.98
425.701	1.98
426.058	1.97
426.415	1.98
426.772	1.96
427.128	1.96
427.485	1.95
427.842	1.93
428.199	1.95
428.555	1.95
428.912	1.95
429.269	1.96
429.625	1.95
429.982	1.93
430.338	1.92
430.695	1.94
431.051	1.92
431.407	1.91
431.764	1.9
432.12	1.91
432.476	1.9
432.832	1.89
433.189	1.89
433.545	1.87
433.901	1.87
434.257	1.86
434.613	1.86
434.969	1.84
435.325	1.86
435.681	1.87
436.036	1.86
436.392	1.86
436.748	1.85
437.104	1.84
437.459	1.83
437.815	1.83
438.171	1.83
438.526	1.85
438.882	1.86
439.237	1.86
439.593	1.87
439.948	1.88
440.304	1.9
440.659	1.91
441.014	1.92
441.369	1.91
441.725	1.92
442.08	1.91
442.435	1.92
442.79	1.92
443.145	1.91
443.5	1.9
443.855	1.89
444.21	1.9
444.565	1.9
444.92	1.92
445.275	1.92
445.629	1.92
445.984	1.91
446.339	1.91
446.693	1.91
447.048	1.9
447.403	1.89
447.757	1.87
448.112	1.86
448.466	1.87
448.82	1.87
449.175	1.88
449.529	1.87
449.883	1.87
450.238	1.84
450.592	1.83
450.946	1.84
451.3	1.84
451.654	1.81
452.008	1.81
452.362	1.79
452.716	1.77
453.07	1.75
453.424	1.74
453.778	1.74
454.132	1.73
454.486	1.72
454.839	1.73
455.193	1.73
455.547	1.74
455.9	1.73
456.254	1.73
456.607	1.72
456.961	1.73
457.314	1.74
457.668	1.77
458.021	1.76
458.375	1.77
458.728	1.78
459.081	1.79
459.434	1.78
459.787	1.8
460.141	1.82
460.494	1.82
460.847	1.83
461.2	1.81
461.553	1.82
461.906	1.84
462.259	1.83
462.611	1.83
462.964	1.84
463.317	1.83
463.67	1.84
464.022	1.84
464.375	1.83
464.728	1.83
465.08	1.82
465.433	1.83
465.785	1.82
466.138	1.81
466.49	1.81
466.843	1.8
467.195	1.8
467.547	1.79
467.899	1.79
468.252	1.78
468.604	1.82
468.956	1.81
469.308	1.81
469.66	1.8
470.012	1.81
470.364	1.81
470.716	1.83
471.068	1.8
471.42	1.81
471.772	1.82
472.123	1.83
472.475	1.84
472.827	1.84
473.178	1.86
473.53	1.87
473.882	1.88
474.233	1.9
474.585	1.89
474.936	1.89
475.288	1.9
475.639	1.9
475.99	1.9
476.342	1.89
476.693	1.9
477.044	1.93
477.395	1.93
477.746	1.92
478.097	1.92
478.448	1.94
478.8	1.94
479.15	1.92
479.501	1.92
479.852	1.92
480.203	1.92
480.554	1.92
480.905	1.93
481.255	1.94
481.606	1.94
481.957	1.94
482.307	1.94
482.658	1.94
483.009	1.94
483.359	1.94
483.709	1.95
484.06	1.95
484.41	1.95
484.761	1.94
485.111	1.95
485.461	1.96
485.811	1.95
486.162	1.95
486.512	1.97
486.862	1.98
487.212	1.97
487.562	1.98
487.912	1.98
488.262	1.97
488.612	1.96
488.961	1.97
489.311	1.97
489.661	1.96
490.011	1.96
490.36	1.96
490.71	1.97
491.06	1.96
491.409	1.95
491.759	1.95
492.108	1.95
492.458	1.95
492.807	1.93
493.157	1.94
493.506	1.95
493.855	1.94
494.204	1.94
494.554	1.95
494.903	1.94
495.252	1.95
495.601	1.96
495.95	1.97
496.299	1.97
496.648	1.95
496.997	1.97
497.346	1.99
497.695	2.03
498.043	2.03
498.392	2.05
498.741	2.08
499.09	2.07
499.438	2.09
499.787	2.1
500.135	2.13
500.484	2.14
500.832	2.16
501.181	2.17
501.529	2.18
501.878	2.21
502.226	2.27
502.574	2.27
502.923	2.3
503.271	2.31
503.619	2.37
503.967	2.42
504.315	2.43
504.663	2.46
505.011	2.51
505.359	2.54
505.707	2.58
506.055	2.62
506.403	2.68
506.751	2.73
507.098	2.78
507.446	2.82
507.794	2.86
508.141	2.89
508.489	2.94
508.837	3
509.184	3.03
509.531	3.04
509.879	3.11
510.226	3.16
510.574	3.22
510.921	3.25
511.268	3.29
511.616	3.36
511.963	3.41
512.31	3.45
512.657	3.5
513.004	3.56
513.351	3.63
513.698	3.7
514.045	3.76
514.392	3.84
514.739	3.91
515.086	4
515.432	4.09
515.779	4.16
516.126	4.24
516.473	4.33
516.819	4.41
517.166	4.47
517.512	4.55
517.859	4.63
518.205	4.71
518.552	4.78
518.898	4.83
519.245	4.91
519.591	4.98
519.937	5.06
520.283	5.14
520.629	5.24
520.976	5.34
521.322	5.42
521.668	5.51
522.014	5.63
522.36	5.74
522.706	5.87
523.052	5.99
523.398	6.12
523.743	6.27
524.089	6.44
524.435	6.59
524.781	6.74
525.126	6.89
525.472	7.02
525.817	7.13
526.163	7.26
526.509	7.38
526.854	7.48
527.199	7.59
527.545	7.68
527.89	7.78
528.235	7.87
528.581	8
528.926	8.12
529.271	8.22
529.616	8.33
529.961	8.44
530.306	8.57
530.651	8.69
530.996	8.82
531.341	8.95
531.686	9.09
532.031	9.24
532.376	9.39
532.721	9.55
533.065	9.72
533.41	9.9
533.755	10.07
534.099	10.27
534.444	10.46
534.788	10.65
535.133	10.82
535.477	11.03
535.822	11.21
536.166	11.45
536.51	11.68
536.855	11.95
537.199	12.2
537.543	12.47
537.887	12.75
538.231	13.02
538.576	13.3
538.92	13.58
539.264	13.82
539.608	14.07
539.951	14.3
540.295	14.53
540.639	14.73
540.983	14.96
541.327	15.17
541.671	15.38
542.014	15.58
542.358	15.81
542.701	16.02
543.045	16.22
543.389	16.4
543.732	16.61
544.075	16.81
544.419	17.03
544.762	17.24
545.105	17.47
545.449	17.7
545.792	17.96
546.135	18.22
546.478	18.49
546.821	18.77
547.165	19.06
547.508	19.36
547.851	19.7
548.194	19.97
548.536	20.26
548.879	20.58
549.222	20.88
549.565	21.18
549.908	21.47
550.25	21.85
550.593	22.2
550.936	22.56
551.278	22.89
551.621	23.21
551.963	23.57
552.306	23.83
552.648	24.14
552.991	24.43
553.333	24.71
553.675	25
554.017	25.28
554.36	25.54
554.702	25.8
555.044	26.05
555.386	26.36
555.728	26.64
556.07	26.9
556.412	27.19
556.754	27.46
557.096	27.76
557.438	27.97
557.78	28.21
558.121	28.48
558.463	28.78
558.805	29.08
559.147	29.33
559.488	29.63
559.83	29.91
560.171	30.18
560.513	30.47
560.854	30.74
561.196	31.04
561.537	31.28
561.878	31.54
562.22	31.78
562.561	32.01
562.902	32.23
563.243	32.47
563.584	32.7
563.925	32.88
564.266	33.08
564.607	33.32
564.948	33.54
565.289	33.73
565.63	33.92
565.971	34.13
566.312	34.31
566.653	34.5
566.993	34.68
567.334	34.9
567.675	35.13
568.015	35.3
568.356	35.49
568.696	35.72
569.037	35.89
569.377	36.09
569.718	36.3
570.058	36.53
570.398	36.74
570.739	36.92
571.079	37.17
571.419	37.31
571.759	37.5
572.099	37.69
572.439	37.83
572.779	37.97
573.119	38.09
573.459	38.25
573.799	38.42
574.139	38.64
574.479	38.77
574.819	38.83
575.158	39
575.498	39.14
575.838	39.3
576.177	39.49
576.517	39.62
576.856	39.79
577.196	39.87
577.535	39.93
577.875	40.05
578.214	40.16
578.553	40.36
578.893	40.48
579.232	40.61
579.571	40.72
579.91	40.86
580.25	41.04
580.589	41.21
580.928	41.37
581.267	41.42
581.606	41.48
581.945	41.69
582.283	41.77
582.622	41.87
582.961	41.95
583.3	42.05
583.639	42.19
583.977	42.25
584.316	42.41
584.654	42.61
584.993	42.75
585.332	42.86
585.67	42.95
586.008	43.04
586.347	43.17
586.685	43.33
587.024	43.44
587.362	43.54
587.7	43.64
588.038	43.75
588.376	43.93
588.715	44.06
589.053	44.12
589.391	44.17
589.729	44.32
590.067	44.44
590.404	44.5
590.742	44.57
591.08	44.64
591.418	44.74
591.756	44.82
592.093	44.92
592.431	45.02
592.769	45.16
593.106	45.17
593.444	45.22
593.781	45.25
594.119	45.33
594.456	45.38
594.793	45.4
595.131	45.4
595.468	45.42
595.805	45.47
596.143	45.52
596.48	45.61
596.817	45.61
597.154	45.71
597.491	45.81
597.828	45.87
598.165	45.92
598.502	45.95
598.839	45.97
599.176	46.01
599.512	46
599.849	45.99
600.186	46.15
600.523	46.24
600.859	46.41
601.196	46.5
601.532	46.52
601.869	46.62
602.205	46.7
602.542	46.72
602.878	46.84
603.215	46.89
603.551	46.96
603.887	47.04
604.223	47.02
604.56	47.06
604.896	47.07
605.232	47.16
605.568	47.16
605.904	47.26
606.24	47.33
606.576	47.46
606.912	47.58
607.248	47.53
607.583	47.56
607.919	47.57
608.255	47.64
608.591	47.72
608.926	47.75
609.262	47.81
609.597	47.92
609.933	47.93
610.268	47.97
610.604	48
610.939	48.03
611.275	48.12
611.61	48.12
611.945	48.21
612.281	48.25
612.616	48.31
612.951	48.31
613.286	48.31
613.621	48.35
613.956	48.34
614.291	48.52
614.626	48.59
614.961	48.52
615.296	48.45
615.631	48.48
615.966	48.52
616.3	48.59
616.635	48.59
616.97	48.6
617.304	48.72
617.639	48.75
617.973	48.76
618.308	48.64
618.642	48.77
618.977	48.8
619.311	48.76
619.646	48.86
619.98	48.91
620.314	48.98
620.648	49.01
620.983	49.04
621.317	49.03
621.651	49.02
621.985	49.24
622.319	49.29
622.653	49.36
622.987	49.34
623.321	49.3
623.655	49.32
623.988	49.41
624.322	49.34
624.656	49.35
624.99	49.39
625.323	49.52
625.657	49.43
625.99	49.47
626.324	49.54
626.657	49.53
626.991	49.61
627.324	49.59
627.658	49.56
627.991	49.58
628.324	49.53
628.657	49.61
628.991	49.57
629.324	49.58
629.657	49.64
629.99	49.69
630.323	49.72
630.656	49.86
630.989	49.88
631.322	49.93
631.655	49.96
631.987	50.02
632.32	50.03
632.653	50.06
632.986	50.08
633.318	50.07
633.651	50.11
633.984	50.08
634.316	50.17
634.649	50.26
634.981	50.34
635.313	50.44
635.646	50.45
635.978	50.46
636.31	50.52
636.643	50.52
636.975	50.41
637.307	50.46
637.639	50.43
637.971	50.41
638.303	50.45
638.635	50.45
638.967	50.43
639.299	50.47
639.631	50.56
639.963	50.49
640.295	50.57
640.626	50.55
640.958	50.58
641.29	50.51
641.621	50.52
641.953	50.56
642.285	50.46
642.616	50.48
642.948	50.52
643.279	50.52
643.61	50.56
643.942	50.77
644.273	50.77
644.604	50.79
644.936	50.83
645.267	50.8
645.598	50.82
645.929	50.89
646.26	50.82
646.591	50.86
646.922	50.84
647.253	50.84
647.584	50.78
647.915	50.75
648.245	50.79
648.576	50.72
648.907	50.66
649.238	50.74
649.568	50.81
649.899	50.77
650.229	50.81
650.56	50.83
650.89	50.73
651.221	50.88
651.551	50.78
651.882	50.79
652.212	50.85
652.542	50.86
652.872	50.84
653.203	50.94
653.533	50.98
653.863	51.07
654.193	51.01
654.523	51.07
654.853	51.11
655.183	51.06
655.513	51.12
655.843	51.19
656.172	51.22
656.502	51.24
656.832	51.29
657.162	51.25
657.491	51.08
657.821	51.08
658.15	51
658.48	51
658.809	50.96
659.139	50.93
659.468	50.92
659.798	50.93
660.127	50.97
660.456	50.94
660.785	50.92
661.115	50.96
661.444	50.99
661.773	50.96
662.102	51.04
662.431	51.06
662.76	51.02
663.089	50.95
663.418	50.84
663.747	50.71
664.076	50.72
664.404	50.86
664.733	50.96
665.062	50.86
