Data from BU57614_Reflection_00007.txt Node
Date: Mon Nov 18 16:24:26 EST 2019
User: vgr7
Spectrometer: USB2G7710
Scans to average: 3
Trigger mode: 4
Integration Time (sec): 2.000000E-2
Electric dark correction enabled: true
Boxcar width: 10
XAxis mode: Wavelengths
Number of Pixels in Spectrum: 2048
>>>>>Begin Spectral Data<<<<<
177.721	996.16
178.105	-229.07
178.488	-133.44
178.871	-191.46
179.254	-48.79
179.636	468.93
180.019	-73.44
180.402	9.43
180.785	40.73
181.168	-1036.36
181.55	97.69
181.933	117.01
182.316	169.5
182.698	165.48
183.081	166.31
183.463	198.42
183.846	244.7
184.228	294.41
184.611	196.83
184.993	274.11
185.376	-13958.82
185.758	-7520.69
186.14	2072.48
186.522	-4561.02
186.904	-1466.52
187.287	-1519.22
187.669	-414.76
188.051	-556.88
188.433	-211.74
188.815	-183.5
189.197	-233
189.579	-181.41
189.961	-149.75
190.342	-140.79
190.724	-111.74
191.106	-141.66
191.488	-176.62
191.869	-149.09
192.251	-149.75
192.633	-162.78
193.014	-178.82
193.396	-234.9
193.777	-199.48
194.159	-199.01
194.54	-170.36
194.922	-105.61
195.303	-90.79
195.684	-95.48
196.065	-93.03
196.447	-98.75
196.828	-108.72
197.209	-100.61
197.59	-99.3
197.971	-119.64
198.352	-95.72
198.733	-97.7
199.114	-79.75
199.495	-72.04
199.876	-67.56
200.257	-66.34
200.638	-56.57
201.018	-53.09
201.399	-45.02
201.78	-44.24
202.16	-49.86
202.541	-57.67
202.922	-80.32
203.302	-119.09
203.683	-143.31
204.063	-177.36
204.444	-154.4
204.824	-122.39
205.204	-105.91
205.585	-94.69
205.965	-82.4
206.345	-121.99
206.725	-124.01
207.106	-126.36
207.486	-130.05
207.866	-120.27
208.246	-123.65
208.626	-118.56
209.006	-100.89
209.386	-129.76
209.766	-133.07
210.145	-108.96
210.525	-106.52
210.905	-103.12
211.285	-70.66
211.664	-59.28
212.044	-50.71
212.424	-45.31
212.803	-45.97
213.183	-33.14
213.562	-35.68
213.942	-28.43
214.321	-22.99
214.701	-24.3
215.08	-30.46
215.459	-30.99
215.838	-34.49
216.218	-24.62
216.597	-19.49
216.976	-25.08
217.355	-25.59
217.734	-25.88
218.113	-29.82
218.492	-28.7
218.871	-35.28
219.25	-32.85
219.629	-38.58
220.008	-44.85
220.387	-48.13
220.766	-54.45
221.144	-72.81
221.523	-73.61
221.902	-78.03
222.28	-71.99
222.659	-64.67
223.037	-50.69
223.416	-51.34
223.794	-46.44
224.173	-45.64
224.551	-39.05
224.929	-33.2
225.308	-28.03
225.686	-22.92
226.064	-19.08
226.442	-12.78
226.821	-8.81
227.199	-8.31
227.577	-8.71
227.955	-2.04
228.333	-1.44
228.711	-0.36
229.089	3.03
229.467	0.36
229.845	-3.14
230.222	-4
230.6	-4.77
230.978	-6.21
231.356	-4.53
231.733	-2.17
232.111	-3.2
232.488	-3.98
232.866	-4.21
233.243	-3.16
233.621	-5.98
233.998	-4.1
234.376	-6.33
234.753	-5.18
235.13	-6.75
235.508	-5.26
235.885	-6.44
236.262	-7.5
236.639	-6.99
237.016	-6.68
237.393	-5.69
237.77	-3.48
238.147	-2.3
238.524	-1.04
238.901	-0.12
239.278	-0.29
239.655	-0
240.032	0.76
240.409	0.62
240.785	1.04
241.162	1.49
241.539	2.59
241.915	2.54
242.292	2.67
242.668	2.47
243.045	2.56
243.421	2.82
243.798	2.6
244.174	2.72
244.551	2.8
244.927	2.61
245.303	2.86
245.679	2.76
246.056	2.48
246.432	2.47
246.808	2.57
247.184	2.62
247.56	2.42
247.936	2.4
248.312	2.46
248.688	2.38
249.064	2.32
249.44	2.14
249.815	2.01
250.191	2.13
250.567	2.28
250.943	2.31
251.318	2.16
251.694	2.44
252.069	2.49
252.445	2.58
252.82	2.51
253.196	2.18
253.571	2.28
253.947	2.65
254.322	2.52
254.697	2.43
255.073	2.22
255.448	2.31
255.823	2.23
256.198	2.35
256.573	2.42
256.948	2.68
257.323	2.82
257.698	2.68
258.073	2.52
258.448	2.16
258.823	2.07
259.198	2.07
259.573	1.95
259.948	1.85
260.322	1.84
260.697	2.08
261.072	2.07
261.446	2.08
261.821	2.03
262.195	2.18
262.57	2.03
262.944	2.07
263.319	2.1
263.693	2.06
264.067	2.12
264.442	2.2
264.816	1.95
265.19	1.85
265.564	1.91
265.938	2.05
266.313	2.31
266.687	2.44
267.061	2.61
267.435	2.72
267.809	2.82
268.183	2.81
268.556	2.71
268.93	2.74
269.304	2.66
269.678	2.78
270.051	2.64
270.425	2.76
270.799	2.82
271.172	2.91
271.546	2.78
271.919	2.72
272.293	2.61
272.666	2.76
273.04	2.84
273.413	2.88
273.787	2.79
274.16	2.7
274.533	2.62
274.906	2.52
275.279	2.4
275.653	2.43
276.026	2.38
276.399	2.35
276.772	2.46
277.145	2.57
277.518	2.47
277.891	2.49
278.263	2.4
278.636	2.3
279.009	2.05
279.382	2.27
279.755	2.14
280.127	2.26
280.5	2.23
280.872	2.21
281.245	2.21
281.617	2.41
281.99	2.52
282.362	2.63
282.735	2.56
283.107	2.56
283.479	2.44
283.852	2.37
284.224	2.38
284.596	2.32
284.968	2.24
285.34	2.36
285.713	2.31
286.085	2.38
286.457	2.43
286.829	2.6
287.201	2.68
287.572	2.71
287.944	2.63
288.316	2.59
288.688	2.6
289.06	2.47
289.431	2.39
289.803	2.43
290.175	2.49
290.546	2.61
290.918	2.68
291.289	2.71
291.661	2.76
292.032	2.84
292.403	2.88
292.775	2.95
293.146	2.85
293.517	2.85
293.889	2.9
294.26	2.87
294.631	2.86
295.002	2.78
295.373	2.76
295.744	2.71
296.115	2.78
296.486	2.67
296.857	2.74
297.228	2.72
297.599	2.69
297.97	2.69
298.34	2.63
298.711	2.67
299.082	2.67
299.452	2.79
299.823	2.76
300.194	2.78
300.564	2.75
300.935	2.79
301.305	2.86
301.676	2.87
302.046	2.98
302.416	3.02
302.787	3.07
303.157	3.14
303.527	3.21
303.897	3.21
304.267	3.48
304.637	3.59
305.008	3.72
305.378	3.77
305.748	3.77
306.117	3.75
306.487	3.79
306.857	3.91
307.227	4.02
307.597	4.03
307.967	4.05
308.336	4.09
308.706	4.18
309.076	4.13
309.445	4.07
309.815	4.08
310.184	4.02
310.554	4.06
310.923	4.1
311.293	4.16
311.662	4.16
312.031	4.09
312.401	4.22
312.77	4.27
313.139	4.32
313.508	4.3
313.877	4.39
314.246	4.45
314.616	4.47
314.985	4.46
315.353	4.4
315.722	4.51
316.091	4.54
316.46	4.45
316.829	4.74
317.198	4.9
317.567	4.85
317.935	5.02
318.304	5.05
318.672	5.11
319.041	5.38
319.41	5.45
319.778	5.63
320.147	5.57
320.515	5.52
320.883	5.53
321.252	5.62
321.62	5.63
321.988	5.67
322.357	5.65
322.725	5.59
323.093	5.76
323.461	5.79
323.829	5.78
324.197	5.85
324.565	5.75
324.933	5.7
325.301	5.95
325.669	6.01
326.037	6.04
326.405	6.1
326.772	6
327.14	5.95
327.508	5.87
327.875	5.82
328.243	5.88
328.61	5.9
328.978	6
329.346	6.14
329.713	6.09
330.08	6.22
330.448	6.27
330.815	6.31
331.182	6.32
331.55	6.45
331.917	6.55
332.284	6.61
332.651	6.68
333.018	6.63
333.385	6.73
333.752	6.82
334.119	6.76
334.486	6.83
334.853	6.94
335.22	6.92
335.587	7.09
335.954	7.07
336.32	7.03
336.687	7.08
337.054	6.99
337.42	7.09
337.787	7.13
338.153	7.01
338.52	7.08
338.886	7.05
339.253	6.97
339.619	6.94
339.986	7
340.352	7.08
340.718	7.01
341.084	6.84
341.451	6.82
341.817	6.94
342.183	6.93
342.549	6.97
342.915	7.15
343.281	7.19
343.647	7.25
344.013	7.28
344.379	7.19
344.745	7.35
345.11	7.38
345.476	7.4
345.842	7.51
346.208	7.45
346.573	7.54
346.939	7.62
347.304	7.57
347.67	7.53
348.035	7.46
348.401	7.53
348.766	7.57
349.132	7.56
349.497	7.55
349.862	7.59
350.228	7.56
350.593	7.42
350.958	7.31
351.323	7.31
351.688	7.41
352.053	7.49
352.418	7.37
352.783	7.35
353.148	7.35
353.513	7.42
353.878	7.42
354.243	7.38
354.608	7.38
354.972	7.39
355.337	7.34
355.702	7.42
356.066	7.37
356.431	7.47
356.795	7.55
357.16	7.47
357.524	7.38
357.889	7.26
358.253	7.26
358.618	7.31
358.982	7.24
359.346	7.18
359.71	7.17
360.075	7.15
360.439	7.13
360.803	7.09
361.167	7.07
361.531	7.08
361.895	7.03
362.259	6.96
362.623	6.98
362.987	6.95
363.351	6.85
363.714	6.85
364.078	6.7
364.442	6.58
364.806	6.54
365.169	6.54
365.533	6.61
365.896	6.57
366.26	6.5
366.623	6.53
366.987	6.46
367.35	6.42
367.714	6.45
368.077	6.39
368.44	6.32
368.803	6.23
369.167	6.15
369.53	6.12
369.893	6.16
370.256	6.09
370.619	6.09
370.982	6.06
371.345	6.01
371.708	6.03
372.071	6
372.434	6.02
372.797	5.94
373.159	5.83
373.522	5.8
373.885	5.74
374.247	5.7
374.61	5.71
374.973	5.59
375.335	5.52
375.698	5.46
376.06	5.39
376.423	5.32
376.785	5.31
377.147	5.31
377.51	5.22
377.872	5.2
378.234	5.12
378.596	5.1
378.958	5.05
379.321	5.03
379.683	5.02
380.045	4.96
380.407	4.9
380.769	4.85
381.13	4.8
381.492	4.81
381.854	4.77
382.216	4.7
382.578	4.7
382.939	4.61
383.301	4.57
383.663	4.55
384.024	4.5
384.386	4.46
384.747	4.44
385.109	4.42
385.47	4.34
385.832	4.29
386.193	4.28
386.554	4.24
386.916	4.19
387.277	4.16
387.638	4.12
387.999	4.13
388.36	4.13
388.721	4.11
389.082	4.1
389.443	4.03
389.804	3.98
390.165	3.95
390.526	3.97
390.887	3.91
391.248	3.9
391.609	3.91
391.969	3.88
392.33	3.81
392.691	3.82
393.051	3.81
393.412	3.83
393.772	3.76
394.133	3.72
394.493	3.7
394.854	3.66
395.214	3.66
395.574	3.64
395.935	3.61
396.295	3.59
396.655	3.5
397.015	3.48
397.376	3.48
397.736	3.44
398.096	3.42
398.456	3.47
398.816	3.47
399.176	3.42
399.535	3.37
399.895	3.33
400.255	3.29
400.615	3.27
400.975	3.22
401.334	3.23
401.694	3.22
402.054	3.2
402.413	3.18
402.773	3.11
403.132	3.09
403.492	3.07
403.851	3.07
404.211	3.07
404.57	3.04
404.929	3.04
405.288	3.01
405.648	2.99
406.007	2.96
406.366	2.91
406.725	2.93
407.084	2.94
407.443	2.98
407.802	2.98
408.161	2.94
408.52	2.94
408.879	2.91
409.238	2.9
409.596	2.88
409.955	2.86
410.314	2.86
410.673	2.84
411.031	2.81
411.39	2.79
411.748	2.77
412.107	2.81
412.465	2.78
412.824	2.81
413.182	2.79
413.54	2.74
413.899	2.79
414.257	2.78
414.615	2.77
414.974	2.74
415.332	2.7
415.69	2.71
416.048	2.7
416.406	2.71
416.764	2.69
417.122	2.69
417.48	2.68
417.838	2.68
418.195	2.68
418.553	2.68
418.911	2.68
419.269	2.68
419.626	2.64
419.984	2.63
420.342	2.62
420.699	2.61
421.057	2.62
421.414	2.58
421.772	2.57
422.129	2.56
422.486	2.55
422.844	2.56
423.201	2.53
423.558	2.53
423.915	2.51
424.273	2.53
424.63	2.52
424.987	2.53
425.344	2.5
425.701	2.49
426.058	2.49
426.415	2.47
426.772	2.46
427.128	2.48
427.485	2.48
427.842	2.46
428.199	2.46
428.555	2.45
428.912	2.48
429.269	2.49
429.625	2.48
429.982	2.49
430.338	2.48
430.695	2.48
431.051	2.46
431.407	2.46
431.764	2.44
432.12	2.43
432.476	2.4
432.832	2.38
433.189	2.38
433.545	2.39
433.901	2.4
434.257	2.4
434.613	2.39
434.969	2.39
435.325	2.39
435.681	2.37
436.036	2.37
436.392	2.35
436.748	2.34
437.104	2.33
437.459	2.32
437.815	2.31
438.171	2.34
438.526	2.35
438.882	2.34
439.237	2.36
439.593	2.36
439.948	2.39
440.304	2.39
440.659	2.38
441.014	2.37
441.369	2.36
441.725	2.35
442.08	2.35
442.435	2.36
442.79	2.36
443.145	2.36
443.5	2.35
443.855	2.35
444.21	2.34
444.565	2.36
444.92	2.38
445.275	2.38
445.629	2.37
445.984	2.37
446.339	2.36
446.693	2.35
447.048	2.33
447.403	2.33
447.757	2.33
448.112	2.33
448.466	2.32
448.82	2.31
449.175	2.31
449.529	2.3
449.883	2.29
450.238	2.29
450.592	2.28
450.946	2.28
451.3	2.27
451.654	2.25
452.008	2.24
452.362	2.21
452.716	2.17
453.07	2.17
453.424	2.14
453.778	2.15
454.132	2.15
454.486	2.16
454.839	2.13
455.193	2.13
455.547	2.14
455.9	2.16
456.254	2.18
456.607	2.18
456.961	2.19
457.314	2.17
457.668	2.19
458.021	2.2
458.375	2.2
458.728	2.22
459.081	2.23
459.434	2.22
459.787	2.24
460.141	2.25
460.494	2.25
460.847	2.26
461.2	2.26
461.553	2.26
461.906	2.26
462.259	2.28
462.611	2.3
462.964	2.31
463.317	2.29
463.67	2.29
464.022	2.3
464.375	2.29
464.728	2.29
465.08	2.3
465.433	2.28
465.785	2.28
466.138	2.28
466.49	2.29
466.843	2.31
467.195	2.31
467.547	2.32
467.899	2.33
468.252	2.34
468.604	2.35
468.956	2.34
469.308	2.35
469.66	2.33
470.012	2.32
470.364	2.34
470.716	2.33
471.068	2.33
471.42	2.33
471.772	2.35
472.123	2.37
472.475	2.38
472.827	2.41
473.178	2.4
473.53	2.39
473.882	2.38
474.233	2.37
474.585	2.35
474.936	2.37
475.288	2.36
475.639	2.37
475.99	2.36
476.342	2.37
476.693	2.36
477.044	2.38
477.395	2.38
477.746	2.37
478.097	2.4
478.448	2.4
478.8	2.4
479.15	2.38
479.501	2.37
479.852	2.37
480.203	2.37
480.554	2.39
480.905	2.4
481.255	2.41
481.606	2.42
481.957	2.43
482.307	2.42
482.658	2.42
483.009	2.42
483.359	2.42
483.709	2.43
484.06	2.43
484.41	2.43
484.761	2.42
485.111	2.41
485.461	2.41
485.811	2.41
486.162	2.41
486.512	2.42
486.862	2.41
487.212	2.41
487.562	2.4
487.912	2.39
488.262	2.38
488.612	2.39
488.961	2.39
489.311	2.39
489.661	2.39
490.011	2.39
490.36	2.38
490.71	2.39
491.06	2.39
491.409	2.39
491.759	2.38
492.108	2.39
492.458	2.4
492.807	2.39
493.157	2.4
493.506	2.41
493.855	2.42
494.204	2.43
494.554	2.45
494.903	2.46
495.252	2.47
495.601	2.48
495.95	2.49
496.299	2.48
496.648	2.48
496.997	2.48
497.346	2.5
497.695	2.51
498.043	2.53
498.392	2.54
498.741	2.57
499.09	2.57
499.438	2.6
499.787	2.6
500.135	2.63
500.484	2.64
500.832	2.65
501.181	2.66
501.529	2.67
501.878	2.68
502.226	2.69
502.574	2.72
502.923	2.74
503.271	2.73
503.619	2.76
503.967	2.77
504.315	2.79
504.663	2.8
505.011	2.83
505.359	2.83
505.707	2.85
506.055	2.86
506.403	2.92
506.751	2.94
507.098	2.97
507.446	3
507.794	3.04
508.141	3.07
508.489	3.11
508.837	3.15
509.184	3.19
509.531	3.22
509.879	3.26
510.226	3.29
510.574	3.33
510.921	3.37
511.268	3.42
511.616	3.48
511.963	3.52
512.31	3.56
512.657	3.63
513.004	3.69
513.351	3.73
513.698	3.77
514.045	3.83
514.392	3.88
514.739	3.92
515.086	3.97
515.432	4.04
515.779	4.08
516.126	4.15
516.473	4.21
516.819	4.28
517.166	4.33
517.512	4.39
517.859	4.46
518.205	4.51
518.552	4.55
518.898	4.61
519.245	4.66
519.591	4.73
519.937	4.76
520.283	4.83
520.629	4.93
520.976	5
521.322	5.07
521.668	5.17
522.014	5.27
522.36	5.38
522.706	5.47
523.052	5.59
523.398	5.69
523.743	5.8
524.089	5.91
524.435	6.03
524.781	6.16
525.126	6.27
525.472	6.37
525.817	6.48
526.163	6.55
526.509	6.63
526.854	6.71
527.199	6.8
527.545	6.87
527.89	6.94
528.235	7.03
528.581	7.11
528.926	7.19
529.271	7.29
529.616	7.37
529.961	7.46
530.306	7.55
530.651	7.66
530.996	7.78
531.341	7.9
531.686	8.03
532.031	8.15
532.376	8.29
532.721	8.43
533.065	8.57
533.41	8.74
533.755	8.92
534.099	9.08
534.444	9.25
534.788	9.42
535.133	9.61
535.477	9.78
535.822	9.96
536.166	10.17
536.51	10.37
536.855	10.59
537.199	10.83
537.543	11.08
537.887	11.33
538.231	11.56
538.576	11.83
538.92	12.07
539.264	12.31
539.608	12.54
539.951	12.77
540.295	13
540.639	13.21
540.983	13.41
541.327	13.63
541.671	13.85
542.014	14.06
542.358	14.27
542.701	14.48
543.045	14.67
543.389	14.89
543.732	15.1
544.075	15.35
544.419	15.59
544.762	15.81
545.105	16.04
545.449	16.33
545.792	16.61
546.135	16.91
546.478	17.18
546.821	17.47
547.165	17.78
547.508	18.1
547.851	18.4
548.194	18.72
548.536	19.05
548.879	19.39
549.222	19.72
549.565	20.04
549.908	20.41
550.25	20.78
550.593	21.15
550.936	21.48
551.278	21.83
551.621	22.17
551.963	22.61
552.306	22.96
552.648	23.27
552.991	23.62
553.333	23.94
553.675	24.34
554.017	24.69
554.36	25.01
554.702	25.3
555.044	25.65
555.386	26.01
555.728	26.36
556.07	26.74
556.412	27.07
556.754	27.44
557.096	27.75
557.438	28.12
557.78	28.49
558.121	28.91
558.463	29.28
558.805	29.62
559.147	29.92
559.488	30.29
559.83	30.69
560.171	31.02
560.513	31.4
560.854	31.68
561.196	32.01
561.537	32.36
561.878	32.68
562.22	32.95
562.561	33.22
562.902	33.49
563.243	33.77
563.584	34.07
563.925	34.37
564.266	34.67
564.607	34.99
564.948	35.22
565.289	35.45
565.63	35.74
565.971	36.02
566.312	36.2
566.653	36.42
566.993	36.62
567.334	36.86
567.675	37.07
568.015	37.31
568.356	37.58
568.696	37.83
569.037	38.09
569.377	38.36
569.718	38.61
570.058	38.85
570.398	39.06
570.739	39.28
571.079	39.49
571.419	39.71
571.759	39.86
572.099	40.04
572.439	40.23
572.779	40.32
573.119	40.47
573.459	40.74
573.799	40.94
574.139	41.1
574.479	41.31
574.819	41.48
575.158	41.67
575.498	41.81
575.838	42.02
576.177	42.21
576.517	42.39
576.856	42.55
577.196	42.75
577.535	42.94
577.875	43.15
578.214	43.29
578.553	43.47
578.893	43.71
579.232	43.88
579.571	44.05
579.91	44.32
580.25	44.51
580.589	44.56
580.928	44.72
581.267	44.87
581.606	44.93
581.945	45.14
582.283	45.2
582.622	45.32
582.961	45.41
583.3	45.46
583.639	45.58
583.977	45.78
584.316	45.84
584.654	46.03
584.993	46.19
585.332	46.38
585.67	46.49
586.008	46.57
586.347	46.7
586.685	46.8
587.024	46.85
587.362	46.99
587.7	47.22
588.038	47.37
588.376	47.59
588.715	47.73
589.053	47.77
589.391	47.94
589.729	48.1
590.067	48.16
590.404	48.3
590.742	48.4
591.08	48.46
591.418	48.6
591.756	48.6
592.093	48.63
592.431	48.67
592.769	48.81
593.106	48.97
593.444	49.08
593.781	49.16
594.119	49.25
594.456	49.37
594.793	49.41
595.131	49.42
595.468	49.41
595.805	49.51
596.143	49.57
596.48	49.64
596.817	49.64
597.154	49.76
597.491	49.86
597.828	49.89
598.165	49.97
598.502	50.02
598.839	50.09
599.176	50.11
599.512	50.25
599.849	50.3
600.186	50.37
600.523	50.45
600.859	50.56
601.196	50.69
601.532	50.72
601.869	50.77
602.205	50.88
602.542	50.98
602.878	51.05
603.215	51.15
603.551	51.24
603.887	51.4
604.223	51.43
604.56	51.45
604.896	51.53
605.232	51.59
605.568	51.63
605.904	51.7
606.24	51.83
606.576	51.84
606.912	51.89
607.248	51.92
607.583	51.96
607.919	51.98
608.255	51.94
608.591	51.94
608.926	52.04
609.262	52.05
609.597	52.06
609.933	52.13
610.268	52.19
610.604	52.21
610.939	52.17
611.275	52.23
611.61	52.32
611.945	52.37
612.281	52.45
612.616	52.56
612.951	52.56
613.286	52.59
613.621	52.64
613.956	52.63
614.291	52.7
614.626	52.74
614.961	52.84
615.296	52.94
615.631	53.06
615.966	53.04
616.3	53.11
616.635	53.18
616.97	53.14
617.304	53.13
617.639	53.05
617.973	53.13
618.308	53.18
618.642	53.12
618.977	53.07
619.311	53.06
619.646	52.97
619.98	53.03
620.314	53
620.648	53.11
620.983	53.24
621.317	53.22
621.651	53.24
621.985	53.26
622.319	53.33
622.653	53.26
622.987	53.35
623.321	53.4
623.655	53.43
623.988	53.44
624.322	53.46
624.656	53.55
624.99	53.52
625.323	53.51
625.657	53.61
625.99	53.77
626.324	53.78
626.657	53.78
626.991	53.78
627.324	53.84
627.658	53.77
627.991	53.77
628.324	53.81
628.657	53.79
628.991	53.81
629.324	53.83
629.657	53.95
629.99	53.9
630.323	53.84
630.656	53.88
630.989	53.96
631.322	54.1
631.655	54.15
631.987	54.23
632.32	54.33
632.653	54.34
632.986	54.31
633.318	54.31
633.651	54.38
633.984	54.42
634.316	54.45
634.649	54.58
634.981	54.63
635.313	54.64
635.646	54.71
635.978	54.82
636.31	54.8
636.643	54.83
636.975	54.93
637.307	55.02
637.639	55.03
637.971	55.01
638.303	54.94
638.635	54.82
638.967	54.74
639.299	54.59
639.631	54.59
639.963	54.54
640.295	54.6
640.626	54.58
640.958	54.7
641.29	54.66
641.621	54.55
641.953	54.51
642.285	54.45
642.616	54.55
642.948	54.44
643.279	54.38
643.61	54.38
643.942	54.38
644.273	54.36
644.604	54.29
644.936	54.27
645.267	54.3
645.598	54.38
645.929	54.4
646.26	54.59
646.591	54.77
646.922	54.84
647.253	54.79
647.584	54.87
647.915	54.81
648.245	54.88
648.576	54.96
648.907	54.92
649.238	54.89
649.568	54.88
649.899	54.94
650.229	54.99
650.56	54.9
650.89	54.94
651.221	54.97
651.551	55.04
651.882	55.07
652.212	55.06
652.542	55.09
652.872	55.16
653.203	55.14
653.533	54.93
653.863	54.92
654.193	54.87
654.523	54.88
654.853	54.84
655.183	54.97
655.513	55
655.843	55.02
656.172	55.22
656.502	55.26
656.832	55.24
657.162	55.36
657.491	55.39
657.821	55.45
658.15	55.6
658.48	55.59
658.809	55.66
659.139	55.63
659.468	55.71
659.798	55.72
660.127	55.71
660.456	55.72
660.785	55.78
661.115	55.92
661.444	55.87
661.773	55.84
662.102	55.67
662.431	55.76
662.76	55.8
663.089	55.63
663.418	55.62
663.747	55.65
664.076	55.51
664.404	55.64
664.733	55.52
665.062	55.43
665.39	55.4
665.719	55.42
666.048	55.53
