Data from BU57647_Reflection_00001.txt Node
Date: Mon Nov 18 16:49:19 EST 2019
User: vgr7
Spectrometer: USB2G7710
Scans to average: 3
Trigger mode: 4
Integration Time (sec): 2.000000E-2
Electric dark correction enabled: true
Boxcar width: 10
XAxis mode: Wavelengths
Number of Pixels in Spectrum: 2048
>>>>>Begin Spectral Data<<<<<
177.721	48.31
178.105	45.24
178.488	79.84
178.871	-272.34
179.254	-48.06
179.636	-481.52
180.019	-179
180.402	60
180.785	54.42
181.168	50.57
181.55	87.59
181.933	112.81
182.316	135.37
182.698	106.7
183.081	236.95
183.463	266.38
183.846	-4900
184.228	-26172.73
184.611	-1006.12
184.993	-171.62
185.376	-92.55
185.758	-71.74
186.14	-44.26
186.522	-45.07
186.904	-30.31
187.287	-92.58
187.669	-79.23
188.051	-96.99
188.433	-62.42
188.815	-33.1
189.197	-45.54
189.579	-42.57
189.961	-63.5
190.342	-25.2
190.724	22.19
191.106	11.21
191.488	-14.83
191.869	4.17
192.251	15.23
192.633	11.52
193.014	-27.91
193.396	-100.74
193.777	-87.29
194.159	-203.6
194.54	-140.63
194.922	-319.02
195.303	-101.82
195.684	-41.34
196.065	-8.58
196.447	3
196.828	-45.41
197.209	-20.46
197.59	0.05
197.971	25.34
198.352	28.78
198.733	0.48
199.114	1.67
199.495	22.74
199.876	38.55
200.257	30.97
200.638	37.52
201.018	60.29
201.399	56.52
201.78	43.67
202.16	36.97
202.541	45.81
202.922	49.95
203.302	47.32
203.683	32.94
204.063	25.23
204.444	-1.1
204.824	29.3
205.204	60.93
205.585	69.51
205.965	98.99
206.345	27.41
206.725	206.98
207.106	267.46
207.486	-14.47
207.866	116.39
208.246	32.52
208.626	406.53
209.006	-21.31
209.386	1170.59
209.766	-2985.11
210.145	-608.19
210.525	-95.52
210.905	-71.42
211.285	-51.32
211.664	-47.09
212.044	-24.89
212.424	-13.14
212.803	-19.29
213.183	-12.19
213.562	-23.23
213.942	-13.76
214.321	-0.14
214.701	-9.21
215.08	-18.62
215.459	-7.3
215.838	-3.46
216.218	1.32
216.597	32.94
216.976	24.42
217.355	33.2
217.734	45.83
218.113	42.52
218.492	49.06
218.871	45.97
219.25	37.43
219.629	33.71
220.008	4.85
220.387	9.76
220.766	9.62
221.144	-19.33
221.523	-23.4
221.902	-34.67
222.28	-43.54
222.659	-41.26
223.037	-28.62
223.416	-31.63
223.794	-34.46
224.173	-28.59
224.551	-31.95
224.929	-45.38
225.308	-31.98
225.686	-27.16
226.064	-17.2
226.442	-18.63
226.821	-12.57
227.199	-15.36
227.577	-13.52
227.955	-8.24
228.333	-4.93
228.711	-4.84
229.089	2.1
229.467	-0.14
229.845	1.12
230.222	0.9
230.6	-0.21
230.978	-1.32
231.356	-0.4
231.733	-0.05
232.111	-1.56
232.488	-2.32
232.866	-0.28
233.243	0.05
233.621	-1.89
233.998	-1.42
234.376	-0.98
234.753	-1.95
235.13	0.66
235.508	2.82
235.885	1.71
236.262	-0.49
236.639	-0.2
237.016	-0.9
237.393	1.22
237.77	1.93
238.147	3.07
238.524	3.2
238.901	3.38
239.278	3.87
239.655	5.16
240.032	5.41
240.409	4.99
240.785	4.79
241.162	4.43
241.539	4.32
241.915	3.99
242.292	3.48
242.668	3.89
243.045	3.99
243.421	3.87
243.798	4.27
244.174	4.28
244.551	4.64
244.927	4.98
245.303	4.84
245.679	4.61
246.056	4.48
246.432	4.53
246.808	4.4
247.184	4
247.56	3.81
247.936	3.76
248.312	3.89
248.688	4.02
249.064	4.02
249.44	4.15
249.815	4.42
250.191	4.65
250.567	4.79
250.943	4.78
251.318	5.1
251.694	5.01
252.069	4.97
252.445	4.85
252.82	4.63
253.196	4.68
253.571	4.92
253.947	4.99
254.322	5.18
254.697	5.23
255.073	5.18
255.448	4.94
255.823	5.01
256.198	5.11
256.573	5.14
256.948	5.35
257.323	5.5
257.698	5.62
258.073	5.66
258.448	5.24
258.823	4.96
259.198	4.75
259.573	4.56
259.948	4.68
260.322	4.69
260.697	4.55
261.072	4.35
261.446	4.33
261.821	4.41
262.195	4.45
262.57	4.39
262.944	4.44
263.319	4.45
263.693	4.37
264.067	4.26
264.442	4.18
264.816	3.94
265.19	3.89
265.564	3.69
265.938	3.4
266.313	3.52
266.687	3.59
267.061	3.78
267.435	4.06
267.809	4.03
268.183	4
268.556	3.98
268.93	4.05
269.304	3.82
269.678	3.84
270.051	3.74
270.425	3.82
270.799	3.87
271.172	3.94
271.546	3.89
271.919	3.79
272.293	3.76
272.666	3.92
273.04	3.85
273.413	3.93
273.787	4.1
274.16	4.01
274.533	4.11
274.906	3.98
275.279	3.78
275.653	3.67
276.026	3.62
276.399	3.66
276.772	3.91
277.145	4.17
277.518	4.09
277.891	4.1
278.263	4.08
278.636	4.04
279.009	3.97
279.382	4.08
279.755	4.09
280.127	4.25
280.5	4.35
280.872	4.29
281.245	4.02
281.617	3.94
281.99	4.07
282.362	3.98
282.735	3.89
283.107	3.98
283.479	4.17
283.852	4.13
284.224	4.22
284.596	4.09
284.968	3.92
285.34	3.95
285.713	3.96
286.085	4.03
286.457	4.24
286.829	4.19
287.201	4.17
287.572	4.03
287.944	3.99
288.316	3.85
288.688	3.85
289.06	3.95
289.431	3.99
289.803	3.99
290.175	4.12
290.546	4.35
290.918	4.39
291.289	4.32
291.661	4.44
292.032	4.39
292.403	4.46
292.775	4.66
293.146	4.58
293.517	4.58
293.889	4.51
294.26	4.35
294.631	4.52
295.002	4.58
295.373	4.82
295.744	4.77
296.115	4.83
296.486	4.82
296.857	4.82
297.228	4.95
297.599	4.91
297.97	4.9
298.34	4.74
298.711	4.91
299.082	4.85
299.452	4.8
299.823	4.91
300.194	4.9
300.564	4.92
300.935	5.04
301.305	5.05
301.676	5.18
302.046	5.31
302.416	5.25
302.787	5.26
303.157	5.19
303.527	5.32
303.897	5.16
304.267	5.19
304.637	5.17
305.008	5.2
305.378	5.3
305.748	5.2
306.117	5.11
306.487	4.98
306.857	4.92
307.227	4.8
307.597	4.68
307.967	4.53
308.336	4.59
308.706	4.66
309.076	4.74
309.445	4.68
309.815	4.54
310.184	4.55
310.554	4.49
310.923	4.55
311.293	4.46
311.662	4.53
312.031	4.49
312.401	4.49
312.77	4.53
313.139	4.43
313.508	4.55
313.877	4.54
314.246	4.46
314.616	4.54
314.985	4.67
315.353	4.64
315.722	4.85
316.091	4.65
316.46	4.35
316.829	4.34
317.198	4.39
317.567	4.37
317.935	4.3
318.304	4.44
318.672	4.27
319.041	4.4
319.41	4.43
319.778	4.42
320.147	4.44
320.515	4.24
320.883	4.38
321.252	4.43
321.62	4.48
321.988	4.42
322.357	4.44
322.725	4.38
323.093	4.51
323.461	4.44
323.829	4.41
324.197	4.62
324.565	4.52
324.933	4.63
325.301	4.7
325.669	4.74
326.037	4.72
326.405	4.87
326.772	4.73
327.14	4.76
327.508	4.92
327.875	4.98
328.243	5.13
328.61	4.96
328.978	4.85
329.346	4.93
329.713	4.94
330.08	4.86
330.448	4.74
330.815	4.61
331.182	4.51
331.55	4.56
331.917	4.49
332.284	4.56
332.651	4.38
333.018	4.43
333.385	4.47
333.752	4.51
334.119	4.38
334.486	4.39
334.853	4.37
335.22	4.23
335.587	4.12
335.954	4.05
336.32	4.1
336.687	4.14
337.054	4.16
337.42	4.34
337.787	4.4
338.153	4.49
338.52	4.48
338.886	4.53
339.253	4.43
339.619	4.47
339.986	4.44
340.352	4.48
340.718	4.52
341.084	4.47
341.451	4.43
341.817	4.49
342.183	4.53
342.549	4.46
342.915	4.51
343.281	4.47
343.647	4.41
344.013	4.41
344.379	4.38
344.745	4.38
345.11	4.25
345.476	4.33
345.842	4.34
346.208	4.49
346.573	4.56
346.939	4.66
347.304	4.6
347.67	4.48
348.035	4.46
348.401	4.4
348.766	4.28
349.132	4.17
349.497	4.17
349.862	4.25
350.228	4.38
350.593	4.3
350.958	4.37
351.323	4.38
351.688	4.34
352.053	4.3
352.418	4.27
352.783	4.34
353.148	4.19
353.513	4.21
353.878	4.2
354.243	4.18
354.608	4.14
354.972	4.13
355.337	4.31
355.702	4.33
356.066	4.31
356.431	4.37
356.795	4.39
357.16	4.32
357.524	4.27
357.889	4.2
358.253	4.22
358.618	4.27
358.982	4.24
359.346	4.25
359.71	4.22
360.075	4.19
360.439	4.13
360.803	4.13
361.167	4.13
361.531	4.11
361.895	4.08
362.259	4.14
362.623	4.15
362.987	4.07
363.351	4.07
363.714	4.12
364.078	4.12
364.442	4.07
364.806	4.09
365.169	4.1
365.533	4.09
365.896	4.09
366.26	4.06
366.623	4.04
366.987	4.07
367.35	4.11
367.714	4.08
368.077	4.1
368.44	4.13
368.803	4.13
369.167	4.05
369.53	4
369.893	4
370.256	4
370.619	4.07
370.982	4
371.345	3.93
371.708	3.97
372.071	4.07
372.434	4.09
372.797	4.01
373.159	4.02
373.522	4
373.885	4.02
374.247	4.02
374.61	4.01
374.973	4.01
375.335	4.02
375.698	4.06
376.06	4.07
376.423	4.06
376.785	4.09
377.147	4.21
377.51	4.16
377.872	4.22
378.234	4.18
378.596	4.24
378.958	4.22
379.321	4.23
379.683	4.16
380.045	4.18
380.407	4.18
380.769	4.19
381.13	4.25
381.492	4.26
381.854	4.32
382.216	4.29
382.578	4.29
382.939	4.33
383.301	4.31
383.663	4.3
384.024	4.28
384.386	4.33
384.747	4.27
385.109	4.29
385.47	4.22
385.832	4.22
386.193	4.22
386.554	4.21
386.916	4.22
387.277	4.27
387.638	4.27
387.999	4.32
388.36	4.29
388.721	4.28
389.082	4.27
389.443	4.26
389.804	4.29
390.165	4.29
390.526	4.31
390.887	4.3
391.248	4.37
391.609	4.38
391.969	4.39
392.33	4.42
392.691	4.44
393.051	4.47
393.412	4.47
393.772	4.45
394.133	4.48
394.493	4.46
394.854	4.45
395.214	4.44
395.574	4.41
395.935	4.43
396.295	4.45
396.655	4.43
397.015	4.44
397.376	4.48
397.736	4.45
398.096	4.43
398.456	4.41
398.816	4.37
399.176	4.35
399.535	4.33
399.895	4.32
400.255	4.26
400.615	4.25
400.975	4.24
401.334	4.25
401.694	4.27
402.054	4.25
402.413	4.27
402.773	4.25
403.132	4.23
403.492	4.23
403.851	4.18
404.211	4.18
404.57	4.13
404.929	4.11
405.288	4.13
405.648	4.1
406.007	4.14
406.366	4.13
406.725	4.15
407.084	4.13
407.443	4.11
407.802	4.14
408.161	4.14
408.52	4.11
408.879	4.11
409.238	4.12
409.596	4.14
409.955	4.1
410.314	4.09
410.673	4.1
411.031	4.12
411.39	4.14
411.748	4.15
412.107	4.17
412.465	4.14
412.824	4.12
413.182	4.15
413.54	4.13
413.899	4.15
414.257	4.14
414.615	4.16
414.974	4.2
415.332	4.17
415.69	4.16
416.048	4.19
416.406	4.19
416.764	4.18
417.122	4.17
417.48	4.19
417.838	4.2
418.195	4.2
418.553	4.19
418.911	4.18
419.269	4.2
419.626	4.21
419.984	4.21
420.342	4.23
420.699	4.22
421.057	4.22
421.414	4.21
421.772	4.2
422.129	4.2
422.486	4.17
422.844	4.18
423.201	4.18
423.558	4.17
423.915	4.18
424.273	4.18
424.63	4.19
424.987	4.19
425.344	4.19
425.701	4.19
426.058	4.2
426.415	4.21
426.772	4.18
427.128	4.19
427.485	4.21
427.842	4.19
428.199	4.2
428.555	4.2
428.912	4.21
429.269	4.21
429.625	4.2
429.982	4.21
430.338	4.19
430.695	4.2
431.051	4.19
431.407	4.18
431.764	4.18
432.12	4.18
432.476	4.15
432.832	4.14
433.189	4.15
433.545	4.13
433.901	4.11
434.257	4.11
434.613	4.09
434.969	4.08
435.325	4.1
435.681	4.09
436.036	4.1
436.392	4.1
436.748	4.11
437.104	4.12
437.459	4.13
437.815	4.13
438.171	4.14
438.526	4.15
438.882	4.16
439.237	4.15
439.593	4.15
439.948	4.14
440.304	4.14
440.659	4.12
441.014	4.13
441.369	4.13
441.725	4.14
442.08	4.12
442.435	4.13
442.79	4.11
443.145	4.12
443.5	4.11
443.855	4.11
444.21	4.1
444.565	4.12
444.92	4.12
445.275	4.1
445.629	4.09
445.984	4.09
446.339	4.06
446.693	4.05
447.048	4.04
447.403	4.05
447.757	4.04
448.112	4.05
448.466	4.02
448.82	4.05
449.175	4.05
449.529	4.06
449.883	4.04
450.238	4.04
450.592	4.02
450.946	4
451.3	3.98
451.654	3.97
452.008	3.96
452.362	3.93
452.716	3.94
453.07	3.95
453.424	3.96
453.778	3.97
454.132	3.98
454.486	3.98
454.839	3.99
455.193	3.99
455.547	3.99
455.9	4.01
456.254	4.01
456.607	3.98
456.961	3.99
457.314	4
457.668	4.02
458.021	4.03
458.375	4.05
458.728	4.06
459.081	4.06
459.434	4.05
459.787	4.07
460.141	4.08
460.494	4.07
460.847	4.07
461.2	4.07
461.553	4.07
461.906	4.08
462.259	4.09
462.611	4.11
462.964	4.13
463.317	4.14
463.67	4.13
464.022	4.13
464.375	4.13
464.728	4.1
465.08	4.08
465.433	4.09
465.785	4.08
466.138	4.1
466.49	4.1
466.843	4.09
467.195	4.1
467.547	4.12
467.899	4.13
468.252	4.13
468.604	4.14
468.956	4.15
469.308	4.15
469.66	4.13
470.012	4.11
470.364	4.11
470.716	4.1
471.068	4.09
471.42	4.13
471.772	4.14
472.123	4.19
472.475	4.21
472.827	4.21
473.178	4.22
473.53	4.21
473.882	4.22
474.233	4.23
474.585	4.21
474.936	4.19
475.288	4.2
475.639	4.2
475.99	4.18
476.342	4.19
476.693	4.19
477.044	4.21
477.395	4.23
477.746	4.2
478.097	4.19
478.448	4.19
478.8	4.18
479.15	4.15
479.501	4.13
479.852	4.13
480.203	4.12
480.554	4.11
480.905	4.12
481.255	4.12
481.606	4.13
481.957	4.14
482.307	4.16
482.658	4.15
483.009	4.16
483.359	4.17
483.709	4.17
484.06	4.16
484.41	4.16
484.761	4.17
485.111	4.17
485.461	4.18
485.811	4.18
486.162	4.18
486.512	4.19
486.862	4.19
487.212	4.19
487.562	4.2
487.912	4.21
488.262	4.2
488.612	4.21
488.961	4.2
489.311	4.2
489.661	4.19
490.011	4.19
490.36	4.19
490.71	4.18
491.06	4.2
491.409	4.2
491.759	4.21
492.108	4.2
492.458	4.21
492.807	4.2
493.157	4.21
493.506	4.23
493.855	4.22
494.204	4.21
494.554	4.21
494.903	4.21
495.252	4.21
495.601	4.2
495.95	4.2
496.299	4.2
496.648	4.2
496.997	4.2
497.346	4.21
497.695	4.23
498.043	4.21
498.392	4.18
498.741	4.2
499.09	4.18
499.438	4.2
499.787	4.2
500.135	4.21
500.484	4.22
500.832	4.23
501.181	4.26
501.529	4.27
501.878	4.27
502.226	4.29
502.574	4.31
502.923	4.32
503.271	4.32
503.619	4.34
503.967	4.36
504.315	4.35
504.663	4.34
505.011	4.35
505.359	4.39
505.707	4.44
506.055	4.43
506.403	4.44
506.751	4.44
507.098	4.44
507.446	4.46
507.794	4.45
508.141	4.46
508.489	4.45
508.837	4.48
509.184	4.49
509.531	4.51
509.879	4.52
510.226	4.53
510.574	4.53
510.921	4.53
511.268	4.53
511.616	4.54
511.963	4.57
512.31	4.55
512.657	4.53
513.004	4.51
513.351	4.51
513.698	4.51
514.045	4.52
514.392	4.53
514.739	4.53
515.086	4.52
515.432	4.51
515.779	4.5
516.126	4.51
516.473	4.5
516.819	4.5
517.166	4.5
517.512	4.5
517.859	4.5
518.205	4.5
518.552	4.52
518.898	4.53
519.245	4.52
519.591	4.53
519.937	4.53
520.283	4.53
520.629	4.54
520.976	4.54
521.322	4.54
521.668	4.52
522.014	4.52
522.36	4.53
522.706	4.55
523.052	4.57
523.398	4.55
523.743	4.57
524.089	4.57
524.435	4.56
524.781	4.55
525.126	4.55
525.472	4.55
525.817	4.54
526.163	4.52
526.509	4.55
526.854	4.56
527.199	4.57
527.545	4.57
527.89	4.57
528.235	4.57
528.581	4.58
528.926	4.59
529.271	4.59
529.616	4.59
529.961	4.59
530.306	4.58
530.651	4.58
530.996	4.58
531.341	4.57
531.686	4.58
532.031	4.59
532.376	4.59
532.721	4.6
533.065	4.62
533.41	4.62
533.755	4.61
534.099	4.62
534.444	4.6
534.788	4.6
535.133	4.61
535.477	4.62
535.822	4.61
536.166	4.61
536.51	4.61
536.855	4.63
537.199	4.64
537.543	4.66
537.887	4.66
538.231	4.67
538.576	4.69
538.92	4.71
539.264	4.71
539.608	4.71
539.951	4.71
540.295	4.71
540.639	4.73
540.983	4.73
541.327	4.72
541.671	4.72
542.014	4.73
542.358	4.74
542.701	4.74
543.045	4.74
543.389	4.75
543.732	4.75
544.075	4.74
544.419	4.74
544.762	4.74
545.105	4.76
545.449	4.77
545.792	4.76
546.135	4.75
546.478	4.73
546.821	4.75
547.165	4.74
547.508	4.74
547.851	4.73
548.194	4.73
548.536	4.73
548.879	4.75
549.222	4.74
549.565	4.72
549.908	4.73
550.25	4.77
550.593	4.78
550.936	4.78
551.278	4.79
551.621	4.78
551.963	4.79
552.306	4.79
552.648	4.76
552.991	4.8
553.333	4.79
553.675	4.8
554.017	4.8
554.36	4.8
554.702	4.82
555.044	4.8
555.386	4.81
555.728	4.83
556.07	4.85
556.412	4.85
556.754	4.88
557.096	4.88
557.438	4.84
557.78	4.81
558.121	4.86
558.463	4.83
558.805	4.83
559.147	4.83
559.488	4.8
559.83	4.81
560.171	4.78
560.513	4.82
560.854	4.83
561.196	4.79
561.537	4.82
561.878	4.8
562.22	4.79
562.561	4.79
562.902	4.81
563.243	4.78
563.584	4.79
563.925	4.78
564.266	4.76
564.607	4.77
564.948	4.81
565.289	4.8
565.63	4.81
565.971	4.79
566.312	4.79
566.653	4.8
566.993	4.79
567.334	4.79
567.675	4.79
568.015	4.79
568.356	4.79
568.696	4.79
569.037	4.83
569.377	4.85
569.718	4.85
570.058	4.85
570.398	4.86
570.739	4.87
571.079	4.85
571.419	4.85
571.759	4.87
572.099	4.85
572.439	4.84
572.779	4.82
573.119	4.85
573.459	4.87
573.799	4.86
574.139	4.86
574.479	4.88
574.819	4.86
575.158	4.85
575.498	4.87
575.838	4.85
576.177	4.83
576.517	4.82
576.856	4.81
577.196	4.78
577.535	4.79
577.875	4.77
578.214	4.79
578.553	4.8
578.893	4.76
579.232	4.76
579.571	4.77
579.91	4.78
580.25	4.75
580.589	4.76
580.928	4.8
581.267	4.82
581.606	4.77
581.945	4.79
582.283	4.79
582.622	4.77
582.961	4.78
583.3	4.76
583.639	4.8
583.977	4.81
584.316	4.83
584.654	4.79
584.993	4.78
585.332	4.81
585.67	4.82
586.008	4.84
586.347	4.8
586.685	4.8
587.024	4.82
587.362	4.81
587.7	4.79
588.038	4.76
588.376	4.73
588.715	4.76
589.053	4.76
589.391	4.75
589.729	4.79
590.067	4.78
590.404	4.77
590.742	4.74
591.08	4.73
591.418	4.74
591.756	4.78
592.093	4.78
592.431	4.73
592.769	4.72
593.106	4.73
593.444	4.75
593.781	4.71
594.119	4.72
594.456	4.75
594.793	4.75
595.131	4.76
595.468	4.74
595.805	4.74
596.143	4.74
596.48	4.77
596.817	4.73
597.154	4.71
597.491	4.73
597.828	4.74
598.165	4.75
598.502	4.74
598.839	4.75
599.176	4.75
599.512	4.78
599.849	4.77
600.186	4.79
600.523	4.81
600.859	4.88
601.196	4.87
601.532	4.84
601.869	4.83
602.205	4.81
602.542	4.88
602.878	4.9
603.215	4.9
603.551	4.9
603.887	4.93
604.223	4.96
604.56	4.99
604.896	4.97
605.232	5.02
605.568	5.02
605.904	5.02
606.24	5.04
606.576	5.03
606.912	5.04
607.248	5
607.583	5.01
607.919	4.99
608.255	5.01
608.591	5.02
608.926	5.06
609.262	5.07
609.597	5.04
609.933	5.02
610.268	5.01
610.604	5.04
610.939	5.01
611.275	5.02
611.61	4.98
611.945	5.01
612.281	4.97
612.616	4.98
612.951	5
613.286	5.02
613.621	5.02
613.956	5.02
614.291	5.05
614.626	5.04
614.961	5.01
615.296	5
615.631	5.03
615.966	5
616.3	5
616.635	4.97
616.97	4.99
617.304	5.02
617.639	4.98
617.973	5
618.308	4.98
618.642	4.99
618.977	4.98
619.311	4.94
619.646	4.97
619.98	4.98
620.314	4.96
620.648	4.92
620.983	4.92
621.317	4.93
621.651	4.96
621.985	4.97
622.319	4.91
622.653	4.88
622.987	4.89
623.321	4.89
623.655	4.94
623.988	4.96
624.322	4.92
624.656	4.97
624.99	4.95
625.323	4.95
625.657	4.93
625.99	4.96
626.324	4.95
626.657	4.92
626.991	4.94
627.324	4.92
627.658	4.96
627.991	4.99
628.324	4.94
628.657	4.96
628.991	4.97
629.324	5.05
629.657	5.05
629.99	5.06
630.323	5.1
630.656	5.11
630.989	5.12
631.322	5.18
631.655	5.15
631.987	5.17
632.32	5.15
632.653	5.15
632.986	5.11
633.318	5.16
633.651	5.21
633.984	5.18
634.316	5.21
634.649	5.18
634.981	5.19
635.313	5.22
635.646	5.21
635.978	5.23
636.31	5.2
636.643	5.23
636.975	5.22
637.307	5.18
637.639	5.23
637.971	5.24
638.303	5.2
638.635	5.23
638.967	5.26
639.299	5.31
639.631	5.28
639.963	5.3
640.295	5.32
640.626	5.24
640.958	5.27
641.29	5.21
641.621	5.21
641.953	5.19
642.285	5.2
642.616	5.22
642.948	5.23
643.279	5.21
643.61	5.17
643.942	5.21
644.273	5.18
644.604	5.09
644.936	5.05
645.267	5.07
645.598	5.01
645.929	4.97
646.26	5.02
646.591	5.08
646.922	5.02
647.253	5.03
647.584	5.1
647.915	5
648.245	5.05
648.576	5.1
648.907	5.11
649.238	5.15
649.568	5.05
649.899	5.11
650.229	5.15
650.56	5.14
650.89	5.14
651.221	5.1
651.551	5.09
651.882	5.05
652.212	5.05
652.542	5.08
652.872	5.09
653.203	5.07
653.533	5.13
653.863	5.25
654.193	5.18
654.523	5.2
654.853	5.29
655.183	5.39
655.513	5.32
655.843	5.35
656.172	5.3
656.502	5.43
656.832	5.4
657.162	5.36
657.491	5.38
657.821	5.36
658.15	5.39
658.48	5.39
658.809	5.42
659.139	5.46
659.468	5.36
659.798	5.4
660.127	5.4
660.456	5.37
660.785	5.36
661.115	5.34
661.444	5.34
661.773	5.3
662.102	5.19
662.431	5.18
662.76	5.2
663.089	5.17
663.418	5.05
663.747	4.97
664.076	5
664.404	5.07
664.733	5.07
665.062	5.09
665.39	5.09
665.719	5.04
666.048	5.12
666.376	5.2
666.705	5.12
667.033	5.13
667.362	5.18
667.69	5.12
668.018	5.21
668.347	5.18
668.675	5.21
669.003	5.25
669.331	5.3
669.659	5.33
669.987	5.37
670.315	5.45
670.643	5.5
670.971	5.48
671.299	5.5
671.627	5.49
671.955	5.46
672.283	5.5
672.61	5.52
672.938	5.45
673.266	5.42
673.593	5.55
673.921	5.55
674.249	5.48
674.576	5.46
674.904	5.51
675.231	5.48
675.558	5.49
675.886	5.51
676.213	5.58
676.54	5.52
676.867	5.54
677.195	5.48
677.522	5.47
677.849	5.52
678.176	5.48
678.503	5.49
678.83	5.54
679.157	5.5
