Data from BU57647_Reflection_00007.txt Node
Date: Mon Nov 18 16:49:32 EST 2019
User: vgr7
Spectrometer: USB2G7710
Scans to average: 3
Trigger mode: 4
Integration Time (sec): 2.000000E-2
Electric dark correction enabled: true
Boxcar width: 10
XAxis mode: Wavelengths
Number of Pixels in Spectrum: 2048
>>>>>Begin Spectral Data<<<<<
177.721	78.62
178.105	71.18
178.488	137.69
178.871	-623.4
179.254	-34.4
179.636	-269.57
180.019	197.18
180.402	97.5
180.785	472.65
181.168	210.27
181.55	102.48
181.933	95.07
182.316	123.79
182.698	97.42
183.081	136.45
183.463	132.59
183.846	-2069.81
184.228	-10354.55
184.611	-614.29
184.993	-164.31
185.376	-167.08
185.758	-148.28
186.14	-132.93
186.522	-180.06
186.904	-128.59
187.287	-253.24
187.669	-264.65
188.051	-292.72
188.433	-162.93
188.815	-69.26
189.197	-60.34
189.579	-39.55
189.961	-53.72
190.342	-25.2
190.724	13.59
191.106	15.86
191.488	21.33
191.869	40.27
192.251	39.33
192.633	56.87
193.014	48.1
193.396	43.79
193.777	43.75
194.159	89.93
194.54	127.81
194.922	174.55
195.303	134.9
195.684	28.8
196.065	23.82
196.447	3
196.828	-18.64
197.209	-17.31
197.59	-42.59
197.971	-35.01
198.352	-24.38
198.733	-52.41
199.114	-55.5
199.495	-76.73
199.876	-44.12
200.257	-67
200.638	-47.61
201.018	-44.08
201.399	-22.2
201.78	-5.59
202.16	-17.06
202.541	-32.9
202.922	-39.11
203.302	-59.77
203.683	-40.42
204.063	-78.05
204.444	-64.35
204.824	-73.09
205.204	-68.51
205.585	-91.04
205.965	-154.27
206.345	-167.61
206.725	-713.95
207.106	-909.57
207.486	374.3
207.866	383.37
208.246	326.99
208.626	406.53
209.006	-296.72
209.386	1029.41
209.766	-2474.47
210.145	-202.49
210.525	-15.61
210.905	-1.35
211.285	9.53
211.664	19.6
212.044	22.75
212.424	41.58
212.803	46.25
213.183	68.59
213.562	56.19
213.942	54.32
214.321	56.45
214.701	46.78
215.08	58.32
215.459	56.4
215.838	51.78
216.218	54.56
216.597	40.51
216.976	33.36
217.355	27.25
217.734	28.26
218.113	25.34
218.492	34.75
218.871	34.33
219.25	30.5
219.629	33.71
220.008	27.44
220.387	15.66
220.766	27.07
221.144	3
221.523	22.77
221.902	26.04
222.28	20.95
222.659	47.42
223.037	70
223.416	62.67
223.794	70.09
224.173	52.98
224.551	47.35
224.929	57.97
225.308	62.62
225.686	54.09
226.064	51.66
226.442	44.77
226.821	42.71
227.199	39.02
227.577	35.31
227.955	31.05
228.333	34.93
228.711	33.14
229.089	36.65
229.467	32.5
229.845	28.96
230.222	27.07
230.6	18.94
230.978	13.11
231.356	12.55
231.733	9.6
232.111	8.54
232.488	8.73
232.866	7.52
233.243	6.36
233.621	6.04
233.998	6.17
234.376	5.08
234.753	4.75
235.13	5.42
235.508	5.54
235.885	7.66
236.262	6.48
236.639	3.77
237.016	3.35
237.393	3.17
237.77	3.61
238.147	4.29
238.524	5.09
238.901	5.08
239.278	5.96
239.655	6.08
240.032	6.71
240.409	6.82
240.785	7.2
241.162	7.28
241.539	7.34
241.915	7.38
242.292	6.67
242.668	6.77
243.045	6.44
243.421	5.89
243.798	5.41
244.174	5.47
244.551	5.59
244.927	5.18
245.303	5.48
245.679	5.7
246.056	5.48
246.432	5.51
246.808	5.51
247.184	5.29
247.56	5.1
247.936	4.81
248.312	4.94
248.688	5.1
249.064	4.98
249.44	5.1
249.815	5.02
250.191	5.32
250.567	5.32
250.943	5.23
251.318	5.53
251.694	5.77
252.069	5.78
252.445	6.09
252.82	6.36
253.196	6.33
253.571	5.95
253.947	6.02
254.322	6
254.697	6.02
255.073	5.92
255.448	5.93
255.823	5.95
256.198	5.89
256.573	5.33
256.948	5.26
257.323	5.08
257.698	5.09
258.073	5.2
258.448	5.07
258.823	5.07
259.198	5.09
259.573	4.86
259.948	4.79
260.322	4.68
260.697	4.59
261.072	4.46
261.446	4.66
261.821	4.73
262.195	4.86
262.57	4.73
262.944	4.73
263.319	4.68
263.693	4.55
264.067	4.49
264.442	4.73
264.816	4.66
265.19	4.48
265.564	4.38
265.938	4.18
266.313	4.06
266.687	4.25
267.061	4.25
267.435	4.3
267.809	4.31
268.183	4.36
268.556	4.37
268.93	4.36
269.304	4.18
269.678	4.09
270.051	3.94
270.425	4.06
270.799	4.15
271.172	4.23
271.546	4.16
271.919	4.09
272.293	3.93
272.666	3.89
273.04	4.19
273.413	4.18
273.787	4.31
274.16	4.39
274.533	4.31
274.906	4.14
275.279	4.17
275.653	4.12
276.026	4.01
276.399	3.91
276.772	4.07
277.145	4
277.518	4.24
277.891	4.23
278.263	4.15
278.636	4.2
279.009	4.12
279.382	4.6
279.755	4.68
280.127	4.91
280.5	5.11
280.872	5.04
281.245	5
281.617	4.91
281.99	5.09
282.362	5.07
282.735	4.98
283.107	4.99
283.479	5.03
283.852	5.22
284.224	5.3
284.596	5.14
284.968	5.32
285.34	5.26
285.713	5.28
286.085	5.38
286.457	5.37
286.829	5.48
287.201	5.38
287.572	5.36
287.944	5.31
288.316	5.24
288.688	5.18
289.06	5.34
289.431	5.38
289.803	5.39
290.175	5.49
290.546	5.66
290.918	5.77
291.289	5.83
291.661	5.71
292.032	5.76
292.403	5.83
292.775	5.83
293.146	5.79
293.517	5.81
293.889	5.83
294.26	5.92
294.631	5.88
295.002	5.93
295.373	5.91
295.744	5.91
296.115	5.91
296.486	5.92
296.857	5.9
297.228	5.83
297.599	5.81
297.97	5.67
298.34	5.72
298.711	5.73
299.082	5.7
299.452	5.81
299.823	5.95
300.194	6.01
300.564	6.03
300.935	6.11
301.305	6.24
301.676	6.33
302.046	6.32
302.416	6.41
302.787	6.4
303.157	6.58
303.527	6.61
303.897	6.78
304.267	7
304.637	7.28
305.008	7.58
305.378	7.69
305.748	7.97
306.117	8.07
306.487	8.12
306.857	8.29
307.227	8.41
307.597	8.44
307.967	8.68
308.336	8.88
308.706	9.03
309.076	9.1
309.445	9.07
309.815	9.07
310.184	9.16
310.554	9.29
310.923	9.38
311.293	9.42
311.662	9.52
312.031	9.61
312.401	9.51
312.77	9.5
313.139	9.61
313.508	9.77
313.877	9.83
314.246	9.91
314.616	10.09
314.985	10.21
315.353	10.19
315.722	10.25
316.091	10.31
316.46	10.36
316.829	10.38
317.198	10.75
317.567	11.06
317.935	11.13
318.304	11.2
318.672	11.33
319.041	11.63
319.41	11.65
319.778	11.56
320.147	11.67
320.515	11.82
320.883	11.78
321.252	11.86
321.62	12
321.988	12.1
322.357	11.98
322.725	12.05
323.093	12.32
323.461	12.33
323.829	12.44
324.197	12.46
324.565	12.6
324.933	12.45
325.301	12.44
325.669	12.57
326.037	12.61
326.405	12.52
326.772	12.43
327.14	12.55
327.508	12.77
327.875	12.78
328.243	12.95
328.61	13.09
328.978	13.15
329.346	13.17
329.713	13.21
330.08	13.43
330.448	13.47
330.815	13.4
331.182	13.36
331.55	13.33
331.917	13.5
332.284	13.62
332.651	13.78
333.018	13.77
333.385	13.77
333.752	13.91
334.119	14.06
334.486	14.19
334.853	14.16
335.22	14.07
335.587	14.12
335.954	14.01
336.32	13.91
336.687	13.85
337.054	13.86
337.42	13.95
337.787	13.97
338.153	13.96
338.52	14.06
338.886	14.09
339.253	14.13
339.619	14.18
339.986	14.23
340.352	14.15
340.718	14.17
341.084	14.19
341.451	14.18
341.817	14.21
342.183	14.25
342.549	14.32
342.915	14.44
343.281	14.57
343.647	14.63
344.013	14.8
344.379	14.93
344.745	15.09
345.11	15.06
345.476	15.05
345.842	14.93
346.208	14.94
346.573	14.99
346.939	15.05
347.304	14.9
347.67	14.91
348.035	15.03
348.401	15.02
348.766	14.98
349.132	15.01
349.497	14.86
349.862	14.96
350.228	14.97
350.593	14.91
350.958	14.89
351.323	14.9
351.688	14.75
352.053	14.64
352.418	14.61
352.783	14.66
353.148	14.58
353.513	14.69
353.878	14.74
354.243	14.85
354.608	14.76
354.972	14.78
355.337	14.72
355.702	14.69
356.066	14.63
356.431	14.69
356.795	14.66
357.16	14.75
357.524	14.64
357.889	14.61
358.253	14.62
358.618	14.59
358.982	14.52
359.346	14.51
359.71	14.48
360.075	14.43
360.439	14.4
360.803	14.38
361.167	14.34
361.531	14.25
361.895	14.09
362.259	14.06
362.623	13.99
362.987	13.94
363.351	13.89
363.714	13.95
364.078	13.79
364.442	13.7
364.806	13.63
365.169	13.54
365.533	13.45
365.896	13.38
366.26	13.25
366.623	13.12
366.987	13.03
367.35	12.87
367.714	12.69
368.077	12.5
368.44	12.41
368.803	12.39
369.167	12.27
369.53	12.26
369.893	12.15
370.256	12.16
370.619	12.07
370.982	11.95
371.345	11.79
371.708	11.75
372.071	11.72
372.434	11.59
372.797	11.48
373.159	11.35
373.522	11.32
373.885	11.32
374.247	11.39
374.61	11.28
374.973	11.26
375.335	11.24
375.698	11.22
376.06	11.1
376.423	10.94
376.785	10.89
377.147	10.81
377.51	10.75
377.872	10.59
378.234	10.48
378.596	10.39
378.958	10.33
379.321	10.25
379.683	10.13
380.045	10.06
380.407	9.99
380.769	9.93
381.13	9.77
381.492	9.63
381.854	9.49
382.216	9.45
382.578	9.38
382.939	9.26
383.301	9.21
383.663	9.14
384.024	9.08
384.386	9
384.747	8.92
385.109	8.9
385.47	8.84
385.832	8.8
386.193	8.75
386.554	8.68
386.916	8.67
387.277	8.63
387.638	8.57
387.999	8.5
388.36	8.42
388.721	8.37
389.082	8.32
389.443	8.22
389.804	8.17
390.165	8.11
390.526	8.08
390.887	7.96
391.248	7.95
391.609	7.86
391.969	7.8
392.33	7.69
392.691	7.64
393.051	7.56
393.412	7.53
393.772	7.43
394.133	7.37
394.493	7.29
394.854	7.18
395.214	7.13
395.574	7.08
395.935	7.06
396.295	7.03
396.655	6.97
397.015	6.93
397.376	6.86
397.736	6.76
398.096	6.74
398.456	6.69
398.816	6.61
399.176	6.58
399.535	6.54
399.895	6.54
400.255	6.48
400.615	6.45
400.975	6.34
401.334	6.32
401.694	6.26
402.054	6.18
402.413	6.18
402.773	6.12
403.132	6.06
403.492	6.01
403.851	5.94
404.211	5.91
404.57	5.86
404.929	5.85
405.288	5.86
405.648	5.76
406.007	5.71
406.366	5.67
406.725	5.68
407.084	5.63
407.443	5.58
407.802	5.55
408.161	5.51
408.52	5.52
408.879	5.48
409.238	5.49
409.596	5.48
409.955	5.44
410.314	5.45
410.673	5.42
411.031	5.42
411.39	5.4
411.748	5.36
412.107	5.3
412.465	5.29
412.824	5.22
413.182	5.2
413.54	5.19
413.899	5.19
414.257	5.12
414.615	5.13
414.974	5.12
415.332	5.06
415.69	5.05
416.048	5.01
416.406	4.98
416.764	4.92
417.122	4.92
417.48	4.89
417.838	4.86
418.195	4.84
418.553	4.8
418.911	4.78
419.269	4.77
419.626	4.75
419.984	4.68
420.342	4.67
420.699	4.67
421.057	4.64
421.414	4.61
421.772	4.59
422.129	4.55
422.486	4.54
422.844	4.53
423.201	4.49
423.558	4.48
423.915	4.46
424.273	4.43
424.63	4.4
424.987	4.38
425.344	4.35
425.701	4.34
426.058	4.32
426.415	4.31
426.772	4.28
427.128	4.28
427.485	4.29
427.842	4.28
428.199	4.26
428.555	4.25
428.912	4.24
429.269	4.24
429.625	4.24
429.982	4.2
430.338	4.18
430.695	4.16
431.051	4.12
431.407	4.13
431.764	4.15
432.12	4.12
432.476	4.11
432.832	4.1
433.189	4.09
433.545	4.08
433.901	4.05
434.257	4.05
434.613	4.05
434.969	4.06
435.325	4.07
435.681	4.06
436.036	4.06
436.392	4.06
436.748	4.05
437.104	4.04
437.459	4.05
437.815	4.06
438.171	4.08
438.526	4.11
438.882	4.1
439.237	4.12
439.593	4.14
439.948	4.13
440.304	4.14
440.659	4.15
441.014	4.17
441.369	4.16
441.725	4.16
442.08	4.15
442.435	4.15
442.79	4.13
443.145	4.12
443.5	4.09
443.855	4.08
444.21	4.09
444.565	4.08
444.92	4.1
445.275	4.09
445.629	4.08
445.984	4.06
446.339	4.05
446.693	4.02
447.048	4
447.403	4.01
447.757	4
448.112	3.98
448.466	3.96
448.82	3.95
449.175	3.95
449.529	3.92
449.883	3.9
450.238	3.87
450.592	3.85
450.946	3.85
451.3	3.85
451.654	3.82
452.008	3.81
452.362	3.77
452.716	3.75
453.07	3.76
453.424	3.74
453.778	3.74
454.132	3.74
454.486	3.72
454.839	3.71
455.193	3.69
455.547	3.68
455.9	3.68
456.254	3.67
456.607	3.68
456.961	3.68
457.314	3.69
457.668	3.7
458.021	3.7
458.375	3.71
458.728	3.72
459.081	3.74
459.434	3.74
459.787	3.76
460.141	3.76
460.494	3.76
460.847	3.78
461.2	3.78
461.553	3.81
461.906	3.84
462.259	3.86
462.611	3.88
462.964	3.91
463.317	3.92
463.67	3.96
464.022	3.95
464.375	3.96
464.728	3.98
465.08	4.01
465.433	4.02
465.785	4.05
466.138	4.03
466.49	4.03
466.843	4.04
467.195	4.07
467.547	4.09
467.899	4.11
468.252	4.12
468.604	4.14
468.956	4.12
469.308	4.11
469.66	4.11
470.012	4.12
470.364	4.12
470.716	4.15
471.068	4.13
471.42	4.17
471.772	4.21
472.123	4.23
472.475	4.23
472.827	4.27
473.178	4.27
473.53	4.28
473.882	4.3
474.233	4.3
474.585	4.27
474.936	4.25
475.288	4.25
475.639	4.24
475.99	4.25
476.342	4.25
476.693	4.25
477.044	4.26
477.395	4.26
477.746	4.26
478.097	4.22
478.448	4.25
478.8	4.23
479.15	4.2
479.501	4.19
479.852	4.18
480.203	4.17
480.554	4.18
480.905	4.19
481.255	4.19
481.606	4.19
481.957	4.19
482.307	4.2
482.658	4.19
483.009	4.19
483.359	4.18
483.709	4.18
484.06	4.18
484.41	4.18
484.761	4.18
485.111	4.18
485.461	4.19
485.811	4.17
486.162	4.16
486.512	4.17
486.862	4.16
487.212	4.16
487.562	4.16
487.912	4.14
488.262	4.14
488.612	4.13
488.961	4.13
489.311	4.12
489.661	4.12
490.011	4.12
490.36	4.11
490.71	4.11
491.06	4.12
491.409	4.12
491.759	4.12
492.108	4.13
492.458	4.13
492.807	4.15
493.157	4.18
493.506	4.2
493.855	4.21
494.204	4.24
494.554	4.26
494.903	4.28
495.252	4.3
495.601	4.34
495.95	4.37
496.299	4.4
496.648	4.45
496.997	4.5
497.346	4.55
497.695	4.6
498.043	4.64
498.392	4.68
498.741	4.71
499.09	4.76
499.438	4.82
499.787	4.89
500.135	4.95
500.484	4.98
500.832	5.06
501.181	5.13
501.529	5.18
501.878	5.28
502.226	5.35
502.574	5.45
502.923	5.52
503.271	5.63
503.619	5.71
503.967	5.79
504.315	5.88
504.663	5.98
505.011	6.09
505.359	6.2
505.707	6.32
506.055	6.44
506.403	6.53
506.751	6.64
507.098	6.76
507.446	6.87
507.794	7
508.141	7.12
508.489	7.25
508.837	7.4
509.184	7.51
509.531	7.66
509.879	7.79
510.226	7.95
510.574	8.05
510.921	8.2
511.268	8.32
511.616	8.48
511.963	8.65
512.31	8.79
512.657	8.97
513.004	9.12
513.351	9.31
513.698	9.49
514.045	9.69
514.392	9.89
514.739	10.08
515.086	10.27
515.432	10.45
515.779	10.62
516.126	10.82
516.473	11.01
516.819	11.2
517.166	11.37
517.512	11.54
517.859	11.74
518.205	11.92
518.552	12.13
518.898	12.29
519.245	12.43
519.591	12.6
519.937	12.76
520.283	12.95
520.629	13.14
520.976	13.34
521.322	13.54
521.668	13.71
522.014	13.94
522.36	14.17
522.706	14.39
523.052	14.66
523.398	14.94
523.743	15.21
524.089	15.47
524.435	15.76
524.781	16.01
525.126	16.24
525.472	16.45
525.817	16.63
526.163	16.83
526.509	17.02
526.854	17.17
527.199	17.32
527.545	17.46
527.89	17.6
528.235	17.74
528.581	17.9
528.926	18.07
529.271	18.22
529.616	18.37
529.961	18.53
530.306	18.69
530.651	18.83
530.996	19
531.341	19.17
531.686	19.31
532.031	19.48
532.376	19.67
532.721	19.87
533.065	20.08
533.41	20.26
533.755	20.46
534.099	20.67
534.444	20.89
534.788	21.11
535.133	21.32
535.477	21.55
535.822	21.78
536.166	22.03
536.51	22.26
536.855	22.52
537.199	22.8
537.543	23.05
537.887	23.33
538.231	23.58
538.576	23.84
538.92	24.12
539.264	24.38
539.608	24.6
539.951	24.81
540.295	25.02
540.639	25.25
540.983	25.45
541.327	25.64
541.671	25.83
542.014	26.02
542.358	26.21
542.701	26.42
543.045	26.6
543.389	26.74
543.732	26.95
544.075	27.17
544.419	27.39
544.762	27.62
545.105	27.85
545.449	28.09
545.792	28.35
546.135	28.59
546.478	28.84
546.821	29.1
547.165	29.39
547.508	29.67
547.851	29.92
548.194	30.18
548.536	30.52
548.879	30.82
549.222	31.13
549.565	31.43
549.908	31.71
550.25	32.01
550.593	32.38
550.936	32.7
551.278	32.99
551.621	33.29
551.963	33.56
552.306	33.82
552.648	34.12
552.991	34.38
553.333	34.65
553.675	34.98
554.017	35.26
554.36	35.47
554.702	35.73
555.044	36.02
555.386	36.31
555.728	36.54
556.07	36.77
556.412	37.02
556.754	37.26
557.096	37.52
557.438	37.76
557.78	37.97
558.121	38.23
558.463	38.44
558.805	38.61
559.147	38.94
559.488	39.24
559.83	39.53
560.171	39.84
560.513	40.12
560.854	40.35
561.196	40.66
561.537	40.94
561.878	41.19
562.22	41.43
562.561	41.67
562.902	41.85
563.243	42.09
563.584	42.33
563.925	42.59
564.266	42.77
564.607	42.98
564.948	43.19
565.289	43.37
565.63	43.57
565.971	43.8
566.312	43.89
566.653	44.01
566.993	44.1
567.334	44.27
567.675	44.46
568.015	44.63
568.356	44.72
568.696	44.96
569.037	45.17
569.377	45.32
569.718	45.51
570.058	45.76
570.398	45.91
570.739	46.12
571.079	46.23
571.419	46.4
571.759	46.55
572.099	46.75
572.439	46.93
572.779	47.1
573.119	47.24
573.459	47.42
573.799	47.61
574.139	47.77
574.479	47.88
574.819	48.03
575.158	48.16
575.498	48.41
575.838	48.51
576.177	48.61
576.517	48.74
576.856	48.85
577.196	48.92
577.535	49.12
577.875	49.2
578.214	49.36
578.553	49.49
578.893	49.65
579.232	49.76
579.571	49.91
579.91	50.01
580.25	50.21
580.589	50.43
580.928	50.54
581.267	50.67
581.606	50.81
581.945	50.9
582.283	51.02
582.622	51.03
582.961	51.11
583.3	51.14
583.639	51.32
583.977	51.51
584.316	51.62
584.654	51.69
584.993	51.82
585.332	51.9
585.67	51.98
586.008	52.07
586.347	52.17
586.685	52.2
587.024	52.35
587.362	52.38
587.7	52.44
588.038	52.54
588.376	52.61
588.715	52.68
589.053	52.81
589.391	52.82
589.729	52.91
590.067	53
590.404	53.19
590.742	53.24
591.08	53.21
591.418	53.37
591.756	53.51
592.093	53.56
592.431	53.68
592.769	53.81
593.106	53.86
593.444	53.96
593.781	54.05
594.119	54.19
594.456	54.25
594.793	54.24
595.131	54.33
595.468	54.5
595.805	54.58
596.143	54.64
596.48	54.69
596.817	54.76
597.154	54.83
597.491	54.82
597.828	54.86
598.165	55
598.502	55.04
598.839	55.07
599.176	55.14
599.512	55.22
599.849	55.23
600.186	55.35
600.523	55.31
600.859	55.41
601.196	55.43
601.532	55.47
601.869	55.51
602.205	55.56
602.542	55.57
602.878	55.57
603.215	55.6
603.551	55.67
603.887	55.72
604.223	55.73
604.56	55.84
604.896	55.88
605.232	55.94
605.568	55.97
605.904	56.03
606.24	56.07
606.576	56.14
606.912	56.19
607.248	56.24
607.583	56.33
607.919	56.35
608.255	56.38
608.591	56.48
608.926	56.58
609.262	56.63
609.597	56.68
609.933	56.78
610.268	56.81
610.604	56.92
610.939	56.97
611.275	57.06
611.61	56.98
611.945	57.08
612.281	57.14
612.616	57.15
612.951	57.19
613.286	57.24
613.621	57.21
613.956	57.16
614.291	57.13
614.626	57.21
614.961	57.26
615.296	57.33
615.631	57.34
615.966	57.38
616.3	57.38
616.635	57.39
616.97	57.46
617.304	57.39
617.639	57.32
617.973	57.33
618.308	57.34
618.642	57.46
618.977	57.42
619.311	57.39
619.646	57.38
619.98	57.41
620.314	57.43
620.648	57.48
620.983	57.62
621.317	57.66
621.651	57.61
621.985	57.57
622.319	57.54
622.653	57.51
622.987	57.6
623.321	57.59
623.655	57.64
623.988	57.62
624.322	57.73
624.656	57.74
624.99	57.81
625.323	57.8
625.657	57.85
625.99	57.96
626.324	57.96
626.657	58.01
626.991	58.05
627.324	58.03
627.658	58.08
627.991	58.14
628.324	58.11
628.657	58.16
628.991	58.23
629.324	58.24
629.657	58.27
629.99	58.15
630.323	58.22
630.656	58.17
630.989	58.16
631.322	58.24
631.655	58.39
631.987	58.42
632.32	58.49
632.653	58.48
632.986	58.42
633.318	58.44
633.651	58.49
633.984	58.48
634.316	58.54
634.649	58.54
634.981	58.49
635.313	58.56
635.646	58.68
635.978	58.65
636.31	58.67
636.643	58.73
636.975	58.75
637.307	58.78
637.639	58.8
637.971	58.81
638.303	58.71
638.635	58.64
638.967	58.66
639.299	58.56
639.631	58.49
639.963	58.5
640.295	58.47
640.626	58.47
640.958	58.47
641.29	58.48
641.621	58.43
641.953	58.56
642.285	58.62
642.616	58.63
642.948	58.73
643.279	58.81
643.61	58.77
643.942	58.83
644.273	58.85
644.604	58.87
644.936	58.9
645.267	58.91
645.598	58.85
645.929	58.84
646.26	59.02
646.591	59.2
646.922	59.21
647.253	59.25
647.584	59.2
647.915	59.07
648.245	59.05
648.576	59.1
648.907	58.95
649.238	58.85
649.568	58.87
649.899	58.86
650.229	58.82
650.56	58.87
650.89	58.84
651.221	58.79
651.551	58.83
651.882	58.76
652.212	58.79
652.542	58.81
652.872	58.78
653.203	58.72
653.533	58.71
653.863	58.67
654.193	58.56
654.523	58.71
654.853	58.88
655.183	58.91
655.513	58.87
655.843	58.97
656.172	59.05
656.502	59.04
656.832	59.09
657.162	59.12
657.491	59.13
657.821	59.17
658.15	59.17
658.48	59.24
658.809	59.32
659.139	59.28
659.468	59.35
659.798	59.32
660.127	59.41
660.456	59.29
660.785	59.42
661.115	59.59
661.444	59.57
661.773	59.53
662.102	59.61
662.431	59.7
662.76	59.61
663.089	59.63
663.418	59.56
