Data from BU57650_Reflection_00015.txt Node
Date: Tue Nov 19 11:01:39 EST 2019
User: vgr7
Spectrometer: USB2G7710
Scans to average: 3
Trigger mode: 4
Integration Time (sec): 2.000000E-2
Electric dark correction enabled: true
Boxcar width: 10
XAxis mode: Wavelengths
Number of Pixels in Spectrum: 2048
>>>>>Begin Spectral Data<<<<<
177.721	60.71
178.105	87.01
178.488	-918.69
178.871	-262.16
179.254	-37.93
179.636	296.43
180.019	172.16
180.402	200
180.785	239.13
181.168	48.6
181.55	319.18
181.933	62.19
182.316	134.56
182.698	130.88
183.081	7100
183.463	210.67
183.846	177.56
184.228	577.06
184.611	-248.43
184.993	-70.25
185.376	-65.33
185.758	-22.73
186.14	-59.59
186.522	-43.15
186.904	-36.09
187.287	-85.58
187.669	-55.46
188.051	-70.98
188.433	-70.18
188.815	-69.83
189.197	-72.15
189.579	-66.24
189.961	-51.43
190.342	-46.5
190.724	-63.42
191.106	-71.42
191.488	-63.06
191.869	-44.83
192.251	-45.8
192.633	-56.05
193.014	-57.42
193.396	-54.77
193.777	-52.64
194.159	-39.83
194.54	-38.5
194.922	-37.96
195.303	-40.42
195.684	-45.02
196.065	-42.11
196.447	-39.82
196.828	-35.32
197.209	-30.56
197.59	-30.95
197.971	-27.19
198.352	-20.01
198.733	-15.23
199.114	-13.08
199.495	-3.91
199.876	-6.35
200.257	-17.23
200.638	-9
201.018	-7.02
201.399	0.41
201.78	-6.95
202.16	-22.48
202.541	-26.32
202.922	-31.43
203.302	-25.4
203.683	-19.25
204.063	-11.8
204.444	-13.15
204.824	-8.51
205.204	-12.88
205.585	-1.59
205.965	-14.06
206.345	-19.83
206.725	-11.03
207.106	0.7
207.486	7.66
207.866	16.15
208.246	30.8
208.626	27.31
209.006	27.71
209.386	25.19
209.766	24.58
210.145	29.44
210.525	36.93
210.905	35.28
211.285	28.12
211.664	31.22
212.044	23.77
212.424	22.12
212.803	18.75
213.183	20.97
213.562	17.34
213.942	21.1
214.321	20.07
214.701	11.35
215.08	-2.13
215.459	-4.38
215.838	-10.09
216.218	-12.71
216.597	-6.89
216.976	-15.95
217.355	-9.86
217.734	-10.47
218.113	-2.84
218.492	1.81
218.871	5.34
219.25	10.77
219.629	-3.06
220.008	-3.06
220.387	8.02
220.766	5.49
221.144	8.31
221.523	5.68
221.902	-0.72
222.28	-0.81
222.659	4.91
223.037	8.88
223.416	10.07
223.794	8.33
224.173	2.72
224.551	-2.44
224.929	-3.51
225.308	-7.18
225.686	-8.44
226.064	-14.78
226.442	-12.88
226.821	-12.9
227.199	-13.9
227.577	-10.24
227.955	-5.46
228.333	-8.16
228.711	-5.83
229.089	-6.03
229.467	-6.43
229.845	-8.26
230.222	-5.55
230.6	-4.72
230.978	-4.79
231.356	-3.91
231.733	-3.85
232.111	-4.67
232.488	-2.34
232.866	0.87
233.243	1.47
233.621	3.76
233.998	6.62
234.376	7.75
234.753	8.6
235.13	10.42
235.508	9.96
235.885	5.92
236.262	6.55
236.639	7.33
237.016	6.61
237.393	8.73
237.77	9.84
238.147	9.05
238.524	8.06
238.901	6.81
239.278	5.94
239.655	5.3
240.032	5.57
240.409	5.14
240.785	4.87
241.162	4.78
241.539	4.5
241.915	3.95
242.292	3.75
242.668	3.64
243.045	4.38
243.421	4.54
243.798	4.82
244.174	4.89
244.551	4.81
244.927	5.11
245.303	4.71
245.679	4.72
246.056	4.72
246.432	4.76
246.808	4.89
247.184	4.89
247.56	4.85
247.936	5.08
248.312	5.18
248.688	5.17
249.064	5.1
249.44	5.01
249.815	5.08
250.191	5
250.567	4.92
250.943	4.59
251.318	4.52
251.694	4.6
252.069	4.73
252.445	4.75
252.82	4.95
253.196	5.05
253.571	5.11
253.947	5.03
254.322	4.84
254.697	4.82
255.073	4.75
255.448	4.86
255.823	4.59
256.198	4.66
256.573	4.45
256.948	4.59
257.323	4.76
257.698	4.71
258.073	4.52
258.448	4.79
258.823	4.57
259.198	4.56
259.573	4.5
259.948	4.19
260.322	4.01
260.697	3.88
261.072	3.94
261.446	3.92
261.821	3.81
262.195	3.88
262.57	3.93
262.944	4.05
263.319	4.02
263.693	4.05
264.067	3.96
264.442	4.01
264.816	4.04
265.19	3.96
265.564	3.87
265.938	4.05
266.313	3.69
266.687	3.84
267.061	3.67
267.435	3.89
267.809	4.09
268.183	4.24
268.556	4.21
268.93	4.22
269.304	4.08
269.678	4.13
270.051	4.08
270.425	4.01
270.799	3.8
271.172	3.69
271.546	3.72
271.919	3.69
272.293	3.56
272.666	3.55
273.04	3.45
273.413	3.46
273.787	3.46
274.16	3.51
274.533	3.53
274.906	3.79
275.279	3.61
275.653	3.56
276.026	3.57
276.399	3.44
276.772	3.35
277.145	3.52
277.518	3.38
277.891	3.49
278.263	3.52
278.636	3.73
279.009	3.86
279.382	3.88
279.755	3.7
280.127	3.88
280.5	3.62
280.872	3.66
281.245	3.72
281.617	3.85
281.99	3.99
282.362	3.91
282.735	3.68
283.107	3.66
283.479	3.56
283.852	3.53
284.224	3.64
284.596	3.67
284.968	3.64
285.34	3.82
285.713	3.8
286.085	3.63
286.457	3.54
286.829	3.56
287.201	3.51
287.572	3.68
287.944	3.69
288.316	3.81
288.688	3.86
289.06	3.86
289.431	3.82
289.803	3.76
290.175	3.76
290.546	3.93
290.918	4.05
291.289	4.14
291.661	4.19
292.032	4.19
292.403	4.3
292.775	4.31
293.146	4.2
293.517	4.14
293.889	4.19
294.26	4.26
294.631	4.32
295.002	4.32
295.373	4.36
295.744	4.38
296.115	4.39
296.486	4.43
296.857	4.39
297.228	4.26
297.599	4.23
297.97	4.4
298.34	4.45
298.711	4.42
299.082	4.52
299.452	4.47
299.823	4.5
300.194	4.54
300.564	4.53
300.935	4.68
301.305	4.76
301.676	4.88
302.046	4.92
302.416	4.82
302.787	4.91
303.157	4.94
303.527	5.05
303.897	5.14
304.267	5.12
304.637	5.15
305.008	5.23
305.378	5.38
305.748	5.34
306.117	5.22
306.487	5.23
306.857	5.28
307.227	5.42
307.597	5.57
307.967	5.39
308.336	5.44
308.706	5.51
309.076	5.55
309.445	5.73
309.815	5.69
310.184	5.9
310.554	5.99
310.923	5.95
311.293	5.93
311.662	5.99
312.031	6.02
312.401	6.05
312.77	6.17
313.139	6.18
313.508	6.17
313.877	6.27
314.246	6.4
314.616	6.42
314.985	6.44
315.353	6.4
315.722	6.52
316.091	6.72
316.46	6.79
316.829	6.95
317.198	6.93
317.567	7.16
317.935	7.16
318.304	7.15
318.672	7.37
319.041	7.45
319.41	7.38
319.778	7.38
320.147	7.45
320.515	7.39
320.883	7.43
321.252	7.45
321.62	7.52
321.988	7.66
322.357	7.7
322.725	7.66
323.093	7.75
323.461	7.87
323.829	7.8
324.197	7.83
324.565	7.79
324.933	7.85
325.301	7.72
325.669	7.72
326.037	7.93
326.405	7.88
326.772	7.87
327.14	7.86
327.508	8.03
327.875	8.14
328.243	8.22
328.61	8.17
328.978	8.24
329.346	8.26
329.713	8.17
330.08	8.22
330.448	8.31
330.815	8.29
331.182	8.25
331.55	8.24
331.917	8.1
332.284	8.11
332.651	8.15
333.018	8.32
333.385	8.32
333.752	8.13
334.119	8.23
334.486	8.39
334.853	8.59
335.22	8.49
335.587	8.5
335.954	8.54
336.32	8.62
336.687	8.63
337.054	8.65
337.42	8.71
337.787	8.73
338.153	8.73
338.52	8.85
338.886	8.89
339.253	8.87
339.619	9.12
339.986	9.08
340.352	9.08
340.718	9.05
341.084	9.07
341.451	9.17
341.817	9.13
342.183	8.94
342.549	8.92
342.915	8.99
343.281	8.97
343.647	9.06
344.013	9.11
344.379	9.08
344.745	9.11
345.11	9.05
345.476	9.15
345.842	9.15
346.208	9.04
346.573	9.15
346.939	9.26
347.304	9.18
347.67	9.24
348.035	9.21
348.401	9.1
348.766	9.1
349.132	9.09
349.497	9.06
349.862	9.15
350.228	9.12
350.593	9.1
350.958	9.21
351.323	9.13
351.688	9.11
352.053	9.2
352.418	9.15
352.783	9.15
353.148	9.11
353.513	9.1
353.878	9.04
354.243	8.97
354.608	9
354.972	8.97
355.337	9.04
355.702	8.99
356.066	8.97
356.431	8.95
356.795	9
357.16	8.97
357.524	8.9
357.889	8.89
358.253	8.87
358.618	8.75
358.982	8.78
359.346	8.76
359.71	8.7
360.075	8.63
360.439	8.6
360.803	8.59
361.167	8.6
361.531	8.61
361.895	8.58
362.259	8.5
362.623	8.49
362.987	8.42
363.351	8.33
363.714	8.37
364.078	8.36
364.442	8.28
364.806	8.21
365.169	8.23
365.533	8.2
365.896	8.16
366.26	8.08
366.623	7.99
366.987	7.84
367.35	7.78
367.714	7.78
368.077	7.78
368.44	7.75
368.803	7.64
369.167	7.57
369.53	7.5
369.893	7.44
370.256	7.32
370.619	7.22
370.982	7.23
371.345	7.22
371.708	7.11
372.071	7.04
372.434	7
372.797	6.91
373.159	6.78
373.522	6.7
373.885	6.69
374.247	6.67
374.61	6.71
374.973	6.66
375.335	6.6
375.698	6.54
376.06	6.43
376.423	6.45
376.785	6.44
377.147	6.38
377.51	6.32
377.872	6.28
378.234	6.24
378.596	6.16
378.958	6.13
379.321	6.07
379.683	6.03
380.045	6.01
380.407	5.97
380.769	5.99
381.13	5.98
381.492	5.9
381.854	5.85
382.216	5.83
382.578	5.79
382.939	5.74
383.301	5.72
383.663	5.66
384.024	5.58
384.386	5.53
384.747	5.53
385.109	5.51
385.47	5.52
385.832	5.48
386.193	5.47
386.554	5.37
386.916	5.36
387.277	5.33
387.638	5.31
387.999	5.29
388.36	5.27
388.721	5.25
389.082	5.29
389.443	5.22
389.804	5.14
390.165	5.08
390.526	5.07
390.887	5.02
391.248	4.98
391.609	4.96
391.969	4.91
392.33	4.83
392.691	4.79
393.051	4.73
393.412	4.72
393.772	4.72
394.133	4.68
394.493	4.65
394.854	4.63
395.214	4.57
395.574	4.52
395.935	4.49
396.295	4.45
396.655	4.4
397.015	4.38
397.376	4.32
397.736	4.29
398.096	4.26
398.456	4.2
398.816	4.17
399.176	4.11
399.535	4.13
399.895	4.13
400.255	4.13
400.615	4.15
400.975	4.12
401.334	4.1
401.694	4.12
402.054	4.08
402.413	4.08
402.773	4.07
403.132	4.06
403.492	4.04
403.851	4.01
404.211	4
404.57	4
404.929	4
405.288	4.03
405.648	4.02
406.007	4.03
406.366	4.01
406.725	4.02
407.084	3.97
407.443	3.94
407.802	3.92
408.161	3.88
408.52	3.86
408.879	3.85
409.238	3.8
409.596	3.84
409.955	3.8
410.314	3.8
410.673	3.79
411.031	3.76
411.39	3.77
411.748	3.79
412.107	3.74
412.465	3.77
412.824	3.71
413.182	3.68
413.54	3.68
413.899	3.69
414.257	3.68
414.615	3.68
414.974	3.69
415.332	3.66
415.69	3.65
416.048	3.64
416.406	3.6
416.764	3.61
417.122	3.59
417.48	3.58
417.838	3.56
418.195	3.54
418.553	3.53
418.911	3.5
419.269	3.49
419.626	3.48
419.984	3.45
420.342	3.45
420.699	3.44
421.057	3.43
421.414	3.43
421.772	3.42
422.129	3.41
422.486	3.39
422.844	3.39
423.201	3.38
423.558	3.36
423.915	3.35
424.273	3.34
424.63	3.32
424.987	3.31
425.344	3.31
425.701	3.3
426.058	3.3
426.415	3.31
426.772	3.29
427.128	3.3
427.485	3.32
427.842	3.32
428.199	3.31
428.555	3.29
428.912	3.28
429.269	3.27
429.625	3.27
429.982	3.27
430.338	3.28
430.695	3.26
431.051	3.25
431.407	3.25
431.764	3.26
432.12	3.26
432.476	3.27
432.832	3.28
433.189	3.28
433.545	3.25
433.901	3.22
434.257	3.22
434.613	3.22
434.969	3.21
435.325	3.2
435.681	3.19
436.036	3.2
436.392	3.18
436.748	3.19
437.104	3.19
437.459	3.18
437.815	3.17
438.171	3.19
438.526	3.21
438.882	3.21
439.237	3.21
439.593	3.22
439.948	3.23
440.304	3.23
440.659	3.22
441.014	3.24
441.369	3.24
441.725	3.23
442.08	3.22
442.435	3.23
442.79	3.25
443.145	3.25
443.5	3.22
443.855	3.24
444.21	3.22
444.565	3.22
444.92	3.23
445.275	3.21
445.629	3.2
445.984	3.17
446.339	3.17
446.693	3.16
447.048	3.12
447.403	3.11
447.757	3.09
448.112	3.11
448.466	3.09
448.82	3.08
449.175	3.09
449.529	3.09
449.883	3.07
450.238	3.05
450.592	3.05
450.946	3.03
451.3	3
451.654	3
452.008	3.01
452.362	2.99
452.716	3.01
453.07	3.01
453.424	3.01
453.778	3.01
454.132	3
454.486	3.04
454.839	3.04
455.193	3.05
455.547	3.03
455.9	3.04
456.254	3.07
456.607	3.06
456.961	3.04
457.314	3.03
457.668	3.04
458.021	3.04
458.375	3.05
458.728	3.07
459.081	3.07
459.434	3.04
459.787	3.04
460.141	3.06
460.494	3.06
460.847	3.07
461.2	3.06
461.553	3.08
461.906	3.06
462.259	3.04
462.611	3.06
462.964	3.05
463.317	3.04
463.67	3.05
464.022	3.06
464.375	3.05
464.728	3.07
465.08	3.07
465.433	3.08
465.785	3.09
466.138	3.09
466.49	3.1
466.843	3.12
467.195	3.13
467.547	3.11
467.899	3.15
468.252	3.14
468.604	3.16
468.956	3.15
469.308	3.16
469.66	3.18
470.012	3.18
470.364	3.18
470.716	3.19
471.068	3.18
471.42	3.19
471.772	3.23
472.123	3.25
472.475	3.26
472.827	3.26
473.178	3.26
473.53	3.27
473.882	3.27
474.233	3.27
474.585	3.29
474.936	3.29
475.288	3.26
475.639	3.28
475.99	3.27
476.342	3.29
476.693	3.29
477.044	3.29
477.395	3.28
477.746	3.28
478.097	3.29
478.448	3.28
478.8	3.28
479.15	3.26
479.501	3.24
479.852	3.25
480.203	3.25
480.554	3.26
480.905	3.28
481.255	3.28
481.606	3.29
481.957	3.28
482.307	3.29
482.658	3.3
483.009	3.28
483.359	3.29
483.709	3.29
484.06	3.29
484.41	3.29
484.761	3.29
485.111	3.29
485.461	3.3
485.811	3.3
486.162	3.3
486.512	3.31
486.862	3.31
487.212	3.31
487.562	3.31
487.912	3.3
488.262	3.29
488.612	3.29
488.961	3.28
489.311	3.28
489.661	3.28
490.011	3.28
490.36	3.29
490.71	3.28
491.06	3.28
491.409	3.28
491.759	3.28
492.108	3.28
492.458	3.28
492.807	3.28
493.157	3.27
493.506	3.26
493.855	3.28
494.204	3.28
494.554	3.28
494.903	3.29
495.252	3.31
495.601	3.33
495.95	3.34
496.299	3.35
496.648	3.37
496.997	3.38
497.346	3.4
497.695	3.43
498.043	3.46
498.392	3.49
498.741	3.51
499.09	3.52
499.438	3.57
499.787	3.59
500.135	3.61
500.484	3.64
500.832	3.66
501.181	3.67
501.529	3.71
501.878	3.73
502.226	3.76
502.574	3.78
502.923	3.81
503.271	3.83
503.619	3.87
503.967	3.88
504.315	3.91
504.663	3.93
505.011	3.96
505.359	3.97
505.707	3.98
506.055	4.03
506.403	4.08
506.751	4.11
507.098	4.16
507.446	4.21
507.794	4.26
508.141	4.31
508.489	4.36
508.837	4.39
509.184	4.44
509.531	4.48
509.879	4.52
510.226	4.54
510.574	4.6
510.921	4.66
511.268	4.72
511.616	4.77
511.963	4.83
512.31	4.88
512.657	4.94
513.004	5
513.351	5.07
513.698	5.13
514.045	5.18
514.392	5.24
514.739	5.3
515.086	5.37
515.432	5.45
515.779	5.52
516.126	5.62
516.473	5.68
516.819	5.77
517.166	5.85
517.512	5.95
517.859	6.01
518.205	6.08
518.552	6.14
518.898	6.21
519.245	6.26
519.591	6.32
519.937	6.4
520.283	6.48
520.629	6.53
520.976	6.6
521.322	6.7
521.668	6.78
522.014	6.92
522.36	6.99
522.706	7.09
523.052	7.2
523.398	7.31
523.743	7.45
524.089	7.58
524.435	7.7
524.781	7.81
525.126	7.9
525.472	7.99
525.817	8.1
526.163	8.18
526.509	8.28
526.854	8.36
527.199	8.44
527.545	8.52
527.89	8.61
528.235	8.68
528.581	8.77
528.926	8.85
529.271	8.91
529.616	8.99
529.961	9.06
530.306	9.14
530.651	9.21
530.996	9.3
531.341	9.39
531.686	9.47
532.031	9.55
532.376	9.65
532.721	9.76
533.065	9.87
533.41	9.97
533.755	10.08
534.099	10.2
534.444	10.31
534.788	10.43
535.133	10.54
535.477	10.65
535.822	10.75
536.166	10.9
536.51	11.01
536.855	11.19
537.199	11.34
537.543	11.52
537.887	11.7
538.231	11.84
538.576	11.99
538.92	12.16
539.264	12.32
539.608	12.47
539.951	12.62
540.295	12.77
540.639	12.93
540.983	13.06
541.327	13.19
541.671	13.33
542.014	13.47
542.358	13.63
542.701	13.78
543.045	13.96
543.389	14.12
543.732	14.29
544.075	14.44
544.419	14.61
544.762	14.76
545.105	14.93
545.449	15.14
545.792	15.37
546.135	15.6
546.478	15.84
546.821	16.06
547.165	16.28
547.508	16.5
547.851	16.76
548.194	17.02
548.536	17.26
548.879	17.52
549.222	17.81
549.565	18.06
549.908	18.32
550.25	18.55
550.593	18.77
550.936	19.06
551.278	19.36
551.621	19.64
551.963	19.96
552.306	20.27
552.648	20.55
552.991	20.77
553.333	21.04
553.675	21.31
554.017	21.63
554.36	21.97
554.702	22.28
555.044	22.56
555.386	22.83
555.728	23.12
556.07	23.42
556.412	23.71
556.754	24.01
557.096	24.38
557.438	24.72
557.78	25.07
558.121	25.42
558.463	25.69
558.805	26.04
559.147	26.33
559.488	26.64
559.83	26.97
560.171	27.35
560.513	27.68
560.854	28.01
561.196	28.33
561.537	28.64
561.878	28.96
562.22	29.27
562.561	29.63
562.902	29.97
563.243	30.26
563.584	30.55
563.925	30.87
564.266	31.13
564.607	31.42
564.948	31.72
565.289	32
565.63	32.31
565.971	32.58
566.312	32.9
566.653	33.19
566.993	33.48
567.334	33.78
567.675	34.07
568.015	34.36
568.356	34.65
568.696	34.91
569.037	35.2
569.377	35.49
569.718	35.75
570.058	36.08
570.398	36.42
570.739	36.73
571.079	37.04
571.419	37.32
571.759	37.61
572.099	37.89
572.439	38.2
572.779	38.47
573.119	38.73
573.459	38.99
573.799	39.27
574.139	39.5
574.479	39.76
574.819	40.04
575.158	40.34
575.498	40.63
575.838	40.87
576.177	41.11
576.517	41.42
576.856	41.68
577.196	41.9
577.535	42.17
577.875	42.37
578.214	42.6
578.553	42.88
578.893	43.18
579.232	43.38
579.571	43.65
579.91	43.95
580.25	44.27
580.589	44.52
580.928	44.78
581.267	45.07
581.606	45.26
581.945	45.5
582.283	45.69
582.622	45.85
582.961	46.14
583.3	46.37
583.639	46.52
583.977	46.79
584.316	47.05
584.654	47.23
584.993	47.51
585.332	47.77
585.67	48.01
586.008	48.23
586.347	48.57
586.685	48.69
587.024	48.92
587.362	49.04
587.7	49.26
588.038	49.44
588.376	49.62
588.715	49.81
589.053	49.95
589.391	50.19
589.729	50.45
590.067	50.62
590.404	50.91
590.742	51.1
591.08	51.28
591.418	51.45
591.756	51.61
592.093	51.78
592.431	51.95
592.769	52.14
593.106	52.24
593.444	52.34
593.781	52.54
594.119	52.74
594.456	52.9
594.793	53.01
595.131	53.2
595.468	53.38
595.805	53.54
596.143	53.65
596.48	53.79
596.817	53.93
597.154	54.07
597.491	54.11
597.828	54.23
598.165	54.35
598.502	54.45
598.839	54.64
599.176	54.83
599.512	54.93
599.849	55.03
600.186	55.19
600.523	55.35
600.859	55.45
601.196	55.43
601.532	55.54
601.869	55.71
602.205	55.77
602.542	55.78
602.878	55.95
603.215	56.11
603.551	56.14
603.887	56.17
604.223	56.22
604.56	56.3
604.896	56.46
605.232	56.54
605.568	56.61
605.904	56.66
606.24	56.76
606.576	56.84
606.912	56.92
607.248	57.08
607.583	57.19
607.919	57.3
608.255	57.47
608.591	57.63
608.926	57.67
609.262	57.77
609.597	58.01
609.933	58.1
610.268	58.14
610.604	58.3
610.939	58.43
611.275	58.47
611.61	58.65
611.945	58.67
612.281	58.79
612.616	58.98
612.951	59.15
613.286	59.19
613.621	59.32
613.956	59.44
614.291	59.54
614.626	59.54
614.961	59.66
615.296	59.79
615.631	59.8
615.966	59.97
616.3	60.06
616.635	60.01
616.97	60.03
617.304	60.12
617.639	60.16
617.973	60.2
618.308	60.34
618.642	60.32
618.977	60.42
619.311	60.43
619.646	60.48
619.98	60.53
620.314	60.6
620.648	60.67
620.983	60.67
621.317	60.59
621.651	60.67
621.985	60.75
622.319	60.82
622.653	60.96
622.987	60.95
623.321	61
623.655	61.03
623.988	61.03
624.322	61.04
624.656	60.98
624.99	60.97
625.323	61.01
625.657	61.02
625.99	60.96
626.324	61.01
626.657	60.95
626.991	60.9
627.324	60.98
627.658	60.99
627.991	61.1
628.324	61.18
628.657	61.23
628.991	61.27
629.324	61.23
629.657	61.22
629.99	61.26
630.323	61.33
630.656	61.49
630.989	61.54
631.322	61.63
631.655	61.72
631.987	61.77
632.32	61.83
632.653	61.84
632.986	61.88
633.318	61.98
633.651	62.01
633.984	62.13
634.316	62.12
634.649	62.11
634.981	62.15
635.313	62.22
635.646	62.29
635.978	62.24
636.31	62.42
636.643	62.47
636.975	62.44
637.307	62.46
637.639	62.36
637.971	62.54
638.303	62.46
638.635	62.56
638.967	62.61
639.299	62.62
639.631	62.87
639.963	63
640.295	63.09
640.626	63.07
640.958	63.13
641.29	63.14
641.621	63.25
641.953	63.19
642.285	63.22
642.616	63.21
642.948	63.3
643.279	63.25
643.61	63.25
643.942	63.38
644.273	63.36
644.604	63.52
644.936	63.44
645.267	63.51
645.598	63.56
645.929	63.68
646.26	63.77
646.591	63.6
646.922	63.71
647.253	63.61
647.584	63.71
647.915	63.59
648.245	63.64
648.576	63.72
648.907	63.8
649.238	63.87
649.568	64
649.899	64.08
650.229	64.1
650.56	64.13
650.89	64.23
651.221	64.28
651.551	64.19
651.882	64.08
652.212	64.21
652.542	64.24
652.872	64.15
653.203	64.16
653.533	64.27
653.863	64.2
654.193	64.23
654.523	64.22
654.853	64.23
655.183	64.23
655.513	64.21
655.843	64.21
656.172	64.09
656.502	63.96
656.832	63.94
657.162	63.95
657.491	63.87
657.821	63.86
658.15	63.9
658.48	64.07
658.809	64.15
659.139	64.08
659.468	64.03
659.798	64.04
660.127	64.09
660.456	64.14
660.785	64.21
661.115	64.2
661.444	64.28
661.773	64.46
662.102	64.51
662.431	64.47
662.76	64.49
663.089	64.65
663.418	64.72
663.747	64.77
664.076	64.69
664.404	64.87
664.733	64.85
665.062	64.77
665.39	64.8
665.719	64.73
666.048	64.84
666.376	64.88
666.705	64.84
667.033	64.73
667.362	64.61
667.69	64.66
668.018	64.75
668.347	64.73
668.675	64.63
669.003	64.69
669.331	64.84
