Data from BU57652_Reflection_00010.txt Node
Date: Tue Nov 19 10:43:21 EST 2019
User: vgr7
Spectrometer: USB2G7710
Scans to average: 3
Trigger mode: 4
Integration Time (sec): 2.000000E-2
Electric dark correction enabled: true
Boxcar width: 10
XAxis mode: Wavelengths
Number of Pixels in Spectrum: 2048
>>>>>Begin Spectral Data<<<<<
177.721	-2.66
178.105	-89.78
178.488	-179.16
178.871	-0
179.254	-0
179.636	42.57
180.019	18.21
180.402	4.17
180.785	-29.51
181.168	-48.65
181.55	1753.85
181.933	-409.9
182.316	-676.6
182.698	-52.72
183.081	-197.69
183.463	-262.28
183.846	-361.72
184.228	-647.52
184.611	-85.5
184.993	-49.74
185.376	-4.92
185.758	8.88
186.14	-10.88
186.522	-7.7
186.904	9.97
187.287	3.27
187.669	24.07
188.051	25.5
188.433	5.49
188.815	6.11
189.197	9.37
189.579	18.95
189.961	35.49
190.342	30.26
190.724	8.76
191.106	11.74
191.488	-0.25
191.869	6.99
192.251	12.33
192.633	7.36
193.014	6.31
193.396	-6.6
193.777	3.14
194.159	-5.09
194.54	-13.14
194.922	-11.21
195.303	-11.09
195.684	-31.06
196.065	-34.69
196.447	-14.55
196.828	-14.17
197.209	-13.8
197.59	-19.71
197.971	-31.99
198.352	-19.77
198.733	-9.45
199.114	-14.41
199.495	-12.4
199.876	-12.54
200.257	-23.2
200.638	-38.87
201.018	-50.43
201.399	-33.58
201.78	-40.67
202.16	-42.71
202.541	-37.67
202.922	-40.36
203.302	-45.57
203.683	-51.47
204.063	-43.18
204.444	-48.8
204.824	-38.67
205.204	-43.72
205.585	-56.8
205.965	-67.68
206.345	-82.94
206.725	-72.38
207.106	-36.95
207.486	-25.79
207.866	-42.43
208.246	-12.16
208.626	-9.61
209.006	-6.17
209.386	-28.52
209.766	-41.71
210.145	-36.15
210.525	-81.66
210.905	-50.1
211.285	-5.43
211.664	23.32
212.044	7.74
212.424	10.55
212.803	4.84
213.183	-1.92
213.562	12.47
213.942	16.23
214.321	14.36
214.701	4.5
215.08	-20.26
215.459	-8.06
215.838	-4.55
216.218	-13.22
216.597	-5.05
216.976	-5.74
217.355	6.87
217.734	8.57
218.113	16.48
218.492	23.18
218.871	13.8
219.25	18.2
219.629	25.53
220.008	21.02
220.387	21.96
220.766	25.25
221.144	33.81
221.523	30.41
221.902	33.04
222.28	34.29
222.659	38.46
223.037	47.86
223.416	46.46
223.794	47.59
224.173	32.51
224.551	29.66
224.929	22.52
225.308	12.18
225.686	7.38
226.064	1.92
226.442	3.08
226.821	5.88
227.199	4.78
227.577	8.3
227.955	12.86
228.333	13.13
228.711	10.53
229.089	8.56
229.467	7.75
229.845	6.31
230.222	5.26
230.6	6.58
230.978	7.14
231.356	5.62
231.733	4.25
232.111	5.85
232.488	5.91
232.866	7.8
233.243	8.13
233.621	9.46
233.998	9.32
234.376	9.48
234.753	8.19
235.13	8.24
235.508	4.36
235.885	3.45
236.262	0.55
236.639	-0.43
237.016	-0.65
237.393	0.3
237.77	1.25
238.147	2.12
238.524	1.02
238.901	0.5
239.278	0.21
239.655	1.17
240.032	1.38
240.409	2.06
240.785	1.32
241.162	1.41
241.539	1.37
241.915	1.3
242.292	2.33
242.668	2.63
243.045	2.68
243.421	3.15
243.798	3.57
244.174	4.18
244.551	4.31
244.927	4.32
245.303	4.09
245.679	3.96
246.056	3.7
246.432	4.16
246.808	4.24
247.184	4.41
247.56	4.44
247.936	4.38
248.312	4.44
248.688	4.56
249.064	4.55
249.44	4.59
249.815	4.7
250.191	4.28
250.567	4.38
250.943	4.39
251.318	4.17
251.694	3.78
252.069	3.68
252.445	3.56
252.82	3.82
253.196	3.93
253.571	4.21
253.947	4.17
254.322	3.88
254.697	3.68
255.073	3.64
255.448	3.55
255.823	3.73
256.198	3.39
256.573	3.61
256.948	3.49
257.323	3.78
257.698	3.88
258.073	3.87
258.448	3.79
258.823	3.82
259.198	4.07
259.573	4.22
259.948	4.27
260.322	4.19
260.697	4.12
261.072	4.08
261.446	4.04
261.821	4.05
262.195	3.94
262.57	4.05
262.944	4.16
263.319	4.08
263.693	4.08
264.067	4.17
264.442	4.15
264.816	4.23
265.19	4.12
265.564	3.99
265.938	4.13
266.313	4.1
266.687	4.22
267.061	4.04
267.435	4.17
267.809	4.14
268.183	4.24
268.556	4.24
268.93	4.38
269.304	4.09
269.678	4.37
270.051	4.32
270.425	4.19
270.799	3.95
271.172	4.11
271.546	4.16
271.919	4.19
272.293	4.2
272.666	4.21
273.04	4.22
273.413	4.26
273.787	4.28
274.16	4.19
274.533	4.2
274.906	4.24
275.279	4.11
275.653	3.96
276.026	4.12
276.399	4.07
276.772	4.12
277.145	4.39
277.518	4.26
277.891	4.33
278.263	4.48
278.636	4.79
279.009	4.73
279.382	4.67
279.755	4.66
280.127	4.59
280.5	4.67
280.872	4.68
281.245	4.84
281.617	4.64
281.99	4.69
282.362	4.5
282.735	4.41
283.107	4.48
283.479	4.6
283.852	4.61
284.224	4.79
284.596	4.58
284.968	4.55
285.34	4.72
285.713	4.75
286.085	4.63
286.457	4.52
286.829	4.48
287.201	4.41
287.572	4.37
287.944	4.42
288.316	4.5
288.688	4.51
289.06	4.39
289.431	4.65
289.803	4.86
290.175	4.97
290.546	5.11
290.918	5.14
291.289	5.15
291.661	5.35
292.032	5.22
292.403	5.26
292.775	5.26
293.146	5.34
293.517	5.37
293.889	5.49
294.26	5.51
294.631	5.73
295.002	5.85
295.373	5.88
295.744	6.04
296.115	5.99
296.486	5.96
296.857	6.08
297.228	6.02
297.599	5.88
297.97	5.92
298.34	5.99
298.711	6
299.082	6.22
299.452	6.07
299.823	5.96
300.194	6.15
300.564	6.09
300.935	5.97
301.305	6.05
301.676	6.16
302.046	6.32
302.416	6.27
302.787	6.4
303.157	6.57
303.527	6.65
303.897	6.73
304.267	6.91
304.637	7.07
305.008	7.18
305.378	7.42
305.748	7.45
306.117	7.45
306.487	7.49
306.857	7.41
307.227	7.64
307.597	8.04
307.967	8.12
308.336	8.38
308.706	8.59
309.076	8.71
309.445	8.82
309.815	8.95
310.184	9.06
310.554	9.01
310.923	9.05
311.293	9.12
311.662	9.3
312.031	9.43
312.401	9.35
312.77	9.36
313.139	9.46
313.508	9.5
313.877	9.57
314.246	9.69
314.616	9.89
314.985	9.88
315.353	9.9
315.722	9.99
316.091	10.13
316.46	10.17
316.829	10.24
317.198	10.41
317.567	10.45
317.935	10.46
318.304	10.62
318.672	10.66
319.041	10.73
319.41	10.67
319.778	10.78
320.147	11.08
320.515	11.32
320.883	11.39
321.252	11.71
321.62	11.97
321.988	12.14
322.357	12.16
322.725	12.27
323.093	12.32
323.461	12.36
323.829	12.36
324.197	12.39
324.565	12.5
324.933	12.41
325.301	12.5
325.669	12.66
326.037	12.78
326.405	12.92
326.772	12.98
327.14	13.09
327.508	13.14
327.875	13.08
328.243	13.05
328.61	13.05
328.978	13.03
329.346	13.1
329.713	13.26
330.08	13.43
330.448	13.52
330.815	13.58
331.182	13.68
331.55	13.62
331.917	13.73
332.284	13.75
332.651	13.88
333.018	13.99
333.385	13.99
333.752	14.01
334.119	14.17
334.486	14.16
334.853	14.13
335.22	14.09
335.587	14.16
335.954	14.23
336.32	14.28
336.687	14.25
337.054	14.28
337.42	14.23
337.787	14.18
338.153	14.28
338.52	14.34
338.886	14.37
339.253	14.49
339.619	14.46
339.986	14.49
340.352	14.55
340.718	14.42
341.084	14.45
341.451	14.46
341.817	14.39
342.183	14.39
342.549	14.56
342.915	14.54
343.281	14.58
343.647	14.63
344.013	14.72
344.379	14.77
344.745	14.76
345.11	14.74
345.476	14.83
345.842	14.74
346.208	14.8
346.573	14.85
346.939	14.88
347.304	14.98
347.67	15.02
348.035	14.94
348.401	15
348.766	15.03
349.132	15.13
349.497	15.12
349.862	15.05
350.228	15.07
350.593	15.15
350.958	15.09
351.323	15.05
351.688	15.01
352.053	15.02
352.418	14.97
352.783	14.99
353.148	14.96
353.513	15
353.878	14.91
354.243	14.86
354.608	14.88
354.972	14.72
355.337	14.69
355.702	14.65
356.066	14.65
356.431	14.6
356.795	14.53
357.16	14.52
357.524	14.51
357.889	14.48
358.253	14.39
358.618	14.3
358.982	14.16
359.346	14.09
359.71	13.98
360.075	13.91
360.439	13.88
360.803	13.8
361.167	13.67
361.531	13.62
361.895	13.56
362.259	13.44
362.623	13.44
362.987	13.29
363.351	13.19
363.714	13.09
364.078	13.01
364.442	12.87
364.806	12.79
365.169	12.74
365.533	12.61
365.896	12.56
366.26	12.54
366.623	12.55
366.987	12.47
367.35	12.46
367.714	12.37
368.077	12.29
368.44	12.21
368.803	12.19
369.167	12.01
369.53	11.96
369.893	11.87
370.256	11.77
370.619	11.68
370.982	11.6
371.345	11.48
371.708	11.42
372.071	11.33
372.434	11.19
372.797	11.18
373.159	11.06
373.522	10.94
373.885	10.87
374.247	10.76
374.61	10.63
374.973	10.55
375.335	10.48
375.698	10.3
376.06	10.15
376.423	10.03
376.785	10.03
377.147	9.92
377.51	9.91
377.872	9.82
378.234	9.8
378.596	9.79
378.958	9.7
379.321	9.58
379.683	9.55
380.045	9.44
380.407	9.24
380.769	9.12
381.13	8.98
381.492	8.87
381.854	8.73
382.216	8.61
382.578	8.49
382.939	8.4
383.301	8.35
383.663	8.3
384.024	8.26
384.386	8.14
384.747	8.02
385.109	7.91
385.47	7.86
385.832	7.74
386.193	7.62
386.554	7.5
386.916	7.45
387.277	7.31
387.638	7.26
387.999	7.21
388.36	7.2
388.721	7.21
389.082	7.17
389.443	7.16
389.804	7.14
390.165	7.05
390.526	6.98
390.887	6.89
391.248	6.8
391.609	6.72
391.969	6.67
392.33	6.6
392.691	6.55
393.051	6.45
393.412	6.44
393.772	6.41
394.133	6.38
394.493	6.27
394.854	6.24
395.214	6.2
395.574	6.15
395.935	6.06
396.295	5.97
396.655	5.89
397.015	5.82
397.376	5.77
397.736	5.72
398.096	5.63
398.456	5.6
398.816	5.58
399.176	5.49
399.535	5.42
399.895	5.4
400.255	5.33
400.615	5.3
400.975	5.22
401.334	5.17
401.694	5.16
402.054	5.12
402.413	5.06
402.773	5
403.132	4.97
403.492	4.94
403.851	4.88
404.211	4.86
404.57	4.82
404.929	4.76
405.288	4.74
405.648	4.74
406.007	4.69
406.366	4.63
406.725	4.64
407.084	4.65
407.443	4.64
407.802	4.61
408.161	4.61
408.52	4.6
408.879	4.59
409.238	4.56
409.596	4.59
409.955	4.59
410.314	4.58
410.673	4.57
411.031	4.56
411.39	4.56
411.748	4.49
412.107	4.46
412.465	4.42
412.824	4.4
413.182	4.37
413.54	4.38
413.899	4.36
414.257	4.33
414.615	4.26
414.974	4.22
415.332	4.2
415.69	4.14
416.048	4.12
416.406	4.07
416.764	4.04
417.122	3.99
417.48	3.97
417.838	3.93
418.195	3.88
418.553	3.85
418.911	3.81
419.269	3.82
419.626	3.82
419.984	3.82
420.342	3.82
420.699	3.8
421.057	3.77
421.414	3.77
421.772	3.75
422.129	3.74
422.486	3.72
422.844	3.7
423.201	3.71
423.558	3.69
423.915	3.68
424.273	3.66
424.63	3.63
424.987	3.62
425.344	3.62
425.701	3.62
426.058	3.62
426.415	3.62
426.772	3.59
427.128	3.58
427.485	3.56
427.842	3.53
428.199	3.52
428.555	3.5
428.912	3.48
429.269	3.48
429.625	3.46
429.982	3.48
430.338	3.48
430.695	3.43
431.051	3.44
431.407	3.41
431.764	3.43
432.12	3.44
432.476	3.43
432.832	3.44
433.189	3.43
433.545	3.41
433.901	3.4
434.257	3.41
434.613	3.4
434.969	3.39
435.325	3.4
435.681	3.38
436.036	3.39
436.392	3.38
436.748	3.37
437.104	3.37
437.459	3.35
437.815	3.36
438.171	3.38
438.526	3.36
438.882	3.38
439.237	3.37
439.593	3.38
439.948	3.39
440.304	3.37
440.659	3.36
441.014	3.37
441.369	3.38
441.725	3.37
442.08	3.37
442.435	3.38
442.79	3.37
443.145	3.37
443.5	3.37
443.855	3.36
444.21	3.36
444.565	3.35
444.92	3.34
445.275	3.33
445.629	3.31
445.984	3.31
446.339	3.31
446.693	3.3
447.048	3.28
447.403	3.26
447.757	3.24
448.112	3.23
448.466	3.22
448.82	3.21
449.175	3.21
449.529	3.2
449.883	3.17
450.238	3.16
450.592	3.15
450.946	3.14
451.3	3.14
451.654	3.13
452.008	3.11
452.362	3.09
452.716	3.08
453.07	3.07
453.424	3.07
453.778	3.03
454.132	3.01
454.486	3.02
454.839	3.04
455.193	3.06
455.547	3.07
455.9	3.07
456.254	3.08
456.607	3.08
456.961	3.08
457.314	3.08
457.668	3.07
458.021	3.08
458.375	3.08
458.728	3.08
459.081	3.09
459.434	3.12
459.787	3.14
460.141	3.14
460.494	3.15
460.847	3.14
461.2	3.17
461.553	3.21
461.906	3.22
462.259	3.21
462.611	3.2
462.964	3.21
463.317	3.19
463.67	3.19
464.022	3.19
464.375	3.2
464.728	3.2
465.08	3.23
465.433	3.23
465.785	3.24
466.138	3.25
466.49	3.26
466.843	3.26
467.195	3.26
467.547	3.26
467.899	3.29
468.252	3.3
468.604	3.29
468.956	3.27
469.308	3.27
469.66	3.3
470.012	3.32
470.364	3.34
470.716	3.37
471.068	3.38
471.42	3.39
471.772	3.4
472.123	3.44
472.475	3.45
472.827	3.46
473.178	3.47
473.53	3.48
473.882	3.48
474.233	3.49
474.585	3.51
474.936	3.52
475.288	3.51
475.639	3.52
475.99	3.53
476.342	3.55
476.693	3.54
477.044	3.53
477.395	3.51
477.746	3.5
478.097	3.5
478.448	3.49
478.8	3.47
479.15	3.46
479.501	3.43
479.852	3.43
480.203	3.43
480.554	3.44
480.905	3.44
481.255	3.43
481.606	3.43
481.957	3.42
482.307	3.41
482.658	3.42
483.009	3.41
483.359	3.4
483.709	3.4
484.06	3.4
484.41	3.39
484.761	3.4
485.111	3.4
485.461	3.4
485.811	3.4
486.162	3.41
486.512	3.41
486.862	3.41
487.212	3.41
487.562	3.4
487.912	3.39
488.262	3.39
488.612	3.37
488.961	3.37
489.311	3.37
489.661	3.37
490.011	3.36
490.36	3.36
490.71	3.37
491.06	3.37
491.409	3.37
491.759	3.37
492.108	3.37
492.458	3.36
492.807	3.36
493.157	3.36
493.506	3.36
493.855	3.35
494.204	3.36
494.554	3.37
494.903	3.4
495.252	3.41
495.601	3.44
495.95	3.47
496.299	3.49
496.648	3.53
496.997	3.58
497.346	3.62
497.695	3.65
498.043	3.68
498.392	3.73
498.741	3.76
499.09	3.8
499.438	3.83
499.787	3.89
500.135	3.93
500.484	3.99
500.832	4.04
501.181	4.11
501.529	4.18
501.878	4.24
502.226	4.31
502.574	4.37
502.923	4.42
503.271	4.48
503.619	4.55
503.967	4.61
504.315	4.65
504.663	4.71
505.011	4.76
505.359	4.83
505.707	4.91
506.055	4.99
506.403	5.07
506.751	5.14
507.098	5.22
507.446	5.31
507.794	5.4
508.141	5.5
508.489	5.6
508.837	5.67
509.184	5.76
509.531	5.84
509.879	5.93
510.226	6.04
510.574	6.15
510.921	6.24
511.268	6.33
511.616	6.43
511.963	6.57
512.31	6.69
512.657	6.82
513.004	6.93
513.351	7.05
513.698	7.19
514.045	7.34
514.392	7.49
514.739	7.66
515.086	7.81
515.432	7.99
515.779	8.12
516.126	8.28
516.473	8.43
516.819	8.56
517.166	8.71
517.512	8.85
517.859	8.99
518.205	9.11
518.552	9.28
518.898	9.44
519.245	9.55
519.591	9.7
519.937	9.86
520.283	10.03
520.629	10.19
520.976	10.33
521.322	10.5
521.668	10.67
522.014	10.84
522.36	11.02
522.706	11.17
523.052	11.38
523.398	11.58
523.743	11.8
524.089	12.01
524.435	12.2
524.781	12.4
525.126	12.59
525.472	12.77
525.817	12.92
526.163	13.05
526.509	13.19
526.854	13.33
527.199	13.43
527.545	13.54
527.89	13.67
528.235	13.8
528.581	13.93
528.926	14.06
529.271	14.17
529.616	14.28
529.961	14.41
530.306	14.54
530.651	14.65
530.996	14.77
531.341	14.93
531.686	15.06
532.031	15.18
532.376	15.34
532.721	15.49
533.065	15.63
533.41	15.8
533.755	15.98
534.099	16.11
534.444	16.27
534.788	16.42
535.133	16.6
535.477	16.76
535.822	16.91
536.166	17.08
536.51	17.28
536.855	17.48
537.199	17.68
537.543	17.89
537.887	18.12
538.231	18.36
538.576	18.58
538.92	18.81
539.264	19.05
539.608	19.23
539.951	19.4
540.295	19.59
540.639	19.75
540.983	19.89
541.327	20.09
541.671	20.28
542.014	20.44
542.358	20.59
542.701	20.76
543.045	20.93
543.389	21.1
543.732	21.26
544.075	21.44
544.419	21.63
544.762	21.8
545.105	22
545.449	22.19
545.792	22.39
546.135	22.63
546.478	22.84
546.821	23.07
547.165	23.35
547.508	23.59
547.851	23.86
548.194	24.15
548.536	24.4
548.879	24.65
549.222	24.96
549.565	25.3
549.908	25.56
550.25	25.84
550.593	26.13
550.936	26.4
551.278	26.71
551.621	26.95
551.963	27.25
552.306	27.54
552.648	27.84
552.991	28.14
553.333	28.42
553.675	28.7
554.017	29.01
554.36	29.26
554.702	29.54
555.044	29.82
555.386	30.07
555.728	30.34
556.07	30.62
556.412	30.88
556.754	31.13
557.096	31.42
557.438	31.76
557.78	32.07
558.121	32.43
558.463	32.72
558.805	33.1
559.147	33.44
559.488	33.69
559.83	33.94
560.171	34.23
560.513	34.49
560.854	34.8
561.196	35.09
561.537	35.41
561.878	35.77
562.22	36.09
562.561	36.38
562.902	36.64
563.243	36.98
563.584	37.2
563.925	37.44
564.266	37.73
564.607	38.01
564.948	38.27
565.289	38.5
565.63	38.72
565.971	38.94
566.312	39.19
566.653	39.51
566.993	39.81
567.334	40.06
567.675	40.31
568.015	40.55
568.356	40.84
568.696	41.08
569.037	41.3
569.377	41.51
569.718	41.83
570.058	42.11
570.398	42.32
570.739	42.65
571.079	42.94
571.419	43.16
571.759	43.41
572.099	43.64
572.439	43.86
572.779	44.15
573.119	44.41
573.459	44.62
573.799	44.81
574.139	45.04
574.479	45.25
574.819	45.5
575.158	45.66
575.498	45.87
575.838	46.08
576.177	46.31
576.517	46.6
576.856	46.82
577.196	47.1
577.535	47.29
577.875	47.52
578.214	47.72
578.553	48.02
578.893	48.21
579.232	48.44
579.571	48.77
579.91	49.02
580.25	49.27
580.589	49.49
580.928	49.81
581.267	49.95
581.606	50.2
581.945	50.46
582.283	50.75
582.622	50.93
582.961	51.16
583.3	51.32
583.639	51.45
583.977	51.62
584.316	51.77
584.654	52.03
584.993	52.17
585.332	52.36
585.67	52.55
586.008	52.79
586.347	52.92
586.685	53.04
587.024	53.2
587.362	53.34
587.7	53.54
588.038	53.62
588.376	53.88
588.715	54.02
589.053	54.12
589.391	54.29
589.729	54.43
590.067	54.58
590.404	54.69
590.742	54.88
591.08	55.03
591.418	55.19
591.756	55.32
592.093	55.52
592.431	55.61
592.769	55.69
593.106	55.84
593.444	56.04
593.781	56.11
594.119	56.23
594.456	56.36
594.793	56.44
595.131	56.58
595.468	56.66
595.805	56.75
596.143	56.9
596.48	57.01
596.817	57.11
597.154	57.23
597.491	57.41
597.828	57.47
598.165	57.58
598.502	57.65
598.839	57.77
599.176	57.85
599.512	58
599.849	58.21
600.186	58.33
600.523	58.43
600.859	58.64
601.196	58.8
601.532	58.97
601.869	59.17
602.205	59.21
602.542	59.35
602.878	59.45
603.215	59.55
603.551	59.62
603.887	59.75
604.223	59.75
604.56	59.81
604.896	59.99
605.232	60.05
605.568	60.23
605.904	60.27
606.24	60.37
606.576	60.44
606.912	60.5
607.248	60.55
607.583	60.65
607.919	60.75
608.255	60.77
608.591	60.75
608.926	60.78
609.262	60.9
609.597	60.89
609.933	60.96
610.268	61.03
610.604	61.01
610.939	61.09
611.275	61.22
611.61	61.24
611.945	61.2
612.281	61.31
612.616	61.32
612.951	61.5
613.286	61.48
613.621	61.57
613.956	61.57
614.291	61.62
614.626	61.57
614.961	61.53
615.296	61.67
615.631	61.81
615.966	61.85
616.3	61.88
616.635	62.07
616.97	62.14
617.304	62.23
617.639	62.33
617.973	62.26
618.308	62.35
618.642	62.46
618.977	62.5
619.311	62.54
619.646	62.49
619.98	62.47
620.314	62.58
620.648	62.66
620.983	62.77
621.317	62.84
621.651	63.04
621.985	63.11
622.319	63.09
622.653	63.1
622.987	63.16
623.321	63.22
623.655	63.21
623.988	63.25
624.322	63.28
624.656	63.36
624.99	63.42
625.323	63.46
625.657	63.53
625.99	63.57
626.324	63.58
626.657	63.71
626.991	63.81
627.324	63.87
627.658	63.89
627.991	63.89
628.324	63.83
628.657	63.76
628.991	63.84
629.324	63.83
629.657	63.9
629.99	63.92
630.323	63.91
630.656	63.87
630.989	63.96
631.322	64.02
631.655	64.06
631.987	64.15
632.32	64.1
632.653	64.12
632.986	64.2
633.318	64.21
633.651	64.14
633.984	64.11
634.316	64.12
634.649	64.17
634.981	64.17
635.313	64.26
635.646	64.38
635.978	64.31
636.31	64.43
636.643	64.35
636.975	64.37
637.307	64.45
637.639	64.62
637.971	64.56
638.303	64.53
638.635	64.51
638.967	64.55
639.299	64.56
639.631	64.64
639.963	64.69
640.295	64.68
640.626	64.72
640.958	64.75
641.29	64.77
641.621	64.73
641.953	64.79
642.285	64.88
642.616	64.76
642.948	64.87
643.279	64.87
643.61	65.05
643.942	65.07
644.273	65.05
644.604	64.94
644.936	65.02
645.267	65.05
645.598	65.02
645.929	64.98
646.26	64.99
646.591	65.01
646.922	64.92
647.253	65.08
647.584	65.25
647.915	65.2
648.245	65.27
648.576	65.31
648.907	65.33
649.238	65.3
649.568	65.37
649.899	65.29
650.229	65.4
650.56	65.31
650.89	65.35
651.221	65.34
651.551	65.35
651.882	65.28
652.212	65.26
652.542	65.2
652.872	65.3
653.203	65.36
653.533	65.35
653.863	65.51
654.193	65.43
654.523	65.31
654.853	65.4
655.183	65.35
655.513	65.45
655.843	65.47
656.172	65.54
656.502	65.64
656.832	65.66
657.162	65.52
657.491	65.56
657.821	65.44
658.15	65.55
658.48	65.55
658.809	65.73
659.139	65.75
659.468	65.87
659.798	65.82
660.127	65.82
660.456	65.82
660.785	65.78
661.115	65.78
661.444	65.74
661.773	65.72
662.102	65.71
662.431	65.6
662.76	65.53
663.089	65.51
663.418	65.48
663.747	65.47
664.076	65.48
664.404	65.6
664.733	65.64
665.062	65.72
665.39	65.82
