Data from BU57994_Reflection_00012.txt Node
Date: Mon Nov 18 16:53:22 EST 2019
User: vgr7
Spectrometer: USB2G7710
Scans to average: 3
Trigger mode: 4
Integration Time (sec): 2.000000E-2
Electric dark correction enabled: true
Boxcar width: 10
XAxis mode: Wavelengths
Number of Pixels in Spectrum: 2048
>>>>>Begin Spectral Data<<<<<
177.721	-66.97
178.105	-92.88
178.488	-44.88
178.871	-78.57
179.254	-115.26
179.636	23.62
180.019	-4.18
180.402	101.92
180.785	366.25
181.168	-821.88
181.55	28.12
181.933	93.36
182.316	97.86
182.698	88.71
183.081	66.73
183.463	48.18
183.846	30.13
184.228	44.01
184.611	39.92
184.993	234.23
185.376	-15.42
185.758	-156.06
186.14	39.58
186.522	45.59
186.904	79.2
187.287	16.75
187.669	46.12
188.051	41.59
188.433	83.09
188.815	44.12
189.197	0.96
189.579	-11.65
189.961	18.18
190.342	-4.91
190.724	1.95
191.106	-11.08
191.488	1.9
191.869	5.16
192.251	-0.03
192.633	-22.97
193.014	-37.72
193.396	-65.74
193.777	-50.64
194.159	-88.4
194.54	-77.3
194.922	-61.49
195.303	-68.94
195.684	-69.87
196.065	-12.21
196.447	-39.81
196.828	-16.85
197.209	11.46
197.59	-8.72
197.971	-30.71
198.352	14.89
198.733	9.77
199.114	10.84
199.495	9.96
199.876	7.29
200.257	8.91
200.638	21.21
201.018	35.15
201.399	41.59
201.78	36.22
202.16	32.74
202.541	19.94
202.922	20.37
203.302	-2.29
203.683	-19.91
204.063	-27.31
204.444	-22.09
204.824	-24.35
205.204	-20.6
205.585	-13.81
205.965	-15.39
206.345	-32.88
206.725	-36.72
207.106	-41.29
207.486	-55.98
207.866	-44.36
208.246	-26.25
208.626	-48.55
209.006	-27.76
209.386	-23.69
209.766	-20.45
210.145	2.6
210.525	15.75
210.905	14.43
211.285	30.38
211.664	39.72
212.044	32.53
212.424	34.37
212.803	25.74
213.183	31.43
213.562	43.39
213.942	39.6
214.321	39.03
214.701	32.42
215.08	43.09
215.459	26.8
215.838	31.02
216.218	19
216.597	22.1
216.976	17.41
217.355	19.68
217.734	29.19
218.113	40.45
218.492	36.07
218.871	35.95
219.25	34.23
219.629	34.19
220.008	44.57
220.387	47.41
220.766	54.11
221.144	47.42
221.523	55.07
221.902	66.31
222.28	72.97
222.659	79.75
223.037	73.81
223.416	70.5
223.794	58.97
224.173	57.7
224.551	55.13
224.929	50.56
225.308	41.9
225.686	31.5
226.064	23.27
226.442	23.94
226.821	23.04
227.199	17.71
227.577	14.56
227.955	9.93
228.333	13.16
228.711	15.6
229.089	20.11
229.467	16.33
229.845	13.71
230.222	13.62
230.6	12.63
230.978	11.8
231.356	11.6
231.733	10.56
232.111	9.89
232.488	10.31
232.866	11.02
233.243	11.58
233.621	14.82
233.998	16.22
234.376	14
234.753	13.74
235.13	15.56
235.508	14.62
235.885	14.36
236.262	11.69
236.639	10.2
237.016	9.28
237.393	9.02
237.77	9.85
238.147	9.91
238.524	9.06
238.901	8.49
239.278	8.52
239.655	8.49
240.032	8.41
240.409	6.93
240.785	6.81
241.162	6.59
241.539	5.83
241.915	5.34
242.292	5.17
242.668	4.84
243.045	4.87
243.421	4.8
243.798	4.51
244.174	4.88
244.551	4.74
244.927	4.72
245.303	4.72
245.679	4.55
246.056	4.18
246.432	4.15
246.808	4.11
247.184	3.84
247.56	3.79
247.936	3.77
248.312	3.97
248.688	3.94
249.064	3.79
249.44	3.71
249.815	3.69
250.191	3.95
250.567	4.16
250.943	3.96
251.318	4.1
251.694	4.29
252.069	4.03
252.445	4.28
252.82	4.11
253.196	4.18
253.571	4.13
253.947	4.28
254.322	4.23
254.697	4.14
255.073	4.15
255.448	4.08
255.823	4.29
256.198	4.39
256.573	4.21
256.948	4.22
257.323	4.44
257.698	4.37
258.073	4.2
258.448	3.95
258.823	4
259.198	4.01
259.573	3.87
259.948	3.8
260.322	3.71
260.697	3.67
261.072	3.68
261.446	3.73
261.821	3.78
262.195	3.98
262.57	3.99
262.944	3.99
263.319	3.82
263.693	3.75
264.067	3.73
264.442	3.8
264.816	3.78
265.19	3.64
265.564	3.67
265.938	3.68
266.313	3.76
266.687	3.87
267.061	3.91
267.435	3.94
267.809	4.04
268.183	4.04
268.556	4.04
268.93	4
269.304	3.81
269.678	3.75
270.051	3.59
270.425	3.5
270.799	3.56
271.172	3.78
271.546	3.64
271.919	3.47
272.293	3.52
272.666	3.64
273.04	3.66
273.413	3.6
273.787	3.74
274.16	3.8
274.533	3.7
274.906	3.71
275.279	3.74
275.653	3.71
276.026	3.54
276.399	3.59
276.772	3.61
277.145	3.6
277.518	3.7
277.891	3.73
278.263	3.65
278.636	3.47
279.009	3.47
279.382	3.65
279.755	3.81
280.127	3.81
280.5	3.59
280.872	3.53
281.245	3.46
281.617	3.53
281.99	3.59
282.362	3.6
282.735	3.49
283.107	3.46
283.479	3.57
283.852	3.78
284.224	3.66
284.596	3.62
284.968	3.74
285.34	3.7
285.713	3.88
286.085	3.94
286.457	4.07
286.829	4.03
287.201	3.95
287.572	3.87
287.944	3.82
288.316	3.97
288.688	4.01
289.06	4.04
289.431	3.98
289.803	3.95
290.175	3.98
290.546	4.07
290.918	4.23
291.289	4.08
291.661	4.03
292.032	4.11
292.403	4.26
292.775	4.16
293.146	4.12
293.517	3.92
293.889	3.98
294.26	4.1
294.631	4.14
295.002	4.2
295.373	4.28
295.744	4.27
296.115	4.28
296.486	4.21
296.857	4.31
297.228	4.4
297.599	4.4
297.97	4.47
298.34	4.45
298.711	4.39
299.082	4.5
299.452	4.58
299.823	4.74
300.194	4.64
300.564	4.71
300.935	4.78
301.305	4.88
301.676	5.04
302.046	4.98
302.416	5.11
302.787	5.32
303.157	5.39
303.527	5.54
303.897	5.49
304.267	5.72
304.637	5.65
305.008	5.53
305.378	5.73
305.748	5.77
306.117	5.71
306.487	5.77
306.857	5.79
307.227	5.86
307.597	5.84
307.967	5.97
308.336	6.12
308.706	6.18
309.076	6.13
309.445	6.05
309.815	6.11
310.184	6.13
310.554	6.12
310.923	6.11
311.293	6.11
311.662	6.3
312.031	6.23
312.401	6.39
312.77	6.55
313.139	6.48
313.508	6.56
313.877	6.72
314.246	6.77
314.616	6.83
314.985	6.84
315.353	6.78
315.722	6.87
316.091	6.86
316.46	6.86
316.829	7.11
317.198	7.26
317.567	7.47
317.935	7.63
318.304	7.67
318.672	7.74
319.041	7.99
319.41	7.95
319.778	8.09
320.147	8.12
320.515	8.08
320.883	8.17
321.252	8.27
321.62	8.44
321.988	8.59
322.357	8.63
322.725	8.58
323.093	8.8
323.461	8.84
323.829	8.84
324.197	8.96
324.565	8.91
324.933	8.84
325.301	8.83
325.669	8.89
326.037	8.92
326.405	8.99
326.772	8.92
327.14	9.1
327.508	9.2
327.875	9.16
328.243	9.27
328.61	9.31
328.978	9.35
329.346	9.43
329.713	9.34
330.08	9.5
330.448	9.6
330.815	9.58
331.182	9.68
331.55	9.79
331.917	9.86
332.284	10.03
332.651	10.22
333.018	10.29
333.385	10.28
333.752	10.4
334.119	10.48
334.486	10.51
334.853	10.54
335.22	10.52
335.587	10.73
335.954	10.77
336.32	10.77
336.687	10.76
337.054	10.73
337.42	10.94
337.787	10.88
338.153	11.05
338.52	11.03
338.886	11.05
339.253	11.1
339.619	11.12
339.986	11.1
340.352	11.13
340.718	11.08
341.084	11.02
341.451	10.98
341.817	11.07
342.183	11.13
342.549	11.08
342.915	11.17
343.281	11.12
343.647	11.09
344.013	11.17
344.379	11.15
344.745	11.28
345.11	11.24
345.476	11.34
345.842	11.34
346.208	11.5
346.573	11.49
346.939	11.57
347.304	11.62
347.67	11.62
348.035	11.71
348.401	11.79
348.766	11.91
349.132	11.88
349.497	11.86
349.862	11.91
350.228	12.02
350.593	11.89
350.958	11.95
351.323	12.04
351.688	12.08
352.053	12.15
352.418	12.19
352.783	12.21
353.148	12.21
353.513	12.19
353.878	12.18
354.243	12.3
354.608	12.28
354.972	12.19
355.337	12.16
355.702	12.11
356.066	12.1
356.431	12.04
356.795	12.07
357.16	12.06
357.524	12.06
357.889	11.95
358.253	11.97
358.618	12.01
358.982	11.89
359.346	11.82
359.71	11.74
360.075	11.62
360.439	11.63
360.803	11.57
361.167	11.54
361.531	11.42
361.895	11.34
362.259	11.25
362.623	11.29
362.987	11.23
363.351	11.19
363.714	11.18
364.078	11.18
364.442	11.11
364.806	11.07
365.169	10.96
365.533	10.92
365.896	10.88
366.26	10.77
366.623	10.77
366.987	10.77
367.35	10.8
367.714	10.73
368.077	10.59
368.44	10.5
368.803	10.45
369.167	10.42
369.53	10.32
369.893	10.32
370.256	10.26
370.619	10.28
370.982	10.12
371.345	9.95
371.708	9.89
372.071	9.78
372.434	9.68
372.797	9.62
373.159	9.57
373.522	9.5
373.885	9.39
374.247	9.34
374.61	9.28
374.973	9.16
375.335	9.08
375.698	9.07
376.06	9.04
376.423	8.95
376.785	8.84
377.147	8.78
377.51	8.69
377.872	8.59
378.234	8.47
378.596	8.43
378.958	8.44
379.321	8.29
379.683	8.28
380.045	8.18
380.407	8.09
380.769	7.99
381.13	7.94
381.492	7.94
381.854	7.87
382.216	7.74
382.578	7.72
382.939	7.61
383.301	7.52
383.663	7.38
384.024	7.38
384.386	7.37
384.747	7.35
385.109	7.28
385.47	7.21
385.832	7.14
386.193	7.12
386.554	7.03
386.916	7.02
387.277	6.99
387.638	6.97
387.999	6.95
388.36	6.89
388.721	6.83
389.082	6.77
389.443	6.71
389.804	6.71
390.165	6.63
390.526	6.62
390.887	6.58
391.248	6.63
391.609	6.57
391.969	6.51
392.33	6.44
392.691	6.44
393.051	6.38
393.412	6.37
393.772	6.31
394.133	6.32
394.493	6.28
394.854	6.19
395.214	6.13
395.574	6.1
395.935	6.09
396.295	6.09
396.655	6.01
397.015	5.94
397.376	5.88
397.736	5.82
398.096	5.79
398.456	5.75
398.816	5.65
399.176	5.57
399.535	5.5
399.895	5.45
400.255	5.37
400.615	5.37
400.975	5.34
401.334	5.29
401.694	5.25
402.054	5.17
402.413	5.13
402.773	5.1
403.132	5.06
403.492	5.05
403.851	5
404.211	5
404.57	4.98
404.929	4.95
405.288	4.96
405.648	4.91
406.007	4.87
406.366	4.86
406.725	4.89
407.084	4.91
407.443	4.89
407.802	4.9
408.161	4.85
408.52	4.79
408.879	4.78
409.238	4.76
409.596	4.76
409.955	4.78
410.314	4.77
410.673	4.75
411.031	4.71
411.39	4.68
411.748	4.68
412.107	4.66
412.465	4.63
412.824	4.62
413.182	4.59
413.54	4.62
413.899	4.59
414.257	4.53
414.615	4.5
414.974	4.5
415.332	4.46
415.69	4.43
416.048	4.42
416.406	4.4
416.764	4.36
417.122	4.38
417.48	4.36
417.838	4.32
418.195	4.28
418.553	4.28
418.911	4.26
419.269	4.23
419.626	4.23
419.984	4.23
420.342	4.19
420.699	4.18
421.057	4.15
421.414	4.14
421.772	4.12
422.129	4.13
422.486	4.11
422.844	4.09
423.201	4.09
423.558	4.09
423.915	4.08
424.273	4.08
424.63	4.04
424.987	4.03
425.344	4.03
425.701	4.02
426.058	4
426.415	3.99
426.772	3.98
427.128	3.96
427.485	3.93
427.842	3.93
428.199	3.94
428.555	3.92
428.912	3.93
429.269	3.93
429.625	3.9
429.982	3.89
430.338	3.9
430.695	3.89
431.051	3.86
431.407	3.86
431.764	3.84
432.12	3.83
432.476	3.82
432.832	3.8
433.189	3.81
433.545	3.8
433.901	3.81
434.257	3.81
434.613	3.82
434.969	3.81
435.325	3.81
435.681	3.81
436.036	3.81
436.392	3.8
436.748	3.79
437.104	3.77
437.459	3.78
437.815	3.77
438.171	3.76
438.526	3.77
438.882	3.75
439.237	3.76
439.593	3.78
439.948	3.77
440.304	3.79
440.659	3.78
441.014	3.79
441.369	3.77
441.725	3.74
442.08	3.74
442.435	3.75
442.79	3.75
443.145	3.73
443.5	3.72
443.855	3.71
444.21	3.71
444.565	3.73
444.92	3.71
445.275	3.71
445.629	3.71
445.984	3.71
446.339	3.72
446.693	3.71
447.048	3.7
447.403	3.7
447.757	3.69
448.112	3.68
448.466	3.66
448.82	3.66
449.175	3.67
449.529	3.64
449.883	3.63
450.238	3.63
450.592	3.63
450.946	3.63
451.3	3.61
451.654	3.6
452.008	3.58
452.362	3.54
452.716	3.57
453.07	3.56
453.424	3.56
453.778	3.54
454.132	3.54
454.486	3.52
454.839	3.5
455.193	3.5
455.547	3.49
455.9	3.51
456.254	3.51
456.607	3.51
456.961	3.53
457.314	3.53
457.668	3.51
458.021	3.5
458.375	3.5
458.728	3.5
459.081	3.51
459.434	3.5
459.787	3.53
460.141	3.51
460.494	3.51
460.847	3.5
461.2	3.49
461.553	3.49
461.906	3.51
462.259	3.53
462.611	3.55
462.964	3.56
463.317	3.57
463.67	3.6
464.022	3.61
464.375	3.6
464.728	3.6
465.08	3.64
465.433	3.66
465.785	3.67
466.138	3.69
466.49	3.7
466.843	3.72
467.195	3.74
467.547	3.75
467.899	3.76
468.252	3.78
468.604	3.82
468.956	3.82
469.308	3.83
469.66	3.82
470.012	3.82
470.364	3.85
470.716	3.85
471.068	3.86
471.42	3.86
471.772	3.89
472.123	3.9
472.475	3.89
472.827	3.9
473.178	3.94
473.53	3.94
473.882	3.95
474.233	3.98
474.585	3.97
474.936	3.98
475.288	3.99
475.639	3.99
475.99	4.01
476.342	4.01
476.693	4.01
477.044	4.03
477.395	4.03
477.746	4
478.097	3.98
478.448	3.97
478.8	3.96
479.15	3.93
479.501	3.92
479.852	3.92
480.203	3.92
480.554	3.9
480.905	3.9
481.255	3.89
481.606	3.88
481.957	3.87
482.307	3.87
482.658	3.87
483.009	3.87
483.359	3.85
483.709	3.85
484.06	3.85
484.41	3.86
484.761	3.85
485.111	3.85
485.461	3.86
485.811	3.85
486.162	3.85
486.512	3.86
486.862	3.87
487.212	3.86
487.562	3.86
487.912	3.86
488.262	3.87
488.612	3.87
488.961	3.88
489.311	3.88
489.661	3.89
490.011	3.89
490.36	3.88
490.71	3.9
491.06	3.9
491.409	3.9
491.759	3.91
492.108	3.92
492.458	3.93
492.807	3.93
493.157	3.96
493.506	3.97
493.855	3.97
494.204	3.99
494.554	4.01
494.903	4.01
495.252	4.03
495.601	4.06
495.95	4.08
496.299	4.11
496.648	4.14
496.997	4.16
497.346	4.21
497.695	4.25
498.043	4.28
498.392	4.33
498.741	4.39
499.09	4.4
499.438	4.44
499.787	4.49
500.135	4.54
500.484	4.57
500.832	4.65
501.181	4.71
501.529	4.78
501.878	4.85
502.226	4.91
502.574	4.99
502.923	5.05
503.271	5.15
503.619	5.21
503.967	5.29
504.315	5.36
504.663	5.44
505.011	5.56
505.359	5.65
505.707	5.76
506.055	5.84
506.403	5.98
506.751	6.09
507.098	6.22
507.446	6.34
507.794	6.45
508.141	6.58
508.489	6.72
508.837	6.84
509.184	7.02
509.531	7.17
509.879	7.32
510.226	7.48
510.574	7.62
510.921	7.77
511.268	7.92
511.616	8.08
511.963	8.24
512.31	8.39
512.657	8.56
513.004	8.74
513.351	8.95
513.698	9.15
514.045	9.35
514.392	9.55
514.739	9.77
515.086	10
515.432	10.19
515.779	10.37
516.126	10.58
516.473	10.77
516.819	10.98
517.166	11.16
517.512	11.37
517.859	11.56
518.205	11.77
518.552	11.96
518.898	12.16
519.245	12.37
519.591	12.57
519.937	12.78
520.283	12.98
520.629	13.19
520.976	13.38
521.322	13.61
521.668	13.87
522.014	14.09
522.36	14.35
522.706	14.66
523.052	14.98
523.398	15.28
523.743	15.57
524.089	15.85
524.435	16.16
524.781	16.44
525.126	16.67
525.472	16.9
525.817	17.12
526.163	17.3
526.509	17.46
526.854	17.66
527.199	17.84
527.545	18.01
527.89	18.18
528.235	18.37
528.581	18.54
528.926	18.71
529.271	18.88
529.616	19.05
529.961	19.22
530.306	19.38
530.651	19.55
530.996	19.73
531.341	19.93
531.686	20.13
532.031	20.29
532.376	20.52
532.721	20.74
533.065	20.96
533.41	21.2
533.755	21.46
534.099	21.67
534.444	21.91
534.788	22.15
535.133	22.37
535.477	22.59
535.822	22.82
536.166	23.06
536.51	23.33
536.855	23.61
537.199	23.86
537.543	24.15
537.887	24.47
538.231	24.78
538.576	25.08
538.92	25.38
539.264	25.65
539.608	25.91
539.951	26.17
540.295	26.4
540.639	26.64
540.983	26.83
541.327	27.07
541.671	27.29
542.014	27.51
542.358	27.71
542.701	27.93
543.045	28.14
543.389	28.35
543.732	28.57
544.075	28.81
544.419	29.06
544.762	29.27
545.105	29.51
545.449	29.78
545.792	30.07
546.135	30.36
546.478	30.65
546.821	30.98
547.165	31.28
547.508	31.6
547.851	31.89
548.194	32.24
548.536	32.52
548.879	32.84
549.222	33.13
549.565	33.47
549.908	33.79
550.25	34.15
550.593	34.49
550.936	34.76
551.278	34.98
551.621	35.31
551.963	35.65
552.306	35.91
552.648	36.14
552.991	36.4
553.333	36.65
553.675	36.91
554.017	37.15
554.36	37.38
554.702	37.63
555.044	37.89
555.386	38.1
555.728	38.38
556.07	38.64
556.412	38.91
556.754	39.16
557.096	39.44
557.438	39.64
557.78	39.92
558.121	40.21
558.463	40.53
558.805	40.8
559.147	41.04
559.488	41.33
559.83	41.62
560.171	41.79
560.513	42.02
560.854	42.24
561.196	42.43
561.537	42.71
561.878	42.94
562.22	43.22
562.561	43.46
562.902	43.69
563.243	43.86
563.584	44.06
563.925	44.26
564.266	44.42
564.607	44.63
564.948	44.8
565.289	45.05
565.63	45.23
565.971	45.39
566.312	45.56
566.653	45.74
566.993	45.92
567.334	46.12
567.675	46.28
568.015	46.49
568.356	46.64
568.696	46.76
569.037	46.93
569.377	47.09
569.718	47.26
570.058	47.37
570.398	47.59
570.739	47.79
571.079	47.96
571.419	48.13
571.759	48.3
572.099	48.47
572.439	48.6
572.779	48.74
573.119	48.91
573.459	49.07
573.799	49.21
574.139	49.33
574.479	49.46
574.819	49.52
575.158	49.66
575.498	49.8
575.838	49.98
576.177	50.12
576.517	50.3
576.856	50.45
577.196	50.66
577.535	50.73
577.875	50.84
578.214	50.95
578.553	51.07
578.893	51.16
579.232	51.22
579.571	51.33
579.91	51.49
580.25	51.57
580.589	51.64
580.928	51.81
581.267	51.94
581.606	52.14
581.945	52.41
582.283	52.56
582.622	52.62
582.961	52.68
583.3	52.77
583.639	52.89
583.977	52.91
584.316	52.99
584.654	53.08
584.993	53.16
585.332	53.26
585.67	53.36
586.008	53.57
586.347	53.74
586.685	53.8
587.024	53.93
587.362	53.99
587.7	54.15
588.038	54.2
588.376	54.28
588.715	54.31
589.053	54.38
589.391	54.44
589.729	54.54
590.067	54.69
590.404	54.76
590.742	54.77
591.08	54.9
591.418	54.95
591.756	55.05
592.093	55.1
592.431	55.19
592.769	55.29
593.106	55.31
593.444	55.41
593.781	55.47
594.119	55.53
594.456	55.66
594.793	55.76
595.131	55.77
595.468	55.81
595.805	55.85
596.143	55.91
596.48	55.94
596.817	56.02
597.154	56.09
597.491	56.1
597.828	56.16
598.165	56.21
598.502	56.24
598.839	56.34
599.176	56.42
599.512	56.42
599.849	56.5
600.186	56.56
600.523	56.54
600.859	56.62
601.196	56.7
601.532	56.68
601.869	56.63
602.205	56.7
602.542	56.78
602.878	56.86
603.215	56.9
603.551	56.94
603.887	57.01
604.223	56.97
604.56	57.08
604.896	57.14
605.232	57.13
605.568	57.2
605.904	57.27
606.24	57.3
606.576	57.41
606.912	57.5
607.248	57.63
607.583	57.63
607.919	57.68
608.255	57.65
608.591	57.68
608.926	57.79
609.262	57.88
609.597	57.86
609.933	57.89
610.268	57.91
610.604	57.97
610.939	58
611.275	58.07
611.61	58.02
611.945	58.02
612.281	58.15
612.616	58.16
612.951	58.09
613.286	58.18
613.621	58.19
613.956	58.08
614.291	58
614.626	58.18
614.961	58.18
615.296	58.17
615.631	58.26
615.966	58.2
616.3	58.15
616.635	58.25
616.97	58.25
617.304	58.22
617.639	58.13
617.973	58.08
618.308	58.08
618.642	58.26
618.977	58.26
619.311	58.29
619.646	58.34
619.98	58.4
620.314	58.37
620.648	58.39
620.983	58.47
621.317	58.52
621.651	58.52
621.985	58.58
622.319	58.6
622.653	58.63
622.987	58.8
623.321	58.93
623.655	58.84
623.988	58.93
624.322	58.98
624.656	59.22
624.99	59.27
625.323	59.4
625.657	59.32
625.99	59.43
626.324	59.33
626.657	59.34
626.991	59.32
627.324	59.35
627.658	59.35
627.991	59.35
628.324	59.44
628.657	59.43
628.991	59.39
629.324	59.41
629.657	59.33
629.99	59.27
630.323	59.22
630.656	59.33
630.989	59.31
631.322	59.34
631.655	59.15
631.987	59.15
632.32	59.03
632.653	59.07
632.986	59.07
633.318	59.13
633.651	59.14
633.984	59.17
634.316	59.2
634.649	59.27
634.981	59.25
635.313	59.21
635.646	59.31
635.978	59.49
636.31	59.6
636.643	59.71
636.975	59.8
637.307	59.86
637.639	59.79
637.971	59.77
638.303	59.72
638.635	59.86
638.967	59.93
639.299	60.04
639.631	60.05
639.963	59.99
640.295	60.07
640.626	60.19
640.958	60.26
641.29	60.34
641.621	60.29
641.953	60.38
642.285	60.37
642.616	60.31
642.948	60.19
643.279	60.19
643.61	60.19
643.942	60.08
644.273	60.15
644.604	60.19
644.936	60.24
645.267	60.37
645.598	60.4
645.929	60.43
646.26	60.48
646.591	60.41
646.922	60.51
647.253	60.44
647.584	60.36
647.915	60.27
648.245	60.22
648.576	60.23
648.907	60.17
649.238	60.1
649.568	60.12
649.899	60.18
650.229	60.19
650.56	60.23
650.89	60.29
651.221	60.23
651.551	60.3
651.882	60.32
652.212	60.31
652.542	60.32
652.872	60.41
653.203	60.38
653.533	60.51
653.863	60.48
654.193	60.56
654.523	60.7
654.853	60.8
655.183	60.83
655.513	60.8
655.843	60.76
656.172	60.91
656.502	60.87
656.832	60.86
657.162	60.81
657.491	60.79
657.821	60.84
658.15	60.86
658.48	60.8
658.809	60.82
659.139	60.85
659.468	60.85
659.798	60.82
660.127	60.73
660.456	60.76
660.785	60.84
661.115	60.92
661.444	60.79
661.773	60.71
662.102	60.72
662.431	60.85
662.76	60.95
663.089	60.82
663.418	60.74
663.747	60.64
664.076	60.62
664.404	60.76
664.733	60.68
665.062	60.77
665.39	60.83
665.719	60.78
666.048	60.8
