Data from BU57648_Reflection_00004.txt Node
Date: Tue Nov 19 10:46:34 EST 2019
User: vgr7
Spectrometer: USB2G7710
Scans to average: 3
Trigger mode: 4
Integration Time (sec): 2.000000E-2
Electric dark correction enabled: true
Boxcar width: 10
XAxis mode: Wavelengths
Number of Pixels in Spectrum: 2048
>>>>>Begin Spectral Data<<<<<
177.721	-68.68
178.105	-45.06
178.488	-70.14
178.871	-9.03
179.254	14.44
179.636	3.44
180.019	88.25
180.402	-42.86
180.785	-26.11
181.168	-71.3
181.55	-218.63
181.933	-50.3
182.316	2.78
182.698	33.62
183.081	16.67
183.463	2.92
183.846	-6.15
184.228	-176.04
184.611	8.51
184.993	-10.95
185.376	1.8
185.758	18.61
186.14	24.21
186.522	9.45
186.904	18.15
187.287	33.39
187.669	22.12
188.051	13.99
188.433	4.6
188.815	6.54
189.197	7.91
189.579	15.66
189.961	22.71
190.342	17.15
190.724	-26.69
191.106	-13.04
191.488	-23.08
191.869	-23.08
192.251	-7.59
192.633	-15.68
193.014	-9.71
193.396	-8.6
193.777	-7.77
194.159	4.45
194.54	7.44
194.922	4.29
195.303	-10.51
195.684	1.52
196.065	23.27
196.447	24.1
196.828	29.46
197.209	43.07
197.59	42.69
197.971	28.36
198.352	45.36
198.733	53.89
199.114	49.76
199.495	60.01
199.876	68.29
200.257	78.44
200.638	59.02
201.018	57.02
201.399	56.44
201.78	55.13
202.16	28.61
202.541	19.06
202.922	23.21
203.302	36.31
203.683	66.98
204.063	61.3
204.444	48.16
204.824	50.27
205.204	31.45
205.585	51.85
205.965	58.17
206.345	38.07
206.725	28.35
207.106	23.66
207.486	12.15
207.866	7.66
208.246	8.73
208.626	-1.75
209.006	1.92
209.386	0.57
209.766	-3.22
210.145	13.92
210.525	20.83
210.905	17.81
211.285	11.55
211.664	-16.39
212.044	-12.27
212.424	-19.79
212.803	-20.25
213.183	-25.67
213.562	-28.97
213.942	-31.08
214.321	-32.91
214.701	-31.73
215.08	-22.35
215.459	-8.38
215.838	-15.84
216.218	-26.45
216.597	9.7
216.976	-9.47
217.355	-15.25
217.734	-10.37
218.113	-4.04
218.492	8.23
218.871	13.89
219.25	22.5
219.629	20.32
220.008	5.51
220.387	12.02
220.766	26.05
221.144	21.84
221.523	10.01
221.902	19.53
222.28	22.77
222.659	17.25
223.037	7.21
223.416	-6.44
223.794	11.6
224.173	5.51
224.551	1.13
224.929	6.67
225.308	11.82
225.686	3.15
226.064	8.21
226.442	3.33
226.821	2.45
227.199	0.74
227.577	0.28
227.955	6.68
228.333	7.43
228.711	5.76
229.089	5.96
229.467	4.65
229.845	3.58
230.222	5.56
230.6	4.38
230.978	7.37
231.356	8.02
231.733	5.3
232.111	7.61
232.488	6.67
232.866	9.34
233.243	9.49
233.621	10.08
233.998	9.57
234.376	12.99
234.753	14.45
235.13	14.63
235.508	14.45
235.885	13.05
236.262	13.52
236.639	13.8
237.016	12.6
237.393	14.69
237.77	15.68
238.147	13.6
238.524	14.29
238.901	12.82
239.278	12.09
239.655	11.04
240.032	9.61
240.409	8.59
240.785	7.33
241.162	6.92
241.539	6.86
241.915	6.58
242.292	6.31
242.668	5.91
243.045	5.8
243.421	5.77
243.798	5.78
244.174	5.47
244.551	5.48
244.927	5.38
245.303	4.9
245.679	4.78
246.056	4.84
246.432	4.73
246.808	4.84
247.184	4.89
247.56	4.65
247.936	4.96
248.312	5.36
248.688	5.56
249.064	5.46
249.44	5.47
249.815	5.22
250.191	4.98
250.567	4.99
250.943	5.04
251.318	5.09
251.694	4.99
252.069	4.95
252.445	4.8
252.82	5.07
253.196	4.87
253.571	4.96
253.947	4.92
254.322	4.6
254.697	4.59
255.073	4.52
255.448	5.01
255.823	5.2
256.198	4.67
256.573	4.48
256.948	4.65
257.323	4.68
257.698	4.94
258.073	4.9
258.448	4.76
258.823	4.49
259.198	4.5
259.573	4.5
259.948	4.6
260.322	4.47
260.697	4.58
261.072	4.67
261.446	4.57
261.821	4.55
262.195	4.62
262.57	4.7
262.944	4.86
263.319	4.91
263.693	4.65
264.067	4.68
264.442	4.74
264.816	4.61
265.19	4.56
265.564	4.42
265.938	4.3
266.313	4.11
266.687	4.32
267.061	4.36
267.435	4.48
267.809	4.26
268.183	4.29
268.556	4.21
268.93	4.22
269.304	4.13
269.678	4.21
270.051	4.27
270.425	4.21
270.799	4.06
271.172	3.81
271.546	4
271.919	4.08
272.293	4.12
272.666	4.14
273.04	4.23
273.413	4.21
273.787	4.12
274.16	4.17
274.533	4.2
274.906	4.21
275.279	3.96
275.653	3.96
276.026	3.97
276.399	3.92
276.772	3.91
277.145	3.87
277.518	3.8
277.891	3.59
278.263	3.59
278.636	3.68
279.009	3.72
279.382	3.62
279.755	3.47
280.127	3.33
280.5	3.2
280.872	3.07
281.245	3.1
281.617	3.35
281.99	3.53
282.362	3.44
282.735	3.42
283.107	3.49
283.479	3.7
283.852	3.84
284.224	3.85
284.596	3.88
284.968	3.94
285.34	4.01
285.713	4.14
286.085	4.04
286.457	4.05
286.829	4.17
287.201	4.22
287.572	4.32
287.944	4.32
288.316	4.5
288.688	4.55
289.06	4.6
289.431	4.64
289.803	4.62
290.175	4.59
290.546	4.5
290.918	4.7
291.289	4.59
291.661	4.58
292.032	4.59
292.403	4.66
292.775	4.64
293.146	4.5
293.517	4.46
293.889	4.45
294.26	4.48
294.631	4.51
295.002	4.34
295.373	4.43
295.744	4.36
296.115	4.4
296.486	4.38
296.857	4.29
297.228	4.19
297.599	4.16
297.97	4.2
298.34	4.26
298.711	4.25
299.082	4.28
299.452	4.09
299.823	3.94
300.194	3.98
300.564	3.93
300.935	3.95
301.305	3.96
301.676	3.97
302.046	3.86
302.416	3.75
302.787	3.83
303.157	3.72
303.527	3.86
303.897	3.82
304.267	3.75
304.637	3.73
305.008	3.77
305.378	3.83
305.748	3.79
306.117	3.74
306.487	3.58
306.857	3.5
307.227	3.74
307.597	3.84
307.967	3.7
308.336	3.69
308.706	3.73
309.076	3.75
309.445	3.81
309.815	3.87
310.184	3.71
310.554	3.64
310.923	3.66
311.293	3.67
311.662	3.51
312.031	3.56
312.401	3.57
312.77	3.43
313.139	3.42
313.508	3.43
313.877	3.52
314.246	3.56
314.616	3.63
314.985	3.47
315.353	3.41
315.722	3.57
316.091	3.65
316.46	3.58
316.829	3.56
317.198	3.58
317.567	3.63
317.935	3.79
318.304	3.94
318.672	4.08
319.041	4.05
319.41	4.15
319.778	4.07
320.147	4.09
320.515	4.22
320.883	4.05
321.252	4.15
321.62	4.08
321.988	3.99
322.357	3.93
322.725	3.83
323.093	3.87
323.461	3.67
323.829	3.75
324.197	3.87
324.565	3.92
324.933	3.9
325.301	3.72
325.669	3.6
326.037	3.7
326.405	3.6
326.772	3.57
327.14	3.51
327.508	3.55
327.875	3.61
328.243	3.66
328.61	3.79
328.978	3.66
329.346	3.65
329.713	3.67
330.08	3.76
330.448	4.01
330.815	3.99
331.182	4.01
331.55	3.89
331.917	3.82
332.284	3.85
332.651	3.84
333.018	3.97
333.385	4.16
333.752	3.98
334.119	3.95
334.486	4.02
334.853	4
335.22	3.89
335.587	3.83
335.954	3.78
336.32	3.77
336.687	3.83
337.054	3.68
337.42	3.67
337.787	3.57
338.153	3.6
338.52	3.65
338.886	3.75
339.253	3.72
339.619	3.75
339.986	3.76
340.352	3.72
340.718	3.68
341.084	3.58
341.451	3.58
341.817	3.52
342.183	3.5
342.549	3.61
342.915	3.76
343.281	3.83
343.647	3.8
344.013	3.82
344.379	3.69
344.745	3.76
345.11	3.67
345.476	3.76
345.842	3.67
346.208	3.81
346.573	3.71
346.939	3.77
347.304	3.78
347.67	3.78
348.035	3.86
348.401	3.86
348.766	3.89
349.132	3.85
349.497	3.91
349.862	3.84
350.228	3.77
350.593	3.59
350.958	3.56
351.323	3.55
351.688	3.52
352.053	3.63
352.418	3.74
352.783	3.86
353.148	3.84
353.513	3.77
353.878	3.74
354.243	3.65
354.608	3.7
354.972	3.7
355.337	3.71
355.702	3.66
356.066	3.64
356.431	3.52
356.795	3.65
357.16	3.65
357.524	3.7
357.889	3.69
358.253	3.74
358.618	3.75
358.982	3.81
359.346	3.8
359.71	3.84
360.075	3.83
360.439	3.85
360.803	3.83
361.167	3.81
361.531	3.71
361.895	3.78
362.259	3.77
362.623	3.74
362.987	3.75
363.351	3.71
363.714	3.78
364.078	3.88
364.442	3.74
364.806	3.77
365.169	3.76
365.533	3.85
365.896	3.88
366.26	3.8
366.623	3.8
366.987	3.79
367.35	3.79
367.714	3.75
368.077	3.73
368.44	3.74
368.803	3.76
369.167	3.7
369.53	3.72
369.893	3.71
370.256	3.67
370.619	3.6
370.982	3.64
371.345	3.59
371.708	3.56
372.071	3.61
372.434	3.51
372.797	3.46
373.159	3.33
373.522	3.35
373.885	3.44
374.247	3.39
374.61	3.37
374.973	3.36
375.335	3.36
375.698	3.31
376.06	3.31
376.423	3.38
376.785	3.46
377.147	3.47
377.51	3.48
377.872	3.47
378.234	3.5
378.596	3.48
378.958	3.49
379.321	3.46
379.683	3.51
380.045	3.53
380.407	3.57
380.769	3.58
381.13	3.58
381.492	3.52
381.854	3.5
382.216	3.53
382.578	3.5
382.939	3.5
383.301	3.53
383.663	3.56
384.024	3.53
384.386	3.52
384.747	3.48
385.109	3.46
385.47	3.52
385.832	3.48
386.193	3.42
386.554	3.38
386.916	3.37
387.277	3.34
387.638	3.36
387.999	3.33
388.36	3.36
388.721	3.32
389.082	3.32
389.443	3.33
389.804	3.36
390.165	3.36
390.526	3.35
390.887	3.35
391.248	3.32
391.609	3.31
391.969	3.3
392.33	3.32
392.691	3.29
393.051	3.27
393.412	3.28
393.772	3.34
394.133	3.28
394.493	3.28
394.854	3.29
395.214	3.3
395.574	3.28
395.935	3.29
396.295	3.33
396.655	3.36
397.015	3.38
397.376	3.39
397.736	3.39
398.096	3.38
398.456	3.4
398.816	3.37
399.176	3.36
399.535	3.37
399.895	3.37
400.255	3.38
400.615	3.36
400.975	3.33
401.334	3.31
401.694	3.38
402.054	3.42
402.413	3.43
402.773	3.41
403.132	3.41
403.492	3.43
403.851	3.4
404.211	3.39
404.57	3.39
404.929	3.33
405.288	3.32
405.648	3.33
406.007	3.3
406.366	3.36
406.725	3.33
407.084	3.32
407.443	3.3
407.802	3.3
408.161	3.33
408.52	3.35
408.879	3.36
409.238	3.34
409.596	3.31
409.955	3.29
410.314	3.28
410.673	3.32
411.031	3.28
411.39	3.29
411.748	3.28
412.107	3.27
412.465	3.27
412.824	3.25
413.182	3.22
413.54	3.26
413.899	3.23
414.257	3.25
414.615	3.24
414.974	3.24
415.332	3.24
415.69	3.21
416.048	3.23
416.406	3.23
416.764	3.22
417.122	3.22
417.48	3.24
417.838	3.24
418.195	3.23
418.553	3.23
418.911	3.23
419.269	3.25
419.626	3.23
419.984	3.22
420.342	3.24
420.699	3.26
421.057	3.25
421.414	3.27
421.772	3.28
422.129	3.27
422.486	3.29
422.844	3.29
423.201	3.3
423.558	3.31
423.915	3.31
424.273	3.32
424.63	3.35
424.987	3.35
425.344	3.34
425.701	3.34
426.058	3.35
426.415	3.34
426.772	3.32
427.128	3.33
427.485	3.35
427.842	3.35
428.199	3.34
428.555	3.35
428.912	3.32
429.269	3.31
429.625	3.31
429.982	3.3
430.338	3.29
430.695	3.28
431.051	3.26
431.407	3.26
431.764	3.25
432.12	3.23
432.476	3.23
432.832	3.25
433.189	3.23
433.545	3.23
433.901	3.22
434.257	3.22
434.613	3.22
434.969	3.2
435.325	3.19
435.681	3.19
436.036	3.17
436.392	3.18
436.748	3.2
437.104	3.22
437.459	3.22
437.815	3.22
438.171	3.26
438.526	3.26
438.882	3.25
439.237	3.26
439.593	3.26
439.948	3.25
440.304	3.24
440.659	3.26
441.014	3.26
441.369	3.26
441.725	3.27
442.08	3.28
442.435	3.3
442.79	3.3
443.145	3.3
443.5	3.29
443.855	3.27
444.21	3.25
444.565	3.24
444.92	3.24
445.275	3.24
445.629	3.22
445.984	3.21
446.339	3.22
446.693	3.22
447.048	3.21
447.403	3.21
447.757	3.2
448.112	3.2
448.466	3.2
448.82	3.21
449.175	3.21
449.529	3.2
449.883	3.18
450.238	3.18
450.592	3.18
450.946	3.2
451.3	3.2
451.654	3.2
452.008	3.18
452.362	3.18
452.716	3.17
453.07	3.16
453.424	3.16
453.778	3.14
454.132	3.12
454.486	3.15
454.839	3.14
455.193	3.14
455.547	3.14
455.9	3.15
456.254	3.16
456.607	3.16
456.961	3.16
457.314	3.19
457.668	3.18
458.021	3.19
458.375	3.17
458.728	3.17
459.081	3.19
459.434	3.2
459.787	3.21
460.141	3.22
460.494	3.23
460.847	3.24
461.2	3.24
461.553	3.25
461.906	3.25
462.259	3.26
462.611	3.26
462.964	3.27
463.317	3.25
463.67	3.25
464.022	3.24
464.375	3.23
464.728	3.22
465.08	3.24
465.433	3.24
465.785	3.25
466.138	3.28
466.49	3.25
466.843	3.25
467.195	3.24
467.547	3.23
467.899	3.23
468.252	3.23
468.604	3.25
468.956	3.28
469.308	3.25
469.66	3.27
470.012	3.27
470.364	3.27
470.716	3.29
471.068	3.29
471.42	3.31
471.772	3.32
472.123	3.32
472.475	3.33
472.827	3.32
473.178	3.34
473.53	3.33
473.882	3.33
474.233	3.32
474.585	3.32
474.936	3.3
475.288	3.29
475.639	3.29
475.99	3.26
476.342	3.25
476.693	3.27
477.044	3.25
477.395	3.24
477.746	3.22
478.097	3.22
478.448	3.23
478.8	3.22
479.15	3.23
479.501	3.21
479.852	3.21
480.203	3.21
480.554	3.22
480.905	3.22
481.255	3.24
481.606	3.26
481.957	3.26
482.307	3.27
482.658	3.27
483.009	3.28
483.359	3.29
483.709	3.29
484.06	3.29
484.41	3.3
484.761	3.31
485.111	3.32
485.461	3.31
485.811	3.32
486.162	3.32
486.512	3.31
486.862	3.32
487.212	3.32
487.562	3.33
487.912	3.32
488.262	3.32
488.612	3.32
488.961	3.32
489.311	3.32
489.661	3.32
490.011	3.32
490.36	3.31
490.71	3.31
491.06	3.31
491.409	3.3
491.759	3.29
492.108	3.29
492.458	3.29
492.807	3.29
493.157	3.28
493.506	3.28
493.855	3.27
494.204	3.27
494.554	3.28
494.903	3.28
495.252	3.28
495.601	3.28
495.95	3.27
496.299	3.28
496.648	3.29
496.997	3.3
497.346	3.32
497.695	3.33
498.043	3.32
498.392	3.32
498.741	3.32
499.09	3.35
499.438	3.37
499.787	3.36
500.135	3.36
500.484	3.37
500.832	3.37
501.181	3.39
501.529	3.4
501.878	3.43
502.226	3.43
502.574	3.45
502.923	3.45
503.271	3.47
503.619	3.45
503.967	3.42
504.315	3.42
504.663	3.4
505.011	3.4
505.359	3.39
505.707	3.42
506.055	3.43
506.403	3.42
506.751	3.39
507.098	3.42
507.446	3.42
507.794	3.43
508.141	3.44
508.489	3.45
508.837	3.43
509.184	3.4
509.531	3.4
509.879	3.39
510.226	3.41
510.574	3.42
510.921	3.43
511.268	3.45
511.616	3.45
511.963	3.47
512.31	3.48
512.657	3.5
513.004	3.48
513.351	3.49
513.698	3.47
514.045	3.48
514.392	3.46
514.739	3.48
515.086	3.49
515.432	3.5
515.779	3.51
516.126	3.55
516.473	3.56
516.819	3.56
517.166	3.58
517.512	3.55
517.859	3.56
518.205	3.54
518.552	3.56
518.898	3.57
519.245	3.58
519.591	3.6
519.937	3.6
520.283	3.61
520.629	3.6
520.976	3.62
521.322	3.63
521.668	3.62
522.014	3.62
522.36	3.62
522.706	3.61
523.052	3.62
523.398	3.59
523.743	3.58
524.089	3.59
524.435	3.58
524.781	3.6
525.126	3.59
525.472	3.6
525.817	3.6
526.163	3.59
526.509	3.59
526.854	3.58
527.199	3.59
527.545	3.58
527.89	3.58
528.235	3.58
528.581	3.58
528.926	3.59
529.271	3.59
529.616	3.59
529.961	3.6
530.306	3.6
530.651	3.61
530.996	3.64
531.341	3.64
531.686	3.64
532.031	3.65
532.376	3.67
532.721	3.67
533.065	3.68
533.41	3.69
533.755	3.7
534.099	3.69
534.444	3.69
534.788	3.69
535.133	3.7
535.477	3.71
535.822	3.72
536.166	3.73
536.51	3.74
536.855	3.74
537.199	3.74
537.543	3.74
537.887	3.74
538.231	3.73
538.576	3.73
538.92	3.73
539.264	3.73
539.608	3.73
539.951	3.72
540.295	3.71
540.639	3.71
540.983	3.7
541.327	3.73
541.671	3.74
542.014	3.76
542.358	3.76
542.701	3.75
543.045	3.74
543.389	3.74
543.732	3.73
544.075	3.74
544.419	3.74
544.762	3.74
545.105	3.74
545.449	3.74
545.792	3.76
546.135	3.77
546.478	3.77
546.821	3.77
547.165	3.8
547.508	3.81
547.851	3.81
548.194	3.79
548.536	3.75
548.879	3.75
549.222	3.73
549.565	3.73
549.908	3.73
550.25	3.75
550.593	3.77
550.936	3.78
551.278	3.77
551.621	3.76
551.963	3.77
552.306	3.79
552.648	3.79
552.991	3.79
553.333	3.75
553.675	3.77
554.017	3.75
554.36	3.71
554.702	3.69
555.044	3.71
555.386	3.75
555.728	3.79
556.07	3.79
556.412	3.77
556.754	3.77
557.096	3.79
557.438	3.75
557.78	3.74
558.121	3.74
558.463	3.74
558.805	3.75
559.147	3.72
559.488	3.7
559.83	3.71
560.171	3.71
560.513	3.75
560.854	3.69
561.196	3.72
561.537	3.77
561.878	3.79
562.22	3.79
562.561	3.78
562.902	3.75
563.243	3.75
563.584	3.79
563.925	3.81
564.266	3.81
564.607	3.84
564.948	3.83
565.289	3.82
565.63	3.83
565.971	3.83
566.312	3.85
566.653	3.85
566.993	3.82
567.334	3.82
567.675	3.79
568.015	3.82
568.356	3.78
568.696	3.75
569.037	3.75
569.377	3.73
569.718	3.75
570.058	3.78
570.398	3.76
570.739	3.74
571.079	3.74
571.419	3.76
571.759	3.73
572.099	3.71
572.439	3.72
572.779	3.71
573.119	3.72
573.459	3.7
573.799	3.7
574.139	3.68
574.479	3.67
574.819	3.71
575.158	3.74
575.498	3.75
575.838	3.76
576.177	3.75
576.517	3.76
576.856	3.73
577.196	3.71
577.535	3.72
577.875	3.72
578.214	3.73
578.553	3.72
578.893	3.76
579.232	3.81
579.571	3.83
579.91	3.86
580.25	3.84
580.589	3.87
580.928	3.86
581.267	3.9
581.606	3.85
581.945	3.85
582.283	3.82
582.622	3.83
582.961	3.82
583.3	3.85
583.639	3.84
583.977	3.88
584.316	3.9
584.654	3.88
584.993	3.86
585.332	3.83
585.67	3.84
586.008	3.84
586.347	3.84
586.685	3.85
587.024	3.81
587.362	3.8
587.7	3.82
588.038	3.85
588.376	3.87
588.715	3.89
589.053	3.9
589.391	3.92
589.729	3.91
590.067	3.92
590.404	3.91
590.742	3.93
591.08	3.93
591.418	3.95
591.756	3.98
592.093	3.99
592.431	4.02
592.769	3.97
593.106	4
593.444	4.03
593.781	4.03
594.119	4.06
594.456	4.07
594.793	4.04
595.131	4.05
595.468	4.05
595.805	4.08
596.143	4.06
596.48	4.03
596.817	4.04
597.154	4.01
597.491	4.01
597.828	4.02
598.165	4
598.502	3.95
598.839	3.91
599.176	3.93
599.512	3.91
599.849	3.95
600.186	3.92
600.523	3.87
600.859	3.85
601.196	3.86
601.532	3.85
601.869	3.84
602.205	3.81
602.542	3.8
602.878	3.79
603.215	3.8
603.551	3.8
603.887	3.82
604.223	3.86
604.56	3.88
604.896	3.89
605.232	3.86
605.568	3.9
605.904	3.94
606.24	3.94
606.576	3.94
606.912	3.92
607.248	3.94
607.583	3.94
607.919	3.94
608.255	3.93
608.591	3.94
608.926	3.96
609.262	3.97
609.597	3.96
609.933	3.96
610.268	3.95
610.604	3.97
610.939	3.99
611.275	4.01
611.61	3.97
611.945	3.91
612.281	3.96
612.616	3.93
612.951	3.95
613.286	3.95
613.621	3.99
613.956	4.02
614.291	3.98
614.626	3.99
614.961	3.98
615.296	4.01
615.631	4.04
615.966	4.06
616.3	4.08
616.635	4.12
616.97	4.1
617.304	4.12
617.639	4.1
617.973	4.06
618.308	4.01
618.642	4.03
618.977	4.12
619.311	4.16
619.646	4.19
619.98	4.17
620.314	4.18
620.648	4.16
620.983	4.08
621.317	4.09
621.651	4.09
621.985	4.11
622.319	4.06
622.653	4.02
622.987	3.99
623.321	3.96
623.655	3.97
623.988	3.99
624.322	4.01
624.656	4
624.99	4.03
625.323	4.03
625.657	4.03
625.99	4.02
626.324	3.99
626.657	3.94
626.991	3.96
627.324	3.95
627.658	3.94
627.991	3.96
628.324	3.99
628.657	4.02
628.991	4.04
629.324	4.07
629.657	4.03
629.99	4.02
630.323	4.06
630.656	4.02
630.989	4.02
631.322	3.99
631.655	4
631.987	4.02
632.32	3.98
632.653	3.99
632.986	3.96
633.318	3.99
633.651	4.01
633.984	3.96
634.316	3.93
634.649	3.92
634.981	3.93
635.313	3.86
635.646	3.79
635.978	3.79
636.31	3.78
636.643	3.74
636.975	3.76
637.307	3.74
637.639	3.77
637.971	3.76
638.303	3.77
638.635	3.78
638.967	3.72
639.299	3.79
639.631	3.79
639.963	3.73
640.295	3.7
640.626	3.67
640.958	3.72
641.29	3.8
641.621	3.85
641.953	3.86
642.285	3.93
642.616	3.97
642.948	3.96
643.279	3.99
643.61	4.11
643.942	4.12
644.273	4.15
644.604	4.12
644.936	4.13
645.267	4.08
645.598	4.03
645.929	3.99
646.26	4.03
646.591	3.99
646.922	4.12
647.253	4.11
647.584	4.16
647.915	4.17
648.245	4.12
648.576	4.01
648.907	4.02
649.238	3.93
649.568	3.91
649.899	3.92
650.229	3.92
650.56	3.91
650.89	3.92
651.221	3.89
651.551	3.92
651.882	3.84
652.212	3.94
652.542	4.01
652.872	4.01
653.203	4.03
653.533	4.12
653.863	4.07
654.193	4.12
654.523	4.06
654.853	4.09
655.183	4.13
655.513	4.25
655.843	4.29
656.172	4.41
656.502	4.37
656.832	4.42
657.162	4.38
657.491	4.42
657.821	4.4
658.15	4.49
658.48	4.51
658.809	4.59
659.139	4.51
659.468	4.49
659.798	4.54
660.127	4.51
660.456	4.45
660.785	4.41
661.115	4.37
661.444	4.48
661.773	4.48
662.102	4.44
662.431	4.43
662.76	4.36
663.089	4.36
663.418	4.44
663.747	4.32
664.076	4.38
664.404	4.38
664.733	4.37
665.062	4.23
665.39	4.21
665.719	4.21
666.048	4.25
666.376	4.34
666.705	4.33
667.033	4.31
667.362	4.29
667.69	4.41
668.018	4.49
668.347	4.4
668.675	4.43
669.003	4.4
669.331	4.41
669.659	4.48
669.987	4.39
670.315	4.36
670.643	4.44
670.971	4.43
671.299	4.44
671.627	4.39
671.955	4.39
672.283	4.4
672.61	4.35
672.938	4.31
673.266	4.29
673.593	4.29
673.921	4.24
674.249	4.23
674.576	4.24
674.904	4.21
675.231	4.29
675.558	4.25
675.886	4.32
676.213	4.25
676.54	4.21
676.867	4.25
677.195	4.23
677.522	4.22
677.849	4.21
678.176	4.24
678.503	4.29
678.83	4.38
679.157	4.37
679.484	4.41
679.81	4.56
