Data from BU57647_Reflection_00014.txt Node
Date: Mon Nov 18 16:49:49 EST 2019
User: vgr7
Spectrometer: USB2G7710
Scans to average: 3
Trigger mode: 4
Integration Time (sec): 2.000000E-2
Electric dark correction enabled: true
Boxcar width: 10
XAxis mode: Wavelengths
Number of Pixels in Spectrum: 2048
>>>>>Begin Spectral Data<<<<<
177.721	-107.93
178.105	-170.89
178.488	-230.41
178.871	653.19
179.254	197.95
179.636	431.52
180.019	234.8
180.402	35
180.785	70.51
181.168	27.76
181.55	57.82
181.933	100.99
182.316	96.78
182.698	66.48
183.081	171.92
183.463	266.38
183.846	-2183.02
184.228	-12536.36
184.611	-810.2
184.993	-215.47
185.376	-230.97
185.758	-301.37
186.14	-230.05
186.522	-217.3
186.904	-249.22
187.287	-420.08
187.669	-457.48
188.051	-398.12
188.433	-206.63
188.815	-138.57
189.197	-128.42
189.579	-121.16
189.961	-115.64
190.342	-124.29
190.724	-76.77
191.106	-86.51
191.488	-75.09
191.869	-111.86
192.251	-100.48
192.633	-105.87
193.014	-111.28
193.396	-156.33
193.777	-103.18
194.159	-229.5
194.54	-126.12
194.922	-180.21
195.303	-38.09
195.684	-28.59
196.065	-22.98
196.447	-22.12
196.828	-72.17
197.209	-61.49
197.59	-53.96
197.971	-65.18
198.352	-53.92
198.733	-72.24
199.114	-55.5
199.495	-48.58
199.876	-24.28
200.257	-24.03
200.638	-21.42
201.018	-14.54
201.399	-22.2
201.78	-23.38
202.16	-25.82
202.541	-80.53
202.922	-86.74
203.302	-101.57
203.683	-87.11
204.063	-123.24
204.444	-113.22
204.824	-81.86
205.204	-65.01
205.585	-91.04
205.965	-166.33
206.345	-232.61
206.725	-937.21
207.106	-1282.78
207.486	672.35
207.866	790.87
208.246	2167.48
208.626	1672.86
209.006	-965.57
209.386	3711.76
209.766	-7325.53
210.145	-1526.33
210.525	-201.01
210.905	-158.29
211.285	-129.21
211.664	-122.68
212.044	-109.16
212.424	-103.76
212.803	-131.39
213.183	-175.8
213.562	-142.36
213.942	-108.03
214.321	-86.69
214.701	-101.51
215.08	-102.96
215.459	-92.68
215.838	-96.51
216.218	-100.32
216.597	-73.01
216.976	-81.61
217.355	-64.32
217.734	-63.35
218.113	-36.53
218.492	-47.19
218.871	-58.71
219.25	-65.09
219.629	-83.07
220.008	-84.03
220.387	-90.56
220.766	-76.16
221.144	-71.42
221.523	-96.92
221.902	-80.92
222.28	-89.4
222.659	-61.62
223.037	-39.58
223.416	-35
223.794	-43.82
224.173	-39.29
224.551	-34.51
224.929	-40.46
225.308	-27.72
225.686	-24.36
226.064	-27.53
226.442	-19.39
226.821	-8.76
227.199	-1.76
227.577	-2.33
227.955	0.49
228.333	3.14
228.711	1.27
229.089	2.49
229.467	1.31
229.845	-4.1
230.222	-3.08
230.6	-6.49
230.978	-7.21
231.356	-5.8
231.733	-0.55
232.111	-0.6
232.488	-2.09
232.866	-0.71
233.243	-1.64
233.621	-2.29
233.998	-1.61
234.376	-1.55
234.753	-2.14
235.13	-3.4
235.508	-1.28
235.885	-1.6
236.262	-2.87
236.639	-2.49
237.016	-1.47
237.393	0.69
237.77	2.89
238.147	3.62
238.524	4.1
238.901	4.37
239.278	4.54
239.655	4.01
240.032	3.76
240.409	3.85
240.785	3.39
241.162	4.01
241.539	4.32
241.915	4.25
242.292	3.97
242.668	4.03
243.045	4.34
243.421	4.07
243.798	4.38
244.174	4.62
244.551	4.71
244.927	4.65
245.303	4.78
245.679	4.61
246.056	4.53
246.432	4.53
246.808	4.52
247.184	4.44
247.56	4.27
247.936	4.21
248.312	4.23
248.688	4.47
249.064	4.26
249.44	4.24
249.815	4.23
250.191	4.4
250.567	4.49
250.943	4.27
251.318	4.5
251.694	4.67
252.069	4.69
252.445	4.88
252.82	4.77
253.196	4.45
253.571	4.74
253.947	4.87
254.322	4.93
254.697	4.59
255.073	4.39
255.448	4.21
255.823	4.26
256.198	4.48
256.573	4.31
256.948	4.52
257.323	4.65
257.698	4.71
258.073	4.42
258.448	4.3
258.823	4.29
259.198	4.16
259.573	4.18
259.948	4.15
260.322	4.22
260.697	4.15
261.072	4.16
261.446	4.08
261.821	3.93
262.195	4.08
262.57	3.98
262.944	3.87
263.319	3.86
263.693	3.82
264.067	3.77
264.442	3.79
264.816	3.64
265.19	3.48
265.564	3.52
265.938	3.46
266.313	3.37
266.687	3.41
267.061	3.32
267.435	3.29
267.809	3.26
268.183	3.09
268.556	2.97
268.93	3.03
269.304	3.07
269.678	2.99
270.051	2.71
270.425	2.86
270.799	3
271.172	3.02
271.546	2.91
271.919	2.93
272.293	2.94
272.666	3.02
273.04	3.09
273.413	2.92
273.787	3.11
274.16	3.1
274.533	3.13
274.906	3.07
275.279	2.86
275.653	2.86
276.026	3.06
276.399	3.18
276.772	3.06
277.145	2.8
277.518	2.94
277.891	3.09
278.263	3.07
278.636	3
279.009	3.02
279.382	3.42
279.755	3.31
280.127	3.33
280.5	3.49
280.872	3.47
281.245	3.46
281.617	3.58
281.99	3.72
282.362	3.77
282.735	3.76
283.107	3.84
283.479	3.87
283.852	3.71
284.224	3.74
284.596	3.86
284.968	3.95
285.34	4.03
285.713	4
286.085	4.06
286.457	4.12
286.829	4.15
287.201	4.02
287.572	4.06
287.944	4.12
288.316	4.02
288.688	3.98
289.06	4.02
289.431	3.99
289.803	3.93
290.175	3.96
290.546	4.19
290.918	4.28
291.289	4.29
291.661	4.29
292.032	4.47
292.403	4.48
292.775	4.65
293.146	4.62
293.517	4.72
293.889	4.85
294.26	4.83
294.631	4.83
295.002	4.8
295.373	4.87
295.744	4.85
296.115	4.89
296.486	4.86
296.857	4.9
297.228	5.04
297.599	5.05
297.97	5.18
298.34	5.12
298.711	5.15
299.082	5.2
299.452	5.36
299.823	5.36
300.194	5.42
300.564	5.57
300.935	5.71
301.305	5.71
301.676	5.76
302.046	5.97
302.416	6.22
302.787	6.32
303.157	6.37
303.527	6.42
303.897	6.51
304.267	6.83
304.637	7.03
305.008	7.11
305.378	7.39
305.748	7.52
306.117	7.5
306.487	7.68
306.857	7.82
307.227	7.86
307.597	8.08
307.967	8.08
308.336	8.06
308.706	8.09
309.076	8.34
309.445	8.42
309.815	8.46
310.184	8.49
310.554	8.73
310.923	8.89
311.293	9.04
311.662	9.05
312.031	9.06
312.401	9.21
312.77	9.28
313.139	9.38
313.508	9.4
313.877	9.52
314.246	9.6
314.616	9.84
314.985	9.99
315.353	9.84
315.722	10.08
316.091	10.17
316.46	10.4
316.829	10.47
317.198	10.76
317.567	10.9
317.935	10.99
318.304	11.07
318.672	11.18
319.041	11.53
319.41	11.62
319.778	11.92
320.147	11.96
320.515	11.99
320.883	11.99
321.252	12.28
321.62	12.54
321.988	12.67
322.357	12.66
322.725	12.93
323.093	13.29
323.461	13.45
323.829	13.58
324.197	13.7
324.565	13.8
324.933	13.74
325.301	13.93
325.669	14.06
326.037	14.01
326.405	14.03
326.772	13.97
327.14	14.21
327.508	14.17
327.875	14.21
328.243	14.45
328.61	14.5
328.978	14.38
329.346	14.52
329.713	14.51
330.08	14.62
330.448	14.43
330.815	14.24
331.182	14.11
331.55	14.2
331.917	14.15
332.284	14.3
332.651	14.27
333.018	14.16
333.385	14.2
333.752	14.45
334.119	14.7
334.486	14.68
334.853	14.67
335.22	14.58
335.587	14.67
335.954	14.57
336.32	14.64
336.687	14.71
337.054	14.7
337.42	14.79
337.787	14.8
338.153	14.93
338.52	15.04
338.886	15.16
339.253	15.16
339.619	15.13
339.986	15.11
340.352	15.22
340.718	15.33
341.084	15.41
341.451	15.48
341.817	15.42
342.183	15.52
342.549	15.53
342.915	15.79
343.281	15.84
343.647	15.83
344.013	15.97
344.379	16.04
344.745	16.1
345.11	16.09
345.476	16.08
345.842	16.13
346.208	16.25
346.573	16.32
346.939	16.33
347.304	16.44
347.67	16.33
348.035	16.35
348.401	16.21
348.766	16.12
349.132	16.06
349.497	16.02
349.862	16.16
350.228	16.29
350.593	16.19
350.958	16.24
351.323	16.39
351.688	16.28
352.053	16.22
352.418	16.17
352.783	16.19
353.148	16.18
353.513	16.2
353.878	16.21
354.243	16.22
354.608	16.26
354.972	16.25
355.337	16.34
355.702	16.37
356.066	16.52
356.431	16.42
356.795	16.35
357.16	16.34
357.524	16.23
357.889	16.11
358.253	16.07
358.618	16.07
358.982	15.97
359.346	15.94
359.71	15.86
360.075	15.82
360.439	15.82
360.803	15.82
361.167	15.7
361.531	15.64
361.895	15.53
362.259	15.47
362.623	15.4
362.987	15.33
363.351	15.28
363.714	15.16
364.078	15.21
364.442	15.16
364.806	15.09
365.169	14.98
365.533	14.98
365.896	14.87
366.26	14.76
366.623	14.7
366.987	14.6
367.35	14.57
367.714	14.42
368.077	14.3
368.44	14.21
368.803	14.14
369.167	14.05
369.53	14.01
369.893	13.84
370.256	13.74
370.619	13.65
370.982	13.44
371.345	13.4
371.708	13.26
372.071	13.23
372.434	13.11
372.797	12.96
373.159	12.78
373.522	12.73
373.885	12.7
374.247	12.57
374.61	12.56
374.973	12.44
375.335	12.35
375.698	12.23
376.06	12.17
376.423	12.04
376.785	11.93
377.147	11.88
377.51	11.8
377.872	11.75
378.234	11.7
378.596	11.71
378.958	11.58
379.321	11.58
379.683	11.44
380.045	11.36
380.407	11.31
380.769	11.19
381.13	11.09
381.492	10.92
381.854	10.89
382.216	10.76
382.578	10.69
382.939	10.57
383.301	10.45
383.663	10.32
384.024	10.22
384.386	10.16
384.747	10.05
385.109	10.02
385.47	9.91
385.832	9.8
386.193	9.69
386.554	9.67
386.916	9.54
387.277	9.49
387.638	9.43
387.999	9.36
388.36	9.33
388.721	9.28
389.082	9.21
389.443	9.06
389.804	8.96
390.165	8.89
390.526	8.92
390.887	8.89
391.248	8.87
391.609	8.87
391.969	8.86
392.33	8.81
392.691	8.74
393.051	8.69
393.412	8.66
393.772	8.62
394.133	8.52
394.493	8.48
394.854	8.4
395.214	8.38
395.574	8.33
395.935	8.25
396.295	8.21
396.655	8.18
397.015	8.18
397.376	8.13
397.736	8.1
398.096	8
398.456	7.93
398.816	7.86
399.176	7.76
399.535	7.62
399.895	7.56
400.255	7.5
400.615	7.43
400.975	7.35
401.334	7.3
401.694	7.23
402.054	7.14
402.413	7.1
402.773	6.98
403.132	6.92
403.492	6.9
403.851	6.83
404.211	6.78
404.57	6.7
404.929	6.7
405.288	6.61
405.648	6.59
406.007	6.57
406.366	6.51
406.725	6.53
407.084	6.55
407.443	6.49
407.802	6.51
408.161	6.48
408.52	6.45
408.879	6.41
409.238	6.42
409.596	6.42
409.955	6.4
410.314	6.44
410.673	6.41
411.031	6.4
411.39	6.38
411.748	6.36
412.107	6.34
412.465	6.3
412.824	6.3
413.182	6.25
413.54	6.22
413.899	6.22
414.257	6.17
414.615	6.09
414.974	6.08
415.332	6.01
415.69	5.98
416.048	5.96
416.406	5.91
416.764	5.88
417.122	5.83
417.48	5.79
417.838	5.72
418.195	5.7
418.553	5.65
418.911	5.63
419.269	5.58
419.626	5.55
419.984	5.51
420.342	5.49
420.699	5.46
421.057	5.45
421.414	5.41
421.772	5.38
422.129	5.36
422.486	5.34
422.844	5.33
423.201	5.31
423.558	5.29
423.915	5.26
424.273	5.24
424.63	5.21
424.987	5.18
425.344	5.17
425.701	5.14
426.058	5.12
426.415	5.09
426.772	5.09
427.128	5.07
427.485	5.07
427.842	5.05
428.199	5.03
428.555	5.01
428.912	5
429.269	5
429.625	4.96
429.982	4.93
430.338	4.9
430.695	4.86
431.051	4.83
431.407	4.82
431.764	4.8
432.12	4.8
432.476	4.8
432.832	4.77
433.189	4.8
433.545	4.81
433.901	4.83
434.257	4.81
434.613	4.83
434.969	4.82
435.325	4.81
435.681	4.82
436.036	4.8
436.392	4.8
436.748	4.79
437.104	4.77
437.459	4.76
437.815	4.76
438.171	4.77
438.526	4.77
438.882	4.77
439.237	4.79
439.593	4.79
439.948	4.79
440.304	4.8
440.659	4.77
441.014	4.78
441.369	4.75
441.725	4.73
442.08	4.71
442.435	4.73
442.79	4.73
443.145	4.72
443.5	4.72
443.855	4.72
444.21	4.73
444.565	4.74
444.92	4.73
445.275	4.73
445.629	4.73
445.984	4.71
446.339	4.7
446.693	4.69
447.048	4.67
447.403	4.65
447.757	4.65
448.112	4.62
448.466	4.58
448.82	4.58
449.175	4.58
449.529	4.55
449.883	4.51
450.238	4.49
450.592	4.48
450.946	4.47
451.3	4.45
451.654	4.42
452.008	4.41
452.362	4.38
452.716	4.38
453.07	4.36
453.424	4.37
453.778	4.34
454.132	4.31
454.486	4.32
454.839	4.32
455.193	4.31
455.547	4.32
455.9	4.34
456.254	4.36
456.607	4.35
456.961	4.36
457.314	4.37
457.668	4.37
458.021	4.36
458.375	4.39
458.728	4.38
459.081	4.39
459.434	4.37
459.787	4.37
460.141	4.38
460.494	4.4
460.847	4.41
461.2	4.41
461.553	4.42
461.906	4.44
462.259	4.47
462.611	4.49
462.964	4.51
463.317	4.5
463.67	4.5
464.022	4.53
464.375	4.54
464.728	4.56
465.08	4.59
465.433	4.58
465.785	4.57
466.138	4.59
466.49	4.61
466.843	4.64
467.195	4.68
467.547	4.69
467.899	4.69
468.252	4.7
468.604	4.73
468.956	4.75
469.308	4.77
469.66	4.75
470.012	4.77
470.364	4.79
470.716	4.83
471.068	4.84
471.42	4.86
471.772	4.9
472.123	4.91
472.475	4.91
472.827	4.94
473.178	4.95
473.53	4.96
473.882	4.98
474.233	4.99
474.585	4.96
474.936	4.96
475.288	4.98
475.639	5
475.99	5.01
476.342	5.02
476.693	5.01
477.044	5.02
477.395	5.02
477.746	5.01
478.097	4.99
478.448	4.97
478.8	4.95
479.15	4.9
479.501	4.91
479.852	4.92
480.203	4.9
480.554	4.91
480.905	4.91
481.255	4.91
481.606	4.9
481.957	4.91
482.307	4.91
482.658	4.91
483.009	4.89
483.359	4.89
483.709	4.89
484.06	4.89
484.41	4.89
484.761	4.89
485.111	4.89
485.461	4.89
485.811	4.89
486.162	4.89
486.512	4.9
486.862	4.91
487.212	4.91
487.562	4.91
487.912	4.9
488.262	4.89
488.612	4.9
488.961	4.89
489.311	4.88
489.661	4.89
490.011	4.89
490.36	4.89
490.71	4.9
491.06	4.91
491.409	4.91
491.759	4.91
492.108	4.91
492.458	4.91
492.807	4.91
493.157	4.93
493.506	4.94
493.855	4.96
494.204	4.98
494.554	4.99
494.903	5.01
495.252	5.03
495.601	5.07
495.95	5.09
496.299	5.15
496.648	5.18
496.997	5.2
497.346	5.25
497.695	5.3
498.043	5.33
498.392	5.38
498.741	5.42
499.09	5.47
499.438	5.54
499.787	5.6
500.135	5.69
500.484	5.76
500.832	5.82
501.181	5.88
501.529	5.94
501.878	6.02
502.226	6.12
502.574	6.21
502.923	6.28
503.271	6.38
503.619	6.47
503.967	6.58
504.315	6.68
504.663	6.79
505.011	6.9
505.359	7.01
505.707	7.12
506.055	7.25
506.403	7.36
506.751	7.46
507.098	7.59
507.446	7.69
507.794	7.81
508.141	7.92
508.489	8.05
508.837	8.18
509.184	8.31
509.531	8.44
509.879	8.58
510.226	8.74
510.574	8.87
510.921	9.02
511.268	9.15
511.616	9.32
511.963	9.5
512.31	9.64
512.657	9.8
513.004	9.99
513.351	10.14
513.698	10.36
514.045	10.59
514.392	10.83
514.739	11.05
515.086	11.28
515.432	11.51
515.779	11.7
516.126	11.92
516.473	12.11
516.819	12.31
517.166	12.49
517.512	12.68
517.859	12.88
518.205	13.09
518.552	13.28
518.898	13.46
519.245	13.64
519.591	13.85
519.937	14.07
520.283	14.27
520.629	14.52
520.976	14.75
521.322	14.97
521.668	15.18
522.014	15.42
522.36	15.68
522.706	15.94
523.052	16.25
523.398	16.54
523.743	16.85
524.089	17.16
524.435	17.47
524.781	17.76
525.126	18.03
525.472	18.27
525.817	18.47
526.163	18.68
526.509	18.87
526.854	19.04
527.199	19.19
527.545	19.34
527.89	19.48
528.235	19.62
528.581	19.79
528.926	19.97
529.271	20.15
529.616	20.31
529.961	20.47
530.306	20.66
530.651	20.83
530.996	21.02
531.341	21.21
531.686	21.41
532.031	21.6
532.376	21.8
532.721	21.99
533.065	22.24
533.41	22.44
533.755	22.68
534.099	22.91
534.444	23.16
534.788	23.41
535.133	23.64
535.477	23.88
535.822	24.1
536.166	24.33
536.51	24.59
536.855	24.88
537.199	25.18
537.543	25.45
537.887	25.76
538.231	26.05
538.576	26.32
538.92	26.58
539.264	26.83
539.608	27.08
539.951	27.31
540.295	27.49
540.639	27.73
540.983	27.94
541.327	28.14
541.671	28.32
542.014	28.53
542.358	28.74
542.701	28.93
543.045	29.13
543.389	29.32
543.732	29.53
544.075	29.73
544.419	29.94
544.762	30.16
545.105	30.38
545.449	30.63
545.792	30.91
546.135	31.15
546.478	31.42
546.821	31.68
547.165	32
547.508	32.33
547.851	32.61
548.194	32.87
548.536	33.24
548.879	33.59
549.222	33.9
549.565	34.2
549.908	34.54
550.25	34.88
550.593	35.21
550.936	35.45
551.278	35.74
551.621	36.02
551.963	36.28
552.306	36.55
552.648	36.77
552.991	37.02
553.333	37.31
553.675	37.59
554.017	37.91
554.36	38.16
554.702	38.42
555.044	38.72
555.386	38.96
555.728	39.14
556.07	39.37
556.412	39.59
556.754	39.81
557.096	40.07
557.438	40.32
557.78	40.52
558.121	40.84
558.463	41.1
558.805	41.42
559.147	41.65
559.488	41.91
559.83	42.21
560.171	42.46
560.513	42.65
560.854	42.91
561.196	43.15
561.537	43.35
561.878	43.6
562.22	43.8
562.561	44.07
562.902	44.25
563.243	44.4
563.584	44.54
563.925	44.75
564.266	44.97
564.607	45.19
564.948	45.39
565.289	45.58
565.63	45.77
565.971	45.93
566.312	46.11
566.653	46.29
566.993	46.42
567.334	46.59
567.675	46.82
568.015	47.01
568.356	47.17
568.696	47.37
569.037	47.56
569.377	47.7
569.718	47.87
570.058	48.14
570.398	48.34
570.739	48.56
571.079	48.72
571.419	48.87
571.759	49
572.099	49.2
572.439	49.32
572.779	49.51
573.119	49.62
573.459	49.81
573.799	49.92
574.139	50.05
574.479	50.21
574.819	50.35
575.158	50.45
575.498	50.6
575.838	50.73
576.177	50.85
576.517	50.98
576.856	51.1
577.196	51.15
577.535	51.37
577.875	51.51
578.214	51.66
578.553	51.75
578.893	51.9
579.232	52.01
579.571	52.15
579.91	52.27
580.25	52.37
580.589	52.51
580.928	52.6
581.267	52.67
581.606	52.73
581.945	52.82
582.283	52.93
582.622	52.99
582.961	53.06
583.3	53.11
583.639	53.2
583.977	53.37
584.316	53.48
584.654	53.59
584.993	53.75
585.332	53.84
585.67	53.93
586.008	54.03
586.347	54.13
586.685	54.2
587.024	54.28
587.362	54.38
587.7	54.44
588.038	54.56
588.376	54.75
588.715	54.86
589.053	54.93
589.391	54.97
589.729	54.99
590.067	55.16
590.404	55.31
590.742	55.41
591.08	55.42
591.418	55.51
591.756	55.54
592.093	55.51
592.431	55.61
592.769	55.79
593.106	55.79
593.444	55.83
593.781	55.97
594.119	56.07
594.456	56.15
594.793	56.18
595.131	56.21
595.468	56.22
595.805	56.25
596.143	56.28
596.48	56.33
596.817	56.43
597.154	56.41
597.491	56.47
597.828	56.5
598.165	56.55
598.502	56.58
598.839	56.65
599.176	56.76
599.512	56.83
599.849	56.8
600.186	56.94
600.523	56.95
600.859	57.01
601.196	57.01
601.532	57.02
601.869	57.03
602.205	57.12
602.542	57.18
602.878	57.23
603.215	57.32
603.551	57.34
603.887	57.35
604.223	57.35
604.56	57.35
604.896	57.43
605.232	57.44
605.568	57.51
605.904	57.52
606.24	57.44
606.576	57.41
606.912	57.44
607.248	57.42
607.583	57.45
607.919	57.42
608.255	57.48
608.591	57.57
608.926	57.73
609.262	57.76
609.597	57.82
609.933	57.89
610.268	57.92
610.604	57.98
610.939	58.05
611.275	58.15
611.61	58.16
611.945	58.19
612.281	58.29
612.616	58.28
612.951	58.23
613.286	58.35
613.621	58.42
613.956	58.44
614.291	58.39
614.626	58.5
614.961	58.56
615.296	58.59
615.631	58.58
615.966	58.57
616.3	58.53
616.635	58.54
616.97	58.56
617.304	58.5
617.639	58.53
617.973	58.45
618.308	58.41
618.642	58.52
618.977	58.43
619.311	58.42
619.646	58.51
619.98	58.56
620.314	58.67
620.648	58.61
620.983	58.71
621.317	58.86
621.651	58.84
621.985	58.86
622.319	58.96
622.653	59.03
622.987	59.07
623.321	59.11
623.655	59.1
623.988	59.07
624.322	59.17
624.656	59.17
624.99	59.28
625.323	59.28
625.657	59.3
625.99	59.36
626.324	59.4
626.657	59.36
626.991	59.41
627.324	59.4
627.658	59.5
627.991	59.49
628.324	59.41
628.657	59.46
628.991	59.5
629.324	59.46
629.657	59.45
629.99	59.41
630.323	59.45
630.656	59.53
630.989	59.59
631.322	59.57
631.655	59.65
631.987	59.62
632.32	59.68
632.653	59.63
632.986	59.66
633.318	59.67
633.651	59.66
633.984	59.71
634.316	59.68
634.649	59.72
634.981	59.7
635.313	59.81
635.646	59.85
635.978	59.8
636.31	59.76
636.643	59.82
636.975	59.83
637.307	59.89
637.639	59.92
637.971	59.95
638.303	59.87
638.635	59.86
638.967	59.91
639.299	59.86
639.631	59.8
639.963	59.81
640.295	59.76
640.626	59.84
640.958	59.84
641.29	59.91
641.621	59.89
641.953	60.01
642.285	59.98
642.616	59.96
642.948	60.07
643.279	60.05
643.61	60.01
643.942	59.93
644.273	60.01
644.604	59.92
644.936	59.82
645.267	59.97
645.598	59.85
645.929	59.88
646.26	59.94
646.591	60.01
646.922	59.99
647.253	60
647.584	59.92
647.915	59.92
648.245	59.92
648.576	59.93
648.907	59.88
649.238	59.83
649.568	59.84
649.899	59.79
650.229	59.89
650.56	59.86
650.89	59.82
651.221	59.71
651.551	59.73
651.882	59.75
652.212	59.64
652.542	59.72
652.872	59.66
653.203	59.65
653.533	59.54
653.863	59.58
654.193	59.45
654.523	59.53
654.853	59.53
655.183	59.55
655.513	59.53
655.843	59.4
656.172	59.56
656.502	59.62
656.832	59.73
657.162	59.71
657.491	59.75
657.821	59.87
658.15	60.01
658.48	59.98
658.809	60.01
659.139	60.07
659.468	60.03
659.798	60
660.127	60.1
660.456	60.17
660.785	60.2
661.115	60.34
