Data from BU57614_Reflection_00001.txt Node
Date: Mon Nov 18 16:24:11 EST 2019
User: vgr7
Spectrometer: USB2G7710
Scans to average: 3
Trigger mode: 4
Integration Time (sec): 2.000000E-2
Electric dark correction enabled: true
Boxcar width: 10
XAxis mode: Wavelengths
Number of Pixels in Spectrum: 2048
>>>>>Begin Spectral Data<<<<<
177.721	226.41
178.105	-2.24
178.488	22.03
178.871	-30.65
179.254	51.56
179.636	-166.99
180.019	109.91
180.402	16.98
180.785	-18.55
181.168	-740.91
181.55	95.38
181.933	105.87
182.316	124.4
182.698	117.81
183.081	124.4
183.463	98.62
183.846	117.78
184.228	153.55
184.611	103.62
184.993	50.69
185.376	-4017.65
185.758	-2106.9
186.14	962.39
186.522	-2001.69
186.904	-354.94
187.287	-319.93
187.669	-120.8
188.051	-212.21
188.433	-51.89
188.815	-45.07
189.197	-49.22
189.579	-26.03
189.961	-9.12
190.342	4.73
190.724	4.63
191.106	-20.21
191.488	-53.62
191.869	-44.53
192.251	-39.38
192.633	-51.5
193.014	-68.49
193.396	-113.25
193.777	-115.11
194.159	-94.06
194.54	-81.18
194.922	-51.73
195.303	-59.6
195.684	-54.34
196.065	-30.85
196.447	-35.33
196.828	-23.57
197.209	-16.39
197.59	-14.51
197.971	-36.05
198.352	-17.62
198.733	-16.43
199.114	-7.6
199.495	1.09
199.876	7.62
200.257	11.76
200.638	19.3
201.018	17.79
201.399	21.03
201.78	27.22
202.16	14.61
202.541	0.13
202.922	-15.6
203.302	-16.52
203.683	-24.13
204.063	-42.8
204.444	-38.07
204.824	-43.07
205.204	-42.82
205.585	-44.65
205.965	-42.21
206.345	-81.6
206.725	-79.54
207.106	-76.09
207.486	-96.87
207.866	-81.12
208.246	-94.33
208.626	-97.47
209.006	-73.85
209.386	-90.16
209.766	-101.79
210.145	-86.56
210.525	-56.8
210.905	-49.86
211.285	-33.22
211.664	-28.2
212.044	-36.55
212.424	-33.02
212.803	-36.47
213.183	-24.94
213.562	-24.94
213.942	-18.84
214.321	-17.54
214.701	-21.06
215.08	-25.96
215.459	-21.4
215.838	-28.02
216.218	-25.23
216.597	-22.25
216.976	-28.75
217.355	-24.79
217.734	-15.98
218.113	-12.6
218.492	-14.7
218.871	-10.22
219.25	-13.09
219.629	-16.33
220.008	-13.82
220.387	-11.73
220.766	-13.77
221.144	-29.83
221.523	-37.87
221.902	-36.7
222.28	-42.71
222.659	-29.83
223.037	-25.86
223.416	-27.27
223.794	-25.93
224.173	-30.7
224.551	-28.83
224.929	-20.97
225.308	-17.84
225.686	-18.84
226.064	-10.78
226.442	-11.78
226.821	-12.1
227.199	-10.87
227.577	-11.47
227.955	-11.6
228.333	-10.55
228.711	-10.79
229.089	-5.55
229.467	-4.6
229.845	-5.05
230.222	-2.81
230.6	-5.17
230.978	-6.18
231.356	-5.29
231.733	-4.82
232.111	-1.72
232.488	-0.19
232.866	-0.22
233.243	-0.96
233.621	-2.51
233.998	-3.1
234.376	-4.05
234.753	-5.47
235.13	-5.33
235.508	-4.18
235.885	-4.21
236.262	-5.75
236.639	-5.17
237.016	-5.49
237.393	-3.48
237.77	-2.23
238.147	-1.56
238.524	-0.93
238.901	0.4
239.278	0.43
239.655	1.45
240.032	1.11
240.409	0.32
240.785	0.33
241.162	0.99
241.539	1.49
241.915	2
242.292	1.75
242.668	1.96
243.045	2.41
243.421	2.06
243.798	2.13
244.174	2.45
244.551	2.66
244.927	2.73
245.303	2.78
245.679	2.59
246.056	2.6
246.432	2.47
246.808	2.48
247.184	2.26
247.56	1.92
247.936	1.75
248.312	2
248.688	1.88
249.064	1.91
249.44	1.98
249.815	1.46
250.191	1.81
250.567	1.75
250.943	1.54
251.318	1.62
251.694	1.55
252.069	1.6
252.445	1.72
252.82	1.8
253.196	1.65
253.571	1.57
253.947	1.49
254.322	1.87
254.697	1.67
255.073	1.84
255.448	1.84
255.823	2.06
256.198	2.12
256.573	2.49
256.948	2.58
257.323	2.5
257.698	2.76
258.073	2.7
258.448	2.67
258.823	2.61
259.198	2.65
259.573	2.71
259.948	2.58
260.322	2.4
260.697	2.46
261.072	2.35
261.446	2.38
261.821	2.3
262.195	2.33
262.57	2.27
262.944	2.15
263.319	2.22
263.693	2.2
264.067	2.32
264.442	2.31
264.816	2.17
265.19	2.18
265.564	2.18
265.938	2.15
266.313	2.26
266.687	2.26
267.061	2.22
267.435	2.24
267.809	2.22
268.183	2.24
268.556	2.02
268.93	2.18
269.304	2.31
269.678	2.33
270.051	2.3
270.425	2.38
270.799	2.54
271.172	2.63
271.546	2.65
271.919	2.33
272.293	2.2
272.666	2.4
273.04	2.35
273.413	2.34
273.787	2.47
274.16	2.49
274.533	2.46
274.906	2.42
275.279	2.37
275.653	2.43
276.026	2.43
276.399	2.49
276.772	2.42
277.145	2.32
277.518	2.35
277.891	2.25
278.263	2.18
278.636	2.1
279.009	1.99
279.382	2.18
279.755	2.25
280.127	2.48
280.5	2.35
280.872	2.34
281.245	2.21
281.617	2.2
281.99	2.17
282.362	2.24
282.735	2.28
283.107	2.32
283.479	2.24
283.852	2.21
284.224	2.17
284.596	2.18
284.968	2.22
285.34	2.27
285.713	2.31
286.085	2.37
286.457	2.44
286.829	2.56
287.201	2.43
287.572	2.54
287.944	2.35
288.316	2.27
288.688	2.34
289.06	2.39
289.431	2.39
289.803	2.4
290.175	2.47
290.546	2.63
290.918	2.62
291.289	2.73
291.661	2.87
292.032	2.93
292.403	3
292.775	3.02
293.146	2.98
293.517	2.96
293.889	2.94
294.26	2.92
294.631	2.97
295.002	2.98
295.373	2.82
295.744	2.86
296.115	2.96
296.486	2.9
296.857	3.04
297.228	3.08
297.599	3.09
297.97	3.08
298.34	3.05
298.711	3.12
299.082	3.04
299.452	2.94
299.823	3.03
300.194	3.02
300.564	2.96
300.935	2.97
301.305	2.97
301.676	3.03
302.046	3.03
302.416	3.1
302.787	3.01
303.157	3.16
303.527	3.25
303.897	3.2
304.267	3.25
304.637	3.17
305.008	3.19
305.378	3.33
305.748	3.29
306.117	3.27
306.487	3.27
306.857	3.41
307.227	3.34
307.597	3.33
307.967	3.37
308.336	3.42
308.706	3.53
309.076	3.5
309.445	3.45
309.815	3.44
310.184	3.26
310.554	3.5
310.923	3.5
311.293	3.45
311.662	3.41
312.031	3.32
312.401	3.4
312.77	3.44
313.139	3.3
313.508	3.28
313.877	3.18
314.246	3.14
314.616	3.13
314.985	3.23
315.353	3.14
315.722	3.14
316.091	3.16
316.46	3.07
316.829	3.1
317.198	3.18
317.567	3.24
317.935	3.2
318.304	2.92
318.672	2.91
319.041	2.98
319.41	2.97
319.778	3.17
320.147	3.03
320.515	2.95
320.883	3.05
321.252	3.2
321.62	3.34
321.988	3.35
322.357	3.25
322.725	3.26
323.093	3.33
323.461	3.22
323.829	3.19
324.197	3.32
324.565	3.42
324.933	3.38
325.301	3.4
325.669	3.5
326.037	3.74
326.405	3.73
326.772	3.7
327.14	3.81
327.508	3.63
327.875	3.6
328.243	3.59
328.61	3.5
328.978	3.47
329.346	3.5
329.713	3.56
330.08	3.64
330.448	3.7
330.815	3.58
331.182	3.68
331.55	3.76
331.917	3.67
332.284	3.72
332.651	3.7
333.018	3.77
333.385	3.76
333.752	3.53
334.119	3.54
334.486	3.42
334.853	3.4
335.22	3.52
335.587	3.62
335.954	3.57
336.32	3.59
336.687	3.55
337.054	3.41
337.42	3.31
337.787	3.28
338.153	3.23
338.52	3.35
338.886	3.23
339.253	3.14
339.619	3.08
339.986	2.99
340.352	2.93
340.718	2.84
341.084	2.8
341.451	2.88
341.817	2.84
342.183	2.93
342.549	2.84
342.915	2.85
343.281	2.87
343.647	2.81
344.013	2.79
344.379	2.73
344.745	2.69
345.11	2.79
345.476	2.8
345.842	2.8
346.208	2.77
346.573	2.8
346.939	2.86
347.304	2.8
347.67	2.79
348.035	2.87
348.401	2.88
348.766	2.91
349.132	2.9
349.497	2.91
349.862	2.96
350.228	3.06
350.593	2.99
350.958	2.94
351.323	2.99
351.688	3.01
352.053	3.19
352.418	3.29
352.783	3.35
353.148	3.36
353.513	3.35
353.878	3.33
354.243	3.43
354.608	3.46
354.972	3.59
355.337	3.63
355.702	3.68
356.066	3.74
356.431	3.71
356.795	3.73
357.16	3.75
357.524	3.69
357.889	3.64
358.253	3.7
358.618	3.78
358.982	3.76
359.346	3.76
359.71	3.7
360.075	3.73
360.439	3.69
360.803	3.7
361.167	3.72
361.531	3.78
361.895	3.72
362.259	3.71
362.623	3.7
362.987	3.74
363.351	3.69
363.714	3.72
364.078	3.71
364.442	3.67
364.806	3.65
365.169	3.67
365.533	3.73
365.896	3.74
366.26	3.73
366.623	3.75
366.987	3.82
367.35	3.82
367.714	3.8
368.077	3.76
368.44	3.72
368.803	3.68
369.167	3.6
369.53	3.58
369.893	3.58
370.256	3.56
370.619	3.48
370.982	3.49
371.345	3.49
371.708	3.52
372.071	3.52
372.434	3.52
372.797	3.56
373.159	3.48
373.522	3.52
373.885	3.5
374.247	3.54
374.61	3.5
374.973	3.45
375.335	3.48
375.698	3.51
376.06	3.62
376.423	3.66
376.785	3.72
377.147	3.76
377.51	3.75
377.872	3.79
378.234	3.76
378.596	3.71
378.958	3.65
379.321	3.66
379.683	3.7
380.045	3.71
380.407	3.6
380.769	3.64
381.13	3.62
381.492	3.62
381.854	3.62
382.216	3.61
382.578	3.63
382.939	3.61
383.301	3.59
383.663	3.52
384.024	3.44
384.386	3.45
384.747	3.41
385.109	3.45
385.47	3.45
385.832	3.48
386.193	3.54
386.554	3.54
386.916	3.55
387.277	3.52
387.638	3.56
387.999	3.63
388.36	3.62
388.721	3.62
389.082	3.6
389.443	3.58
389.804	3.61
390.165	3.64
390.526	3.64
390.887	3.62
391.248	3.64
391.609	3.66
391.969	3.66
392.33	3.68
392.691	3.69
393.051	3.67
393.412	3.67
393.772	3.64
394.133	3.63
394.493	3.61
394.854	3.6
395.214	3.6
395.574	3.62
395.935	3.63
396.295	3.66
396.655	3.65
397.015	3.65
397.376	3.66
397.736	3.66
398.096	3.66
398.456	3.67
398.816	3.66
399.176	3.67
399.535	3.68
399.895	3.67
400.255	3.63
400.615	3.6
400.975	3.6
401.334	3.6
401.694	3.63
402.054	3.63
402.413	3.67
402.773	3.67
403.132	3.61
403.492	3.61
403.851	3.56
404.211	3.56
404.57	3.56
404.929	3.55
405.288	3.54
405.648	3.54
406.007	3.55
406.366	3.56
406.725	3.56
407.084	3.56
407.443	3.56
407.802	3.59
408.161	3.62
408.52	3.63
408.879	3.67
409.238	3.69
409.596	3.71
409.955	3.68
410.314	3.69
410.673	3.72
411.031	3.69
411.39	3.7
411.748	3.75
412.107	3.75
412.465	3.74
412.824	3.75
413.182	3.75
413.54	3.75
413.899	3.74
414.257	3.75
414.615	3.74
414.974	3.75
415.332	3.71
415.69	3.71
416.048	3.69
416.406	3.68
416.764	3.63
417.122	3.64
417.48	3.63
417.838	3.64
418.195	3.64
418.553	3.66
418.911	3.66
419.269	3.65
419.626	3.66
419.984	3.66
420.342	3.67
420.699	3.67
421.057	3.66
421.414	3.63
421.772	3.63
422.129	3.64
422.486	3.64
422.844	3.66
423.201	3.66
423.558	3.67
423.915	3.68
424.273	3.71
424.63	3.72
424.987	3.72
425.344	3.72
425.701	3.72
426.058	3.71
426.415	3.72
426.772	3.7
427.128	3.7
427.485	3.7
427.842	3.69
428.199	3.71
428.555	3.72
428.912	3.74
429.269	3.76
429.625	3.74
429.982	3.74
430.338	3.73
430.695	3.73
431.051	3.72
431.407	3.7
431.764	3.68
432.12	3.67
432.476	3.68
432.832	3.66
433.189	3.67
433.545	3.68
433.901	3.68
434.257	3.67
434.613	3.68
434.969	3.69
435.325	3.7
435.681	3.69
436.036	3.69
436.392	3.7
436.748	3.69
437.104	3.7
437.459	3.68
437.815	3.69
438.171	3.68
438.526	3.68
438.882	3.71
439.237	3.73
439.593	3.73
439.948	3.73
440.304	3.73
440.659	3.74
441.014	3.74
441.369	3.72
441.725	3.72
442.08	3.73
442.435	3.72
442.79	3.7
443.145	3.71
443.5	3.72
443.855	3.72
444.21	3.7
444.565	3.71
444.92	3.72
445.275	3.71
445.629	3.72
445.984	3.73
446.339	3.7
446.693	3.68
447.048	3.67
447.403	3.66
447.757	3.67
448.112	3.66
448.466	3.65
448.82	3.67
449.175	3.68
449.529	3.68
449.883	3.68
450.238	3.69
450.592	3.7
450.946	3.69
451.3	3.69
451.654	3.71
452.008	3.71
452.362	3.7
452.716	3.71
453.07	3.73
453.424	3.73
453.778	3.74
454.132	3.74
454.486	3.74
454.839	3.75
455.193	3.74
455.547	3.74
455.9	3.75
456.254	3.74
456.607	3.73
456.961	3.72
457.314	3.73
457.668	3.72
458.021	3.69
458.375	3.69
458.728	3.71
459.081	3.72
459.434	3.71
459.787	3.73
460.141	3.73
460.494	3.7
460.847	3.71
461.2	3.72
461.553	3.74
461.906	3.75
462.259	3.74
462.611	3.74
462.964	3.75
463.317	3.76
463.67	3.78
464.022	3.78
464.375	3.79
464.728	3.78
465.08	3.79
465.433	3.82
465.785	3.81
466.138	3.79
466.49	3.78
466.843	3.79
467.195	3.79
467.547	3.79
467.899	3.79
468.252	3.79
468.604	3.77
468.956	3.75
469.308	3.75
469.66	3.76
470.012	3.77
470.364	3.76
470.716	3.75
471.068	3.73
471.42	3.71
471.772	3.73
472.123	3.73
472.475	3.73
472.827	3.74
473.178	3.75
473.53	3.75
473.882	3.75
474.233	3.75
474.585	3.73
474.936	3.72
475.288	3.72
475.639	3.74
475.99	3.75
476.342	3.77
476.693	3.78
477.044	3.78
477.395	3.78
477.746	3.78
478.097	3.77
478.448	3.78
478.8	3.8
479.15	3.77
479.501	3.77
479.852	3.76
480.203	3.77
480.554	3.77
480.905	3.81
481.255	3.82
481.606	3.83
481.957	3.84
482.307	3.85
482.658	3.86
483.009	3.85
483.359	3.85
483.709	3.86
484.06	3.86
484.41	3.87
484.761	3.88
485.111	3.88
485.461	3.9
485.811	3.91
486.162	3.91
486.512	3.93
486.862	3.94
487.212	3.95
487.562	3.95
487.912	3.95
488.262	3.93
488.612	3.93
488.961	3.93
489.311	3.94
489.661	3.93
490.011	3.93
490.36	3.94
490.71	3.94
491.06	3.94
491.409	3.94
491.759	3.94
492.108	3.93
492.458	3.92
492.807	3.89
493.157	3.88
493.506	3.87
493.855	3.85
494.204	3.84
494.554	3.83
494.903	3.82
495.252	3.81
495.601	3.82
495.95	3.81
496.299	3.79
496.648	3.78
496.997	3.78
497.346	3.79
497.695	3.78
498.043	3.78
498.392	3.77
498.741	3.77
499.09	3.77
499.438	3.78
499.787	3.79
500.135	3.82
500.484	3.83
500.832	3.83
501.181	3.85
501.529	3.86
501.878	3.87
502.226	3.89
502.574	3.91
502.923	3.89
503.271	3.9
503.619	3.89
503.967	3.9
504.315	3.9
504.663	3.91
505.011	3.9
505.359	3.88
505.707	3.89
506.055	3.89
506.403	3.89
506.751	3.91
507.098	3.91
507.446	3.9
507.794	3.9
508.141	3.92
508.489	3.92
508.837	3.93
509.184	3.94
509.531	3.94
509.879	3.92
510.226	3.96
510.574	3.95
510.921	3.98
511.268	3.97
511.616	3.96
511.963	3.95
512.31	3.96
512.657	3.98
513.004	3.99
513.351	3.99
513.698	4
514.045	3.98
514.392	3.97
514.739	3.99
515.086	4
515.432	4
515.779	3.99
516.126	3.99
516.473	3.98
516.819	3.99
517.166	4.01
517.512	3.99
517.859	4.02
518.205	4
518.552	4
518.898	3.99
519.245	4
519.591	4
519.937	3.99
520.283	3.99
520.629	3.99
520.976	3.98
521.322	4
521.668	4
522.014	3.99
522.36	4
522.706	4.01
523.052	4.02
523.398	4.02
523.743	4.02
524.089	4.03
524.435	4.01
524.781	4.02
525.126	4.02
525.472	4.04
525.817	4.05
526.163	4.06
526.509	4.07
526.854	4.07
527.199	4.07
527.545	4.06
527.89	4.07
528.235	4.07
528.581	4.07
528.926	4.07
529.271	4.07
529.616	4.05
529.961	4.04
530.306	4.04
530.651	4.03
530.996	4.04
531.341	4.02
531.686	4.03
532.031	4.03
532.376	4.03
532.721	4.03
533.065	4.02
533.41	4.02
533.755	4
534.099	4.01
534.444	4.01
534.788	4.03
535.133	4.03
535.477	4.03
535.822	4.03
536.166	4.02
536.51	4.02
536.855	4.05
537.199	4.03
537.543	4.05
537.887	4.06
538.231	4.07
538.576	4.1
538.92	4.11
539.264	4.11
539.608	4.11
539.951	4.09
540.295	4.1
540.639	4.11
540.983	4.12
541.327	4.12
541.671	4.13
542.014	4.13
542.358	4.13
542.701	4.13
543.045	4.15
543.389	4.14
543.732	4.15
544.075	4.13
544.419	4.15
544.762	4.14
545.105	4.14
545.449	4.14
545.792	4.13
546.135	4.12
546.478	4.12
546.821	4.13
547.165	4.12
547.508	4.14
547.851	4.13
548.194	4.12
548.536	4.08
548.879	4.08
549.222	4.06
549.565	4.06
549.908	4.06
550.25	4.05
550.593	4.07
550.936	4.09
551.278	4.08
551.621	4.1
551.963	4.1
552.306	4.1
552.648	4.11
552.991	4.12
553.333	4.11
553.675	4.12
554.017	4.1
554.36	4.12
554.702	4.1
555.044	4.1
555.386	4.12
555.728	4.15
556.07	4.14
556.412	4.16
556.754	4.16
557.096	4.17
557.438	4.16
557.78	4.16
558.121	4.17
558.463	4.16
558.805	4.15
559.147	4.16
559.488	4.16
559.83	4.13
560.171	4.12
560.513	4.15
560.854	4.13
561.196	4.13
561.537	4.14
561.878	4.14
562.22	4.16
562.561	4.16
562.902	4.18
563.243	4.17
563.584	4.16
563.925	4.16
564.266	4.12
564.607	4.14
564.948	4.18
565.289	4.19
565.63	4.2
565.971	4.2
566.312	4.2
566.653	4.18
566.993	4.22
567.334	4.2
567.675	4.21
568.015	4.23
568.356	4.21
568.696	4.22
569.037	4.21
569.377	4.19
569.718	4.18
570.058	4.18
570.398	4.2
570.739	4.21
571.079	4.2
571.419	4.23
571.759	4.25
572.099	4.21
572.439	4.17
572.779	4.18
573.119	4.19
573.459	4.2
573.799	4.22
574.139	4.2
574.479	4.19
574.819	4.17
575.158	4.15
575.498	4.15
575.838	4.17
576.177	4.16
576.517	4.14
576.856	4.18
577.196	4.14
577.535	4.13
577.875	4.13
578.214	4.13
578.553	4.12
578.893	4.08
579.232	4.1
579.571	4.14
579.91	4.11
580.25	4.09
580.589	4.09
580.928	4.09
581.267	4.09
581.606	4.12
581.945	4.11
582.283	4.1
582.622	4.12
582.961	4.11
583.3	4.12
583.639	4.19
583.977	4.14
584.316	4.17
584.654	4.17
584.993	4.17
585.332	4.21
585.67	4.18
586.008	4.21
586.347	4.19
586.685	4.15
587.024	4.16
587.362	4.2
587.7	4.18
588.038	4.2
588.376	4.21
588.715	4.23
589.053	4.3
589.391	4.31
589.729	4.3
590.067	4.3
590.404	4.29
590.742	4.28
591.08	4.28
591.418	4.27
591.756	4.29
592.093	4.3
592.431	4.29
592.769	4.32
593.106	4.29
593.444	4.28
593.781	4.29
594.119	4.29
594.456	4.31
594.793	4.31
595.131	4.31
595.468	4.32
595.805	4.32
596.143	4.31
596.48	4.33
596.817	4.36
597.154	4.36
597.491	4.38
597.828	4.36
598.165	4.38
598.502	4.4
598.839	4.4
599.176	4.42
599.512	4.42
599.849	4.42
600.186	4.42
600.523	4.45
600.859	4.48
601.196	4.49
601.532	4.45
601.869	4.47
602.205	4.45
602.542	4.46
602.878	4.42
603.215	4.41
603.551	4.4
603.887	4.39
604.223	4.39
604.56	4.42
604.896	4.42
605.232	4.44
605.568	4.42
605.904	4.4
606.24	4.4
606.576	4.42
606.912	4.44
607.248	4.45
607.583	4.47
607.919	4.45
608.255	4.44
608.591	4.45
608.926	4.43
609.262	4.45
609.597	4.43
609.933	4.47
610.268	4.45
610.604	4.49
610.939	4.49
611.275	4.48
611.61	4.44
611.945	4.45
612.281	4.45
612.616	4.47
612.951	4.47
613.286	4.47
613.621	4.46
613.956	4.44
614.291	4.45
614.626	4.43
614.961	4.41
615.296	4.42
615.631	4.38
615.966	4.42
616.3	4.39
616.635	4.43
616.97	4.4
617.304	4.41
617.639	4.38
617.973	4.31
618.308	4.29
618.642	4.3
618.977	4.28
619.311	4.28
619.646	4.27
619.98	4.33
620.314	4.32
620.648	4.3
620.983	4.34
621.317	4.34
621.651	4.3
621.985	4.32
622.319	4.35
622.653	4.4
622.987	4.39
623.321	4.44
623.655	4.44
623.988	4.5
624.322	4.51
624.656	4.5
624.99	4.58
625.323	4.63
625.657	4.64
625.99	4.64
626.324	4.63
626.657	4.66
626.991	4.63
627.324	4.6
627.658	4.59
627.991	4.61
628.324	4.62
628.657	4.63
628.991	4.65
629.324	4.62
629.657	4.62
629.99	4.63
630.323	4.58
630.656	4.58
630.989	4.55
631.322	4.56
631.655	4.58
631.987	4.57
632.32	4.55
632.653	4.52
632.986	4.59
633.318	4.64
633.651	4.6
633.984	4.58
634.316	4.61
634.649	4.62
634.981	4.54
635.313	4.51
635.646	4.47
635.978	4.49
636.31	4.5
636.643	4.46
636.975	4.47
637.307	4.51
637.639	4.5
637.971	4.5
638.303	4.5
638.635	4.45
638.967	4.46
639.299	4.54
639.631	4.56
639.963	4.48
640.295	4.43
640.626	4.47
640.958	4.52
641.29	4.55
641.621	4.57
641.953	4.62
642.285	4.62
642.616	4.71
642.948	4.63
643.279	4.67
643.61	4.69
643.942	4.59
644.273	4.55
644.604	4.48
644.936	4.46
645.267	4.44
645.598	4.48
645.929	4.45
646.26	4.43
646.591	4.41
646.922	4.44
647.253	4.43
647.584	4.42
647.915	4.39
648.245	4.34
648.576	4.32
648.907	4.38
649.238	4.37
649.568	4.34
649.899	4.35
650.229	4.32
650.56	4.32
650.89	4.34
651.221	4.37
651.551	4.39
651.882	4.38
652.212	4.37
652.542	4.38
652.872	4.36
653.203	4.24
653.533	4.3
653.863	4.31
654.193	4.28
654.523	4.25
654.853	4.26
655.183	4.28
655.513	4.24
655.843	4.18
656.172	4.2
656.502	4.29
656.832	4.33
657.162	4.41
657.491	4.41
657.821	4.51
658.15	4.5
658.48	4.55
658.809	4.57
659.139	4.6
659.468	4.63
659.798	4.62
660.127	4.65
660.456	4.62
660.785	4.64
661.115	4.71
661.444	4.73
661.773	4.71
662.102	4.73
662.431	4.83
662.76	4.85
663.089	4.85
663.418	4.72
663.747	4.76
664.076	4.65
664.404	4.69
664.733	4.66
665.062	4.63
665.39	4.61
665.719	4.55
666.048	4.54
666.376	4.52
666.705	4.5
667.033	4.56
667.362	4.56
667.69	4.47
668.018	4.43
668.347	4.39
668.675	4.53
669.003	4.56
669.331	4.58
669.659	4.59
669.987	4.56
670.315	4.61
670.643	4.53
670.971	4.65
671.299	4.7
671.627	4.76
671.955	4.77
672.283	4.81
672.61	4.78
672.938	4.84
673.266	4.8
673.593	4.89
673.921	4.86
674.249	4.79
674.576	4.8
674.904	4.8
675.231	4.84
675.558	4.71
675.886	4.74
676.213	4.81
676.54	4.76
676.867	4.88
677.195	4.93
677.522	4.97
677.849	4.89
