Data from BU57649_Reflection_00004.txt Node
Date: Tue Nov 19 10:55:35 EST 2019
User: vgr7
Spectrometer: USB2G7710
Scans to average: 3
Trigger mode: 4
Integration Time (sec): 2.000000E-2
Electric dark correction enabled: true
Boxcar width: 10
XAxis mode: Wavelengths
Number of Pixels in Spectrum: 2048
>>>>>Begin Spectral Data<<<<<
177.721	40.74
178.105	27.73
178.488	-8.18
178.871	-3.27
179.254	-9.35
179.636	-2.94
180.019	-5.09
180.402	433.33
180.785	182.35
181.168	-4900
181.55	-29.87
181.933	105.92
182.316	69.33
182.698	-85.41
183.081	-62.23
183.463	-8.5
183.846	-38.86
184.228	-28.93
184.611	-11.85
184.993	-2.96
185.376	8.01
185.758	11.86
186.14	3.36
186.522	-1.66
186.904	-1.74
187.287	-0.29
187.669	3.83
188.051	12.1
188.433	7.71
188.815	11.56
189.197	-0.47
189.579	3.67
189.961	3.76
190.342	4.07
190.724	5.56
191.106	3.79
191.488	-1.38
191.869	3.99
192.251	2.34
192.633	-6.98
193.014	-10.48
193.396	-32.77
193.777	-43.83
194.159	-32.5
194.54	-39.07
194.922	-37.27
195.303	-56.15
195.684	-68.71
196.065	-106.59
196.447	-84.06
196.828	-98.82
197.209	-62.13
197.59	-66.23
197.971	-62.1
198.352	-47.23
198.733	-50.33
199.114	-58.56
199.495	-58.89
199.876	-44.64
200.257	-46.9
200.638	-30
201.018	-33.06
201.399	-26.63
201.78	-23.98
202.16	-26.89
202.541	-29.28
202.922	-25.1
203.302	-27.02
203.683	-20.28
204.063	-10.69
204.444	-12.84
204.824	-16.26
205.204	-15.55
205.585	-3.44
205.965	-4.16
206.345	-4.56
206.725	4.59
207.106	6.4
207.486	6.35
207.866	4.05
208.246	10.31
208.626	6.5
209.006	7.26
209.386	4.59
209.766	3.74
210.145	1.2
210.525	2.36
210.905	-0.47
211.285	0.34
211.664	-3.97
212.044	-9.42
212.424	-7.15
212.803	-2.39
213.183	-6.56
213.562	-20.28
213.942	-14.26
214.321	-27.99
214.701	-39.6
215.08	-38.31
215.459	-39.48
215.838	-41.25
216.218	-57.27
216.597	-51.7
216.976	-55.56
217.355	-54.74
217.734	-55.91
218.113	-55.24
218.492	-59.53
218.871	-57.37
219.25	-68.75
219.629	-77.71
220.008	-67.46
220.387	-68.6
220.766	-68.2
221.144	-82.66
221.523	-89.97
221.902	-84.41
222.28	-63.11
222.659	-44.56
223.037	-43.59
223.416	-34.88
223.794	-28.77
224.173	-17.58
224.551	-17.5
224.929	-20.17
225.308	-19.62
225.686	-21.27
226.064	-18.35
226.442	-15.09
226.821	-20.24
227.199	-14.31
227.577	-11
227.955	-10.16
228.333	-11.61
228.711	-9.15
229.089	-5.89
229.467	-3.03
229.845	-4.52
230.222	-5.81
230.6	-8.59
230.978	-5.82
231.356	-5.38
231.733	-6.42
232.111	-8.35
232.488	-9.55
232.866	-8.76
233.243	-8.31
233.621	-7.36
233.998	-7.09
234.376	-7.09
234.753	-4.69
235.13	-5.58
235.508	-5.2
235.885	-5.57
236.262	-4.79
236.639	-5.49
237.016	-4.83
237.393	-4.22
237.77	-3.15
238.147	-2.89
238.524	-1.17
238.901	-1.69
239.278	-0.92
239.655	-0.62
240.032	-0.52
240.409	0.03
240.785	0.2
241.162	0.7
241.539	0.88
241.915	1.04
242.292	1.05
242.668	1.3
243.045	1.62
243.421	1.95
243.798	2.37
244.174	2.76
244.551	3.15
244.927	3.2
245.303	3.07
245.679	3.31
246.056	3.55
246.432	3.6
246.808	3.87
247.184	3.55
247.56	3.54
247.936	3.69
248.312	3.9
248.688	4.31
249.064	4.23
249.44	4.37
249.815	4.36
250.191	4.43
250.567	4.37
250.943	4.41
251.318	4.26
251.694	4.21
252.069	4.17
252.445	4.03
252.82	4.19
253.196	4.22
253.571	4.07
253.947	3.95
254.322	3.54
254.697	3.4
255.073	3.55
255.448	3.36
255.823	3.61
256.198	3.4
256.573	3.2
256.948	3.29
257.323	3.34
257.698	3.43
258.073	3.43
258.448	3.54
258.823	3.44
259.198	3.52
259.573	3.49
259.948	3.42
260.322	3.25
260.697	3.14
261.072	3.29
261.446	3.29
261.821	3.26
262.195	3.36
262.57	3.41
262.944	3.5
263.319	3.55
263.693	3.33
264.067	3.38
264.442	3.46
264.816	3.36
265.19	3.08
265.564	3.03
265.938	3.05
266.313	2.83
266.687	2.95
267.061	2.91
267.435	2.91
267.809	2.89
268.183	2.86
268.556	2.9
268.93	2.83
269.304	2.81
269.678	2.74
270.051	2.67
270.425	2.5
270.799	2.34
271.172	2.45
271.546	2.57
271.919	2.43
272.293	2.51
272.666	2.43
273.04	2.66
273.413	2.65
273.787	2.61
274.16	2.69
274.533	2.7
274.906	2.81
275.279	2.71
275.653	2.74
276.026	2.9
276.399	2.96
276.772	3
277.145	3.08
277.518	3.1
277.891	3.14
278.263	3.31
278.636	3.41
279.009	3.37
279.382	3.2
279.755	3.43
280.127	3.19
280.5	3.34
280.872	3.34
281.245	3.41
281.617	3.36
281.99	3.41
282.362	3.27
282.735	3.17
283.107	3.2
283.479	3.18
283.852	3.11
284.224	3.11
284.596	3.08
284.968	3.04
285.34	2.99
285.713	3.05
286.085	2.98
286.457	2.96
286.829	3.04
287.201	3.1
287.572	3.01
287.944	3.12
288.316	3.14
288.688	3.1
289.06	3.11
289.431	3.16
289.803	3.07
290.175	3.02
290.546	2.99
290.918	3.07
291.289	3.01
291.661	3.04
292.032	3.05
292.403	2.99
292.775	3.05
293.146	3.27
293.517	3.22
293.889	3.29
294.26	3.22
294.631	3.14
295.002	3.18
295.373	3.18
295.744	3.21
296.115	3.21
296.486	3.24
296.857	3.23
297.228	3.16
297.599	3.21
297.97	3.4
298.34	3.52
298.711	3.51
299.082	3.62
299.452	3.56
299.823	3.4
300.194	3.47
300.564	3.38
300.935	3.31
301.305	3.27
301.676	3.24
302.046	3.26
302.416	3.18
302.787	3.22
303.157	3.29
303.527	3.25
303.897	3.15
304.267	3.15
304.637	3.02
305.008	3.1
305.378	2.99
305.748	2.87
306.117	2.68
306.487	2.7
306.857	2.76
307.227	2.98
307.597	3.01
307.967	2.96
308.336	2.96
308.706	2.92
309.076	3.07
309.445	3.11
309.815	3.16
310.184	3.15
310.554	3.1
310.923	2.98
311.293	3.04
311.662	3.08
312.031	3.06
312.401	3.16
312.77	3.15
313.139	3.13
313.508	3.17
313.877	3.18
314.246	3.18
314.616	3.15
314.985	2.99
315.353	3.04
315.722	3
316.091	3.01
316.46	2.92
316.829	2.85
317.198	2.83
317.567	3.01
317.935	3.2
318.304	3.28
318.672	3.29
319.041	3.12
319.41	3.15
319.778	3.05
320.147	2.95
320.515	2.98
320.883	2.96
321.252	2.97
321.62	3.03
321.988	3.02
322.357	2.98
322.725	2.96
323.093	2.98
323.461	3.1
323.829	3.22
324.197	3.25
324.565	3.23
324.933	3.11
325.301	2.93
325.669	2.85
326.037	2.81
326.405	2.76
326.772	2.88
327.14	2.87
327.508	2.88
327.875	2.89
328.243	2.7
328.61	2.77
328.978	2.61
329.346	2.62
329.713	2.61
330.08	2.65
330.448	2.75
330.815	2.81
331.182	2.68
331.55	2.57
331.917	2.58
332.284	2.58
332.651	2.65
333.018	2.72
333.385	2.7
333.752	2.6
334.119	2.79
334.486	2.74
334.853	2.69
335.22	2.77
335.587	2.77
335.954	2.75
336.32	2.73
336.687	2.97
337.054	2.99
337.42	2.88
337.787	2.71
338.153	2.67
338.52	2.63
338.886	2.72
339.253	2.69
339.619	2.76
339.986	2.71
340.352	2.75
340.718	2.76
341.084	2.82
341.451	3.07
341.817	3.01
342.183	3.03
342.549	3.03
342.915	2.98
343.281	2.98
343.647	3.05
344.013	3.06
344.379	2.97
344.745	2.95
345.11	3.05
345.476	3.24
345.842	3.25
346.208	3.24
346.573	3.21
346.939	3.18
347.304	3.12
347.67	3.09
348.035	3.04
348.401	2.99
348.766	2.93
349.132	2.72
349.497	2.62
349.862	2.67
350.228	2.67
350.593	2.67
350.958	2.78
351.323	2.77
351.688	2.83
352.053	2.87
352.418	2.86
352.783	2.76
353.148	2.62
353.513	2.6
353.878	2.56
354.243	2.52
354.608	2.6
354.972	2.51
355.337	2.58
355.702	2.68
356.066	2.68
356.431	2.71
356.795	2.75
357.16	2.74
357.524	2.73
357.889	2.74
358.253	2.74
358.618	2.69
358.982	2.72
359.346	2.71
359.71	2.68
360.075	2.69
360.439	2.78
360.803	2.85
361.167	2.86
361.531	2.88
361.895	2.95
362.259	2.94
362.623	3.03
362.987	3.06
363.351	3.03
363.714	3.02
364.078	3.03
364.442	3.04
364.806	3.14
365.169	3.13
365.533	3.19
365.896	3.23
366.26	3.18
366.623	3.15
366.987	3.2
367.35	3.21
367.714	3.21
368.077	3.21
368.44	3.17
368.803	3.18
369.167	3.17
369.53	3.13
369.893	3.14
370.256	3.05
370.619	2.96
370.982	2.87
371.345	2.96
371.708	2.98
372.071	2.97
372.434	2.98
372.797	2.97
373.159	2.9
373.522	2.86
373.885	2.94
374.247	2.99
374.61	2.92
374.973	2.97
375.335	2.98
375.698	2.95
376.06	2.97
376.423	2.95
376.785	2.98
377.147	3
377.51	2.97
377.872	3.03
378.234	3.09
378.596	3.08
378.958	3
379.321	2.96
379.683	2.98
380.045	2.92
380.407	2.91
380.769	2.92
381.13	2.9
381.492	2.84
381.854	2.81
382.216	2.83
382.578	2.84
382.939	2.81
383.301	2.8
383.663	2.75
384.024	2.75
384.386	2.75
384.747	2.76
385.109	2.77
385.47	2.81
385.832	2.77
386.193	2.8
386.554	2.79
386.916	2.79
387.277	2.73
387.638	2.76
387.999	2.76
388.36	2.76
388.721	2.79
389.082	2.85
389.443	2.88
389.804	2.85
390.165	2.81
390.526	2.79
390.887	2.8
391.248	2.83
391.609	2.86
391.969	2.82
392.33	2.78
392.691	2.81
393.051	2.8
393.412	2.82
393.772	2.82
394.133	2.8
394.493	2.76
394.854	2.8
395.214	2.82
395.574	2.84
395.935	2.8
396.295	2.79
396.655	2.75
397.015	2.74
397.376	2.76
397.736	2.73
398.096	2.75
398.456	2.74
398.816	2.72
399.176	2.69
399.535	2.72
399.895	2.71
400.255	2.67
400.615	2.66
400.975	2.68
401.334	2.68
401.694	2.72
402.054	2.79
402.413	2.79
402.773	2.75
403.132	2.73
403.492	2.77
403.851	2.76
404.211	2.79
404.57	2.8
404.929	2.79
405.288	2.82
405.648	2.82
406.007	2.8
406.366	2.81
406.725	2.81
407.084	2.81
407.443	2.83
407.802	2.84
408.161	2.84
408.52	2.84
408.879	2.85
409.238	2.82
409.596	2.8
409.955	2.79
410.314	2.83
410.673	2.83
411.031	2.81
411.39	2.81
411.748	2.79
412.107	2.78
412.465	2.77
412.824	2.78
413.182	2.8
413.54	2.83
413.899	2.84
414.257	2.87
414.615	2.86
414.974	2.88
415.332	2.87
415.69	2.89
416.048	2.9
416.406	2.87
416.764	2.87
417.122	2.85
417.48	2.84
417.838	2.82
418.195	2.83
418.553	2.82
418.911	2.81
419.269	2.83
419.626	2.84
419.984	2.84
420.342	2.85
420.699	2.85
421.057	2.85
421.414	2.85
421.772	2.85
422.129	2.84
422.486	2.84
422.844	2.83
423.201	2.83
423.558	2.82
423.915	2.82
424.273	2.82
424.63	2.83
424.987	2.84
425.344	2.84
425.701	2.85
426.058	2.86
426.415	2.85
426.772	2.84
427.128	2.84
427.485	2.84
427.842	2.81
428.199	2.78
428.555	2.77
428.912	2.75
429.269	2.72
429.625	2.73
429.982	2.73
430.338	2.73
430.695	2.7
431.051	2.69
431.407	2.72
431.764	2.73
432.12	2.75
432.476	2.75
432.832	2.76
433.189	2.75
433.545	2.75
433.901	2.76
434.257	2.76
434.613	2.77
434.969	2.77
435.325	2.78
435.681	2.8
436.036	2.8
436.392	2.81
436.748	2.84
437.104	2.81
437.459	2.8
437.815	2.8
438.171	2.82
438.526	2.83
438.882	2.83
439.237	2.81
439.593	2.81
439.948	2.8
440.304	2.78
440.659	2.8
441.014	2.8
441.369	2.79
441.725	2.79
442.08	2.77
442.435	2.76
442.79	2.76
443.145	2.75
443.5	2.74
443.855	2.74
444.21	2.72
444.565	2.74
444.92	2.75
445.275	2.73
445.629	2.72
445.984	2.73
446.339	2.72
446.693	2.72
447.048	2.71
447.403	2.7
447.757	2.69
448.112	2.67
448.466	2.66
448.82	2.68
449.175	2.67
449.529	2.68
449.883	2.7
450.238	2.68
450.592	2.68
450.946	2.68
451.3	2.68
451.654	2.68
452.008	2.66
452.362	2.65
452.716	2.65
453.07	2.65
453.424	2.66
453.778	2.64
454.132	2.66
454.486	2.67
454.839	2.68
455.193	2.71
455.547	2.72
455.9	2.73
456.254	2.71
456.607	2.73
456.961	2.73
457.314	2.72
457.668	2.73
458.021	2.75
458.375	2.76
458.728	2.77
459.081	2.77
459.434	2.78
459.787	2.79
460.141	2.79
460.494	2.8
460.847	2.78
461.2	2.79
461.553	2.8
461.906	2.8
462.259	2.79
462.611	2.79
462.964	2.78
463.317	2.78
463.67	2.78
464.022	2.78
464.375	2.79
464.728	2.79
465.08	2.8
465.433	2.78
465.785	2.79
466.138	2.79
466.49	2.8
466.843	2.83
467.195	2.82
467.547	2.82
467.899	2.83
468.252	2.85
468.604	2.84
468.956	2.84
469.308	2.82
469.66	2.84
470.012	2.84
470.364	2.84
470.716	2.85
471.068	2.87
471.42	2.86
471.772	2.84
472.123	2.86
472.475	2.87
472.827	2.88
473.178	2.87
473.53	2.89
473.882	2.9
474.233	2.86
474.585	2.86
474.936	2.87
475.288	2.87
475.639	2.89
475.99	2.89
476.342	2.91
476.693	2.9
477.044	2.92
477.395	2.91
477.746	2.92
478.097	2.92
478.448	2.91
478.8	2.91
479.15	2.92
479.501	2.92
479.852	2.91
480.203	2.9
480.554	2.9
480.905	2.9
481.255	2.89
481.606	2.91
481.957	2.93
482.307	2.92
482.658	2.93
483.009	2.94
483.359	2.94
483.709	2.93
484.06	2.95
484.41	2.94
484.761	2.94
485.111	2.94
485.461	2.94
485.811	2.94
486.162	2.94
486.512	2.94
486.862	2.94
487.212	2.94
487.562	2.94
487.912	2.96
488.262	2.96
488.612	2.96
488.961	2.96
489.311	2.95
489.661	2.95
490.011	2.94
490.36	2.93
490.71	2.92
491.06	2.93
491.409	2.92
491.759	2.92
492.108	2.91
492.458	2.9
492.807	2.89
493.157	2.89
493.506	2.9
493.855	2.91
494.204	2.91
494.554	2.9
494.903	2.9
495.252	2.87
495.601	2.87
495.95	2.86
496.299	2.87
496.648	2.89
496.997	2.89
497.346	2.91
497.695	2.91
498.043	2.92
498.392	2.92
498.741	2.93
499.09	2.95
499.438	2.98
499.787	2.99
500.135	3
500.484	3.02
500.832	3.01
501.181	3.01
501.529	3.02
501.878	3.03
502.226	3.05
502.574	3.08
502.923	3.07
503.271	3.08
503.619	3.06
503.967	3.05
504.315	3.06
504.663	3.03
505.011	3.05
505.359	3.03
505.707	3.03
506.055	3.02
506.403	3.02
506.751	3
507.098	2.99
507.446	3.02
507.794	3.01
508.141	3.01
508.489	3.03
508.837	3.01
509.184	3.02
509.531	3.02
509.879	2.99
510.226	3
510.574	3
510.921	3
511.268	3.02
511.616	3.03
511.963	3.06
512.31	3.05
512.657	3.08
513.004	3.09
513.351	3.1
513.698	3.1
514.045	3.13
514.392	3.13
514.739	3.13
515.086	3.14
515.432	3.16
515.779	3.15
516.126	3.17
516.473	3.18
516.819	3.17
517.166	3.19
517.512	3.2
517.859	3.21
518.205	3.21
518.552	3.2
518.898	3.17
519.245	3.18
519.591	3.18
519.937	3.17
520.283	3.18
520.629	3.18
520.976	3.17
521.322	3.15
521.668	3.16
522.014	3.16
522.36	3.16
522.706	3.15
523.052	3.15
523.398	3.13
523.743	3.15
524.089	3.16
524.435	3.18
524.781	3.19
525.126	3.2
525.472	3.21
525.817	3.22
526.163	3.23
526.509	3.22
526.854	3.23
527.199	3.23
527.545	3.23
527.89	3.24
528.235	3.24
528.581	3.25
528.926	3.24
529.271	3.24
529.616	3.25
529.961	3.25
530.306	3.27
530.651	3.28
530.996	3.27
531.341	3.27
531.686	3.27
532.031	3.26
532.376	3.26
532.721	3.26
533.065	3.26
533.41	3.27
533.755	3.28
534.099	3.29
534.444	3.28
534.788	3.27
535.133	3.27
535.477	3.27
535.822	3.28
536.166	3.29
536.51	3.3
536.855	3.29
537.199	3.29
537.543	3.27
537.887	3.27
538.231	3.27
538.576	3.27
538.92	3.27
539.264	3.28
539.608	3.29
539.951	3.27
540.295	3.27
540.639	3.28
540.983	3.27
541.327	3.27
541.671	3.27
542.014	3.3
542.358	3.3
542.701	3.31
543.045	3.3
543.389	3.3
543.732	3.3
544.075	3.3
544.419	3.32
544.762	3.34
545.105	3.35
545.449	3.36
545.792	3.36
546.135	3.37
546.478	3.37
546.821	3.37
547.165	3.38
547.508	3.38
547.851	3.36
548.194	3.36
548.536	3.35
548.879	3.36
549.222	3.33
549.565	3.32
549.908	3.33
550.25	3.34
550.593	3.33
550.936	3.35
551.278	3.35
551.621	3.33
551.963	3.31
552.306	3.3
552.648	3.29
552.991	3.3
553.333	3.26
553.675	3.27
554.017	3.27
554.36	3.3
554.702	3.29
555.044	3.33
555.386	3.35
555.728	3.35
556.07	3.34
556.412	3.33
556.754	3.34
557.096	3.34
557.438	3.33
557.78	3.34
558.121	3.33
558.463	3.33
558.805	3.37
559.147	3.37
559.488	3.34
559.83	3.34
560.171	3.31
560.513	3.32
560.854	3.29
561.196	3.28
561.537	3.26
561.878	3.24
562.22	3.23
562.561	3.22
562.902	3.23
563.243	3.24
563.584	3.26
563.925	3.27
564.266	3.25
564.607	3.25
564.948	3.25
565.289	3.26
565.63	3.22
565.971	3.2
566.312	3.19
566.653	3.24
566.993	3.25
567.334	3.25
567.675	3.25
568.015	3.27
568.356	3.26
568.696	3.28
569.037	3.29
569.377	3.3
569.718	3.29
570.058	3.29
570.398	3.27
570.739	3.26
571.079	3.24
571.419	3.25
571.759	3.23
572.099	3.2
572.439	3.18
572.779	3.21
573.119	3.21
573.459	3.23
573.799	3.2
574.139	3.2
574.479	3.22
574.819	3.25
575.158	3.27
575.498	3.27
575.838	3.25
576.177	3.25
576.517	3.24
576.856	3.23
577.196	3.24
577.535	3.24
577.875	3.23
578.214	3.26
578.553	3.25
578.893	3.28
579.232	3.31
579.571	3.36
579.91	3.34
580.25	3.36
580.589	3.33
580.928	3.36
581.267	3.37
581.606	3.38
581.945	3.33
582.283	3.32
582.622	3.31
582.961	3.32
583.3	3.32
583.639	3.33
583.977	3.34
584.316	3.33
584.654	3.37
584.993	3.37
585.332	3.37
585.67	3.39
586.008	3.36
586.347	3.39
586.685	3.35
587.024	3.34
587.362	3.32
587.7	3.36
588.038	3.35
588.376	3.31
588.715	3.29
589.053	3.32
589.391	3.33
589.729	3.37
590.067	3.36
590.404	3.36
590.742	3.33
591.08	3.34
591.418	3.36
591.756	3.36
592.093	3.36
592.431	3.34
592.769	3.33
593.106	3.33
593.444	3.3
593.781	3.34
594.119	3.33
594.456	3.3
594.793	3.31
595.131	3.32
595.468	3.38
595.805	3.4
596.143	3.39
596.48	3.4
596.817	3.39
597.154	3.38
597.491	3.38
597.828	3.41
598.165	3.4
598.502	3.37
598.839	3.37
599.176	3.38
599.512	3.4
599.849	3.42
600.186	3.42
600.523	3.43
600.859	3.4
601.196	3.41
601.532	3.4
601.869	3.38
602.205	3.34
602.542	3.34
602.878	3.36
603.215	3.37
603.551	3.35
603.887	3.34
604.223	3.34
604.56	3.34
604.896	3.36
605.232	3.37
605.568	3.36
605.904	3.35
606.24	3.34
606.576	3.36
606.912	3.35
607.248	3.33
607.583	3.32
607.919	3.34
608.255	3.36
608.591	3.4
608.926	3.38
609.262	3.39
609.597	3.4
609.933	3.32
610.268	3.32
610.604	3.32
610.939	3.31
611.275	3.3
611.61	3.3
611.945	3.24
612.281	3.26
612.616	3.31
612.951	3.33
613.286	3.32
613.621	3.27
613.956	3.27
614.291	3.26
614.626	3.28
614.961	3.27
615.296	3.26
615.631	3.24
615.966	3.25
616.3	3.26
616.635	3.25
616.97	3.3
617.304	3.29
617.639	3.32
617.973	3.33
618.308	3.38
618.642	3.37
618.977	3.38
619.311	3.37
619.646	3.3
619.98	3.28
620.314	3.3
620.648	3.31
620.983	3.36
621.317	3.42
621.651	3.42
621.985	3.41
622.319	3.39
622.653	3.4
622.987	3.39
623.321	3.37
623.655	3.37
623.988	3.38
624.322	3.44
624.656	3.4
624.99	3.41
625.323	3.38
625.657	3.38
625.99	3.41
626.324	3.36
626.657	3.37
626.991	3.4
627.324	3.35
627.658	3.34
627.991	3.34
628.324	3.32
628.657	3.32
628.991	3.37
629.324	3.37
629.657	3.36
629.99	3.38
630.323	3.42
630.656	3.38
630.989	3.38
631.322	3.29
631.655	3.29
631.987	3.28
632.32	3.31
632.653	3.32
632.986	3.32
633.318	3.37
633.651	3.41
633.984	3.4
634.316	3.45
634.649	3.43
634.981	3.4
635.313	3.37
635.646	3.43
635.978	3.43
636.31	3.42
636.643	3.45
636.975	3.46
637.307	3.4
637.639	3.45
637.971	3.45
638.303	3.48
638.635	3.53
638.967	3.51
639.299	3.46
639.631	3.44
639.963	3.44
640.295	3.45
640.626	3.43
640.958	3.35
641.29	3.36
641.621	3.38
641.953	3.4
642.285	3.47
642.616	3.37
642.948	3.33
643.279	3.31
643.61	3.34
643.942	3.29
644.273	3.36
644.604	3.28
644.936	3.31
645.267	3.3
645.598	3.3
645.929	3.29
646.26	3.3
646.591	3.31
646.922	3.35
647.253	3.33
647.584	3.35
647.915	3.42
648.245	3.42
648.576	3.46
648.907	3.46
649.238	3.44
649.568	3.46
649.899	3.43
650.229	3.47
650.56	3.46
650.89	3.54
651.221	3.46
651.551	3.55
651.882	3.49
652.212	3.54
652.542	3.52
652.872	3.56
653.203	3.56
653.533	3.6
653.863	3.58
654.193	3.55
654.523	3.49
654.853	3.52
655.183	3.49
655.513	3.47
655.843	3.47
656.172	3.52
656.502	3.48
656.832	3.49
657.162	3.46
657.491	3.46
657.821	3.36
658.15	3.42
658.48	3.4
658.809	3.45
659.139	3.39
659.468	3.42
659.798	3.43
660.127	3.45
660.456	3.39
660.785	3.39
661.115	3.4
661.444	3.45
661.773	3.49
662.102	3.5
662.431	3.48
662.76	3.44
663.089	3.4
663.418	3.41
663.747	3.42
664.076	3.5
664.404	3.5
664.733	3.58
665.062	3.62
665.39	3.63
665.719	3.6
666.048	3.64
666.376	3.65
666.705	3.64
667.033	3.62
667.362	3.65
667.69	3.67
668.018	3.68
668.347	3.68
668.675	3.63
669.003	3.66
669.331	3.71
669.659	3.74
669.987	3.71
670.315	3.78
670.643	3.77
670.971	3.68
671.299	3.69
671.627	3.7
671.955	3.63
672.283	3.57
672.61	3.54
672.938	3.52
673.266	3.44
673.593	3.38
673.921	3.34
674.249	3.36
674.576	3.36
674.904	3.37
675.231	3.38
675.558	3.42
675.886	3.4
676.213	3.39
676.54	3.35
676.867	3.37
677.195	3.33
677.522	3.42
677.849	3.49
678.176	3.53
678.503	3.46
678.83	3.5
