Data from BU57737_Reflection_00007.txt Node
Date: Mon Nov 18 16:29:49 EST 2019
User: vgr7
Spectrometer: USB2G7710
Scans to average: 3
Trigger mode: 4
Integration Time (sec): 2.000000E-2
Electric dark correction enabled: true
Boxcar width: 10
XAxis mode: Wavelengths
Number of Pixels in Spectrum: 2048
>>>>>Begin Spectral Data<<<<<
177.721	155.45
178.105	-519.05
178.488	-95.54
178.871	-57.34
179.254	-29.28
179.636	-144.9
180.019	-106.9
180.402	80.77
180.785	-62.16
181.168	-864.29
181.55	118.02
181.933	85.61
182.316	69.81
182.698	103.43
183.081	157.14
183.463	125.97
183.846	21.75
184.228	29.36
184.611	61.45
184.993	10.17
185.376	0.22
185.758	-0.56
186.14	31.57
186.522	23.34
186.904	27.76
187.287	36.45
187.669	57.5
188.051	82.12
188.433	133.41
188.815	140.71
189.197	88.48
189.579	112.12
189.961	267.49
190.342	404.09
190.724	367.72
191.106	-1726.09
191.488	38100
191.869	-179.57
192.251	-260.52
192.633	-173.46
193.014	-118.51
193.396	-123.23
193.777	-114.58
194.159	-128.15
194.54	-102.25
194.922	-82.44
195.303	-81.41
195.684	-69.62
196.065	-50.86
196.447	-58.34
196.828	-72.56
197.209	-50.92
197.59	-49.97
197.971	-44.68
198.352	-30.07
198.733	-41.02
199.114	-56.81
199.495	-73.78
199.876	-44.08
200.257	-39.89
200.638	-26.86
201.018	-32.9
201.399	-44.56
201.78	-36.55
202.16	-18.6
202.541	-33.55
202.922	-31.36
203.302	1.64
203.683	-20.08
204.063	-55.48
204.444	-152.1
204.824	-4.53
205.204	17.95
205.585	71.33
205.965	43.43
206.345	-12.55
206.725	-41.94
207.106	-108.09
207.486	-153.28
207.866	-533.66
208.246	4645.45
208.626	20766.67
209.006	-321.62
209.386	944.44
209.766	298.58
210.145	566.02
210.525	-85.79
210.905	-97.57
211.285	-67.32
211.664	-57.25
212.044	-53.69
212.424	-63.05
212.803	-97.18
213.183	-94.25
213.562	-92.55
213.942	-110.98
214.321	-60
214.701	-49.51
215.08	-34.11
215.459	-33.78
215.838	-32.3
216.218	-26.75
216.597	-26.85
216.976	-39.51
217.355	-34.38
217.734	-30.1
218.113	-26.7
218.492	-26.12
218.871	-34.23
219.25	-62.2
219.629	-66.52
220.008	-71.28
220.387	-44.56
220.766	-38.99
221.144	-47.89
221.523	-62.81
221.902	-53.62
222.28	-87.67
222.659	-78.48
223.037	-83.98
223.416	-59.87
223.794	-56.58
224.173	-56.91
224.551	-32.6
224.929	-28.11
225.308	-26.86
225.686	-24.33
226.064	-22.23
226.442	-19.61
226.821	-14.96
227.199	-11.66
227.577	-15.35
227.955	-13.24
228.333	-13.97
228.711	-11.73
229.089	-8.08
229.467	-8.03
229.845	-10.08
230.222	-6.44
230.6	-8.28
230.978	-3.64
231.356	-2.52
231.733	-1.06
232.111	1.44
232.488	2.57
232.866	3.54
233.243	4.17
233.621	0.6
233.998	2.46
234.376	1.34
234.753	0.89
235.13	2
235.508	3.56
235.885	2.7
236.262	2.08
236.639	2.83
237.016	2.5
237.393	4.14
237.77	4.49
238.147	3.72
238.524	3.63
238.901	2.67
239.278	2.17
239.655	3.2
240.032	2.66
240.409	2.52
240.785	2.62
241.162	2.4
241.539	3.65
241.915	3.5
242.292	3.02
242.668	3.5
243.045	3.13
243.421	2.79
243.798	2.73
244.174	2.92
244.551	2.79
244.927	2.8
245.303	2.75
245.679	2.94
246.056	3.07
246.432	3.27
246.808	3.13
247.184	2.86
247.56	2.67
247.936	2.67
248.312	2.29
248.688	2.43
249.064	2.33
249.44	2.05
249.815	2.07
250.191	2.23
250.567	2.13
250.943	2.09
251.318	2.48
251.694	2.77
252.069	2.91
252.445	3.25
252.82	3.31
253.196	3.14
253.571	3.05
253.947	3.24
254.322	3.23
254.697	3.5
255.073	3.44
255.448	3.11
255.823	3.14
256.198	3.23
256.573	3
256.948	3.11
257.323	3.2
257.698	3.14
258.073	3.16
258.448	2.99
258.823	3.21
259.198	3.05
259.573	2.78
259.948	2.58
260.322	2.52
260.697	2.34
261.072	2.45
261.446	2.32
261.821	2.24
262.195	2.32
262.57	2.16
262.944	2.24
263.319	2.26
263.693	2.24
264.067	2.29
264.442	2.37
264.816	2.22
265.19	2.11
265.564	1.9
265.938	1.73
266.313	1.53
266.687	1.43
267.061	1.71
267.435	1.96
267.809	1.95
268.183	1.81
268.556	1.87
268.93	1.8
269.304	2.03
269.678	1.98
270.051	1.78
270.425	2.05
270.799	2.07
271.172	2.08
271.546	1.95
271.919	1.88
272.293	1.69
272.666	1.86
273.04	1.98
273.413	2.17
273.787	2.28
274.16	2.51
274.533	2.52
274.906	2.27
275.279	2.18
275.653	2.25
276.026	2.29
276.399	2.22
276.772	2.26
277.145	2.14
277.518	2.22
277.891	2.37
278.263	2.22
278.636	2.29
279.009	2.22
279.382	2.48
279.755	2.5
280.127	2.87
280.5	2.95
280.872	3.02
281.245	2.92
281.617	3.08
281.99	3.02
282.362	3.14
282.735	3.04
283.107	3
283.479	3.04
283.852	2.91
284.224	2.96
284.596	2.93
284.968	2.91
285.34	2.88
285.713	2.88
286.085	2.79
286.457	2.79
286.829	2.94
287.201	2.76
287.572	2.74
287.944	2.44
288.316	2.37
288.688	2.16
289.06	2.24
289.431	2.18
289.803	2.17
290.175	2.17
290.546	2.35
290.918	2.3
291.289	2.25
291.661	2.39
292.032	2.44
292.403	2.48
292.775	2.53
293.146	2.61
293.517	2.55
293.889	2.63
294.26	2.64
294.631	2.59
295.002	2.62
295.373	2.69
295.744	2.86
296.115	2.82
296.486	2.87
296.857	2.83
297.228	2.86
297.599	2.83
297.97	2.76
298.34	2.72
298.711	2.81
299.082	2.83
299.452	2.87
299.823	3.03
300.194	3.01
300.564	2.99
300.935	2.95
301.305	3.05
301.676	3.13
302.046	3.18
302.416	3.13
302.787	3.3
303.157	3.33
303.527	3.4
303.897	3.47
304.267	3.66
304.637	3.81
305.008	3.89
305.378	4.14
305.748	4.3
306.117	4.27
306.487	4.32
306.857	4.35
307.227	4.3
307.597	4.24
307.967	4.39
308.336	4.42
308.706	4.57
309.076	4.54
309.445	4.58
309.815	4.67
310.184	4.83
310.554	4.91
310.923	5.06
311.293	5.02
311.662	5.04
312.031	5.13
312.401	5.15
312.77	5.26
313.139	5.17
313.508	5.16
313.877	5.28
314.246	5.43
314.616	5.49
314.985	5.57
315.353	5.62
315.722	5.67
316.091	5.82
316.46	5.74
316.829	5.97
317.198	6
317.567	6.1
317.935	6.06
318.304	6.01
318.672	5.9
319.041	6.1
319.41	6.16
319.778	6.11
320.147	6.07
320.515	5.82
320.883	5.83
321.252	5.85
321.62	5.75
321.988	5.8
322.357	5.85
322.725	5.84
323.093	5.92
323.461	5.9
323.829	5.9
324.197	5.86
324.565	5.82
324.933	5.85
325.301	5.9
325.669	5.98
326.037	6.04
326.405	6.12
326.772	6.07
327.14	6.27
327.508	6.26
327.875	6.2
328.243	6.39
328.61	6.57
328.978	6.58
329.346	6.78
329.713	6.75
330.08	6.87
330.448	6.92
330.815	6.83
331.182	6.98
331.55	6.9
331.917	7.05
332.284	7.09
332.651	7.07
333.018	7.07
333.385	7.05
333.752	7.11
334.119	7.19
334.486	7.19
334.853	7.05
335.22	7.06
335.587	7.17
335.954	7.13
336.32	7.19
336.687	7.25
337.054	7.22
337.42	7.21
337.787	7.19
338.153	7.22
338.52	7.29
338.886	7.15
339.253	7.17
339.619	7.13
339.986	7.07
340.352	7.22
340.718	7.16
341.084	7.27
341.451	7.26
341.817	7.28
342.183	7.32
342.549	7.41
342.915	7.34
343.281	7.34
343.647	7.41
344.013	7.4
344.379	7.34
344.745	7.42
345.11	7.54
345.476	7.58
345.842	7.69
346.208	7.71
346.573	7.76
346.939	7.91
347.304	8.03
347.67	8.09
348.035	8.07
348.401	7.98
348.766	7.97
349.132	8.03
349.497	7.96
349.862	8.03
350.228	7.97
350.593	8.02
350.958	8.03
351.323	7.97
351.688	7.94
352.053	8.14
352.418	7.99
352.783	7.88
353.148	7.82
353.513	7.75
353.878	7.81
354.243	7.84
354.608	7.83
354.972	7.75
355.337	7.76
355.702	7.76
356.066	7.86
356.431	7.78
356.795	7.8
357.16	7.81
357.524	7.77
357.889	7.79
358.253	7.76
358.618	7.73
358.982	7.71
359.346	7.67
359.71	7.49
360.075	7.56
360.439	7.57
360.803	7.6
361.167	7.53
361.531	7.46
361.895	7.38
362.259	7.29
362.623	7.31
362.987	7.24
363.351	7.2
363.714	7.22
364.078	7.18
364.442	7.1
364.806	7.01
365.169	6.95
365.533	6.89
365.896	6.89
366.26	6.84
366.623	6.77
366.987	6.73
367.35	6.73
367.714	6.73
368.077	6.64
368.44	6.56
368.803	6.58
369.167	6.51
369.53	6.54
369.893	6.6
370.256	6.5
370.619	6.46
370.982	6.31
371.345	6.21
371.708	6.21
372.071	6.15
372.434	6.13
372.797	6.13
373.159	6.08
373.522	6.08
373.885	6.09
374.247	6.09
374.61	6.03
374.973	5.96
375.335	5.86
375.698	5.84
376.06	5.75
376.423	5.66
376.785	5.62
377.147	5.54
377.51	5.44
377.872	5.42
378.234	5.39
378.596	5.46
378.958	5.4
379.321	5.34
379.683	5.29
380.045	5.19
380.407	5.13
380.769	5.11
381.13	5.01
381.492	4.9
381.854	4.87
382.216	4.84
382.578	4.8
382.939	4.72
383.301	4.65
383.663	4.66
384.024	4.66
384.386	4.63
384.747	4.61
385.109	4.57
385.47	4.53
385.832	4.49
386.193	4.41
386.554	4.42
386.916	4.4
387.277	4.4
387.638	4.4
387.999	4.35
388.36	4.26
388.721	4.28
389.082	4.28
389.443	4.22
389.804	4.19
390.165	4.16
390.526	4.15
390.887	4.11
391.248	4.11
391.609	4.07
391.969	4.04
392.33	3.95
392.691	3.91
393.051	3.87
393.412	3.84
393.772	3.77
394.133	3.73
394.493	3.66
394.854	3.62
395.214	3.61
395.574	3.61
395.935	3.57
396.295	3.53
396.655	3.53
397.015	3.48
397.376	3.42
397.736	3.39
398.096	3.37
398.456	3.34
398.816	3.26
399.176	3.2
399.535	3.17
399.895	3.17
400.255	3.15
400.615	3.14
400.975	3.1
401.334	3.09
401.694	3.05
402.054	3.04
402.413	3.03
402.773	2.97
403.132	2.91
403.492	2.96
403.851	2.92
404.211	2.85
404.57	2.83
404.929	2.85
405.288	2.86
405.648	2.85
406.007	2.85
406.366	2.85
406.725	2.87
407.084	2.87
407.443	2.89
407.802	2.89
408.161	2.87
408.52	2.84
408.879	2.86
409.238	2.88
409.596	2.89
409.955	2.88
410.314	2.9
410.673	2.91
411.031	2.87
411.39	2.87
411.748	2.88
412.107	2.86
412.465	2.84
412.824	2.83
413.182	2.8
413.54	2.79
413.899	2.8
414.257	2.8
414.615	2.79
414.974	2.76
415.332	2.74
415.69	2.72
416.048	2.7
416.406	2.67
416.764	2.65
417.122	2.64
417.48	2.61
417.838	2.61
418.195	2.6
418.553	2.58
418.911	2.57
419.269	2.56
419.626	2.56
419.984	2.55
420.342	2.54
420.699	2.52
421.057	2.5
421.414	2.49
421.772	2.47
422.129	2.46
422.486	2.44
422.844	2.44
423.201	2.43
423.558	2.44
423.915	2.43
424.273	2.42
424.63	2.39
424.987	2.39
425.344	2.38
425.701	2.35
426.058	2.35
426.415	2.35
426.772	2.35
427.128	2.34
427.485	2.33
427.842	2.32
428.199	2.33
428.555	2.33
428.912	2.33
429.269	2.33
429.625	2.31
429.982	2.31
430.338	2.3
430.695	2.31
431.051	2.3
431.407	2.32
431.764	2.32
432.12	2.33
432.476	2.33
432.832	2.33
433.189	2.35
433.545	2.34
433.901	2.33
434.257	2.32
434.613	2.33
434.969	2.33
435.325	2.34
435.681	2.35
436.036	2.34
436.392	2.35
436.748	2.34
437.104	2.34
437.459	2.34
437.815	2.33
438.171	2.34
438.526	2.34
438.882	2.33
439.237	2.32
439.593	2.33
439.948	2.33
440.304	2.34
440.659	2.33
441.014	2.34
441.369	2.33
441.725	2.32
442.08	2.32
442.435	2.32
442.79	2.3
443.145	2.28
443.5	2.29
443.855	2.28
444.21	2.28
444.565	2.27
444.92	2.29
445.275	2.28
445.629	2.26
445.984	2.24
446.339	2.23
446.693	2.23
447.048	2.2
447.403	2.2
447.757	2.18
448.112	2.17
448.466	2.14
448.82	2.14
449.175	2.16
449.529	2.15
449.883	2.14
450.238	2.12
450.592	2.11
450.946	2.09
451.3	2.08
451.654	2.06
452.008	2.07
452.362	2.05
452.716	2.05
453.07	2.04
453.424	2.06
453.778	2.07
454.132	2.06
454.486	2.07
454.839	2.07
455.193	2.07
455.547	2.08
455.9	2.1
456.254	2.1
456.607	2.1
456.961	2.11
457.314	2.1
457.668	2.09
458.021	2.09
458.375	2.1
458.728	2.12
459.081	2.13
459.434	2.13
459.787	2.13
460.141	2.14
460.494	2.16
460.847	2.15
461.2	2.15
461.553	2.16
461.906	2.18
462.259	2.18
462.611	2.19
462.964	2.2
463.317	2.2
463.67	2.21
464.022	2.2
464.375	2.21
464.728	2.23
465.08	2.24
465.433	2.25
465.785	2.28
466.138	2.28
466.49	2.28
466.843	2.26
467.195	2.27
467.547	2.26
467.899	2.26
468.252	2.26
468.604	2.27
468.956	2.27
469.308	2.26
469.66	2.25
470.012	2.25
470.364	2.25
470.716	2.24
471.068	2.26
471.42	2.25
471.772	2.28
472.123	2.28
472.475	2.3
472.827	2.32
473.178	2.32
473.53	2.3
473.882	2.31
474.233	2.32
474.585	2.3
474.936	2.31
475.288	2.31
475.639	2.32
475.99	2.32
476.342	2.32
476.693	2.31
477.044	2.32
477.395	2.32
477.746	2.3
478.097	2.31
478.448	2.29
478.8	2.31
479.15	2.28
479.501	2.28
479.852	2.27
480.203	2.27
480.554	2.26
480.905	2.27
481.255	2.26
481.606	2.27
481.957	2.29
482.307	2.28
482.658	2.28
483.009	2.28
483.359	2.27
483.709	2.27
484.06	2.27
484.41	2.27
484.761	2.28
485.111	2.29
485.461	2.28
485.811	2.28
486.162	2.28
486.512	2.29
486.862	2.29
487.212	2.29
487.562	2.29
487.912	2.3
488.262	2.3
488.612	2.3
488.961	2.3
489.311	2.3
489.661	2.3
490.011	2.31
490.36	2.31
490.71	2.31
491.06	2.31
491.409	2.31
491.759	2.31
492.108	2.32
492.458	2.32
492.807	2.33
493.157	2.34
493.506	2.35
493.855	2.36
494.204	2.38
494.554	2.38
494.903	2.39
495.252	2.38
495.601	2.38
495.95	2.39
496.299	2.4
496.648	2.42
496.997	2.42
497.346	2.44
497.695	2.47
498.043	2.51
498.392	2.52
498.741	2.54
499.09	2.54
499.438	2.56
499.787	2.58
500.135	2.61
500.484	2.62
500.832	2.65
501.181	2.66
501.529	2.66
501.878	2.7
502.226	2.71
502.574	2.75
502.923	2.78
503.271	2.79
503.619	2.82
503.967	2.83
504.315	2.86
504.663	2.88
505.011	2.9
505.359	2.92
505.707	2.95
506.055	2.99
506.403	3.06
506.751	3.09
507.098	3.14
507.446	3.17
507.794	3.22
508.141	3.27
508.489	3.3
508.837	3.38
509.184	3.42
509.531	3.47
509.879	3.54
510.226	3.6
510.574	3.65
510.921	3.71
511.268	3.76
511.616	3.83
511.963	3.88
512.31	3.96
512.657	4
513.004	4.08
513.351	4.16
513.698	4.25
514.045	4.33
514.392	4.41
514.739	4.5
515.086	4.6
515.432	4.7
515.779	4.77
516.126	4.84
516.473	4.95
516.819	5.04
517.166	5.13
517.512	5.22
517.859	5.31
518.205	5.4
518.552	5.5
518.898	5.58
519.245	5.67
519.591	5.74
519.937	5.84
520.283	5.95
520.629	6.07
520.976	6.16
521.322	6.27
521.668	6.37
522.014	6.49
522.36	6.6
522.706	6.71
523.052	6.89
523.398	7.06
523.743	7.22
524.089	7.39
524.435	7.53
524.781	7.69
525.126	7.84
525.472	7.99
525.817	8.1
526.163	8.24
526.509	8.36
526.854	8.48
527.199	8.59
527.545	8.69
527.89	8.79
528.235	8.9
528.581	9.03
528.926	9.15
529.271	9.28
529.616	9.41
529.961	9.54
530.306	9.65
530.651	9.78
530.996	9.93
531.341	10.08
531.686	10.22
532.031	10.39
532.376	10.57
532.721	10.74
533.065	10.94
533.41	11.1
533.755	11.28
534.099	11.5
534.444	11.69
534.788	11.9
535.133	12.1
535.477	12.3
535.822	12.53
536.166	12.77
536.51	13.02
536.855	13.28
537.199	13.57
537.543	13.86
537.887	14.15
538.231	14.44
538.576	14.73
538.92	15.07
539.264	15.35
539.608	15.62
539.951	15.85
540.295	16.11
540.639	16.37
540.983	16.63
541.327	16.83
541.671	17.06
542.014	17.3
542.358	17.52
542.701	17.76
543.045	17.98
543.389	18.21
543.732	18.42
544.075	18.67
544.419	18.92
544.762	19.17
545.105	19.43
545.449	19.68
545.792	19.95
546.135	20.22
546.478	20.49
546.821	20.8
547.165	21.13
547.508	21.47
547.851	21.78
548.194	22.09
548.536	22.44
548.879	22.8
549.222	23.11
549.565	23.43
549.908	23.78
550.25	24.11
550.593	24.45
550.936	24.83
551.278	25.18
551.621	25.54
551.963	25.9
552.306	26.25
552.648	26.61
552.991	26.97
553.333	27.29
553.675	27.6
554.017	27.93
554.36	28.26
554.702	28.55
555.044	28.87
555.386	29.17
555.728	29.48
556.07	29.75
556.412	30.07
556.754	30.37
557.096	30.68
557.438	31.02
557.78	31.33
558.121	31.67
558.463	31.95
558.805	32.21
559.147	32.5
559.488	32.74
559.83	33.01
560.171	33.29
560.513	33.58
560.854	33.86
561.196	34.15
561.537	34.41
561.878	34.66
562.22	34.91
562.561	35.21
562.902	35.43
563.243	35.71
563.584	35.93
563.925	36.22
564.266	36.46
564.607	36.7
564.948	36.92
565.289	37.13
565.63	37.36
565.971	37.57
566.312	37.77
566.653	38.05
566.993	38.26
567.334	38.47
567.675	38.65
568.015	38.84
568.356	39.04
568.696	39.28
569.037	39.52
569.377	39.71
569.718	39.93
570.058	40.16
570.398	40.39
570.739	40.63
571.079	40.78
571.419	40.9
571.759	41.14
572.099	41.31
572.439	41.47
572.779	41.63
573.119	41.84
573.459	42.05
573.799	42.19
574.139	42.42
574.479	42.58
574.819	42.76
575.158	42.88
575.498	43.05
575.838	43.17
576.177	43.38
576.517	43.56
576.856	43.68
577.196	43.85
577.535	43.99
577.875	44.17
578.214	44.41
578.553	44.66
578.893	44.79
579.232	44.93
579.571	45.06
579.91	45.24
580.25	45.4
580.589	45.53
580.928	45.63
581.267	45.75
581.606	45.89
581.945	46.03
582.283	46.25
582.622	46.36
582.961	46.52
583.3	46.56
583.639	46.75
583.977	46.97
584.316	47.08
584.654	47.19
584.993	47.27
585.332	47.32
585.67	47.51
586.008	47.7
586.347	47.89
586.685	48.06
587.024	48.16
587.362	48.31
587.7	48.47
588.038	48.66
588.376	48.79
588.715	48.85
589.053	48.98
589.391	49.11
589.729	49.2
590.067	49.27
590.404	49.32
590.742	49.37
591.08	49.36
591.418	49.48
591.756	49.59
592.093	49.74
592.431	49.82
592.769	49.87
593.106	49.86
593.444	49.91
593.781	49.98
594.119	50.08
594.456	50.06
594.793	50.06
595.131	50.03
595.468	50.02
595.805	50.11
596.143	50.13
596.48	50.18
596.817	50.29
597.154	50.37
597.491	50.5
597.828	50.54
598.165	50.59
598.502	50.61
598.839	50.63
599.176	50.67
599.512	50.77
599.849	50.75
600.186	50.78
600.523	50.91
600.859	50.96
601.196	51.05
601.532	51.19
601.869	51.23
602.205	51.4
602.542	51.52
602.878	51.59
603.215	51.73
603.551	51.77
603.887	51.77
604.223	51.8
604.56	51.83
604.896	51.86
605.232	51.97
605.568	52
605.904	52.08
606.24	52.16
606.576	52.21
606.912	52.31
607.248	52.33
607.583	52.35
607.919	52.41
608.255	52.45
608.591	52.48
608.926	52.58
609.262	52.62
609.597	52.62
609.933	52.67
610.268	52.61
610.604	52.64
610.939	52.7
611.275	52.78
611.61	52.8
611.945	52.9
612.281	52.89
612.616	52.92
612.951	52.95
613.286	52.97
613.621	53.06
613.956	53.08
614.291	53.23
614.626	53.27
614.961	53.25
615.296	53.17
615.631	53.15
615.966	53.2
616.3	53.3
616.635	53.4
616.97	53.45
617.304	53.58
617.639	53.63
617.973	53.67
618.308	53.65
618.642	53.71
618.977	53.72
619.311	53.85
619.646	54
619.98	54.04
620.314	54.13
620.648	54.15
620.983	54.24
621.317	54.3
621.651	54.38
621.985	54.47
622.319	54.55
622.653	54.53
622.987	54.56
623.321	54.48
623.655	54.53
623.988	54.55
624.322	54.51
624.656	54.48
624.99	54.51
625.323	54.6
625.657	54.65
625.99	54.74
626.324	54.79
626.657	54.78
626.991	54.84
627.324	54.72
627.658	54.75
627.991	54.7
628.324	54.64
628.657	54.59
628.991	54.67
629.324	54.82
629.657	55.02
629.99	55.1
630.323	55.16
630.656	55.19
630.989	55.21
631.322	55.29
631.655	55.33
631.987	55.45
632.32	55.51
632.653	55.55
632.986	55.49
633.318	55.45
633.651	55.47
633.984	55.47
634.316	55.63
634.649	55.69
634.981	55.71
635.313	55.82
635.646	55.88
635.978	55.92
636.31	55.82
636.643	55.75
636.975	55.64
637.307	55.66
637.639	55.66
637.971	55.68
638.303	55.62
638.635	55.71
638.967	55.58
639.299	55.59
639.631	55.5
639.963	55.52
640.295	55.51
640.626	55.61
640.958	55.59
641.29	55.59
641.621	55.49
641.953	55.62
642.285	55.6
642.616	55.63
642.948	55.56
643.279	55.61
643.61	55.63
643.942	55.74
644.273	55.78
644.604	55.84
644.936	55.8
645.267	55.91
645.598	55.97
645.929	56.02
646.26	56.01
646.591	56.09
646.922	56.22
647.253	56.27
647.584	56.18
647.915	56.13
648.245	56.1
648.576	56.19
648.907	56.04
649.238	55.98
649.568	56.02
649.899	56.1
650.229	56.18
650.56	56.17
650.89	56.23
651.221	56.16
651.551	56.08
651.882	56.18
652.212	56.24
652.542	56.25
652.872	56.17
653.203	56.24
653.533	56.32
653.863	56.24
654.193	56.19
654.523	56.15
654.853	56.31
655.183	56.29
655.513	56.27
655.843	56.43
656.172	56.54
656.502	56.58
656.832	56.51
657.162	56.59
657.491	56.5
657.821	56.48
658.15	56.6
658.48	56.7
658.809	56.76
659.139	56.73
659.468	56.67
659.798	56.76
660.127	56.71
660.456	56.7
660.785	56.7
661.115	56.84
661.444	57.08
661.773	57.04
662.102	57.15
662.431	57.16
662.76	57.1
663.089	57.11
663.418	57.01
663.747	57.05
664.076	57.04
664.404	57.21
664.733	57.19
665.062	57.14
665.39	57.04
665.719	56.99
666.048	57.05
666.376	57.17
666.705	57.15
667.033	57.13
667.362	57.12
667.69	57.11
