Data from BU57648_Reflection_00013.txt Node
Date: Tue Nov 19 10:46:53 EST 2019
User: vgr7
Spectrometer: USB2G7710
Scans to average: 3
Trigger mode: 4
Integration Time (sec): 2.000000E-2
Electric dark correction enabled: true
Boxcar width: 10
XAxis mode: Wavelengths
Number of Pixels in Spectrum: 2048
>>>>>Begin Spectral Data<<<<<
177.721	-2.66
178.105	-20.37
178.488	-23.51
178.871	-35.42
179.254	-56.67
179.636	-15.08
180.019	0.64
180.402	35.71
180.785	-31.67
181.168	-240.28
181.55	-973.53
181.933	-341.96
182.316	-245.59
182.698	-429.66
183.081	-312.65
183.463	-284.02
183.846	-373.21
184.228	-2196.88
184.611	-353.8
184.993	-178.57
185.376	-152.35
185.758	-114.98
186.14	-163.1
186.522	-169.48
186.904	-141.96
187.287	-142.08
187.669	-140.91
188.051	-172.09
188.433	-216.59
188.815	-263.26
189.197	-207.77
189.579	-153.02
189.961	-204.4
190.342	-220.4
190.724	-236.71
191.106	-204.4
191.488	-181.38
191.869	-166.74
192.251	-128.6
192.633	-162.66
193.014	-194.72
193.396	-252.39
193.777	-232.93
194.159	-177.26
194.54	-165.81
194.922	-202.4
195.303	-218.48
195.684	-207.31
196.065	-202.86
196.447	-161.15
196.828	-166.73
197.209	-147.14
197.59	-157.43
197.971	-132.91
198.352	-128.02
198.733	-108.76
199.114	-121.12
199.495	-98.83
199.876	-109.6
200.257	-153.29
200.638	-151.03
201.018	-154.92
201.399	-118.34
201.78	-133.28
202.16	-129.17
202.541	-128.5
202.922	-99.85
203.302	-109.6
203.683	-123.15
204.063	-126.27
204.444	-118.01
204.824	-133.06
205.204	-117.89
205.585	-130.97
205.965	-162.05
206.345	-165.56
206.725	-173.99
207.106	-141.79
207.486	-131.36
207.866	-132.25
208.246	-106.14
208.626	-131.59
209.006	-116.99
209.386	-140.65
209.766	-151.75
210.145	-184.98
210.525	-201.14
210.905	-229.13
211.285	-168.77
211.664	-155.83
212.044	-153.22
212.424	-147.53
212.803	-143.49
213.183	-181
213.562	-131.54
213.942	-116.84
214.321	-145.75
214.701	-161.65
215.08	-176.27
215.459	-170.09
215.838	-179.41
216.218	-206.42
216.597	-152.79
216.976	-205.75
217.355	-172.8
217.734	-176.55
218.113	-167.64
218.492	-181.44
218.871	-162.88
219.25	-229.77
219.629	-192.32
220.008	-241.08
220.387	-315.12
220.766	-295.27
221.144	-243.98
221.523	-302.31
221.902	-246.22
222.28	-188.03
222.659	-144.74
223.037	-146.98
223.416	-156.67
223.794	-144.94
224.173	-150.63
224.551	-143.01
224.929	-124.09
225.308	-120.37
225.686	-92.68
226.064	-81.99
226.442	-66.77
226.821	-63.82
227.199	-55.24
227.577	-50.44
227.955	-43.83
228.333	-40.41
228.711	-34.53
229.089	-34.09
229.467	-30.54
229.845	-28.21
230.222	-20.45
230.6	-20.86
230.978	-20.12
231.356	-22.07
231.733	-22
232.111	-19.59
232.488	-20.66
232.866	-17.14
233.243	-20.45
233.621	-18.45
233.998	-17.56
234.376	-17.07
234.753	-18.51
235.13	-17.49
235.508	-15.49
235.885	-15.12
236.262	-13.43
236.639	-14.88
237.016	-13.12
237.393	-12.08
237.77	-9.8
238.147	-10.76
238.524	-9.33
238.901	-8.59
239.278	-7.87
239.655	-6.26
240.032	-5.56
240.409	-4.22
240.785	-4.2
241.162	-2.8
241.539	-3.35
241.915	-3.22
242.292	-3.04
242.668	-1.74
243.045	-1.11
243.421	-0.71
243.798	0.5
244.174	0.53
244.551	0.81
244.927	0.7
245.303	0.88
245.679	0.57
246.056	0.82
246.432	0.83
246.808	0.87
247.184	1.24
247.56	1.12
247.936	1.45
248.312	1.48
248.688	1.45
249.064	1.42
249.44	1.57
249.815	1.71
250.191	1.71
250.567	1.46
250.943	1.51
251.318	1.4
251.694	0.74
252.069	0.76
252.445	0.48
252.82	0.7
253.196	0.61
253.571	0.52
253.947	0.49
254.322	0.55
254.697	0.6
255.073	0.69
255.448	0.56
255.823	0.25
256.198	0.17
256.573	0.55
256.948	0.69
257.323	0.91
257.698	0.93
258.073	1.09
258.448	1.24
258.823	1.04
259.198	1.02
259.573	1.12
259.948	1.23
260.322	1.36
260.697	1.4
261.072	1.4
261.446	1.37
261.821	1.42
262.195	1.25
262.57	1.36
262.944	1.27
263.319	1.48
263.693	1.58
264.067	1.69
264.442	1.54
264.816	1.57
265.19	1.68
265.564	1.76
265.938	1.55
266.313	1.22
266.687	1.27
267.061	1.17
267.435	1.49
267.809	1.21
268.183	1.24
268.556	1.17
268.93	1.36
269.304	1.44
269.678	1.49
270.051	1.71
270.425	1.58
270.799	1.4
271.172	1.31
271.546	1.35
271.919	1.12
272.293	1.37
272.666	1.34
273.04	1.11
273.413	1.03
273.787	1.19
274.16	1.35
274.533	1.51
274.906	1.5
275.279	1.5
275.653	1.71
276.026	1.76
276.399	1.69
276.772	1.57
277.145	1.63
277.518	1.44
277.891	1.48
278.263	1.66
278.636	1.93
279.009	2.25
279.382	2.17
279.755	2.4
280.127	2.15
280.5	2.12
280.872	2.23
281.245	2.28
281.617	2.48
281.99	2.56
282.362	2.46
282.735	2.68
283.107	2.54
283.479	2.49
283.852	2.5
284.224	2.58
284.596	2.63
284.968	2.64
285.34	2.72
285.713	2.8
286.085	2.67
286.457	2.57
286.829	2.3
287.201	2.31
287.572	2.35
287.944	2.45
288.316	2.52
288.688	2.51
289.06	2.52
289.431	2.42
289.803	2.51
290.175	2.62
290.546	2.54
290.918	2.58
291.289	2.52
291.661	2.51
292.032	2.58
292.403	2.57
292.775	2.65
293.146	2.68
293.517	2.58
293.889	2.63
294.26	2.64
294.631	2.86
295.002	3.01
295.373	2.98
295.744	3.12
296.115	3.02
296.486	3.11
296.857	3.09
297.228	3
297.599	2.89
297.97	2.93
298.34	3.07
298.711	3.08
299.082	3.03
299.452	3.02
299.823	3.03
300.194	3.13
300.564	3.1
300.935	3.26
301.305	3.25
301.676	3.25
302.046	3.29
302.416	3.23
302.787	3.19
303.157	3.22
303.527	3.11
303.897	3.13
304.267	3.08
304.637	3.14
305.008	3.28
305.378	3.36
305.748	3.26
306.117	3.24
306.487	3.33
306.857	3.58
307.227	3.76
307.597	3.61
307.967	3.62
308.336	3.7
308.706	3.64
309.076	3.68
309.445	3.84
309.815	3.99
310.184	4.05
310.554	3.94
310.923	3.97
311.293	3.88
311.662	4.01
312.031	4.08
312.401	4.13
312.77	4.2
313.139	4.28
313.508	4.33
313.877	4.43
314.246	4.37
314.616	4.4
314.985	4.32
315.353	4.54
315.722	4.63
316.091	4.7
316.46	4.73
316.829	4.78
317.198	4.71
317.567	4.94
317.935	4.85
318.304	5.12
318.672	5.15
319.041	5.41
319.41	5.51
319.778	5.58
320.147	5.55
320.515	5.72
320.883	5.65
321.252	5.65
321.62	5.65
321.988	5.8
322.357	5.69
322.725	5.72
323.093	5.66
323.461	5.57
323.829	5.67
324.197	5.73
324.565	5.86
324.933	6.07
325.301	5.82
325.669	5.93
326.037	5.92
326.405	6.03
326.772	5.89
327.14	5.9
327.508	5.76
327.875	5.99
328.243	5.87
328.61	5.93
328.978	5.93
329.346	5.76
329.713	5.82
330.08	5.94
330.448	5.9
330.815	5.92
331.182	5.94
331.55	5.85
331.917	5.99
332.284	5.97
332.651	5.94
333.018	6.02
333.385	6.06
333.752	6.02
334.119	5.9
334.486	6.14
334.853	6.12
335.22	6.2
335.587	6.05
335.954	6.02
336.32	6.04
336.687	6.2
337.054	6.17
337.42	6.24
337.787	6.34
338.153	6.4
338.52	6.42
338.886	6.44
339.253	6.33
339.619	6.22
339.986	6.18
340.352	6.1
340.718	6.11
341.084	6.18
341.451	6.32
341.817	6.3
342.183	6.19
342.549	6.18
342.915	6.23
343.281	6.24
343.647	6.32
344.013	6.31
344.379	6.21
344.745	6.33
345.11	6.21
345.476	6.21
345.842	6.19
346.208	6.37
346.573	6.29
346.939	6.31
347.304	6.38
347.67	6.39
348.035	6.38
348.401	6.44
348.766	6.4
349.132	6.37
349.497	6.48
349.862	6.43
350.228	6.48
350.593	6.41
350.958	6.43
351.323	6.45
351.688	6.44
352.053	6.55
352.418	6.69
352.783	6.72
353.148	6.73
353.513	6.74
353.878	6.53
354.243	6.59
354.608	6.7
354.972	6.68
355.337	6.81
355.702	6.76
356.066	6.72
356.431	6.75
356.795	6.69
357.16	6.66
357.524	6.74
357.889	6.66
358.253	6.75
358.618	6.67
358.982	6.53
359.346	6.56
359.71	6.47
360.075	6.39
360.439	6.3
360.803	6.25
361.167	6.21
361.531	6.21
361.895	6.24
362.259	6.22
362.623	6.22
362.987	6.14
363.351	6.14
363.714	6.18
364.078	6.13
364.442	6.09
364.806	6.04
365.169	5.96
365.533	5.92
365.896	5.88
366.26	5.95
366.623	5.98
366.987	5.87
367.35	5.92
367.714	5.95
368.077	6.01
368.44	6.01
368.803	5.98
369.167	5.9
369.53	5.87
369.893	5.81
370.256	5.67
370.619	5.58
370.982	5.53
371.345	5.41
371.708	5.4
372.071	5.33
372.434	5.28
372.797	5.29
373.159	5.25
373.522	5.21
373.885	5.16
374.247	5.16
374.61	5.23
374.973	5.11
375.335	4.99
375.698	4.92
376.06	4.82
376.423	4.8
376.785	4.86
377.147	4.81
377.51	4.76
377.872	4.81
378.234	4.77
378.596	4.76
378.958	4.76
379.321	4.63
379.683	4.65
380.045	4.61
380.407	4.56
380.769	4.48
381.13	4.43
381.492	4.33
381.854	4.24
382.216	4.2
382.578	4.18
382.939	4.19
383.301	4.16
383.663	4.18
384.024	4.17
384.386	4.09
384.747	4.08
385.109	4.04
385.47	4.03
385.832	4.01
386.193	3.97
386.554	3.96
386.916	3.96
387.277	3.86
387.638	3.93
387.999	3.89
388.36	3.95
388.721	3.95
389.082	3.98
389.443	4.02
389.804	4.02
390.165	4.04
390.526	4.01
390.887	4.01
391.248	3.91
391.609	3.85
391.969	3.84
392.33	3.8
392.691	3.79
393.051	3.78
393.412	3.78
393.772	3.8
394.133	3.76
394.493	3.73
394.854	3.78
395.214	3.69
395.574	3.66
395.935	3.65
396.295	3.55
396.655	3.53
397.015	3.51
397.376	3.48
397.736	3.42
398.096	3.38
398.456	3.34
398.816	3.35
399.176	3.35
399.535	3.36
399.895	3.37
400.255	3.35
400.615	3.32
400.975	3.28
401.334	3.25
401.694	3.21
402.054	3.25
402.413	3.23
402.773	3.22
403.132	3.19
403.492	3.15
403.851	3.18
404.211	3.16
404.57	3.14
404.929	3.07
405.288	3.07
405.648	3.05
406.007	3.06
406.366	3.03
406.725	3.01
407.084	3
407.443	2.96
407.802	2.96
408.161	2.91
408.52	2.91
408.879	2.93
409.238	2.94
409.596	2.93
409.955	2.91
410.314	2.89
410.673	2.89
411.031	2.89
411.39	2.9
411.748	2.87
412.107	2.84
412.465	2.9
412.824	2.89
413.182	2.89
413.54	2.88
413.899	2.89
414.257	2.9
414.615	2.88
414.974	2.9
415.332	2.92
415.69	2.94
416.048	2.93
416.406	2.87
416.764	2.87
417.122	2.86
417.48	2.86
417.838	2.87
418.195	2.88
418.553	2.86
418.911	2.84
419.269	2.85
419.626	2.85
419.984	2.82
420.342	2.8
420.699	2.81
421.057	2.8
421.414	2.8
421.772	2.78
422.129	2.76
422.486	2.76
422.844	2.73
423.201	2.71
423.558	2.71
423.915	2.71
424.273	2.72
424.63	2.71
424.987	2.71
425.344	2.71
425.701	2.68
426.058	2.69
426.415	2.67
426.772	2.65
427.128	2.65
427.485	2.63
427.842	2.63
428.199	2.62
428.555	2.6
428.912	2.57
429.269	2.56
429.625	2.58
429.982	2.58
430.338	2.58
430.695	2.58
431.051	2.61
431.407	2.61
431.764	2.58
432.12	2.6
432.476	2.59
432.832	2.58
433.189	2.57
433.545	2.55
433.901	2.57
434.257	2.56
434.613	2.56
434.969	2.55
435.325	2.56
435.681	2.55
436.036	2.57
436.392	2.6
436.748	2.6
437.104	2.59
437.459	2.57
437.815	2.56
438.171	2.58
438.526	2.57
438.882	2.56
439.237	2.56
439.593	2.55
439.948	2.55
440.304	2.55
440.659	2.57
441.014	2.56
441.369	2.57
441.725	2.58
442.08	2.58
442.435	2.58
442.79	2.56
443.145	2.56
443.5	2.56
443.855	2.54
444.21	2.55
444.565	2.55
444.92	2.55
445.275	2.53
445.629	2.52
445.984	2.52
446.339	2.53
446.693	2.53
447.048	2.51
447.403	2.49
447.757	2.49
448.112	2.47
448.466	2.47
448.82	2.46
449.175	2.45
449.529	2.44
449.883	2.43
450.238	2.44
450.592	2.44
450.946	2.43
451.3	2.42
451.654	2.4
452.008	2.38
452.362	2.39
452.716	2.41
453.07	2.37
453.424	2.37
453.778	2.35
454.132	2.34
454.486	2.34
454.839	2.35
455.193	2.34
455.547	2.35
455.9	2.35
456.254	2.36
456.607	2.38
456.961	2.37
457.314	2.39
457.668	2.38
458.021	2.38
458.375	2.37
458.728	2.39
459.081	2.4
459.434	2.39
459.787	2.4
460.141	2.4
460.494	2.41
460.847	2.4
461.2	2.4
461.553	2.41
461.906	2.41
462.259	2.42
462.611	2.43
462.964	2.44
463.317	2.43
463.67	2.42
464.022	2.42
464.375	2.42
464.728	2.43
465.08	2.42
465.433	2.43
465.785	2.43
466.138	2.42
466.49	2.43
466.843	2.44
467.195	2.43
467.547	2.45
467.899	2.48
468.252	2.47
468.604	2.49
468.956	2.5
469.308	2.5
469.66	2.5
470.012	2.5
470.364	2.48
470.716	2.51
471.068	2.51
471.42	2.49
471.772	2.5
472.123	2.5
472.475	2.53
472.827	2.53
473.178	2.54
473.53	2.56
473.882	2.56
474.233	2.57
474.585	2.57
474.936	2.56
475.288	2.55
475.639	2.56
475.99	2.55
476.342	2.55
476.693	2.53
477.044	2.54
477.395	2.53
477.746	2.53
478.097	2.54
478.448	2.54
478.8	2.54
479.15	2.57
479.501	2.55
479.852	2.55
480.203	2.56
480.554	2.59
480.905	2.58
481.255	2.59
481.606	2.59
481.957	2.6
482.307	2.59
482.658	2.6
483.009	2.59
483.359	2.6
483.709	2.58
484.06	2.6
484.41	2.6
484.761	2.6
485.111	2.61
485.461	2.61
485.811	2.62
486.162	2.61
486.512	2.61
486.862	2.62
487.212	2.62
487.562	2.6
487.912	2.6
488.262	2.61
488.612	2.6
488.961	2.61
489.311	2.61
489.661	2.62
490.011	2.61
490.36	2.62
490.71	2.61
491.06	2.63
491.409	2.63
491.759	2.63
492.108	2.64
492.458	2.62
492.807	2.61
493.157	2.62
493.506	2.64
493.855	2.63
494.204	2.63
494.554	2.64
494.903	2.64
495.252	2.65
495.601	2.67
495.95	2.68
496.299	2.68
496.648	2.69
496.997	2.7
497.346	2.7
497.695	2.71
498.043	2.74
498.392	2.74
498.741	2.75
499.09	2.77
499.438	2.79
499.787	2.82
500.135	2.86
500.484	2.89
500.832	2.88
501.181	2.91
501.529	2.95
501.878	2.97
502.226	3
502.574	3.01
502.923	3
503.271	2.99
503.619	3.04
503.967	3.05
504.315	3.08
504.663	3.11
505.011	3.12
505.359	3.12
505.707	3.13
506.055	3.16
506.403	3.2
506.751	3.21
507.098	3.24
507.446	3.23
507.794	3.25
508.141	3.28
508.489	3.31
508.837	3.33
509.184	3.36
509.531	3.38
509.879	3.38
510.226	3.44
510.574	3.48
510.921	3.49
511.268	3.51
511.616	3.54
511.963	3.57
512.31	3.63
512.657	3.68
513.004	3.73
513.351	3.78
513.698	3.81
514.045	3.87
514.392	3.91
514.739	3.98
515.086	4.03
515.432	4.09
515.779	4.12
516.126	4.18
516.473	4.24
516.819	4.3
517.166	4.36
517.512	4.37
517.859	4.41
518.205	4.44
518.552	4.51
518.898	4.54
519.245	4.59
519.591	4.62
519.937	4.66
520.283	4.72
520.629	4.77
520.976	4.82
521.322	4.88
521.668	4.95
522.014	5.01
522.36	5.07
522.706	5.14
523.052	5.22
523.398	5.28
523.743	5.34
524.089	5.39
524.435	5.48
524.781	5.57
525.126	5.63
525.472	5.72
525.817	5.75
526.163	5.82
526.509	5.89
526.854	5.93
527.199	5.97
527.545	6.02
527.89	6.06
528.235	6.1
528.581	6.13
528.926	6.18
529.271	6.22
529.616	6.26
529.961	6.31
530.306	6.34
530.651	6.4
530.996	6.45
531.341	6.51
531.686	6.56
532.031	6.62
532.376	6.69
532.721	6.75
533.065	6.84
533.41	6.9
533.755	6.95
534.099	7.02
534.444	7.1
534.788	7.15
535.133	7.22
535.477	7.29
535.822	7.36
536.166	7.45
536.51	7.54
536.855	7.64
537.199	7.74
537.543	7.86
537.887	7.93
538.231	8.02
538.576	8.14
538.92	8.25
539.264	8.35
539.608	8.44
539.951	8.54
540.295	8.62
540.639	8.74
540.983	8.85
541.327	8.95
541.671	9.05
542.014	9.17
542.358	9.25
542.701	9.34
543.045	9.42
543.389	9.5
543.732	9.6
544.075	9.7
544.419	9.8
544.762	9.9
545.105	10.05
545.449	10.19
545.792	10.33
546.135	10.48
546.478	10.61
546.821	10.76
547.165	10.91
547.508	11.06
547.851	11.16
548.194	11.3
548.536	11.47
548.879	11.62
549.222	11.77
549.565	11.97
549.908	12.16
550.25	12.37
550.593	12.54
550.936	12.75
551.278	12.94
551.621	13.16
551.963	13.37
552.306	13.58
552.648	13.75
552.991	13.93
553.333	14.1
553.675	14.33
554.017	14.51
554.36	14.73
554.702	14.95
555.044	15.2
555.386	15.41
555.728	15.65
556.07	15.87
556.412	16.11
556.754	16.36
557.096	16.62
557.438	16.86
557.78	17.19
558.121	17.47
558.463	17.76
558.805	18.06
559.147	18.35
559.488	18.57
559.83	18.85
560.171	19.14
560.513	19.44
560.854	19.74
561.196	20.09
561.537	20.41
561.878	20.72
562.22	21
562.561	21.36
562.902	21.66
563.243	21.97
563.584	22.25
563.925	22.55
564.266	22.86
564.607	23.15
564.948	23.38
565.289	23.63
565.63	23.88
565.971	24.1
566.312	24.31
566.653	24.62
566.993	24.94
567.334	25.25
567.675	25.55
568.015	25.78
568.356	26.07
568.696	26.33
569.037	26.59
569.377	26.91
569.718	27.16
570.058	27.43
570.398	27.74
570.739	28.05
571.079	28.33
571.419	28.57
571.759	28.91
572.099	29.21
572.439	29.48
572.779	29.75
573.119	30.06
573.459	30.35
573.799	30.59
574.139	30.85
574.479	31.09
574.819	31.34
575.158	31.62
575.498	31.87
575.838	32.12
576.177	32.39
576.517	32.67
576.856	32.92
577.196	33.17
577.535	33.38
577.875	33.65
578.214	33.97
578.553	34.24
578.893	34.48
579.232	34.71
579.571	35.03
579.91	35.34
580.25	35.66
580.589	35.98
580.928	36.24
581.267	36.44
581.606	36.69
581.945	36.96
582.283	37.23
582.622	37.42
582.961	37.73
583.3	38
583.639	38.24
583.977	38.43
584.316	38.7
584.654	38.99
584.993	39.26
585.332	39.56
585.67	39.85
586.008	40.13
586.347	40.45
586.685	40.67
587.024	40.89
587.362	41.06
587.7	41.3
588.038	41.61
588.376	41.87
588.715	42.09
589.053	42.31
589.391	42.51
589.729	42.69
590.067	42.94
590.404	43.11
590.742	43.34
591.08	43.66
591.418	43.93
591.756	44.18
592.093	44.36
592.431	44.51
592.769	44.8
593.106	44.92
593.444	45.08
593.781	45.25
594.119	45.45
594.456	45.65
594.793	45.82
595.131	45.93
595.468	46.11
595.805	46.31
596.143	46.41
596.48	46.59
596.817	46.82
597.154	46.94
597.491	47.1
597.828	47.28
598.165	47.4
598.502	47.52
598.839	47.73
599.176	47.97
599.512	48.14
599.849	48.27
600.186	48.48
600.523	48.62
600.859	48.81
601.196	48.97
601.532	49.15
601.869	49.34
602.205	49.52
602.542	49.66
602.878	49.8
603.215	49.9
603.551	50.06
603.887	50.19
604.223	50.34
604.56	50.42
604.896	50.54
605.232	50.64
605.568	50.74
605.904	50.7
606.24	50.79
606.576	50.88
606.912	50.96
607.248	51.09
607.583	51.27
607.919	51.41
608.255	51.5
608.591	51.54
608.926	51.66
609.262	51.72
609.597	51.83
609.933	51.9
610.268	52.06
610.604	52.15
610.939	52.24
611.275	52.25
611.61	52.35
611.945	52.37
612.281	52.44
612.616	52.52
612.951	52.64
613.286	52.72
613.621	52.79
613.956	53.01
614.291	53.08
614.626	53.12
614.961	53.07
615.296	53.15
615.631	53.26
615.966	53.36
616.3	53.52
616.635	53.6
616.97	53.68
617.304	53.74
617.639	53.81
617.973	53.86
618.308	53.96
618.642	54.12
618.977	54.24
619.311	54.42
619.646	54.59
619.98	54.77
620.314	54.87
620.648	55.03
620.983	54.97
621.317	55.07
621.651	55.19
621.985	55.31
622.319	55.36
622.653	55.5
622.987	55.52
623.321	55.54
623.655	55.59
623.988	55.72
624.322	55.87
624.656	55.9
624.99	55.92
625.323	55.99
625.657	55.97
625.99	56.07
626.324	56.02
626.657	56.01
626.991	56.06
627.324	56.04
627.658	55.98
627.991	56.04
628.324	56.08
628.657	55.97
628.991	56.06
629.324	56.17
629.657	56.17
629.99	56.15
630.323	56.15
630.656	56.19
630.989	56.16
631.322	56.18
631.655	56.25
631.987	56.4
632.32	56.41
632.653	56.52
632.986	56.46
633.318	56.62
633.651	56.64
633.984	56.63
634.316	56.66
634.649	56.66
634.981	56.69
635.313	56.75
635.646	56.88
635.978	56.89
636.31	56.89
636.643	56.94
636.975	57.01
637.307	57.03
637.639	57.11
637.971	57.14
638.303	57.11
638.635	57.12
638.967	57.09
639.299	57.11
639.631	57.06
639.963	57.17
640.295	57.14
640.626	57.2
640.958	57.15
641.29	57.3
641.621	57.46
641.953	57.48
642.285	57.45
642.616	57.56
642.948	57.63
643.279	57.72
643.61	57.69
643.942	57.8
644.273	57.89
644.604	57.89
644.936	57.94
645.267	57.94
645.598	57.94
645.929	57.98
646.26	58.05
646.591	57.97
646.922	57.98
647.253	57.98
647.584	57.95
647.915	58.04
648.245	57.98
648.576	57.99
648.907	58.02
649.238	57.97
649.568	57.95
649.899	57.9
650.229	57.9
650.56	57.93
650.89	57.9
651.221	57.92
651.551	57.99
651.882	57.98
652.212	58.05
652.542	58.21
652.872	58.21
653.203	58.2
653.533	58.41
653.863	58.54
654.193	58.73
654.523	58.78
654.853	58.83
655.183	59.09
655.513	59.06
655.843	59.1
656.172	59.18
656.502	59.19
656.832	59.28
657.162	59.26
657.491	59.33
657.821	59.44
658.15	59.52
658.48	59.51
658.809	59.66
659.139	59.77
659.468	59.82
659.798	59.94
660.127	59.94
660.456	59.99
660.785	59.89
661.115	59.81
661.444	59.83
661.773	59.8
662.102	59.52
662.431	59.54
662.76	59.5
663.089	59.58
663.418	59.49
663.747	59.48
664.076	59.53
664.404	59.57
