Data from BU57652_Reflection_00011.txt Node
Date: Tue Nov 19 10:43:23 EST 2019
User: vgr7
Spectrometer: USB2G7710
Scans to average: 3
Trigger mode: 4
Integration Time (sec): 2.000000E-2
Electric dark correction enabled: true
Boxcar width: 10
XAxis mode: Wavelengths
Number of Pixels in Spectrum: 2048
>>>>>Begin Spectral Data<<<<<
177.721	-61.74
178.105	-9.49
178.488	4.35
178.871	-10.53
179.254	-83.87
179.636	64.53
180.019	82.29
180.402	166.67
180.785	-81.97
181.168	-41.89
181.55	1369.23
181.933	-300.99
182.316	-889.36
182.698	-157.32
183.081	-151.45
183.463	-232.34
183.846	-194.26
184.228	-211.88
184.611	-51.11
184.993	-32.12
185.376	-30.21
185.758	-30.13
186.14	-25.98
186.522	-24.27
186.904	-23.82
187.287	-42.81
187.669	-24.64
188.051	-23.45
188.433	-52.06
188.815	-34.63
189.197	-39.71
189.579	-30.28
189.961	-25.38
190.342	-21.39
190.724	-21.59
191.106	-34.62
191.488	-30.3
191.869	-22.34
192.251	-12.86
192.633	-5.9
193.014	5.93
193.396	-8.23
193.777	-5.72
194.159	-3.32
194.54	9.53
194.922	-3.88
195.303	-5.91
195.684	-5.79
196.065	-1.17
196.447	5.8
196.828	-0.74
197.209	1.53
197.59	3.68
197.971	6.69
198.352	1.87
198.733	-3.48
199.114	-9.42
199.495	-9.94
199.876	-29.07
200.257	-51.47
200.638	-73.67
201.018	-97.13
201.399	-63.59
201.78	-57.34
202.16	-69.83
202.541	-83.45
202.922	-65.93
203.302	-57.68
203.683	-61.66
204.063	-63.03
204.444	-50.61
204.824	-36.59
205.204	-29.41
205.585	-41.2
205.965	-46.45
206.345	-41.72
206.725	-39.27
207.106	-22.19
207.486	-12.61
207.866	2.94
208.246	2.88
208.626	9.32
209.006	30.57
209.386	14.16
209.766	21.39
210.145	35.69
210.525	27.22
210.905	31.41
211.285	39.84
211.664	35.34
212.044	33.52
212.424	20.86
212.803	-9.95
213.183	-27.48
213.562	-12.93
213.942	-5.97
214.321	-0.91
214.701	9.35
215.08	3.08
215.459	-3.71
215.838	-12.13
216.218	-9.31
216.597	-11.2
216.976	-28.63
217.355	-18.73
217.734	-23.67
218.113	-18.33
218.492	-16.3
218.871	-10.83
219.25	-11.85
219.629	-21.47
220.008	-11.47
220.387	-8.32
220.766	6.76
221.144	9.47
221.523	4.7
221.902	6.64
222.28	1.68
222.659	7.46
223.037	12.23
223.416	22.41
223.794	29.55
224.173	26.82
224.551	35.51
224.929	35.28
225.308	31.51
225.686	28.51
226.064	19
226.442	23.23
226.821	27.42
227.199	25.92
227.577	26.35
227.955	26.05
228.333	17.39
228.711	12.85
229.089	13.79
229.467	11.48
229.845	8.57
230.222	9.75
230.6	5.84
230.978	4.53
231.356	2.35
231.733	0.62
232.111	1.63
232.488	-0.68
232.866	1.56
233.243	0.65
233.621	-0.6
233.998	0.73
234.376	-0.53
234.753	-1.55
235.13	-2.08
235.508	-0.89
235.885	-1.63
236.262	0.65
236.639	1.22
237.016	0.77
237.393	1.91
237.77	2.09
238.147	1.74
238.524	2.86
238.901	2.12
239.278	2.77
239.655	2.72
240.032	2.36
240.409	2.82
240.785	2.45
241.162	3.49
241.539	4
241.915	4.51
242.292	4.35
242.668	4.49
243.045	4.64
243.421	5
243.798	5.09
244.174	4.73
244.551	4.55
244.927	4.58
245.303	4.34
245.679	4.33
246.056	4.56
246.432	4.64
246.808	4.94
247.184	5.03
247.56	5.09
247.936	5.29
248.312	5.41
248.688	5.33
249.064	5.03
249.44	4.89
249.815	4.79
250.191	5.02
250.567	5.17
250.943	4.91
251.318	4.4
251.694	4.15
252.069	4.08
252.445	4.28
252.82	4.45
253.196	4.73
253.571	4.77
253.947	4.53
254.322	4.4
254.697	4.42
255.073	4.11
255.448	4
255.823	4.02
256.198	4.05
256.573	3.92
256.948	3.83
257.323	4.05
257.698	3.97
258.073	3.82
258.448	3.75
258.823	3.85
259.198	3.94
259.573	4.09
259.948	4.1
260.322	4.01
260.697	4
261.072	3.95
261.446	4.1
261.821	4.11
262.195	4.09
262.57	4.05
262.944	4.06
263.319	4.06
263.693	3.88
264.067	3.92
264.442	3.87
264.816	3.91
265.19	3.8
265.564	3.88
265.938	3.98
266.313	3.91
266.687	3.9
267.061	3.98
267.435	3.89
267.809	3.93
268.183	3.82
268.556	3.78
268.93	3.78
269.304	3.73
269.678	3.77
270.051	3.9
270.425	3.92
270.799	3.84
271.172	3.87
271.546	4.06
271.919	3.98
272.293	4.27
272.666	4.27
273.04	4.28
273.413	4.24
273.787	4.1
274.16	4.02
274.533	4.06
274.906	3.99
275.279	4.05
275.653	4.09
276.026	4.21
276.399	4.1
276.772	4.18
277.145	4.09
277.518	3.98
277.891	3.8
278.263	3.9
278.636	3.98
279.009	4.05
279.382	3.94
279.755	3.96
280.127	3.75
280.5	3.82
280.872	3.9
281.245	3.78
281.617	3.86
281.99	3.98
282.362	4.03
282.735	4.07
283.107	4.1
283.479	4.19
283.852	4.15
284.224	4.23
284.596	4.15
284.968	4.07
285.34	4.07
285.713	4.12
286.085	3.96
286.457	3.94
286.829	3.97
287.201	4.12
287.572	4.09
287.944	4.24
288.316	4.21
288.688	4.16
289.06	4.3
289.431	4.37
289.803	4.37
290.175	4.27
290.546	4.31
290.918	4.28
291.289	4.19
291.661	4.27
292.032	4.3
292.403	4.32
292.775	4.52
293.146	4.54
293.517	4.46
293.889	4.45
294.26	4.55
294.631	4.52
295.002	4.34
295.373	4.31
295.744	4.3
296.115	4.44
296.486	4.4
296.857	4.54
297.228	4.49
297.599	4.49
297.97	4.53
298.34	4.56
298.711	4.62
299.082	4.72
299.452	4.81
299.823	4.75
300.194	4.83
300.564	4.87
300.935	5.03
301.305	5.17
301.676	5.18
302.046	5.3
302.416	5.39
302.787	5.44
303.157	5.53
303.527	5.53
303.897	5.37
304.267	5.61
304.637	5.53
305.008	5.64
305.378	5.81
305.748	5.89
306.117	5.95
306.487	5.99
306.857	6.04
307.227	6.14
307.597	6.43
307.967	6.56
308.336	6.64
308.706	6.7
309.076	6.78
309.445	7.07
309.815	7.13
310.184	7.09
310.554	7.24
310.923	7.31
311.293	7.39
311.662	7.57
312.031	7.54
312.401	7.56
312.77	7.63
313.139	7.58
313.508	7.74
313.877	7.77
314.246	7.85
314.616	7.97
314.985	7.93
315.353	7.9
315.722	7.99
316.091	8.06
316.46	7.99
316.829	7.96
317.198	8.09
317.567	8.15
317.935	8.24
318.304	8.52
318.672	8.66
319.041	8.91
319.41	9.06
319.778	9.05
320.147	9.18
320.515	9.27
320.883	9.45
321.252	9.71
321.62	9.8
321.988	9.98
322.357	9.96
322.725	10.1
323.093	10.13
323.461	10.37
323.829	10.47
324.197	10.64
324.565	10.93
324.933	10.87
325.301	10.77
325.669	10.95
326.037	10.8
326.405	10.88
326.772	10.85
327.14	10.71
327.508	10.92
327.875	10.95
328.243	10.91
328.61	11
328.978	10.82
329.346	10.74
329.713	10.7
330.08	10.8
330.448	10.76
330.815	10.95
331.182	10.84
331.55	10.85
331.917	10.89
332.284	10.82
332.651	10.83
333.018	10.91
333.385	10.95
333.752	11.07
334.119	11.13
334.486	11.06
334.853	11.21
335.22	11.23
335.587	11.19
335.954	11.34
336.32	11.29
336.687	11.42
337.054	11.68
337.42	11.77
337.787	11.85
338.153	11.96
338.52	11.97
338.886	12.01
339.253	12.03
339.619	12.09
339.986	12.14
340.352	12.23
340.718	12.27
341.084	12.31
341.451	12.27
341.817	12.23
342.183	12.41
342.549	12.53
342.915	12.6
343.281	12.77
343.647	12.71
344.013	12.75
344.379	12.75
344.745	12.72
345.11	12.71
345.476	12.76
345.842	12.81
346.208	12.78
346.573	12.81
346.939	12.89
347.304	12.9
347.67	12.76
348.035	12.7
348.401	12.65
348.766	12.6
349.132	12.61
349.497	12.6
349.862	12.55
350.228	12.46
350.593	12.37
350.958	12.32
351.323	12.35
351.688	12.33
352.053	12.22
352.418	12.24
352.783	12.22
353.148	12.16
353.513	12.06
353.878	12.01
354.243	11.88
354.608	11.79
354.972	11.82
355.337	11.87
355.702	11.78
356.066	11.78
356.431	11.77
356.795	11.81
357.16	11.83
357.524	11.73
357.889	11.6
358.253	11.56
358.618	11.48
358.982	11.45
359.346	11.47
359.71	11.48
360.075	11.44
360.439	11.45
360.803	11.47
361.167	11.43
361.531	11.45
361.895	11.36
362.259	11.42
362.623	11.33
362.987	11.25
363.351	11.34
363.714	11.32
364.078	11.26
364.442	11.12
364.806	11.06
365.169	11.04
365.533	11.05
365.896	10.99
366.26	10.93
366.623	10.88
366.987	10.73
367.35	10.73
367.714	10.64
368.077	10.54
368.44	10.37
368.803	10.26
369.167	10.08
369.53	10.11
369.893	9.9
370.256	9.85
370.619	9.86
370.982	9.69
371.345	9.66
371.708	9.67
372.071	9.62
372.434	9.47
372.797	9.41
373.159	9.33
373.522	9.21
373.885	9.12
374.247	9.05
374.61	9.02
374.973	8.92
375.335	8.81
375.698	8.64
376.06	8.61
376.423	8.6
376.785	8.63
377.147	8.54
377.51	8.45
377.872	8.3
378.234	8.2
378.596	8.2
378.958	8.12
379.321	7.95
379.683	7.93
380.045	7.88
380.407	7.77
380.769	7.69
381.13	7.65
381.492	7.6
381.854	7.48
382.216	7.4
382.578	7.32
382.939	7.33
383.301	7.29
383.663	7.23
384.024	7.11
384.386	6.93
384.747	6.9
385.109	6.84
385.47	6.86
385.832	6.8
386.193	6.69
386.554	6.57
386.916	6.53
387.277	6.41
387.638	6.35
387.999	6.32
388.36	6.3
388.721	6.23
389.082	6.14
389.443	6.12
389.804	6.08
390.165	6.02
390.526	5.94
390.887	5.9
391.248	5.84
391.609	5.82
391.969	5.85
392.33	5.79
392.691	5.78
393.051	5.71
393.412	5.66
393.772	5.64
394.133	5.64
394.493	5.6
394.854	5.57
395.214	5.56
395.574	5.49
395.935	5.42
396.295	5.33
396.655	5.31
397.015	5.25
397.376	5.21
397.736	5.13
398.096	5.09
398.456	5.07
398.816	5.03
399.176	4.98
399.535	4.91
399.895	4.87
400.255	4.81
400.615	4.76
400.975	4.72
401.334	4.66
401.694	4.6
402.054	4.57
402.413	4.53
402.773	4.5
403.132	4.48
403.492	4.47
403.851	4.49
404.211	4.48
404.57	4.48
404.929	4.45
405.288	4.43
405.648	4.38
406.007	4.35
406.366	4.31
406.725	4.29
407.084	4.27
407.443	4.24
407.802	4.22
408.161	4.22
408.52	4.21
408.879	4.23
409.238	4.2
409.596	4.18
409.955	4.17
410.314	4.14
410.673	4.15
411.031	4.13
411.39	4.09
411.748	4.12
412.107	4.09
412.465	4.06
412.824	4.07
413.182	4.06
413.54	4.05
413.899	4.06
414.257	4.05
414.615	4.02
414.974	4
415.332	3.99
415.69	3.96
416.048	3.92
416.406	3.87
416.764	3.87
417.122	3.87
417.48	3.86
417.838	3.85
418.195	3.82
418.553	3.79
418.911	3.78
419.269	3.74
419.626	3.71
419.984	3.69
420.342	3.67
420.699	3.66
421.057	3.65
421.414	3.61
421.772	3.58
422.129	3.56
422.486	3.56
422.844	3.54
423.201	3.53
423.558	3.52
423.915	3.51
424.273	3.51
424.63	3.49
424.987	3.48
425.344	3.47
425.701	3.45
426.058	3.43
426.415	3.44
426.772	3.42
427.128	3.42
427.485	3.42
427.842	3.41
428.199	3.4
428.555	3.37
428.912	3.37
429.269	3.36
429.625	3.35
429.982	3.34
430.338	3.34
430.695	3.31
431.051	3.31
431.407	3.29
431.764	3.25
432.12	3.24
432.476	3.24
432.832	3.24
433.189	3.24
433.545	3.25
433.901	3.24
434.257	3.22
434.613	3.23
434.969	3.23
435.325	3.23
435.681	3.21
436.036	3.21
436.392	3.23
436.748	3.24
437.104	3.24
437.459	3.23
437.815	3.23
438.171	3.24
438.526	3.25
438.882	3.25
439.237	3.27
439.593	3.25
439.948	3.25
440.304	3.23
440.659	3.23
441.014	3.22
441.369	3.21
441.725	3.22
442.08	3.2
442.435	3.19
442.79	3.18
443.145	3.18
443.5	3.18
443.855	3.17
444.21	3.17
444.565	3.19
444.92	3.18
445.275	3.18
445.629	3.18
445.984	3.18
446.339	3.18
446.693	3.18
447.048	3.18
447.403	3.17
447.757	3.16
448.112	3.17
448.466	3.16
448.82	3.16
449.175	3.16
449.529	3.17
449.883	3.15
450.238	3.15
450.592	3.16
450.946	3.16
451.3	3.16
451.654	3.14
452.008	3.11
452.362	3.11
452.716	3.1
453.07	3.09
453.424	3.09
453.778	3.07
454.132	3.04
454.486	3.04
454.839	3.04
455.193	3.05
455.547	3.06
455.9	3.06
456.254	3.05
456.607	3.05
456.961	3.05
457.314	3.05
457.668	3.06
458.021	3.05
458.375	3.04
458.728	3.04
459.081	3.04
459.434	3.04
459.787	3.03
460.141	3.03
460.494	3.03
460.847	3.01
461.2	3.03
461.553	3.04
461.906	3.04
462.259	3.04
462.611	3.05
462.964	3.03
463.317	3.05
463.67	3.05
464.022	3.06
464.375	3.06
464.728	3.09
465.08	3.06
465.433	3.07
465.785	3.1
466.138	3.11
466.49	3.13
466.843	3.14
467.195	3.16
467.547	3.18
467.899	3.21
468.252	3.24
468.604	3.23
468.956	3.23
469.308	3.23
469.66	3.25
470.012	3.23
470.364	3.25
470.716	3.25
471.068	3.26
471.42	3.25
471.772	3.24
472.123	3.25
472.475	3.29
472.827	3.3
473.178	3.29
473.53	3.28
473.882	3.29
474.233	3.28
474.585	3.28
474.936	3.28
475.288	3.27
475.639	3.29
475.99	3.3
476.342	3.32
476.693	3.35
477.044	3.35
477.395	3.37
477.746	3.37
478.097	3.36
478.448	3.35
478.8	3.35
479.15	3.36
479.501	3.35
479.852	3.35
480.203	3.35
480.554	3.37
480.905	3.37
481.255	3.37
481.606	3.38
481.957	3.38
482.307	3.36
482.658	3.37
483.009	3.35
483.359	3.36
483.709	3.35
484.06	3.34
484.41	3.33
484.761	3.33
485.111	3.33
485.461	3.33
485.811	3.32
486.162	3.33
486.512	3.32
486.862	3.33
487.212	3.33
487.562	3.31
487.912	3.31
488.262	3.3
488.612	3.3
488.961	3.3
489.311	3.29
489.661	3.3
490.011	3.28
490.36	3.3
490.71	3.29
491.06	3.27
491.409	3.27
491.759	3.28
492.108	3.29
492.458	3.29
492.807	3.29
493.157	3.3
493.506	3.3
493.855	3.32
494.204	3.33
494.554	3.34
494.903	3.36
495.252	3.38
495.601	3.41
495.95	3.42
496.299	3.43
496.648	3.45
496.997	3.47
497.346	3.52
497.695	3.52
498.043	3.54
498.392	3.58
498.741	3.63
499.09	3.67
499.438	3.69
499.787	3.72
500.135	3.78
500.484	3.82
500.832	3.87
501.181	3.89
501.529	3.92
501.878	3.96
502.226	4
502.574	4.04
502.923	4.1
503.271	4.14
503.619	4.19
503.967	4.24
504.315	4.3
504.663	4.35
505.011	4.41
505.359	4.47
505.707	4.55
506.055	4.61
506.403	4.68
506.751	4.74
507.098	4.81
507.446	4.86
507.794	4.91
508.141	4.97
508.489	5.05
508.837	5.11
509.184	5.19
509.531	5.28
509.879	5.35
510.226	5.42
510.574	5.52
510.921	5.61
511.268	5.71
511.616	5.81
511.963	5.92
512.31	6.02
512.657	6.11
513.004	6.21
513.351	6.31
513.698	6.42
514.045	6.54
514.392	6.68
514.739	6.83
515.086	6.99
515.432	7.13
515.779	7.28
516.126	7.43
516.473	7.55
516.819	7.68
517.166	7.81
517.512	7.94
517.859	8.05
518.205	8.13
518.552	8.23
518.898	8.34
519.245	8.45
519.591	8.58
519.937	8.72
520.283	8.85
520.629	8.96
520.976	9.09
521.322	9.24
521.668	9.38
522.014	9.52
522.36	9.66
522.706	9.82
523.052	9.99
523.398	10.2
523.743	10.4
524.089	10.61
524.435	10.78
524.781	10.96
525.126	11.13
525.472	11.3
525.817	11.44
526.163	11.56
526.509	11.68
526.854	11.78
527.199	11.89
527.545	11.99
527.89	12.11
528.235	12.22
528.581	12.31
528.926	12.43
529.271	12.53
529.616	12.64
529.961	12.73
530.306	12.83
530.651	12.94
530.996	13.05
531.341	13.15
531.686	13.28
532.031	13.4
532.376	13.53
532.721	13.68
533.065	13.81
533.41	13.95
533.755	14.12
534.099	14.27
534.444	14.42
534.788	14.57
535.133	14.73
535.477	14.88
535.822	15.07
536.166	15.23
536.51	15.41
536.855	15.58
537.199	15.79
537.543	16
537.887	16.18
538.231	16.4
538.576	16.6
538.92	16.8
539.264	16.98
539.608	17.17
539.951	17.34
540.295	17.51
540.639	17.68
540.983	17.84
541.327	18.02
541.671	18.16
542.014	18.33
542.358	18.47
542.701	18.63
543.045	18.77
543.389	18.92
543.732	19.09
544.075	19.28
544.419	19.45
544.762	19.61
545.105	19.82
545.449	20
545.792	20.2
546.135	20.42
546.478	20.65
546.821	20.89
547.165	21.15
547.508	21.39
547.851	21.67
548.194	21.87
548.536	22.12
548.879	22.4
549.222	22.64
549.565	22.93
549.908	23.15
550.25	23.44
550.593	23.71
550.936	23.96
551.278	24.2
551.621	24.51
551.963	24.78
552.306	25.08
552.648	25.32
552.991	25.61
553.333	25.81
553.675	26.08
554.017	26.32
554.36	26.59
554.702	26.86
555.044	27.07
555.386	27.38
555.728	27.64
556.07	27.89
556.412	28.2
556.754	28.43
557.096	28.79
557.438	29.07
557.78	29.39
558.121	29.75
558.463	30.07
558.805	30.4
559.147	30.65
559.488	30.93
559.83	31.28
560.171	31.59
560.513	31.96
560.854	32.28
561.196	32.6
561.537	32.89
561.878	33.21
562.22	33.56
562.561	33.84
562.902	34.14
563.243	34.49
563.584	34.72
563.925	35.05
564.266	35.29
564.607	35.59
564.948	35.85
565.289	36.13
565.63	36.37
565.971	36.62
566.312	36.96
566.653	37.26
566.993	37.56
567.334	37.81
567.675	38.08
568.015	38.33
568.356	38.61
568.696	38.9
569.037	39.14
569.377	39.36
569.718	39.66
570.058	39.94
570.398	40.16
570.739	40.48
571.079	40.77
571.419	41.08
571.759	41.37
572.099	41.6
572.439	41.84
572.779	42.14
573.119	42.38
573.459	42.62
573.799	42.82
574.139	43.04
574.479	43.27
574.819	43.46
575.158	43.65
575.498	43.83
575.838	44
576.177	44.21
576.517	44.42
576.856	44.65
577.196	44.86
577.535	45.08
577.875	45.33
578.214	45.49
578.553	45.68
578.893	45.81
579.232	46.07
579.571	46.33
579.91	46.51
580.25	46.79
580.589	46.96
580.928	47.16
581.267	47.3
581.606	47.53
581.945	47.79
582.283	48
582.622	48.19
582.961	48.47
583.3	48.68
583.639	48.95
583.977	49.15
584.316	49.35
584.654	49.56
584.993	49.61
585.332	49.84
585.67	50.08
586.008	50.39
586.347	50.57
586.685	50.69
587.024	50.88
587.362	51.02
587.7	51.27
588.038	51.46
588.376	51.74
588.715	51.95
589.053	52.08
589.391	52.38
589.729	52.6
590.067	52.72
590.404	52.85
590.742	53.01
591.08	53.19
591.418	53.33
591.756	53.53
592.093	53.82
592.431	54.04
592.769	54.2
593.106	54.31
593.444	54.46
593.781	54.66
594.119	54.86
594.456	54.95
594.793	54.99
595.131	55.14
595.468	55.18
595.805	55.29
596.143	55.51
596.48	55.56
596.817	55.62
597.154	55.8
597.491	55.98
597.828	56.06
598.165	56.18
598.502	56.34
598.839	56.48
599.176	56.56
599.512	56.71
599.849	56.87
600.186	57.01
600.523	57.15
600.859	57.24
601.196	57.29
601.532	57.41
601.869	57.68
602.205	57.69
602.542	57.86
602.878	57.9
603.215	57.92
603.551	58.02
603.887	58.18
604.223	58.13
604.56	58.22
604.896	58.37
605.232	58.42
605.568	58.56
605.904	58.6
606.24	58.7
606.576	58.71
606.912	58.75
607.248	58.8
607.583	58.91
607.919	59.02
608.255	59.12
608.591	59.25
608.926	59.17
609.262	59.34
609.597	59.33
609.933	59.47
610.268	59.52
610.604	59.56
610.939	59.67
611.275	59.86
611.61	59.9
611.945	59.91
612.281	59.98
612.616	59.98
612.951	60.1
613.286	60.17
613.621	60.23
613.956	60.26
614.291	60.31
614.626	60.27
614.961	60.25
615.296	60.36
615.631	60.43
615.966	60.59
616.3	60.6
616.635	60.81
616.97	60.79
617.304	60.89
617.639	61.04
617.973	61.01
618.308	61.04
618.642	61.08
618.977	61.09
619.311	61.16
619.646	61.25
619.98	61.25
620.314	61.26
620.648	61.29
620.983	61.32
621.317	61.4
621.651	61.49
621.985	61.66
622.319	61.81
622.653	61.8
622.987	61.87
623.321	61.92
623.655	61.87
623.988	61.87
624.322	61.95
624.656	61.96
624.99	62.02
625.323	62.11
625.657	62.15
625.99	62.28
626.324	62.32
626.657	62.45
626.991	62.45
627.324	62.48
627.658	62.58
627.991	62.64
628.324	62.7
628.657	62.7
628.991	62.64
629.324	62.59
629.657	62.6
629.99	62.57
630.323	62.65
630.656	62.66
630.989	62.85
631.322	62.84
631.655	62.94
631.987	62.94
632.32	62.89
632.653	62.96
632.986	62.91
633.318	62.89
633.651	62.74
633.984	62.84
634.316	62.9
634.649	62.88
634.981	62.89
635.313	62.99
635.646	63.07
635.978	63.11
636.31	63.11
636.643	63.09
636.975	63.15
637.307	63.16
637.639	63.2
637.971	63.13
638.303	63.25
638.635	63.13
638.967	63.16
639.299	63.26
639.631	63.26
639.963	63.36
640.295	63.43
640.626	63.48
640.958	63.41
641.29	63.48
641.621	63.51
641.953	63.55
642.285	63.5
642.616	63.48
642.948	63.56
643.279	63.58
643.61	63.67
643.942	63.7
644.273	63.69
644.604	63.79
644.936	63.83
645.267	63.68
645.598	63.66
645.929	63.57
646.26	63.54
646.591	63.58
646.922	63.52
647.253	63.61
647.584	63.64
647.915	63.72
648.245	63.7
648.576	63.72
648.907	63.82
649.238	63.82
649.568	63.85
649.899	63.9
650.229	63.99
650.56	63.98
650.89	64.01
651.221	64.03
651.551	63.99
651.882	63.99
652.212	64.13
652.542	64.14
652.872	64.32
653.203	64.37
653.533	64.33
653.863	64.49
654.193	64.45
654.523	64.53
654.853	64.46
655.183	64.52
655.513	64.56
655.843	64.49
656.172	64.44
656.502	64.62
656.832	64.56
657.162	64.5
657.491	64.64
657.821	64.57
658.15	64.75
658.48	64.83
658.809	64.97
659.139	64.84
659.468	65.01
659.798	64.99
660.127	65.15
660.456	65.18
660.785	65.12
661.115	65.21
661.444	65.28
661.773	65.34
662.102	65.41
662.431	65.35
662.76	65.38
663.089	65.52
663.418	65.43
663.747	65.41
664.076	65.34
664.404	65.24
664.733	65.26
665.062	65.19
665.39	65.2
665.719	65.06
