Data from BU57737_Reflection_00010.txt Node
Date: Mon Nov 18 16:29:59 EST 2019
User: vgr7
Spectrometer: USB2G7710
Scans to average: 3
Trigger mode: 4
Integration Time (sec): 2.000000E-2
Electric dark correction enabled: true
Boxcar width: 10
XAxis mode: Wavelengths
Number of Pixels in Spectrum: 2048
>>>>>Begin Spectral Data<<<<<
177.721	90.14
178.105	-169.84
178.488	-87.54
178.871	-34.03
179.254	-69.84
179.636	-325.17
180.019	-179.15
180.402	103.85
180.785	-51.87
181.168	-554.76
181.55	130.03
181.933	84.65
182.316	81.55
182.698	98.86
183.081	161.38
183.463	235.64
183.846	111.48
184.228	125.02
184.611	175.5
184.993	140.98
185.376	115.91
185.758	83.86
186.14	98.96
186.522	69.94
186.904	74.54
187.287	44.69
187.669	42.54
188.051	81.12
188.433	141.37
188.815	93.21
189.197	60.33
189.579	50.17
189.961	17.9
190.342	61.01
190.724	-78.48
191.106	-131.88
191.488	-4566.67
191.869	52.21
192.251	25.61
192.633	48.17
193.014	3.89
193.396	16.54
193.777	21.14
194.159	32.84
194.54	53.69
194.922	68.17
195.303	41.55
195.684	34.21
196.065	42.25
196.447	48.24
196.828	33.17
197.209	24.33
197.59	28.41
197.971	9.22
198.352	21.44
198.733	9.67
199.114	16.37
199.495	21.39
199.876	19.81
200.257	29.85
200.638	37
201.018	51.33
201.399	30.63
201.78	33.07
202.16	28.72
202.541	2.49
202.922	-26.98
203.302	-26.29
203.683	-60.11
204.063	-102.59
204.444	-314.57
204.824	-113.7
205.204	-163.25
205.585	-213.02
205.965	-108.75
206.345	-278.07
206.725	-360.22
207.106	-312.33
207.486	-185.3
207.866	-467.66
208.246	4403.03
208.626	17211.11
209.006	-253.15
209.386	1240.74
209.766	421.51
210.145	326.54
210.525	-40.86
210.905	-44.43
211.285	-24.62
211.664	7.72
212.044	23.81
212.424	22.52
212.803	7.55
213.183	9.48
213.562	33.39
213.942	74.88
214.321	47.67
214.701	36.17
215.08	30.42
215.459	32.92
215.838	43.67
216.218	42.05
216.597	44.6
216.976	51.21
217.355	56.26
217.734	64.21
218.113	54.08
218.492	70.65
218.871	65.02
219.25	102.04
219.629	114.31
220.008	95.52
220.387	81.47
220.766	85.17
221.144	82.49
221.523	84.57
221.902	60.99
222.28	79.15
222.659	93.88
223.037	95.77
223.416	82.95
223.794	53.5
224.173	32.16
224.551	39.03
224.929	25.14
225.308	26.75
225.686	15.44
226.064	14.96
226.442	9.96
226.821	6.21
227.199	3.02
227.577	-1.09
227.955	1.3
228.333	3.75
228.711	3.7
229.089	6.8
229.467	6.32
229.845	3.66
230.222	4.13
230.6	1.79
230.978	1.25
231.356	4.56
231.733	7.09
232.111	8.02
232.488	7.25
232.866	8.81
233.243	8.71
233.621	8.97
233.998	10.62
234.376	10.2
234.753	12.31
235.13	11.64
235.508	14.03
235.885	11.67
236.262	10.62
236.639	9.71
237.016	7.98
237.393	9.51
237.77	10.85
238.147	9.77
238.524	9.1
238.901	9.54
239.278	8.52
239.655	8.6
240.032	7.91
240.409	6.9
240.785	6.77
241.162	6.34
241.539	6.13
241.915	5.7
242.292	5.46
242.668	5.33
243.045	5.04
243.421	4.46
243.798	4.35
244.174	4.2
244.551	4.58
244.927	4.67
245.303	4.57
245.679	4.47
246.056	4.33
246.432	4.47
246.808	4.24
247.184	3.94
247.56	3.72
247.936	3.8
248.312	3.78
248.688	3.82
249.064	3.66
249.44	3.91
249.815	3.94
250.191	3.93
250.567	3.89
250.943	3.99
251.318	4.09
251.694	4.29
252.069	4.37
252.445	4.15
252.82	3.99
253.196	3.55
253.571	3.68
253.947	3.72
254.322	3.59
254.697	3.51
255.073	3.62
255.448	3.53
255.823	3.49
256.198	3.51
256.573	3.49
256.948	3.75
257.323	3.6
257.698	3.5
258.073	3.54
258.448	3.48
258.823	3.36
259.198	3.15
259.573	3.01
259.948	3
260.322	2.9
260.697	2.92
261.072	3.09
261.446	2.95
261.821	2.96
262.195	2.95
262.57	2.93
262.944	2.85
263.319	2.88
263.693	2.84
264.067	3.03
264.442	2.95
264.816	2.93
265.19	2.74
265.564	2.8
265.938	2.75
266.313	2.84
266.687	2.9
267.061	3.16
267.435	3.27
267.809	3.27
268.183	3.51
268.556	3.3
268.93	3.31
269.304	3.34
269.678	3.44
270.051	3.41
270.425	3.52
270.799	3.66
271.172	3.64
271.546	3.68
271.919	3.47
272.293	3.37
272.666	3.25
273.04	3.29
273.413	3.24
273.787	3.26
274.16	3.24
274.533	3.32
274.906	3.28
275.279	3.32
275.653	3.28
276.026	3.07
276.399	3.27
276.772	3.11
277.145	3.14
277.518	3.08
277.891	3.22
278.263	3.16
278.636	3.04
279.009	3
279.382	2.88
279.755	2.77
280.127	3.15
280.5	3.2
280.872	3.33
281.245	3.15
281.617	3.22
281.99	3.15
282.362	3.16
282.735	3.16
283.107	3.21
283.479	3.31
283.852	3.36
284.224	3.31
284.596	3.34
284.968	3.3
285.34	3.16
285.713	3.11
286.085	3.12
286.457	3.13
286.829	3.13
287.201	3.29
287.572	3.35
287.944	3.18
288.316	3.19
288.688	3.15
289.06	3.16
289.431	3.18
289.803	3.29
290.175	3.36
290.546	3.34
290.918	3.27
291.289	3.35
291.661	3.3
292.032	3.47
292.403	3.51
292.775	3.52
293.146	3.6
293.517	3.79
293.889	3.9
294.26	3.81
294.631	3.75
295.002	3.65
295.373	3.66
295.744	3.67
296.115	3.67
296.486	3.56
296.857	3.73
297.228	3.72
297.599	3.57
297.97	3.55
298.34	3.57
298.711	3.63
299.082	3.56
299.452	3.67
299.823	3.76
300.194	3.69
300.564	3.65
300.935	3.79
301.305	3.58
301.676	3.51
302.046	3.64
302.416	3.8
302.787	3.93
303.157	4.09
303.527	4.14
303.897	4.25
304.267	4.44
304.637	4.42
305.008	4.42
305.378	4.54
305.748	4.47
306.117	4.42
306.487	4.46
306.857	4.36
307.227	4.39
307.597	4.32
307.967	4.47
308.336	4.71
308.706	4.76
309.076	4.87
309.445	4.98
309.815	4.97
310.184	5.05
310.554	5.06
310.923	4.91
311.293	4.84
311.662	4.82
312.031	4.91
312.401	4.92
312.77	5.02
313.139	5.1
313.508	5.2
313.877	5.31
314.246	5.42
314.616	5.68
314.985	5.74
315.353	5.77
315.722	5.8
316.091	5.76
316.46	5.73
316.829	5.81
317.198	5.8
317.567	5.84
317.935	5.89
318.304	6.09
318.672	6.2
319.041	6.39
319.41	6.49
319.778	6.43
320.147	6.64
320.515	6.56
320.883	6.53
321.252	6.61
321.62	6.63
321.988	6.67
322.357	6.56
322.725	6.59
323.093	6.62
323.461	6.7
323.829	6.76
324.197	6.77
324.565	6.73
324.933	6.76
325.301	6.87
325.669	6.76
326.037	6.7
326.405	6.84
326.772	6.85
327.14	6.95
327.508	7.01
327.875	6.88
328.243	7.02
328.61	7.1
328.978	7.06
329.346	7.06
329.713	6.95
330.08	7.07
330.448	7
330.815	7.02
331.182	7.12
331.55	7.11
331.917	7.21
332.284	7.22
332.651	7.33
333.018	7.37
333.385	7.34
333.752	7.43
334.119	7.4
334.486	7.46
334.853	7.41
335.22	7.46
335.587	7.48
335.954	7.56
336.32	7.62
336.687	7.67
337.054	7.84
337.42	7.96
337.787	7.91
338.153	8.01
338.52	8.15
338.886	8.12
339.253	8.15
339.619	8.16
339.986	8.27
340.352	8.19
340.718	8.1
341.084	8.18
341.451	8.12
341.817	8.24
342.183	8.2
342.549	8.19
342.915	8.3
343.281	8.28
343.647	8.27
344.013	8.27
344.379	8.26
344.745	8.21
345.11	8.07
345.476	8.12
345.842	8.1
346.208	7.94
346.573	7.84
346.939	7.9
347.304	7.83
347.67	7.73
348.035	7.8
348.401	7.87
348.766	7.89
349.132	7.91
349.497	7.7
349.862	7.77
350.228	7.73
350.593	7.59
350.958	7.69
351.323	7.6
351.688	7.55
352.053	7.47
352.418	7.44
352.783	7.48
353.148	7.46
353.513	7.45
353.878	7.5
354.243	7.54
354.608	7.44
354.972	7.5
355.337	7.49
355.702	7.51
356.066	7.45
356.431	7.44
356.795	7.43
357.16	7.48
357.524	7.38
357.889	7.3
358.253	7.35
358.618	7.33
358.982	7.29
359.346	7.21
359.71	7.16
360.075	7.13
360.439	7.12
360.803	7.05
361.167	7
361.531	6.93
361.895	6.88
362.259	6.86
362.623	6.83
362.987	6.77
363.351	6.69
363.714	6.67
364.078	6.62
364.442	6.54
364.806	6.52
365.169	6.5
365.533	6.48
365.896	6.39
366.26	6.3
366.623	6.31
366.987	6.27
367.35	6.36
367.714	6.26
368.077	6.24
368.44	6.25
368.803	6.19
369.167	6.16
369.53	6.1
369.893	6.16
370.256	6.12
370.619	6.09
370.982	5.92
371.345	5.92
371.708	5.94
372.071	5.84
372.434	5.77
372.797	5.74
373.159	5.72
373.522	5.71
373.885	5.68
374.247	5.59
374.61	5.55
374.973	5.44
375.335	5.43
375.698	5.4
376.06	5.3
376.423	5.29
376.785	5.27
377.147	5.23
377.51	5.1
377.872	5.09
378.234	5.07
378.596	5.12
378.958	5.07
379.321	4.95
379.683	4.97
380.045	4.99
380.407	4.94
380.769	4.94
381.13	4.86
381.492	4.84
381.854	4.77
382.216	4.77
382.578	4.77
382.939	4.73
383.301	4.65
383.663	4.66
384.024	4.55
384.386	4.51
384.747	4.5
385.109	4.48
385.47	4.37
385.832	4.32
386.193	4.29
386.554	4.25
386.916	4.28
387.277	4.26
387.638	4.23
387.999	4.16
388.36	4.08
388.721	4.08
389.082	4.07
389.443	4.05
389.804	3.98
390.165	3.92
390.526	3.94
390.887	3.9
391.248	3.87
391.609	3.91
391.969	3.9
392.33	3.89
392.691	3.85
393.051	3.87
393.412	3.87
393.772	3.86
394.133	3.86
394.493	3.81
394.854	3.81
395.214	3.79
395.574	3.77
395.935	3.77
396.295	3.72
396.655	3.69
397.015	3.71
397.376	3.72
397.736	3.69
398.096	3.66
398.456	3.67
398.816	3.65
399.176	3.58
399.535	3.56
399.895	3.54
400.255	3.55
400.615	3.52
400.975	3.47
401.334	3.42
401.694	3.39
402.054	3.39
402.413	3.37
402.773	3.32
403.132	3.32
403.492	3.31
403.851	3.31
404.211	3.29
404.57	3.25
404.929	3.23
405.288	3.24
405.648	3.21
406.007	3.2
406.366	3.2
406.725	3.24
407.084	3.24
407.443	3.22
407.802	3.21
408.161	3.21
408.52	3.2
408.879	3.2
409.238	3.19
409.596	3.19
409.955	3.15
410.314	3.17
410.673	3.15
411.031	3.15
411.39	3.14
411.748	3.09
412.107	3.1
412.465	3.1
412.824	3.1
413.182	3.08
413.54	3.07
413.899	3.07
414.257	3.06
414.615	3.03
414.974	3.04
415.332	3.03
415.69	3
416.048	3
416.406	3
416.764	3
417.122	2.97
417.48	2.95
417.838	2.93
418.195	2.92
418.553	2.89
418.911	2.89
419.269	2.9
419.626	2.89
419.984	2.88
420.342	2.87
420.699	2.85
421.057	2.85
421.414	2.81
421.772	2.81
422.129	2.8
422.486	2.78
422.844	2.78
423.201	2.75
423.558	2.75
423.915	2.75
424.273	2.73
424.63	2.73
424.987	2.74
425.344	2.73
425.701	2.73
426.058	2.74
426.415	2.73
426.772	2.72
427.128	2.71
427.485	2.72
427.842	2.71
428.199	2.72
428.555	2.7
428.912	2.73
429.269	2.71
429.625	2.69
429.982	2.69
430.338	2.68
430.695	2.7
431.051	2.69
431.407	2.68
431.764	2.68
432.12	2.67
432.476	2.66
432.832	2.65
433.189	2.64
433.545	2.64
433.901	2.64
434.257	2.62
434.613	2.65
434.969	2.67
435.325	2.65
435.681	2.67
436.036	2.64
436.392	2.65
436.748	2.66
437.104	2.67
437.459	2.67
437.815	2.67
438.171	2.68
438.526	2.68
438.882	2.69
439.237	2.67
439.593	2.68
439.948	2.67
440.304	2.69
440.659	2.7
441.014	2.7
441.369	2.68
441.725	2.68
442.08	2.66
442.435	2.63
442.79	2.64
443.145	2.63
443.5	2.65
443.855	2.65
444.21	2.64
444.565	2.64
444.92	2.66
445.275	2.64
445.629	2.64
445.984	2.63
446.339	2.61
446.693	2.61
447.048	2.6
447.403	2.59
447.757	2.59
448.112	2.58
448.466	2.57
448.82	2.58
449.175	2.59
449.529	2.59
449.883	2.57
450.238	2.56
450.592	2.58
450.946	2.57
451.3	2.56
451.654	2.56
452.008	2.55
452.362	2.53
452.716	2.52
453.07	2.53
453.424	2.54
453.778	2.56
454.132	2.56
454.486	2.57
454.839	2.6
455.193	2.58
455.547	2.56
455.9	2.57
456.254	2.56
456.607	2.56
456.961	2.54
457.314	2.56
457.668	2.56
458.021	2.53
458.375	2.52
458.728	2.52
459.081	2.51
459.434	2.52
459.787	2.52
460.141	2.53
460.494	2.54
460.847	2.52
461.2	2.52
461.553	2.51
461.906	2.51
462.259	2.5
462.611	2.52
462.964	2.53
463.317	2.52
463.67	2.51
464.022	2.51
464.375	2.52
464.728	2.52
465.08	2.53
465.433	2.54
465.785	2.55
466.138	2.54
466.49	2.55
466.843	2.55
467.195	2.55
467.547	2.55
467.899	2.53
468.252	2.53
468.604	2.54
468.956	2.56
469.308	2.55
469.66	2.56
470.012	2.58
470.364	2.58
470.716	2.59
471.068	2.6
471.42	2.6
471.772	2.61
472.123	2.61
472.475	2.61
472.827	2.6
473.178	2.62
473.53	2.64
473.882	2.65
474.233	2.65
474.585	2.63
474.936	2.62
475.288	2.63
475.639	2.66
475.99	2.67
476.342	2.67
476.693	2.69
477.044	2.68
477.395	2.66
477.746	2.67
478.097	2.67
478.448	2.66
478.8	2.67
479.15	2.66
479.501	2.67
479.852	2.68
480.203	2.69
480.554	2.68
480.905	2.68
481.255	2.69
481.606	2.69
481.957	2.71
482.307	2.71
482.658	2.7
483.009	2.69
483.359	2.68
483.709	2.69
484.06	2.68
484.41	2.68
484.761	2.69
485.111	2.69
485.461	2.69
485.811	2.7
486.162	2.68
486.512	2.68
486.862	2.68
487.212	2.67
487.562	2.67
487.912	2.67
488.262	2.67
488.612	2.67
488.961	2.67
489.311	2.66
489.661	2.66
490.011	2.66
490.36	2.66
490.71	2.66
491.06	2.65
491.409	2.65
491.759	2.65
492.108	2.65
492.458	2.64
492.807	2.64
493.157	2.65
493.506	2.67
493.855	2.68
494.204	2.69
494.554	2.69
494.903	2.7
495.252	2.7
495.601	2.7
495.95	2.7
496.299	2.7
496.648	2.71
496.997	2.71
497.346	2.74
497.695	2.76
498.043	2.78
498.392	2.78
498.741	2.8
499.09	2.81
499.438	2.83
499.787	2.84
500.135	2.88
500.484	2.88
500.832	2.88
501.181	2.9
501.529	2.91
501.878	2.94
502.226	2.97
502.574	2.98
502.923	3.02
503.271	3.03
503.619	3.05
503.967	3.08
504.315	3.1
504.663	3.12
505.011	3.14
505.359	3.15
505.707	3.19
506.055	3.21
506.403	3.24
506.751	3.27
507.098	3.3
507.446	3.32
507.794	3.36
508.141	3.39
508.489	3.41
508.837	3.44
509.184	3.48
509.531	3.51
509.879	3.55
510.226	3.59
510.574	3.62
510.921	3.66
511.268	3.69
511.616	3.76
511.963	3.78
512.31	3.82
512.657	3.87
513.004	3.92
513.351	3.97
513.698	4.01
514.045	4.07
514.392	4.13
514.739	4.2
515.086	4.25
515.432	4.31
515.779	4.37
516.126	4.44
516.473	4.51
516.819	4.57
517.166	4.65
517.512	4.71
517.859	4.75
518.205	4.8
518.552	4.87
518.898	4.9
519.245	4.95
519.591	5.03
519.937	5.08
520.283	5.14
520.629	5.22
520.976	5.31
521.322	5.39
521.668	5.47
522.014	5.57
522.36	5.64
522.706	5.75
523.052	5.86
523.398	5.97
523.743	6.07
524.089	6.18
524.435	6.28
524.781	6.38
525.126	6.5
525.472	6.6
525.817	6.69
526.163	6.78
526.509	6.87
526.854	6.95
527.199	7.04
527.545	7.12
527.89	7.21
528.235	7.29
528.581	7.37
528.926	7.46
529.271	7.54
529.616	7.63
529.961	7.71
530.306	7.81
530.651	7.91
530.996	8.02
531.341	8.15
531.686	8.27
532.031	8.4
532.376	8.53
532.721	8.66
533.065	8.8
533.41	8.95
533.755	9.1
534.099	9.26
534.444	9.41
534.788	9.57
535.133	9.72
535.477	9.88
535.822	10.04
536.166	10.22
536.51	10.43
536.855	10.67
537.199	10.92
537.543	11.16
537.887	11.42
538.231	11.65
538.576	11.91
538.92	12.16
539.264	12.38
539.608	12.62
539.951	12.84
540.295	13.07
540.639	13.29
540.983	13.49
541.327	13.7
541.671	13.91
542.014	14.13
542.358	14.35
542.701	14.58
543.045	14.8
543.389	15.02
543.732	15.24
544.075	15.49
544.419	15.72
544.762	15.96
545.105	16.21
545.449	16.48
545.792	16.72
546.135	17.03
546.478	17.35
546.821	17.64
547.165	18
547.508	18.37
547.851	18.71
548.194	19.05
548.536	19.4
548.879	19.77
549.222	20.12
549.565	20.47
549.908	20.84
550.25	21.22
550.593	21.63
550.936	21.97
551.278	22.33
551.621	22.7
551.963	23.09
552.306	23.47
552.648	23.83
552.991	24.27
553.333	24.59
553.675	24.96
554.017	25.33
554.36	25.67
554.702	25.99
555.044	26.34
555.386	26.71
555.728	27.06
556.07	27.42
556.412	27.78
556.754	28.16
557.096	28.53
557.438	28.89
557.78	29.22
558.121	29.64
558.463	30.01
558.805	30.41
559.147	30.78
559.488	31.12
559.83	31.5
560.171	31.88
560.513	32.28
560.854	32.59
561.196	32.98
561.537	33.31
561.878	33.61
562.22	33.97
562.561	34.35
562.902	34.65
563.243	34.99
563.584	35.34
563.925	35.67
564.266	35.98
564.607	36.33
564.948	36.65
565.289	36.95
565.63	37.25
565.971	37.5
566.312	37.8
566.653	38.1
566.993	38.36
567.334	38.62
567.675	38.91
568.015	39.22
568.356	39.48
568.696	39.83
569.037	40.16
569.377	40.41
569.718	40.63
570.058	41
570.398	41.25
570.739	41.56
571.079	41.82
571.419	42.04
571.759	42.26
572.099	42.51
572.439	42.7
572.779	42.91
573.119	43.15
573.459	43.39
573.799	43.62
574.139	43.88
574.479	44.09
574.819	44.29
575.158	44.55
575.498	44.81
575.838	45.02
576.177	45.23
576.517	45.51
576.856	45.75
577.196	45.95
577.535	46.21
577.875	46.4
578.214	46.63
578.553	46.89
578.893	47.1
579.232	47.33
579.571	47.56
579.91	47.75
580.25	48.05
580.589	48.23
580.928	48.46
581.267	48.65
581.606	48.84
581.945	49.08
582.283	49.25
582.622	49.4
582.961	49.55
583.3	49.71
583.639	49.91
583.977	50.14
584.316	50.27
584.654	50.47
584.993	50.62
585.332	50.76
585.67	50.92
586.008	51.16
586.347	51.36
586.685	51.6
587.024	51.8
587.362	51.86
587.7	52.13
588.038	52.28
588.376	52.5
588.715	52.65
589.053	52.74
589.391	52.86
589.729	53.02
590.067	53.19
590.404	53.36
590.742	53.49
591.08	53.64
591.418	53.81
591.756	53.91
592.093	54.16
592.431	54.3
592.769	54.47
593.106	54.6
593.444	54.71
593.781	54.8
594.119	54.9
594.456	55.07
594.793	55.06
595.131	55.13
595.468	55.14
595.805	55.28
596.143	55.38
596.48	55.46
596.817	55.54
597.154	55.62
597.491	55.69
597.828	55.76
598.165	55.78
598.502	55.9
598.839	56
599.176	55.98
599.512	56.09
599.849	56.14
600.186	56.19
600.523	56.3
600.859	56.52
601.196	56.64
601.532	56.71
601.869	56.9
602.205	57.09
602.542	57.22
602.878	57.33
603.215	57.41
603.551	57.48
603.887	57.56
604.223	57.63
604.56	57.76
604.896	57.84
605.232	57.93
605.568	57.93
605.904	58.06
606.24	58.17
606.576	58.29
606.912	58.37
607.248	58.39
607.583	58.48
607.919	58.54
608.255	58.63
608.591	58.75
608.926	58.76
609.262	58.83
609.597	58.86
609.933	58.94
610.268	59.04
610.604	59.21
610.939	59.28
611.275	59.34
611.61	59.35
611.945	59.41
612.281	59.52
612.616	59.72
612.951	59.7
613.286	59.76
613.621	59.85
613.956	59.91
614.291	60.16
614.626	60.22
614.961	60.26
615.296	60.3
615.631	60.35
615.966	60.55
616.3	60.58
616.635	60.66
616.97	60.64
617.304	60.73
617.639	60.68
617.973	60.74
618.308	60.72
618.642	60.75
618.977	60.8
619.311	60.89
619.646	60.85
619.98	60.95
620.314	60.99
620.648	60.98
620.983	61.09
621.317	61.15
621.651	61.25
621.985	61.32
622.319	61.35
622.653	61.32
622.987	61.25
623.321	61.25
623.655	61.29
623.988	61.36
624.322	61.37
624.656	61.41
624.99	61.47
625.323	61.62
625.657	61.7
625.99	61.84
626.324	61.94
626.657	62
626.991	62.04
627.324	62.1
627.658	62.17
627.991	62.15
628.324	62.15
628.657	62.1
628.991	62.05
629.324	62.15
629.657	62.28
629.99	62.35
630.323	62.42
630.656	62.56
630.989	62.71
631.322	62.74
631.655	62.75
631.987	62.85
632.32	62.82
632.653	62.74
632.986	62.64
633.318	62.58
633.651	62.69
633.984	62.63
634.316	62.64
634.649	62.68
634.981	62.72
635.313	62.73
635.646	62.91
635.978	62.89
636.31	62.95
636.643	62.97
636.975	62.91
637.307	62.9
637.639	62.88
637.971	62.76
638.303	62.76
638.635	62.81
638.967	62.78
639.299	62.93
639.631	63.1
639.963	63.13
640.295	63.11
640.626	63.01
640.958	63.19
641.29	63.25
641.621	63.19
641.953	63.19
642.285	63.21
642.616	63.11
642.948	63.25
643.279	63.2
643.61	63.32
643.942	63.49
644.273	63.64
644.604	63.77
644.936	63.77
645.267	63.79
645.598	63.93
645.929	63.92
646.26	63.84
646.591	63.75
646.922	63.81
647.253	63.86
647.584	63.81
647.915	63.75
648.245	63.67
648.576	63.79
648.907	63.93
649.238	64.03
649.568	64.12
649.899	64.17
650.229	64.25
650.56	64.15
650.89	64.15
651.221	64.14
651.551	63.87
651.882	63.99
652.212	64.22
652.542	64.1
652.872	64.11
653.203	64.2
653.533	64.36
653.863	64.3
654.193	64.34
654.523	64.38
654.853	64.36
655.183	64.46
655.513	64.5
655.843	64.4
656.172	64.35
656.502	64.32
656.832	64.1
657.162	64.1
657.491	64.1
657.821	64.04
658.15	64.12
658.48	64.34
658.809	64.35
659.139	64.23
659.468	64.3
659.798	64.29
660.127	64.27
660.456	64.27
660.785	64.38
661.115	64.38
661.444	64.48
661.773	64.68
662.102	64.63
662.431	64.61
662.76	64.7
663.089	64.72
663.418	64.75
663.747	64.91
664.076	64.98
664.404	65.05
664.733	65.13
665.062	65.06
665.39	64.92
665.719	64.84
666.048	64.83
666.376	64.93
666.705	64.95
667.033	64.94
667.362	64.89
667.69	64.75
668.018	64.62
668.347	64.57
668.675	64.5
669.003	64.47
669.331	64.39
669.659	64.39
669.987	64.36
