Data from BU57653_Reflection_00012.txt Node
Date: Mon Nov 18 16:52:21 EST 2019
User: vgr7
Spectrometer: USB2G7710
Scans to average: 3
Trigger mode: 4
Integration Time (sec): 2.000000E-2
Electric dark correction enabled: true
Boxcar width: 10
XAxis mode: Wavelengths
Number of Pixels in Spectrum: 2048
>>>>>Begin Spectral Data<<<<<
177.721	187.81
178.105	281.82
178.488	111.96
178.871	112.59
179.254	24.21
179.636	91.38
180.019	-58.21
180.402	100
180.785	39.86
181.168	102.58
181.55	43.22
181.933	62.71
182.316	78.98
182.698	62.76
183.081	83.71
183.463	73.38
183.846	89.18
184.228	-49.49
184.611	-109.45
184.993	-204.35
185.376	1100
185.758	-1136.02
186.14	-1370.59
186.522	193.38
186.904	131.55
187.287	76.79
187.669	87.58
188.051	45.84
188.433	74.74
188.815	29.68
189.197	1.08
189.579	-6.13
189.961	-22.03
190.342	-8.86
190.724	-8.06
191.106	-6.74
191.488	-39.65
191.869	-25.97
192.251	-61.79
192.633	-30.12
193.014	-45.97
193.396	-70.37
193.777	-75.31
194.159	-84.72
194.54	-104.99
194.922	-110.23
195.303	-124.18
195.684	-112.08
196.065	-86.81
196.447	-92.97
196.828	-81.79
197.209	-56.56
197.59	-46.38
197.971	-51.12
198.352	-41.11
198.733	-56.87
199.114	-25.96
199.495	-13.33
199.876	-27.35
200.257	-14.55
200.638	-31.29
201.018	-31.24
201.399	-35.25
201.78	-19.64
202.16	-20.1
202.541	-9.91
202.922	-35.29
203.302	-32.54
203.683	-31.94
204.063	-47.59
204.444	-27.37
204.824	-5.32
205.204	-16.5
205.585	-34.89
205.965	-23.75
206.345	-97.57
206.725	-175.39
207.106	-1491.72
207.486	-8629.73
207.866	319.24
208.246	917.49
208.626	-941.49
209.006	-159.73
209.386	-166.93
209.766	-207.76
210.145	-105.14
210.525	-106.1
210.905	-62.2
211.285	-48.73
211.664	-50.66
212.044	-40.32
212.424	-51.3
212.803	-98.23
213.183	-64.59
213.562	-62.67
213.942	-49.07
214.321	-23.21
214.701	-12.32
215.08	-2.31
215.459	-6.63
215.838	-8.82
216.218	-11.87
216.597	-22
216.976	-20.13
217.355	-9.66
217.734	-5.78
218.113	2.76
218.492	16.69
218.871	16.14
219.25	5.53
219.629	-4.14
220.008	-9.75
220.387	-5.38
220.766	14.63
221.144	24.26
221.523	21.57
221.902	3.55
222.28	-15.68
222.659	-11.69
223.037	-17.78
223.416	-18.26
223.794	-16.51
224.173	-14.41
224.551	-0.27
224.929	-4.02
225.308	-0.27
225.686	-1.95
226.064	-1.16
226.442	0.91
226.821	-0.47
227.199	3.26
227.577	4.35
227.955	3.6
228.333	6.08
228.711	5.05
229.089	4.88
229.467	3.85
229.845	3.38
230.222	6.96
230.6	5.3
230.978	5.95
231.356	9.54
231.733	7.8
232.111	8.24
232.488	7.4
232.866	7.46
233.243	6.64
233.621	5.87
233.998	5.06
234.376	3.07
234.753	4.58
235.13	3.58
235.508	3.7
235.885	3.73
236.262	1.56
236.639	2.57
237.016	1.86
237.393	4.1
237.77	5.25
238.147	5.46
238.524	6.33
238.901	6.76
239.278	6.1
239.655	6.73
240.032	6.7
240.409	6.15
240.785	6.05
241.162	6.47
241.539	6.62
241.915	6.56
242.292	6.5
242.668	5.88
243.045	5.45
243.421	5.47
243.798	5.32
244.174	5.29
244.551	5.13
244.927	5
245.303	4.79
245.679	4.81
246.056	4.56
246.432	4.21
246.808	4.16
247.184	3.82
247.56	3.73
247.936	3.59
248.312	3.8
248.688	3.98
249.064	3.85
249.44	4.07
249.815	4.3
250.191	4.52
250.567	4.59
250.943	4.71
251.318	4.46
251.694	4.48
252.069	4.65
252.445	4.67
252.82	4.66
253.196	4.57
253.571	4.64
253.947	4.84
254.322	5.2
254.697	5.17
255.073	5.01
255.448	4.88
255.823	4.92
256.198	4.66
256.573	4.48
256.948	4.28
257.323	4.24
257.698	3.98
258.073	3.74
258.448	3.79
258.823	3.83
259.198	3.81
259.573	3.81
259.948	3.77
260.322	3.71
260.697	3.64
261.072	3.52
261.446	3.54
261.821	3.52
262.195	3.53
262.57	3.41
262.944	3.4
263.319	3.38
263.693	3.22
264.067	3.35
264.442	3.45
264.816	3.59
265.19	3.37
265.564	3.31
265.938	3.2
266.313	3.22
266.687	3.34
267.061	3.51
267.435	3.48
267.809	3.32
268.183	3.29
268.556	3.41
268.93	3.71
269.304	3.68
269.678	3.87
270.051	3.88
270.425	3.93
270.799	4.13
271.172	4.06
271.546	4.2
271.919	4.2
272.293	4.17
272.666	4.06
273.04	4.04
273.413	4.08
273.787	4.17
274.16	4.02
274.533	3.81
274.906	3.78
275.279	3.84
275.653	3.92
276.026	4.02
276.399	4.06
276.772	4.02
277.145	3.93
277.518	3.72
277.891	3.65
278.263	3.46
278.636	3.42
279.009	3.49
279.382	3.5
279.755	3.45
280.127	3.57
280.5	3.61
280.872	3.76
281.245	3.62
281.617	3.57
281.99	3.56
282.362	3.65
282.735	3.55
283.107	3.51
283.479	3.47
283.852	3.5
284.224	3.52
284.596	3.46
284.968	3.5
285.34	3.61
285.713	3.64
286.085	3.88
286.457	3.97
286.829	4.05
287.201	4.06
287.572	4
287.944	3.82
288.316	3.84
288.688	3.73
289.06	3.84
289.431	3.93
289.803	4.09
290.175	4.1
290.546	4.22
290.918	4.29
291.289	4.42
291.661	4.35
292.032	4.43
292.403	4.47
292.775	4.53
293.146	4.34
293.517	4.3
293.889	4.29
294.26	4.38
294.631	4.22
295.002	4.19
295.373	4.24
295.744	4.31
296.115	4.34
296.486	4.39
296.857	4.48
297.228	4.66
297.599	4.71
297.97	4.76
298.34	4.78
298.711	4.9
299.082	4.83
299.452	4.86
299.823	4.93
300.194	4.98
300.564	4.93
300.935	5.15
301.305	5.27
301.676	5.32
302.046	5.32
302.416	5.6
302.787	5.7
303.157	5.8
303.527	5.97
303.897	6.14
304.267	6.39
304.637	6.4
305.008	6.52
305.378	6.58
305.748	6.74
306.117	6.91
306.487	6.92
306.857	7.04
307.227	7.24
307.597	7.22
307.967	7.3
308.336	7.58
308.706	7.63
309.076	7.72
309.445	7.72
309.815	7.81
310.184	7.89
310.554	7.97
310.923	7.98
311.293	8.05
311.662	8.04
312.031	8.01
312.401	8.12
312.77	8.11
313.139	8.19
313.508	8.2
313.877	8.21
314.246	8.24
314.616	8.3
314.985	8.36
315.353	8.51
315.722	8.65
316.091	8.62
316.46	8.6
316.829	8.77
317.198	9.08
317.567	8.99
317.935	9.11
318.304	9.27
318.672	9.48
319.041	9.69
319.41	9.89
319.778	9.96
320.147	10.05
320.515	10.07
320.883	10.21
321.252	10.33
321.62	10.52
321.988	10.56
322.357	10.65
322.725	10.62
323.093	10.63
323.461	10.72
323.829	10.8
324.197	10.98
324.565	10.96
324.933	10.91
325.301	11.05
325.669	11.02
326.037	10.99
326.405	10.97
326.772	10.88
327.14	11.07
327.508	11.19
327.875	11.19
328.243	11.32
328.61	11.37
328.978	11.42
329.346	11.46
329.713	11.53
330.08	11.71
330.448	11.78
330.815	11.85
331.182	11.86
331.55	11.8
331.917	11.77
332.284	11.91
332.651	11.88
333.018	11.99
333.385	12.08
333.752	12.19
334.119	12.27
334.486	12.31
334.853	12.1
335.22	12.14
335.587	12.29
335.954	12.23
336.32	12.08
336.687	12.2
337.054	12.29
337.42	12.3
337.787	12.31
338.153	12.35
338.52	12.41
338.886	12.41
339.253	12.52
339.619	12.64
339.986	12.58
340.352	12.69
340.718	12.64
341.084	12.61
341.451	12.67
341.817	12.8
342.183	12.76
342.549	12.81
342.915	12.75
343.281	12.78
343.647	12.86
344.013	13.01
344.379	12.93
344.745	12.84
345.11	12.81
345.476	12.77
345.842	12.82
346.208	12.85
346.573	12.9
346.939	12.98
347.304	12.92
347.67	12.84
348.035	12.84
348.401	12.88
348.766	12.85
349.132	12.82
349.497	12.72
349.862	12.79
350.228	12.83
350.593	12.73
350.958	12.53
351.323	12.47
351.688	12.39
352.053	12.47
352.418	12.54
352.783	12.58
353.148	12.58
353.513	12.54
353.878	12.49
354.243	12.46
354.608	12.35
354.972	12.35
355.337	12.47
355.702	12.5
356.066	12.45
356.431	12.44
356.795	12.35
357.16	12.3
357.524	12.22
357.889	12.15
358.253	12.19
358.618	12.23
358.982	12.19
359.346	12.13
359.71	12
360.075	11.95
360.439	11.89
360.803	11.9
361.167	11.9
361.531	11.79
361.895	11.75
362.259	11.67
362.623	11.68
362.987	11.55
363.351	11.44
363.714	11.43
364.078	11.36
364.442	11.27
364.806	11.18
365.169	11.11
365.533	11.04
365.896	10.93
366.26	10.8
366.623	10.7
366.987	10.67
367.35	10.6
367.714	10.36
368.077	10.29
368.44	10.15
368.803	10.01
369.167	9.93
369.53	9.76
369.893	9.69
370.256	9.57
370.619	9.52
370.982	9.42
371.345	9.21
371.708	9.14
372.071	9.07
372.434	9.01
372.797	8.99
373.159	8.92
373.522	8.84
373.885	8.75
374.247	8.64
374.61	8.63
374.973	8.56
375.335	8.58
375.698	8.47
376.06	8.35
376.423	8.22
376.785	8.17
377.147	8.13
377.51	8.03
377.872	7.93
378.234	7.79
378.596	7.75
378.958	7.67
379.321	7.57
379.683	7.52
380.045	7.45
380.407	7.31
380.769	7.2
381.13	7.15
381.492	7.08
381.854	7.07
382.216	6.88
382.578	6.82
382.939	6.75
383.301	6.66
383.663	6.55
384.024	6.5
384.386	6.45
384.747	6.41
385.109	6.39
385.47	6.29
385.832	6.22
386.193	6.11
386.554	6.09
386.916	6.05
387.277	6.01
387.638	5.98
387.999	5.94
388.36	5.89
388.721	5.84
389.082	5.8
389.443	5.7
389.804	5.67
390.165	5.59
390.526	5.53
390.887	5.53
391.248	5.52
391.609	5.49
391.969	5.43
392.33	5.36
392.691	5.31
393.051	5.27
393.412	5.27
393.772	5.25
394.133	5.2
394.493	5.16
394.854	5.1
395.214	5.02
395.574	4.99
395.935	4.95
396.295	4.95
396.655	4.92
397.015	4.9
397.376	4.86
397.736	4.78
398.096	4.75
398.456	4.7
398.816	4.68
399.176	4.64
399.535	4.58
399.895	4.55
400.255	4.5
400.615	4.48
400.975	4.43
401.334	4.38
401.694	4.37
402.054	4.33
402.413	4.29
402.773	4.26
403.132	4.2
403.492	4.18
403.851	4.14
404.211	4.13
404.57	4.08
404.929	4.05
405.288	4.06
405.648	4
406.007	3.99
406.366	3.94
406.725	3.9
407.084	3.89
407.443	3.89
407.802	3.9
408.161	3.88
408.52	3.85
408.879	3.83
409.238	3.82
409.596	3.79
409.955	3.77
410.314	3.76
410.673	3.72
411.031	3.7
411.39	3.67
411.748	3.66
412.107	3.65
412.465	3.64
412.824	3.63
413.182	3.6
413.54	3.57
413.899	3.58
414.257	3.58
414.615	3.56
414.974	3.51
415.332	3.47
415.69	3.42
416.048	3.39
416.406	3.38
416.764	3.35
417.122	3.35
417.48	3.31
417.838	3.31
418.195	3.31
418.553	3.31
418.911	3.28
419.269	3.25
419.626	3.23
419.984	3.21
420.342	3.19
420.699	3.19
421.057	3.19
421.414	3.17
421.772	3.16
422.129	3.16
422.486	3.15
422.844	3.14
423.201	3.13
423.558	3.13
423.915	3.11
424.273	3.09
424.63	3.06
424.987	3.06
425.344	3.06
425.701	3.04
426.058	3.02
426.415	3
426.772	2.99
427.128	2.99
427.485	2.99
427.842	2.98
428.199	2.98
428.555	2.96
428.912	2.96
429.269	2.95
429.625	2.93
429.982	2.91
430.338	2.9
430.695	2.91
431.051	2.9
431.407	2.9
431.764	2.9
432.12	2.9
432.476	2.89
432.832	2.88
433.189	2.89
433.545	2.9
433.901	2.9
434.257	2.89
434.613	2.89
434.969	2.91
435.325	2.91
435.681	2.91
436.036	2.91
436.392	2.9
436.748	2.9
437.104	2.91
437.459	2.93
437.815	2.92
438.171	2.92
438.526	2.94
438.882	2.96
439.237	2.96
439.593	2.98
439.948	2.97
440.304	2.98
440.659	2.98
441.014	2.98
441.369	2.98
441.725	2.98
442.08	2.99
442.435	2.98
442.79	2.98
443.145	2.96
443.5	2.96
443.855	2.95
444.21	2.94
444.565	2.94
444.92	2.92
445.275	2.91
445.629	2.91
445.984	2.9
446.339	2.87
446.693	2.85
447.048	2.83
447.403	2.81
447.757	2.79
448.112	2.79
448.466	2.77
448.82	2.78
449.175	2.77
449.529	2.76
449.883	2.74
450.238	2.74
450.592	2.75
450.946	2.72
451.3	2.7
451.654	2.67
452.008	2.67
452.362	2.66
452.716	2.66
453.07	2.65
453.424	2.64
453.778	2.64
454.132	2.65
454.486	2.66
454.839	2.67
455.193	2.65
455.547	2.62
455.9	2.63
456.254	2.63
456.607	2.63
456.961	2.63
457.314	2.62
457.668	2.62
458.021	2.62
458.375	2.63
458.728	2.65
459.081	2.66
459.434	2.65
459.787	2.67
460.141	2.67
460.494	2.68
460.847	2.69
461.2	2.69
461.553	2.7
461.906	2.71
462.259	2.72
462.611	2.75
462.964	2.78
463.317	2.78
463.67	2.8
464.022	2.82
464.375	2.81
464.728	2.83
465.08	2.84
465.433	2.86
465.785	2.86
466.138	2.88
466.49	2.9
466.843	2.9
467.195	2.89
467.547	2.89
467.899	2.9
468.252	2.89
468.604	2.91
468.956	2.92
469.308	2.93
469.66	2.93
470.012	2.94
470.364	2.94
470.716	2.93
471.068	2.92
471.42	2.92
471.772	2.94
472.123	2.97
472.475	2.98
472.827	2.97
473.178	2.99
473.53	2.97
473.882	2.98
474.233	3
474.585	3
474.936	3.01
475.288	3.01
475.639	3.03
475.99	3.04
476.342	3.03
476.693	3.05
477.044	3.06
477.395	3.05
477.746	3.03
478.097	3.03
478.448	3.02
478.8	3.02
479.15	3
479.501	2.98
479.852	2.97
480.203	2.97
480.554	2.96
480.905	2.97
481.255	2.97
481.606	2.96
481.957	2.96
482.307	2.96
482.658	2.95
483.009	2.95
483.359	2.93
483.709	2.92
484.06	2.91
484.41	2.9
484.761	2.9
485.111	2.91
485.461	2.92
485.811	2.92
486.162	2.92
486.512	2.93
486.862	2.92
487.212	2.91
487.562	2.91
487.912	2.9
488.262	2.9
488.612	2.88
488.961	2.89
489.311	2.89
489.661	2.88
490.011	2.88
490.36	2.88
490.71	2.89
491.06	2.9
491.409	2.91
491.759	2.91
492.108	2.92
492.458	2.93
492.807	2.92
493.157	2.93
493.506	2.93
493.855	2.94
494.204	2.96
494.554	2.97
494.903	2.99
495.252	3.01
495.601	3.03
495.95	3.06
496.299	3.08
496.648	3.1
496.997	3.14
497.346	3.17
497.695	3.2
498.043	3.22
498.392	3.24
498.741	3.29
499.09	3.3
499.438	3.34
499.787	3.36
500.135	3.41
500.484	3.46
500.832	3.51
501.181	3.56
501.529	3.61
501.878	3.68
502.226	3.74
502.574	3.79
502.923	3.84
503.271	3.91
503.619	3.98
503.967	4.02
504.315	4.08
504.663	4.17
505.011	4.25
505.359	4.33
505.707	4.43
506.055	4.49
506.403	4.59
506.751	4.66
507.098	4.76
507.446	4.83
507.794	4.91
508.141	5
508.489	5.09
508.837	5.18
509.184	5.25
509.531	5.34
509.879	5.44
510.226	5.56
510.574	5.65
510.921	5.75
511.268	5.86
511.616	5.97
511.963	6.07
512.31	6.19
512.657	6.31
513.004	6.42
513.351	6.58
513.698	6.71
514.045	6.85
514.392	6.95
514.739	7.09
515.086	7.23
515.432	7.35
515.779	7.48
516.126	7.64
516.473	7.78
516.819	7.92
517.166	8.05
517.512	8.18
517.859	8.29
518.205	8.39
518.552	8.51
518.898	8.63
519.245	8.74
519.591	8.84
519.937	8.93
520.283	9.05
520.629	9.16
520.976	9.3
521.322	9.45
521.668	9.61
522.014	9.75
522.36	9.9
522.706	10.07
523.052	10.27
523.398	10.46
523.743	10.63
524.089	10.82
524.435	11
524.781	11.17
525.126	11.32
525.472	11.49
525.817	11.63
526.163	11.77
526.509	11.9
526.854	12.01
527.199	12.13
527.545	12.24
527.89	12.35
528.235	12.45
528.581	12.57
528.926	12.7
529.271	12.82
529.616	12.96
529.961	13.08
530.306	13.18
530.651	13.3
530.996	13.45
531.341	13.58
531.686	13.72
532.031	13.87
532.376	14.02
532.721	14.17
533.065	14.34
533.41	14.5
533.755	14.66
534.099	14.83
534.444	15.03
534.788	15.21
535.133	15.4
535.477	15.59
535.822	15.75
536.166	15.94
536.51	16.15
536.855	16.35
537.199	16.59
537.543	16.84
537.887	17.1
538.231	17.31
538.576	17.57
538.92	17.8
539.264	18.01
539.608	18.22
539.951	18.44
540.295	18.6
540.639	18.79
540.983	19
541.327	19.19
541.671	19.38
542.014	19.56
542.358	19.74
542.701	19.94
543.045	20.16
543.389	20.36
543.732	20.56
544.075	20.77
544.419	20.95
544.762	21.16
545.105	21.38
545.449	21.62
545.792	21.87
546.135	22.13
546.478	22.43
546.821	22.74
547.165	23.04
547.508	23.41
547.851	23.71
548.194	24.03
548.536	24.34
548.879	24.63
549.222	24.94
549.565	25.26
549.908	25.59
550.25	25.89
550.593	26.17
550.936	26.5
551.278	26.82
551.621	27.18
551.963	27.49
552.306	27.83
552.648	28.16
552.991	28.48
553.333	28.79
553.675	29.09
554.017	29.36
554.36	29.6
554.702	29.86
555.044	30.2
555.386	30.48
555.728	30.83
556.07	31.19
556.412	31.52
556.754	31.81
557.096	32.15
557.438	32.46
557.78	32.84
558.121	33.16
558.463	33.5
558.805	33.82
559.147	34.2
559.488	34.5
559.83	34.81
560.171	35.13
560.513	35.45
560.854	35.74
561.196	36.11
561.537	36.46
561.878	36.77
562.22	37.1
562.561	37.37
562.902	37.66
563.243	37.94
563.584	38.24
563.925	38.54
564.266	38.78
564.607	39.08
564.948	39.43
565.289	39.71
565.63	40.01
565.971	40.32
566.312	40.56
566.653	40.82
566.993	41.12
567.334	41.35
567.675	41.63
568.015	41.92
568.356	42.17
568.696	42.42
569.037	42.69
569.377	42.87
569.718	43.15
570.058	43.35
570.398	43.59
570.739	43.84
571.079	44.12
571.419	44.4
571.759	44.63
572.099	44.76
572.439	44.99
572.779	45.21
573.119	45.42
573.459	45.63
573.799	45.82
574.139	46.03
574.479	46.27
574.819	46.38
575.158	46.56
575.498	46.76
575.838	47
576.177	47.23
576.517	47.52
576.856	47.74
577.196	48
577.535	48.22
577.875	48.42
578.214	48.58
578.553	48.76
578.893	48.95
579.232	49.18
579.571	49.35
579.91	49.56
580.25	49.73
580.589	49.94
580.928	50.12
581.267	50.32
581.606	50.49
581.945	50.71
582.283	50.92
582.622	51.14
582.961	51.36
583.3	51.49
583.639	51.65
583.977	51.82
584.316	52.02
584.654	52.21
584.993	52.36
585.332	52.54
585.67	52.73
586.008	52.92
586.347	53.1
586.685	53.24
587.024	53.37
587.362	53.47
587.7	53.62
588.038	53.83
588.376	53.93
588.715	54.06
589.053	54.26
589.391	54.39
589.729	54.47
590.067	54.57
590.404	54.69
590.742	54.77
591.08	54.84
591.418	54.94
591.756	55
592.093	55.1
592.431	55.17
592.769	55.28
593.106	55.34
593.444	55.47
593.781	55.56
594.119	55.56
594.456	55.69
594.793	55.76
595.131	55.82
595.468	55.88
595.805	56.02
596.143	56.15
596.48	56.18
596.817	56.23
597.154	56.27
597.491	56.27
597.828	56.29
598.165	56.4
598.502	56.43
598.839	56.58
599.176	56.66
599.512	56.74
599.849	56.85
600.186	56.96
600.523	57.06
600.859	57.13
601.196	57.31
601.532	57.4
601.869	57.51
602.205	57.55
602.542	57.61
602.878	57.64
603.215	57.62
603.551	57.72
603.887	57.81
604.223	57.94
604.56	58.11
604.896	58.23
605.232	58.28
605.568	58.4
605.904	58.38
606.24	58.5
606.576	58.55
606.912	58.55
607.248	58.56
607.583	58.55
607.919	58.66
608.255	58.7
608.591	58.8
608.926	58.82
609.262	58.97
609.597	59.05
609.933	59.09
610.268	59.13
610.604	59.19
610.939	59.25
611.275	59.27
611.61	59.31
611.945	59.37
612.281	59.44
612.616	59.49
612.951	59.55
613.286	59.52
613.621	59.62
613.956	59.77
614.291	59.88
614.626	60.04
614.961	60.06
615.296	60.05
615.631	59.99
615.966	60.02
616.3	60
616.635	60.01
616.97	60.07
617.304	60.07
617.639	60.07
617.973	60.07
618.308	60.09
618.642	60.07
618.977	60.2
619.311	60.23
619.646	60.19
619.98	60.23
620.314	60.26
620.648	60.28
620.983	60.17
621.317	60.23
621.651	60.21
621.985	60.3
622.319	60.34
622.653	60.32
622.987	60.4
623.321	60.35
623.655	60.44
623.988	60.39
624.322	60.59
624.656	60.63
624.99	60.7
625.323	60.68
625.657	60.73
625.99	60.68
626.324	60.68
626.657	60.7
626.991	60.82
627.324	60.9
627.658	60.95
627.991	61.03
628.324	61
628.657	60.99
628.991	61.02
629.324	61.02
629.657	61.07
629.99	61.06
630.323	61.22
630.656	61.22
630.989	61.33
631.322	61.27
631.655	61.3
631.987	61.37
632.32	61.41
632.653	61.47
632.986	61.45
633.318	61.45
633.651	61.51
633.984	61.43
634.316	61.33
634.649	61.33
634.981	61.37
635.313	61.4
635.646	61.46
635.978	61.44
636.31	61.52
636.643	61.54
636.975	61.64
637.307	61.61
637.639	61.69
637.971	61.71
638.303	61.78
638.635	61.85
638.967	61.82
639.299	61.85
639.631	61.74
639.963	61.77
640.295	61.89
640.626	61.98
640.958	62.03
641.29	62.19
641.621	62.18
641.953	62.19
642.285	62.38
642.616	62.37
642.948	62.34
643.279	62.36
643.61	62.36
643.942	62.33
644.273	62.29
644.604	62.17
644.936	62.14
645.267	62.02
645.598	62.07
645.929	62.09
646.26	62.07
646.591	62.15
646.922	62.24
647.253	62.23
647.584	62.21
647.915	62.13
648.245	62.1
648.576	62.19
648.907	62.09
649.238	61.9
649.568	61.92
649.899	61.78
650.229	61.82
650.56	61.85
650.89	61.75
651.221	61.71
651.551	61.89
651.882	61.88
652.212	62
652.542	61.93
652.872	62
653.203	62.02
653.533	62.05
653.863	62.03
654.193	62.01
654.523	62.07
654.853	62.17
655.183	62.22
655.513	62.22
655.843	62.35
656.172	62.44
656.502	62.46
656.832	62.75
657.162	62.77
657.491	62.83
657.821	63.04
658.15	63.13
658.48	63.08
658.809	63.21
659.139	63.01
659.468	62.94
659.798	62.91
660.127	62.91
660.456	62.89
660.785	62.99
661.115	62.93
661.444	62.91
661.773	63
662.102	62.93
662.431	62.82
662.76	62.83
663.089	62.82
663.418	62.79
663.747	62.63
664.076	62.64
664.404	62.7
664.733	62.6
665.062	62.65
665.39	62.57
665.719	62.53
