Data from BU57653_Reflection_00008.txt Node
Date: Mon Nov 18 16:52:12 EST 2019
User: vgr7
Spectrometer: USB2G7710
Scans to average: 3
Trigger mode: 4
Integration Time (sec): 2.000000E-2
Electric dark correction enabled: true
Boxcar width: 10
XAxis mode: Wavelengths
Number of Pixels in Spectrum: 2048
>>>>>Begin Spectral Data<<<<<
177.721	139.64
178.105	105.35
178.488	-10.49
178.871	-19.6
179.254	-53.42
179.636	44.36
180.019	32.63
180.402	273.33
180.785	-45.69
181.168	-133.25
181.55	-40.21
181.933	26.1
182.316	-2.37
182.698	-30.63
183.081	-53.09
183.463	-382.89
183.846	-133.38
184.228	-110.45
184.611	-62.2
184.993	-485.28
185.376	1525.2
185.758	-1098.76
186.14	-715.13
186.522	50.76
186.904	21.5
187.287	22.3
187.669	61.29
188.051	101.32
188.433	83.66
188.815	29.68
189.197	4.91
189.579	31.92
189.961	27.95
190.342	3.75
190.724	-4.05
191.106	-14.78
191.488	-18.1
191.869	-8.24
192.251	-15.47
192.633	-0.03
193.014	-21.88
193.396	-42.23
193.777	-26.63
194.159	-18.53
194.54	-9.05
194.922	-9.87
195.303	-37.82
195.684	-37.11
196.065	-15.53
196.447	-36.35
196.828	-33.59
197.209	-35.88
197.59	-33.05
197.971	-33.77
198.352	-22.82
198.733	-11.18
199.114	4.88
199.495	6.24
199.876	2.26
200.257	16.04
200.638	22.01
201.018	21.85
201.399	18.94
201.78	8.97
202.16	-5.5
202.541	-9.91
202.922	-41.07
203.302	-0.53
203.683	1.14
204.063	-13.77
204.444	10.54
204.824	6.17
205.204	28.83
205.585	60.06
205.965	16.39
206.345	-44.98
206.725	-118.85
207.106	-923.67
207.486	-4737.84
207.866	217.4
208.246	917.49
208.626	-1215.35
209.006	-214.03
209.386	-162.15
209.766	-124.06
210.145	-39.46
210.525	-38.05
210.905	-23.15
211.285	-21.5
211.664	-10.16
212.044	-25.4
212.424	-6.44
212.803	5.48
213.183	-12.53
213.562	-19.96
213.942	1.23
214.321	29.49
214.701	19.08
215.08	10.95
215.459	18.68
215.838	14.82
216.218	26.03
216.597	50.74
216.976	28.02
217.355	29.49
217.734	18.45
218.113	19.78
218.492	34.48
218.871	36.09
219.25	38.51
219.629	2.71
220.008	18.95
220.387	13.43
220.766	12.04
221.144	-10.44
221.523	-3.11
221.902	-9.69
222.28	-31.7
222.659	-23.72
223.037	-8.05
223.416	-5.46
223.794	-5.45
224.173	-5.6
224.551	-12.29
224.929	-10.97
225.308	-11.21
225.686	-8.22
226.064	-6.67
226.442	-8.23
226.821	-3.85
227.199	-9.87
227.577	-6.45
227.955	-10.56
228.333	-10.95
228.711	-10.18
229.089	-3.41
229.467	-5.58
229.845	-6.32
230.222	-3.21
230.6	-4.1
230.978	-6.09
231.356	-5.36
231.733	-4.9
232.111	-3.48
232.488	-2.76
232.866	-1.44
233.243	-0.76
233.621	-1.02
233.998	-0.29
234.376	-1.67
234.753	-0.98
235.13	1.07
235.508	2.27
235.885	3.26
236.262	2.89
236.639	1.73
237.016	2.65
237.393	2.89
237.77	4.37
238.147	4.28
238.524	3.56
238.901	3.76
239.278	3.31
239.655	3.9
240.032	3.92
240.409	3.33
240.785	3.44
241.162	3.61
241.539	3.92
241.915	3.69
242.292	3.52
242.668	3.47
243.045	3.49
243.421	3.22
243.798	2.92
244.174	2.96
244.551	3.13
244.927	2.95
245.303	3.17
245.679	3.17
246.056	3.02
246.432	3.28
246.808	3.4
247.184	3.4
247.56	3.17
247.936	3.19
248.312	3.34
248.688	3.46
249.064	3.35
249.44	3.31
249.815	3.25
250.191	3.21
250.567	3.29
250.943	3.21
251.318	3.4
251.694	3.43
252.069	3.42
252.445	3.49
252.82	3.24
253.196	3.08
253.571	2.86
253.947	3.34
254.322	3.26
254.697	2.83
255.073	2.62
255.448	2.71
255.823	2.66
256.198	2.63
256.573	2.45
256.948	2.65
257.323	2.61
257.698	2.6
258.073	2.85
258.448	2.79
258.823	2.82
259.198	2.82
259.573	2.87
259.948	2.77
260.322	2.72
260.697	2.87
261.072	2.86
261.446	2.88
261.821	2.7
262.195	2.77
262.57	2.87
262.944	2.98
263.319	2.99
263.693	2.87
264.067	2.99
264.442	3.04
264.816	2.92
265.19	2.94
265.564	2.87
265.938	2.6
266.313	2.44
266.687	2.42
267.061	2.36
267.435	2.5
267.809	2.51
268.183	2.39
268.556	2.38
268.93	2.45
269.304	2.54
269.678	2.65
270.051	2.64
270.425	2.72
270.799	2.68
271.172	2.81
271.546	3.01
271.919	2.83
272.293	2.88
272.666	2.93
273.04	2.81
273.413	2.97
273.787	3.21
274.16	3.13
274.533	3.18
274.906	3.12
275.279	3.1
275.653	3.16
276.026	3.21
276.399	3.12
276.772	3.15
277.145	2.98
277.518	2.83
277.891	2.68
278.263	2.62
278.636	2.73
279.009	2.53
279.382	2.46
279.755	2.5
280.127	2.48
280.5	2.6
280.872	2.78
281.245	2.61
281.617	2.65
281.99	2.85
282.362	2.91
282.735	2.93
283.107	2.91
283.479	2.87
283.852	2.86
284.224	2.86
284.596	2.87
284.968	3.07
285.34	3.2
285.713	3.27
286.085	3.24
286.457	3.3
286.829	3.28
287.201	3.24
287.572	3.23
287.944	3.16
288.316	3.11
288.688	3.04
289.06	3.15
289.431	3.14
289.803	3.17
290.175	3.05
290.546	3.11
290.918	3.16
291.289	3.18
291.661	3.17
292.032	3.25
292.403	3.29
292.775	3.26
293.146	3.22
293.517	3.31
293.889	3.43
294.26	3.38
294.631	3.49
295.002	3.38
295.373	3.37
295.744	3.5
296.115	3.51
296.486	3.47
296.857	3.52
297.228	3.64
297.599	3.59
297.97	3.71
298.34	3.72
298.711	3.75
299.082	3.75
299.452	3.78
299.823	3.87
300.194	3.85
300.564	3.79
300.935	3.98
301.305	3.94
301.676	3.98
302.046	3.99
302.416	4.04
302.787	4.26
303.157	4.26
303.527	4.25
303.897	4.31
304.267	4.6
304.637	4.65
305.008	4.58
305.378	4.68
305.748	4.73
306.117	4.66
306.487	4.78
306.857	4.89
307.227	5.03
307.597	5.02
307.967	5.15
308.336	5.17
308.706	5.1
309.076	5.13
309.445	5.12
309.815	5.24
310.184	5.18
310.554	5.24
310.923	5.36
311.293	5.37
311.662	5.39
312.031	5.38
312.401	5.34
312.77	5.41
313.139	5.46
313.508	5.38
313.877	5.51
314.246	5.45
314.616	5.47
314.985	5.63
315.353	5.59
315.722	5.6
316.091	5.65
316.46	5.55
316.829	5.68
317.198	5.65
317.567	5.44
317.935	5.51
318.304	5.49
318.672	5.55
319.041	5.76
319.41	5.89
319.778	5.98
320.147	6.08
320.515	5.9
320.883	5.98
321.252	6.22
321.62	6.27
321.988	6.4
322.357	6.37
322.725	6.18
323.093	6.47
323.461	6.45
323.829	6.58
324.197	6.68
324.565	6.59
324.933	6.73
325.301	6.97
325.669	6.98
326.037	6.99
326.405	6.97
326.772	6.92
327.14	6.86
327.508	6.69
327.875	6.69
328.243	6.94
328.61	6.97
328.978	6.91
329.346	7.03
329.713	6.93
330.08	7.03
330.448	7.08
330.815	6.87
331.182	6.81
331.55	6.75
331.917	6.75
332.284	6.91
332.651	6.88
333.018	6.82
333.385	6.84
333.752	6.95
334.119	7.03
334.486	7.14
334.853	7.21
335.22	7.32
335.587	7.38
335.954	7.39
336.32	7.37
336.687	7.37
337.054	7.29
337.42	7.34
337.787	7.34
338.153	7.37
338.52	7.44
338.886	7.46
339.253	7.44
339.619	7.59
339.986	7.44
340.352	7.48
340.718	7.45
341.084	7.5
341.451	7.5
341.817	7.55
342.183	7.41
342.549	7.4
342.915	7.35
343.281	7.41
343.647	7.29
344.013	7.34
344.379	7.28
344.745	7.22
345.11	7.23
345.476	7.24
345.842	7.2
346.208	7.18
346.573	7.26
346.939	7.37
347.304	7.3
347.67	7.31
348.035	7.29
348.401	7.32
348.766	7.37
349.132	7.34
349.497	7.24
349.862	7.44
350.228	7.47
350.593	7.52
350.958	7.4
351.323	7.52
351.688	7.47
352.053	7.58
352.418	7.67
352.783	7.76
353.148	7.78
353.513	7.78
353.878	7.83
354.243	7.92
354.608	7.81
354.972	7.83
355.337	7.95
355.702	7.96
356.066	7.99
356.431	7.96
356.795	7.97
357.16	7.98
357.524	7.78
357.889	7.68
358.253	7.64
358.618	7.64
358.982	7.53
359.346	7.42
359.71	7.35
360.075	7.39
360.439	7.36
360.803	7.34
361.167	7.32
361.531	7.27
361.895	7.17
362.259	7.13
362.623	7.05
362.987	6.92
363.351	6.84
363.714	6.82
364.078	6.73
364.442	6.7
364.806	6.69
365.169	6.73
365.533	6.74
365.896	6.66
366.26	6.62
366.623	6.67
366.987	6.72
367.35	6.73
367.714	6.59
368.077	6.45
368.44	6.35
368.803	6.35
369.167	6.29
369.53	6.16
369.893	6.15
370.256	6.15
370.619	6.1
370.982	6.14
371.345	6.08
371.708	6.04
372.071	5.91
372.434	5.84
372.797	5.77
373.159	5.72
373.522	5.72
373.885	5.71
374.247	5.64
374.61	5.6
374.973	5.5
375.335	5.41
375.698	5.46
376.06	5.43
376.423	5.38
376.785	5.34
377.147	5.37
377.51	5.33
377.872	5.28
378.234	5.24
378.596	5.14
378.958	5.05
379.321	5.05
379.683	5.1
380.045	5.07
380.407	5.05
380.769	4.98
381.13	4.93
381.492	4.85
381.854	4.79
382.216	4.74
382.578	4.73
382.939	4.71
383.301	4.59
383.663	4.56
384.024	4.5
384.386	4.48
384.747	4.44
385.109	4.42
385.47	4.37
385.832	4.34
386.193	4.35
386.554	4.33
386.916	4.28
387.277	4.21
387.638	4.16
387.999	4.11
388.36	4.08
388.721	4.06
389.082	4.05
389.443	3.97
389.804	3.93
390.165	3.83
390.526	3.85
390.887	3.85
391.248	3.84
391.609	3.81
391.969	3.79
392.33	3.75
392.691	3.71
393.051	3.7
393.412	3.72
393.772	3.7
394.133	3.68
394.493	3.68
394.854	3.62
395.214	3.6
395.574	3.58
395.935	3.59
396.295	3.57
396.655	3.55
397.015	3.54
397.376	3.51
397.736	3.51
398.096	3.47
398.456	3.44
398.816	3.41
399.176	3.42
399.535	3.39
399.895	3.39
400.255	3.38
400.615	3.37
400.975	3.33
401.334	3.29
401.694	3.3
402.054	3.23
402.413	3.27
402.773	3.23
403.132	3.21
403.492	3.18
403.851	3.19
404.211	3.15
404.57	3.15
404.929	3.16
405.288	3.17
405.648	3.16
406.007	3.13
406.366	3.1
406.725	3.13
407.084	3.14
407.443	3.11
407.802	3.11
408.161	3.09
408.52	3.04
408.879	3.03
409.238	3.04
409.596	3.06
409.955	3.02
410.314	3.04
410.673	3.01
411.031	3
411.39	2.96
411.748	2.98
412.107	2.98
412.465	2.96
412.824	2.96
413.182	2.92
413.54	2.92
413.899	2.95
414.257	2.89
414.615	2.84
414.974	2.84
415.332	2.82
415.69	2.82
416.048	2.8
416.406	2.79
416.764	2.74
417.122	2.73
417.48	2.73
417.838	2.74
418.195	2.74
418.553	2.73
418.911	2.72
419.269	2.72
419.626	2.71
419.984	2.72
420.342	2.7
420.699	2.69
421.057	2.7
421.414	2.69
421.772	2.67
422.129	2.68
422.486	2.69
422.844	2.69
423.201	2.68
423.558	2.7
423.915	2.71
424.273	2.71
424.63	2.69
424.987	2.7
425.344	2.69
425.701	2.7
426.058	2.69
426.415	2.69
426.772	2.67
427.128	2.67
427.485	2.64
427.842	2.63
428.199	2.64
428.555	2.63
428.912	2.64
429.269	2.64
429.625	2.63
429.982	2.61
430.338	2.61
430.695	2.6
431.051	2.59
431.407	2.57
431.764	2.58
432.12	2.6
432.476	2.6
432.832	2.58
433.189	2.57
433.545	2.56
433.901	2.57
434.257	2.57
434.613	2.59
434.969	2.6
435.325	2.62
435.681	2.62
436.036	2.62
436.392	2.62
436.748	2.64
437.104	2.63
437.459	2.63
437.815	2.62
438.171	2.61
438.526	2.62
438.882	2.62
439.237	2.61
439.593	2.6
439.948	2.58
440.304	2.59
440.659	2.59
441.014	2.6
441.369	2.6
441.725	2.58
442.08	2.57
442.435	2.56
442.79	2.55
443.145	2.54
443.5	2.54
443.855	2.52
444.21	2.51
444.565	2.52
444.92	2.54
445.275	2.53
445.629	2.54
445.984	2.53
446.339	2.53
446.693	2.51
447.048	2.5
447.403	2.49
447.757	2.49
448.112	2.49
448.466	2.47
448.82	2.48
449.175	2.49
449.529	2.49
449.883	2.5
450.238	2.49
450.592	2.5
450.946	2.48
451.3	2.47
451.654	2.48
452.008	2.47
452.362	2.44
452.716	2.45
453.07	2.45
453.424	2.45
453.778	2.45
454.132	2.46
454.486	2.46
454.839	2.46
455.193	2.46
455.547	2.45
455.9	2.47
456.254	2.45
456.607	2.45
456.961	2.46
457.314	2.47
457.668	2.48
458.021	2.48
458.375	2.5
458.728	2.5
459.081	2.51
459.434	2.49
459.787	2.51
460.141	2.52
460.494	2.52
460.847	2.54
461.2	2.52
461.553	2.54
461.906	2.55
462.259	2.58
462.611	2.6
462.964	2.64
463.317	2.63
463.67	2.63
464.022	2.64
464.375	2.62
464.728	2.61
465.08	2.63
465.433	2.63
465.785	2.63
466.138	2.63
466.49	2.63
466.843	2.64
467.195	2.65
467.547	2.64
467.899	2.63
468.252	2.61
468.604	2.65
468.956	2.63
469.308	2.64
469.66	2.62
470.012	2.61
470.364	2.6
470.716	2.6
471.068	2.61
471.42	2.63
471.772	2.66
472.123	2.69
472.475	2.68
472.827	2.68
473.178	2.69
473.53	2.68
473.882	2.68
474.233	2.71
474.585	2.69
474.936	2.7
475.288	2.71
475.639	2.74
475.99	2.72
476.342	2.71
476.693	2.71
477.044	2.71
477.395	2.7
477.746	2.69
478.097	2.69
478.448	2.69
478.8	2.66
479.15	2.63
479.501	2.63
479.852	2.62
480.203	2.62
480.554	2.62
480.905	2.63
481.255	2.62
481.606	2.61
481.957	2.6
482.307	2.6
482.658	2.6
483.009	2.59
483.359	2.59
483.709	2.6
484.06	2.6
484.41	2.59
484.761	2.6
485.111	2.61
485.461	2.61
485.811	2.61
486.162	2.61
486.512	2.61
486.862	2.61
487.212	2.61
487.562	2.61
487.912	2.61
488.262	2.6
488.612	2.6
488.961	2.6
489.311	2.61
489.661	2.61
490.011	2.6
490.36	2.6
490.71	2.61
491.06	2.62
491.409	2.61
491.759	2.62
492.108	2.62
492.458	2.62
492.807	2.61
493.157	2.62
493.506	2.64
493.855	2.65
494.204	2.65
494.554	2.67
494.903	2.67
495.252	2.67
495.601	2.68
495.95	2.69
496.299	2.71
496.648	2.71
496.997	2.73
497.346	2.74
497.695	2.77
498.043	2.76
498.392	2.78
498.741	2.81
499.09	2.81
499.438	2.84
499.787	2.85
500.135	2.9
500.484	2.93
500.832	2.96
501.181	2.99
501.529	3.02
501.878	3.07
502.226	3.1
502.574	3.14
502.923	3.16
503.271	3.21
503.619	3.25
503.967	3.3
504.315	3.34
504.663	3.38
505.011	3.41
505.359	3.46
505.707	3.48
506.055	3.51
506.403	3.57
506.751	3.59
507.098	3.65
507.446	3.7
507.794	3.73
508.141	3.76
508.489	3.8
508.837	3.85
509.184	3.88
509.531	3.93
509.879	3.99
510.226	4.06
510.574	4.11
510.921	4.17
511.268	4.21
511.616	4.26
511.963	4.31
512.31	4.37
512.657	4.45
513.004	4.53
513.351	4.59
513.698	4.65
514.045	4.72
514.392	4.79
514.739	4.86
515.086	4.93
515.432	5.01
515.779	5.09
516.126	5.17
516.473	5.24
516.819	5.31
517.166	5.36
517.512	5.44
517.859	5.5
518.205	5.56
518.552	5.65
518.898	5.71
519.245	5.78
519.591	5.83
519.937	5.89
520.283	5.96
520.629	6.04
520.976	6.12
521.322	6.2
521.668	6.27
522.014	6.39
522.36	6.47
522.706	6.55
523.052	6.66
523.398	6.79
523.743	6.9
524.089	7.03
524.435	7.15
524.781	7.26
525.126	7.38
525.472	7.48
525.817	7.56
526.163	7.64
526.509	7.73
526.854	7.83
527.199	7.9
527.545	7.97
527.89	8.05
528.235	8.12
528.581	8.2
528.926	8.28
529.271	8.35
529.616	8.43
529.961	8.52
530.306	8.61
530.651	8.68
530.996	8.78
531.341	8.86
531.686	8.97
532.031	9.06
532.376	9.14
532.721	9.25
533.065	9.35
533.41	9.48
533.755	9.59
534.099	9.69
534.444	9.82
534.788	9.94
535.133	10.07
535.477	10.2
535.822	10.34
536.166	10.48
536.51	10.63
536.855	10.8
537.199	10.97
537.543	11.11
537.887	11.29
538.231	11.48
538.576	11.67
538.92	11.85
539.264	12.03
539.608	12.19
539.951	12.35
540.295	12.5
540.639	12.66
540.983	12.8
541.327	12.95
541.671	13.1
542.014	13.25
542.358	13.39
542.701	13.55
543.045	13.66
543.389	13.82
543.732	14
544.075	14.15
544.419	14.33
544.762	14.52
545.105	14.7
545.449	14.86
545.792	15.05
546.135	15.25
546.478	15.45
546.821	15.69
547.165	15.91
547.508	16.15
547.851	16.38
548.194	16.62
548.536	16.87
548.879	17.13
549.222	17.4
549.565	17.69
549.908	17.94
550.25	18.26
550.593	18.52
550.936	18.75
551.278	19
551.621	19.27
551.963	19.55
552.306	19.85
552.648	20.11
552.991	20.41
553.333	20.74
553.675	21.04
554.017	21.33
554.36	21.61
554.702	21.9
555.044	22.17
555.386	22.48
555.728	22.8
556.07	23.09
556.412	23.36
556.754	23.6
557.096	23.89
557.438	24.18
557.78	24.5
558.121	24.81
558.463	25.17
558.805	25.49
559.147	25.82
559.488	26.09
559.83	26.48
560.171	26.76
560.513	27.06
560.854	27.35
561.196	27.64
561.537	27.96
561.878	28.2
562.22	28.52
562.561	28.83
562.902	29.14
563.243	29.4
563.584	29.77
563.925	30.04
564.266	30.32
564.607	30.63
564.948	30.89
565.289	31.22
565.63	31.46
565.971	31.69
566.312	31.96
566.653	32.26
566.993	32.46
567.334	32.77
567.675	33.01
568.015	33.27
568.356	33.53
568.696	33.83
569.037	34.12
569.377	34.38
569.718	34.62
570.058	34.91
570.398	35.19
570.739	35.42
571.079	35.74
571.419	36.06
571.759	36.32
572.099	36.63
572.439	36.85
572.779	37.11
573.119	37.39
573.459	37.63
573.799	37.85
574.139	38.1
574.479	38.33
574.819	38.55
575.158	38.73
575.498	38.96
575.838	39.18
576.177	39.4
576.517	39.7
576.856	39.99
577.196	40.19
577.535	40.44
577.875	40.67
578.214	40.92
578.553	41.11
578.893	41.29
579.232	41.48
579.571	41.72
579.91	41.92
580.25	42.16
580.589	42.41
580.928	42.67
581.267	42.89
581.606	43.14
581.945	43.38
582.283	43.64
582.622	43.92
582.961	44.09
583.3	44.32
583.639	44.45
583.977	44.63
584.316	44.82
584.654	45.07
584.993	45.29
585.332	45.43
585.67	45.64
586.008	45.87
586.347	46.06
586.685	46.19
587.024	46.41
587.362	46.53
587.7	46.68
588.038	46.89
588.376	47.01
588.715	47.12
589.053	47.27
589.391	47.44
589.729	47.53
590.067	47.78
590.404	47.95
590.742	48.12
591.08	48.25
591.418	48.43
591.756	48.53
592.093	48.58
592.431	48.7
592.769	48.87
593.106	49.01
593.444	49.17
593.781	49.29
594.119	49.41
594.456	49.56
594.793	49.63
595.131	49.66
595.468	49.82
595.805	49.96
596.143	50.09
596.48	50.18
596.817	50.32
597.154	50.37
597.491	50.45
597.828	50.53
598.165	50.62
598.502	50.66
598.839	50.78
599.176	50.92
599.512	50.97
599.849	51.12
600.186	51.23
600.523	51.34
600.859	51.38
601.196	51.49
601.532	51.6
601.869	51.7
602.205	51.85
602.542	51.94
602.878	52.04
603.215	52.1
603.551	52.19
603.887	52.23
604.223	52.38
604.56	52.47
604.896	52.56
605.232	52.64
605.568	52.68
605.904	52.75
606.24	52.85
606.576	53.01
606.912	52.99
607.248	53.06
607.583	53.12
607.919	53.32
608.255	53.42
608.591	53.47
608.926	53.56
609.262	53.61
609.597	53.69
609.933	53.77
610.268	53.81
610.604	53.84
610.939	53.95
611.275	53.95
611.61	53.99
611.945	54.04
612.281	54.08
612.616	54.23
612.951	54.26
613.286	54.29
613.621	54.36
613.956	54.57
614.291	54.65
614.626	54.74
614.961	54.68
615.296	54.74
615.631	54.8
615.966	54.9
616.3	54.97
616.635	55
616.97	54.96
617.304	55.07
617.639	55.15
617.973	55.21
618.308	55.21
618.642	55.19
618.977	55.28
619.311	55.37
619.646	55.45
619.98	55.47
620.314	55.5
620.648	55.52
620.983	55.43
621.317	55.51
621.651	55.53
621.985	55.69
622.319	55.66
622.653	55.68
622.987	55.7
623.321	55.72
623.655	55.74
623.988	55.79
624.322	55.89
624.656	55.93
624.99	55.92
625.323	55.96
625.657	56.02
625.99	56.07
626.324	56.06
626.657	56
626.991	56.06
627.324	56.13
627.658	56.17
627.991	56.24
628.324	56.19
628.657	56.17
628.991	56.12
629.324	56.15
629.657	56.18
629.99	56.24
630.323	56.31
630.656	56.37
630.989	56.49
631.322	56.46
631.655	56.49
631.987	56.58
632.32	56.6
632.653	56.69
632.986	56.68
633.318	56.74
633.651	56.81
633.984	56.75
634.316	56.76
634.649	56.72
634.981	56.69
635.313	56.75
635.646	56.77
635.978	56.85
636.31	56.85
636.643	56.89
636.975	56.93
637.307	56.93
637.639	56.92
637.971	56.9
638.303	56.95
638.635	56.96
638.967	57.01
639.299	57.06
639.631	57.04
639.963	56.99
640.295	56.99
640.626	57.03
640.958	57.07
641.29	57.25
641.621	57.3
641.953	57.42
642.285	57.42
642.616	57.54
642.948	57.65
643.279	57.78
643.61	57.81
643.942	57.76
644.273	57.83
644.604	57.7
644.936	57.76
645.267	57.71
645.598	57.78
645.929	57.75
646.26	57.78
646.591	57.89
646.922	58.04
647.253	58.16
647.584	58.19
647.915	58.27
648.245	58.2
648.576	58.4
648.907	58.32
649.238	58.41
649.568	58.48
649.899	58.39
650.229	58.36
650.56	58.41
650.89	58.39
651.221	58.32
651.551	58.53
651.882	58.48
652.212	58.51
652.542	58.54
652.872	58.54
653.203	58.61
653.533	58.55
653.863	58.58
654.193	58.46
654.523	58.44
654.853	58.51
655.183	58.62
655.513	58.49
655.843	58.67
656.172	58.7
656.502	58.66
656.832	58.76
657.162	58.85
657.491	58.89
657.821	59.08
658.15	59.14
658.48	59.1
658.809	59.14
659.139	59.09
659.468	59.03
659.798	59.01
660.127	58.9
660.456	58.88
660.785	58.89
661.115	58.89
661.444	58.92
661.773	58.95
662.102	58.9
662.431	58.89
662.76	58.8
663.089	58.8
663.418	58.7
663.747	58.66
664.076	58.63
664.404	58.66
664.733	58.59
665.062	58.72
665.39	58.69
665.719	58.62
666.048	58.73
666.376	58.8
666.705	58.9
667.033	58.95
667.362	59.05
667.69	59.07
668.018	59.23
668.347	59.3
668.675	59.3
669.003	59.2
