Data from BU57648_Reflection_00011.txt Node
Date: Tue Nov 19 10:46:49 EST 2019
User: vgr7
Spectrometer: USB2G7710
Scans to average: 3
Trigger mode: 4
Integration Time (sec): 2.000000E-2
Electric dark correction enabled: true
Boxcar width: 10
XAxis mode: Wavelengths
Number of Pixels in Spectrum: 2048
>>>>>Begin Spectral Data<<<<<
177.721	-6.28
178.105	-1.85
178.488	-45.83
178.871	-4.17
179.254	53.33
179.636	44.44
180.019	106.41
180.402	128.57
180.785	33.33
181.168	-52.78
181.55	-282.35
181.933	-87.5
182.316	-51.96
182.698	-69.49
183.081	3.61
183.463	-18.56
183.846	-60.71
184.228	-400
184.611	23.91
184.993	51.43
185.376	24.88
185.758	24.12
186.14	30.95
186.522	4.76
186.904	10.71
187.287	34.86
187.669	47.27
188.051	45.78
188.433	43.93
188.815	47.51
189.197	36.97
189.579	33.47
189.961	17.1
190.342	13.79
190.724	-24.28
191.106	-34.26
191.488	-21.34
191.869	-10.88
192.251	-9.59
192.633	-47.68
193.014	-83.49
193.396	-102.13
193.777	-92.31
194.159	-71.05
194.54	-64.03
194.922	-61.57
195.303	-78.26
195.684	-73.91
196.065	-78.41
196.447	-56.13
196.828	-63.39
197.209	-58.4
197.59	-41.26
197.971	-20.5
198.352	-15.38
198.733	-11.68
199.114	-2.89
199.495	-5.7
199.876	-14.48
200.257	-14.04
200.638	-15.7
201.018	-2.36
201.399	12.34
201.78	8.03
202.16	6.67
202.541	4.46
202.922	-14.83
203.302	-31.31
203.683	-44.44
204.063	-38.98
204.444	-51.79
204.824	-53.23
205.204	-45.26
205.585	-52.25
205.965	-54.62
206.345	-75.1
206.725	-47.6
207.106	-47.81
207.486	-59.32
207.866	-41.98
208.246	-31.58
208.626	-34.56
209.006	-39.04
209.386	-51.09
209.766	-59.65
210.145	-87.24
210.525	-93.18
210.905	-78.9
211.285	-41.64
211.664	-33.33
212.044	-36.66
212.424	-28.29
212.803	-33.55
213.183	-36
213.562	-12.31
213.942	-25.99
214.321	-14.73
214.701	-35.09
215.08	-36.94
215.459	-27.98
215.838	-33.13
216.218	-57.99
216.597	-36.49
216.976	-35.89
217.355	-30.7
217.734	-31.27
218.113	-4.29
218.492	-11.96
218.871	-7.58
219.25	-10.89
219.629	-31.66
220.008	-37.55
220.387	-51.16
220.766	-55.41
221.144	-49.64
221.523	-91.18
221.902	-51.2
222.28	-30.99
222.659	-14.49
223.037	-17.15
223.416	-24
223.794	-25.32
224.173	-21.21
224.551	-17.72
224.929	-35.16
225.308	-33.62
225.686	-34.92
226.064	-31.62
226.442	-26.45
226.821	-24.71
227.199	-23.65
227.577	-19.57
227.955	-16.74
228.333	-14.97
228.711	-13.16
229.089	-9.03
229.467	-10.07
229.845	-11.15
230.222	-12.71
230.6	-13.93
230.978	-10.97
231.356	-4.63
231.733	-4.53
232.111	-3.78
232.488	-4.78
232.866	2.91
233.243	2.56
233.621	3.49
233.998	1.4
234.376	2.61
234.753	2.88
235.13	4.51
235.508	5.11
235.885	4.83
236.262	2.41
236.639	1.5
237.016	-1.08
237.393	0.79
237.77	1.27
238.147	2.02
238.524	3.02
238.901	2.4
239.278	1.73
239.655	2.04
240.032	2.29
240.409	3.02
240.785	1.87
241.162	1.73
241.539	1.93
241.915	2.03
242.292	2.62
242.668	2.86
243.045	3.21
243.421	3.92
243.798	4.2
244.174	4.85
244.551	5.26
244.927	5.61
245.303	5.43
245.679	5.38
246.056	5.33
246.432	5.44
246.808	5.37
247.184	5.24
247.56	5.35
247.936	5.47
248.312	5.25
248.688	5.4
249.064	5.43
249.44	5.65
249.815	5.83
250.191	5.88
250.567	6.05
250.943	6.02
251.318	5.68
251.694	5.82
252.069	5.63
252.445	5.57
252.82	5.66
253.196	6.05
253.571	6.18
253.947	6.14
254.322	6.04
254.697	6.16
255.073	5.92
255.448	5.81
255.823	5.5
256.198	5.1
256.573	5.28
256.948	5.44
257.323	5.38
257.698	5.23
258.073	4.92
258.448	4.74
258.823	4.42
259.198	4.48
259.573	4.27
259.948	4.47
260.322	4.28
260.697	4.19
261.072	4.13
261.446	4.15
261.821	4.12
262.195	3.98
262.57	4.08
262.944	4.15
263.319	4.18
263.693	4.2
264.067	4.29
264.442	4.02
264.816	3.88
265.19	3.75
265.564	3.71
265.938	3.74
266.313	3.89
266.687	3.97
267.061	3.99
267.435	4.22
267.809	4.04
268.183	4.17
268.556	4.16
268.93	4.16
269.304	4.07
269.678	4.04
270.051	4.17
270.425	3.99
270.799	3.99
271.172	3.88
271.546	4.01
271.919	4.08
272.293	4.24
272.666	4.47
273.04	4.52
273.413	4.57
273.787	4.55
274.16	4.3
274.533	4.39
274.906	4.36
275.279	4.32
275.653	4.27
276.026	4.29
276.399	4.36
276.772	4.41
277.145	4.4
277.518	4.29
277.891	4.18
278.263	4.14
278.636	4.45
279.009	4.47
279.382	4.4
279.755	4.43
280.127	4.39
280.5	4.01
280.872	4.17
281.245	3.99
281.617	4.02
281.99	3.98
282.362	3.96
282.735	4.04
283.107	3.99
283.479	4.21
283.852	4.28
284.224	4.24
284.596	4.2
284.968	4.13
285.34	4.14
285.713	4.21
286.085	4.29
286.457	4.11
286.829	4.11
287.201	4.22
287.572	4.22
287.944	4.27
288.316	4.4
288.688	4.45
289.06	4.59
289.431	4.7
289.803	4.96
290.175	4.91
290.546	4.92
290.918	5.06
291.289	4.88
291.661	4.97
292.032	4.91
292.403	4.94
292.775	5.23
293.146	5.44
293.517	5.55
293.889	5.79
294.26	5.85
294.631	5.99
295.002	5.97
295.373	6.08
295.744	6.16
296.115	6.25
296.486	6.15
296.857	6.23
297.228	6.17
297.599	6.1
297.97	6.22
298.34	6.22
298.711	6.25
299.082	6.41
299.452	6.47
299.823	6.61
300.194	6.68
300.564	6.57
300.935	6.66
301.305	6.56
301.676	6.53
302.046	6.59
302.416	6.61
302.787	6.77
303.157	6.69
303.527	6.67
303.897	6.7
304.267	6.83
304.637	6.91
305.008	7.15
305.378	7.29
305.748	7.37
306.117	7.57
306.487	7.77
306.857	7.88
307.227	7.9
307.597	8.15
307.967	8.3
308.336	8.36
308.706	8.45
309.076	8.69
309.445	8.84
309.815	8.99
310.184	9.08
310.554	8.99
310.923	9.06
311.293	9.16
311.662	9.17
312.031	9.16
312.401	9.24
312.77	9.21
313.139	9.28
313.508	9.36
313.877	9.35
314.246	9.19
314.616	9.23
314.985	9.34
315.353	9.3
315.722	9.44
316.091	9.57
316.46	9.71
316.829	9.82
317.198	9.76
317.567	9.93
317.935	9.95
318.304	10.1
318.672	10.35
319.041	10.52
319.41	10.71
319.778	10.74
320.147	10.75
320.515	10.64
320.883	10.72
321.252	10.82
321.62	11
321.988	11.15
322.357	11.17
322.725	11.11
323.093	11.08
323.461	10.96
323.829	10.98
324.197	11.02
324.565	11.08
324.933	11.11
325.301	11.05
325.669	11.11
326.037	11.17
326.405	11.24
326.772	11.24
327.14	11.29
327.508	11.34
327.875	11.35
328.243	11.48
328.61	11.64
328.978	11.64
329.346	11.68
329.713	11.67
330.08	11.96
330.448	12.14
330.815	12.22
331.182	12.14
331.55	12.13
331.917	12.02
332.284	11.87
332.651	11.97
333.018	12.1
333.385	12.26
333.752	12.34
334.119	12.35
334.486	12.37
334.853	12.31
335.22	12.48
335.587	12.49
335.954	12.51
336.32	12.37
336.687	12.42
337.054	12.24
337.42	12.3
337.787	12.09
338.153	12.1
338.52	12.14
338.886	12.38
339.253	12.42
339.619	12.61
339.986	12.74
340.352	12.79
340.718	12.68
341.084	12.63
341.451	12.62
341.817	12.64
342.183	12.69
342.549	12.87
342.915	12.88
343.281	12.95
343.647	12.96
344.013	13.05
344.379	13.13
344.745	13.27
345.11	13.35
345.476	13.38
345.842	13.46
346.208	13.51
346.573	13.44
346.939	13.45
347.304	13.38
347.67	13.43
348.035	13.43
348.401	13.5
348.766	13.58
349.132	13.69
349.497	13.71
349.862	13.61
350.228	13.42
350.593	13.42
350.958	13.4
351.323	13.36
351.688	13.29
352.053	13.24
352.418	13.2
352.783	13.09
353.148	13.11
353.513	13.01
353.878	12.96
354.243	13
354.608	13.07
354.972	13.06
355.337	12.92
355.702	12.85
356.066	12.76
356.431	12.7
356.795	12.63
357.16	12.6
357.524	12.52
357.889	12.54
358.253	12.52
358.618	12.49
358.982	12.59
359.346	12.63
359.71	12.62
360.075	12.63
360.439	12.63
360.803	12.59
361.167	12.61
361.531	12.54
361.895	12.51
362.259	12.41
362.623	12.35
362.987	12.4
363.351	12.33
363.714	12.34
364.078	12.23
364.442	12.12
364.806	12.07
365.169	12.06
365.533	12.02
365.896	12.01
366.26	11.98
366.623	11.89
366.987	11.79
367.35	11.8
367.714	11.74
368.077	11.6
368.44	11.58
368.803	11.33
369.167	11.27
369.53	11.16
369.893	11.1
370.256	10.97
370.619	10.85
370.982	10.72
371.345	10.63
371.708	10.62
372.071	10.56
372.434	10.45
372.797	10.42
373.159	10.21
373.522	10.06
373.885	10.02
374.247	9.89
374.61	9.8
374.973	9.68
375.335	9.6
375.698	9.59
376.06	9.41
376.423	9.45
376.785	9.42
377.147	9.31
377.51	9.21
377.872	9.14
378.234	9.11
378.596	9.11
378.958	9
379.321	8.93
379.683	8.86
380.045	8.74
380.407	8.68
380.769	8.69
381.13	8.63
381.492	8.46
381.854	8.43
382.216	8.39
382.578	8.29
382.939	8.15
383.301	8.04
383.663	8.04
384.024	7.92
384.386	7.84
384.747	7.73
385.109	7.68
385.47	7.66
385.832	7.56
386.193	7.46
386.554	7.44
386.916	7.34
387.277	7.29
387.638	7.25
387.999	7.18
388.36	7.15
388.721	7.11
389.082	7.14
389.443	7.09
389.804	7.03
390.165	6.95
390.526	6.94
390.887	6.9
391.248	6.84
391.609	6.86
391.969	6.83
392.33	6.81
392.691	6.78
393.051	6.7
393.412	6.66
393.772	6.61
394.133	6.58
394.493	6.53
394.854	6.49
395.214	6.46
395.574	6.39
395.935	6.31
396.295	6.25
396.655	6.16
397.015	6.07
397.376	6.05
397.736	6
398.096	5.94
398.456	5.87
398.816	5.81
399.176	5.73
399.535	5.64
399.895	5.6
400.255	5.57
400.615	5.56
400.975	5.46
401.334	5.47
401.694	5.43
402.054	5.42
402.413	5.38
402.773	5.32
403.132	5.31
403.492	5.29
403.851	5.26
404.211	5.22
404.57	5.23
404.929	5.16
405.288	5.13
405.648	5.09
406.007	5.03
406.366	5.01
406.725	4.96
407.084	4.95
407.443	4.95
407.802	4.89
408.161	4.86
408.52	4.88
408.879	4.84
409.238	4.8
409.596	4.74
409.955	4.71
410.314	4.71
410.673	4.68
411.031	4.63
411.39	4.6
411.748	4.59
412.107	4.56
412.465	4.54
412.824	4.56
413.182	4.57
413.54	4.6
413.899	4.56
414.257	4.56
414.615	4.53
414.974	4.5
415.332	4.49
415.69	4.48
416.048	4.46
416.406	4.39
416.764	4.34
417.122	4.35
417.48	4.36
417.838	4.32
418.195	4.29
418.553	4.29
418.911	4.29
419.269	4.25
419.626	4.24
419.984	4.2
420.342	4.16
420.699	4.12
421.057	4.09
421.414	4.09
421.772	4.08
422.129	4.05
422.486	4.04
422.844	4.02
423.201	4.01
423.558	4
423.915	4.02
424.273	4.01
424.63	4
424.987	3.99
425.344	3.99
425.701	3.97
426.058	3.97
426.415	3.95
426.772	3.94
427.128	3.91
427.485	3.93
427.842	3.95
428.199	3.95
428.555	3.94
428.912	3.93
429.269	3.89
429.625	3.91
429.982	3.91
430.338	3.92
430.695	3.9
431.051	3.89
431.407	3.87
431.764	3.87
432.12	3.87
432.476	3.84
432.832	3.84
433.189	3.84
433.545	3.83
433.901	3.82
434.257	3.83
434.613	3.82
434.969	3.83
435.325	3.82
435.681	3.82
436.036	3.83
436.392	3.85
436.748	3.87
437.104	3.86
437.459	3.87
437.815	3.88
438.171	3.86
438.526	3.87
438.882	3.87
439.237	3.86
439.593	3.84
439.948	3.84
440.304	3.84
440.659	3.83
441.014	3.81
441.369	3.83
441.725	3.84
442.08	3.84
442.435	3.82
442.79	3.81
443.145	3.81
443.5	3.79
443.855	3.78
444.21	3.78
444.565	3.77
444.92	3.74
445.275	3.72
445.629	3.72
445.984	3.69
446.339	3.69
446.693	3.68
447.048	3.66
447.403	3.65
447.757	3.63
448.112	3.63
448.466	3.63
448.82	3.6
449.175	3.57
449.529	3.58
449.883	3.55
450.238	3.53
450.592	3.51
450.946	3.5
451.3	3.5
451.654	3.48
452.008	3.46
452.362	3.43
452.716	3.42
453.07	3.4
453.424	3.4
453.778	3.38
454.132	3.37
454.486	3.38
454.839	3.39
455.193	3.39
455.547	3.38
455.9	3.37
456.254	3.37
456.607	3.38
456.961	3.36
457.314	3.38
457.668	3.39
458.021	3.38
458.375	3.38
458.728	3.37
459.081	3.38
459.434	3.38
459.787	3.4
460.141	3.41
460.494	3.42
460.847	3.43
461.2	3.42
461.553	3.43
461.906	3.43
462.259	3.42
462.611	3.42
462.964	3.43
463.317	3.43
463.67	3.42
464.022	3.44
464.375	3.44
464.728	3.44
465.08	3.46
465.433	3.48
465.785	3.49
466.138	3.51
466.49	3.5
466.843	3.53
467.195	3.54
467.547	3.54
467.899	3.55
468.252	3.55
468.604	3.6
468.956	3.59
469.308	3.61
469.66	3.65
470.012	3.65
470.364	3.67
470.716	3.66
471.068	3.69
471.42	3.7
471.772	3.72
472.123	3.73
472.475	3.73
472.827	3.74
473.178	3.72
473.53	3.71
473.882	3.71
474.233	3.69
474.585	3.69
474.936	3.69
475.288	3.68
475.639	3.69
475.99	3.65
476.342	3.7
476.693	3.7
477.044	3.67
477.395	3.68
477.746	3.67
478.097	3.67
478.448	3.68
478.8	3.68
479.15	3.67
479.501	3.67
479.852	3.66
480.203	3.67
480.554	3.7
480.905	3.69
481.255	3.7
481.606	3.7
481.957	3.72
482.307	3.71
482.658	3.73
483.009	3.72
483.359	3.74
483.709	3.73
484.06	3.75
484.41	3.75
484.761	3.76
485.111	3.76
485.461	3.77
485.811	3.77
486.162	3.76
486.512	3.77
486.862	3.77
487.212	3.78
487.562	3.78
487.912	3.79
488.262	3.8
488.612	3.8
488.961	3.81
489.311	3.8
489.661	3.81
490.011	3.8
490.36	3.81
490.71	3.8
491.06	3.81
491.409	3.8
491.759	3.8
492.108	3.81
492.458	3.82
492.807	3.83
493.157	3.84
493.506	3.84
493.855	3.85
494.204	3.85
494.554	3.85
494.903	3.86
495.252	3.88
495.601	3.89
495.95	3.92
496.299	3.94
496.648	3.97
496.997	3.99
497.346	4.03
497.695	4.06
498.043	4.08
498.392	4.1
498.741	4.12
499.09	4.13
499.438	4.17
499.787	4.19
500.135	4.22
500.484	4.23
500.832	4.28
501.181	4.31
501.529	4.37
501.878	4.4
502.226	4.46
502.574	4.47
502.923	4.5
503.271	4.53
503.619	4.55
503.967	4.62
504.315	4.68
504.663	4.72
505.011	4.76
505.359	4.82
505.707	4.88
506.055	4.95
506.403	4.98
506.751	5.04
507.098	5.1
507.446	5.17
507.794	5.24
508.141	5.31
508.489	5.4
508.837	5.46
509.184	5.53
509.531	5.59
509.879	5.67
510.226	5.73
510.574	5.8
510.921	5.87
511.268	5.93
511.616	5.99
511.963	6.06
512.31	6.13
512.657	6.22
513.004	6.28
513.351	6.35
513.698	6.5
514.045	6.6
514.392	6.69
514.739	6.79
515.086	6.87
515.432	6.95
515.779	7.03
516.126	7.14
516.473	7.24
516.819	7.32
517.166	7.38
517.512	7.49
517.859	7.57
518.205	7.65
518.552	7.71
518.898	7.78
519.245	7.87
519.591	7.97
519.937	8.05
520.283	8.13
520.629	8.21
520.976	8.28
521.322	8.36
521.668	8.46
522.014	8.57
522.36	8.68
522.706	8.77
523.052	8.9
523.398	9.03
523.743	9.18
524.089	9.33
524.435	9.49
524.781	9.62
525.126	9.73
525.472	9.86
525.817	9.96
526.163	10.08
526.509	10.16
526.854	10.25
527.199	10.32
527.545	10.41
527.89	10.5
528.235	10.6
528.581	10.68
528.926	10.78
529.271	10.86
529.616	10.96
529.961	11.06
530.306	11.14
530.651	11.22
530.996	11.3
531.341	11.41
531.686	11.5
532.031	11.6
532.376	11.71
532.721	11.83
533.065	11.95
533.41	12.06
533.755	12.21
534.099	12.34
534.444	12.47
534.788	12.59
535.133	12.72
535.477	12.86
535.822	13
536.166	13.17
536.51	13.33
536.855	13.52
537.199	13.71
537.543	13.9
537.887	14.11
538.231	14.32
538.576	14.51
538.92	14.72
539.264	14.92
539.608	15.11
539.951	15.26
540.295	15.44
540.639	15.6
540.983	15.76
541.327	15.93
541.671	16.1
542.014	16.27
542.358	16.43
542.701	16.57
543.045	16.72
543.389	16.85
543.732	17.02
544.075	17.15
544.419	17.3
544.762	17.49
545.105	17.66
545.449	17.85
545.792	18.05
546.135	18.26
546.478	18.48
546.821	18.71
547.165	18.96
547.508	19.2
547.851	19.44
548.194	19.69
548.536	19.92
548.879	20.18
549.222	20.4
549.565	20.67
549.908	20.92
550.25	21.22
550.593	21.53
550.936	21.81
551.278	22.12
551.621	22.44
551.963	22.74
552.306	23.06
552.648	23.35
552.991	23.65
553.333	23.92
553.675	24.22
554.017	24.48
554.36	24.77
554.702	25.04
555.044	25.35
555.386	25.63
555.728	25.93
556.07	26.18
556.412	26.48
556.754	26.76
557.096	27.13
557.438	27.43
557.78	27.75
558.121	28.07
558.463	28.35
558.805	28.67
559.147	29
559.488	29.26
559.83	29.49
560.171	29.79
560.513	30.1
560.854	30.38
561.196	30.73
561.537	31.06
561.878	31.4
562.22	31.67
562.561	32.07
562.902	32.34
563.243	32.68
563.584	33.04
563.925	33.38
564.266	33.68
564.607	34
564.948	34.29
565.289	34.61
565.63	34.98
565.971	35.36
566.312	35.59
566.653	35.9
566.993	36.25
567.334	36.55
567.675	36.88
568.015	37.16
568.356	37.47
568.696	37.8
569.037	38.12
569.377	38.51
569.718	38.8
570.058	39.15
570.398	39.45
570.739	39.75
571.079	40.04
571.419	40.28
571.759	40.61
572.099	40.9
572.439	41.17
572.779	41.39
573.119	41.56
573.459	41.79
573.799	42.01
574.139	42.27
574.479	42.53
574.819	42.73
575.158	42.97
575.498	43.2
575.838	43.42
576.177	43.63
576.517	43.85
576.856	44.03
577.196	44.28
577.535	44.51
577.875	44.72
578.214	44.96
578.553	45.18
578.893	45.34
579.232	45.52
579.571	45.78
579.91	45.96
580.25	46.26
580.589	46.57
580.928	46.83
581.267	47.03
581.606	47.2
581.945	47.48
582.283	47.76
582.622	47.96
582.961	48.14
583.3	48.4
583.639	48.63
583.977	48.78
584.316	48.89
584.654	49.03
584.993	49.36
585.332	49.56
585.67	49.83
586.008	50.07
586.347	50.31
586.685	50.46
587.024	50.71
587.362	50.83
587.7	51.02
588.038	51.25
588.376	51.49
588.715	51.71
589.053	51.85
589.391	52
589.729	52.23
590.067	52.35
590.404	52.44
590.742	52.53
591.08	52.78
591.418	53
591.756	53.18
592.093	53.24
592.431	53.41
592.769	53.55
593.106	53.69
593.444	53.86
593.781	54.04
594.119	54.29
594.456	54.46
594.793	54.57
595.131	54.68
595.468	54.81
595.805	54.95
596.143	55.07
596.48	55.14
596.817	55.26
597.154	55.45
597.491	55.56
597.828	55.65
598.165	55.77
598.502	55.86
598.839	55.99
599.176	56.16
599.512	56.24
599.849	56.35
600.186	56.47
600.523	56.57
600.859	56.67
601.196	56.7
601.532	56.8
601.869	56.95
602.205	56.99
602.542	57.01
602.878	57.04
603.215	57.03
603.551	57.17
603.887	57.22
604.223	57.36
604.56	57.43
604.896	57.6
605.232	57.65
605.568	57.73
605.904	57.83
606.24	57.87
606.576	57.94
606.912	58.04
607.248	58.15
607.583	58.18
607.919	58.26
608.255	58.38
608.591	58.5
608.926	58.5
609.262	58.6
609.597	58.74
609.933	58.82
610.268	58.98
610.604	59.06
610.939	59.05
611.275	59.04
611.61	59.12
611.945	59.03
612.281	59.04
612.616	59.05
612.951	59.1
613.286	59.23
613.621	59.36
613.956	59.5
614.291	59.46
614.626	59.54
614.961	59.51
615.296	59.56
615.631	59.57
615.966	59.7
616.3	59.82
616.635	59.85
616.97	59.89
617.304	59.9
617.639	59.9
617.973	60.06
618.308	60.12
618.642	60.13
618.977	60.23
619.311	60.3
619.646	60.48
619.98	60.5
620.314	60.43
620.648	60.46
620.983	60.36
621.317	60.43
621.651	60.55
621.985	60.62
622.319	60.64
622.653	60.75
622.987	60.83
623.321	60.76
623.655	60.72
623.988	60.78
624.322	60.94
624.656	61
624.99	61.01
625.323	61.06
625.657	61.16
625.99	61.28
626.324	61.32
626.657	61.36
626.991	61.39
627.324	61.44
627.658	61.53
627.991	61.59
628.324	61.61
628.657	61.52
628.991	61.64
629.324	61.65
629.657	61.6
629.99	61.52
630.323	61.55
630.656	61.76
630.989	61.73
631.322	61.69
631.655	61.74
631.987	61.74
632.32	61.7
632.653	61.76
632.986	61.76
633.318	61.81
633.651	61.77
633.984	61.87
634.316	61.86
634.649	61.83
634.981	61.86
635.313	61.92
635.646	61.9
635.978	61.85
636.31	61.83
636.643	61.84
636.975	61.9
637.307	61.89
637.639	61.83
637.971	61.83
638.303	61.84
638.635	61.89
638.967	61.88
639.299	61.93
639.631	61.93
639.963	61.81
640.295	61.77
640.626	61.88
640.958	61.9
641.29	62
641.621	61.83
641.953	61.71
642.285	61.72
642.616	61.77
642.948	61.8
643.279	61.87
643.61	61.84
643.942	61.9
644.273	62.02
644.604	62.05
644.936	62.24
645.267	62.23
645.598	62.16
645.929	62.2
646.26	62.09
646.591	62.09
646.922	62.35
647.253	62.52
647.584	62.47
647.915	62.43
648.245	62.49
648.576	62.79
648.907	62.99
649.238	62.9
649.568	62.96
649.899	62.98
650.229	63.06
650.56	63.05
650.89	63.11
651.221	63.12
651.551	63.26
651.882	63.17
652.212	63.24
652.542	63.27
652.872	63.33
653.203	63.33
653.533	63.44
653.863	63.46
654.193	63.43
654.523	63.4
654.853	63.52
655.183	63.66
655.513	63.55
655.843	63.54
656.172	63.63
656.502	63.75
656.832	63.89
657.162	63.98
657.491	64.12
657.821	64.06
658.15	64.02
658.48	63.91
658.809	64.03
659.139	64.11
659.468	64.12
659.798	64.17
660.127	64.23
660.456	64.25
660.785	64.32
661.115	64.26
661.444	64.39
661.773	64.44
662.102	64.39
662.431	64.34
662.76	64.4
663.089	64.49
663.418	64.41
663.747	64.29
664.076	64.17
664.404	64.18
664.733	64.17
