Data from BU57994_Reflection_00011.txt Node
Date: Mon Nov 18 16:53:19 EST 2019
User: vgr7
Spectrometer: USB2G7710
Scans to average: 3
Trigger mode: 4
Integration Time (sec): 2.000000E-2
Electric dark correction enabled: true
Boxcar width: 10
XAxis mode: Wavelengths
Number of Pixels in Spectrum: 2048
>>>>>Begin Spectral Data<<<<<
177.721	72.66
178.105	55.49
178.488	72.08
178.871	59.36
179.254	70.65
179.636	73.36
180.019	51.32
180.402	63.46
180.785	-280.8
181.168	-509.38
181.55	80.97
181.933	74.09
182.316	114.48
182.698	107.7
183.081	79.31
183.463	58.63
183.846	62.43
184.228	69.62
184.611	73.91
184.993	925.5
185.376	-101.51
185.758	-429.41
186.14	-525.38
186.522	-125.24
186.904	-216.49
187.287	-165.35
187.669	-66.58
188.051	-143.88
188.433	-151.06
188.815	-72.49
189.197	-26.62
189.579	-14.73
189.961	-15.8
190.342	1.37
190.724	1.62
191.106	-9.66
191.488	-4.26
191.869	-18.68
192.251	-19.1
192.633	-21.38
193.014	-15.89
193.396	-27.52
193.777	-13.5
194.159	-14.94
194.54	-8.9
194.922	-12.99
195.303	-20.28
195.684	-50.63
196.065	-17.82
196.447	-42.99
196.828	-75.28
197.209	-93.06
197.59	-69.66
197.971	-60.69
198.352	-24.96
198.733	-35.34
199.114	-41.26
199.495	-37.26
199.876	-16.37
200.257	-16.64
200.638	-17.59
201.018	-11.45
201.399	0.15
201.78	9.4
202.16	1.07
202.541	-17.75
202.922	-21.76
203.302	-2.6
203.683	13.85
204.063	25.2
204.444	46.71
204.824	42.55
205.204	48.22
205.585	42.67
205.965	36.06
206.345	19.8
206.725	30.31
207.106	25.91
207.486	26.63
207.866	30.76
208.246	33.08
208.626	39.38
209.006	27.76
209.386	-15.21
209.766	0.27
210.145	13.22
210.525	15.48
210.905	10.34
211.285	7.93
211.664	0.36
212.044	-13.51
212.424	-28.68
212.803	-34.37
213.183	-42.93
213.562	-43.98
213.942	-45.12
214.321	-16.79
214.701	-24.82
215.08	-27.12
215.459	-21.94
215.838	-15.25
216.218	-12.69
216.597	-9.26
216.976	-8.3
217.355	-2.87
217.734	-11.6
218.113	-11.33
218.492	-9.4
218.871	-14.35
219.25	-20.78
219.629	-21.46
220.008	-30.43
220.387	-31.64
220.766	-41.28
221.144	-40.53
221.523	-51.79
221.902	-42.45
222.28	-56.75
222.659	-53.59
223.037	-26.66
223.416	-32.28
223.794	-35.94
224.173	-31.63
224.551	-25.75
224.929	-34.11
225.308	-26.8
225.686	-24.91
226.064	-20.56
226.442	-19.96
226.821	-11.03
227.199	-7.55
227.577	-7.85
227.955	-6.52
228.333	-5.38
228.711	0.12
229.089	0.51
229.467	1.32
229.845	-0.82
230.222	-0.65
230.6	0.18
230.978	0.22
231.356	2.27
231.733	1.07
232.111	1.58
232.488	1.62
232.866	3.2
233.243	1.97
233.621	1.64
233.998	1.77
234.376	1.62
234.753	0.35
235.13	0.2
235.508	1.13
235.885	1.52
236.262	1.82
236.639	0.74
237.016	0.28
237.393	1.66
237.77	2.81
238.147	2.45
238.524	1.63
238.901	1.61
239.278	1.68
239.655	2.2
240.032	1.99
240.409	1.72
240.785	2.66
241.162	3.21
241.539	3.61
241.915	3.96
242.292	3.34
242.668	3.76
243.045	3.88
243.421	3.96
243.798	3.88
244.174	3.79
244.551	4
244.927	3.84
245.303	3.46
245.679	3.43
246.056	3.3
246.432	3.52
246.808	3.53
247.184	3.6
247.56	3.68
247.936	3.68
248.312	3.77
248.688	3.71
249.064	3.83
249.44	3.56
249.815	3.52
250.191	3.82
250.567	3.74
250.943	3.73
251.318	3.75
251.694	3.88
252.069	3.77
252.445	3.6
252.82	3.51
253.196	3.74
253.571	3.81
253.947	4
254.322	4.2
254.697	3.86
255.073	3.63
255.448	3.56
255.823	3.52
256.198	3.32
256.573	3.37
256.948	3.31
257.323	3.5
257.698	3.49
258.073	3.46
258.448	3.37
258.823	3.22
259.198	3.25
259.573	3.26
259.948	3.35
260.322	3.44
260.697	3.48
261.072	3.44
261.446	3.5
261.821	3.5
262.195	3.48
262.57	3.66
262.944	3.6
263.319	3.58
263.693	3.63
264.067	3.87
264.442	3.82
264.816	3.78
265.19	3.78
265.564	3.81
265.938	3.83
266.313	3.74
266.687	3.82
267.061	3.89
267.435	3.96
267.809	3.88
268.183	3.8
268.556	3.74
268.93	3.64
269.304	3.53
269.678	3.75
270.051	3.62
270.425	3.41
270.799	3.5
271.172	3.61
271.546	3.38
271.919	3.18
272.293	3.01
272.666	2.97
273.04	2.89
273.413	2.77
273.787	2.69
274.16	2.77
274.533	2.8
274.906	2.73
275.279	2.73
275.653	2.65
276.026	2.57
276.399	2.61
276.772	2.74
277.145	2.8
277.518	2.78
277.891	2.77
278.263	2.62
278.636	2.56
279.009	2.57
279.382	2.96
279.755	3.15
280.127	3.4
280.5	3.53
280.872	3.66
281.245	3.73
281.617	3.86
281.99	3.81
282.362	3.74
282.735	3.53
283.107	3.43
283.479	3.52
283.852	3.49
284.224	3.64
284.596	3.54
284.968	3.55
285.34	3.52
285.713	3.52
286.085	3.69
286.457	3.87
286.829	3.76
287.201	3.56
287.572	3.53
287.944	3.33
288.316	3.24
288.688	3.1
289.06	3.01
289.431	2.98
289.803	3.07
290.175	3.09
290.546	3.27
290.918	3.26
291.289	3.27
291.661	3.48
292.032	3.49
292.403	3.71
292.775	3.77
293.146	3.71
293.517	3.78
293.889	3.83
294.26	3.73
294.631	3.92
295.002	3.94
295.373	3.9
295.744	4.12
296.115	4.18
296.486	4.18
296.857	4.42
297.228	4.45
297.599	4.42
297.97	4.43
298.34	4.52
298.711	4.59
299.082	4.7
299.452	4.63
299.823	4.72
300.194	4.69
300.564	4.46
300.935	4.49
301.305	4.54
301.676	4.68
302.046	4.77
302.416	4.76
302.787	4.87
303.157	4.9
303.527	4.91
303.897	5.06
304.267	5.28
304.637	5.37
305.008	5.48
305.378	5.67
305.748	5.82
306.117	5.75
306.487	5.79
306.857	5.73
307.227	5.81
307.597	5.81
307.967	5.9
308.336	6.17
308.706	6.33
309.076	6.31
309.445	6.33
309.815	6.34
310.184	6.32
310.554	6.37
310.923	6.4
311.293	6.39
311.662	6.39
312.031	6.34
312.401	6.29
312.77	6.49
313.139	6.51
313.508	6.47
313.877	6.39
314.246	6.41
314.616	6.67
314.985	6.82
315.353	6.69
315.722	6.66
316.091	6.74
316.46	6.75
316.829	6.97
317.198	7.03
317.567	7.18
317.935	7.26
318.304	7.37
318.672	7.56
319.041	7.78
319.41	7.76
319.778	7.88
320.147	7.94
320.515	7.88
320.883	7.91
321.252	8.13
321.62	8.26
321.988	8.41
322.357	8.3
322.725	8.23
323.093	8.54
323.461	8.54
323.829	8.61
324.197	8.7
324.565	8.61
324.933	8.66
325.301	8.62
325.669	8.82
326.037	9.01
326.405	9.05
326.772	9.07
327.14	9.21
327.508	9.28
327.875	9.26
328.243	9.31
328.61	9.32
328.978	9.42
329.346	9.64
329.713	9.65
330.08	9.79
330.448	9.91
330.815	9.79
331.182	9.86
331.55	9.84
331.917	9.84
332.284	10.05
332.651	9.95
333.018	10.06
333.385	10.13
333.752	10.07
334.119	10.23
334.486	10.08
334.853	10.05
335.22	10.14
335.587	10.24
335.954	10.21
336.32	10.3
336.687	10.31
337.054	10.26
337.42	10.38
337.787	10.45
338.153	10.37
338.52	10.56
338.886	10.52
339.253	10.63
339.619	10.66
339.986	10.71
340.352	10.86
340.718	10.9
341.084	10.86
341.451	10.95
341.817	10.95
342.183	11.04
342.549	11.17
342.915	11.19
343.281	11.3
343.647	11.41
344.013	11.5
344.379	11.41
344.745	11.5
345.11	11.46
345.476	11.57
345.842	11.65
346.208	11.56
346.573	11.74
346.939	11.79
347.304	11.79
347.67	11.77
348.035	11.69
348.401	11.7
348.766	11.75
349.132	11.79
349.497	11.72
349.862	11.84
350.228	11.82
350.593	11.9
350.958	11.82
351.323	11.79
351.688	11.77
352.053	11.97
352.418	12.04
352.783	12.1
353.148	11.99
353.513	11.97
353.878	12.01
354.243	12.17
354.608	12.12
354.972	12.21
355.337	12.22
355.702	12.34
356.066	12.46
356.431	12.42
356.795	12.28
357.16	12.3
357.524	12.2
357.889	12.14
358.253	12.08
358.618	12.13
358.982	12.07
359.346	12.03
359.71	11.93
360.075	11.92
360.439	11.88
360.803	11.9
361.167	11.92
361.531	11.96
361.895	11.81
362.259	11.76
362.623	11.68
362.987	11.63
363.351	11.56
363.714	11.46
364.078	11.43
364.442	11.41
364.806	11.39
365.169	11.41
365.533	11.4
365.896	11.29
366.26	11.23
366.623	11.26
366.987	11.13
367.35	11.15
367.714	11.04
368.077	10.96
368.44	10.83
368.803	10.76
369.167	10.65
369.53	10.52
369.893	10.51
370.256	10.46
370.619	10.42
370.982	10.34
371.345	10.22
371.708	10.1
372.071	10.06
372.434	9.94
372.797	9.89
373.159	9.79
373.522	9.79
373.885	9.67
374.247	9.58
374.61	9.61
374.973	9.46
375.335	9.43
375.698	9.33
376.06	9.25
376.423	9.18
376.785	9.1
377.147	9.11
377.51	9.03
377.872	8.94
378.234	8.79
378.596	8.72
378.958	8.66
379.321	8.66
379.683	8.63
380.045	8.58
380.407	8.46
380.769	8.4
381.13	8.36
381.492	8.27
381.854	8.2
382.216	8.08
382.578	8.02
382.939	7.89
383.301	7.84
383.663	7.76
384.024	7.69
384.386	7.68
384.747	7.62
385.109	7.55
385.47	7.49
385.832	7.44
386.193	7.41
386.554	7.37
386.916	7.25
387.277	7.2
387.638	7.18
387.999	7.09
388.36	7.04
388.721	6.98
389.082	6.99
389.443	6.92
389.804	6.89
390.165	6.83
390.526	6.81
390.887	6.8
391.248	6.8
391.609	6.75
391.969	6.68
392.33	6.61
392.691	6.58
393.051	6.53
393.412	6.53
393.772	6.42
394.133	6.41
394.493	6.41
394.854	6.36
395.214	6.26
395.574	6.24
395.935	6.19
396.295	6.17
396.655	6.1
397.015	6.03
397.376	5.99
397.736	5.96
398.096	5.95
398.456	5.88
398.816	5.82
399.176	5.76
399.535	5.71
399.895	5.66
400.255	5.63
400.615	5.6
400.975	5.55
401.334	5.53
401.694	5.45
402.054	5.37
402.413	5.31
402.773	5.26
403.132	5.24
403.492	5.21
403.851	5.15
404.211	5.13
404.57	5.1
404.929	5.08
405.288	5.04
405.648	4.98
406.007	4.96
406.366	4.94
406.725	4.95
407.084	4.91
407.443	4.88
407.802	4.86
408.161	4.82
408.52	4.78
408.879	4.78
409.238	4.76
409.596	4.77
409.955	4.74
410.314	4.75
410.673	4.72
411.031	4.72
411.39	4.7
411.748	4.67
412.107	4.65
412.465	4.62
412.824	4.6
413.182	4.57
413.54	4.55
413.899	4.52
414.257	4.47
414.615	4.47
414.974	4.47
415.332	4.43
415.69	4.42
416.048	4.41
416.406	4.39
416.764	4.39
417.122	4.37
417.48	4.37
417.838	4.34
418.195	4.32
418.553	4.27
418.911	4.23
419.269	4.22
419.626	4.22
419.984	4.22
420.342	4.2
420.699	4.19
421.057	4.19
421.414	4.15
421.772	4.15
422.129	4.14
422.486	4.12
422.844	4.11
423.201	4.08
423.558	4.05
423.915	4.04
424.273	4.03
424.63	4
424.987	3.99
425.344	3.98
425.701	3.98
426.058	4
426.415	4
426.772	3.98
427.128	3.95
427.485	3.93
427.842	3.93
428.199	3.93
428.555	3.9
428.912	3.92
429.269	3.91
429.625	3.89
429.982	3.86
430.338	3.87
430.695	3.87
431.051	3.87
431.407	3.84
431.764	3.83
432.12	3.83
432.476	3.83
432.832	3.8
433.189	3.79
433.545	3.77
433.901	3.76
434.257	3.76
434.613	3.77
434.969	3.78
435.325	3.77
435.681	3.76
436.036	3.77
436.392	3.75
436.748	3.75
437.104	3.73
437.459	3.75
437.815	3.74
438.171	3.74
438.526	3.76
438.882	3.76
439.237	3.76
439.593	3.77
439.948	3.76
440.304	3.77
440.659	3.77
441.014	3.76
441.369	3.74
441.725	3.74
442.08	3.73
442.435	3.72
442.79	3.72
443.145	3.71
443.5	3.71
443.855	3.72
444.21	3.72
444.565	3.74
444.92	3.74
445.275	3.73
445.629	3.73
445.984	3.71
446.339	3.72
446.693	3.71
447.048	3.69
447.403	3.71
447.757	3.7
448.112	3.69
448.466	3.69
448.82	3.68
449.175	3.68
449.529	3.66
449.883	3.64
450.238	3.64
450.592	3.64
450.946	3.62
451.3	3.57
451.654	3.55
452.008	3.52
452.362	3.5
452.716	3.49
453.07	3.5
453.424	3.48
453.778	3.48
454.132	3.47
454.486	3.47
454.839	3.45
455.193	3.44
455.547	3.42
455.9	3.42
456.254	3.43
456.607	3.46
456.961	3.46
457.314	3.46
457.668	3.45
458.021	3.45
458.375	3.46
458.728	3.48
459.081	3.49
459.434	3.49
459.787	3.5
460.141	3.52
460.494	3.52
460.847	3.53
461.2	3.54
461.553	3.56
461.906	3.55
462.259	3.56
462.611	3.57
462.964	3.6
463.317	3.61
463.67	3.62
464.022	3.61
464.375	3.6
464.728	3.63
465.08	3.66
465.433	3.68
465.785	3.68
466.138	3.69
466.49	3.7
466.843	3.73
467.195	3.75
467.547	3.74
467.899	3.74
468.252	3.75
468.604	3.76
468.956	3.77
469.308	3.8
469.66	3.81
470.012	3.84
470.364	3.85
470.716	3.87
471.068	3.89
471.42	3.9
471.772	3.94
472.123	3.96
472.475	3.96
472.827	3.97
473.178	3.99
473.53	4.01
473.882	4.03
474.233	4.02
474.585	4.02
474.936	4.02
475.288	4.01
475.639	4.03
475.99	4.02
476.342	4.01
476.693	4
477.044	4.02
477.395	4.02
477.746	4.01
478.097	3.99
478.448	3.97
478.8	3.96
479.15	3.92
479.501	3.92
479.852	3.93
480.203	3.92
480.554	3.91
480.905	3.91
481.255	3.9
481.606	3.9
481.957	3.9
482.307	3.9
482.658	3.9
483.009	3.89
483.359	3.89
483.709	3.89
484.06	3.88
484.41	3.88
484.761	3.87
485.111	3.88
485.461	3.89
485.811	3.89
486.162	3.9
486.512	3.91
486.862	3.9
487.212	3.9
487.562	3.9
487.912	3.9
488.262	3.9
488.612	3.9
488.961	3.89
489.311	3.88
489.661	3.88
490.011	3.89
490.36	3.9
490.71	3.9
491.06	3.9
491.409	3.92
491.759	3.92
492.108	3.94
492.458	3.94
492.807	3.94
493.157	3.94
493.506	3.96
493.855	3.98
494.204	4
494.554	4.02
494.903	4.04
495.252	4.05
495.601	4.08
495.95	4.1
496.299	4.14
496.648	4.18
496.997	4.23
497.346	4.26
497.695	4.3
498.043	4.33
498.392	4.36
498.741	4.4
499.09	4.42
499.438	4.49
499.787	4.51
500.135	4.59
500.484	4.65
500.832	4.69
501.181	4.75
501.529	4.82
501.878	4.88
502.226	4.95
502.574	5.04
502.923	5.11
503.271	5.2
503.619	5.28
503.967	5.4
504.315	5.47
504.663	5.58
505.011	5.7
505.359	5.83
505.707	5.94
506.055	6.06
506.403	6.21
506.751	6.32
507.098	6.45
507.446	6.55
507.794	6.67
508.141	6.79
508.489	6.94
508.837	7.09
509.184	7.26
509.531	7.4
509.879	7.58
510.226	7.74
510.574	7.91
510.921	8.06
511.268	8.19
511.616	8.36
511.963	8.53
512.31	8.71
512.657	8.89
513.004	9.09
513.351	9.29
513.698	9.51
514.045	9.71
514.392	9.94
514.739	10.16
515.086	10.45
515.432	10.71
515.779	10.93
516.126	11.17
516.473	11.39
516.819	11.64
517.166	11.81
517.512	12.04
517.859	12.22
518.205	12.44
518.552	12.68
518.898	12.89
519.245	13.1
519.591	13.3
519.937	13.54
520.283	13.77
520.629	14.03
520.976	14.25
521.322	14.5
521.668	14.74
522.014	15.01
522.36	15.26
522.706	15.53
523.052	15.83
523.398	16.14
523.743	16.46
524.089	16.74
524.435	17.03
524.781	17.3
525.126	17.57
525.472	17.83
525.817	18.02
526.163	18.22
526.509	18.41
526.854	18.6
527.199	18.77
527.545	18.93
527.89	19.08
528.235	19.26
528.581	19.44
528.926	19.62
529.271	19.81
529.616	19.98
529.961	20.14
530.306	20.32
530.651	20.47
530.996	20.65
531.341	20.84
531.686	21.06
532.031	21.25
532.376	21.47
532.721	21.65
533.065	21.9
533.41	22.13
533.755	22.36
534.099	22.59
534.444	22.84
534.788	23.06
535.133	23.27
535.477	23.47
535.822	23.7
536.166	23.98
536.51	24.23
536.855	24.54
537.199	24.81
537.543	25.11
537.887	25.44
538.231	25.74
538.576	26.05
538.92	26.35
539.264	26.64
539.608	26.88
539.951	27.15
540.295	27.38
540.639	27.63
540.983	27.84
541.327	28.07
541.671	28.29
542.014	28.52
542.358	28.76
542.701	29
543.045	29.2
543.389	29.38
543.732	29.59
544.075	29.78
544.419	30.07
544.762	30.29
545.105	30.51
545.449	30.78
545.792	31.05
546.135	31.32
546.478	31.62
546.821	31.92
547.165	32.24
547.508	32.56
547.851	32.81
548.194	33.12
548.536	33.4
548.879	33.69
549.222	33.98
549.565	34.31
549.908	34.63
550.25	34.99
550.593	35.3
550.936	35.59
551.278	35.85
551.621	36.13
551.963	36.46
552.306	36.76
552.648	37.05
552.991	37.31
553.333	37.56
553.675	37.81
554.017	38.16
554.36	38.4
554.702	38.61
555.044	38.93
555.386	39.18
555.728	39.43
556.07	39.72
556.412	39.95
556.754	40.18
557.096	40.42
557.438	40.63
557.78	40.92
558.121	41.2
558.463	41.5
558.805	41.72
559.147	41.92
559.488	42.21
559.83	42.4
560.171	42.62
560.513	42.84
560.854	42.98
561.196	43.11
561.537	43.28
561.878	43.54
562.22	43.73
562.561	43.96
562.902	44.12
563.243	44.24
563.584	44.47
563.925	44.63
564.266	44.76
564.607	44.99
564.948	45.16
565.289	45.36
565.63	45.5
565.971	45.71
566.312	45.89
566.653	46.05
566.993	46.19
567.334	46.33
567.675	46.48
568.015	46.69
568.356	46.89
568.696	47.08
569.037	47.24
569.377	47.39
569.718	47.55
570.058	47.7
570.398	47.93
570.739	48.07
571.079	48.23
571.419	48.45
571.759	48.57
572.099	48.74
572.439	48.87
572.779	48.97
573.119	49.03
573.459	49.23
573.799	49.36
574.139	49.54
574.479	49.7
574.819	49.82
575.158	49.99
575.498	50.1
575.838	50.26
576.177	50.34
576.517	50.51
576.856	50.64
577.196	50.8
577.535	50.93
577.875	51.08
578.214	51.24
578.553	51.34
578.893	51.47
579.232	51.5
579.571	51.68
579.91	51.91
580.25	52.08
580.589	52.05
580.928	52.17
581.267	52.27
581.606	52.38
581.945	52.59
582.283	52.64
582.622	52.76
582.961	52.84
583.3	52.96
583.639	53.05
583.977	53.12
584.316	53.24
584.654	53.22
584.993	53.29
585.332	53.36
585.67	53.42
586.008	53.5
586.347	53.63
586.685	53.65
587.024	53.75
587.362	53.84
587.7	54.01
588.038	54.11
588.376	54.09
588.715	54.1
589.053	54.14
589.391	54.3
589.729	54.41
590.067	54.49
590.404	54.46
590.742	54.47
591.08	54.53
591.418	54.61
591.756	54.66
592.093	54.78
592.431	54.77
592.769	54.89
593.106	54.98
593.444	55.07
593.781	55.18
594.119	55.19
594.456	55.24
594.793	55.3
595.131	55.32
595.468	55.41
595.805	55.51
596.143	55.66
596.48	55.61
596.817	55.66
597.154	55.71
597.491	55.89
597.828	55.95
598.165	56.07
598.502	56.13
598.839	56.23
599.176	56.27
599.512	56.41
599.849	56.44
600.186	56.43
600.523	56.49
600.859	56.54
601.196	56.62
601.532	56.66
601.869	56.64
602.205	56.65
602.542	56.71
602.878	56.75
603.215	56.75
603.551	56.8
603.887	56.83
604.223	56.84
604.56	56.81
604.896	56.85
605.232	56.89
605.568	56.85
605.904	56.93
606.24	56.98
606.576	56.96
606.912	57.08
607.248	57.2
607.583	57.18
607.919	57.19
608.255	57.18
608.591	57.19
608.926	57.21
609.262	57.33
609.597	57.36
609.933	57.41
610.268	57.38
610.604	57.41
610.939	57.42
611.275	57.5
611.61	57.52
611.945	57.59
612.281	57.59
612.616	57.73
612.951	57.72
613.286	57.72
613.621	57.75
613.956	57.66
614.291	57.65
614.626	57.73
614.961	57.71
615.296	57.77
615.631	57.85
615.966	57.86
616.3	57.8
616.635	57.82
616.97	57.77
617.304	57.88
617.639	57.93
617.973	57.92
618.308	57.88
618.642	57.96
618.977	57.89
619.311	57.86
619.646	57.81
619.98	57.88
620.314	57.97
620.648	58.07
620.983	58.15
621.317	58.21
621.651	58.35
621.985	58.4
622.319	58.4
622.653	58.51
622.987	58.64
623.321	58.73
623.655	58.78
623.988	58.87
624.322	58.82
624.656	58.87
624.99	58.92
625.323	58.96
625.657	58.97
625.99	59.08
626.324	59.08
626.657	59.07
626.991	59.09
627.324	59.07
627.658	59.11
627.991	59.13
628.324	59.2
628.657	59.12
628.991	59.14
629.324	59.21
629.657	59.1
629.99	59.03
630.323	58.98
630.656	58.99
630.989	59.05
631.322	59.08
631.655	59.02
631.987	59.01
632.32	59.11
632.653	59.11
632.986	59.1
633.318	59.18
633.651	59.35
633.984	59.41
634.316	59.45
634.649	59.44
634.981	59.44
635.313	59.37
635.646	59.47
635.978	59.54
636.31	59.54
636.643	59.67
636.975	59.81
637.307	59.85
637.639	59.89
637.971	59.85
638.303	59.93
638.635	59.95
638.967	59.99
639.299	59.92
639.631	60.01
639.963	59.9
640.295	59.87
640.626	59.74
640.958	59.7
641.29	59.75
641.621	59.63
641.953	59.66
642.285	59.73
642.616	59.68
642.948	59.62
643.279	59.74
643.61	59.71
643.942	59.66
644.273	59.7
644.604	59.79
644.936	59.83
645.267	59.81
645.598	59.94
645.929	59.89
646.26	59.94
646.591	59.97
646.922	60.1
647.253	60.08
647.584	60.11
647.915	60.14
648.245	60.13
648.576	60.11
648.907	60.06
649.238	59.96
649.568	59.89
649.899	59.98
650.229	59.86
650.56	59.84
650.89	59.87
651.221	59.89
651.551	59.76
651.882	59.74
652.212	59.69
652.542	59.73
652.872	59.83
653.203	59.81
653.533	59.79
653.863	59.86
654.193	59.95
654.523	60.07
654.853	60.04
655.183	60
655.513	60.12
655.843	60.12
656.172	60.23
656.502	60.26
656.832	60.25
657.162	60.31
657.491	60.37
657.821	60.37
658.15	60.44
658.48	60.53
658.809	60.63
659.139	60.71
659.468	60.64
659.798	60.63
660.127	60.57
660.456	60.6
660.785	60.62
661.115	60.54
661.444	60.42
661.773	60.42
662.102	60.5
662.431	60.51
662.76	60.51
663.089	60.46
663.418	60.52
663.747	60.49
664.076	60.49
664.404	60.53
664.733	60.58
665.062	60.55
665.39	60.56
