Data from BU57647_Reflection_00005.txt Node
Date: Mon Nov 18 16:49:27 EST 2019
User: vgr7
Spectrometer: USB2G7710
Scans to average: 3
Trigger mode: 4
Integration Time (sec): 2.000000E-2
Electric dark correction enabled: true
Boxcar width: 10
XAxis mode: Wavelengths
Number of Pixels in Spectrum: 2048
>>>>>Begin Spectral Data<<<<<
177.721	24.21
178.105	56.77
178.488	97.37
178.871	-171.28
179.254	-43.51
179.636	-698.91
180.019	-22.26
180.402	22.5
180.785	-4.56
181.168	-179.47
181.55	-130.77
181.933	37.93
182.316	94.21
182.698	39.66
183.081	67.49
183.463	-18.35
183.846	-635.85
184.228	-6718.18
184.611	-377.55
184.993	-20.58
185.376	1.51
185.758	-38.37
186.14	-11.89
186.522	-18.7
186.904	3.95
187.287	28.94
187.669	118.54
188.051	-16.69
188.433	-15.8
188.815	11.1
189.197	-31.72
189.579	-31.49
189.961	-31.99
190.342	-32.66
190.724	-30.15
191.106	-31.45
191.488	-23.54
191.869	-19.9
192.251	-41.02
192.633	-53.4
193.014	-82.67
193.396	-168.68
193.777	-132.3
194.159	-275.54
194.54	-201.09
194.922	-509.25
195.303	-332.47
195.684	-228.37
196.065	-99.76
196.447	-115.63
196.828	-213.11
197.209	-100.42
197.59	-83.33
197.971	-40.43
198.352	-1.41
198.733	-9.07
199.114	11.19
199.495	1.47
199.876	16.51
200.257	59.61
200.638	68.08
201.018	73.42
201.399	68.36
201.78	61
202.16	64.22
202.541	82.4
202.922	63.76
203.302	41.23
203.683	41.09
204.063	66.11
204.444	43.94
204.824	51.73
205.204	24.78
205.585	23.46
205.965	-17.59
206.345	-104.77
206.725	-248.84
207.106	-545.93
207.486	352.7
207.866	444.26
208.246	1406.75
208.626	989.45
209.006	-578.69
209.386	2676.47
209.766	-5708.51
210.145	-1042.35
210.525	-138.15
210.905	-108.78
211.285	-61.87
211.664	-58.95
212.044	-56.64
212.424	-39.36
212.803	-40.56
213.183	-19.09
213.562	-18.18
213.942	-9.11
214.321	-4.02
214.701	-30.9
215.08	-27.99
215.459	-21.3
215.838	-37.39
216.218	-58.91
216.597	-59.55
216.976	-60.32
217.355	-43.31
217.734	-42.44
218.113	-36.91
218.492	-46.33
218.871	-54.83
219.25	-44.77
219.629	-54.87
220.008	-43.86
220.387	-36.46
220.766	-41.75
221.144	-62.99
221.523	-76.97
221.902	-69.84
222.28	-71.24
222.659	-57.74
223.037	-49.49
223.416	-67.56
223.794	-59.95
224.173	-42.41
224.551	-37.5
224.929	-44.56
225.308	-38.71
225.686	-37.74
226.064	-39.87
226.442	-36.24
226.821	-27.4
227.199	-27.97
227.577	-22.85
227.955	-27.8
228.333	-26.43
228.711	-17.21
229.089	-10.45
229.467	-9.32
229.845	-11.52
230.222	-10.47
230.6	-9.42
230.978	-8.78
231.356	-6.69
231.733	-6.22
232.111	-5.25
232.488	-2.86
232.866	-0.13
233.243	-1.08
233.621	-1.55
233.998	0.66
234.376	0.66
234.753	-0.71
235.13	0.6
235.508	0.37
235.885	2.31
236.262	1.84
236.639	-0.25
237.016	-0.95
237.393	0.13
237.77	2.73
238.147	3.37
238.524	3.47
238.901	3.71
239.278	5.85
239.655	7.28
240.032	7.04
240.409	6.66
240.785	6.54
241.162	6.72
241.539	6.82
241.915	6.51
242.292	6.3
242.668	6.71
243.045	6.3
243.421	6.08
243.798	6.32
244.174	5.93
244.551	5.93
244.927	6.1
245.303	6.29
245.679	6.28
246.056	6.08
246.432	6.05
246.808	5.92
247.184	5.31
247.56	5.16
247.936	5.09
248.312	5.24
248.688	5.14
249.064	5.28
249.44	5.26
249.815	5.26
250.191	5.43
250.567	5.63
250.943	5.59
251.318	5.59
251.694	5.2
252.069	5.37
252.445	5.34
252.82	5.5
253.196	4.81
253.571	4.35
253.947	4.71
254.322	4.95
254.697	4.76
255.073	4.94
255.448	4.82
255.823	4.92
256.198	4.9
256.573	5.01
256.948	4.8
257.323	5.13
257.698	5.09
258.073	4.85
258.448	4.5
258.823	4.48
259.198	4.4
259.573	4.52
259.948	4.57
260.322	4.82
260.697	4.6
261.072	4.69
261.446	4.84
261.821	4.65
262.195	4.58
262.57	4.66
262.944	4.66
263.319	4.54
263.693	4.71
264.067	4.56
264.442	4.51
264.816	4.56
265.19	4.38
265.564	4.55
265.938	4.55
266.313	4.55
266.687	4.71
267.061	4.99
267.435	4.91
267.809	5.12
268.183	4.81
268.556	4.72
268.93	4.91
269.304	4.75
269.678	4.75
270.051	4.67
270.425	4.7
270.799	4.71
271.172	4.77
271.546	4.53
271.919	4.6
272.293	4.75
272.666	4.71
273.04	4.86
273.413	4.87
273.787	4.9
274.16	4.99
274.533	4.85
274.906	4.71
275.279	4.68
275.653	4.49
276.026	4.57
276.399	4.69
276.772	4.56
277.145	4.52
277.518	4.67
277.891	4.76
278.263	4.7
278.636	4.72
279.009	4.68
279.382	4.95
279.755	4.89
280.127	4.73
280.5	4.74
280.872	4.71
281.245	4.44
281.617	4.52
281.99	4.42
282.362	4.55
282.735	4.45
283.107	4.54
283.479	4.49
283.852	4.59
284.224	4.64
284.596	4.59
284.968	4.65
285.34	4.71
285.713	4.65
286.085	4.79
286.457	4.78
286.829	4.85
287.201	4.67
287.572	4.66
287.944	4.72
288.316	4.76
288.688	4.67
289.06	4.84
289.431	4.81
289.803	4.9
290.175	4.83
290.546	5.03
290.918	5.02
291.289	5.11
291.661	5.16
292.032	5.13
292.403	5.27
292.775	5.35
293.146	5.26
293.517	5.3
293.889	5.23
294.26	5.33
294.631	5.27
295.002	5.32
295.373	5.36
295.744	5.29
296.115	5.3
296.486	5.35
296.857	5.39
297.228	5.61
297.599	5.61
297.97	5.65
298.34	5.59
298.711	5.68
299.082	5.63
299.452	5.73
299.823	5.78
300.194	5.75
300.564	5.7
300.935	5.7
301.305	5.63
301.676	5.74
302.046	5.65
302.416	5.87
302.787	5.86
303.157	5.8
303.527	5.85
303.897	5.75
304.267	5.8
304.637	5.63
305.008	5.44
305.378	5.58
305.748	5.7
306.117	5.64
306.487	5.54
306.857	5.53
307.227	5.39
307.597	5.3
307.967	5.34
308.336	5.3
308.706	5.32
309.076	5.39
309.445	5.28
309.815	5.36
310.184	5.19
310.554	5.29
310.923	5.43
311.293	5.36
311.662	5.47
312.031	5.43
312.401	5.37
312.77	5.5
313.139	5.49
313.508	5.37
313.877	5.33
314.246	5.34
314.616	5.32
314.985	5.25
315.353	5.24
315.722	5.24
316.091	5.17
316.46	5.02
316.829	5.12
317.198	5.16
317.567	5.06
317.935	4.94
318.304	4.78
318.672	4.61
319.041	4.66
319.41	4.59
319.778	4.47
320.147	4.47
320.515	4.16
320.883	3.98
321.252	3.99
321.62	4.04
321.988	3.98
322.357	4.19
322.725	4.23
323.093	4.39
323.461	4.49
323.829	4.67
324.197	4.77
324.565	4.69
324.933	4.61
325.301	4.56
325.669	4.75
326.037	4.93
326.405	4.99
326.772	4.93
327.14	5
327.508	5.13
327.875	5.26
328.243	5.5
328.61	5.52
328.978	5.48
329.346	5.59
329.713	5.53
330.08	5.56
330.448	5.51
330.815	5.34
331.182	5.22
331.55	5.23
331.917	5.27
332.284	5.36
332.651	5.5
333.018	5.53
333.385	5.44
333.752	5.36
334.119	5.45
334.486	5.69
334.853	5.63
335.22	5.59
335.587	5.71
335.954	5.58
336.32	5.68
336.687	5.69
337.054	5.55
337.42	5.7
337.787	5.56
338.153	5.51
338.52	5.51
338.886	5.41
339.253	5.32
339.619	5.34
339.986	5.29
340.352	5.31
340.718	5.28
341.084	5.25
341.451	5.26
341.817	5.27
342.183	5.21
342.549	5.15
342.915	5.16
343.281	4.98
343.647	4.93
344.013	4.88
344.379	4.9
344.745	5
345.11	4.9
345.476	4.94
345.842	4.95
346.208	5.01
346.573	5.12
346.939	5.21
347.304	5.16
347.67	5.05
348.035	4.91
348.401	4.91
348.766	5.02
349.132	4.99
349.497	4.96
349.862	4.98
350.228	5.02
350.593	4.94
350.958	5.03
351.323	5.12
351.688	5.13
352.053	5.21
352.418	5.25
352.783	5.3
353.148	5.19
353.513	5.19
353.878	5.16
354.243	5.15
354.608	5.13
354.972	5.13
355.337	5.23
355.702	5.34
356.066	5.39
356.431	5.33
356.795	5.37
357.16	5.32
357.524	5.22
357.889	5.21
358.253	5.3
358.618	5.31
358.982	5.27
359.346	5.2
359.71	5.17
360.075	5.18
360.439	5.16
360.803	5.2
361.167	5.28
361.531	5.26
361.895	5.27
362.259	5.24
362.623	5.33
362.987	5.26
363.351	5.21
363.714	5.26
364.078	5.22
364.442	5.15
364.806	5.19
365.169	5.28
365.533	5.31
365.896	5.28
366.26	5.29
366.623	5.29
366.987	5.43
367.35	5.44
367.714	5.35
368.077	5.37
368.44	5.37
368.803	5.33
369.167	5.36
369.53	5.3
369.893	5.32
370.256	5.27
370.619	5.33
370.982	5.27
371.345	5.2
371.708	5.24
372.071	5.24
372.434	5.16
372.797	5.12
373.159	5.13
373.522	5.19
373.885	5.19
374.247	5.19
374.61	5.11
374.973	5.1
375.335	5.13
375.698	5.09
376.06	5.06
376.423	5.05
376.785	5.09
377.147	5.14
377.51	5.16
377.872	5.16
378.234	5.15
378.596	5.24
378.958	5.24
379.321	5.3
379.683	5.35
380.045	5.4
380.407	5.4
380.769	5.38
381.13	5.27
381.492	5.25
381.854	5.27
382.216	5.27
382.578	5.28
382.939	5.28
383.301	5.32
383.663	5.34
384.024	5.35
384.386	5.34
384.747	5.34
385.109	5.3
385.47	5.28
385.832	5.25
386.193	5.24
386.554	5.23
386.916	5.17
387.277	5.16
387.638	5.19
387.999	5.16
388.36	5.14
388.721	5.15
389.082	5.13
389.443	5.08
389.804	5.1
390.165	5.08
390.526	5.11
390.887	5.12
391.248	5.12
391.609	5.09
391.969	5.11
392.33	5.12
392.691	5.15
393.051	5.13
393.412	5.19
393.772	5.19
394.133	5.19
394.493	5.2
394.854	5.2
395.214	5.19
395.574	5.21
395.935	5.21
396.295	5.28
396.655	5.28
397.015	5.34
397.376	5.35
397.736	5.36
398.096	5.32
398.456	5.33
398.816	5.35
399.176	5.34
399.535	5.29
399.895	5.27
400.255	5.25
400.615	5.29
400.975	5.22
401.334	5.2
401.694	5.21
402.054	5.21
402.413	5.21
402.773	5.15
403.132	5.14
403.492	5.16
403.851	5.13
404.211	5.15
404.57	5.12
404.929	5.08
405.288	5.09
405.648	5.11
406.007	5.08
406.366	5.06
406.725	5.1
407.084	5.13
407.443	5.12
407.802	5.12
408.161	5.11
408.52	5.08
408.879	5.05
409.238	5.08
409.596	5.07
409.955	5.04
410.314	5.11
410.673	5.08
411.031	5.09
411.39	5.1
411.748	5.1
412.107	5.14
412.465	5.15
412.824	5.16
413.182	5.15
413.54	5.17
413.899	5.15
414.257	5.13
414.615	5.09
414.974	5.12
415.332	5.12
415.69	5.12
416.048	5.14
416.406	5.15
416.764	5.11
417.122	5.13
417.48	5.14
417.838	5.13
418.195	5.13
418.553	5.11
418.911	5.08
419.269	5.07
419.626	5.03
419.984	5.04
420.342	5.04
420.699	5.03
421.057	5.01
421.414	5
421.772	5
422.129	5.02
422.486	5
422.844	4.98
423.201	4.98
423.558	4.99
423.915	4.99
424.273	5.01
424.63	4.97
424.987	4.98
425.344	4.96
425.701	4.96
426.058	4.96
426.415	4.97
426.772	4.97
427.128	4.98
427.485	4.97
427.842	4.96
428.199	4.96
428.555	4.97
428.912	4.99
429.269	4.98
429.625	4.97
429.982	4.97
430.338	4.99
430.695	5
431.051	4.97
431.407	4.98
431.764	4.96
432.12	4.99
432.476	4.98
432.832	4.98
433.189	4.98
433.545	4.98
433.901	4.97
434.257	4.96
434.613	4.97
434.969	4.96
435.325	4.98
435.681	4.97
436.036	4.97
436.392	4.99
436.748	4.97
437.104	4.98
437.459	4.98
437.815	4.97
438.171	4.97
438.526	4.98
438.882	4.97
439.237	4.98
439.593	4.99
439.948	4.99
440.304	4.99
440.659	4.99
441.014	5
441.369	4.99
441.725	4.99
442.08	5
442.435	5.01
442.79	5
443.145	5.02
443.5	5.01
443.855	5
444.21	5.01
444.565	5.03
444.92	5.03
445.275	5.03
445.629	5.03
445.984	5.04
446.339	5.04
446.693	5.03
447.048	5.03
447.403	5.02
447.757	5.02
448.112	5
448.466	4.99
448.82	5.01
449.175	5.01
449.529	5
449.883	4.97
450.238	4.97
450.592	4.94
450.946	4.94
451.3	4.93
451.654	4.91
452.008	4.89
452.362	4.86
452.716	4.85
453.07	4.85
453.424	4.85
453.778	4.83
454.132	4.83
454.486	4.81
454.839	4.83
455.193	4.83
455.547	4.84
455.9	4.85
456.254	4.83
456.607	4.82
456.961	4.85
457.314	4.86
457.668	4.85
458.021	4.86
458.375	4.88
458.728	4.89
459.081	4.9
459.434	4.89
459.787	4.92
460.141	4.92
460.494	4.91
460.847	4.91
461.2	4.91
461.553	4.91
461.906	4.93
462.259	4.93
462.611	4.95
462.964	4.95
463.317	4.96
463.67	4.97
464.022	4.99
464.375	4.98
464.728	4.99
465.08	5
465.433	5
465.785	4.99
466.138	4.99
466.49	4.98
466.843	5
467.195	4.98
467.547	4.98
467.899	4.97
468.252	4.98
468.604	5.01
468.956	5.01
469.308	4.99
469.66	4.98
470.012	4.97
470.364	4.98
470.716	5
471.068	5
471.42	5
471.772	5
472.123	5.01
472.475	5.01
472.827	5.03
473.178	5.03
473.53	5.02
473.882	5.03
474.233	5.03
474.585	5.02
474.936	5.04
475.288	5.05
475.639	5.06
475.99	5.05
476.342	5.07
476.693	5.1
477.044	5.1
477.395	5.09
477.746	5.08
478.097	5.07
478.448	5.08
478.8	5.06
479.15	5.06
479.501	5.06
479.852	5.07
480.203	5.07
480.554	5.09
480.905	5.12
481.255	5.13
481.606	5.15
481.957	5.16
482.307	5.17
482.658	5.18
483.009	5.17
483.359	5.17
483.709	5.16
484.06	5.15
484.41	5.15
484.761	5.16
485.111	5.16
485.461	5.16
485.811	5.17
486.162	5.17
486.512	5.18
486.862	5.17
487.212	5.17
487.562	5.18
487.912	5.18
488.262	5.17
488.612	5.17
488.961	5.15
489.311	5.17
489.661	5.15
490.011	5.14
490.36	5.14
490.71	5.13
491.06	5.13
491.409	5.13
491.759	5.14
492.108	5.14
492.458	5.13
492.807	5.13
493.157	5.13
493.506	5.14
493.855	5.14
494.204	5.15
494.554	5.14
494.903	5.13
495.252	5.13
495.601	5.14
495.95	5.15
496.299	5.15
496.648	5.14
496.997	5.16
497.346	5.16
497.695	5.17
498.043	5.18
498.392	5.2
498.741	5.21
499.09	5.21
499.438	5.23
499.787	5.26
500.135	5.26
500.484	5.27
500.832	5.26
501.181	5.26
501.529	5.28
501.878	5.3
502.226	5.33
502.574	5.34
502.923	5.34
503.271	5.32
503.619	5.33
503.967	5.35
504.315	5.33
504.663	5.36
505.011	5.39
505.359	5.38
505.707	5.38
506.055	5.36
506.403	5.37
506.751	5.37
507.098	5.38
507.446	5.42
507.794	5.41
508.141	5.42
508.489	5.43
508.837	5.44
509.184	5.47
509.531	5.46
509.879	5.49
510.226	5.49
510.574	5.52
510.921	5.53
511.268	5.53
511.616	5.55
511.963	5.55
512.31	5.53
512.657	5.56
513.004	5.57
513.351	5.61
513.698	5.62
514.045	5.64
514.392	5.66
514.739	5.65
515.086	5.66
515.432	5.67
515.779	5.68
516.126	5.68
516.473	5.67
516.819	5.68
517.166	5.67
517.512	5.69
517.859	5.71
518.205	5.7
518.552	5.72
518.898	5.73
519.245	5.71
519.591	5.71
519.937	5.72
520.283	5.73
520.629	5.73
520.976	5.75
521.322	5.74
521.668	5.74
522.014	5.73
522.36	5.76
522.706	5.76
523.052	5.77
523.398	5.79
523.743	5.81
524.089	5.82
524.435	5.83
524.781	5.83
525.126	5.84
525.472	5.85
525.817	5.86
526.163	5.86
526.509	5.87
526.854	5.87
527.199	5.87
527.545	5.87
527.89	5.87
528.235	5.88
528.581	5.88
528.926	5.89
529.271	5.89
529.616	5.88
529.961	5.88
530.306	5.89
530.651	5.88
530.996	5.86
531.341	5.86
531.686	5.84
532.031	5.83
532.376	5.82
532.721	5.81
533.065	5.82
533.41	5.82
533.755	5.82
534.099	5.84
534.444	5.84
534.788	5.85
535.133	5.85
535.477	5.83
535.822	5.81
536.166	5.8
536.51	5.79
536.855	5.79
537.199	5.8
537.543	5.79
537.887	5.82
538.231	5.82
538.576	5.84
538.92	5.87
539.264	5.88
539.608	5.9
539.951	5.9
540.295	5.89
540.639	5.91
540.983	5.91
541.327	5.89
541.671	5.89
542.014	5.88
542.358	5.9
542.701	5.93
543.045	5.96
543.389	5.97
543.732	5.98
544.075	6
544.419	5.99
544.762	5.98
545.105	5.98
545.449	5.98
545.792	5.96
546.135	5.95
546.478	5.95
546.821	5.91
547.165	5.9
547.508	5.91
547.851	5.9
548.194	5.89
548.536	5.9
548.879	5.93
549.222	5.94
549.565	5.93
549.908	5.9
550.25	5.9
550.593	5.91
550.936	5.91
551.278	5.88
551.621	5.9
551.963	5.92
552.306	5.93
552.648	5.93
552.991	5.96
553.333	5.97
553.675	5.97
554.017	6.03
554.36	6.04
554.702	6.04
555.044	6.01
555.386	6.06
555.728	6.03
556.07	6.02
556.412	6.02
556.754	5.99
557.096	5.97
557.438	5.94
557.78	5.93
558.121	5.96
558.463	5.98
558.805	6
559.147	6
559.488	6
559.83	6
560.171	5.97
560.513	5.98
560.854	5.99
561.196	5.95
561.537	5.93
561.878	5.91
562.22	5.92
562.561	5.91
562.902	5.92
563.243	5.9
563.584	5.86
563.925	5.89
564.266	5.9
564.607	5.9
564.948	5.89
565.289	5.87
565.63	5.85
565.971	5.81
566.312	5.79
566.653	5.77
566.993	5.76
567.334	5.76
567.675	5.79
568.015	5.81
568.356	5.79
568.696	5.82
569.037	5.84
569.377	5.89
569.718	5.89
570.058	5.91
570.398	5.9
570.739	5.95
571.079	5.95
571.419	5.95
571.759	5.99
572.099	5.99
572.439	6
572.779	6.02
573.119	6.04
573.459	6.07
573.799	6.11
574.139	6.12
574.479	6.12
574.819	6.09
575.158	6.06
575.498	6.07
575.838	6.07
576.177	6.04
576.517	5.99
576.856	6
577.196	5.99
577.535	6
577.875	5.99
578.214	5.99
578.553	6.01
578.893	5.99
579.232	6
579.571	6.01
579.91	6
580.25	6
580.589	5.94
580.928	5.93
581.267	5.95
581.606	5.96
581.945	5.93
582.283	5.92
582.622	5.93
582.961	5.94
583.3	5.98
583.639	6.02
583.977	6.04
584.316	6.08
584.654	6.08
584.993	6.1
585.332	6.1
585.67	6.09
586.008	6.08
586.347	6.06
586.685	6.05
587.024	6.03
587.362	6.02
587.7	6.09
588.038	6.11
588.376	6.08
588.715	6.07
589.053	6.12
589.391	6.18
589.729	6.2
590.067	6.18
590.404	6.2
590.742	6.19
591.08	6.18
591.418	6.16
591.756	6.21
592.093	6.23
592.431	6.19
592.769	6.18
593.106	6.2
593.444	6.23
593.781	6.23
594.119	6.22
594.456	6.2
594.793	6.18
595.131	6.17
595.468	6.19
595.805	6.21
596.143	6.18
596.48	6.13
596.817	6.12
597.154	6.16
597.491	6.11
597.828	6.1
598.165	6.09
598.502	6.08
598.839	6.05
599.176	6.02
599.512	6.05
599.849	6.07
600.186	6.05
600.523	6.07
600.859	6.11
601.196	6.15
601.532	6.16
601.869	6.13
602.205	6.13
602.542	6.13
602.878	6.14
603.215	6.17
603.551	6.21
603.887	6.21
604.223	6.18
604.56	6.22
604.896	6.28
605.232	6.3
605.568	6.31
605.904	6.32
606.24	6.38
606.576	6.4
606.912	6.39
607.248	6.37
607.583	6.32
607.919	6.28
608.255	6.29
608.591	6.32
608.926	6.38
609.262	6.4
609.597	6.45
609.933	6.46
610.268	6.41
610.604	6.42
610.939	6.4
611.275	6.45
611.61	6.43
611.945	6.38
612.281	6.33
612.616	6.33
612.951	6.33
613.286	6.28
613.621	6.26
613.956	6.23
614.291	6.3
614.626	6.33
614.961	6.37
615.296	6.34
615.631	6.32
615.966	6.31
616.3	6.34
616.635	6.27
616.97	6.24
617.304	6.29
617.639	6.32
617.973	6.34
618.308	6.33
618.642	6.32
618.977	6.3
619.311	6.35
619.646	6.33
619.98	6.35
620.314	6.36
620.648	6.36
620.983	6.4
621.317	6.38
621.651	6.42
621.985	6.43
622.319	6.44
622.653	6.45
622.987	6.49
623.321	6.47
623.655	6.46
623.988	6.49
624.322	6.45
624.656	6.44
624.99	6.46
625.323	6.43
625.657	6.48
625.99	6.52
626.324	6.49
626.657	6.52
626.991	6.52
627.324	6.53
627.658	6.54
627.991	6.57
628.324	6.59
628.657	6.56
628.991	6.51
629.324	6.51
629.657	6.51
629.99	6.47
630.323	6.45
630.656	6.48
630.989	6.5
631.322	6.55
631.655	6.55
631.987	6.53
632.32	6.55
632.653	6.52
632.986	6.56
633.318	6.58
633.651	6.55
633.984	6.51
634.316	6.49
634.649	6.49
634.981	6.46
635.313	6.45
635.646	6.45
635.978	6.49
636.31	6.5
636.643	6.52
636.975	6.55
637.307	6.56
637.639	6.58
637.971	6.49
638.303	6.53
638.635	6.52
638.967	6.55
639.299	6.56
639.631	6.54
639.963	6.43
640.295	6.48
640.626	6.52
640.958	6.6
641.29	6.55
641.621	6.6
641.953	6.58
642.285	6.59
642.616	6.66
642.948	6.64
643.279	6.66
643.61	6.68
643.942	6.62
644.273	6.62
644.604	6.54
644.936	6.6
645.267	6.59
645.598	6.58
645.929	6.55
646.26	6.58
646.591	6.58
646.922	6.65
647.253	6.6
647.584	6.59
647.915	6.51
648.245	6.51
648.576	6.49
648.907	6.52
649.238	6.4
649.568	6.34
649.899	6.32
650.229	6.34
650.56	6.35
650.89	6.4
651.221	6.44
651.551	6.42
651.882	6.39
652.212	6.35
652.542	6.35
652.872	6.35
653.203	6.34
653.533	6.35
653.863	6.33
654.193	6.27
654.523	6.25
654.853	6.28
655.183	6.3
655.513	6.25
655.843	6.26
656.172	6.33
656.502	6.38
656.832	6.38
657.162	6.4
657.491	6.34
657.821	6.36
658.15	6.32
658.48	6.42
658.809	6.47
659.139	6.47
659.468	6.47
659.798	6.5
660.127	6.49
660.456	6.49
660.785	6.48
661.115	6.52
661.444	6.51
661.773	6.56
662.102	6.62
662.431	6.67
662.76	6.65
663.089	6.66
663.418	6.61
663.747	6.67
664.076	6.62
664.404	6.58
664.733	6.63
665.062	6.65
665.39	6.66
665.719	6.64
666.048	6.66
666.376	6.65
666.705	6.68
667.033	6.65
667.362	6.64
667.69	6.71
668.018	6.67
668.347	6.71
668.675	6.67
669.003	6.61
669.331	6.66
669.659	6.7
669.987	6.71
670.315	6.76
670.643	6.75
670.971	6.78
671.299	6.89
671.627	6.83
671.955	6.87
672.283	6.79
672.61	6.69
672.938	6.74
673.266	6.8
673.593	6.77
673.921	6.88
674.249	6.89
674.576	6.87
674.904	6.95
675.231	6.92
675.558	6.95
675.886	7.01
676.213	6.89
676.54	6.89
676.867	7.01
677.195	7.05
677.522	7.1
677.849	7.13
678.176	7.11
