Data from BU57614_Reflection_00013.txt Node
Date: Mon Nov 18 16:24:41 EST 2019
User: vgr7
Spectrometer: USB2G7710
Scans to average: 3
Trigger mode: 4
Integration Time (sec): 2.000000E-2
Electric dark correction enabled: true
Boxcar width: 10
XAxis mode: Wavelengths
Number of Pixels in Spectrum: 2048
>>>>>Begin Spectral Data<<<<<
177.721	522.12
178.105	-27.8
178.488	-37.62
178.871	72.36
179.254	117.3
179.636	323.3
180.019	-8.03
180.402	28.3
180.785	63.67
181.168	-695.45
181.55	111.55
181.933	127.57
182.316	137.67
182.698	162.34
183.081	109.02
183.463	132.35
183.846	118.59
184.228	238.53
184.611	191.4
184.993	227.89
185.376	-7605.88
185.758	-3796.55
186.14	1411.93
186.522	-2120.34
186.904	-719.74
187.287	-643.77
187.669	-168.29
188.051	-269.4
188.433	-90.65
188.815	-61.43
189.197	-88.78
189.579	-42.86
189.961	-37.92
190.342	-44.77
190.724	-17.71
191.106	-42.86
191.488	-42.44
191.869	-57.04
192.251	-19.71
192.633	-14.9
193.014	-24.43
193.396	-54.53
193.777	-38.74
194.159	-51.68
194.54	-35
194.922	-8.48
195.303	-9.49
195.684	3.01
196.065	10.27
196.447	7.46
196.828	1.82
197.209	18.84
197.59	10.37
197.971	19.76
198.352	23.43
198.733	14.37
199.114	22.91
199.495	19.41
199.876	27.24
200.257	12.65
200.638	24.43
201.018	23.08
201.399	21.78
201.78	26.19
202.16	29.75
202.541	18.38
202.922	1.36
203.302	-7.53
203.683	9.21
204.063	-0.82
204.444	11.29
204.824	28.46
205.204	22.95
205.585	21.98
205.965	38.88
206.345	40.18
206.725	44.61
207.106	20.55
207.486	21.31
207.866	13.76
208.246	26.1
208.626	4.99
209.006	18.44
209.386	17.02
209.766	13.79
210.145	18.49
210.525	25.93
210.905	32.01
211.285	31.84
211.664	18.99
212.044	22.23
212.424	23.39
212.803	16.22
213.183	13.37
213.562	11.07
213.942	1.54
214.321	-0.19
214.701	6.03
215.08	4.56
215.459	3.97
215.838	5.9
216.218	2.69
216.597	4.29
216.976	-0.8
217.355	-2.23
217.734	-5.65
218.113	-3.2
218.492	-7.86
218.871	-8.45
219.25	-9.92
219.629	-13.19
220.008	-13.31
220.387	-11.22
220.766	-10.66
221.144	-19.24
221.523	-19.37
221.902	-17.15
222.28	-16.37
222.659	-19.56
223.037	-10.47
223.416	-9.7
223.794	-14.3
224.173	-12.9
224.551	-10.92
224.929	-9.6
225.308	-3.71
225.686	-1.28
226.064	-3.16
226.442	-0.39
226.821	1.7
227.199	-0.43
227.577	0.09
227.955	0.28
228.333	0.77
228.711	-0.65
229.089	2.76
229.467	-1.64
229.845	-2.66
230.222	-2.85
230.6	-3.46
230.978	-4.75
231.356	-3.53
231.733	-1.02
232.111	1.33
232.488	0.67
232.866	0.61
233.243	1.01
233.621	-0.4
233.998	-0.56
234.376	-0.54
234.753	-0.26
235.13	1.95
235.508	2.94
235.885	2.37
236.262	0.97
236.639	1.6
237.016	0.84
237.393	3.78
237.77	3.47
238.147	3.91
238.524	3.28
238.901	3.82
239.278	4.34
239.655	4.24
240.032	3.74
240.409	3.6
240.785	3.98
241.162	3.75
241.539	4.44
241.915	4.43
242.292	4.38
242.668	4.44
243.045	4.15
243.421	3.88
243.798	3.58
244.174	3.79
244.551	3.88
244.927	3.76
245.303	3.56
245.679	3.87
246.056	3.74
246.432	3.65
246.808	3.6
247.184	3.35
247.56	3.32
247.936	3.4
248.312	3.63
248.688	3.59
249.064	3.57
249.44	3.65
249.815	3.72
250.191	3.68
250.567	3.49
250.943	3.27
251.318	3.45
251.694	3.6
252.069	3.51
252.445	3.49
252.82	3.56
253.196	3.66
253.571	3.57
253.947	3.75
254.322	4.15
254.697	4.01
255.073	3.71
255.448	3.73
255.823	3.39
256.198	3.28
256.573	3
256.948	2.95
257.323	2.74
257.698	2.66
258.073	2.66
258.448	2.77
258.823	3
259.198	2.93
259.573	3.07
259.948	2.95
260.322	2.95
260.697	2.86
261.072	2.78
261.446	2.8
261.821	2.69
262.195	2.74
262.57	2.76
262.944	2.73
263.319	2.67
263.693	2.72
264.067	2.82
264.442	3.09
264.816	3
265.19	3.03
265.564	3.11
265.938	3.02
266.313	2.94
266.687	2.81
267.061	2.69
267.435	2.68
267.809	2.87
268.183	2.78
268.556	2.95
268.93	2.86
269.304	2.76
269.678	2.82
270.051	2.68
270.425	2.84
270.799	2.99
271.172	2.94
271.546	2.89
271.919	2.63
272.293	2.69
272.666	2.88
273.04	2.9
273.413	2.9
273.787	3.08
274.16	3.04
274.533	3.08
274.906	3.13
275.279	3.03
275.653	2.95
276.026	2.98
276.399	2.95
276.772	3.12
277.145	3.06
277.518	2.92
277.891	2.98
278.263	2.81
278.636	2.85
279.009	3
279.382	3.18
279.755	3.34
280.127	3.33
280.5	3.28
280.872	3.42
281.245	3.32
281.617	3.25
281.99	3.28
282.362	3.31
282.735	3.26
283.107	3.32
283.479	3.45
283.852	3.41
284.224	3.44
284.596	3.38
284.968	3.47
285.34	3.62
285.713	3.6
286.085	3.74
286.457	3.87
286.829	3.72
287.201	3.79
287.572	3.66
287.944	3.5
288.316	3.45
288.688	3.3
289.06	3.32
289.431	3.3
289.803	3.31
290.175	3.28
290.546	3.53
290.918	3.56
291.289	3.46
291.661	3.48
292.032	3.48
292.403	3.62
292.775	3.62
293.146	3.53
293.517	3.57
293.889	3.6
294.26	3.55
294.631	3.68
295.002	3.54
295.373	3.65
295.744	3.73
296.115	3.79
296.486	3.69
296.857	3.67
297.228	3.7
297.599	3.67
297.97	3.72
298.34	3.52
298.711	3.54
299.082	3.52
299.452	3.58
299.823	3.74
300.194	3.66
300.564	3.55
300.935	3.59
301.305	3.57
301.676	3.54
302.046	3.49
302.416	3.56
302.787	3.52
303.157	3.67
303.527	3.57
303.897	3.54
304.267	3.74
304.637	3.92
305.008	3.94
305.378	4.15
305.748	4.16
306.117	4.33
306.487	4.29
306.857	4.45
307.227	4.43
307.597	4.37
307.967	4.49
308.336	4.7
308.706	4.83
309.076	4.96
309.445	5
309.815	4.97
310.184	5.02
310.554	5.17
310.923	5.17
311.293	5.26
311.662	5.3
312.031	5.41
312.401	5.38
312.77	5.5
313.139	5.57
313.508	5.69
313.877	5.69
314.246	5.77
314.616	5.83
314.985	6.04
315.353	6.05
315.722	6.18
316.091	6.2
316.46	6.21
316.829	6.23
317.198	6.37
317.567	6.53
317.935	6.47
318.304	6.57
318.672	6.55
319.041	6.77
319.41	6.92
319.778	7.02
320.147	7.18
320.515	7.14
320.883	7.01
321.252	7.13
321.62	7.13
321.988	7.04
322.357	7.01
322.725	6.99
323.093	7.11
323.461	7.19
323.829	7.24
324.197	7.37
324.565	7.44
324.933	7.51
325.301	7.59
325.669	7.72
326.037	7.77
326.405	7.92
326.772	7.99
327.14	8.09
327.508	8.17
327.875	8.11
328.243	8.28
328.61	8.34
328.978	8.33
329.346	8.43
329.713	8.53
330.08	8.68
330.448	8.63
330.815	8.59
331.182	8.59
331.55	8.63
331.917	8.62
332.284	8.71
332.651	8.74
333.018	8.91
333.385	8.92
333.752	8.88
334.119	8.9
334.486	8.83
334.853	8.84
335.22	8.81
335.587	9.02
335.954	8.91
336.32	8.95
336.687	8.97
337.054	9
337.42	9.2
337.787	9.13
338.153	9.3
338.52	9.36
338.886	9.35
339.253	9.41
339.619	9.47
339.986	9.49
340.352	9.64
340.718	9.55
341.084	9.61
341.451	9.69
341.817	9.58
342.183	9.66
342.549	9.59
342.915	9.66
343.281	9.6
343.647	9.75
344.013	9.88
344.379	9.96
344.745	9.99
345.11	9.95
345.476	9.97
345.842	10.02
346.208	9.98
346.573	10.02
346.939	10.06
347.304	10.11
347.67	10.1
348.035	9.84
348.401	9.91
348.766	9.88
349.132	9.94
349.497	10.02
349.862	10.05
350.228	10.13
350.593	10
350.958	9.96
351.323	9.89
351.688	9.82
352.053	9.83
352.418	9.81
352.783	9.73
353.148	9.7
353.513	9.67
353.878	9.71
354.243	9.72
354.608	9.66
354.972	9.56
355.337	9.55
355.702	9.7
356.066	9.66
356.431	9.65
356.795	9.63
357.16	9.53
357.524	9.42
357.889	9.31
358.253	9.32
358.618	9.27
358.982	9.25
359.346	9.16
359.71	9.07
360.075	9.04
360.439	9.07
360.803	9.09
361.167	9.04
361.531	9.06
361.895	8.96
362.259	8.98
362.623	8.97
362.987	8.9
363.351	8.83
363.714	8.82
364.078	8.74
364.442	8.6
364.806	8.6
365.169	8.62
365.533	8.64
365.896	8.63
366.26	8.64
366.623	8.55
366.987	8.56
367.35	8.59
367.714	8.52
368.077	8.44
368.44	8.4
368.803	8.25
369.167	8.08
369.53	8.1
369.893	8.02
370.256	7.99
370.619	7.94
370.982	7.87
371.345	7.81
371.708	7.78
372.071	7.75
372.434	7.73
372.797	7.68
373.159	7.56
373.522	7.49
373.885	7.44
374.247	7.39
374.61	7.35
374.973	7.25
375.335	7.19
375.698	7.17
376.06	7.08
376.423	7.09
376.785	7.07
377.147	6.96
377.51	6.95
377.872	6.91
378.234	6.87
378.596	6.82
378.958	6.69
379.321	6.63
379.683	6.58
380.045	6.53
380.407	6.42
380.769	6.42
381.13	6.34
381.492	6.28
381.854	6.25
382.216	6.19
382.578	6.12
382.939	6.07
383.301	5.97
383.663	5.9
384.024	5.83
384.386	5.83
384.747	5.81
385.109	5.74
385.47	5.64
385.832	5.59
386.193	5.56
386.554	5.55
386.916	5.52
387.277	5.46
387.638	5.4
387.999	5.34
388.36	5.35
388.721	5.35
389.082	5.3
389.443	5.24
389.804	5.21
390.165	5.17
390.526	5.14
390.887	5.11
391.248	5.11
391.609	5.07
391.969	5.01
392.33	4.95
392.691	4.9
393.051	4.85
393.412	4.82
393.772	4.73
394.133	4.71
394.493	4.63
394.854	4.61
395.214	4.59
395.574	4.57
395.935	4.47
396.295	4.44
396.655	4.37
397.015	4.36
397.376	4.34
397.736	4.26
398.096	4.22
398.456	4.17
398.816	4.14
399.176	4.06
399.535	4.01
399.895	3.93
400.255	3.91
400.615	3.88
400.975	3.84
401.334	3.83
401.694	3.79
402.054	3.77
402.413	3.72
402.773	3.67
403.132	3.66
403.492	3.67
403.851	3.6
404.211	3.59
404.57	3.57
404.929	3.51
405.288	3.5
405.648	3.49
406.007	3.48
406.366	3.45
406.725	3.49
407.084	3.5
407.443	3.5
407.802	3.48
408.161	3.48
408.52	3.45
408.879	3.43
409.238	3.42
409.596	3.42
409.955	3.41
410.314	3.4
410.673	3.38
411.031	3.36
411.39	3.37
411.748	3.35
412.107	3.34
412.465	3.32
412.824	3.33
413.182	3.29
413.54	3.26
413.899	3.26
414.257	3.25
414.615	3.22
414.974	3.22
415.332	3.2
415.69	3.17
416.048	3.14
416.406	3.14
416.764	3.13
417.122	3.12
417.48	3.11
417.838	3.09
418.195	3.07
418.553	3.07
418.911	3.05
419.269	3.05
419.626	3.05
419.984	3.04
420.342	3.04
420.699	3.03
421.057	3.02
421.414	3
421.772	2.99
422.129	2.98
422.486	2.96
422.844	2.96
423.201	2.96
423.558	2.97
423.915	2.97
424.273	2.97
424.63	2.95
424.987	2.94
425.344	2.93
425.701	2.92
426.058	2.89
426.415	2.9
426.772	2.88
427.128	2.84
427.485	2.84
427.842	2.84
428.199	2.85
428.555	2.84
428.912	2.84
429.269	2.84
429.625	2.83
429.982	2.83
430.338	2.83
430.695	2.83
431.051	2.78
431.407	2.77
431.764	2.76
432.12	2.75
432.476	2.75
432.832	2.74
433.189	2.75
433.545	2.75
433.901	2.73
434.257	2.72
434.613	2.73
434.969	2.73
435.325	2.71
435.681	2.72
436.036	2.72
436.392	2.7
436.748	2.69
437.104	2.69
437.459	2.7
437.815	2.67
438.171	2.67
438.526	2.71
438.882	2.7
439.237	2.7
439.593	2.72
439.948	2.72
440.304	2.73
440.659	2.73
441.014	2.74
441.369	2.73
441.725	2.74
442.08	2.73
442.435	2.71
442.79	2.71
443.145	2.7
443.5	2.69
443.855	2.7
444.21	2.68
444.565	2.68
444.92	2.68
445.275	2.67
445.629	2.68
445.984	2.65
446.339	2.65
446.693	2.63
447.048	2.61
447.403	2.6
447.757	2.59
448.112	2.58
448.466	2.57
448.82	2.58
449.175	2.56
449.529	2.56
449.883	2.57
450.238	2.57
450.592	2.57
450.946	2.55
451.3	2.53
451.654	2.53
452.008	2.52
452.362	2.5
452.716	2.49
453.07	2.5
453.424	2.49
453.778	2.48
454.132	2.47
454.486	2.46
454.839	2.45
455.193	2.45
455.547	2.44
455.9	2.44
456.254	2.43
456.607	2.44
456.961	2.43
457.314	2.43
457.668	2.4
458.021	2.38
458.375	2.4
458.728	2.42
459.081	2.42
459.434	2.42
459.787	2.44
460.141	2.44
460.494	2.43
460.847	2.45
461.2	2.44
461.553	2.45
461.906	2.47
462.259	2.48
462.611	2.48
462.964	2.49
463.317	2.5
463.67	2.5
464.022	2.52
464.375	2.5
464.728	2.51
465.08	2.54
465.433	2.55
465.785	2.55
466.138	2.54
466.49	2.55
466.843	2.55
467.195	2.54
467.547	2.55
467.899	2.54
468.252	2.53
468.604	2.55
468.956	2.56
469.308	2.57
469.66	2.57
470.012	2.59
470.364	2.59
470.716	2.6
471.068	2.63
471.42	2.63
471.772	2.65
472.123	2.66
472.475	2.66
472.827	2.67
473.178	2.71
473.53	2.73
473.882	2.74
474.233	2.74
474.585	2.74
474.936	2.75
475.288	2.76
475.639	2.76
475.99	2.77
476.342	2.78
476.693	2.77
477.044	2.8
477.395	2.79
477.746	2.78
478.097	2.77
478.448	2.75
478.8	2.74
479.15	2.72
479.501	2.72
479.852	2.72
480.203	2.72
480.554	2.7
480.905	2.7
481.255	2.69
481.606	2.69
481.957	2.69
482.307	2.69
482.658	2.69
483.009	2.69
483.359	2.68
483.709	2.68
484.06	2.68
484.41	2.67
484.761	2.66
485.111	2.67
485.461	2.67
485.811	2.66
486.162	2.66
486.512	2.68
486.862	2.67
487.212	2.66
487.562	2.66
487.912	2.66
488.262	2.66
488.612	2.66
488.961	2.66
489.311	2.67
489.661	2.67
490.011	2.68
490.36	2.68
490.71	2.67
491.06	2.68
491.409	2.67
491.759	2.69
492.108	2.69
492.458	2.69
492.807	2.7
493.157	2.71
493.506	2.73
493.855	2.72
494.204	2.74
494.554	2.76
494.903	2.77
495.252	2.78
495.601	2.79
495.95	2.8
496.299	2.8
496.648	2.81
496.997	2.83
497.346	2.84
497.695	2.86
498.043	2.89
498.392	2.91
498.741	2.93
499.09	2.93
499.438	2.99
499.787	3.01
500.135	3.01
500.484	3.06
500.832	3.07
501.181	3.09
501.529	3.11
501.878	3.15
502.226	3.18
502.574	3.22
502.923	3.25
503.271	3.29
503.619	3.32
503.967	3.35
504.315	3.39
504.663	3.41
505.011	3.42
505.359	3.46
505.707	3.51
506.055	3.54
506.403	3.59
506.751	3.64
507.098	3.7
507.446	3.76
507.794	3.78
508.141	3.85
508.489	3.89
508.837	3.95
509.184	4
509.531	4.05
509.879	4.13
510.226	4.2
510.574	4.25
510.921	4.31
511.268	4.37
511.616	4.43
511.963	4.5
512.31	4.57
512.657	4.65
513.004	4.71
513.351	4.79
513.698	4.88
514.045	4.93
514.392	4.99
514.739	5.06
515.086	5.15
515.432	5.22
515.779	5.31
516.126	5.39
516.473	5.49
516.819	5.57
517.166	5.63
517.512	5.7
517.859	5.78
518.205	5.87
518.552	5.96
518.898	6.03
519.245	6.12
519.591	6.2
519.937	6.27
520.283	6.38
520.629	6.49
520.976	6.58
521.322	6.69
521.668	6.83
522.014	6.97
522.36	7.08
522.706	7.2
523.052	7.34
523.398	7.48
523.743	7.62
524.089	7.78
524.435	7.93
524.781	8.04
525.126	8.18
525.472	8.29
525.817	8.4
526.163	8.5
526.509	8.6
526.854	8.7
527.199	8.8
527.545	8.89
527.89	8.99
528.235	9.09
528.581	9.19
528.926	9.29
529.271	9.39
529.616	9.5
529.961	9.61
530.306	9.74
530.651	9.85
530.996	9.99
531.341	10.12
531.686	10.24
532.031	10.43
532.376	10.59
532.721	10.77
533.065	10.93
533.41	11.13
533.755	11.31
534.099	11.53
534.444	11.73
534.788	11.92
535.133	12.09
535.477	12.31
535.822	12.53
536.166	12.73
536.51	12.99
536.855	13.27
537.199	13.54
537.543	13.81
537.887	14.1
538.231	14.37
538.576	14.68
538.92	14.97
539.264	15.24
539.608	15.49
539.951	15.74
540.295	16.01
540.639	16.25
540.983	16.51
541.327	16.71
541.671	16.94
542.014	17.18
542.358	17.43
542.701	17.65
543.045	17.86
543.389	18.12
543.732	18.35
544.075	18.61
544.419	18.86
544.762	19.14
545.105	19.42
545.449	19.71
545.792	19.98
546.135	20.29
546.478	20.62
546.821	20.96
547.165	21.3
547.508	21.62
547.851	21.95
548.194	22.26
548.536	22.62
548.879	23.01
549.222	23.33
549.565	23.71
549.908	24.1
550.25	24.5
550.593	24.88
550.936	25.25
551.278	25.58
551.621	25.98
551.963	26.38
552.306	26.7
552.648	27.08
552.991	27.46
553.333	27.84
553.675	28.17
554.017	28.56
554.36	28.88
554.702	29.22
555.044	29.54
555.386	29.9
555.728	30.28
556.07	30.61
556.412	30.96
556.754	31.28
557.096	31.61
557.438	31.95
557.78	32.33
558.121	32.74
558.463	33.08
558.805	33.4
559.147	33.69
559.488	34.05
559.83	34.38
560.171	34.73
560.513	35.05
560.854	35.33
561.196	35.59
561.537	35.93
561.878	36.22
562.22	36.58
562.561	36.91
562.902	37.19
563.243	37.48
563.584	37.78
563.925	38.13
564.266	38.38
564.607	38.67
564.948	38.89
565.289	39.1
565.63	39.43
565.971	39.74
566.312	39.99
566.653	40.24
566.993	40.47
567.334	40.66
567.675	40.86
568.015	41.08
568.356	41.31
568.696	41.56
569.037	41.79
569.377	41.99
569.718	42.17
570.058	42.41
570.398	42.68
570.739	42.88
571.079	43.01
571.419	43.25
571.759	43.47
572.099	43.66
572.439	43.83
572.779	43.92
573.119	44.05
573.459	44.24
573.799	44.41
574.139	44.61
574.479	44.84
574.819	45.02
575.158	45.27
575.498	45.47
575.838	45.68
576.177	45.91
576.517	46.08
576.856	46.3
577.196	46.41
577.535	46.51
577.875	46.69
578.214	46.89
578.553	47.1
578.893	47.26
579.232	47.39
579.571	47.54
579.91	47.76
580.25	47.96
580.589	48.08
580.928	48.21
581.267	48.39
581.606	48.42
581.945	48.58
582.283	48.62
582.622	48.68
582.961	48.75
583.3	48.78
583.639	48.95
583.977	49.07
584.316	49.21
584.654	49.34
584.993	49.48
585.332	49.61
585.67	49.68
586.008	49.76
586.347	49.91
586.685	50.03
587.024	50.17
587.362	50.25
587.7	50.36
588.038	50.47
588.376	50.56
588.715	50.74
589.053	50.87
589.391	50.98
589.729	51.05
590.067	51.13
590.404	51.26
590.742	51.31
591.08	51.37
591.418	51.49
591.756	51.58
592.093	51.67
592.431	51.73
592.769	51.76
593.106	51.87
593.444	51.93
593.781	52.01
594.119	52.07
594.456	52.14
594.793	52.2
595.131	52.26
595.468	52.26
595.805	52.32
596.143	52.37
596.48	52.44
596.817	52.6
597.154	52.64
597.491	52.71
597.828	52.76
598.165	52.86
598.502	52.86
598.839	52.93
599.176	52.9
599.512	52.95
599.849	53.12
600.186	53.17
600.523	53.3
600.859	53.39
601.196	53.48
601.532	53.51
601.869	53.51
602.205	53.57
602.542	53.69
602.878	53.74
603.215	53.76
603.551	53.79
603.887	53.81
604.223	53.89
604.56	53.9
604.896	53.99
605.232	54.01
605.568	54.04
605.904	54.09
606.24	54.18
606.576	54.27
606.912	54.23
607.248	54.27
607.583	54.24
607.919	54.25
608.255	54.25
608.591	54.3
608.926	54.4
609.262	54.51
609.597	54.48
609.933	54.52
610.268	54.57
610.604	54.56
610.939	54.57
611.275	54.58
611.61	54.69
611.945	54.77
612.281	54.86
612.616	54.92
612.951	54.89
613.286	54.91
613.621	54.91
613.956	54.95
614.291	55
614.626	55.17
614.961	55.21
615.296	55.27
615.631	55.29
615.966	55.38
616.3	55.38
616.635	55.48
616.97	55.5
617.304	55.53
617.639	55.59
617.973	55.62
618.308	55.6
618.642	55.64
618.977	55.53
619.311	55.5
619.646	55.52
619.98	55.63
620.314	55.72
620.648	55.77
620.983	55.79
621.317	55.82
621.651	55.77
621.985	55.78
622.319	55.82
622.653	55.91
622.987	55.9
623.321	55.9
623.655	55.89
623.988	55.96
624.322	56.03
624.656	56.09
624.99	56.07
625.323	56.17
625.657	56.17
625.99	56.35
626.324	56.37
626.657	56.36
626.991	56.4
627.324	56.32
627.658	56.3
627.991	56.34
628.324	56.38
628.657	56.38
628.991	56.38
629.324	56.37
629.657	56.42
629.99	56.42
630.323	56.45
630.656	56.49
630.989	56.52
631.322	56.58
631.655	56.59
631.987	56.7
632.32	56.72
632.653	56.59
632.986	56.43
633.318	56.42
633.651	56.49
633.984	56.5
634.316	56.64
634.649	56.78
634.981	56.8
635.313	56.78
635.646	56.85
635.978	56.88
636.31	56.99
636.643	57.04
636.975	57.06
637.307	57.06
637.639	57
637.971	56.92
638.303	56.92
638.635	56.86
638.967	56.77
639.299	56.75
639.631	56.93
639.963	56.98
640.295	57.07
640.626	57.17
640.958	57.19
641.29	57.12
641.621	56.99
641.953	57.05
642.285	57.02
642.616	57.11
642.948	57.04
643.279	56.98
643.61	57.05
643.942	57.03
644.273	57.02
644.604	57.1
644.936	57.18
645.267	57.17
645.598	57.24
645.929	57.34
646.26	57.42
646.591	57.43
646.922	57.39
647.253	57.33
647.584	57.21
647.915	57.13
648.245	57.25
648.576	57.33
648.907	57.31
649.238	57.33
649.568	57.3
649.899	57.38
650.229	57.37
650.56	57.28
650.89	57.35
651.221	57.41
651.551	57.43
651.882	57.44
652.212	57.46
652.542	57.45
652.872	57.42
653.203	57.36
653.533	57.33
653.863	57.43
654.193	57.4
654.523	57.49
654.853	57.58
655.183	57.42
655.513	57.38
655.843	57.37
656.172	57.5
656.502	57.5
656.832	57.61
657.162	57.64
657.491	57.51
657.821	57.6
658.15	57.66
658.48	57.67
658.809	57.67
659.139	57.58
659.468	57.62
659.798	57.65
660.127	57.6
660.456	57.67
660.785	57.69
661.115	57.74
661.444	57.7
661.773	57.59
662.102	57.66
662.431	57.74
662.76	57.73
663.089	57.71
663.418	57.75
663.747	57.67
664.076	57.64
664.404	57.88
664.733	57.73
665.062	57.68
665.39	57.75
665.719	57.73
666.048	57.69
666.376	57.68
666.705	57.63
667.033	57.71
667.362	57.64
667.69	57.59
668.018	57.53
668.347	57.56
668.675	57.58
669.003	57.64
669.331	57.56
