Data from BU57648_Reflection_00008.txt Node
Date: Tue Nov 19 10:46:43 EST 2019
User: vgr7
Spectrometer: USB2G7710
Scans to average: 3
Trigger mode: 4
Integration Time (sec): 2.000000E-2
Electric dark correction enabled: true
Boxcar width: 10
XAxis mode: Wavelengths
Number of Pixels in Spectrum: 2048
>>>>>Begin Spectral Data<<<<<
177.721	145.89
178.105	192.59
178.488	213.1
178.871	177.08
179.254	160
179.636	109.92
180.019	67.95
180.402	35.71
180.785	23.33
181.168	-177.78
181.55	-282.35
181.933	-60.71
182.316	-47.06
182.698	-94.92
183.081	-134.94
183.463	-70.1
183.846	-30.95
184.228	131.25
184.611	89.13
184.993	88.57
185.376	74.18
185.758	59.14
186.14	52.38
186.522	56.71
186.904	42.86
187.287	34.86
187.669	5.45
188.051	-36.55
188.433	-63.55
188.815	-87.85
189.197	-63.87
189.579	-63.31
189.961	-94.3
190.342	-81.03
190.724	-108.09
191.106	-73.61
191.488	-75.73
191.869	-54.81
192.251	-57.53
192.633	-85.65
193.014	-129.36
193.396	-173.94
193.777	-145.19
194.159	-101.13
194.54	-93.68
194.922	-94.32
195.303	-106.52
195.684	-81.82
196.065	-45.37
196.447	-39.41
196.828	-35.83
197.209	-10.69
197.59	-4.09
197.971	-4.32
198.352	-13.55
198.733	-16.84
199.114	-22.74
199.495	-15.77
199.876	-24.58
200.257	-33.77
200.638	-50.83
201.018	-37.8
201.399	-10.39
201.78	-20.4
202.16	-16.67
202.541	-14.65
202.922	-7.56
203.302	2.36
203.683	5.56
204.063	-33.9
204.444	-22.02
204.824	-16.13
205.204	-13.15
205.585	-9
205.965	-16.47
206.345	6.61
206.725	7.75
207.106	10.58
207.486	1.69
207.866	15.12
208.246	17.29
208.626	19.26
209.006	22.75
209.386	25.23
209.766	31.58
210.145	44.44
210.525	6.82
210.905	-12.39
211.285	-14.33
211.664	-3.33
212.044	5.14
212.424	-1.97
212.803	-23.78
213.183	-44
213.562	-33.85
213.942	-25.99
214.321	-37.39
214.701	-36.65
215.08	-40.13
215.459	-38.39
215.838	-60.99
216.218	-78.82
216.597	-60.17
216.976	-89.9
217.355	-88.45
217.734	-97.64
218.113	-113.19
218.492	-110.12
218.871	-95.45
219.25	-114.01
219.629	-103.76
220.008	-117.47
220.387	-134.88
220.766	-113.96
221.144	-87.96
221.523	-103.78
221.902	-82.13
222.28	-70.42
222.659	-47.2
223.037	-54.59
223.416	-54.67
223.794	-56.96
224.173	-54.04
224.551	-44.52
224.929	-35.16
225.308	-32.54
225.686	-29.63
226.064	-29.41
226.442	-14.84
226.821	-12.94
227.199	-12.85
227.577	-12.15
227.955	-10.57
228.333	-12.49
228.711	-13.16
229.089	-14.38
229.467	-16.08
229.845	-17.39
230.222	-11.68
230.6	-13.93
230.978	-11.9
231.356	-11.66
231.733	-7.88
232.111	-8.11
232.488	-6.13
232.866	-5.01
233.243	-5.56
233.621	-1.12
233.998	0.93
234.376	-0.76
234.753	-2
235.13	-2.79
235.508	-2.07
235.885	-0.7
236.262	-0.31
236.639	-0.15
237.016	0.94
237.393	1.86
237.77	4.37
238.147	3.19
238.524	3.49
238.901	3.6
239.278	3.52
239.655	3.5
240.032	3.57
240.409	3.1
240.785	3.42
241.162	3.94
241.539	2.97
241.915	2.95
242.292	3.19
242.668	3.77
243.045	4.09
243.421	4.51
243.798	4.61
244.174	5
244.551	5.26
244.927	5.13
245.303	4.92
245.679	4.68
246.056	4.72
246.432	4.78
246.808	5.06
247.184	5.08
247.56	4.86
247.936	4.69
248.312	4.61
248.688	4.47
249.064	4.41
249.44	4.42
249.815	4.69
250.191	4.59
250.567	4.36
250.943	4.46
251.318	4.28
251.694	4.06
252.069	4.11
252.445	4.14
252.82	4.23
253.196	4.19
253.571	4.05
253.947	3.83
254.322	3.53
254.697	2.98
255.073	2.94
255.448	2.98
255.823	3.24
256.198	3.1
256.573	3.05
256.948	3.14
257.323	3.33
257.698	3.35
258.073	3.43
258.448	3.42
258.823	3.32
259.198	3.23
259.573	3.17
259.948	3.05
260.322	2.93
260.697	2.83
261.072	2.89
261.446	2.98
261.821	3.06
262.195	3.09
262.57	3.28
262.944	3.31
263.319	3.33
263.693	3.1
264.067	3.06
264.442	3.06
264.816	3.01
265.19	2.95
265.564	2.72
265.938	2.68
266.313	2.64
266.687	2.56
267.061	2.51
267.435	2.64
267.809	2.42
268.183	2.46
268.556	2.65
268.93	2.67
269.304	2.64
269.678	2.66
270.051	2.85
270.425	2.81
270.799	2.59
271.172	2.69
271.546	2.96
271.919	3.12
272.293	3.23
272.666	3.36
273.04	3.4
273.413	3.6
273.787	3.53
274.16	3.66
274.533	3.82
274.906	3.88
275.279	3.95
275.653	4.17
276.026	4.27
276.399	4.29
276.772	4.41
277.145	4.49
277.518	4.56
277.891	4.55
278.263	4.7
278.636	4.96
279.009	4.78
279.382	4.93
279.755	4.91
280.127	4.97
280.5	4.8
280.872	4.87
281.245	4.64
281.617	4.71
281.99	4.59
282.362	4.59
282.735	4.61
283.107	4.54
283.479	4.58
283.852	4.57
284.224	4.43
284.596	4.35
284.968	4.47
285.34	4.4
285.713	4.49
286.085	4.33
286.457	4.38
286.829	4.61
287.201	4.48
287.572	4.52
287.944	4.4
288.316	4.46
288.688	4.55
289.06	4.64
289.431	4.75
289.803	4.91
290.175	4.79
290.546	4.85
290.918	4.94
291.289	4.92
291.661	4.96
292.032	4.95
292.403	5.15
292.775	5.1
293.146	5.33
293.517	5.31
293.889	5.42
294.26	5.38
294.631	5.39
295.002	5.6
295.373	5.68
295.744	5.89
296.115	6.06
296.486	6.14
296.857	6.21
297.228	6.2
297.599	6.23
297.97	6.46
298.34	6.53
298.711	6.47
299.082	6.51
299.452	6.63
299.823	6.95
300.194	7.01
300.564	7.01
300.935	7.21
301.305	7.34
301.676	7.43
302.046	7.64
302.416	7.79
302.787	7.69
303.157	7.68
303.527	7.91
303.897	7.86
304.267	7.82
304.637	8.04
305.008	8.21
305.378	8.33
305.748	8.36
306.117	8.57
306.487	8.82
306.857	9.03
307.227	9.08
307.597	8.98
307.967	9.09
308.336	9.22
308.706	9.22
309.076	9.34
309.445	9.5
309.815	9.55
310.184	9.59
310.554	9.76
310.923	9.96
311.293	9.84
311.662	10.06
312.031	10.27
312.401	10.37
312.77	10.45
313.139	10.43
313.508	10.68
313.877	10.76
314.246	10.88
314.616	11.02
314.985	11.02
315.353	11.21
315.722	11.37
316.091	11.65
316.46	11.61
316.829	11.75
317.198	11.9
317.567	12.13
317.935	12.27
318.304	12.55
318.672	12.69
319.041	12.98
319.41	12.96
319.778	13.01
320.147	12.98
320.515	13.32
320.883	13.6
321.252	13.46
321.62	13.59
321.988	13.65
322.357	13.69
322.725	13.99
323.093	14.13
323.461	14.06
323.829	14.1
324.197	14.09
324.565	14.22
324.933	14.27
325.301	14.15
325.669	14.21
326.037	14.15
326.405	14.09
326.772	14.24
327.14	14.33
327.508	14.46
327.875	14.63
328.243	14.49
328.61	14.58
328.978	14.8
329.346	14.86
329.713	14.75
330.08	14.87
330.448	14.95
330.815	15.03
331.182	15.12
331.55	15.2
331.917	15.44
332.284	15.44
332.651	15.46
333.018	15.62
333.385	15.72
333.752	15.69
334.119	15.97
334.486	15.89
334.853	16.02
335.22	15.99
335.587	15.93
335.954	15.87
336.32	15.87
336.687	15.81
337.054	15.71
337.42	15.87
337.787	15.94
338.153	15.98
338.52	16.01
338.886	16.17
339.253	16.14
339.619	16.19
339.986	16.14
340.352	16.25
340.718	16.27
341.084	16.34
341.451	16.62
341.817	16.53
342.183	16.54
342.549	16.74
342.915	16.86
343.281	17
343.647	17.24
344.013	17.37
344.379	17.44
344.745	17.52
345.11	17.6
345.476	17.66
345.842	17.58
346.208	17.67
346.573	17.63
346.939	17.77
347.304	17.83
347.67	17.94
348.035	17.91
348.401	18.08
348.766	18.11
349.132	18.02
349.497	18.2
349.862	18.19
350.228	17.97
350.593	17.96
350.958	17.91
351.323	17.74
351.688	17.62
352.053	17.69
352.418	17.7
352.783	17.65
353.148	17.61
353.513	17.71
353.878	17.68
354.243	17.58
354.608	17.48
354.972	17.45
355.337	17.44
355.702	17.5
356.066	17.39
356.431	17.32
356.795	17.31
357.16	17.25
357.524	17.24
357.889	17.27
358.253	17.26
358.618	17.21
358.982	17.2
359.346	17.12
359.71	17.01
360.075	16.91
360.439	16.87
360.803	16.83
361.167	16.75
361.531	16.72
361.895	16.78
362.259	16.75
362.623	16.63
362.987	16.6
363.351	16.46
363.714	16.4
364.078	16.36
364.442	16.27
364.806	16.18
365.169	16.02
365.533	15.89
365.896	15.79
366.26	15.7
366.623	15.64
366.987	15.65
367.35	15.59
367.714	15.63
368.077	15.54
368.44	15.45
368.803	15.28
369.167	15.14
369.53	15
369.893	14.8
370.256	14.72
370.619	14.53
370.982	14.41
371.345	14.38
371.708	14.3
372.071	14.15
372.434	13.97
372.797	14.02
373.159	13.94
373.522	13.8
373.885	13.74
374.247	13.65
374.61	13.47
374.973	13.36
375.335	13.23
375.698	13.12
376.06	13.02
376.423	12.93
376.785	12.82
377.147	12.72
377.51	12.66
377.872	12.58
378.234	12.55
378.596	12.55
378.958	12.41
379.321	12.24
379.683	12.21
380.045	12.12
380.407	11.97
380.769	11.87
381.13	11.79
381.492	11.71
381.854	11.6
382.216	11.49
382.578	11.37
382.939	11.24
383.301	11.12
383.663	11.05
384.024	10.96
384.386	10.88
384.747	10.74
385.109	10.66
385.47	10.62
385.832	10.51
386.193	10.36
386.554	10.25
386.916	10.21
387.277	10.09
387.638	10.03
387.999	9.99
388.36	9.9
388.721	9.85
389.082	9.78
389.443	9.72
389.804	9.7
390.165	9.63
390.526	9.58
390.887	9.49
391.248	9.34
391.609	9.27
391.969	9.22
392.33	9.18
392.691	9.09
393.051	9.02
393.412	8.92
393.772	8.88
394.133	8.76
394.493	8.65
394.854	8.56
395.214	8.49
395.574	8.39
395.935	8.32
396.295	8.17
396.655	8.03
397.015	7.91
397.376	7.8
397.736	7.69
398.096	7.56
398.456	7.52
398.816	7.45
399.176	7.35
399.535	7.24
399.895	7.2
400.255	7.15
400.615	7.06
400.975	7.01
401.334	6.92
401.694	6.85
402.054	6.8
402.413	6.75
402.773	6.68
403.132	6.61
403.492	6.54
403.851	6.51
404.211	6.44
404.57	6.43
404.929	6.35
405.288	6.32
405.648	6.27
406.007	6.25
406.366	6.23
406.725	6.2
407.084	6.14
407.443	6.04
407.802	6.02
408.161	5.96
408.52	5.92
408.879	5.9
409.238	5.93
409.596	5.89
409.955	5.84
410.314	5.83
410.673	5.78
411.031	5.72
411.39	5.7
411.748	5.72
412.107	5.68
412.465	5.65
412.824	5.62
413.182	5.62
413.54	5.56
413.899	5.53
414.257	5.45
414.615	5.45
414.974	5.46
415.332	5.43
415.69	5.38
416.048	5.33
416.406	5.27
416.764	5.19
417.122	5.17
417.48	5.16
417.838	5.1
418.195	5.1
418.553	5.09
418.911	5.06
419.269	5.02
419.626	4.99
419.984	4.98
420.342	4.95
420.699	4.93
421.057	4.91
421.414	4.89
421.772	4.88
422.129	4.84
422.486	4.81
422.844	4.78
423.201	4.76
423.558	4.74
423.915	4.73
424.273	4.71
424.63	4.67
424.987	4.63
425.344	4.62
425.701	4.58
426.058	4.56
426.415	4.53
426.772	4.51
427.128	4.48
427.485	4.46
427.842	4.42
428.199	4.4
428.555	4.37
428.912	4.34
429.269	4.31
429.625	4.31
429.982	4.28
430.338	4.27
430.695	4.26
431.051	4.27
431.407	4.25
431.764	4.26
432.12	4.27
432.476	4.28
432.832	4.28
433.189	4.26
433.545	4.24
433.901	4.26
434.257	4.25
434.613	4.26
434.969	4.25
435.325	4.27
435.681	4.26
436.036	4.25
436.392	4.25
436.748	4.27
437.104	4.24
437.459	4.24
437.815	4.21
438.171	4.21
438.526	4.19
438.882	4.2
439.237	4.19
439.593	4.17
439.948	4.18
440.304	4.15
440.659	4.15
441.014	4.15
441.369	4.15
441.725	4.14
442.08	4.13
442.435	4.13
442.79	4.12
443.145	4.11
443.5	4.1
443.855	4.09
444.21	4.08
444.565	4.08
444.92	4.05
445.275	4.05
445.629	4.03
445.984	4.03
446.339	4.03
446.693	4.01
447.048	3.99
447.403	3.97
447.757	3.97
448.112	3.94
448.466	3.94
448.82	3.92
449.175	3.92
449.529	3.91
449.883	3.88
450.238	3.85
450.592	3.83
450.946	3.8
451.3	3.77
451.654	3.73
452.008	3.72
452.362	3.7
452.716	3.7
453.07	3.69
453.424	3.68
453.778	3.66
454.132	3.64
454.486	3.67
454.839	3.68
455.193	3.68
455.547	3.71
455.9	3.72
456.254	3.72
456.607	3.71
456.961	3.71
457.314	3.7
457.668	3.7
458.021	3.69
458.375	3.69
458.728	3.7
459.081	3.71
459.434	3.71
459.787	3.73
460.141	3.74
460.494	3.75
460.847	3.75
461.2	3.74
461.553	3.78
461.906	3.78
462.259	3.78
462.611	3.76
462.964	3.77
463.317	3.79
463.67	3.8
464.022	3.79
464.375	3.8
464.728	3.82
465.08	3.83
465.433	3.86
465.785	3.89
466.138	3.92
466.49	3.95
466.843	3.98
467.195	4.01
467.547	4
467.899	4.02
468.252	4.03
468.604	4.07
468.956	4.09
469.308	4.08
469.66	4.11
470.012	4.13
470.364	4.13
470.716	4.12
471.068	4.13
471.42	4.18
471.772	4.17
472.123	4.2
472.475	4.24
472.827	4.24
473.178	4.24
473.53	4.22
473.882	4.23
474.233	4.23
474.585	4.22
474.936	4.23
475.288	4.24
475.639	4.25
475.99	4.21
476.342	4.19
476.693	4.2
477.044	4.18
477.395	4.19
477.746	4.2
478.097	4.19
478.448	4.16
478.8	4.14
479.15	4.14
479.501	4.14
479.852	4.12
480.203	4.14
480.554	4.13
480.905	4.14
481.255	4.13
481.606	4.12
481.957	4.12
482.307	4.13
482.658	4.13
483.009	4.14
483.359	4.15
483.709	4.16
484.06	4.16
484.41	4.16
484.761	4.17
485.111	4.17
485.461	4.17
485.811	4.16
486.162	4.16
486.512	4.17
486.862	4.16
487.212	4.17
487.562	4.17
487.912	4.18
488.262	4.19
488.612	4.2
488.961	4.21
489.311	4.21
489.661	4.21
490.011	4.19
490.36	4.19
490.71	4.19
491.06	4.19
491.409	4.18
491.759	4.19
492.108	4.19
492.458	4.22
492.807	4.23
493.157	4.26
493.506	4.3
493.855	4.32
494.204	4.35
494.554	4.36
494.903	4.39
495.252	4.41
495.601	4.45
495.95	4.47
496.299	4.5
496.648	4.55
496.997	4.58
497.346	4.64
497.695	4.67
498.043	4.72
498.392	4.75
498.741	4.8
499.09	4.83
499.438	4.88
499.787	4.9
500.135	4.94
500.484	5.01
500.832	5.04
501.181	5.09
501.529	5.14
501.878	5.23
502.226	5.31
502.574	5.39
502.923	5.43
503.271	5.5
503.619	5.58
503.967	5.65
504.315	5.75
504.663	5.83
505.011	5.93
505.359	6.02
505.707	6.11
506.055	6.21
506.403	6.31
506.751	6.39
507.098	6.52
507.446	6.6
507.794	6.67
508.141	6.76
508.489	6.88
508.837	6.99
509.184	7.1
509.531	7.17
509.879	7.23
510.226	7.36
510.574	7.47
510.921	7.57
511.268	7.69
511.616	7.77
511.963	7.86
512.31	7.96
512.657	8.07
513.004	8.19
513.351	8.31
513.698	8.43
514.045	8.57
514.392	8.7
514.739	8.84
515.086	9.02
515.432	9.17
515.779	9.3
516.126	9.46
516.473	9.58
516.819	9.71
517.166	9.84
517.512	9.94
517.859	10.08
518.205	10.19
518.552	10.29
518.898	10.44
519.245	10.59
519.591	10.73
519.937	10.85
520.283	10.99
520.629	11.12
520.976	11.24
521.322	11.42
521.668	11.55
522.014	11.69
522.36	11.86
522.706	12.02
523.052	12.2
523.398	12.38
523.743	12.6
524.089	12.82
524.435	13.01
524.781	13.2
525.126	13.36
525.472	13.51
525.817	13.67
526.163	13.79
526.509	13.91
526.854	13.99
527.199	14.12
527.545	14.22
527.89	14.34
528.235	14.48
528.581	14.57
528.926	14.7
529.271	14.8
529.616	14.9
529.961	15.01
530.306	15.12
530.651	15.23
530.996	15.35
531.341	15.48
531.686	15.61
532.031	15.74
532.376	15.88
532.721	16.03
533.065	16.15
533.41	16.31
533.755	16.46
534.099	16.64
534.444	16.81
534.788	16.98
535.133	17.14
535.477	17.28
535.822	17.47
536.166	17.65
536.51	17.89
536.855	18.1
537.199	18.32
537.543	18.54
537.887	18.77
538.231	18.96
538.576	19.17
538.92	19.39
539.264	19.6
539.608	19.83
539.951	20
540.295	20.22
540.639	20.41
540.983	20.6
541.327	20.81
541.671	21
542.014	21.2
542.358	21.38
542.701	21.56
543.045	21.71
543.389	21.87
543.732	22.03
544.075	22.22
544.419	22.43
544.762	22.63
545.105	22.84
545.449	23.11
545.792	23.37
546.135	23.59
546.478	23.85
546.821	24.11
547.165	24.39
547.508	24.64
547.851	24.87
548.194	25.14
548.536	25.36
548.879	25.6
549.222	25.85
549.565	26.11
549.908	26.39
550.25	26.68
550.593	27.04
550.936	27.34
551.278	27.63
551.621	27.92
551.963	28.22
552.306	28.52
552.648	28.75
552.991	28.97
553.333	29.26
553.675	29.57
554.017	29.82
554.36	30.13
554.702	30.46
555.044	30.75
555.386	31.01
555.728	31.32
556.07	31.66
556.412	31.9
556.754	32.22
557.096	32.54
557.438	32.87
557.78	33.14
558.121	33.47
558.463	33.76
558.805	34.1
559.147	34.45
559.488	34.74
559.83	35.05
560.171	35.35
560.513	35.66
560.854	35.95
561.196	36.27
561.537	36.55
561.878	36.81
562.22	37.1
562.561	37.41
562.902	37.7
563.243	37.94
563.584	38.26
563.925	38.56
564.266	38.87
564.607	39.1
564.948	39.36
565.289	39.62
565.63	39.88
565.971	40.15
566.312	40.38
566.653	40.63
566.993	40.87
567.334	41.15
567.675	41.41
568.015	41.64
568.356	41.92
568.696	42.14
569.037	42.4
569.377	42.66
569.718	42.93
570.058	43.18
570.398	43.4
570.739	43.61
571.079	43.82
571.419	43.95
571.759	44.23
572.099	44.44
572.439	44.65
572.779	44.85
573.119	44.99
573.459	45.15
573.799	45.32
574.139	45.54
574.479	45.72
574.819	45.92
575.158	46.11
575.498	46.28
575.838	46.54
576.177	46.7
576.517	46.93
576.856	47.08
577.196	47.29
577.535	47.48
577.875	47.67
578.214	47.89
578.553	48.13
578.893	48.38
579.232	48.62
579.571	48.87
579.91	49.13
580.25	49.34
580.589	49.59
580.928	49.8
581.267	49.91
581.606	50.07
581.945	50.31
582.283	50.59
582.622	50.75
582.961	50.88
583.3	51.08
583.639	51.28
583.977	51.46
584.316	51.55
584.654	51.7
584.993	51.9
585.332	52.09
585.67	52.34
586.008	52.42
586.347	52.51
586.685	52.63
587.024	52.75
587.362	52.88
587.7	53.01
588.038	53.21
588.376	53.45
588.715	53.64
589.053	53.76
589.391	53.79
589.729	53.93
590.067	53.99
590.404	54.16
590.742	54.21
591.08	54.35
591.418	54.52
591.756	54.7
592.093	54.81
592.431	54.89
592.769	54.9
593.106	54.94
593.444	55.04
593.781	55.14
594.119	55.24
594.456	55.38
594.793	55.43
595.131	55.47
595.468	55.52
595.805	55.62
596.143	55.63
596.48	55.8
596.817	55.85
597.154	55.94
597.491	56.02
597.828	56.13
598.165	56.2
598.502	56.28
598.839	56.37
599.176	56.48
599.512	56.58
599.849	56.74
600.186	56.8
600.523	56.88
600.859	56.91
601.196	56.94
601.532	57.03
601.869	57.13
602.205	57.15
602.542	57.17
602.878	57.21
603.215	57.29
603.551	57.24
603.887	57.34
604.223	57.42
604.56	57.4
604.896	57.49
605.232	57.49
605.568	57.5
605.904	57.56
606.24	57.56
606.576	57.64
606.912	57.62
607.248	57.76
607.583	57.85
607.919	57.99
608.255	58.14
608.591	58.13
608.926	58.1
609.262	58.2
609.597	58.26
609.933	58.26
610.268	58.28
610.604	58.38
610.939	58.42
611.275	58.45
611.61	58.53
611.945	58.49
612.281	58.49
612.616	58.53
612.951	58.54
613.286	58.61
613.621	58.61
613.956	58.75
614.291	58.69
614.626	58.63
614.961	58.66
615.296	58.64
615.631	58.72
615.966	58.87
616.3	58.9
616.635	58.92
616.97	58.97
617.304	58.92
617.639	58.94
617.973	58.93
618.308	59.01
618.642	59.02
618.977	59.1
619.311	59.16
619.646	59.25
619.98	59.27
620.314	59.32
620.648	59.29
620.983	59.29
621.317	59.32
621.651	59.54
621.985	59.47
622.319	59.45
622.653	59.42
622.987	59.47
623.321	59.49
623.655	59.51
623.988	59.63
624.322	59.8
624.656	59.8
624.99	59.8
625.323	59.83
625.657	59.85
625.99	59.89
626.324	59.97
626.657	60.07
626.991	60.05
627.324	60.13
627.658	60.12
627.991	60.16
628.324	60.16
628.657	60.01
628.991	60.04
629.324	60.07
629.657	60.15
629.99	60.09
630.323	60.11
630.656	60.25
630.989	60.2
631.322	60.21
631.655	60.32
631.987	60.41
632.32	60.43
632.653	60.46
632.986	60.45
633.318	60.41
633.651	60.27
633.984	60.43
634.316	60.35
634.649	60.4
634.981	60.33
635.313	60.44
635.646	60.48
635.978	60.45
636.31	60.52
636.643	60.5
636.975	60.59
637.307	60.62
637.639	60.58
637.971	60.55
638.303	60.59
638.635	60.41
638.967	60.43
639.299	60.46
639.631	60.51
639.963	60.48
640.295	60.55
640.626	60.6
640.958	60.52
641.29	60.65
641.621	60.7
641.953	60.68
642.285	60.69
642.616	60.76
642.948	60.96
643.279	60.93
643.61	60.89
643.942	60.91
644.273	60.89
644.604	60.86
644.936	60.96
645.267	60.87
645.598	60.96
645.929	60.86
646.26	60.71
646.591	60.61
646.922	60.69
647.253	60.73
647.584	60.82
647.915	60.81
648.245	60.63
648.576	60.77
648.907	60.81
649.238	60.72
649.568	60.66
649.899	60.56
650.229	60.54
650.56	60.55
650.89	60.59
651.221	60.62
651.551	60.62
651.882	60.52
652.212	60.64
652.542	60.74
652.872	60.84
653.203	60.93
653.533	60.97
653.863	60.96
654.193	60.88
654.523	60.9
654.853	60.88
655.183	61.13
655.513	61.06
655.843	61.07
656.172	61.02
656.502	61
656.832	61.11
657.162	61.07
657.491	61.13
657.821	61.18
658.15	61.25
658.48	61.3
658.809	61.37
659.139	61.37
659.468	61.28
659.798	61.28
660.127	61.21
660.456	61.33
660.785	61.33
661.115	61.48
661.444	61.49
661.773	61.51
662.102	61.33
