Data from BU57652_Reflection_00002.txt Node
Date: Tue Nov 19 10:43:05 EST 2019
User: vgr7
Spectrometer: USB2G7710
Scans to average: 3
Trigger mode: 4
Integration Time (sec): 2.000000E-2
Electric dark correction enabled: true
Boxcar width: 10
XAxis mode: Wavelengths
Number of Pixels in Spectrum: 2048
>>>>>Begin Spectral Data<<<<<
177.721	7.68
178.105	16.06
178.488	-31.42
178.871	51.58
179.254	64.52
179.636	137.16
180.019	19.9
180.402	4.17
180.785	180.33
181.168	91.55
181.55	-630.77
181.933	45.54
182.316	238.3
182.698	-10.88
183.081	120.23
183.463	228.74
183.846	188.52
184.228	580.2
184.611	182.31
184.993	47.67
185.376	3.96
185.758	11.57
186.14	11.48
186.522	4.06
186.904	22.16
187.287	9.34
187.669	12.61
188.051	8.28
188.433	2.22
188.815	-12.35
189.197	-6.8
189.579	1.3
189.961	-12.94
190.342	-18.14
190.724	-19.67
191.106	-31.22
191.488	-24.54
191.869	-13.1
192.251	-22.14
192.633	-34.07
193.014	-31.62
193.396	-40.44
193.777	-26.66
194.159	-28.05
194.54	-35.8
194.922	-36.13
195.303	-32.9
195.684	-30.66
196.065	-35.53
196.447	-31.01
196.828	-38.72
197.209	-33.45
197.59	-44.6
197.971	-36.17
198.352	-17.81
198.733	-26.83
199.114	-22.11
199.495	-34.04
199.876	-38.31
200.257	-48.59
200.638	-40.07
201.018	-55.77
201.399	-26.08
201.78	-33.67
202.16	-33.9
202.541	-19.36
202.922	-24.79
203.302	-23.56
203.683	-21.98
204.063	-11.41
204.444	-16.99
204.824	1.66
205.204	-12.43
205.585	-6.24
205.965	-7.03
206.345	-21.43
206.725	-2.6
207.106	-1.67
207.486	31.52
207.866	42.29
208.246	47.35
208.626	34.81
209.006	47.47
209.386	56.84
209.766	52.41
210.145	55.39
210.525	54.44
210.905	106.96
211.285	104.53
211.664	66.43
212.044	52.05
212.424	49.36
212.803	31.74
213.183	40.89
213.562	35.1
213.942	29.96
214.321	35.82
214.701	36.7
215.08	30.18
215.459	12.49
215.838	0.96
216.218	3.13
216.597	4.99
216.976	-4.37
217.355	-11.99
217.734	-8.65
218.113	-7.15
218.492	-15.73
218.871	-14.34
219.25	-30.85
219.629	-45.6
220.008	-42.27
220.387	-55.57
220.766	-52.85
221.144	-54.88
221.523	-69.48
221.902	-58.24
222.28	-52.1
222.659	-37.07
223.037	-45.96
223.416	-42.17
223.794	-29.55
224.173	-27.36
224.551	-24.45
224.929	-21.65
225.308	-24.55
225.686	-26.7
226.064	-25.4
226.442	-15.83
226.821	-15.67
227.199	-9.08
227.577	-5.2
227.955	-1.81
228.333	-0.82
228.711	-1.17
229.089	-4.69
229.467	-2.96
229.845	-5.79
230.222	-2.19
230.6	-6.29
230.978	-1.13
231.356	-1.71
231.733	-1.74
232.111	-2.11
232.488	-0.99
232.866	3.25
233.243	4.39
233.621	5.25
233.998	4.83
234.376	4.08
234.753	4.16
235.13	4.64
235.508	5.12
235.885	5.69
236.262	6.39
236.639	5.82
237.016	5.43
237.393	6.13
237.77	5.94
238.147	4.32
238.524	4.39
238.901	3.15
239.278	2.56
239.655	1.94
240.032	2.33
240.409	2.44
240.785	1.14
241.162	0.92
241.539	0.91
241.915	0.81
242.292	0.99
242.668	1.3
243.045	1.72
243.421	1.82
243.798	1.94
244.174	1.87
244.551	2.34
244.927	2.76
245.303	2.47
245.679	2.45
246.056	2.39
246.432	2.35
246.808	2.59
247.184	2.51
247.56	2.36
247.936	2.58
248.312	2.59
248.688	2.92
249.064	2.94
249.44	2.86
249.815	2.98
250.191	2.95
250.567	2.89
250.943	3.11
251.318	2.9
251.694	2.58
252.069	2.6
252.445	2.55
252.82	2.59
253.196	2.55
253.571	2.75
253.947	2.89
254.322	3.08
254.697	2.98
255.073	3.2
255.448	3.44
255.823	3.22
256.198	3.11
256.573	3.01
256.948	3.27
257.323	3.42
257.698	3.45
258.073	3.36
258.448	3.48
258.823	3.12
259.198	3.26
259.573	3.17
259.948	3.23
260.322	2.9
260.697	2.78
261.072	2.98
261.446	3.05
261.821	2.96
262.195	2.89
262.57	2.91
262.944	2.95
263.319	2.95
263.693	2.8
264.067	2.85
264.442	2.76
264.816	2.67
265.19	2.52
265.564	2.46
265.938	2.5
266.313	2.42
266.687	2.39
267.061	2.25
267.435	2.54
267.809	2.46
268.183	2.68
268.556	2.52
268.93	2.43
269.304	2.28
269.678	2.44
270.051	2.41
270.425	2.41
270.799	2.37
271.172	2.5
271.546	2.68
271.919	2.63
272.293	2.75
272.666	2.82
273.04	2.92
273.413	2.85
273.787	2.94
274.16	2.78
274.533	2.87
274.906	2.92
275.279	2.73
275.653	2.79
276.026	2.84
276.399	3.03
276.772	3.02
277.145	3.15
277.518	3.13
277.891	3.26
278.263	3.48
278.636	3.45
279.009	3.3
279.382	3.19
279.755	3.32
280.127	3.16
280.5	3.07
280.872	3.06
281.245	2.99
281.617	3
281.99	3.16
282.362	3.09
282.735	3.3
283.107	3.22
283.479	3.07
283.852	3.12
284.224	3.11
284.596	3.06
284.968	2.89
285.34	2.79
285.713	2.81
286.085	2.61
286.457	2.66
286.829	2.63
287.201	2.66
287.572	2.6
287.944	2.82
288.316	2.77
288.688	2.75
289.06	2.87
289.431	2.9
289.803	2.83
290.175	2.86
290.546	2.7
290.918	2.83
291.289	2.86
291.661	2.84
292.032	2.89
292.403	2.94
292.775	3.01
293.146	3
293.517	2.97
293.889	3
294.26	3.11
294.631	3.25
295.002	3.23
295.373	3.2
295.744	3.15
296.115	3.18
296.486	3.2
296.857	3.25
297.228	3.18
297.599	3.07
297.97	3.16
298.34	3.08
298.711	3.14
299.082	3.26
299.452	3.24
299.823	3.14
300.194	3.21
300.564	3.1
300.935	3.11
301.305	3
301.676	3.11
302.046	3.12
302.416	3.01
302.787	2.98
303.157	3.1
303.527	3.1
303.897	3.17
304.267	3.25
304.637	3.19
305.008	3.21
305.378	3.51
305.748	3.49
306.117	3.55
306.487	3.52
306.857	3.45
307.227	3.55
307.597	3.65
307.967	3.63
308.336	3.79
308.706	3.95
309.076	4.14
309.445	4.11
309.815	3.94
310.184	3.88
310.554	3.93
310.923	3.69
311.293	3.61
311.662	3.58
312.031	3.54
312.401	3.48
312.77	3.47
313.139	3.4
313.508	3.33
313.877	3.38
314.246	3.31
314.616	3.25
314.985	3.31
315.353	3.33
315.722	3.34
316.091	3.3
316.46	3.2
316.829	3.05
317.198	3.05
317.567	3.32
317.935	3.5
318.304	3.65
318.672	3.96
319.041	4.08
319.41	4.16
319.778	4.12
320.147	4.31
320.515	4.44
320.883	4.5
321.252	4.49
321.62	4.47
321.988	4.57
322.357	4.78
322.725	4.54
323.093	4.48
323.461	4.46
323.829	4.4
324.197	4.34
324.565	4.35
324.933	4.29
325.301	3.99
325.669	3.96
326.037	3.8
326.405	3.77
326.772	3.73
327.14	3.56
327.508	3.56
327.875	3.5
328.243	3.44
328.61	3.31
328.978	3.31
329.346	3.19
329.713	3.19
330.08	3.14
330.448	3.26
330.815	3.26
331.182	3.14
331.55	3.2
331.917	3.06
332.284	3.19
332.651	3.26
333.018	3.33
333.385	3.24
333.752	3.39
334.119	3.33
334.486	3.29
334.853	3.4
335.22	3.4
335.587	3.36
335.954	3.26
336.32	3.28
336.687	3.23
337.054	3.34
337.42	3.32
337.787	3.26
338.153	3.35
338.52	3.42
338.886	3.55
339.253	3.57
339.619	3.83
339.986	3.77
340.352	3.78
340.718	3.76
341.084	3.83
341.451	3.7
341.817	3.71
342.183	3.75
342.549	3.85
342.915	3.85
343.281	3.85
343.647	3.94
344.013	3.94
344.379	4.02
344.745	4.12
345.11	4.05
345.476	4.05
345.842	3.91
346.208	3.88
346.573	3.89
346.939	3.88
347.304	3.85
347.67	3.87
348.035	3.83
348.401	3.93
348.766	3.87
349.132	4.03
349.497	4.04
349.862	4.01
350.228	3.86
350.593	3.94
350.958	3.95
351.323	3.91
351.688	3.99
352.053	4
352.418	3.88
352.783	3.94
353.148	3.97
353.513	3.98
353.878	4.02
354.243	3.91
354.608	3.98
354.972	3.98
355.337	4
355.702	4.01
356.066	4.04
356.431	4.09
356.795	3.97
357.16	3.97
357.524	3.99
357.889	4.07
358.253	4.06
358.618	4.08
358.982	4.14
359.346	4.09
359.71	4.07
360.075	4.12
360.439	4.16
360.803	4.21
361.167	4.24
361.531	4.21
361.895	4.28
362.259	4.29
362.623	4.27
362.987	4.24
363.351	4.21
363.714	4.16
364.078	4.14
364.442	4.16
364.806	4.15
365.169	4.13
365.533	4.09
365.896	4.06
366.26	4.04
366.623	3.98
366.987	3.98
367.35	4.03
367.714	4.04
368.077	4.04
368.44	3.96
368.803	3.92
369.167	3.91
369.53	3.9
369.893	3.9
370.256	3.82
370.619	3.79
370.982	3.73
371.345	3.78
371.708	3.77
372.071	3.77
372.434	3.76
372.797	3.79
373.159	3.8
373.522	3.76
373.885	3.83
374.247	3.84
374.61	3.87
374.973	3.84
375.335	3.82
375.698	3.77
376.06	3.8
376.423	3.82
376.785	3.82
377.147	3.8
377.51	3.73
377.872	3.75
378.234	3.82
378.596	3.87
378.958	3.82
379.321	3.81
379.683	3.86
380.045	3.85
380.407	3.86
380.769	3.83
381.13	3.89
381.492	3.82
381.854	3.8
382.216	3.8
382.578	3.81
382.939	3.77
383.301	3.77
383.663	3.78
384.024	3.78
384.386	3.77
384.747	3.78
385.109	3.83
385.47	3.86
385.832	3.81
386.193	3.79
386.554	3.77
386.916	3.81
387.277	3.8
387.638	3.85
387.999	3.81
388.36	3.82
388.721	3.81
389.082	3.81
389.443	3.79
389.804	3.81
390.165	3.81
390.526	3.86
390.887	3.85
391.248	3.83
391.609	3.88
391.969	3.88
392.33	3.86
392.691	3.84
393.051	3.86
393.412	3.87
393.772	3.91
394.133	3.92
394.493	3.91
394.854	3.9
395.214	3.88
395.574	3.89
395.935	3.89
396.295	3.86
396.655	3.85
397.015	3.91
397.376	3.86
397.736	3.82
398.096	3.82
398.456	3.81
398.816	3.8
399.176	3.75
399.535	3.78
399.895	3.78
400.255	3.79
400.615	3.8
400.975	3.81
401.334	3.79
401.694	3.81
402.054	3.77
402.413	3.79
402.773	3.8
403.132	3.79
403.492	3.78
403.851	3.8
404.211	3.85
404.57	3.84
404.929	3.84
405.288	3.88
405.648	3.88
406.007	3.9
406.366	3.92
406.725	3.92
407.084	3.89
407.443	3.91
407.802	3.91
408.161	3.9
408.52	3.87
408.879	3.87
409.238	3.86
409.596	3.91
409.955	3.91
410.314	3.87
410.673	3.87
411.031	3.88
411.39	3.89
411.748	3.89
412.107	3.85
412.465	3.87
412.824	3.84
413.182	3.83
413.54	3.83
413.899	3.82
414.257	3.83
414.615	3.83
414.974	3.83
415.332	3.81
415.69	3.78
416.048	3.78
416.406	3.76
416.764	3.77
417.122	3.75
417.48	3.75
417.838	3.76
418.195	3.76
418.553	3.76
418.911	3.73
419.269	3.74
419.626	3.74
419.984	3.74
420.342	3.74
420.699	3.73
421.057	3.73
421.414	3.73
421.772	3.72
422.129	3.72
422.486	3.73
422.844	3.73
423.201	3.72
423.558	3.72
423.915	3.74
424.273	3.73
424.63	3.74
424.987	3.73
425.344	3.73
425.701	3.72
426.058	3.72
426.415	3.72
426.772	3.7
427.128	3.72
427.485	3.71
427.842	3.71
428.199	3.71
428.555	3.69
428.912	3.67
429.269	3.67
429.625	3.68
429.982	3.65
430.338	3.65
430.695	3.67
431.051	3.68
431.407	3.67
431.764	3.66
432.12	3.67
432.476	3.68
432.832	3.65
433.189	3.67
433.545	3.66
433.901	3.68
434.257	3.67
434.613	3.66
434.969	3.66
435.325	3.67
435.681	3.67
436.036	3.67
436.392	3.69
436.748	3.7
437.104	3.7
437.459	3.71
437.815	3.73
438.171	3.75
438.526	3.74
438.882	3.74
439.237	3.73
439.593	3.72
439.948	3.72
440.304	3.72
440.659	3.7
441.014	3.71
441.369	3.72
441.725	3.72
442.08	3.73
442.435	3.73
442.79	3.71
443.145	3.72
443.5	3.72
443.855	3.71
444.21	3.69
444.565	3.7
444.92	3.69
445.275	3.67
445.629	3.66
445.984	3.66
446.339	3.66
446.693	3.68
447.048	3.67
447.403	3.67
447.757	3.66
448.112	3.69
448.466	3.69
448.82	3.68
449.175	3.69
449.529	3.69
449.883	3.69
450.238	3.72
450.592	3.71
450.946	3.71
451.3	3.7
451.654	3.71
452.008	3.71
452.362	3.71
452.716	3.71
453.07	3.69
453.424	3.7
453.778	3.69
454.132	3.67
454.486	3.67
454.839	3.67
455.193	3.68
455.547	3.65
455.9	3.66
456.254	3.65
456.607	3.63
456.961	3.62
457.314	3.61
457.668	3.62
458.021	3.6
458.375	3.59
458.728	3.59
459.081	3.59
459.434	3.59
459.787	3.59
460.141	3.6
460.494	3.61
460.847	3.6
461.2	3.59
461.553	3.61
461.906	3.63
462.259	3.63
462.611	3.64
462.964	3.65
463.317	3.66
463.67	3.67
464.022	3.67
464.375	3.66
464.728	3.67
465.08	3.66
465.433	3.69
465.785	3.7
466.138	3.7
466.49	3.7
466.843	3.72
467.195	3.75
467.547	3.76
467.899	3.76
468.252	3.77
468.604	3.76
468.956	3.78
469.308	3.78
469.66	3.8
470.012	3.8
470.364	3.8
470.716	3.8
471.068	3.79
471.42	3.79
471.772	3.8
472.123	3.81
472.475	3.82
472.827	3.82
473.178	3.83
473.53	3.83
473.882	3.84
474.233	3.82
474.585	3.8
474.936	3.78
475.288	3.8
475.639	3.79
475.99	3.81
476.342	3.78
476.693	3.79
477.044	3.8
477.395	3.78
477.746	3.78
478.097	3.77
478.448	3.78
478.8	3.78
479.15	3.79
479.501	3.78
479.852	3.77
480.203	3.77
480.554	3.76
480.905	3.77
481.255	3.78
481.606	3.8
481.957	3.81
482.307	3.81
482.658	3.82
483.009	3.82
483.359	3.83
483.709	3.84
484.06	3.83
484.41	3.83
484.761	3.85
485.111	3.85
485.461	3.85
485.811	3.87
486.162	3.88
486.512	3.88
486.862	3.89
487.212	3.9
487.562	3.89
487.912	3.9
488.262	3.9
488.612	3.9
488.961	3.9
489.311	3.89
489.661	3.9
490.011	3.89
490.36	3.89
490.71	3.89
491.06	3.91
491.409	3.9
491.759	3.9
492.108	3.89
492.458	3.89
492.807	3.89
493.157	3.88
493.506	3.87
493.855	3.89
494.204	3.89
494.554	3.9
494.903	3.91
495.252	3.91
495.601	3.92
495.95	3.92
496.299	3.92
496.648	3.94
496.997	3.95
497.346	3.97
497.695	3.98
498.043	3.99
498.392	3.98
498.741	4
499.09	4
499.438	4.01
499.787	4.02
500.135	4.03
500.484	4.05
500.832	4.05
501.181	4.05
501.529	4.07
501.878	4.07
502.226	4.08
502.574	4.08
502.923	4.11
503.271	4.12
503.619	4.14
503.967	4.14
504.315	4.12
504.663	4.11
505.011	4.12
505.359	4.1
505.707	4.13
506.055	4.13
506.403	4.14
506.751	4.15
507.098	4.18
507.446	4.2
507.794	4.21
508.141	4.21
508.489	4.22
508.837	4.2
509.184	4.21
509.531	4.22
509.879	4.23
510.226	4.22
510.574	4.24
510.921	4.23
511.268	4.23
511.616	4.23
511.963	4.26
512.31	4.25
512.657	4.27
513.004	4.24
513.351	4.24
513.698	4.25
514.045	4.24
514.392	4.23
514.739	4.23
515.086	4.23
515.432	4.25
515.779	4.24
516.126	4.28
516.473	4.29
516.819	4.3
517.166	4.32
517.512	4.32
517.859	4.31
518.205	4.3
518.552	4.33
518.898	4.33
519.245	4.35
519.591	4.38
519.937	4.37
520.283	4.4
520.629	4.4
520.976	4.41
521.322	4.44
521.668	4.45
522.014	4.46
522.36	4.45
522.706	4.44
523.052	4.46
523.398	4.44
523.743	4.43
524.089	4.45
524.435	4.44
524.781	4.46
525.126	4.48
525.472	4.5
525.817	4.49
526.163	4.5
526.509	4.52
526.854	4.51
527.199	4.53
527.545	4.54
527.89	4.55
528.235	4.54
528.581	4.54
528.926	4.54
529.271	4.54
529.616	4.56
529.961	4.56
530.306	4.56
530.651	4.57
530.996	4.58
531.341	4.59
531.686	4.6
532.031	4.61
532.376	4.62
532.721	4.62
533.065	4.64
533.41	4.64
533.755	4.64
534.099	4.63
534.444	4.63
534.788	4.63
535.133	4.63
535.477	4.65
535.822	4.64
536.166	4.64
536.51	4.64
536.855	4.63
537.199	4.62
537.543	4.64
537.887	4.64
538.231	4.64
538.576	4.64
538.92	4.65
539.264	4.64
539.608	4.64
539.951	4.63
540.295	4.63
540.639	4.63
540.983	4.62
541.327	4.65
541.671	4.66
542.014	4.68
542.358	4.67
542.701	4.66
543.045	4.67
543.389	4.67
543.732	4.67
544.075	4.68
544.419	4.69
544.762	4.69
545.105	4.69
545.449	4.7
545.792	4.68
546.135	4.68
546.478	4.68
546.821	4.7
547.165	4.71
547.508	4.72
547.851	4.72
548.194	4.7
548.536	4.66
548.879	4.67
549.222	4.66
549.565	4.67
549.908	4.69
550.25	4.69
550.593	4.69
550.936	4.7
551.278	4.7
551.621	4.72
551.963	4.75
552.306	4.76
552.648	4.76
552.991	4.76
553.333	4.76
553.675	4.78
554.017	4.77
554.36	4.76
554.702	4.76
555.044	4.76
555.386	4.79
555.728	4.8
556.07	4.77
556.412	4.76
556.754	4.75
557.096	4.74
557.438	4.76
557.78	4.79
558.121	4.81
558.463	4.81
558.805	4.82
559.147	4.82
559.488	4.8
559.83	4.81
560.171	4.81
560.513	4.84
560.854	4.86
561.196	4.85
561.537	4.89
561.878	4.92
562.22	4.93
562.561	4.93
562.902	4.94
563.243	4.96
563.584	4.93
563.925	4.96
564.266	4.96
564.607	4.94
564.948	4.92
565.289	4.92
565.63	4.93
565.971	4.92
566.312	4.92
566.653	4.93
566.993	4.92
567.334	4.93
567.675	4.94
568.015	4.91
568.356	4.9
568.696	4.86
569.037	4.83
569.377	4.8
569.718	4.79
570.058	4.78
570.398	4.78
570.739	4.8
571.079	4.78
571.419	4.78
571.759	4.8
572.099	4.79
572.439	4.77
572.779	4.76
573.119	4.76
573.459	4.75
573.799	4.76
574.139	4.76
574.479	4.75
574.819	4.72
575.158	4.73
575.498	4.74
575.838	4.75
576.177	4.77
576.517	4.79
576.856	4.82
577.196	4.83
577.535	4.81
577.875	4.78
578.214	4.8
578.553	4.82
578.893	4.83
579.232	4.86
579.571	4.89
579.91	4.88
580.25	4.87
580.589	4.9
580.928	4.91
581.267	4.92
581.606	4.91
581.945	4.94
582.283	4.96
582.622	4.95
582.961	4.96
583.3	4.96
583.639	4.97
583.977	4.96
584.316	4.94
584.654	4.97
584.993	5
585.332	5.02
585.67	4.99
586.008	5
586.347	5
586.685	4.97
587.024	4.98
587.362	4.96
587.7	4.93
588.038	4.94
588.376	4.95
588.715	5.01
589.053	4.99
589.391	4.96
589.729	4.99
590.067	4.94
590.404	4.93
590.742	4.9
591.08	4.9
591.418	4.91
591.756	4.9
592.093	4.91
592.431	4.95
592.769	4.96
593.106	4.94
593.444	4.91
593.781	4.92
594.119	4.95
594.456	4.96
594.793	4.95
595.131	4.93
595.468	4.94
595.805	4.93
596.143	4.94
596.48	4.95
596.817	4.96
597.154	5.02
597.491	5.05
597.828	5.07
598.165	5.08
598.502	5.1
598.839	5.08
599.176	5.13
599.512	5.07
599.849	5.06
600.186	5.08
600.523	5.16
600.859	5.16
601.196	5.15
601.532	5.18
601.869	5.18
602.205	5.19
602.542	5.19
602.878	5.19
603.215	5.18
603.551	5.17
603.887	5.18
604.223	5.14
604.56	5.12
604.896	5.15
605.232	5.15
605.568	5.17
605.904	5.19
606.24	5.14
606.576	5.21
606.912	5.23
607.248	5.23
607.583	5.21
607.919	5.23
608.255	5.24
608.591	5.24
608.926	5.26
609.262	5.28
609.597	5.27
609.933	5.25
610.268	5.25
610.604	5.27
610.939	5.27
611.275	5.29
611.61	5.29
611.945	5.29
612.281	5.28
612.616	5.25
612.951	5.3
613.286	5.32
613.621	5.3
613.956	5.29
614.291	5.26
614.626	5.23
614.961	5.24
615.296	5.23
615.631	5.22
615.966	5.25
616.3	5.2
616.635	5.2
616.97	5.24
617.304	5.23
617.639	5.24
617.973	5.21
618.308	5.21
618.642	5.19
618.977	5.16
619.311	5.18
619.646	5.2
619.98	5.18
620.314	5.13
620.648	5.1
620.983	5.09
621.317	5.12
621.651	5.11
621.985	5.14
622.319	5.18
622.653	5.18
622.987	5.14
623.321	5.14
623.655	5.12
623.988	5.13
624.322	5.15
624.656	5.17
624.99	5.16
625.323	5.18
625.657	5.22
625.99	5.27
626.324	5.26
626.657	5.27
626.991	5.28
627.324	5.3
627.658	5.28
627.991	5.33
628.324	5.33
628.657	5.35
628.991	5.39
629.324	5.33
629.657	5.29
629.99	5.3
630.323	5.36
630.656	5.34
630.989	5.34
631.322	5.36
631.655	5.32
631.987	5.35
632.32	5.35
632.653	5.38
632.986	5.34
633.318	5.34
633.651	5.34
633.984	5.32
634.316	5.37
634.649	5.4
634.981	5.36
635.313	5.38
635.646	5.39
635.978	5.35
636.31	5.35
636.643	5.37
636.975	5.38
637.307	5.38
637.639	5.4
637.971	5.38
638.303	5.35
638.635	5.37
638.967	5.36
639.299	5.33
639.631	5.31
639.963	5.33
640.295	5.32
640.626	5.31
640.958	5.31
641.29	5.34
641.621	5.3
641.953	5.31
642.285	5.27
642.616	5.31
642.948	5.28
643.279	5.33
643.61	5.38
643.942	5.32
644.273	5.3
644.604	5.27
644.936	5.3
645.267	5.33
645.598	5.33
645.929	5.33
646.26	5.34
646.591	5.38
646.922	5.38
647.253	5.4
647.584	5.41
647.915	5.45
648.245	5.4
648.576	5.46
648.907	5.43
649.238	5.45
649.568	5.36
649.899	5.36
650.229	5.41
650.56	5.4
650.89	5.49
651.221	5.47
651.551	5.57
651.882	5.56
652.212	5.56
652.542	5.54
652.872	5.62
653.203	5.66
653.533	5.63
653.863	5.68
654.193	5.64
654.523	5.58
654.853	5.57
655.183	5.62
655.513	5.57
655.843	5.55
656.172	5.61
656.502	5.61
656.832	5.63
657.162	5.6
657.491	5.66
657.821	5.66
658.15	5.77
658.48	5.77
658.809	5.79
659.139	5.82
659.468	5.82
659.798	5.76
660.127	5.72
660.456	5.72
660.785	5.65
661.115	5.74
661.444	5.8
661.773	5.8
662.102	5.8
662.431	5.86
662.76	5.86
663.089	5.85
663.418	5.85
663.747	5.89
664.076	5.84
664.404	5.82
664.733	5.77
665.062	5.63
665.39	5.62
665.719	5.55
666.048	5.49
666.376	5.52
666.705	5.56
667.033	5.6
667.362	5.61
667.69	5.68
668.018	5.72
668.347	5.72
668.675	5.69
669.003	5.69
669.331	5.63
669.659	5.72
669.987	5.75
670.315	5.82
670.643	5.81
670.971	5.85
671.299	5.82
671.627	5.92
671.955	5.88
672.283	5.82
672.61	5.89
672.938	5.97
673.266	5.96
673.593	6.01
673.921	5.99
674.249	5.99
674.576	5.92
674.904	5.78
675.231	5.75
675.558	5.75
675.886	5.76
676.213	5.77
676.54	5.76
676.867	5.75
677.195	5.73
677.522	5.71
677.849	5.78
678.176	5.73
678.503	5.68
678.83	5.73
679.157	5.79
