Data from BU57650_Reflection_00012.txt Node
Date: Tue Nov 19 11:01:32 EST 2019
User: vgr7
Spectrometer: USB2G7710
Scans to average: 3
Trigger mode: 4
Integration Time (sec): 2.000000E-2
Electric dark correction enabled: true
Boxcar width: 10
XAxis mode: Wavelengths
Number of Pixels in Spectrum: 2048
>>>>>Begin Spectral Data<<<<<
177.721	133.28
178.105	288.31
178.488	-1138.32
178.871	-283.78
179.254	-206.9
179.636	653.57
180.019	12.37
180.402	127.27
180.785	-365.22
181.168	-44.86
181.55	24.66
181.933	32.89
182.316	42.76
182.698	44.18
183.081	3171.43
183.463	101.98
183.846	34.9
184.228	22.02
184.611	-16.72
184.993	-44.63
185.376	-1.93
185.758	-6.74
186.14	-24.87
186.522	-24.1
186.904	-53.25
187.287	-76.9
187.669	-52.4
188.051	-83.07
188.433	-59.63
188.815	-45.62
189.197	-36.27
189.579	-29.5
189.961	-14.98
190.342	-8.09
190.724	-12.56
191.106	-18.89
191.488	-20.01
191.869	-11.32
192.251	-1.67
192.633	-2.87
193.014	5.79
193.396	3.31
193.777	11.4
194.159	3.04
194.54	4.48
194.922	8.99
195.303	5.03
195.684	0.51
196.065	5.31
196.447	-1.01
196.828	-3.5
197.209	-6.15
197.59	-5.81
197.971	-18.7
198.352	-24.3
198.733	-26.76
199.114	-27.04
199.495	-28.6
199.876	-34.34
200.257	-35.63
200.638	-29.11
201.018	-34.49
201.399	-35.97
201.78	-43.6
202.16	-31.86
202.541	-33.86
202.922	-36.13
203.302	-33.77
203.683	-29.16
204.063	-41.78
204.444	-45.34
204.824	-52.28
205.204	-42.6
205.585	-44.44
205.965	-36.6
206.345	-31.45
206.725	-28.55
207.106	-23.31
207.486	-24.67
207.866	-24.47
208.246	-19.06
208.626	-25.43
209.006	-23.81
209.386	-22.06
209.766	-13.74
210.145	-18.91
210.525	-23.77
210.905	-20.94
211.285	-24.52
211.664	-26.41
212.044	-16.46
212.424	-12.09
212.803	-22
213.183	-29.23
213.562	-32.45
213.942	-40.65
214.321	-52.07
214.701	-50.27
215.08	-51.55
215.459	-45.69
215.838	-50.02
216.218	-56.57
216.597	-54.41
216.976	-64.39
217.355	-59.18
217.734	-66.89
218.113	-49.63
218.492	-41.65
218.871	-43.05
219.25	-38.39
219.629	-40.19
220.008	-42.01
220.387	-39.03
220.766	-22.54
221.144	-16.57
221.523	-17.13
221.902	-9.6
222.28	-1.39
222.659	4.42
223.037	2.16
223.416	-1.69
223.794	-3.37
224.173	-6.91
224.551	-8.49
224.929	-11.22
225.308	-9.6
225.686	-8.36
226.064	-15.67
226.442	-14.95
226.821	-10.11
227.199	-7.78
227.577	-7.19
227.955	-4.46
228.333	-5.64
228.711	-6.39
229.089	-7.72
229.467	-6.66
229.845	-10.45
230.222	-7.08
230.6	-8.75
230.978	-6.29
231.356	-2.64
231.733	-0.05
232.111	0.69
232.488	0.52
232.866	2.55
233.243	2.51
233.621	3.21
233.998	3.33
234.376	5.23
234.753	2.3
235.13	1.71
235.508	5.02
235.885	4.89
236.262	4.91
236.639	5.28
237.016	6.79
237.393	6.64
237.77	8.96
238.147	8.12
238.524	7.65
238.901	6.44
239.278	5.59
239.655	5.48
240.032	5.73
240.409	5.22
240.785	4.68
241.162	4.42
241.539	4.22
241.915	4.45
242.292	4.12
242.668	4.63
243.045	4.73
243.421	4.5
243.798	4.31
244.174	4.22
244.551	4.09
244.927	3.99
245.303	3.81
245.679	3.62
246.056	3.62
246.432	3.79
246.808	4.09
247.184	4.27
247.56	3.99
247.936	4
248.312	4.44
248.688	4.52
249.064	4.56
249.44	4.58
249.815	4.65
250.191	4.92
250.567	4.86
250.943	4.71
251.318	4.41
251.694	4.33
252.069	4.56
252.445	4.62
252.82	4.66
253.196	5
253.571	5.2
253.947	5.04
254.322	4.85
254.697	4.71
255.073	4.66
255.448	4.75
255.823	4.84
256.198	4.67
256.573	4.82
256.948	4.85
257.323	4.97
257.698	4.9
258.073	4.5
258.448	4.5
258.823	4.56
259.198	4.55
259.573	4.55
259.948	4.38
260.322	4.36
260.697	4.2
261.072	4.12
261.446	4.27
261.821	4.34
262.195	4.11
262.57	4.09
262.944	4.11
263.319	3.92
263.693	3.67
264.067	3.56
264.442	3.4
264.816	3.34
265.19	3.19
265.564	3
265.938	3.11
266.313	3.16
266.687	3.22
267.061	3.41
267.435	3.51
267.809	3.44
268.183	3.35
268.556	3.45
268.93	3.76
269.304	3.46
269.678	3.64
270.051	3.89
270.425	3.91
270.799	3.75
271.172	3.99
271.546	4.24
271.919	4.42
272.293	4.57
272.666	4.56
273.04	4.61
273.413	4.7
273.787	4.69
274.16	4.48
274.533	4.45
274.906	4.39
275.279	4.33
275.653	4.49
276.026	4.63
276.399	4.63
276.772	4.52
277.145	4.49
277.518	4.32
277.891	4.26
278.263	4.32
278.636	4.46
279.009	4.43
279.382	4.44
279.755	4.36
280.127	4.26
280.5	4.24
280.872	4.06
281.245	3.99
281.617	3.91
281.99	3.97
282.362	3.84
282.735	3.83
283.107	3.89
283.479	3.97
283.852	3.97
284.224	4.04
284.596	4.01
284.968	4.12
285.34	4.17
285.713	4.31
286.085	4.28
286.457	4.21
286.829	4.29
287.201	4.39
287.572	4.44
287.944	4.48
288.316	4.53
288.688	4.69
289.06	4.72
289.431	4.88
289.803	5
290.175	5.03
290.546	5.09
290.918	5.15
291.289	4.94
291.661	5.11
292.032	5
292.403	5.11
292.775	5.25
293.146	5.24
293.517	5.13
293.889	5.01
294.26	5.04
294.631	5.15
295.002	4.97
295.373	4.94
295.744	4.96
296.115	5.03
296.486	5.15
296.857	5.34
297.228	5.27
297.599	5.23
297.97	5.4
298.34	5.44
298.711	5.49
299.082	5.63
299.452	5.5
299.823	5.52
300.194	5.52
300.564	5.44
300.935	5.69
301.305	5.87
301.676	5.98
302.046	6.13
302.416	6.04
302.787	6.24
303.157	6.33
303.527	6.38
303.897	6.26
304.267	6.33
304.637	6.3
305.008	6.41
305.378	6.61
305.748	6.66
306.117	6.75
306.487	6.67
306.857	6.74
307.227	6.85
307.597	7.07
307.967	7.12
308.336	7.21
308.706	7.1
309.076	7.05
309.445	7.25
309.815	7.17
310.184	7.21
310.554	7.19
310.923	7.19
311.293	7.19
311.662	7.34
312.031	7.37
312.401	7.39
312.77	7.44
313.139	7.52
313.508	7.5
313.877	7.6
314.246	7.73
314.616	7.92
314.985	7.92
315.353	7.95
315.722	8.08
316.091	8.1
316.46	8.26
316.829	8.41
317.198	8.36
317.567	8.6
317.935	8.71
318.304	8.77
318.672	8.88
319.041	9.12
319.41	9.25
319.778	9.18
320.147	9.24
320.515	9.26
320.883	9.1
321.252	9.26
321.62	9.16
321.988	9.4
322.357	9.32
322.725	9.65
323.093	9.62
323.461	9.64
323.829	9.74
324.197	9.68
324.565	9.72
324.933	9.86
325.301	9.77
325.669	9.79
326.037	9.95
326.405	10.07
326.772	10.13
327.14	10.03
327.508	10.04
327.875	10.14
328.243	10.29
328.61	10.43
328.978	10.56
329.346	10.73
329.713	10.65
330.08	10.8
330.448	10.6
330.815	10.77
331.182	10.75
331.55	10.82
331.917	10.86
332.284	10.96
332.651	11.01
333.018	11.1
333.385	11.17
333.752	11.17
334.119	11.1
334.486	11.05
334.853	11.1
335.22	11.19
335.587	11.29
335.954	11.24
336.32	11.34
336.687	11.25
337.054	11.19
337.42	11.24
337.787	11.25
338.153	11.32
338.52	11.29
338.886	11.37
339.253	11.26
339.619	11.37
339.986	11.32
340.352	11.35
340.718	11.42
341.084	11.48
341.451	11.39
341.817	11.37
342.183	11.39
342.549	11.53
342.915	11.69
343.281	11.66
343.647	11.67
344.013	11.65
344.379	11.55
344.745	11.66
345.11	11.72
345.476	11.8
345.842	11.78
346.208	11.82
346.573	11.81
346.939	11.92
347.304	11.84
347.67	11.83
348.035	11.77
348.401	11.84
348.766	11.83
349.132	11.77
349.497	11.95
349.862	12.06
350.228	12.07
350.593	11.83
350.958	11.82
351.323	11.86
351.688	11.84
352.053	11.91
352.418	11.82
352.783	11.74
353.148	11.64
353.513	11.71
353.878	11.65
354.243	11.54
354.608	11.55
354.972	11.57
355.337	11.62
355.702	11.62
356.066	11.49
356.431	11.44
356.795	11.44
357.16	11.37
357.524	11.24
357.889	11.1
358.253	11.13
358.618	11.12
358.982	11.06
359.346	11.04
359.71	11.09
360.075	11.04
360.439	11
360.803	11
361.167	10.94
361.531	11.01
361.895	10.99
362.259	10.98
362.623	10.97
362.987	10.84
363.351	10.72
363.714	10.73
364.078	10.71
364.442	10.64
364.806	10.5
365.169	10.49
365.533	10.49
365.896	10.44
366.26	10.36
366.623	10.26
366.987	10.16
367.35	10.04
367.714	10.01
368.077	9.94
368.44	9.89
368.803	9.74
369.167	9.51
369.53	9.44
369.893	9.35
370.256	9.26
370.619	9.21
370.982	9.17
371.345	9.04
371.708	8.96
372.071	8.95
372.434	8.93
372.797	8.86
373.159	8.78
373.522	8.7
373.885	8.65
374.247	8.64
374.61	8.59
374.973	8.57
375.335	8.47
375.698	8.34
376.06	8.2
376.423	8.2
376.785	8.26
377.147	8.25
377.51	8.16
377.872	8.05
378.234	8
378.596	7.99
378.958	7.95
379.321	7.84
379.683	7.81
380.045	7.78
380.407	7.68
380.769	7.62
381.13	7.54
381.492	7.47
381.854	7.38
382.216	7.33
382.578	7.22
382.939	7.15
383.301	7.1
383.663	7.02
384.024	6.94
384.386	6.84
384.747	6.74
385.109	6.71
385.47	6.68
385.832	6.61
386.193	6.51
386.554	6.4
386.916	6.38
387.277	6.29
387.638	6.21
387.999	6.19
388.36	6.12
388.721	6.14
389.082	6.1
389.443	6.08
389.804	6.05
390.165	6
390.526	5.96
390.887	5.93
391.248	5.92
391.609	5.92
391.969	5.84
392.33	5.85
392.691	5.8
393.051	5.78
393.412	5.74
393.772	5.72
394.133	5.69
394.493	5.67
394.854	5.65
395.214	5.62
395.574	5.56
395.935	5.54
396.295	5.48
396.655	5.45
397.015	5.4
397.376	5.3
397.736	5.26
398.096	5.2
398.456	5.18
398.816	5.15
399.176	5.08
399.535	5.05
399.895	4.98
400.255	4.94
400.615	4.88
400.975	4.85
401.334	4.81
401.694	4.79
402.054	4.75
402.413	4.71
402.773	4.68
403.132	4.63
403.492	4.6
403.851	4.53
404.211	4.47
404.57	4.46
404.929	4.45
405.288	4.44
405.648	4.47
406.007	4.45
406.366	4.4
406.725	4.37
407.084	4.35
407.443	4.36
407.802	4.33
408.161	4.33
408.52	4.31
408.879	4.32
409.238	4.33
409.596	4.3
409.955	4.28
410.314	4.25
410.673	4.26
411.031	4.24
411.39	4.24
411.748	4.28
412.107	4.21
412.465	4.23
412.824	4.17
413.182	4.12
413.54	4.08
413.899	4.09
414.257	4.09
414.615	4.08
414.974	4.06
415.332	4.06
415.69	4.04
416.048	4.02
416.406	3.99
416.764	3.97
417.122	3.94
417.48	3.95
417.838	3.93
418.195	3.93
418.553	3.92
418.911	3.9
419.269	3.87
419.626	3.86
419.984	3.85
420.342	3.84
420.699	3.83
421.057	3.84
421.414	3.82
421.772	3.8
422.129	3.78
422.486	3.78
422.844	3.77
423.201	3.77
423.558	3.77
423.915	3.77
424.273	3.77
424.63	3.78
424.987	3.76
425.344	3.75
425.701	3.73
426.058	3.73
426.415	3.72
426.772	3.72
427.128	3.74
427.485	3.71
427.842	3.71
428.199	3.72
428.555	3.71
428.912	3.71
429.269	3.72
429.625	3.71
429.982	3.69
430.338	3.67
430.695	3.65
431.051	3.63
431.407	3.61
431.764	3.59
432.12	3.59
432.476	3.6
432.832	3.61
433.189	3.62
433.545	3.6
433.901	3.59
434.257	3.58
434.613	3.56
434.969	3.57
435.325	3.58
435.681	3.56
436.036	3.55
436.392	3.55
436.748	3.56
437.104	3.56
437.459	3.57
437.815	3.55
438.171	3.54
438.526	3.56
438.882	3.57
439.237	3.55
439.593	3.55
439.948	3.54
440.304	3.53
440.659	3.54
441.014	3.54
441.369	3.54
441.725	3.55
442.08	3.54
442.435	3.55
442.79	3.54
443.145	3.53
443.5	3.54
443.855	3.53
444.21	3.53
444.565	3.53
444.92	3.52
445.275	3.53
445.629	3.53
445.984	3.51
446.339	3.5
446.693	3.48
447.048	3.46
447.403	3.45
447.757	3.43
448.112	3.41
448.466	3.4
448.82	3.38
449.175	3.37
449.529	3.37
449.883	3.36
450.238	3.36
450.592	3.36
450.946	3.34
451.3	3.31
451.654	3.29
452.008	3.28
452.362	3.27
452.716	3.26
453.07	3.26
453.424	3.27
453.778	3.27
454.132	3.28
454.486	3.29
454.839	3.29
455.193	3.3
455.547	3.31
455.9	3.34
456.254	3.34
456.607	3.35
456.961	3.35
457.314	3.33
457.668	3.33
458.021	3.31
458.375	3.31
458.728	3.33
459.081	3.35
459.434	3.35
459.787	3.36
460.141	3.38
460.494	3.38
460.847	3.39
461.2	3.37
461.553	3.4
461.906	3.41
462.259	3.4
462.611	3.42
462.964	3.42
463.317	3.42
463.67	3.44
464.022	3.44
464.375	3.45
464.728	3.46
465.08	3.46
465.433	3.49
465.785	3.51
466.138	3.51
466.49	3.52
466.843	3.53
467.195	3.53
467.547	3.51
467.899	3.5
468.252	3.5
468.604	3.53
468.956	3.52
469.308	3.51
469.66	3.51
470.012	3.52
470.364	3.53
470.716	3.52
471.068	3.53
471.42	3.54
471.772	3.53
472.123	3.55
472.475	3.57
472.827	3.56
473.178	3.59
473.53	3.59
473.882	3.59
474.233	3.59
474.585	3.58
474.936	3.6
475.288	3.62
475.639	3.64
475.99	3.61
476.342	3.63
476.693	3.63
477.044	3.64
477.395	3.62
477.746	3.63
478.097	3.63
478.448	3.61
478.8	3.59
479.15	3.59
479.501	3.58
479.852	3.56
480.203	3.56
480.554	3.55
480.905	3.54
481.255	3.53
481.606	3.52
481.957	3.53
482.307	3.52
482.658	3.53
483.009	3.53
483.359	3.53
483.709	3.53
484.06	3.54
484.41	3.54
484.761	3.55
485.111	3.53
485.461	3.52
485.811	3.53
486.162	3.53
486.512	3.54
486.862	3.54
487.212	3.55
487.562	3.55
487.912	3.56
488.262	3.56
488.612	3.56
488.961	3.56
489.311	3.55
489.661	3.55
490.011	3.55
490.36	3.55
490.71	3.56
491.06	3.56
491.409	3.56
491.759	3.56
492.108	3.56
492.458	3.57
492.807	3.6
493.157	3.61
493.506	3.63
493.855	3.63
494.204	3.64
494.554	3.64
494.903	3.65
495.252	3.66
495.601	3.68
495.95	3.7
496.299	3.73
496.648	3.78
496.997	3.79
497.346	3.82
497.695	3.84
498.043	3.87
498.392	3.89
498.741	3.93
499.09	3.97
499.438	4.01
499.787	4.03
500.135	4.04
500.484	4.08
500.832	4.09
501.181	4.14
501.529	4.2
501.878	4.24
502.226	4.31
502.574	4.36
502.923	4.41
503.271	4.44
503.619	4.51
503.967	4.54
504.315	4.61
504.663	4.66
505.011	4.72
505.359	4.76
505.707	4.82
506.055	4.86
506.403	4.91
506.751	4.96
507.098	5.04
507.446	5.12
507.794	5.18
508.141	5.26
508.489	5.31
508.837	5.36
509.184	5.43
509.531	5.49
509.879	5.56
510.226	5.62
510.574	5.71
510.921	5.77
511.268	5.85
511.616	5.93
511.963	5.99
512.31	6.05
512.657	6.14
513.004	6.24
513.351	6.34
513.698	6.45
514.045	6.54
514.392	6.64
514.739	6.74
515.086	6.86
515.432	6.96
515.779	7.08
516.126	7.2
516.473	7.31
516.819	7.42
517.166	7.51
517.512	7.62
517.859	7.72
518.205	7.8
518.552	7.89
518.898	7.98
519.245	8.07
519.591	8.18
519.937	8.28
520.283	8.36
520.629	8.47
520.976	8.56
521.322	8.69
521.668	8.82
522.014	8.92
522.36	9.07
522.706	9.21
523.052	9.32
523.398	9.47
523.743	9.64
524.089	9.78
524.435	9.95
524.781	10.12
525.126	10.26
525.472	10.41
525.817	10.56
526.163	10.67
526.509	10.8
526.854	10.91
527.199	11.03
527.545	11.14
527.89	11.23
528.235	11.34
528.581	11.43
528.926	11.53
529.271	11.64
529.616	11.74
529.961	11.85
530.306	11.98
530.651	12.1
530.996	12.22
531.341	12.36
531.686	12.48
532.031	12.59
532.376	12.75
532.721	12.87
533.065	12.99
533.41	13.14
533.755	13.28
534.099	13.42
534.444	13.56
534.788	13.7
535.133	13.88
535.477	14.04
535.822	14.21
536.166	14.4
536.51	14.6
536.855	14.79
537.199	14.99
537.543	15.21
537.887	15.4
538.231	15.62
538.576	15.85
538.92	16.05
539.264	16.29
539.608	16.46
539.951	16.67
540.295	16.89
540.639	17.08
540.983	17.28
541.327	17.46
541.671	17.66
542.014	17.84
542.358	18.02
542.701	18.19
543.045	18.39
543.389	18.59
543.732	18.76
544.075	18.95
544.419	19.16
544.762	19.36
545.105	19.6
545.449	19.81
545.792	20.04
546.135	20.31
546.478	20.56
546.821	20.85
547.165	21.13
547.508	21.4
547.851	21.69
548.194	21.97
548.536	22.3
548.879	22.55
549.222	22.85
549.565	23.18
549.908	23.52
550.25	23.8
550.593	24.08
550.936	24.41
551.278	24.76
551.621	25.08
551.963	25.45
552.306	25.76
552.648	26.11
552.991	26.42
553.333	26.77
553.675	27.06
554.017	27.36
554.36	27.66
554.702	28
555.044	28.3
555.386	28.6
555.728	28.86
556.07	29.27
556.412	29.65
556.754	29.93
557.096	30.26
557.438	30.63
557.78	30.99
558.121	31.35
558.463	31.65
558.805	32.01
559.147	32.29
559.488	32.6
559.83	32.93
560.171	33.27
560.513	33.58
560.854	33.93
561.196	34.28
561.537	34.65
561.878	34.93
562.22	35.24
562.561	35.6
562.902	35.95
563.243	36.25
563.584	36.55
563.925	36.85
564.266	37.11
564.607	37.42
564.948	37.75
565.289	38
565.63	38.32
565.971	38.6
566.312	38.87
566.653	39.23
566.993	39.5
567.334	39.8
567.675	40.13
568.015	40.41
568.356	40.7
568.696	41
569.037	41.32
569.377	41.57
569.718	41.84
570.058	42.12
570.398	42.4
570.739	42.65
571.079	42.95
571.419	43.27
571.759	43.51
572.099	43.8
572.439	44.13
572.779	44.34
573.119	44.54
573.459	44.84
573.799	45.07
574.139	45.25
574.479	45.45
574.819	45.69
575.158	45.97
575.498	46.19
575.838	46.36
576.177	46.59
576.517	46.91
576.856	47.12
577.196	47.33
577.535	47.5
577.875	47.74
578.214	47.93
578.553	48.17
578.893	48.37
579.232	48.51
579.571	48.7
579.91	48.92
580.25	49.23
580.589	49.43
580.928	49.57
581.267	49.86
581.606	50.05
581.945	50.2
582.283	50.32
582.622	50.57
582.961	50.79
583.3	50.97
583.639	51.06
583.977	51.24
584.316	51.44
584.654	51.73
584.993	51.91
585.332	52.1
585.67	52.31
586.008	52.52
586.347	52.78
586.685	52.9
587.024	53.17
587.362	53.36
587.7	53.52
588.038	53.73
588.376	53.91
588.715	54.05
589.053	54.19
589.391	54.38
589.729	54.51
590.067	54.67
590.404	54.8
590.742	55.02
591.08	55.16
591.418	55.3
591.756	55.39
592.093	55.5
592.431	55.73
592.769	55.85
593.106	56
593.444	56.1
593.781	56.3
594.119	56.46
594.456	56.49
594.793	56.62
595.131	56.76
595.468	56.88
595.805	57.01
596.143	57.06
596.48	57.22
596.817	57.33
597.154	57.41
597.491	57.5
597.828	57.59
598.165	57.68
598.502	57.79
598.839	57.84
599.176	58.01
599.512	58.08
599.849	58.19
600.186	58.23
600.523	58.27
600.859	58.36
601.196	58.39
601.532	58.48
601.869	58.6
602.205	58.69
602.542	58.74
602.878	58.8
603.215	58.99
603.551	58.97
603.887	59
604.223	59.01
604.56	59.08
604.896	59.24
605.232	59.32
605.568	59.38
605.904	59.5
606.24	59.62
606.576	59.66
606.912	59.71
607.248	59.85
607.583	59.94
607.919	60.04
608.255	60.09
608.591	60.2
608.926	60.24
609.262	60.28
609.597	60.36
609.933	60.49
610.268	60.51
610.604	60.6
610.939	60.66
611.275	60.85
611.61	60.92
611.945	60.86
612.281	60.95
612.616	61.11
612.951	61.14
613.286	61.09
613.621	61.11
613.956	61.15
614.291	61.17
614.626	61.19
614.961	61.21
615.296	61.27
615.631	61.31
615.966	61.34
616.3	61.41
616.635	61.51
616.97	61.54
617.304	61.54
617.639	61.59
617.973	61.7
618.308	61.75
618.642	61.83
618.977	61.82
619.311	61.95
619.646	62.02
619.98	62.15
620.314	62.23
620.648	62.27
620.983	62.27
621.317	62.24
621.651	62.32
621.985	62.38
622.319	62.43
622.653	62.44
622.987	62.52
623.321	62.6
623.655	62.62
623.988	62.74
624.322	62.77
624.656	62.69
624.99	62.67
625.323	62.67
625.657	62.72
625.99	62.78
626.324	62.69
626.657	62.6
626.991	62.58
627.324	62.6
627.658	62.67
627.991	62.73
628.324	62.89
628.657	62.98
628.991	63
629.324	63.08
629.657	63.07
629.99	63.07
630.323	63.08
630.656	63.13
630.989	63.06
631.322	63.13
631.655	63.23
631.987	63.3
632.32	63.23
632.653	63.2
632.986	63.24
633.318	63.37
633.651	63.43
633.984	63.52
634.316	63.57
634.649	63.6
634.981	63.69
635.313	63.62
635.646	63.59
635.978	63.56
636.31	63.62
636.643	63.66
636.975	63.64
637.307	63.66
637.639	63.62
637.971	63.63
638.303	63.55
638.635	63.67
638.967	63.63
639.299	63.73
639.631	63.8
639.963	63.89
640.295	63.9
640.626	64.01
640.958	63.88
641.29	63.92
641.621	63.98
641.953	63.94
642.285	63.89
642.616	64.01
642.948	64.07
643.279	64.04
643.61	64.08
643.942	64.2
644.273	64.24
644.604	64.36
644.936	64.46
645.267	64.58
645.598	64.61
645.929	64.69
646.26	64.74
646.591	64.69
646.922	64.71
647.253	64.7
647.584	64.66
647.915	64.81
648.245	64.84
648.576	64.87
648.907	64.85
649.238	64.97
649.568	64.99
649.899	65.01
650.229	64.96
650.56	65
650.89	64.96
651.221	65.02
651.551	65.02
651.882	64.85
652.212	64.92
652.542	64.91
652.872	65.02
653.203	65.11
653.533	65.18
653.863	65.16
654.193	65.16
654.523	65.26
654.853	65.28
655.183	65.19
655.513	65.17
655.843	65.29
656.172	65.3
656.502	65.23
656.832	65.24
657.162	65.28
657.491	65.37
657.821	65.47
658.15	65.4
658.48	65.44
658.809	65.55
659.139	65.54
659.468	65.5
659.798	65.39
660.127	65.39
660.456	65.4
660.785	65.44
661.115	65.43
661.444	65.3
661.773	65.29
662.102	65.44
662.431	65.38
662.76	65.38
663.089	65.39
663.418	65.51
663.747	65.54
664.076	65.54
664.404	65.56
664.733	65.57
665.062	65.51
665.39	65.6
665.719	65.51
666.048	65.5
