Data from BU57650_Reflection_00003.txt Node
Date: Tue Nov 19 11:01:13 EST 2019
User: vgr7
Spectrometer: USB2G7710
Scans to average: 3
Trigger mode: 4
Integration Time (sec): 2.000000E-2
Electric dark correction enabled: true
Boxcar width: 10
XAxis mode: Wavelengths
Number of Pixels in Spectrum: 2048
>>>>>Begin Spectral Data<<<<<
177.721	67.92
178.105	125.97
178.488	6.54
178.871	-91.89
179.254	-141.38
179.636	617.86
180.019	-384.54
180.402	154.55
180.785	4.35
181.168	-35.51
181.55	-9.59
181.933	90.55
182.316	63.28
182.698	38.24
183.081	242.86
183.463	-97.63
183.846	27.98
184.228	109.17
184.611	-143.9
184.993	4.13
185.376	-7.54
185.758	3.2
186.14	-0.52
186.522	-33.88
186.904	-11.24
187.287	10.55
187.669	-0.44
188.051	-20.93
188.433	-37.51
188.815	-31.21
189.197	-30.06
189.579	-25.19
189.961	-4.31
190.342	-8.28
190.724	-11.64
191.106	-10.17
191.488	-7
191.869	2.66
192.251	-0.8
192.633	3.57
193.014	-0.59
193.396	-0.52
193.777	1.41
194.159	4.78
194.54	14.04
194.922	1.5
195.303	-2.66
195.684	2.08
196.065	11.81
196.447	20.71
196.828	19.7
197.209	28.51
197.59	31.16
197.971	22.91
198.352	24.33
198.733	26.97
199.114	24.25
199.495	26.92
199.876	34
200.257	34.74
200.638	35.22
201.018	32.04
201.399	38.81
201.78	44.01
202.16	35.93
202.541	30.43
202.922	38.49
203.302	52.62
203.683	55.89
204.063	53.19
204.444	56.42
204.824	68.71
205.204	57.72
205.585	55.41
205.965	47.33
206.345	47.58
206.725	31.02
207.106	30.38
207.486	28.97
207.866	17.13
208.246	20.42
208.626	19.89
209.006	22.18
209.386	18.41
209.766	19.08
210.145	26.21
210.525	29.32
210.905	31.7
211.285	30.81
211.664	31.22
212.044	21.39
212.424	16.15
212.803	6.86
213.183	13.67
213.562	16.5
213.942	26.96
214.321	28.28
214.701	30.23
215.08	32.11
215.459	39.72
215.838	40.5
216.218	40.68
216.597	50.14
216.976	63.99
217.355	65.95
217.734	54.19
218.113	57.52
218.492	48.98
218.871	48.4
219.25	43.35
219.629	34.22
220.008	48.77
220.387	46.14
220.766	46.87
221.144	32.53
221.523	29.39
221.902	29.27
222.28	31.1
222.659	32.27
223.037	29.91
223.416	29.26
223.794	31.9
224.173	26.99
224.551	21.59
224.929	13.1
225.308	14.32
225.686	15.73
226.064	9.71
226.442	14.02
226.821	12.38
227.199	15.35
227.577	16.71
227.955	16.18
228.333	15.99
228.711	16.46
229.089	16.61
229.467	16.24
229.845	13.82
230.222	12.29
230.6	14.03
230.978	15.33
231.356	11.27
231.733	10.74
232.111	12.69
232.488	12.21
232.866	14.85
233.243	13.82
233.621	14.32
233.998	14.64
234.376	15.02
234.753	15.7
235.13	13.65
235.508	14.76
235.885	12.65
236.262	11.4
236.639	10.03
237.016	9.66
237.393	9.72
237.77	9.96
238.147	10.47
238.524	10.2
238.901	8.07
239.278	8.09
239.655	7.99
240.032	7.3
240.409	7.44
240.785	6.77
241.162	6.93
241.539	6.42
241.915	6.56
242.292	5.82
242.668	5.19
243.045	5.15
243.421	4.93
243.798	5.11
244.174	5.78
244.551	5.7
244.927	5.85
245.303	5.67
245.679	5.63
246.056	5.42
246.432	5.46
246.808	5.6
247.184	5.79
247.56	5.61
247.936	5.6
248.312	5.55
248.688	5.51
249.064	5.54
249.44	5.42
249.815	5.12
250.191	5.28
250.567	5.73
250.943	5.88
251.318	5.98
251.694	5.81
252.069	5.35
252.445	5.54
252.82	5.75
253.196	5.73
253.571	5.64
253.947	5.61
254.322	5.24
254.697	5.22
255.073	4.84
255.448	5.06
255.823	5.32
256.198	5.4
256.573	5.32
256.948	5.11
257.323	5.35
257.698	5.77
258.073	5.61
258.448	5.31
258.823	5.08
259.198	4.99
259.573	5
259.948	5.11
260.322	5.08
260.697	4.89
261.072	4.96
261.446	4.98
261.821	4.91
262.195	4.91
262.57	4.88
262.944	5.11
263.319	4.97
263.693	4.85
264.067	4.84
264.442	4.85
264.816	4.73
265.19	4.61
265.564	4.33
265.938	4.41
266.313	4.33
266.687	4.28
267.061	4.29
267.435	4.41
267.809	4.4
268.183	4.34
268.556	4.35
268.93	4.27
269.304	4.3
269.678	4.67
270.051	4.64
270.425	4.77
270.799	4.62
271.172	4.77
271.546	4.85
271.919	4.75
272.293	4.89
272.666	4.93
273.04	4.92
273.413	4.79
273.787	4.69
274.16	4.88
274.533	4.98
274.906	4.96
275.279	4.83
275.653	5.01
276.026	5.03
276.399	5.14
276.772	5.23
277.145	5.31
277.518	5.05
277.891	5.1
278.263	5.22
278.636	5.32
279.009	5.26
279.382	5.05
279.755	5.17
280.127	5.03
280.5	5.12
280.872	5.09
281.245	5.4
281.617	5.31
281.99	5.23
282.362	5.04
282.735	4.97
283.107	5.06
283.479	4.86
283.852	4.85
284.224	4.77
284.596	4.62
284.968	4.45
285.34	4.4
285.713	4.28
286.085	4.06
286.457	3.95
286.829	4
287.201	4
287.572	3.92
287.944	4.07
288.316	4.1
288.688	4.18
289.06	4.18
289.431	4.28
289.803	4.34
290.175	4.42
290.546	4.44
290.918	4.43
291.289	4.3
291.661	4.4
292.032	4.3
292.403	4.46
292.775	4.69
293.146	4.71
293.517	4.75
293.889	4.78
294.26	4.83
294.631	4.71
295.002	4.83
295.373	4.81
295.744	4.76
296.115	4.67
296.486	4.61
296.857	4.48
297.228	4.5
297.599	4.34
297.97	4.4
298.34	4.51
298.711	4.54
299.082	4.64
299.452	4.46
299.823	4.55
300.194	4.5
300.564	4.39
300.935	4.37
301.305	4.4
301.676	4.35
302.046	4.29
302.416	4.35
302.787	4.32
303.157	4.36
303.527	4.33
303.897	4.4
304.267	4.36
304.637	4.27
305.008	4.27
305.378	4.34
305.748	4.26
306.117	3.97
306.487	3.91
306.857	3.92
307.227	4.13
307.597	4.03
307.967	4.05
308.336	3.95
308.706	3.89
309.076	3.89
309.445	4.03
309.815	4.11
310.184	4.01
310.554	3.98
310.923	3.83
311.293	3.82
311.662	3.7
312.031	3.83
312.401	3.81
312.77	3.65
313.139	3.62
313.508	3.61
313.877	3.75
314.246	3.66
314.616	3.65
314.985	3.55
315.353	3.63
315.722	3.61
316.091	3.65
316.46	3.68
316.829	3.61
317.198	3.54
317.567	3.58
317.935	3.64
318.304	3.71
318.672	3.94
319.041	3.82
319.41	3.92
319.778	3.89
320.147	3.97
320.515	4.08
320.883	3.99
321.252	4.01
321.62	3.96
321.988	4.09
322.357	4.07
322.725	3.98
323.093	3.88
323.461	3.85
323.829	3.91
324.197	4.07
324.565	4.15
324.933	3.99
325.301	3.87
325.669	3.8
326.037	3.71
326.405	3.64
326.772	3.71
327.14	3.69
327.508	3.55
327.875	3.55
328.243	3.53
328.61	3.62
328.978	3.66
329.346	3.7
329.713	3.69
330.08	3.77
330.448	3.9
330.815	3.84
331.182	3.79
331.55	3.77
331.917	3.55
332.284	3.64
332.651	3.87
333.018	3.98
333.385	4.04
333.752	4.14
334.119	4.17
334.486	4.27
334.853	4.21
335.22	4.25
335.587	4.18
335.954	4.1
336.32	3.99
336.687	4.02
337.054	4.13
337.42	4.09
337.787	3.97
338.153	3.97
338.52	4.08
338.886	4.22
339.253	4.18
339.619	4.21
339.986	4.05
340.352	3.96
340.718	3.91
341.084	3.87
341.451	3.83
341.817	3.9
342.183	3.77
342.549	3.79
342.915	3.68
343.281	3.72
343.647	3.87
344.013	3.91
344.379	3.85
344.745	3.79
345.11	3.86
345.476	3.88
345.842	3.82
346.208	3.77
346.573	3.61
346.939	3.64
347.304	3.7
347.67	3.76
348.035	3.7
348.401	3.71
348.766	3.65
349.132	3.7
349.497	3.65
349.862	3.73
350.228	3.78
350.593	3.84
350.958	3.85
351.323	3.76
351.688	3.83
352.053	3.84
352.418	3.85
352.783	3.78
353.148	3.74
353.513	3.7
353.878	3.67
354.243	3.7
354.608	3.78
354.972	3.76
355.337	3.77
355.702	3.78
356.066	3.69
356.431	3.74
356.795	3.6
357.16	3.54
357.524	3.53
357.889	3.54
358.253	3.53
358.618	3.53
358.982	3.55
359.346	3.51
359.71	3.45
360.075	3.46
360.439	3.5
360.803	3.54
361.167	3.53
361.531	3.53
361.895	3.56
362.259	3.54
362.623	3.52
362.987	3.5
363.351	3.49
363.714	3.55
364.078	3.58
364.442	3.61
364.806	3.61
365.169	3.54
365.533	3.48
365.896	3.51
366.26	3.45
366.623	3.42
366.987	3.46
367.35	3.47
367.714	3.4
368.077	3.4
368.44	3.4
368.803	3.42
369.167	3.46
369.53	3.43
369.893	3.38
370.256	3.38
370.619	3.35
370.982	3.37
371.345	3.36
371.708	3.34
372.071	3.33
372.434	3.3
372.797	3.35
373.159	3.41
373.522	3.36
373.885	3.41
374.247	3.43
374.61	3.44
374.973	3.45
375.335	3.48
375.698	3.43
376.06	3.42
376.423	3.41
376.785	3.42
377.147	3.37
377.51	3.37
377.872	3.36
378.234	3.4
378.596	3.38
378.958	3.38
379.321	3.41
379.683	3.41
380.045	3.4
380.407	3.37
380.769	3.38
381.13	3.39
381.492	3.37
381.854	3.37
382.216	3.35
382.578	3.36
382.939	3.3
383.301	3.3
383.663	3.32
384.024	3.32
384.386	3.31
384.747	3.35
385.109	3.33
385.47	3.33
385.832	3.34
386.193	3.35
386.554	3.28
386.916	3.23
387.277	3.24
387.638	3.27
387.999	3.29
388.36	3.22
388.721	3.25
389.082	3.29
389.443	3.29
389.804	3.32
390.165	3.32
390.526	3.38
390.887	3.39
391.248	3.34
391.609	3.35
391.969	3.34
392.33	3.35
392.691	3.34
393.051	3.35
393.412	3.32
393.772	3.35
394.133	3.38
394.493	3.34
394.854	3.34
395.214	3.3
395.574	3.3
395.935	3.31
396.295	3.32
396.655	3.3
397.015	3.29
397.376	3.25
397.736	3.25
398.096	3.23
398.456	3.21
398.816	3.24
399.176	3.19
399.535	3.17
399.895	3.18
400.255	3.18
400.615	3.17
400.975	3.13
401.334	3.11
401.694	3.11
402.054	3.16
402.413	3.17
402.773	3.21
403.132	3.2
403.492	3.23
403.851	3.23
404.211	3.22
404.57	3.22
404.929	3.19
405.288	3.19
405.648	3.18
406.007	3.17
406.366	3.19
406.725	3.22
407.084	3.23
407.443	3.2
407.802	3.21
408.161	3.22
408.52	3.24
408.879	3.27
409.238	3.28
409.596	3.3
409.955	3.29
410.314	3.3
410.673	3.3
411.031	3.27
411.39	3.24
411.748	3.24
412.107	3.25
412.465	3.25
412.824	3.24
413.182	3.23
413.54	3.24
413.899	3.2
414.257	3.19
414.615	3.19
414.974	3.21
415.332	3.19
415.69	3.19
416.048	3.17
416.406	3.13
416.764	3.12
417.122	3.1
417.48	3.09
417.838	3.08
418.195	3.08
418.553	3.09
418.911	3.08
419.269	3.09
419.626	3.08
419.984	3.09
420.342	3.09
420.699	3.09
421.057	3.09
421.414	3.09
421.772	3.1
422.129	3.09
422.486	3.08
422.844	3.08
423.201	3.08
423.558	3.09
423.915	3.1
424.273	3.11
424.63	3.12
424.987	3.1
425.344	3.1
425.701	3.11
426.058	3.12
426.415	3.12
426.772	3.12
427.128	3.12
427.485	3.13
427.842	3.13
428.199	3.13
428.555	3.11
428.912	3.12
429.269	3.12
429.625	3.13
429.982	3.13
430.338	3.15
430.695	3.15
431.051	3.13
431.407	3.13
431.764	3.1
432.12	3.09
432.476	3.12
432.832	3.13
433.189	3.12
433.545	3.09
433.901	3.09
434.257	3.08
434.613	3.07
434.969	3.06
435.325	3.07
435.681	3.09
436.036	3.1
436.392	3.09
436.748	3.08
437.104	3.06
437.459	3.05
437.815	3.04
438.171	3.03
438.526	3.02
438.882	3.03
439.237	3.04
439.593	3.03
439.948	3.03
440.304	3.03
440.659	3.02
441.014	3.02
441.369	3.03
441.725	3.02
442.08	3.03
442.435	3.03
442.79	3.04
443.145	3.02
443.5	3.03
443.855	3.03
444.21	3.05
444.565	3.06
444.92	3.06
445.275	3.07
445.629	3.09
445.984	3.1
446.339	3.08
446.693	3.08
447.048	3.07
447.403	3.05
447.757	3.05
448.112	3.05
448.466	3.06
448.82	3.06
449.175	3.06
449.529	3.06
449.883	3.07
450.238	3.05
450.592	3.05
450.946	3.04
451.3	3.03
451.654	3
452.008	2.99
452.362	2.99
452.716	2.98
453.07	2.96
453.424	2.96
453.778	2.96
454.132	2.95
454.486	2.95
454.839	2.98
455.193	2.98
455.547	2.97
455.9	2.98
456.254	2.99
456.607	3
456.961	2.98
457.314	2.98
457.668	3
458.021	3.01
458.375	3
458.728	2.99
459.081	3.01
459.434	3.02
459.787	3.03
460.141	3.03
460.494	3.05
460.847	3.05
461.2	3.07
461.553	3.09
461.906	3.12
462.259	3.1
462.611	3.11
462.964	3.12
463.317	3.13
463.67	3.13
464.022	3.11
464.375	3.11
464.728	3.11
465.08	3.11
465.433	3.12
465.785	3.13
466.138	3.16
466.49	3.15
466.843	3.18
467.195	3.18
467.547	3.17
467.899	3.17
468.252	3.18
468.604	3.15
468.956	3.15
469.308	3.13
469.66	3.15
470.012	3.14
470.364	3.15
470.716	3.16
471.068	3.15
471.42	3.16
471.772	3.18
472.123	3.17
472.475	3.15
472.827	3.16
473.178	3.18
473.53	3.18
473.882	3.18
474.233	3.18
474.585	3.18
474.936	3.2
475.288	3.19
475.639	3.19
475.99	3.19
476.342	3.22
476.693	3.21
477.044	3.2
477.395	3.22
477.746	3.2
478.097	3.19
478.448	3.18
478.8	3.19
479.15	3.16
479.501	3.16
479.852	3.16
480.203	3.14
480.554	3.13
480.905	3.12
481.255	3.13
481.606	3.12
481.957	3.12
482.307	3.1
482.658	3.11
483.009	3.11
483.359	3.11
483.709	3.1
484.06	3.1
484.41	3.1
484.761	3.1
485.111	3.1
485.461	3.11
485.811	3.11
486.162	3.1
486.512	3.11
486.862	3.1
487.212	3.11
487.562	3.11
487.912	3.11
488.262	3.11
488.612	3.1
488.961	3.1
489.311	3.1
489.661	3.1
490.011	3.09
490.36	3.09
490.71	3.09
491.06	3.09
491.409	3.1
491.759	3.11
492.108	3.11
492.458	3.09
492.807	3.07
493.157	3.09
493.506	3.11
493.855	3.12
494.204	3.13
494.554	3.14
494.903	3.14
495.252	3.16
495.601	3.18
495.95	3.19
496.299	3.2
496.648	3.21
496.997	3.22
497.346	3.24
497.695	3.25
498.043	3.26
498.392	3.26
498.741	3.25
499.09	3.25
499.438	3.26
499.787	3.26
500.135	3.26
500.484	3.24
500.832	3.23
501.181	3.24
501.529	3.25
501.878	3.25
502.226	3.26
502.574	3.24
502.923	3.22
503.271	3.2
503.619	3.22
503.967	3.23
504.315	3.22
504.663	3.2
505.011	3.18
505.359	3.18
505.707	3.18
506.055	3.19
506.403	3.18
506.751	3.17
507.098	3.2
507.446	3.21
507.794	3.22
508.141	3.23
508.489	3.2
508.837	3.17
509.184	3.16
509.531	3.16
509.879	3.16
510.226	3.15
510.574	3.16
510.921	3.16
511.268	3.16
511.616	3.16
511.963	3.19
512.31	3.2
512.657	3.2
513.004	3.18
513.351	3.18
513.698	3.17
514.045	3.2
514.392	3.19
514.739	3.2
515.086	3.21
515.432	3.22
515.779	3.22
516.126	3.24
516.473	3.24
516.819	3.25
517.166	3.27
517.512	3.28
517.859	3.29
518.205	3.29
518.552	3.29
518.898	3.29
519.245	3.27
519.591	3.27
519.937	3.27
520.283	3.28
520.629	3.27
520.976	3.29
521.322	3.27
521.668	3.25
522.014	3.27
522.36	3.25
522.706	3.25
523.052	3.26
523.398	3.25
523.743	3.25
524.089	3.25
524.435	3.25
524.781	3.26
525.126	3.24
525.472	3.24
525.817	3.25
526.163	3.26
526.509	3.26
526.854	3.27
527.199	3.26
527.545	3.27
527.89	3.29
528.235	3.28
528.581	3.27
528.926	3.28
529.271	3.28
529.616	3.29
529.961	3.28
530.306	3.27
530.651	3.27
530.996	3.28
531.341	3.29
531.686	3.3
532.031	3.31
532.376	3.32
532.721	3.31
533.065	3.31
533.41	3.3
533.755	3.31
534.099	3.31
534.444	3.31
534.788	3.32
535.133	3.32
535.477	3.33
535.822	3.33
536.166	3.34
536.51	3.34
536.855	3.33
537.199	3.34
537.543	3.36
537.887	3.36
538.231	3.35
538.576	3.33
538.92	3.31
539.264	3.32
539.608	3.29
539.951	3.28
540.295	3.29
540.639	3.29
540.983	3.31
541.327	3.31
541.671	3.31
542.014	3.31
542.358	3.31
542.701	3.31
543.045	3.3
543.389	3.3
543.732	3.3
544.075	3.31
544.419	3.31
544.762	3.3
545.105	3.31
545.449	3.32
545.792	3.32
546.135	3.33
546.478	3.32
546.821	3.35
547.165	3.37
547.508	3.38
547.851	3.38
548.194	3.32
548.536	3.32
548.879	3.33
549.222	3.33
549.565	3.34
549.908	3.35
550.25	3.35
550.593	3.36
550.936	3.34
551.278	3.34
551.621	3.34
551.963	3.32
552.306	3.31
552.648	3.31
552.991	3.3
553.333	3.3
553.675	3.31
554.017	3.3
554.36	3.31
554.702	3.32
555.044	3.32
555.386	3.33
555.728	3.33
556.07	3.31
556.412	3.29
556.754	3.27
557.096	3.25
557.438	3.28
557.78	3.31
558.121	3.33
558.463	3.31
558.805	3.32
559.147	3.36
559.488	3.36
559.83	3.37
560.171	3.35
560.513	3.37
560.854	3.35
561.196	3.36
561.537	3.36
561.878	3.35
562.22	3.37
562.561	3.39
562.902	3.42
563.243	3.4
563.584	3.4
563.925	3.43
564.266	3.43
564.607	3.43
564.948	3.4
565.289	3.43
565.63	3.42
565.971	3.4
566.312	3.37
566.653	3.38
566.993	3.39
567.334	3.42
567.675	3.44
568.015	3.43
568.356	3.42
568.696	3.41
569.037	3.42
569.377	3.4
569.718	3.4
570.058	3.37
570.398	3.41
570.739	3.42
571.079	3.41
571.419	3.44
571.759	3.43
572.099	3.44
572.439	3.41
572.779	3.42
573.119	3.43
573.459	3.43
573.799	3.43
574.139	3.42
574.479	3.42
574.819	3.41
575.158	3.41
575.498	3.41
575.838	3.44
576.177	3.41
576.517	3.43
576.856	3.43
577.196	3.48
577.535	3.45
577.875	3.45
578.214	3.44
578.553	3.42
578.893	3.44
579.232	3.41
579.571	3.42
579.91	3.42
580.25	3.4
580.589	3.39
580.928	3.37
581.267	3.39
581.606	3.38
581.945	3.35
582.283	3.37
582.622	3.37
582.961	3.38
583.3	3.4
583.639	3.39
583.977	3.38
584.316	3.37
584.654	3.37
584.993	3.38
585.332	3.39
585.67	3.4
586.008	3.39
586.347	3.4
586.685	3.4
587.024	3.44
587.362	3.45
587.7	3.46
588.038	3.49
588.376	3.47
588.715	3.45
589.053	3.47
589.391	3.47
589.729	3.45
590.067	3.43
590.404	3.45
590.742	3.46
591.08	3.49
591.418	3.46
591.756	3.51
592.093	3.5
592.431	3.52
592.769	3.52
593.106	3.5
593.444	3.51
593.781	3.52
594.119	3.49
594.456	3.49
594.793	3.5
595.131	3.47
595.468	3.5
595.805	3.52
596.143	3.54
596.48	3.53
596.817	3.53
597.154	3.55
597.491	3.52
597.828	3.51
598.165	3.48
598.502	3.48
598.839	3.45
599.176	3.43
599.512	3.43
599.849	3.43
600.186	3.44
600.523	3.39
600.859	3.36
601.196	3.38
601.532	3.37
601.869	3.39
602.205	3.4
602.542	3.39
602.878	3.39
603.215	3.38
603.551	3.37
603.887	3.37
604.223	3.37
604.56	3.35
604.896	3.39
605.232	3.4
605.568	3.39
605.904	3.38
606.24	3.4
606.576	3.38
606.912	3.39
607.248	3.41
607.583	3.48
607.919	3.52
608.255	3.51
608.591	3.53
608.926	3.5
609.262	3.47
609.597	3.46
609.933	3.48
610.268	3.47
610.604	3.46
610.939	3.49
611.275	3.49
611.61	3.52
611.945	3.46
612.281	3.5
612.616	3.52
612.951	3.57
613.286	3.54
613.621	3.59
613.956	3.59
614.291	3.59
614.626	3.55
614.961	3.55
615.296	3.57
615.631	3.57
615.966	3.59
616.3	3.64
616.635	3.64
616.97	3.6
617.304	3.63
617.639	3.69
617.973	3.66
618.308	3.64
618.642	3.69
618.977	3.72
619.311	3.71
619.646	3.7
619.98	3.69
620.314	3.67
620.648	3.66
620.983	3.65
621.317	3.66
621.651	3.66
621.985	3.64
622.319	3.61
622.653	3.65
622.987	3.68
623.321	3.67
623.655	3.65
623.988	3.68
624.322	3.68
624.656	3.67
624.99	3.69
625.323	3.69
625.657	3.66
625.99	3.68
626.324	3.65
626.657	3.64
626.991	3.63
627.324	3.68
627.658	3.66
627.991	3.7
628.324	3.7
628.657	3.72
628.991	3.69
629.324	3.72
629.657	3.71
629.99	3.72
630.323	3.71
630.656	3.75
630.989	3.75
631.322	3.73
631.655	3.71
631.987	3.73
632.32	3.75
632.653	3.73
632.986	3.68
633.318	3.71
633.651	3.69
633.984	3.71
634.316	3.68
634.649	3.67
634.981	3.61
635.313	3.6
635.646	3.62
635.978	3.7
636.31	3.71
636.643	3.71
636.975	3.69
637.307	3.68
637.639	3.71
637.971	3.71
638.303	3.71
638.635	3.76
638.967	3.75
639.299	3.74
639.631	3.79
639.963	3.85
640.295	3.84
640.626	3.91
640.958	3.88
641.29	3.91
641.621	3.94
641.953	3.87
642.285	3.89
642.616	3.86
642.948	3.82
643.279	3.76
643.61	3.75
643.942	3.79
644.273	3.8
644.604	3.77
644.936	3.78
645.267	3.82
645.598	3.8
645.929	3.8
646.26	3.84
646.591	3.83
646.922	3.82
647.253	3.82
647.584	3.8
647.915	3.83
648.245	3.86
648.576	3.9
648.907	4.05
649.238	4
649.568	4.02
649.899	4.02
650.229	4.09
650.56	4.05
650.89	4.04
651.221	4.03
651.551	4.09
651.882	4.07
652.212	4.07
652.542	4.1
652.872	4.05
653.203	4.06
653.533	4.12
653.863	4.16
654.193	4.12
654.523	4.06
654.853	4.09
655.183	4.09
655.513	4.07
655.843	4.04
656.172	4.02
656.502	3.98
656.832	3.97
657.162	3.92
657.491	3.95
657.821	3.93
658.15	3.94
658.48	3.94
658.809	3.96
659.139	3.96
659.468	3.92
659.798	3.95
660.127	3.89
660.456	3.87
660.785	3.83
661.115	3.87
661.444	3.96
661.773	3.92
662.102	3.89
662.431	3.91
662.76	3.94
663.089	4.06
663.418	4.1
663.747	4.11
664.076	4.16
664.404	4.19
664.733	4.18
665.062	4.18
665.39	4.2
665.719	4.2
666.048	4.15
666.376	4.13
666.705	4.11
667.033	4.13
667.362	4.03
667.69	4.08
668.018	4.1
668.347	3.98
668.675	4.01
669.003	3.99
669.331	4
669.659	3.95
669.987	3.91
670.315	3.92
670.643	3.93
670.971	3.95
671.299	3.96
671.627	4.01
671.955	4.01
672.283	3.94
672.61	4
672.938	4.02
673.266	4.06
673.593	4.07
673.921	4.07
674.249	4.12
674.576	4.14
674.904	4.09
675.231	4.15
675.558	4.12
675.886	4.17
676.213	4.1
676.54	4.16
676.867	4.11
677.195	4.1
677.522	4.09
677.849	4.08
678.176	4.02
678.503	4.03
678.83	4.07
679.157	4.04
679.484	4
679.81	4.07
680.137	4.1
680.464	4.15
