Data from BU57648_Reflection_00009.txt Node
Date: Tue Nov 19 10:46:45 EST 2019
User: vgr7
Spectrometer: USB2G7710
Scans to average: 3
Trigger mode: 4
Integration Time (sec): 2.000000E-2
Electric dark correction enabled: true
Boxcar width: 10
XAxis mode: Wavelengths
Number of Pixels in Spectrum: 2048
>>>>>Begin Spectral Data<<<<<
177.721	-22.79
178.105	-72.84
178.488	-73.12
178.871	-25.69
179.254	1.11
179.636	49.07
180.019	-1.5
180.402	50
180.785	57.22
181.168	-36.57
181.55	-189.22
181.933	-5.65
182.316	2.78
182.698	-17.23
183.081	34.74
183.463	-12.54
183.846	-77.58
184.228	-113.54
184.611	-13.22
184.993	-5.24
185.376	-12.28
185.758	-8.63
186.14	-37.7
186.522	-42.5
186.904	-26.49
187.287	-15.9
187.669	-6.97
188.051	-20.15
188.433	-28.12
188.815	-43.19
189.197	-23.6
189.579	-30.71
189.961	-57.6
190.342	-80.56
190.724	-87.38
191.106	-66.28
191.488	-54.46
191.869	-62.83
192.251	-62.39
192.633	-87.41
193.014	-94.57
193.396	-141.58
193.777	-101.52
194.159	-72.62
194.54	-63.7
194.922	-83.04
195.303	-112.68
195.684	-103.23
196.065	-117.69
196.447	-98.57
196.828	-120.14
197.209	-101.97
197.59	-89.28
197.971	-84.95
198.352	-84.68
198.733	-95.59
199.114	-109.09
199.495	-94.35
199.876	-93.32
200.257	-127.7
200.638	-122.8
201.018	-122.11
201.399	-89.66
201.78	-107.08
202.16	-121.39
202.541	-119.48
202.922	-94.53
203.302	-100.06
203.683	-105.25
204.063	-101.41
204.444	-79.81
204.824	-78.76
205.204	-83.23
205.585	-84.83
205.965	-100.47
206.345	-78.66
206.725	-58.36
207.106	-56.63
207.486	-60.73
207.866	-38.63
208.246	-11.32
208.626	-28.66
209.006	-24.77
209.386	-24.35
209.766	-20.76
210.145	-10.77
210.525	-20.08
210.905	-32.65
211.285	-20.88
211.664	-8.06
212.044	-1.02
212.424	-8.28
212.803	-0.71
213.183	-11.67
213.562	-7.44
213.942	2.08
214.321	-18.74
214.701	-23.96
215.08	-36.68
215.459	-17.31
215.838	-43.7
216.218	-85.47
216.597	-50.19
216.976	-63.47
217.355	-57.8
217.734	-59.05
218.113	-53.12
218.492	-37.78
218.871	-46.72
219.25	-51.43
219.629	-56.48
220.008	-59.54
220.387	-74.03
220.766	-70.8
221.144	-42.03
221.523	-55.11
221.902	-61.23
222.28	-27.93
222.659	-3.78
223.037	4.79
223.416	-1.11
223.794	17.93
224.173	20.66
224.551	31.43
224.929	15.82
225.308	13.97
225.686	7.55
226.064	-1.35
226.442	-5.7
226.821	0.69
227.199	2.9
227.577	-0.21
227.955	1.84
228.333	-0.01
228.711	0.37
229.089	1.36
229.467	0.89
229.845	2.12
230.222	0.74
230.6	-3.39
230.978	-3.79
231.356	-2.82
231.733	-2.25
232.111	-0.77
232.488	-0.39
232.866	1.42
233.243	3.58
233.621	4.99
233.998	6.78
234.376	6.7
234.753	7.8
235.13	6.04
235.508	7.26
235.885	5.48
236.262	4.97
236.639	2.63
237.016	1.48
237.393	2.8
237.77	3.41
238.147	3.86
238.524	4.8
238.901	5.13
239.278	4.43
239.655	4.07
240.032	4.09
240.409	3.66
240.785	3.58
241.162	2.91
241.539	2.59
241.915	3.02
242.292	3.49
242.668	3.14
243.045	4
243.421	4.74
243.798	4.83
244.174	5.12
244.551	5.59
244.927	5.51
245.303	5.47
245.679	5.33
246.056	5.19
246.432	5.33
246.808	5.46
247.184	5.77
247.56	5.87
247.936	6.11
248.312	5.94
248.688	6.09
249.064	6.33
249.44	6.2
249.815	6.17
250.191	6.24
250.567	6.37
250.943	6.13
251.318	5.9
251.694	5.77
252.069	5.67
252.445	5.93
252.82	6.4
253.196	6.28
253.571	6.51
253.947	6.55
254.322	6.49
254.697	6.51
255.073	6.06
255.448	5.81
255.823	5.51
256.198	5.45
256.573	5.48
256.948	5.64
257.323	5.93
257.698	5.93
258.073	5.77
258.448	5.71
258.823	5.73
259.198	5.67
259.573	5.42
259.948	5.35
260.322	5.19
260.697	5.01
261.072	5.08
261.446	5.06
261.821	5.23
262.195	5.23
262.57	5.17
262.944	5.23
263.319	5.35
263.693	5.46
264.067	5.53
264.442	5.4
264.816	5.25
265.19	5.25
265.564	5.35
265.938	5.17
266.313	5.07
266.687	4.84
267.061	4.92
267.435	5.5
267.809	5.54
268.183	5.36
268.556	5.27
268.93	5.36
269.304	5.03
269.678	4.8
270.051	4.55
270.425	4.54
270.799	4.24
271.172	4.18
271.546	4.09
271.919	4.06
272.293	4.16
272.666	4.16
273.04	3.95
273.413	3.84
273.787	4
274.16	4.05
274.533	4.2
274.906	4.11
275.279	3.85
275.653	3.89
276.026	3.94
276.399	3.99
276.772	3.78
277.145	3.96
277.518	4.14
277.891	4.39
278.263	4.53
278.636	4.91
279.009	4.84
279.382	4.73
279.755	4.8
280.127	4.83
280.5	4.85
280.872	4.91
281.245	4.87
281.617	4.74
281.99	4.73
282.362	4.67
282.735	4.63
283.107	4.75
283.479	4.84
283.852	4.85
284.224	4.86
284.596	4.96
284.968	4.96
285.34	4.85
285.713	4.84
286.085	4.75
286.457	4.78
286.829	4.86
287.201	4.95
287.572	4.96
287.944	5.02
288.316	5
288.688	5.16
289.06	5.19
289.431	5.37
289.803	5.4
290.175	5.5
290.546	5.7
290.918	5.77
291.289	5.78
291.661	5.72
292.032	5.73
292.403	5.76
292.775	6.01
293.146	6.22
293.517	6.29
293.889	6.35
294.26	6.43
294.631	6.47
295.002	6.57
295.373	6.71
295.744	6.72
296.115	6.91
296.486	6.94
296.857	7.13
297.228	7.11
297.599	7.17
297.97	7.3
298.34	7.3
298.711	7.31
299.082	7.54
299.452	7.69
299.823	7.81
300.194	7.88
300.564	7.86
300.935	7.97
301.305	8.09
301.676	8.17
302.046	8.24
302.416	8.51
302.787	8.62
303.157	8.7
303.527	9.08
303.897	9.19
304.267	9.35
304.637	9.33
305.008	9.54
305.378	9.82
305.748	9.86
306.117	9.81
306.487	10.04
306.857	9.99
307.227	10.22
307.597	10.33
307.967	10.48
308.336	10.6
308.706	10.55
309.076	10.7
309.445	10.93
309.815	11.13
310.184	11.25
310.554	11.35
310.923	11.34
311.293	11.24
311.662	11.32
312.031	11.27
312.401	11.37
312.77	11.45
313.139	11.46
313.508	11.61
313.877	11.85
314.246	12.04
314.616	12.19
314.985	12.27
315.353	12.49
315.722	12.7
316.091	12.8
316.46	12.86
316.829	12.9
317.198	12.95
317.567	13.14
317.935	12.91
318.304	13.1
318.672	13.35
319.041	13.46
319.41	13.49
319.778	13.79
320.147	13.98
320.515	14.16
320.883	14.28
321.252	14.27
321.62	14.4
321.988	14.31
322.357	14.3
322.725	14.38
323.093	14.56
323.461	14.7
323.829	14.84
324.197	15.27
324.565	15.3
324.933	15.25
325.301	15.1
325.669	15.4
326.037	15.35
326.405	15.32
326.772	15.47
327.14	15.55
327.508	15.57
327.875	15.64
328.243	15.6
328.61	15.8
328.978	16.05
329.346	16.08
329.713	16.23
330.08	16.37
330.448	16.55
330.815	16.67
331.182	16.55
331.55	16.56
331.917	16.42
332.284	16.53
332.651	16.71
333.018	16.79
333.385	16.89
333.752	16.96
334.119	17.33
334.486	17.36
334.853	17.42
335.22	17.5
335.587	17.57
335.954	17.61
336.32	17.49
336.687	17.43
337.054	17.44
337.42	17.47
337.787	17.5
338.153	17.62
338.52	17.55
338.886	17.63
339.253	17.67
339.619	17.84
339.986	17.9
340.352	17.94
340.718	18.04
341.084	18
341.451	18.13
341.817	18.01
342.183	17.96
342.549	18.11
342.915	18.16
343.281	18.27
343.647	18.33
344.013	18.49
344.379	18.55
344.745	18.7
345.11	18.78
345.476	18.89
345.842	18.75
346.208	18.77
346.573	18.87
346.939	18.89
347.304	19.01
347.67	19.06
348.035	19.02
348.401	19
348.766	18.98
349.132	18.91
349.497	18.87
349.862	18.95
350.228	18.82
350.593	18.91
350.958	18.78
351.323	18.91
351.688	18.87
352.053	18.89
352.418	18.86
352.783	18.84
353.148	18.75
353.513	18.85
353.878	18.81
354.243	18.62
354.608	18.63
354.972	18.38
355.337	18.39
355.702	18.36
356.066	18.41
356.431	18.42
356.795	18.39
357.16	18.35
357.524	18.26
357.889	18.24
358.253	18.1
358.618	18.07
358.982	17.96
359.346	17.96
359.71	17.85
360.075	17.71
360.439	17.73
360.803	17.73
361.167	17.55
361.531	17.52
361.895	17.45
362.259	17.43
362.623	17.42
362.987	17.29
363.351	17.27
363.714	17.24
364.078	17.23
364.442	17.14
364.806	17.11
365.169	17.05
365.533	17.02
365.896	16.91
366.26	16.89
366.623	16.77
366.987	16.66
367.35	16.67
367.714	16.72
368.077	16.5
368.44	16.41
368.803	16.43
369.167	16.37
369.53	16.35
369.893	16.27
370.256	16.05
370.619	15.97
370.982	15.82
371.345	15.75
371.708	15.53
372.071	15.44
372.434	15.29
372.797	15.24
373.159	15.1
373.522	14.97
373.885	14.85
374.247	14.76
374.61	14.62
374.973	14.43
375.335	14.25
375.698	14.16
376.06	14.03
376.423	13.83
376.785	13.72
377.147	13.6
377.51	13.51
377.872	13.54
378.234	13.45
378.596	13.38
378.958	13.23
379.321	13.18
379.683	13.1
380.045	13.02
380.407	12.9
380.769	12.77
381.13	12.64
381.492	12.54
381.854	12.41
382.216	12.34
382.578	12.25
382.939	12.17
383.301	12.09
383.663	11.97
384.024	11.87
384.386	11.75
384.747	11.73
385.109	11.6
385.47	11.54
385.832	11.46
386.193	11.35
386.554	11.18
386.916	11.12
387.277	11.04
387.638	10.94
387.999	10.82
388.36	10.76
388.721	10.74
389.082	10.69
389.443	10.64
389.804	10.54
390.165	10.45
390.526	10.33
390.887	10.22
391.248	10.12
391.609	10.08
391.969	10
392.33	9.9
392.691	9.82
393.051	9.72
393.412	9.64
393.772	9.58
394.133	9.53
394.493	9.39
394.854	9.28
395.214	9.2
395.574	9.09
395.935	9.03
396.295	8.96
396.655	8.81
397.015	8.73
397.376	8.6
397.736	8.49
398.096	8.43
398.456	8.33
398.816	8.24
399.176	8.14
399.535	8.08
399.895	7.99
400.255	7.87
400.615	7.79
400.975	7.68
401.334	7.59
401.694	7.54
402.054	7.54
402.413	7.46
402.773	7.39
403.132	7.4
403.492	7.32
403.851	7.24
404.211	7.23
404.57	7.18
404.929	7.1
405.288	7.07
405.648	7.04
406.007	6.98
406.366	6.97
406.725	6.93
407.084	6.88
407.443	6.84
407.802	6.82
408.161	6.79
408.52	6.77
408.879	6.77
409.238	6.73
409.596	6.66
409.955	6.64
410.314	6.62
410.673	6.53
411.031	6.51
411.39	6.49
411.748	6.44
412.107	6.39
412.465	6.41
412.824	6.39
413.182	6.36
413.54	6.36
413.899	6.3
414.257	6.27
414.615	6.22
414.974	6.19
415.332	6.14
415.69	6.06
416.048	6.04
416.406	5.99
416.764	5.97
417.122	5.94
417.48	5.9
417.838	5.86
418.195	5.83
418.553	5.8
418.911	5.76
419.269	5.73
419.626	5.71
419.984	5.67
420.342	5.62
420.699	5.59
421.057	5.55
421.414	5.53
421.772	5.51
422.129	5.48
422.486	5.45
422.844	5.44
423.201	5.43
423.558	5.39
423.915	5.35
424.273	5.33
424.63	5.29
424.987	5.28
425.344	5.28
425.701	5.26
426.058	5.23
426.415	5.23
426.772	5.19
427.128	5.15
427.485	5.13
427.842	5.07
428.199	5.04
428.555	5.04
428.912	5.02
429.269	4.98
429.625	4.96
429.982	4.94
430.338	4.94
430.695	4.89
431.051	4.89
431.407	4.86
431.764	4.85
432.12	4.86
432.476	4.86
432.832	4.82
433.189	4.81
433.545	4.79
433.901	4.76
434.257	4.75
434.613	4.75
434.969	4.72
435.325	4.75
435.681	4.76
436.036	4.7
436.392	4.69
436.748	4.7
437.104	4.7
437.459	4.67
437.815	4.65
438.171	4.67
438.526	4.66
438.882	4.66
439.237	4.65
439.593	4.63
439.948	4.62
440.304	4.63
440.659	4.61
441.014	4.6
441.369	4.59
441.725	4.6
442.08	4.61
442.435	4.6
442.79	4.59
443.145	4.6
443.5	4.6
443.855	4.6
444.21	4.58
444.565	4.58
444.92	4.57
445.275	4.57
445.629	4.54
445.984	4.52
446.339	4.52
446.693	4.5
447.048	4.46
447.403	4.45
447.757	4.43
448.112	4.4
448.466	4.41
448.82	4.38
449.175	4.37
449.529	4.35
449.883	4.34
450.238	4.34
450.592	4.29
450.946	4.27
451.3	4.27
451.654	4.24
452.008	4.22
452.362	4.22
452.716	4.2
453.07	4.18
453.424	4.17
453.778	4.15
454.132	4.16
454.486	4.2
454.839	4.19
455.193	4.18
455.547	4.2
455.9	4.18
456.254	4.19
456.607	4.2
456.961	4.19
457.314	4.19
457.668	4.18
458.021	4.19
458.375	4.22
458.728	4.2
459.081	4.21
459.434	4.21
459.787	4.21
460.141	4.22
460.494	4.23
460.847	4.24
461.2	4.25
461.553	4.24
461.906	4.22
462.259	4.2
462.611	4.21
462.964	4.22
463.317	4.23
463.67	4.23
464.022	4.23
464.375	4.23
464.728	4.24
465.08	4.25
465.433	4.27
465.785	4.27
466.138	4.3
466.49	4.3
466.843	4.32
467.195	4.33
467.547	4.35
467.899	4.39
468.252	4.42
468.604	4.46
468.956	4.48
469.308	4.52
469.66	4.53
470.012	4.56
470.364	4.6
470.716	4.61
471.068	4.63
471.42	4.66
471.772	4.69
472.123	4.72
472.475	4.76
472.827	4.76
473.178	4.77
473.53	4.78
473.882	4.78
474.233	4.76
474.585	4.75
474.936	4.75
475.288	4.72
475.639	4.73
475.99	4.71
476.342	4.72
476.693	4.71
477.044	4.72
477.395	4.72
477.746	4.7
478.097	4.72
478.448	4.68
478.8	4.67
479.15	4.66
479.501	4.64
479.852	4.63
480.203	4.64
480.554	4.64
480.905	4.64
481.255	4.65
481.606	4.66
481.957	4.67
482.307	4.67
482.658	4.67
483.009	4.67
483.359	4.67
483.709	4.67
484.06	4.66
484.41	4.67
484.761	4.67
485.111	4.67
485.461	4.66
485.811	4.67
486.162	4.67
486.512	4.67
486.862	4.68
487.212	4.69
487.562	4.68
487.912	4.68
488.262	4.69
488.612	4.68
488.961	4.69
489.311	4.69
489.661	4.68
490.011	4.69
490.36	4.68
490.71	4.67
491.06	4.66
491.409	4.68
491.759	4.67
492.108	4.68
492.458	4.69
492.807	4.7
493.157	4.71
493.506	4.73
493.855	4.74
494.204	4.73
494.554	4.74
494.903	4.76
495.252	4.78
495.601	4.8
495.95	4.84
496.299	4.86
496.648	4.91
496.997	4.95
497.346	5.02
497.695	5.07
498.043	5.15
498.392	5.2
498.741	5.26
499.09	5.33
499.438	5.38
499.787	5.46
500.135	5.53
500.484	5.59
500.832	5.63
501.181	5.72
501.529	5.82
501.878	5.88
502.226	5.94
502.574	6.03
502.923	6.09
503.271	6.18
503.619	6.27
503.967	6.32
504.315	6.4
504.663	6.47
505.011	6.55
505.359	6.62
505.707	6.72
506.055	6.77
506.403	6.85
506.751	6.95
507.098	7.04
507.446	7.12
507.794	7.21
508.141	7.33
508.489	7.43
508.837	7.5
509.184	7.62
509.531	7.74
509.879	7.81
510.226	7.94
510.574	8.05
510.921	8.18
511.268	8.3
511.616	8.43
511.963	8.55
512.31	8.67
512.657	8.78
513.004	8.88
513.351	9.03
513.698	9.17
514.045	9.28
514.392	9.41
514.739	9.57
515.086	9.71
515.432	9.86
515.779	10
516.126	10.18
516.473	10.32
516.819	10.47
517.166	10.59
517.512	10.72
517.859	10.83
518.205	10.9
518.552	11.03
518.898	11.15
519.245	11.3
519.591	11.43
519.937	11.57
520.283	11.72
520.629	11.89
520.976	12.06
521.322	12.27
521.668	12.47
522.014	12.65
522.36	12.81
522.706	12.98
523.052	13.18
523.398	13.36
523.743	13.6
524.089	13.82
524.435	14.02
524.781	14.2
525.126	14.39
525.472	14.57
525.817	14.71
526.163	14.85
526.509	14.95
526.854	15.05
527.199	15.17
527.545	15.29
527.89	15.39
528.235	15.5
528.581	15.59
528.926	15.72
529.271	15.81
529.616	15.93
529.961	16.04
530.306	16.15
530.651	16.26
530.996	16.37
531.341	16.5
531.686	16.63
532.031	16.79
532.376	16.93
532.721	17.08
533.065	17.24
533.41	17.38
533.755	17.55
534.099	17.74
534.444	17.91
534.788	18.06
535.133	18.24
535.477	18.41
535.822	18.59
536.166	18.79
536.51	18.99
536.855	19.2
537.199	19.44
537.543	19.67
537.887	19.89
538.231	20.15
538.576	20.39
538.92	20.64
539.264	20.82
539.608	21.01
539.951	21.2
540.295	21.41
540.639	21.61
540.983	21.82
541.327	22.02
541.671	22.2
542.014	22.42
542.358	22.59
542.701	22.76
543.045	22.92
543.389	23.07
543.732	23.25
544.075	23.46
544.419	23.66
544.762	23.88
545.105	24.11
545.449	24.31
545.792	24.51
546.135	24.74
546.478	25
546.821	25.3
547.165	25.59
547.508	25.83
547.851	26.06
548.194	26.3
548.536	26.56
548.879	26.84
549.222	27.07
549.565	27.38
549.908	27.68
550.25	27.97
550.593	28.32
550.936	28.67
551.278	28.94
551.621	29.26
551.963	29.52
552.306	29.84
552.648	30.12
552.991	30.4
553.333	30.65
553.675	30.96
554.017	31.2
554.36	31.51
554.702	31.79
555.044	32.12
555.386	32.4
555.728	32.63
556.07	32.92
556.412	33.22
556.754	33.49
557.096	33.81
557.438	34.12
557.78	34.42
558.121	34.71
558.463	35
558.805	35.23
559.147	35.56
559.488	35.8
559.83	36.05
560.171	36.34
560.513	36.67
560.854	36.94
561.196	37.27
561.537	37.57
561.878	37.86
562.22	38.16
562.561	38.47
562.902	38.75
563.243	39.05
563.584	39.37
563.925	39.68
564.266	39.92
564.607	40.17
564.948	40.42
565.289	40.66
565.63	40.95
565.971	41.26
566.312	41.44
566.653	41.74
566.993	42.05
567.334	42.31
567.675	42.61
568.015	42.89
568.356	43.19
568.696	43.42
569.037	43.72
569.377	43.99
569.718	44.25
570.058	44.49
570.398	44.75
570.739	44.93
571.079	45.13
571.419	45.38
571.759	45.63
572.099	45.82
572.439	46.01
572.779	46.19
573.119	46.39
573.459	46.63
573.799	46.77
574.139	46.96
574.479	47.23
574.819	47.41
575.158	47.61
575.498	47.75
575.838	47.98
576.177	48.12
576.517	48.31
576.856	48.48
577.196	48.74
577.535	48.89
577.875	49.13
578.214	49.34
578.553	49.52
578.893	49.7
579.232	49.9
579.571	50.13
579.91	50.33
580.25	50.56
580.589	50.79
580.928	51.03
581.267	51.1
581.606	51.2
581.945	51.4
582.283	51.56
582.622	51.68
582.961	51.85
583.3	52.03
583.639	52.19
583.977	52.4
584.316	52.44
584.654	52.6
584.993	52.74
585.332	52.98
585.67	53.13
586.008	53.35
586.347	53.5
586.685	53.68
587.024	53.81
587.362	53.91
587.7	54.05
588.038	54.23
588.376	54.48
588.715	54.56
589.053	54.65
589.391	54.8
589.729	54.94
590.067	54.95
590.404	55.03
590.742	55.08
591.08	55.24
591.418	55.41
591.756	55.59
592.093	55.72
592.431	55.82
592.769	55.92
593.106	55.95
593.444	56.09
593.781	56.19
594.119	56.34
594.456	56.47
594.793	56.46
595.131	56.55
595.468	56.58
595.805	56.7
596.143	56.78
596.48	56.83
596.817	56.86
597.154	56.99
597.491	57.12
597.828	57.2
598.165	57.28
598.502	57.42
598.839	57.49
599.176	57.59
599.512	57.6
599.849	57.71
600.186	57.79
600.523	57.84
600.859	57.89
601.196	57.96
601.532	58.01
601.869	58.13
602.205	58.14
602.542	58.22
602.878	58.3
603.215	58.33
603.551	58.37
603.887	58.39
604.223	58.43
604.56	58.44
604.896	58.59
605.232	58.58
605.568	58.56
605.904	58.57
606.24	58.6
606.576	58.68
606.912	58.76
607.248	58.85
607.583	58.95
607.919	59
608.255	59.03
608.591	59.07
608.926	59.13
609.262	59.2
609.597	59.27
609.933	59.27
610.268	59.26
610.604	59.38
610.939	59.5
611.275	59.52
611.61	59.5
611.945	59.46
612.281	59.41
612.616	59.4
612.951	59.38
613.286	59.48
613.621	59.5
613.956	59.59
614.291	59.55
614.626	59.45
614.961	59.47
615.296	59.48
615.631	59.57
615.966	59.67
616.3	59.67
616.635	59.64
616.97	59.72
617.304	59.85
617.639	59.79
617.973	59.79
618.308	59.88
618.642	60.03
618.977	60.03
619.311	60.11
619.646	60.23
619.98	60.31
620.314	60.29
620.648	60.26
620.983	60.15
621.317	60.24
621.651	60.44
621.985	60.38
622.319	60.46
622.653	60.5
622.987	60.4
623.321	60.46
623.655	60.54
623.988	60.58
624.322	60.59
624.656	60.65
624.99	60.71
625.323	60.77
625.657	60.71
625.99	60.82
626.324	60.8
626.657	60.87
626.991	60.88
627.324	60.87
627.658	60.9
627.991	61.01
628.324	61
628.657	60.88
628.991	60.97
629.324	60.94
629.657	60.91
629.99	60.96
630.323	60.92
630.656	61.02
630.989	61.02
631.322	61.07
631.655	60.96
631.987	61
632.32	60.96
632.653	61.09
632.986	61.05
633.318	61.12
633.651	61.03
633.984	61.13
634.316	61.12
634.649	61.15
634.981	61.07
635.313	61.09
635.646	61.11
635.978	61.13
636.31	61.23
636.643	61.24
636.975	61.34
637.307	61.36
637.639	61.35
637.971	61.24
638.303	61.18
638.635	61.27
638.967	61.28
639.299	61.32
639.631	61.3
639.963	61.26
640.295	61.25
640.626	61.32
640.958	61.23
641.29	61.46
641.621	61.32
641.953	61.28
642.285	61.29
642.616	61.29
642.948	61.3
643.279	61.24
643.61	61.18
643.942	61.08
644.273	61.19
644.604	61.14
644.936	61.27
645.267	61.23
645.598	61.2
645.929	61.15
646.26	61.1
646.591	61.09
646.922	61.22
647.253	61.31
647.584	61.31
647.915	61.26
648.245	61.13
648.576	61.39
648.907	61.49
649.238	61.49
649.568	61.46
649.899	61.56
650.229	61.46
650.56	61.54
650.89	61.51
651.221	61.47
651.551	61.49
651.882	61.44
652.212	61.57
652.542	61.64
652.872	61.79
653.203	61.78
653.533	61.73
653.863	61.74
654.193	61.62
654.523	61.58
654.853	61.67
655.183	61.78
655.513	61.61
655.843	61.54
656.172	61.48
656.502	61.6
656.832	61.59
657.162	61.76
657.491	61.79
657.821	61.85
658.15	61.9
658.48	61.99
658.809	62.01
659.139	62.01
659.468	62.01
659.798	61.98
660.127	62.05
660.456	62.08
660.785	62.11
661.115	62.12
661.444	62.22
661.773	62.18
662.102	61.96
662.431	62.03
