Data from BU57614_Reflection_00005.txt Node
Date: Mon Nov 18 16:24:20 EST 2019
User: vgr7
Spectrometer: USB2G7710
Scans to average: 3
Trigger mode: 4
Integration Time (sec): 2.000000E-2
Electric dark correction enabled: true
Boxcar width: 10
XAxis mode: Wavelengths
Number of Pixels in Spectrum: 2048
>>>>>Begin Spectral Data<<<<<
177.721	-692.33
178.105	128.75
178.488	104.23
178.871	303.52
179.254	234.95
179.636	-31.07
180.019	-33.8
180.402	54.72
180.785	117.21
181.168	-1536.36
181.55	148.5
181.933	87.68
182.316	98.41
182.698	126.72
183.081	139.79
183.463	164.01
183.846	209.14
184.228	354.95
184.611	243.89
184.993	391.22
185.376	-12782.35
185.758	-7244.83
186.14	2329.36
186.522	-3916.95
186.904	-968.67
187.287	-956.94
187.669	-219.64
188.051	-192.12
188.433	-67.29
188.815	-47.28
189.197	-60.74
189.579	-51.47
189.961	-79.94
190.342	-79.75
190.724	-63.05
191.106	-84.03
191.488	-96.89
191.869	-73.19
192.251	-67.06
192.633	-72.89
193.014	-72.37
193.396	-140.96
193.777	-126.71
194.159	-105.54
194.54	-91.4
194.922	-58.73
195.303	-34.87
195.684	-38.78
196.065	-35.51
196.447	-37.8
196.828	-42.22
197.209	-42.42
197.59	-35.43
197.971	-25.75
198.352	-15.14
198.733	-18.62
199.114	-3.19
199.495	-4.59
199.876	-0.54
200.257	16.21
200.638	18.56
201.018	17.03
201.399	25.63
201.78	37.05
202.16	38.25
202.541	30.29
202.922	30.5
203.302	19.12
203.683	25.72
204.063	4.67
204.444	-6.66
204.824	2.13
205.204	17.05
205.585	19.61
205.965	23.66
206.345	15.27
206.725	18.96
207.106	24.2
207.486	26.79
207.866	20.01
208.246	4.77
208.626	-9.4
209.006	4.13
209.386	2.4
209.766	-8.51
210.145	-1.82
210.525	12.73
210.905	14.75
211.285	16.65
211.664	12.55
212.044	15.57
212.424	19.68
212.803	20.71
213.183	23.51
213.562	14.89
213.942	16.79
214.321	19.06
214.701	17.95
215.08	7.72
215.459	9.31
215.838	10.12
216.218	14.01
216.597	23.98
216.976	20.7
217.355	11.73
217.734	6.32
218.113	7.78
218.492	3.08
218.871	1.11
219.25	5.36
219.629	-1.25
220.008	0.84
220.387	2.29
220.766	0.5
221.144	-3.69
221.523	-2.13
221.902	-15.06
222.28	-16.08
222.659	-10.6
223.037	-7.42
223.416	-12.06
223.794	-11.69
224.173	-11.08
224.551	-12.85
224.929	-11.3
225.308	-5.88
225.686	-3.37
226.064	-1.96
226.442	2.06
226.821	3.94
227.199	-2.18
227.577	3.73
227.955	3.38
228.333	2.14
228.711	5.26
229.089	5.82
229.467	6.96
229.845	7.13
230.222	5.47
230.6	3.6
230.978	2.87
231.356	4.93
231.733	4.02
232.111	4.11
232.488	6.28
232.866	5.83
233.243	6.57
233.621	5.23
233.998	5.77
234.376	3.7
234.753	2.49
235.13	4.49
235.508	3.6
235.885	4.04
236.262	3.31
236.639	2.2
237.016	3.73
237.393	4.18
237.77	5.64
238.147	7.05
238.524	7.92
238.901	8.31
239.278	7.99
239.655	8.45
240.032	8.04
240.409	6.79
240.785	6.22
241.162	6.59
241.539	6.99
241.915	6.59
242.292	6.48
242.668	6.39
243.045	6.34
243.421	5.97
243.798	5.69
244.174	5.84
244.551	5.49
244.927	4.9
245.303	4.99
245.679	4.77
246.056	4.43
246.432	4.5
246.808	4.57
247.184	4.35
247.56	4.09
247.936	4
248.312	4.03
248.688	4.21
249.064	4.1
249.44	4
249.815	3.92
250.191	4.24
250.567	4.36
250.943	4.33
251.318	4.82
251.694	5.08
252.069	5.13
252.445	5.56
252.82	5.71
253.196	5.55
253.571	5.61
253.947	5.6
254.322	5.47
254.697	5.12
255.073	4.93
255.448	5.05
255.823	5.25
256.198	5.32
256.573	5.46
256.948	5.36
257.323	5.26
257.698	5.33
258.073	5.13
258.448	5.11
258.823	5.04
259.198	4.63
259.573	4.4
259.948	4.35
260.322	4.28
260.697	4.22
261.072	4.43
261.446	4.62
261.821	4.71
262.195	4.68
262.57	4.74
262.944	4.88
263.319	4.86
263.693	4.83
264.067	4.91
264.442	4.88
264.816	4.74
265.19	4.76
265.564	4.82
265.938	4.78
266.313	4.66
266.687	4.79
267.061	4.96
267.435	5.27
267.809	5.16
268.183	5.16
268.556	5.23
268.93	5.02
269.304	4.94
269.678	4.9
270.051	5.03
270.425	5.01
270.799	4.97
271.172	5.02
271.546	5.02
271.919	4.86
272.293	4.71
272.666	4.92
273.04	4.96
273.413	4.87
273.787	4.97
274.16	5.09
274.533	4.93
274.906	4.88
275.279	4.69
275.653	4.77
276.026	4.74
276.399	4.66
276.772	4.57
277.145	4.47
277.518	4.48
277.891	4.31
278.263	4.39
278.636	4.39
279.009	4.22
279.382	4.23
279.755	4.18
280.127	4.48
280.5	4.31
280.872	4.35
281.245	4.37
281.617	4.44
281.99	4.46
282.362	4.51
282.735	4.4
283.107	4.46
283.479	4.45
283.852	4.37
284.224	4.44
284.596	4.51
284.968	4.64
285.34	4.67
285.713	4.58
286.085	4.59
286.457	4.67
286.829	4.71
287.201	4.71
287.572	4.67
287.944	4.45
288.316	4.53
288.688	4.59
289.06	4.58
289.431	4.53
289.803	4.57
290.175	4.49
290.546	4.52
290.918	4.44
291.289	4.38
291.661	4.42
292.032	4.54
292.403	4.52
292.775	4.41
293.146	4.27
293.517	4.34
293.889	4.26
294.26	4.14
294.631	4.14
295.002	4.08
295.373	4.18
295.744	4.3
296.115	4.28
296.486	4.18
296.857	4.23
297.228	4.28
297.599	4.23
297.97	4.34
298.34	4.48
298.711	4.6
299.082	4.72
299.452	4.76
299.823	4.67
300.194	4.77
300.564	4.76
300.935	4.86
301.305	4.85
301.676	4.98
302.046	5.17
302.416	5.38
302.787	5.44
303.157	5.54
303.527	5.43
303.897	5.52
304.267	5.57
304.637	5.62
305.008	5.61
305.378	5.61
305.748	5.7
306.117	5.68
306.487	5.61
306.857	5.5
307.227	5.43
307.597	5.47
307.967	5.32
308.336	5.29
308.706	5.3
309.076	5.36
309.445	5.18
309.815	4.95
310.184	4.86
310.554	4.84
310.923	4.75
311.293	4.73
311.662	4.54
312.031	4.58
312.401	4.57
312.77	4.63
313.139	4.62
313.508	4.57
313.877	4.48
314.246	4.48
314.616	4.59
314.985	4.64
315.353	4.54
315.722	4.64
316.091	4.6
316.46	4.57
316.829	4.46
317.198	4.67
317.567	4.81
317.935	4.81
318.304	4.78
318.672	4.75
319.041	4.84
319.41	5.06
319.778	4.95
320.147	4.81
320.515	4.64
320.883	4.56
321.252	4.53
321.62	4.61
321.988	4.62
322.357	4.58
322.725	4.47
323.093	4.55
323.461	4.47
323.829	4.7
324.197	4.66
324.565	4.71
324.933	4.7
325.301	4.72
325.669	4.71
326.037	4.74
326.405	4.86
326.772	4.94
327.14	4.9
327.508	4.9
327.875	4.79
328.243	4.76
328.61	4.75
328.978	4.88
329.346	4.86
329.713	4.82
330.08	4.86
330.448	5
330.815	4.81
331.182	4.75
331.55	4.55
331.917	4.71
332.284	4.87
332.651	4.68
333.018	4.74
333.385	4.78
333.752	4.85
334.119	4.76
334.486	4.71
334.853	4.72
335.22	4.68
335.587	4.82
335.954	4.84
336.32	4.82
336.687	4.68
337.054	4.67
337.42	4.74
337.787	4.7
338.153	4.69
338.52	4.78
338.886	4.8
339.253	4.7
339.619	4.7
339.986	4.55
340.352	4.75
340.718	4.68
341.084	4.61
341.451	4.67
341.817	4.69
342.183	4.6
342.549	4.56
342.915	4.74
343.281	4.8
343.647	4.77
344.013	4.82
344.379	4.78
344.745	4.88
345.11	4.73
345.476	4.69
345.842	4.66
346.208	4.67
346.573	4.67
346.939	4.88
347.304	4.8
347.67	4.82
348.035	4.69
348.401	4.69
348.766	4.72
349.132	4.62
349.497	4.66
349.862	4.79
350.228	4.78
350.593	4.62
350.958	4.48
351.323	4.59
351.688	4.6
352.053	4.71
352.418	4.65
352.783	4.73
353.148	4.73
353.513	4.79
353.878	4.8
354.243	4.83
354.608	4.79
354.972	4.78
355.337	4.88
355.702	4.93
356.066	5.02
356.431	5.02
356.795	5.06
357.16	4.98
357.524	4.84
357.889	4.84
358.253	4.93
358.618	5.02
358.982	4.93
359.346	4.87
359.71	4.8
360.075	4.77
360.439	4.8
360.803	4.81
361.167	4.77
361.531	4.75
361.895	4.74
362.259	4.7
362.623	4.75
362.987	4.68
363.351	4.61
363.714	4.59
364.078	4.53
364.442	4.43
364.806	4.44
365.169	4.55
365.533	4.54
365.896	4.51
366.26	4.49
366.623	4.51
366.987	4.56
367.35	4.61
367.714	4.67
368.077	4.64
368.44	4.67
368.803	4.58
369.167	4.5
369.53	4.44
369.893	4.46
370.256	4.37
370.619	4.39
370.982	4.45
371.345	4.41
371.708	4.48
372.071	4.53
372.434	4.5
372.797	4.47
373.159	4.43
373.522	4.44
373.885	4.43
374.247	4.5
374.61	4.51
374.973	4.44
375.335	4.39
375.698	4.34
376.06	4.31
376.423	4.4
376.785	4.54
377.147	4.63
377.51	4.66
377.872	4.64
378.234	4.62
378.596	4.65
378.958	4.62
379.321	4.61
379.683	4.62
380.045	4.62
380.407	4.58
380.769	4.64
381.13	4.61
381.492	4.63
381.854	4.57
382.216	4.56
382.578	4.58
382.939	4.56
383.301	4.58
383.663	4.58
384.024	4.55
384.386	4.58
384.747	4.52
385.109	4.49
385.47	4.51
385.832	4.5
386.193	4.49
386.554	4.52
386.916	4.46
387.277	4.45
387.638	4.49
387.999	4.5
388.36	4.47
388.721	4.46
389.082	4.45
389.443	4.48
389.804	4.48
390.165	4.48
390.526	4.5
390.887	4.48
391.248	4.49
391.609	4.5
391.969	4.46
392.33	4.48
392.691	4.48
393.051	4.45
393.412	4.46
393.772	4.38
394.133	4.35
394.493	4.37
394.854	4.35
395.214	4.33
395.574	4.32
395.935	4.34
396.295	4.36
396.655	4.34
397.015	4.3
397.376	4.29
397.736	4.28
398.096	4.29
398.456	4.27
398.816	4.28
399.176	4.23
399.535	4.23
399.895	4.18
400.255	4.16
400.615	4.17
400.975	4.16
401.334	4.21
401.694	4.22
402.054	4.17
402.413	4.23
402.773	4.21
403.132	4.2
403.492	4.21
403.851	4.18
404.211	4.17
404.57	4.15
404.929	4.15
405.288	4.11
405.648	4.09
406.007	4.12
406.366	4.07
406.725	4.09
407.084	4.09
407.443	4.11
407.802	4.13
408.161	4.12
408.52	4.1
408.879	4.1
409.238	4.07
409.596	4.13
409.955	4.07
410.314	4.09
410.673	4.09
411.031	4.07
411.39	4.07
411.748	4.09
412.107	4.11
412.465	4.11
412.824	4.13
413.182	4.12
413.54	4.12
413.899	4.12
414.257	4.11
414.615	4.1
414.974	4.09
415.332	4.07
415.69	4.09
416.048	4.07
416.406	4.07
416.764	4.06
417.122	4.08
417.48	4.06
417.838	4.07
418.195	4.07
418.553	4.05
418.911	4.06
419.269	4.07
419.626	4.07
419.984	4.06
420.342	4.06
420.699	4.05
421.057	4.04
421.414	4.03
421.772	4.03
422.129	4.02
422.486	4.01
422.844	4.01
423.201	3.99
423.558	3.98
423.915	3.97
424.273	3.98
424.63	3.94
424.987	3.96
425.344	3.95
425.701	3.95
426.058	3.97
426.415	3.96
426.772	3.94
427.128	3.93
427.485	3.92
427.842	3.91
428.199	3.92
428.555	3.91
428.912	3.94
429.269	3.95
429.625	3.94
429.982	3.93
430.338	3.91
430.695	3.95
431.051	3.94
431.407	3.95
431.764	3.95
432.12	3.96
432.476	3.96
432.832	3.94
433.189	3.93
433.545	3.91
433.901	3.89
434.257	3.89
434.613	3.9
434.969	3.9
435.325	3.91
435.681	3.92
436.036	3.93
436.392	3.92
436.748	3.91
437.104	3.92
437.459	3.92
437.815	3.94
438.171	3.91
438.526	3.93
438.882	3.92
439.237	3.92
439.593	3.91
439.948	3.92
440.304	3.92
440.659	3.92
441.014	3.92
441.369	3.92
441.725	3.92
442.08	3.91
442.435	3.9
442.79	3.89
443.145	3.89
443.5	3.89
443.855	3.88
444.21	3.88
444.565	3.87
444.92	3.89
445.275	3.87
445.629	3.88
445.984	3.88
446.339	3.86
446.693	3.86
447.048	3.86
447.403	3.86
447.757	3.86
448.112	3.85
448.466	3.85
448.82	3.85
449.175	3.84
449.529	3.84
449.883	3.84
450.238	3.85
450.592	3.84
450.946	3.84
451.3	3.84
451.654	3.85
452.008	3.86
452.362	3.84
452.716	3.85
453.07	3.85
453.424	3.83
453.778	3.84
454.132	3.85
454.486	3.84
454.839	3.83
455.193	3.82
455.547	3.82
455.9	3.83
456.254	3.83
456.607	3.84
456.961	3.85
457.314	3.85
457.668	3.85
458.021	3.84
458.375	3.83
458.728	3.84
459.081	3.82
459.434	3.82
459.787	3.83
460.141	3.83
460.494	3.83
460.847	3.85
461.2	3.84
461.553	3.83
461.906	3.83
462.259	3.83
462.611	3.82
462.964	3.83
463.317	3.83
463.67	3.83
464.022	3.81
464.375	3.8
464.728	3.82
465.08	3.82
465.433	3.83
465.785	3.84
466.138	3.85
466.49	3.88
466.843	3.86
467.195	3.88
467.547	3.88
467.899	3.87
468.252	3.86
468.604	3.88
468.956	3.89
469.308	3.92
469.66	3.91
470.012	3.92
470.364	3.93
470.716	3.93
471.068	3.93
471.42	3.96
471.772	3.99
472.123	3.99
472.475	4
472.827	3.99
473.178	3.97
473.53	3.97
473.882	3.94
474.233	3.99
474.585	3.97
474.936	3.97
475.288	3.97
475.639	3.98
475.99	3.97
476.342	3.99
476.693	3.97
477.044	3.99
477.395	3.99
477.746	3.99
478.097	3.98
478.448	3.98
478.8	3.99
479.15	3.98
479.501	3.97
479.852	3.97
480.203	3.99
480.554	4.01
480.905	4.02
481.255	4.03
481.606	4.02
481.957	4.02
482.307	4.02
482.658	4.02
483.009	4.02
483.359	4.03
483.709	4.03
484.06	4.04
484.41	4.05
484.761	4.04
485.111	4.04
485.461	4.04
485.811	4.04
486.162	4.03
486.512	4.04
486.862	4.04
487.212	4.04
487.562	4.04
487.912	4.03
488.262	4.02
488.612	4.02
488.961	4.02
489.311	4.02
489.661	4.02
490.011	4.03
490.36	4.04
490.71	4.04
491.06	4.02
491.409	4.01
491.759	4
492.108	4.01
492.458	4.02
492.807	4.01
493.157	4.02
493.506	4.03
493.855	4.02
494.204	4.02
494.554	4.02
494.903	4.01
495.252	4.03
495.601	4.04
495.95	4.05
496.299	4.03
496.648	4.04
496.997	4.04
497.346	4.03
497.695	4.03
498.043	4.05
498.392	4.09
498.741	4.11
499.09	4.12
499.438	4.13
499.787	4.13
500.135	4.17
500.484	4.18
500.832	4.19
501.181	4.23
501.529	4.25
501.878	4.27
502.226	4.29
502.574	4.28
502.923	4.27
503.271	4.3
503.619	4.32
503.967	4.33
504.315	4.34
504.663	4.34
505.011	4.36
505.359	4.37
505.707	4.36
506.055	4.36
506.403	4.35
506.751	4.36
507.098	4.36
507.446	4.35
507.794	4.32
508.141	4.36
508.489	4.33
508.837	4.34
509.184	4.36
509.531	4.38
509.879	4.41
510.226	4.43
510.574	4.4
510.921	4.41
511.268	4.43
511.616	4.44
511.963	4.47
512.31	4.48
512.657	4.49
513.004	4.51
513.351	4.55
513.698	4.58
514.045	4.59
514.392	4.6
514.739	4.62
515.086	4.66
515.432	4.67
515.779	4.69
516.126	4.7
516.473	4.71
516.819	4.71
517.166	4.72
517.512	4.72
517.859	4.73
518.205	4.77
518.552	4.75
518.898	4.76
519.245	4.74
519.591	4.73
519.937	4.72
520.283	4.72
520.629	4.71
520.976	4.73
521.322	4.74
521.668	4.76
522.014	4.78
522.36	4.78
522.706	4.78
523.052	4.8
523.398	4.82
523.743	4.82
524.089	4.82
524.435	4.84
524.781	4.86
525.126	4.89
525.472	4.89
525.817	4.9
526.163	4.91
526.509	4.93
526.854	4.95
527.199	4.95
527.545	4.96
527.89	4.98
528.235	4.98
528.581	4.99
528.926	4.99
529.271	5
529.616	5.02
529.961	5.03
530.306	5.04
530.651	5.05
530.996	5.06
531.341	5.08
531.686	5.09
532.031	5.11
532.376	5.11
532.721	5.14
533.065	5.16
533.41	5.18
533.755	5.21
534.099	5.21
534.444	5.24
534.788	5.26
535.133	5.27
535.477	5.29
535.822	5.3
536.166	5.3
536.51	5.31
536.855	5.33
537.199	5.35
537.543	5.34
537.887	5.35
538.231	5.37
538.576	5.38
538.92	5.39
539.264	5.39
539.608	5.39
539.951	5.38
540.295	5.38
540.639	5.4
540.983	5.39
541.327	5.41
541.671	5.42
542.014	5.42
542.358	5.42
542.701	5.42
543.045	5.44
543.389	5.46
543.732	5.47
544.075	5.47
544.419	5.47
544.762	5.49
545.105	5.51
545.449	5.5
545.792	5.51
546.135	5.51
546.478	5.54
546.821	5.55
547.165	5.57
547.508	5.6
547.851	5.59
548.194	5.61
548.536	5.61
548.879	5.61
549.222	5.62
549.565	5.63
549.908	5.62
550.25	5.64
550.593	5.63
550.936	5.6
551.278	5.62
551.621	5.65
551.963	5.67
552.306	5.67
552.648	5.72
552.991	5.74
553.333	5.76
553.675	5.75
554.017	5.79
554.36	5.81
554.702	5.82
555.044	5.83
555.386	5.86
555.728	5.86
556.07	5.89
556.412	5.87
556.754	5.88
557.096	5.89
557.438	5.89
557.78	5.93
558.121	5.99
558.463	5.97
558.805	5.95
559.147	5.91
559.488	5.9
559.83	5.88
560.171	5.86
560.513	5.86
560.854	5.85
561.196	5.85
561.537	5.86
561.878	5.83
562.22	5.87
562.561	5.87
562.902	5.91
563.243	5.88
563.584	5.92
563.925	5.94
564.266	5.91
564.607	5.92
564.948	5.91
565.289	5.92
565.63	5.93
565.971	5.92
566.312	5.94
566.653	5.97
566.993	6.01
567.334	6
567.675	6
568.015	5.99
568.356	5.96
568.696	5.97
569.037	5.99
569.377	5.96
569.718	5.97
570.058	5.96
570.398	5.97
570.739	5.98
571.079	5.97
571.419	6.01
571.759	6.02
572.099	6.02
572.439	5.99
572.779	6.01
573.119	6.03
573.459	6.05
573.799	6.05
574.139	6.02
574.479	6.04
574.819	6.02
575.158	6.04
575.498	6.03
575.838	6.04
576.177	6.04
576.517	6.03
576.856	6.03
577.196	6.01
577.535	6.03
577.875	6.05
578.214	6.05
578.553	6.07
578.893	6.06
579.232	6.04
579.571	6.06
579.91	6.04
580.25	6.07
580.589	6.04
580.928	6.02
581.267	6.05
581.606	6.05
581.945	6.07
582.283	6.08
582.622	6.08
582.961	6.12
583.3	6.09
583.639	6.14
583.977	6.16
584.316	6.16
584.654	6.1
584.993	6.06
585.332	6.08
585.67	6.04
586.008	6.05
586.347	6.08
586.685	6.12
587.024	6.11
587.362	6.12
587.7	6.14
588.038	6.18
588.376	6.16
588.715	6.18
589.053	6.22
589.391	6.19
589.729	6.23
590.067	6.21
590.404	6.24
590.742	6.23
591.08	6.18
591.418	6.22
591.756	6.26
592.093	6.27
592.431	6.23
592.769	6.26
593.106	6.3
593.444	6.28
593.781	6.28
594.119	6.28
594.456	6.27
594.793	6.26
595.131	6.24
595.468	6.24
595.805	6.23
596.143	6.23
596.48	6.26
596.817	6.25
597.154	6.24
597.491	6.26
597.828	6.23
598.165	6.26
598.502	6.26
598.839	6.26
599.176	6.23
599.512	6.27
599.849	6.26
600.186	6.2
600.523	6.2
600.859	6.2
601.196	6.21
601.532	6.22
601.869	6.2
602.205	6.19
602.542	6.2
602.878	6.23
603.215	6.19
603.551	6.22
603.887	6.24
604.223	6.24
604.56	6.18
604.896	6.21
605.232	6.22
605.568	6.2
605.904	6.18
606.24	6.21
606.576	6.18
606.912	6.16
607.248	6.19
607.583	6.23
607.919	6.24
608.255	6.19
608.591	6.23
608.926	6.26
609.262	6.28
609.597	6.27
609.933	6.25
610.268	6.26
610.604	6.26
610.939	6.2
611.275	6.24
611.61	6.29
611.945	6.29
612.281	6.31
612.616	6.33
612.951	6.37
613.286	6.37
613.621	6.44
613.956	6.47
614.291	6.49
614.626	6.5
614.961	6.43
615.296	6.48
615.631	6.44
615.966	6.46
616.3	6.46
616.635	6.48
616.97	6.51
617.304	6.54
617.639	6.53
617.973	6.59
618.308	6.58
618.642	6.56
618.977	6.55
619.311	6.49
619.646	6.5
619.98	6.5
620.314	6.56
620.648	6.52
620.983	6.5
621.317	6.51
621.651	6.5
621.985	6.53
622.319	6.58
622.653	6.58
622.987	6.59
623.321	6.61
623.655	6.6
623.988	6.62
624.322	6.55
624.656	6.59
624.99	6.6
625.323	6.61
625.657	6.64
625.99	6.63
626.324	6.7
626.657	6.71
626.991	6.7
627.324	6.69
627.658	6.72
627.991	6.76
628.324	6.76
628.657	6.74
628.991	6.74
629.324	6.77
629.657	6.82
629.99	6.8
630.323	6.77
630.656	6.81
630.989	6.78
631.322	6.86
631.655	6.83
631.987	6.82
632.32	6.8
632.653	6.72
632.986	6.71
633.318	6.67
633.651	6.66
633.984	6.66
634.316	6.59
634.649	6.58
634.981	6.52
635.313	6.5
635.646	6.47
635.978	6.51
636.31	6.47
636.643	6.44
636.975	6.47
637.307	6.5
637.639	6.43
637.971	6.41
638.303	6.34
638.635	6.31
638.967	6.27
639.299	6.33
639.631	6.36
639.963	6.35
640.295	6.27
640.626	6.22
640.958	6.25
641.29	6.31
641.621	6.31
641.953	6.31
642.285	6.34
642.616	6.39
642.948	6.34
643.279	6.34
643.61	6.32
643.942	6.28
644.273	6.27
644.604	6.32
644.936	6.3
645.267	6.35
645.598	6.43
645.929	6.45
646.26	6.41
646.591	6.52
646.922	6.53
647.253	6.65
647.584	6.69
647.915	6.63
648.245	6.58
648.576	6.61
648.907	6.68
649.238	6.57
649.568	6.63
649.899	6.65
650.229	6.69
650.56	6.72
650.89	6.7
651.221	6.7
651.551	6.65
651.882	6.74
652.212	6.7
652.542	6.63
652.872	6.59
653.203	6.63
653.533	6.56
653.863	6.53
654.193	6.46
654.523	6.39
654.853	6.36
655.183	6.38
655.513	6.33
655.843	6.29
656.172	6.38
656.502	6.31
656.832	6.3
657.162	6.26
657.491	6.28
657.821	6.3
658.15	6.28
658.48	6.28
658.809	6.23
659.139	6.21
659.468	6.25
659.798	6.25
660.127	6.24
660.456	6.24
660.785	6.29
661.115	6.34
661.444	6.42
661.773	6.44
662.102	6.49
662.431	6.61
662.76	6.56
663.089	6.53
663.418	6.54
663.747	6.48
664.076	6.51
664.404	6.46
664.733	6.51
665.062	6.59
665.39	6.63
665.719	6.69
666.048	6.81
666.376	6.79
666.705	6.74
667.033	6.71
667.362	6.73
667.69	6.7
668.018	6.6
668.347	6.59
668.675	6.57
669.003	6.57
669.331	6.51
669.659	6.58
669.987	6.55
670.315	6.57
670.643	6.65
670.971	6.65
671.299	6.72
671.627	6.72
671.955	6.64
672.283	6.65
672.61	6.6
672.938	6.54
673.266	6.64
673.593	6.82
673.921	6.82
674.249	6.78
674.576	6.81
674.904	6.92
675.231	6.93
675.558	7.05
675.886	7.05
676.213	7.03
676.54	6.95
676.867	7.02
677.195	7
677.522	7.01
677.849	6.97
678.176	6.93
678.503	6.91
