Data from BU57648_Reflection_00006.txt Node
Date: Tue Nov 19 10:46:38 EST 2019
User: vgr7
Spectrometer: USB2G7710
Scans to average: 3
Trigger mode: 4
Integration Time (sec): 2.000000E-2
Electric dark correction enabled: true
Boxcar width: 10
XAxis mode: Wavelengths
Number of Pixels in Spectrum: 2048
>>>>>Begin Spectral Data<<<<<
177.721	12.24
178.105	38.27
178.488	8.73
178.871	70.14
179.254	11.11
179.636	-12.43
180.019	33.76
180.402	157.14
180.785	75.56
181.168	81.48
181.55	266.67
181.933	150.6
182.316	83.66
182.698	37.85
183.081	170.28
183.463	51.89
183.846	86.11
184.228	308.33
184.611	22.1
184.993	19.05
185.376	14.71
185.758	4.02
186.14	23.02
186.522	25.69
186.904	35.12
187.287	28.99
187.669	19.39
188.051	29.05
188.433	24.45
188.815	2.39
189.197	2.66
189.579	-13.58
189.961	-38.17
190.342	-36.02
190.724	-28.13
191.106	-48.92
191.488	-26.22
191.869	-9.48
192.251	0.11
192.633	21.24
193.014	18.96
193.396	37.94
193.777	43.91
194.159	22.31
194.54	18.31
194.922	29.4
195.303	5.8
195.684	-9.35
196.065	-2.06
196.447	10.16
196.828	20.6
197.209	17.3
197.59	15.74
197.971	16.67
198.352	9.65
198.733	16.95
199.114	16.37
199.495	23.94
199.876	15.26
200.257	20.32
200.638	12.53
201.018	10.76
201.399	11.8
201.78	10.81
202.16	-3.89
202.541	-2.44
202.922	-8.04
203.302	1.8
203.683	6.79
204.063	1.13
204.444	-1.69
204.824	5.91
205.204	21.51
205.585	28.49
205.965	49.13
206.345	46.82
206.725	49.57
207.106	51.95
207.486	46.89
207.866	47.02
208.246	45.7
208.626	47.12
209.006	48.97
209.386	46.52
209.766	38.01
210.145	64.33
210.525	49.24
210.905	60.24
211.285	36.29
211.664	44.44
212.044	38.37
212.424	41.89
212.803	39.2
213.183	51.33
213.562	54.87
213.942	21.31
214.321	7.46
214.701	-18.53
215.08	-21.55
215.459	-13.59
215.838	-33.64
216.218	-62.04
216.597	-41.13
216.976	-45.18
217.355	-6.89
217.734	-0.79
218.113	5.93
218.492	13.6
218.871	13.13
219.25	25.42
219.629	19.54
220.008	39.9
220.387	41.09
220.766	29.43
221.144	8.15
221.523	-1.54
221.902	20.39
222.28	40.38
222.659	52.88
223.037	56.12
223.416	67.56
223.794	62.87
224.173	73.06
224.551	69.31
224.929	55.96
225.308	39.3
225.686	32.69
226.064	19.61
226.442	21.72
226.821	19.22
227.199	15.59
227.577	19.3
227.955	14.39
228.333	12.19
228.711	12.11
229.089	11.88
229.467	7.84
229.845	4.87
230.222	5.38
230.6	5.9
230.978	7.52
231.356	2.01
231.733	6.84
232.111	2.61
232.488	1.38
232.866	3.08
233.243	1.25
233.621	0.99
233.998	3.18
234.376	2.31
234.753	2.14
235.13	2.5
235.508	1.66
235.885	3.33
236.262	3.51
236.639	3.45
237.016	3.75
237.393	5.92
237.77	6.72
238.147	5.1
238.524	5.33
238.901	4.21
239.278	4.88
239.655	3.29
240.032	3.96
240.409	4.87
240.785	4.86
241.162	5.99
241.539	5.8
241.915	6.06
242.292	6.16
242.668	6.41
243.045	6.85
243.421	6.64
243.798	6.58
244.174	6.6
244.551	6.18
244.927	6.17
245.303	5.9
245.679	5.67
246.056	6.2
246.432	5.99
246.808	6.11
247.184	6.42
247.56	6.65
247.936	6.58
248.312	6.25
248.688	5.86
249.064	5.69
249.44	5.8
249.815	5.69
250.191	5.59
250.567	5.29
250.943	5.03
251.318	4.81
251.694	4.67
252.069	4.82
252.445	5.32
252.82	5.68
253.196	5.94
253.571	6.13
253.947	5.58
254.322	5.79
254.697	5.64
255.073	5.07
255.448	5.15
255.823	5.56
256.198	5.58
256.573	5.71
256.948	5.76
257.323	5.83
257.698	5.57
258.073	5.41
258.448	5.59
258.823	5.42
259.198	5.51
259.573	5.33
259.948	5.19
260.322	5.05
260.697	4.86
261.072	4.68
261.446	4.61
261.821	4.68
262.195	4.47
262.57	4.62
262.944	4.8
263.319	4.85
263.693	4.79
264.067	4.73
264.442	4.62
264.816	4.43
265.19	4.33
265.564	4.31
265.938	4.46
266.313	4.18
266.687	4.26
267.061	4.24
267.435	4.43
267.809	4.27
268.183	4.1
268.556	4.03
268.93	4.03
269.304	3.87
269.678	3.81
270.051	3.74
270.425	3.58
270.799	3.39
271.172	3.38
271.546	3.51
271.919	3.5
272.293	3.73
272.666	3.75
273.04	3.6
273.413	3.68
273.787	3.68
274.16	3.59
274.533	3.66
274.906	3.67
275.279	3.55
275.653	3.67
276.026	3.81
276.399	3.84
276.772	3.92
277.145	4.21
277.518	4.21
277.891	4.36
278.263	4.49
278.636	4.66
279.009	4.57
279.382	4.49
279.755	4.65
280.127	4.39
280.5	4.51
280.872	4.64
281.245	4.47
281.617	4.35
281.99	4.65
282.362	4.52
282.735	4.41
283.107	4.41
283.479	4.4
283.852	4.38
284.224	4.37
284.596	4.36
284.968	4.26
285.34	4.33
285.713	4.31
286.085	4.19
286.457	4.18
286.829	4.17
287.201	4.13
287.572	4
287.944	4.08
288.316	3.96
288.688	3.97
289.06	3.98
289.431	3.99
289.803	3.92
290.175	3.94
290.546	4.02
290.918	4.02
291.289	3.87
291.661	3.76
292.032	3.78
292.403	3.81
292.775	3.73
293.146	3.73
293.517	3.79
293.889	3.73
294.26	3.72
294.631	3.72
295.002	3.63
295.373	3.69
295.744	3.68
296.115	3.89
296.486	3.91
296.857	4.02
297.228	3.97
297.599	3.92
297.97	3.92
298.34	3.98
298.711	3.91
299.082	4.05
299.452	4.09
299.823	3.99
300.194	3.98
300.564	3.95
300.935	4.01
301.305	3.94
301.676	4.14
302.046	4.09
302.416	4.13
302.787	4.19
303.157	4.17
303.527	4.32
303.897	4.04
304.267	4.02
304.637	3.97
305.008	4.18
305.378	4.24
305.748	4.3
306.117	4.27
306.487	4.37
306.857	4.23
307.227	4.32
307.597	4.33
307.967	4.25
308.336	4.26
308.706	4.11
309.076	4.26
309.445	4.24
309.815	4.23
310.184	4.09
310.554	4.01
310.923	3.95
311.293	3.79
311.662	3.94
312.031	3.96
312.401	3.89
312.77	3.72
313.139	3.67
313.508	3.59
313.877	3.54
314.246	3.44
314.616	3.54
314.985	3.49
315.353	3.6
315.722	3.56
316.091	3.76
316.46	3.65
316.829	3.52
317.198	3.48
317.567	3.52
317.935	3.73
318.304	3.84
318.672	4.06
319.041	4.05
319.41	3.98
319.778	4.05
320.147	4.09
320.515	4.34
320.883	4.23
321.252	4.24
321.62	4.25
321.988	4.3
322.357	4.34
322.725	4.28
323.093	4.29
323.461	4.38
323.829	4.29
324.197	4.39
324.565	4.3
324.933	4.22
325.301	4.12
325.669	4.01
326.037	3.97
326.405	3.88
326.772	3.96
327.14	3.96
327.508	3.82
327.875	3.85
328.243	3.69
328.61	3.86
328.978	3.94
329.346	3.85
329.713	3.93
330.08	3.99
330.448	4.09
330.815	4.08
331.182	3.96
331.55	3.93
331.917	3.97
332.284	4.07
332.651	4.04
333.018	4.19
333.385	4.22
333.752	4.23
334.119	4.23
334.486	4.15
334.853	4.13
335.22	4.25
335.587	4.23
335.954	4.22
336.32	4.26
336.687	4.24
337.054	4.31
337.42	4.31
337.787	4.21
338.153	4.13
338.52	4.1
338.886	4.18
339.253	4.12
339.619	4.19
339.986	4.03
340.352	4.08
340.718	4.04
341.084	3.87
341.451	3.87
341.817	3.9
342.183	3.85
342.549	3.83
342.915	3.78
343.281	3.82
343.647	3.85
344.013	3.8
344.379	3.79
344.745	3.84
345.11	3.79
345.476	3.75
345.842	3.6
346.208	3.56
346.573	3.56
346.939	3.63
347.304	3.53
347.67	3.58
348.035	3.55
348.401	3.53
348.766	3.6
349.132	3.58
349.497	3.61
349.862	3.72
350.228	3.66
350.593	3.73
350.958	3.75
351.323	3.69
351.688	3.69
352.053	3.6
352.418	3.55
352.783	3.57
353.148	3.71
353.513	3.83
353.878	3.73
354.243	3.72
354.608	3.81
354.972	3.88
355.337	3.99
355.702	4.02
356.066	4.08
356.431	4.14
356.795	4.13
357.16	4.04
357.524	3.97
357.889	4.04
358.253	3.91
358.618	3.84
358.982	3.89
359.346	3.8
359.71	3.87
360.075	3.97
360.439	3.93
360.803	3.9
361.167	3.91
361.531	3.98
361.895	3.97
362.259	3.92
362.623	3.91
362.987	3.93
363.351	3.9
363.714	3.87
364.078	3.84
364.442	3.88
364.806	3.96
365.169	3.95
365.533	3.93
365.896	3.97
366.26	4
366.623	3.94
366.987	4.04
367.35	4.05
367.714	3.91
368.077	3.99
368.44	3.97
368.803	3.9
369.167	3.87
369.53	3.9
369.893	3.85
370.256	3.8
370.619	3.74
370.982	3.73
371.345	3.75
371.708	3.77
372.071	3.74
372.434	3.68
372.797	3.72
373.159	3.71
373.522	3.76
373.885	3.75
374.247	3.84
374.61	3.81
374.973	3.76
375.335	3.86
375.698	3.79
376.06	3.74
376.423	3.79
376.785	3.82
377.147	3.79
377.51	3.77
377.872	3.71
378.234	3.75
378.596	3.71
378.958	3.68
379.321	3.68
379.683	3.7
380.045	3.69
380.407	3.72
380.769	3.74
381.13	3.69
381.492	3.75
381.854	3.68
382.216	3.7
382.578	3.75
382.939	3.72
383.301	3.72
383.663	3.76
384.024	3.77
384.386	3.8
384.747	3.78
385.109	3.78
385.47	3.85
385.832	3.77
386.193	3.78
386.554	3.76
386.916	3.71
387.277	3.71
387.638	3.69
387.999	3.63
388.36	3.63
388.721	3.65
389.082	3.63
389.443	3.64
389.804	3.63
390.165	3.61
390.526	3.61
390.887	3.61
391.248	3.59
391.609	3.6
391.969	3.57
392.33	3.59
392.691	3.63
393.051	3.61
393.412	3.64
393.772	3.65
394.133	3.7
394.493	3.69
394.854	3.67
395.214	3.74
395.574	3.74
395.935	3.74
396.295	3.72
396.655	3.7
397.015	3.68
397.376	3.68
397.736	3.7
398.096	3.67
398.456	3.67
398.816	3.65
399.176	3.61
399.535	3.58
399.895	3.51
400.255	3.49
400.615	3.49
400.975	3.49
401.334	3.5
401.694	3.45
402.054	3.48
402.413	3.48
402.773	3.41
403.132	3.44
403.492	3.44
403.851	3.42
404.211	3.42
404.57	3.44
404.929	3.42
405.288	3.39
405.648	3.42
406.007	3.42
406.366	3.42
406.725	3.44
407.084	3.47
407.443	3.55
407.802	3.53
408.161	3.51
408.52	3.5
408.879	3.51
409.238	3.53
409.596	3.53
409.955	3.49
410.314	3.52
410.673	3.51
411.031	3.48
411.39	3.5
411.748	3.48
412.107	3.45
412.465	3.44
412.824	3.43
413.182	3.42
413.54	3.43
413.899	3.4
414.257	3.4
414.615	3.37
414.974	3.33
415.332	3.32
415.69	3.33
416.048	3.33
416.406	3.31
416.764	3.28
417.122	3.27
417.48	3.26
417.838	3.27
418.195	3.29
418.553	3.29
418.911	3.28
419.269	3.29
419.626	3.32
419.984	3.31
420.342	3.31
420.699	3.3
421.057	3.29
421.414	3.3
421.772	3.3
422.129	3.29
422.486	3.3
422.844	3.32
423.201	3.31
423.558	3.32
423.915	3.34
424.273	3.36
424.63	3.37
424.987	3.39
425.344	3.38
425.701	3.36
426.058	3.36
426.415	3.37
426.772	3.37
427.128	3.35
427.485	3.37
427.842	3.37
428.199	3.37
428.555	3.38
428.912	3.39
429.269	3.36
429.625	3.38
429.982	3.37
430.338	3.37
430.695	3.34
431.051	3.33
431.407	3.3
431.764	3.26
432.12	3.26
432.476	3.28
432.832	3.27
433.189	3.28
433.545	3.28
433.901	3.28
434.257	3.29
434.613	3.3
434.969	3.28
435.325	3.29
435.681	3.3
436.036	3.29
436.392	3.29
436.748	3.3
437.104	3.29
437.459	3.27
437.815	3.27
438.171	3.29
438.526	3.3
438.882	3.31
439.237	3.32
439.593	3.32
439.948	3.32
440.304	3.33
440.659	3.32
441.014	3.3
441.369	3.3
441.725	3.3
442.08	3.3
442.435	3.3
442.79	3.29
443.145	3.29
443.5	3.29
443.855	3.27
444.21	3.29
444.565	3.3
444.92	3.31
445.275	3.32
445.629	3.31
445.984	3.3
446.339	3.31
446.693	3.34
447.048	3.34
447.403	3.3
447.757	3.29
448.112	3.3
448.466	3.33
448.82	3.33
449.175	3.33
449.529	3.32
449.883	3.31
450.238	3.33
450.592	3.33
450.946	3.35
451.3	3.37
451.654	3.33
452.008	3.33
452.362	3.33
452.716	3.33
453.07	3.33
453.424	3.34
453.778	3.32
454.132	3.29
454.486	3.29
454.839	3.29
455.193	3.33
455.547	3.32
455.9	3.3
456.254	3.31
456.607	3.3
456.961	3.28
457.314	3.28
457.668	3.28
458.021	3.27
458.375	3.27
458.728	3.27
459.081	3.29
459.434	3.29
459.787	3.28
460.141	3.27
460.494	3.28
460.847	3.28
461.2	3.27
461.553	3.29
461.906	3.3
462.259	3.28
462.611	3.27
462.964	3.27
463.317	3.29
463.67	3.28
464.022	3.28
464.375	3.3
464.728	3.29
465.08	3.3
465.433	3.3
465.785	3.28
466.138	3.27
466.49	3.26
466.843	3.28
467.195	3.27
467.547	3.28
467.899	3.27
468.252	3.27
468.604	3.29
468.956	3.31
469.308	3.29
469.66	3.33
470.012	3.35
470.364	3.35
470.716	3.36
471.068	3.36
471.42	3.37
471.772	3.36
472.123	3.35
472.475	3.39
472.827	3.38
473.178	3.41
473.53	3.42
473.882	3.44
474.233	3.42
474.585	3.44
474.936	3.44
475.288	3.45
475.639	3.44
475.99	3.44
476.342	3.45
476.693	3.42
477.044	3.41
477.395	3.39
477.746	3.37
478.097	3.37
478.448	3.36
478.8	3.35
479.15	3.37
479.501	3.37
479.852	3.32
480.203	3.33
480.554	3.35
480.905	3.34
481.255	3.34
481.606	3.36
481.957	3.35
482.307	3.37
482.658	3.36
483.009	3.37
483.359	3.37
483.709	3.36
484.06	3.36
484.41	3.35
484.761	3.36
485.111	3.36
485.461	3.37
485.811	3.37
486.162	3.36
486.512	3.37
486.862	3.37
487.212	3.39
487.562	3.38
487.912	3.37
488.262	3.37
488.612	3.37
488.961	3.36
489.311	3.36
489.661	3.34
490.011	3.35
490.36	3.34
490.71	3.35
491.06	3.35
491.409	3.37
491.759	3.38
492.108	3.38
492.458	3.38
492.807	3.37
493.157	3.37
493.506	3.37
493.855	3.35
494.204	3.36
494.554	3.35
494.903	3.36
495.252	3.37
495.601	3.38
495.95	3.38
496.299	3.37
496.648	3.36
496.997	3.37
497.346	3.37
497.695	3.37
498.043	3.35
498.392	3.34
498.741	3.35
499.09	3.36
499.438	3.37
499.787	3.38
500.135	3.39
500.484	3.39
500.832	3.41
501.181	3.46
501.529	3.44
501.878	3.45
502.226	3.47
502.574	3.48
502.923	3.49
503.271	3.49
503.619	3.5
503.967	3.5
504.315	3.5
504.663	3.52
505.011	3.54
505.359	3.54
505.707	3.53
506.055	3.53
506.403	3.51
506.751	3.5
507.098	3.51
507.446	3.5
507.794	3.49
508.141	3.48
508.489	3.46
508.837	3.46
509.184	3.46
509.531	3.43
509.879	3.42
510.226	3.41
510.574	3.43
510.921	3.44
511.268	3.45
511.616	3.48
511.963	3.47
512.31	3.49
512.657	3.5
513.004	3.49
513.351	3.49
513.698	3.49
514.045	3.5
514.392	3.51
514.739	3.53
515.086	3.56
515.432	3.57
515.779	3.57
516.126	3.61
516.473	3.62
516.819	3.63
517.166	3.64
517.512	3.65
517.859	3.67
518.205	3.67
518.552	3.69
518.898	3.67
519.245	3.68
519.591	3.67
519.937	3.67
520.283	3.69
520.629	3.68
520.976	3.7
521.322	3.69
521.668	3.7
522.014	3.7
522.36	3.71
522.706	3.71
523.052	3.72
523.398	3.68
523.743	3.67
524.089	3.67
524.435	3.66
524.781	3.69
525.126	3.67
525.472	3.67
525.817	3.66
526.163	3.67
526.509	3.67
526.854	3.68
527.199	3.69
527.545	3.68
527.89	3.69
528.235	3.7
528.581	3.7
528.926	3.7
529.271	3.69
529.616	3.69
529.961	3.69
530.306	3.69
530.651	3.7
530.996	3.71
531.341	3.71
531.686	3.71
532.031	3.7
532.376	3.7
532.721	3.71
533.065	3.71
533.41	3.72
533.755	3.72
534.099	3.7
534.444	3.72
534.788	3.71
535.133	3.72
535.477	3.72
535.822	3.73
536.166	3.71
536.51	3.73
536.855	3.72
537.199	3.72
537.543	3.73
537.887	3.74
538.231	3.75
538.576	3.73
538.92	3.75
539.264	3.76
539.608	3.75
539.951	3.74
540.295	3.76
540.639	3.74
540.983	3.74
541.327	3.76
541.671	3.75
542.014	3.76
542.358	3.76
542.701	3.77
543.045	3.76
543.389	3.78
543.732	3.76
544.075	3.78
544.419	3.78
544.762	3.77
545.105	3.77
545.449	3.76
545.792	3.78
546.135	3.77
546.478	3.76
546.821	3.77
547.165	3.78
547.508	3.77
547.851	3.79
548.194	3.82
548.536	3.79
548.879	3.78
549.222	3.79
549.565	3.78
549.908	3.75
550.25	3.75
550.593	3.75
550.936	3.77
551.278	3.76
551.621	3.75
551.963	3.79
552.306	3.77
552.648	3.78
552.991	3.8
553.333	3.79
553.675	3.8
554.017	3.8
554.36	3.81
554.702	3.83
555.044	3.82
555.386	3.83
555.728	3.82
556.07	3.82
556.412	3.83
556.754	3.84
557.096	3.85
557.438	3.86
557.78	3.86
558.121	3.88
558.463	3.9
558.805	3.91
559.147	3.89
559.488	3.89
559.83	3.89
560.171	3.87
560.513	3.88
560.854	3.87
561.196	3.88
561.537	3.88
561.878	3.89
562.22	3.91
562.561	3.91
562.902	3.9
563.243	3.89
563.584	3.89
563.925	3.9
564.266	3.93
564.607	3.98
564.948	3.98
565.289	3.95
565.63	3.93
565.971	3.94
566.312	3.91
566.653	3.94
566.993	3.94
567.334	3.96
567.675	4
568.015	4.01
568.356	4
568.696	3.98
569.037	3.97
569.377	3.95
569.718	3.94
570.058	3.95
570.398	3.96
570.739	3.96
571.079	3.93
571.419	3.9
571.759	3.88
572.099	3.87
572.439	3.89
572.779	3.88
573.119	3.86
573.459	3.84
573.799	3.82
574.139	3.81
574.479	3.81
574.819	3.78
575.158	3.79
575.498	3.82
575.838	3.85
576.177	3.84
576.517	3.82
576.856	3.84
577.196	3.87
577.535	3.86
577.875	3.88
578.214	3.91
578.553	3.92
578.893	3.91
579.232	3.94
579.571	3.94
579.91	3.92
580.25	3.95
580.589	3.98
580.928	4.01
581.267	3.99
581.606	3.97
581.945	3.97
582.283	3.96
582.622	3.92
582.961	3.93
583.3	3.93
583.639	3.96
583.977	3.91
584.316	3.91
584.654	3.9
584.993	3.92
585.332	3.93
585.67	3.93
586.008	3.92
586.347	3.91
586.685	3.87
587.024	3.91
587.362	3.87
587.7	3.88
588.038	3.93
588.376	3.99
588.715	3.97
589.053	3.97
589.391	3.96
589.729	4.01
590.067	4
590.404	4.02
590.742	4
591.08	4.04
591.418	3.99
591.756	4.04
592.093	3.99
592.431	3.99
592.769	4.02
593.106	4.03
593.444	4.01
593.781	4.06
594.119	4.06
594.456	4.1
594.793	4.12
595.131	4.1
595.468	4.07
595.805	4.09
596.143	4.08
596.48	4.05
596.817	4
597.154	4.01
597.491	4
597.828	3.96
598.165	3.95
598.502	3.98
598.839	3.93
599.176	3.95
599.512	3.95
599.849	3.94
600.186	3.93
600.523	3.93
600.859	3.93
601.196	3.93
601.532	3.89
601.869	3.87
602.205	3.83
602.542	3.78
602.878	3.78
603.215	3.8
603.551	3.84
603.887	3.87
604.223	3.85
604.56	3.86
604.896	3.96
605.232	3.95
605.568	3.97
605.904	3.99
606.24	3.99
606.576	3.96
606.912	3.96
607.248	3.98
607.583	3.98
607.919	3.94
608.255	3.97
608.591	4
608.926	3.98
609.262	4.01
609.597	4.08
609.933	4.09
610.268	4.1
610.604	4.07
610.939	4.07
611.275	4.07
611.61	4.01
611.945	3.92
612.281	3.88
612.616	3.89
612.951	3.91
613.286	3.95
613.621	3.97
613.956	3.98
614.291	3.96
614.626	3.98
614.961	4
615.296	3.98
615.631	3.96
615.966	3.98
616.3	4.03
616.635	4.04
616.97	4.04
617.304	4.01
617.639	4.06
617.973	4.06
618.308	4.09
618.642	4.1
618.977	4.12
619.311	4.17
619.646	4.18
619.98	4.13
620.314	4
620.648	3.99
620.983	3.98
621.317	4.01
621.651	4.01
621.985	3.97
622.319	3.92
622.653	3.93
622.987	3.95
623.321	3.89
623.655	3.89
623.988	3.92
624.322	3.95
624.656	3.91
624.99	3.89
625.323	3.92
625.657	3.97
625.99	4.01
626.324	4.01
626.657	3.97
626.991	4.03
627.324	4.09
627.658	4.09
627.991	4.13
628.324	4.14
628.657	4.16
628.991	4.17
629.324	4.21
629.657	4.22
629.99	4.27
630.323	4.27
630.656	4.24
630.989	4.23
631.322	4.19
631.655	4.2
631.987	4.22
632.32	4.17
632.653	4.13
632.986	4.1
633.318	4.14
633.651	4.14
633.984	4.11
634.316	4.13
634.649	4.13
634.981	4.03
635.313	3.98
635.646	3.98
635.978	4.03
636.31	4.07
636.643	4.04
636.975	3.98
637.307	3.98
637.639	4
637.971	3.99
638.303	4.01
638.635	4.02
638.967	4.05
639.299	4.08
639.631	4.09
639.963	4.12
640.295	4.07
640.626	4.13
640.958	4.13
641.29	4.12
641.621	4.15
641.953	4.22
642.285	4.27
642.616	4.3
642.948	4.26
643.279	4.14
643.61	4.18
643.942	4.25
644.273	4.27
644.604	4.22
644.936	4.17
645.267	4.25
645.598	4.3
645.929	4.28
646.26	4.26
646.591	4.28
646.922	4.29
647.253	4.36
647.584	4.29
647.915	4.28
648.245	4.24
648.576	4.19
648.907	4.21
649.238	4.12
649.568	4.04
649.899	4.06
650.229	4.17
650.56	4.16
650.89	4.12
651.221	4.12
651.551	4.21
651.882	4.21
652.212	4.18
652.542	4.14
652.872	4.14
653.203	4.17
653.533	4.2
653.863	4.18
654.193	4.07
654.523	4.08
654.853	4.13
655.183	4.2
655.513	4.25
655.843	4.28
656.172	4.35
656.502	4.35
656.832	4.3
657.162	4.24
657.491	4.26
657.821	4.29
658.15	4.28
658.48	4.31
658.809	4.41
659.139	4.5
659.468	4.5
659.798	4.54
660.127	4.56
660.456	4.57
660.785	4.56
661.115	4.67
661.444	4.68
661.773	4.71
662.102	4.72
662.431	4.68
662.76	4.68
663.089	4.75
663.418	4.78
663.747	4.88
664.076	4.95
664.404	5
664.733	4.94
665.062	4.94
665.39	4.88
665.719	4.87
666.048	4.77
666.376	4.79
666.705	4.7
667.033	4.64
667.362	4.63
667.69	4.68
668.018	4.6
668.347	4.55
668.675	4.5
669.003	4.42
669.331	4.47
669.659	4.43
669.987	4.35
670.315	4.38
670.643	4.32
670.971	4.35
671.299	4.3
671.627	4.39
671.955	4.34
672.283	4.28
672.61	4.27
672.938	4.28
673.266	4.3
673.593	4.34
673.921	4.31
674.249	4.28
674.576	4.24
674.904	4.25
675.231	4.35
675.558	4.45
675.886	4.68
676.213	4.71
676.54	4.78
676.867	4.77
677.195	4.76
677.522	4.92
677.849	4.81
678.176	4.82
678.503	4.78
678.83	4.87
679.157	4.89
679.484	4.89
679.81	4.81
680.137	4.85
680.464	4.81
