Data from BU57652_Reflection_00005.txt Node
Date: Tue Nov 19 10:43:11 EST 2019
User: vgr7
Spectrometer: USB2G7710
Scans to average: 3
Trigger mode: 4
Integration Time (sec): 2.000000E-2
Electric dark correction enabled: true
Boxcar width: 10
XAxis mode: Wavelengths
Number of Pixels in Spectrum: 2048
>>>>>Begin Spectral Data<<<<<
177.721	156.87
178.105	-35.04
178.488	16.8
178.871	47.37
179.254	96.77
179.636	148.99
180.019	63.74
180.402	75
180.785	-88.52
181.168	-124.66
181.55	1523.08
181.933	-142.57
182.316	-1123.4
182.698	-203.35
183.081	-405.78
183.463	-441.92
183.846	-246.89
184.228	-350.5
184.611	-100.25
184.993	-24.87
185.376	1.23
185.758	4.84
186.14	-30.82
186.522	-17.32
186.904	-21.61
187.287	-13.1
187.669	-10.32
188.051	-3.55
188.433	-12.16
188.815	-7.26
189.197	17.74
189.579	9.2
189.961	2.06
190.342	5.86
190.724	-15.44
191.106	-17.61
191.488	-6.42
191.869	0.96
192.251	6.36
192.633	21.28
193.014	25.46
193.396	26.42
193.777	32.14
194.159	37.3
194.54	42.18
194.922	45.95
195.303	38.82
195.684	37.42
196.065	26.9
196.447	29.62
196.828	44.19
197.209	42.26
197.59	54.95
197.971	74.65
198.352	80.57
198.733	104.62
199.114	87.54
199.495	87.95
199.876	74.96
200.257	68.55
200.638	60.11
201.018	55.64
201.399	59.9
201.78	70.68
202.16	67.12
202.541	62.39
202.922	46.36
203.302	45.24
203.683	61.13
204.063	49.13
204.444	47.98
204.824	36.17
205.204	35.4
205.585	41.64
205.965	34.2
206.345	33.1
206.725	39.38
207.106	65.04
207.486	29.23
207.866	39.63
208.246	66.32
208.626	49.38
209.006	35.71
209.386	29.68
209.766	-0
210.145	36.85
210.525	14.2
210.905	15.51
211.285	-1.55
211.664	4.24
212.044	-1.93
212.424	-13.1
212.803	-27.44
213.183	-38.34
213.562	-26.33
213.942	-18.89
214.321	-27.73
214.701	-33.88
215.08	-50.27
215.459	-30.58
215.838	-20.05
216.218	-34.55
216.597	-23.5
216.976	-26.24
217.355	-22.43
217.734	-21.11
218.113	-18.97
218.492	-10.05
218.871	2.44
219.25	6.29
219.629	8.38
220.008	17.63
220.387	22.96
220.766	24.29
221.144	21.81
221.523	14.98
221.902	7.02
222.28	19.16
222.659	24.01
223.037	33.15
223.416	37.56
223.794	31.73
224.173	39.69
224.551	32.29
224.929	23.28
225.308	20.87
225.686	15.79
226.064	8.32
226.442	7.4
226.821	5.29
227.199	6.86
227.577	2.23
227.955	3.46
228.333	3
228.711	5.63
229.089	6.65
229.467	6.01
229.845	4.95
230.222	1.97
230.6	0.25
230.978	0.45
231.356	1.11
231.733	3.49
232.111	2.19
232.488	2.89
232.866	7.58
233.243	6.22
233.621	5.79
233.998	8.33
234.376	8.5
234.753	8.19
235.13	6.41
235.508	4.71
235.885	2.95
236.262	4.09
236.639	4.07
237.016	4.21
237.393	4.43
237.77	5.02
238.147	6.21
238.524	6.34
238.901	5.34
239.278	5.75
239.655	5.3
240.032	5
240.409	5.15
240.785	5.06
241.162	5.82
241.539	6.49
241.915	6.63
242.292	7.19
242.668	6.96
243.045	7.43
243.421	8.25
243.798	8.43
244.174	8.28
244.551	8.38
244.927	8.42
245.303	8.61
245.679	8.98
246.056	8.92
246.432	8.92
246.808	9.1
247.184	8.93
247.56	8.93
247.936	9.09
248.312	9.25
248.688	9.26
249.064	9.34
249.44	9.08
249.815	9.09
250.191	8.79
250.567	8.86
250.943	9.03
251.318	8.72
251.694	8.59
252.069	8.5
252.445	8.24
252.82	8.34
253.196	8.19
253.571	8.2
253.947	7.99
254.322	8
254.697	8.08
255.073	7.94
255.448	7.87
255.823	7.72
256.198	7.75
256.573	7.75
256.948	7.3
257.323	7.6
257.698	7.31
258.073	7.41
258.448	7.45
258.823	7.13
259.198	7.41
259.573	7.58
259.948	7.69
260.322	7.74
260.697	7.74
261.072	7.77
261.446	7.72
261.821	7.79
262.195	7.74
262.57	7.73
262.944	7.82
263.319	7.86
263.693	7.93
264.067	7.71
264.442	7.57
264.816	7.59
265.19	7.27
265.564	7.19
265.938	7.14
266.313	6.89
266.687	7.03
267.061	6.72
267.435	6.71
267.809	6.55
268.183	6.6
268.556	6.48
268.93	6.52
269.304	6.36
269.678	6.36
270.051	6.43
270.425	6.24
270.799	6.22
271.172	6.12
271.546	6.02
271.919	6.14
272.293	6.19
272.666	6.25
273.04	6.34
273.413	6.43
273.787	6.31
274.16	6.44
274.533	6.37
274.906	6.49
275.279	6.42
275.653	6.52
276.026	6.45
276.399	6.49
276.772	6.48
277.145	6.5
277.518	6.21
277.891	6.09
278.263	6.32
278.636	6.24
279.009	6.1
279.382	6.03
279.755	5.94
280.127	5.93
280.5	6.05
280.872	6.13
281.245	6.29
281.617	6.36
281.99	6.39
282.362	6.56
282.735	6.55
283.107	6.49
283.479	6.45
283.852	6.59
284.224	6.69
284.596	6.64
284.968	6.58
285.34	6.73
285.713	6.7
286.085	6.48
286.457	6.39
286.829	6.53
287.201	6.67
287.572	6.74
287.944	6.71
288.316	6.54
288.688	6.64
289.06	6.62
289.431	6.69
289.803	6.62
290.175	6.5
290.546	6.45
290.918	6.65
291.289	6.59
291.661	6.44
292.032	6.34
292.403	6.43
292.775	6.59
293.146	6.8
293.517	6.85
293.889	7.08
294.26	7.37
294.631	7.44
295.002	7.37
295.373	7.4
295.744	7.41
296.115	7.57
296.486	7.64
296.857	7.74
297.228	7.75
297.599	7.69
297.97	7.85
298.34	7.99
298.711	8.01
299.082	8.08
299.452	8.2
299.823	8.36
300.194	8.47
300.564	8.27
300.935	8.18
301.305	8.23
301.676	8.22
302.046	8.19
302.416	8.12
302.787	8.18
303.157	8.17
303.527	8.28
303.897	8.26
304.267	8.09
304.637	7.99
305.008	7.99
305.378	8.17
305.748	8.27
306.117	8.22
306.487	8.11
306.857	8.18
307.227	8.22
307.597	8.08
307.967	7.91
308.336	8.13
308.706	8.22
309.076	8.47
309.445	8.64
309.815	8.65
310.184	8.81
310.554	8.9
310.923	8.99
311.293	9.03
311.662	9.08
312.031	9.06
312.401	9.08
312.77	9.1
313.139	9.11
313.508	8.96
313.877	8.88
314.246	8.83
314.616	8.79
314.985	8.86
315.353	8.97
315.722	9.22
316.091	9.17
316.46	9.15
316.829	8.97
317.198	8.97
317.567	8.96
317.935	8.81
318.304	8.83
318.672	8.96
319.041	8.94
319.41	8.88
319.778	9.01
320.147	8.96
320.515	9.15
320.883	9.05
321.252	9.07
321.62	9.25
321.988	9.28
322.357	9.39
322.725	9.31
323.093	9.21
323.461	9.01
323.829	9.02
324.197	9.08
324.565	9.19
324.933	9.15
325.301	9.16
325.669	9.27
326.037	9.29
326.405	9.21
326.772	9.14
327.14	9.25
327.508	9.22
327.875	9.34
328.243	9.16
328.61	9.23
328.978	9.23
329.346	9.21
329.713	9.33
330.08	9.33
330.448	9.3
330.815	9.33
331.182	9.25
331.55	9.29
331.917	9.2
332.284	9.2
332.651	9.15
333.018	8.98
333.385	8.94
333.752	8.94
334.119	8.85
334.486	8.88
334.853	8.83
335.22	8.77
335.587	8.61
335.954	8.63
336.32	8.66
336.687	8.67
337.054	8.72
337.42	8.66
337.787	8.65
338.153	8.66
338.52	8.7
338.886	8.81
339.253	8.72
339.619	8.83
339.986	8.79
340.352	8.78
340.718	8.94
341.084	8.94
341.451	8.92
341.817	8.93
342.183	8.89
342.549	8.91
342.915	8.89
343.281	9
343.647	9.04
344.013	8.97
344.379	8.93
344.745	8.84
345.11	8.81
345.476	8.81
345.842	8.81
346.208	8.78
346.573	8.74
346.939	8.92
347.304	8.91
347.67	8.91
348.035	8.85
348.401	8.76
348.766	8.76
349.132	8.75
349.497	8.79
349.862	8.81
350.228	8.93
350.593	8.92
350.958	8.92
351.323	8.86
351.688	8.89
352.053	8.95
352.418	9.04
352.783	9.05
353.148	9
353.513	8.99
353.878	9
354.243	9.08
354.608	9.07
354.972	9.01
355.337	8.96
355.702	8.99
356.066	9.06
356.431	9.07
356.795	9.1
357.16	9.12
357.524	9.06
357.889	9
358.253	9.01
358.618	8.93
358.982	8.94
359.346	9
359.71	8.96
360.075	8.91
360.439	8.9
360.803	8.96
361.167	8.93
361.531	8.94
361.895	8.9
362.259	8.85
362.623	8.88
362.987	8.87
363.351	8.83
363.714	8.83
364.078	8.79
364.442	8.75
364.806	8.69
365.169	8.75
365.533	8.69
365.896	8.72
366.26	8.71
366.623	8.7
366.987	8.67
367.35	8.7
367.714	8.72
368.077	8.72
368.44	8.68
368.803	8.72
369.167	8.61
369.53	8.6
369.893	8.58
370.256	8.49
370.619	8.5
370.982	8.52
371.345	8.55
371.708	8.57
372.071	8.49
372.434	8.47
372.797	8.47
373.159	8.44
373.522	8.42
373.885	8.39
374.247	8.43
374.61	8.43
374.973	8.36
375.335	8.33
375.698	8.28
376.06	8.27
376.423	8.24
376.785	8.31
377.147	8.31
377.51	8.32
377.872	8.37
378.234	8.43
378.596	8.41
378.958	8.39
379.321	8.41
379.683	8.48
380.045	8.5
380.407	8.46
380.769	8.46
381.13	8.5
381.492	8.53
381.854	8.49
382.216	8.49
382.578	8.53
382.939	8.52
383.301	8.53
383.663	8.55
384.024	8.52
384.386	8.53
384.747	8.48
385.109	8.51
385.47	8.45
385.832	8.4
386.193	8.39
386.554	8.3
386.916	8.31
387.277	8.29
387.638	8.25
387.999	8.27
388.36	8.26
388.721	8.25
389.082	8.24
389.443	8.24
389.804	8.25
390.165	8.23
390.526	8.17
390.887	8.16
391.248	8.13
391.609	8.18
391.969	8.18
392.33	8.17
392.691	8.13
393.051	8.11
393.412	8.09
393.772	8.14
394.133	8.16
394.493	8.08
394.854	8.1
395.214	8.11
395.574	8.08
395.935	8.1
396.295	8.07
396.655	8.09
397.015	8.1
397.376	8.07
397.736	8.1
398.096	8.13
398.456	8.11
398.816	8.11
399.176	8.06
399.535	8.02
399.895	8.03
400.255	8.03
400.615	8.05
400.975	8.06
401.334	8.03
401.694	7.97
402.054	8.04
402.413	8.02
402.773	8.04
403.132	8.05
403.492	8.03
403.851	8.04
404.211	8.02
404.57	8
404.929	7.96
405.288	7.92
405.648	7.93
406.007	7.92
406.366	7.91
406.725	7.92
407.084	7.9
407.443	7.89
407.802	7.88
408.161	7.91
408.52	7.89
408.879	7.86
409.238	7.89
409.596	7.86
409.955	7.85
410.314	7.83
410.673	7.82
411.031	7.84
411.39	7.85
411.748	7.86
412.107	7.88
412.465	7.92
412.824	7.92
413.182	7.89
413.54	7.91
413.899	7.92
414.257	7.89
414.615	7.9
414.974	7.92
415.332	7.92
415.69	7.9
416.048	7.89
416.406	7.87
416.764	7.85
417.122	7.81
417.48	7.81
417.838	7.82
418.195	7.81
418.553	7.77
418.911	7.72
419.269	7.7
419.626	7.66
419.984	7.63
420.342	7.63
420.699	7.62
421.057	7.6
421.414	7.58
421.772	7.59
422.129	7.57
422.486	7.56
422.844	7.55
423.201	7.54
423.558	7.51
423.915	7.51
424.273	7.5
424.63	7.52
424.987	7.49
425.344	7.46
425.701	7.44
426.058	7.44
426.415	7.48
426.772	7.49
427.128	7.48
427.485	7.48
427.842	7.46
428.199	7.46
428.555	7.46
428.912	7.44
429.269	7.41
429.625	7.41
429.982	7.39
430.338	7.39
430.695	7.37
431.051	7.37
431.407	7.37
431.764	7.35
432.12	7.33
432.476	7.32
432.832	7.31
433.189	7.29
433.545	7.27
433.901	7.25
434.257	7.21
434.613	7.21
434.969	7.22
435.325	7.22
435.681	7.22
436.036	7.22
436.392	7.23
436.748	7.25
437.104	7.25
437.459	7.27
437.815	7.27
438.171	7.28
438.526	7.29
438.882	7.29
439.237	7.29
439.593	7.29
439.948	7.31
440.304	7.31
440.659	7.33
441.014	7.33
441.369	7.33
441.725	7.34
442.08	7.35
442.435	7.34
442.79	7.34
443.145	7.34
443.5	7.33
443.855	7.32
444.21	7.32
444.565	7.32
444.92	7.29
445.275	7.27
445.629	7.26
445.984	7.25
446.339	7.26
446.693	7.26
447.048	7.26
447.403	7.25
447.757	7.23
448.112	7.21
448.466	7.21
448.82	7.21
449.175	7.17
449.529	7.17
449.883	7.17
450.238	7.18
450.592	7.16
450.946	7.14
451.3	7.14
451.654	7.1
452.008	7.09
452.362	7.08
452.716	7.09
453.07	7.08
453.424	7.07
453.778	7.04
454.132	7.04
454.486	7.04
454.839	7.02
455.193	7.04
455.547	7.04
455.9	7.06
456.254	7.05
456.607	7.07
456.961	7.05
457.314	7.02
457.668	7.02
458.021	7.02
458.375	7.01
458.728	7
459.081	7.01
459.434	6.99
459.787	7
460.141	6.99
460.494	7
460.847	7.01
461.2	7.02
461.553	7.02
461.906	7.01
462.259	7.01
462.611	6.99
462.964	7.01
463.317	6.98
463.67	7
464.022	7.02
464.375	7.02
464.728	7.05
465.08	7.05
465.433	7.07
465.785	7.1
466.138	7.12
466.49	7.11
466.843	7.14
467.195	7.16
467.547	7.17
467.899	7.18
468.252	7.19
468.604	7.2
468.956	7.22
469.308	7.24
469.66	7.27
470.012	7.3
470.364	7.3
470.716	7.32
471.068	7.33
471.42	7.35
471.772	7.4
472.123	7.42
472.475	7.43
472.827	7.46
473.178	7.46
473.53	7.47
473.882	7.51
474.233	7.49
474.585	7.5
474.936	7.5
475.288	7.5
475.639	7.52
475.99	7.51
476.342	7.5
476.693	7.5
477.044	7.53
477.395	7.53
477.746	7.54
478.097	7.56
478.448	7.56
478.8	7.56
479.15	7.53
479.501	7.54
479.852	7.54
480.203	7.55
480.554	7.56
480.905	7.57
481.255	7.57
481.606	7.58
481.957	7.57
482.307	7.56
482.658	7.56
483.009	7.55
483.359	7.54
483.709	7.54
484.06	7.53
484.41	7.51
484.761	7.51
485.111	7.48
485.461	7.47
485.811	7.46
486.162	7.44
486.512	7.44
486.862	7.43
487.212	7.43
487.562	7.4
487.912	7.39
488.262	7.37
488.612	7.37
488.961	7.36
489.311	7.35
489.661	7.36
490.011	7.34
490.36	7.34
490.71	7.34
491.06	7.33
491.409	7.34
491.759	7.33
492.108	7.33
492.458	7.34
492.807	7.36
493.157	7.36
493.506	7.39
493.855	7.39
494.204	7.39
494.554	7.37
494.903	7.38
495.252	7.38
495.601	7.4
495.95	7.41
496.299	7.41
496.648	7.42
496.997	7.43
497.346	7.45
497.695	7.46
498.043	7.49
498.392	7.5
498.741	7.51
499.09	7.57
499.438	7.59
499.787	7.61
500.135	7.62
500.484	7.63
500.832	7.65
501.181	7.67
501.529	7.68
501.878	7.73
502.226	7.75
502.574	7.8
502.923	7.83
503.271	7.83
503.619	7.86
503.967	7.9
504.315	7.92
504.663	7.93
505.011	7.96
505.359	7.97
505.707	8.01
506.055	8.05
506.403	8.04
506.751	8.06
507.098	8.1
507.446	8.14
507.794	8.16
508.141	8.17
508.489	8.18
508.837	8.18
509.184	8.2
509.531	8.21
509.879	8.19
510.226	8.18
510.574	8.19
510.921	8.2
511.268	8.2
511.616	8.22
511.963	8.22
512.31	8.21
512.657	8.23
513.004	8.23
513.351	8.21
513.698	8.24
514.045	8.25
514.392	8.24
514.739	8.25
515.086	8.28
515.432	8.28
515.779	8.28
516.126	8.32
516.473	8.31
516.819	8.31
517.166	8.33
517.512	8.35
517.859	8.35
518.205	8.34
518.552	8.35
518.898	8.36
519.245	8.39
519.591	8.41
519.937	8.43
520.283	8.44
520.629	8.46
520.976	8.47
521.322	8.47
521.668	8.5
522.014	8.51
522.36	8.51
522.706	8.54
523.052	8.57
523.398	8.58
523.743	8.6
524.089	8.65
524.435	8.69
524.781	8.7
525.126	8.72
525.472	8.76
525.817	8.78
526.163	8.79
526.509	8.79
526.854	8.8
527.199	8.79
527.545	8.78
527.89	8.77
528.235	8.75
528.581	8.75
528.926	8.74
529.271	8.73
529.616	8.74
529.961	8.74
530.306	8.75
530.651	8.74
530.996	8.74
531.341	8.73
531.686	8.72
532.031	8.71
532.376	8.71
532.721	8.7
533.065	8.68
533.41	8.67
533.755	8.65
534.099	8.63
534.444	8.65
534.788	8.66
535.133	8.69
535.477	8.7
535.822	8.73
536.166	8.75
536.51	8.75
536.855	8.77
537.199	8.77
537.543	8.79
537.887	8.79
538.231	8.81
538.576	8.81
538.92	8.81
539.264	8.81
539.608	8.82
539.951	8.8
540.295	8.8
540.639	8.8
540.983	8.82
541.327	8.82
541.671	8.82
542.014	8.82
542.358	8.83
542.701	8.82
543.045	8.81
543.389	8.8
543.732	8.81
544.075	8.79
544.419	8.78
544.762	8.75
545.105	8.75
545.449	8.75
545.792	8.76
546.135	8.77
546.478	8.79
546.821	8.78
547.165	8.79
547.508	8.83
547.851	8.85
548.194	8.87
548.536	8.89
548.879	8.89
549.222	8.9
549.565	8.9
549.908	8.92
550.25	8.93
550.593	8.92
550.936	8.94
551.278	8.93
551.621	8.96
551.963	9
552.306	9.02
552.648	9
552.991	9
553.333	8.99
553.675	9.01
554.017	9.04
554.36	9.08
554.702	9.06
555.044	9.07
555.386	9.03
555.728	9.06
556.07	9.03
556.412	9.05
556.754	9.03
557.096	9.05
557.438	9.05
557.78	9.05
558.121	9.04
558.463	9.06
558.805	9.06
559.147	9.06
559.488	9.08
559.83	9.08
560.171	9.06
560.513	9.04
560.854	9.06
561.196	9.03
561.537	9.03
561.878	9.06
562.22	9.07
562.561	9.1
562.902	9.07
563.243	9.15
563.584	9.16
563.925	9.19
564.266	9.2
564.607	9.23
564.948	9.22
565.289	9.22
565.63	9.23
565.971	9.25
566.312	9.24
566.653	9.25
566.993	9.26
567.334	9.28
567.675	9.31
568.015	9.29
568.356	9.29
568.696	9.28
569.037	9.25
569.377	9.26
569.718	9.27
570.058	9.27
570.398	9.23
570.739	9.2
571.079	9.19
571.419	9.2
571.759	9.16
572.099	9.18
572.439	9.2
572.779	9.21
573.119	9.2
573.459	9.21
573.799	9.21
574.139	9.19
574.479	9.23
574.819	9.23
575.158	9.23
575.498	9.23
575.838	9.21
576.177	9.2
576.517	9.22
576.856	9.22
577.196	9.19
577.535	9.2
577.875	9.21
578.214	9.22
578.553	9.2
578.893	9.25
579.232	9.27
579.571	9.28
579.91	9.26
580.25	9.27
580.589	9.31
580.928	9.31
581.267	9.36
581.606	9.28
581.945	9.28
582.283	9.3
582.622	9.31
582.961	9.36
583.3	9.37
583.639	9.35
583.977	9.34
584.316	9.41
584.654	9.44
584.993	9.47
585.332	9.47
585.67	9.48
586.008	9.49
586.347	9.48
586.685	9.42
587.024	9.43
587.362	9.4
587.7	9.4
588.038	9.4
588.376	9.36
588.715	9.4
589.053	9.42
589.391	9.39
589.729	9.37
590.067	9.35
590.404	9.37
590.742	9.39
591.08	9.4
591.418	9.35
591.756	9.36
592.093	9.34
592.431	9.33
592.769	9.35
593.106	9.32
593.444	9.33
593.781	9.37
594.119	9.38
594.456	9.39
594.793	9.31
595.131	9.33
595.468	9.37
595.805	9.34
596.143	9.36
596.48	9.37
596.817	9.39
597.154	9.42
597.491	9.39
597.828	9.39
598.165	9.4
598.502	9.41
598.839	9.4
599.176	9.42
599.512	9.42
599.849	9.44
600.186	9.47
600.523	9.46
600.859	9.45
601.196	9.46
601.532	9.47
601.869	9.51
602.205	9.5
602.542	9.49
602.878	9.52
603.215	9.51
603.551	9.49
603.887	9.48
604.223	9.49
604.56	9.49
604.896	9.52
605.232	9.54
605.568	9.55
605.904	9.51
606.24	9.51
606.576	9.55
606.912	9.53
607.248	9.52
607.583	9.54
607.919	9.56
608.255	9.59
608.591	9.6
608.926	9.55
609.262	9.54
609.597	9.51
609.933	9.53
610.268	9.52
610.604	9.57
610.939	9.61
611.275	9.64
611.61	9.66
611.945	9.64
612.281	9.64
612.616	9.64
612.951	9.71
613.286	9.71
613.621	9.67
613.956	9.69
614.291	9.65
614.626	9.62
614.961	9.62
615.296	9.58
615.631	9.6
615.966	9.68
616.3	9.74
616.635	9.76
616.97	9.75
617.304	9.73
617.639	9.76
617.973	9.75
618.308	9.71
618.642	9.68
618.977	9.65
619.311	9.63
619.646	9.67
619.98	9.67
620.314	9.62
620.648	9.65
620.983	9.65
621.317	9.72
621.651	9.71
621.985	9.73
622.319	9.74
622.653	9.72
622.987	9.73
623.321	9.7
623.655	9.73
623.988	9.74
624.322	9.74
624.656	9.72
624.99	9.75
625.323	9.72
625.657	9.81
625.99	9.87
626.324	9.82
626.657	9.81
626.991	9.8
627.324	9.82
627.658	9.78
627.991	9.81
628.324	9.76
628.657	9.8
628.991	9.8
629.324	9.82
629.657	9.82
629.99	9.79
630.323	9.78
630.656	9.79
630.989	9.81
631.322	9.82
631.655	9.85
631.987	9.77
632.32	9.82
632.653	9.78
632.986	9.7
633.318	9.71
633.651	9.7
633.984	9.75
634.316	9.74
634.649	9.77
634.981	9.76
635.313	9.83
635.646	9.78
635.978	9.79
636.31	9.79
636.643	9.79
636.975	9.82
637.307	9.85
637.639	9.83
637.971	9.76
638.303	9.77
638.635	9.74
638.967	9.78
639.299	9.77
639.631	9.8
639.963	9.8
640.295	9.85
640.626	9.81
640.958	9.74
641.29	9.79
641.621	9.82
641.953	9.78
642.285	9.75
642.616	9.8
642.948	9.73
643.279	9.7
643.61	9.74
643.942	9.67
644.273	9.65
644.604	9.63
644.936	9.68
645.267	9.7
645.598	9.66
645.929	9.66
646.26	9.68
646.591	9.68
646.922	9.67
647.253	9.68
647.584	9.73
647.915	9.82
648.245	9.84
648.576	9.81
648.907	9.77
649.238	9.74
649.568	9.76
649.899	9.8
650.229	9.85
650.56	9.83
650.89	9.91
651.221	9.93
651.551	10
651.882	9.98
652.212	10.02
652.542	10.07
652.872	10.06
653.203	10.07
653.533	10.01
653.863	10.08
654.193	10.02
654.523	10.11
654.853	10.04
655.183	10.04
655.513	10.08
655.843	10.16
656.172	10.22
656.502	10.18
656.832	10.17
657.162	10.16
657.491	10.21
657.821	10.18
658.15	10.14
658.48	10.11
658.809	10.11
659.139	10.07
659.468	10.05
659.798	10.06
660.127	10.05
660.456	10.07
660.785	10.11
661.115	10.16
661.444	10.13
661.773	10.15
662.102	10.13
662.431	10.08
662.76	10.07
663.089	10.1
663.418	10.16
663.747	10.21
664.076	10.19
664.404	10.19
664.733	10.18
665.062	10.21
665.39	10.2
665.719	10.2
666.048	10.23
666.376	10.29
666.705	10.34
667.033	10.34
667.362	10.29
667.69	10.3
668.018	10.38
668.347	10.29
668.675	10.31
669.003	10.3
669.331	10.35
669.659	10.39
669.987	10.41
670.315	10.33
670.643	10.27
670.971	10.32
671.299	10.33
671.627	10.41
671.955	10.43
672.283	10.45
672.61	10.5
672.938	10.52
673.266	10.49
673.593	10.47
673.921	10.48
674.249	10.55
674.576	10.56
674.904	10.44
675.231	10.52
675.558	10.53
675.886	10.58
676.213	10.55
676.54	10.51
676.867	10.48
677.195	10.57
677.522	10.65
677.849	10.67
678.176	10.65
678.503	10.59
