Data from BU57737_Reflection_00004.txt Node
Date: Mon Nov 18 16:29:42 EST 2019
User: vgr7
Spectrometer: USB2G7710
Scans to average: 3
Trigger mode: 4
Integration Time (sec): 2.000000E-2
Electric dark correction enabled: true
Boxcar width: 10
XAxis mode: Wavelengths
Number of Pixels in Spectrum: 2048
>>>>>Begin Spectral Data<<<<<
177.721	-160.63
178.105	766.67
178.488	156.6
178.871	120.98
179.254	88.59
179.636	-22.45
180.019	203.45
180.402	130.77
180.785	-189.58
181.168	-2685.71
181.55	541.44
181.933	147.48
182.316	133.96
182.698	173.76
183.081	350.79
183.463	476.62
183.846	192.33
184.228	292.05
184.611	290.36
184.993	253.66
185.376	267.03
185.758	221.04
186.14	185.54
186.522	130.44
186.904	98.97
187.287	77.93
187.669	75.21
188.051	134.28
188.433	145.35
188.815	112.72
189.197	17.47
189.579	33.33
189.961	95.07
190.342	222.81
190.724	233.86
191.106	-639.13
191.488	9100
191.869	-18.28
192.251	-7.3
192.633	-122.52
193.014	-98.79
193.396	-136.8
193.777	-118.71
194.159	-159.26
194.54	-103.27
194.922	-95.23
195.303	-85.19
195.684	-107.4
196.065	-94.92
196.447	-119.06
196.828	-139.11
197.209	-106.09
197.59	-92.56
197.971	-91.49
198.352	-67.32
198.733	-94.36
199.114	-104.56
199.495	-119.55
199.876	-97.62
200.257	-97.23
200.638	-67.64
201.018	-76.37
201.399	-54.88
201.78	-63.05
202.16	-57.23
202.541	-124.17
202.922	-170.94
203.302	-251.55
203.683	-254.04
204.063	-490.11
204.444	-933.61
204.824	-321.6
205.204	-561.54
205.585	-369.53
205.965	-217.17
206.345	-519.05
206.725	-809.68
207.106	-784.39
207.486	-646.72
207.866	-1593.07
208.246	12736.36
208.626	58433.33
209.006	-921.62
209.386	4433.33
209.766	1468.79
210.145	2148.54
210.525	-397.27
210.905	-317.68
211.285	-209.8
211.664	-149.17
212.044	-101.97
212.424	-102.08
212.803	-152.44
213.183	-122.99
213.562	-137.06
213.942	-155.11
214.321	-116.6
214.701	-100
215.08	-93
215.459	-92.8
215.838	-97.33
216.218	-111.44
216.597	-94.1
216.976	-110.98
217.355	-92.65
217.734	-86.37
218.113	-79.49
218.492	-89.77
218.871	-106.83
219.25	-144.07
219.629	-187.55
220.008	-203.11
220.387	-196.27
220.766	-164.77
221.144	-174.36
221.523	-194.49
221.902	-171.4
222.28	-181.5
222.659	-157.71
223.037	-138.7
223.416	-139.01
223.794	-105.69
224.173	-89.31
224.551	-77.87
224.929	-68.84
225.308	-58.41
225.686	-50.39
226.064	-46.62
226.442	-51.26
226.821	-42.92
227.199	-38.59
227.577	-35.63
227.955	-31
228.333	-30.75
228.711	-30.09
229.089	-26.4
229.467	-24.5
229.845	-25.87
230.222	-25.39
230.6	-24.54
230.978	-21.8
231.356	-16.41
231.733	-14.48
232.111	-11.48
232.488	-9.48
232.866	-7.79
233.243	-6.89
233.621	-8.59
233.998	-6.11
234.376	-2.12
234.753	-2.5
235.13	-0.26
235.508	1.43
235.885	1.16
236.262	2.16
236.639	1.27
237.016	0.62
237.393	1.54
237.77	3.27
238.147	3.04
238.524	2.42
238.901	2.8
239.278	2.37
239.655	2.43
240.032	2.42
240.409	1.85
240.785	2.47
241.162	2.88
241.539	3.68
241.915	3.52
242.292	3.37
242.668	3.74
243.045	3.55
243.421	3.4
243.798	3.81
244.174	3.92
244.551	4.08
244.927	4.31
245.303	4.81
245.679	4.67
246.056	4.72
246.432	5.2
246.808	5.03
247.184	4.95
247.56	4.9
247.936	4.97
248.312	5.16
248.688	5.12
249.064	4.84
249.44	4.78
249.815	4.79
250.191	4.76
250.567	4.94
250.943	5.08
251.318	5.23
251.694	4.85
252.069	4.71
252.445	5.1
252.82	5.14
253.196	4.63
253.571	4.45
253.947	4.15
254.322	4.03
254.697	4.21
255.073	4.27
255.448	4.13
255.823	4.01
256.198	4.03
256.573	4.11
256.948	4.1
257.323	4.14
257.698	4.35
258.073	4.4
258.448	4.18
258.823	4.17
259.198	3.91
259.573	3.98
259.948	4.06
260.322	4.1
260.697	4.15
261.072	4.19
261.446	4.4
261.821	4.42
262.195	4.43
262.57	4.32
262.944	4.26
263.319	4.24
263.693	4.16
264.067	4.33
264.442	4.34
264.816	4.44
265.19	4.3
265.564	4.12
265.938	4.07
266.313	3.98
266.687	4.02
267.061	4.3
267.435	4.2
267.809	4.19
268.183	3.99
268.556	3.75
268.93	3.77
269.304	3.76
269.678	3.83
270.051	3.76
270.425	3.77
270.799	3.83
271.172	4.01
271.546	4.04
271.919	3.71
272.293	3.74
272.666	3.88
273.04	4.03
273.413	3.86
273.787	3.88
274.16	4.03
274.533	3.99
274.906	3.98
275.279	4.14
275.653	4.31
276.026	4.31
276.399	4.38
276.772	4.48
277.145	4.32
277.518	4.37
277.891	4.22
278.263	4.28
278.636	4.18
279.009	4.14
279.382	4.33
279.755	4.57
280.127	4.54
280.5	4.58
280.872	4.59
281.245	4.81
281.617	4.81
281.99	4.8
282.362	4.74
282.735	4.54
283.107	4.53
283.479	4.37
283.852	4.41
284.224	4.44
284.596	4.25
284.968	4.26
285.34	4.41
285.713	4.52
286.085	4.55
286.457	4.68
286.829	4.66
287.201	4.58
287.572	4.54
287.944	4.48
288.316	4.3
288.688	4.23
289.06	4.17
289.431	4.15
289.803	4.14
290.175	4.23
290.546	4.49
290.918	4.44
291.289	4.52
291.661	4.54
292.032	4.61
292.403	4.73
292.775	4.77
293.146	4.59
293.517	4.44
293.889	4.42
294.26	4.41
294.631	4.47
295.002	4.53
295.373	4.49
295.744	4.57
296.115	4.69
296.486	4.58
296.857	4.67
297.228	4.67
297.599	4.63
297.97	4.69
298.34	4.67
298.711	4.67
299.082	4.58
299.452	4.67
299.823	4.69
300.194	4.72
300.564	4.75
300.935	4.89
301.305	5.02
301.676	5.1
302.046	5.04
302.416	5.08
302.787	5.06
303.157	5.18
303.527	5.07
303.897	4.98
304.267	5.27
304.637	5.19
305.008	5.31
305.378	5.38
305.748	5.31
306.117	5.18
306.487	5.17
306.857	5.21
307.227	5.07
307.597	5.07
307.967	5.09
308.336	5.01
308.706	5.01
309.076	4.97
309.445	4.86
309.815	4.86
310.184	4.78
310.554	4.73
310.923	4.6
311.293	4.61
311.662	4.66
312.031	4.61
312.401	4.61
312.77	4.63
313.139	4.72
313.508	4.68
313.877	4.71
314.246	4.85
314.616	4.83
314.985	4.93
315.353	4.73
315.722	4.74
316.091	4.63
316.46	4.54
316.829	4.51
317.198	4.55
317.567	4.61
317.935	4.56
318.304	4.71
318.672	4.67
319.041	4.73
319.41	4.76
319.778	4.7
320.147	4.82
320.515	4.78
320.883	4.59
321.252	4.7
321.62	4.77
321.988	4.68
322.357	4.79
322.725	4.69
323.093	4.79
323.461	4.75
323.829	4.97
324.197	5.04
324.565	5.14
324.933	5.15
325.301	5.1
325.669	5.17
326.037	5.02
326.405	5.15
326.772	5.04
327.14	5.01
327.508	5.02
327.875	4.82
328.243	4.81
328.61	4.92
328.978	4.86
329.346	4.91
329.713	4.85
330.08	4.78
330.448	4.72
330.815	4.63
331.182	4.56
331.55	4.52
331.917	4.38
332.284	4.38
332.651	4.36
333.018	4.43
333.385	4.32
333.752	4.47
334.119	4.45
334.486	4.5
334.853	4.45
335.22	4.39
335.587	4.52
335.954	4.49
336.32	4.39
336.687	4.4
337.054	4.22
337.42	4.25
337.787	4.24
338.153	4.33
338.52	4.38
338.886	4.33
339.253	4.3
339.619	4.47
339.986	4.5
340.352	4.47
340.718	4.43
341.084	4.46
341.451	4.48
341.817	4.41
342.183	4.37
342.549	4.39
342.915	4.49
343.281	4.46
343.647	4.4
344.013	4.36
344.379	4.33
344.745	4.43
345.11	4.39
345.476	4.53
345.842	4.46
346.208	4.47
346.573	4.49
346.939	4.47
347.304	4.36
347.67	4.31
348.035	4.28
348.401	4.3
348.766	4.32
349.132	4.22
349.497	4.28
349.862	4.35
350.228	4.35
350.593	4.3
350.958	4.37
351.323	4.33
351.688	4.41
352.053	4.36
352.418	4.37
352.783	4.43
353.148	4.31
353.513	4.37
353.878	4.37
354.243	4.45
354.608	4.46
354.972	4.51
355.337	4.5
355.702	4.62
356.066	4.6
356.431	4.6
356.795	4.63
357.16	4.61
357.524	4.54
357.889	4.56
358.253	4.55
358.618	4.53
358.982	4.59
359.346	4.52
359.71	4.54
360.075	4.5
360.439	4.48
360.803	4.5
361.167	4.43
361.531	4.43
361.895	4.37
362.259	4.41
362.623	4.38
362.987	4.34
363.351	4.25
363.714	4.2
364.078	4.2
364.442	4.15
364.806	4.14
365.169	4.16
365.533	4.1
365.896	4.12
366.26	4.11
366.623	4.11
366.987	4.11
367.35	4.16
367.714	4.09
368.077	4.06
368.44	3.98
368.803	3.97
369.167	3.9
369.53	3.95
369.893	3.91
370.256	3.92
370.619	3.95
370.982	3.94
371.345	4
371.708	3.93
372.071	4.01
372.434	3.96
372.797	3.98
373.159	4.01
373.522	4
373.885	3.99
374.247	4.05
374.61	4.09
374.973	4.08
375.335	4.22
375.698	4.25
376.06	4.24
376.423	4.29
376.785	4.41
377.147	4.41
377.51	4.39
377.872	4.41
378.234	4.41
378.596	4.44
378.958	4.42
379.321	4.46
379.683	4.41
380.045	4.47
380.407	4.55
380.769	4.53
381.13	4.55
381.492	4.51
381.854	4.46
382.216	4.43
382.578	4.47
382.939	4.36
383.301	4.37
383.663	4.38
384.024	4.38
384.386	4.36
384.747	4.38
385.109	4.41
385.47	4.37
385.832	4.34
386.193	4.36
386.554	4.34
386.916	4.36
387.277	4.4
387.638	4.39
387.999	4.34
388.36	4.39
388.721	4.38
389.082	4.4
389.443	4.36
389.804	4.37
390.165	4.33
390.526	4.35
390.887	4.34
391.248	4.38
391.609	4.38
391.969	4.38
392.33	4.34
392.691	4.35
393.051	4.34
393.412	4.35
393.772	4.33
394.133	4.37
394.493	4.34
394.854	4.32
395.214	4.32
395.574	4.27
395.935	4.26
396.295	4.26
396.655	4.26
397.015	4.3
397.376	4.31
397.736	4.29
398.096	4.3
398.456	4.31
398.816	4.29
399.176	4.26
399.535	4.26
399.895	4.26
400.255	4.22
400.615	4.24
400.975	4.29
401.334	4.28
401.694	4.23
402.054	4.22
402.413	4.22
402.773	4.2
403.132	4.26
403.492	4.23
403.851	4.21
404.211	4.19
404.57	4.14
404.929	4.13
405.288	4.15
405.648	4.15
406.007	4.15
406.366	4.13
406.725	4.17
407.084	4.16
407.443	4.18
407.802	4.21
408.161	4.19
408.52	4.14
408.879	4.15
409.238	4.18
409.596	4.16
409.955	4.16
410.314	4.16
410.673	4.12
411.031	4.13
411.39	4.12
411.748	4.14
412.107	4.17
412.465	4.19
412.824	4.17
413.182	4.16
413.54	4.18
413.899	4.19
414.257	4.18
414.615	4.17
414.974	4.17
415.332	4.15
415.69	4.14
416.048	4.17
416.406	4.15
416.764	4.13
417.122	4.17
417.48	4.16
417.838	4.18
418.195	4.18
418.553	4.16
418.911	4.17
419.269	4.15
419.626	4.14
419.984	4.13
420.342	4.14
420.699	4.12
421.057	4.11
421.414	4.11
421.772	4.11
422.129	4.1
422.486	4.1
422.844	4.1
423.201	4.1
423.558	4.08
423.915	4.08
424.273	4.08
424.63	4.06
424.987	4.07
425.344	4.06
425.701	4.06
426.058	4.06
426.415	4.05
426.772	4.07
427.128	4.08
427.485	4.08
427.842	4.09
428.199	4.1
428.555	4.1
428.912	4.09
429.269	4.08
429.625	4.09
429.982	4.07
430.338	4.04
430.695	4.07
431.051	4.07
431.407	4.06
431.764	4.06
432.12	4.06
432.476	4.03
432.832	4
433.189	4.01
433.545	4.01
433.901	4
434.257	3.98
434.613	3.97
434.969	3.97
435.325	3.96
435.681	3.94
436.036	3.95
436.392	3.94
436.748	3.93
437.104	3.92
437.459	3.92
437.815	3.95
438.171	3.92
438.526	3.94
438.882	3.95
439.237	3.95
439.593	3.96
439.948	3.97
440.304	3.99
440.659	3.99
441.014	3.99
441.369	3.98
441.725	3.97
442.08	3.97
442.435	3.97
442.79	3.96
443.145	3.97
443.5	3.96
443.855	3.97
444.21	3.96
444.565	3.97
444.92	3.97
445.275	3.96
445.629	3.97
445.984	3.96
446.339	3.95
446.693	3.95
447.048	3.92
447.403	3.93
447.757	3.93
448.112	3.91
448.466	3.9
448.82	3.9
449.175	3.93
449.529	3.9
449.883	3.9
450.238	3.91
450.592	3.9
450.946	3.89
451.3	3.89
451.654	3.9
452.008	3.87
452.362	3.88
452.716	3.89
453.07	3.88
453.424	3.89
453.778	3.89
454.132	3.88
454.486	3.9
454.839	3.89
455.193	3.88
455.547	3.88
455.9	3.87
456.254	3.86
456.607	3.85
456.961	3.87
457.314	3.85
457.668	3.86
458.021	3.87
458.375	3.86
458.728	3.86
459.081	3.87
459.434	3.87
459.787	3.87
460.141	3.86
460.494	3.85
460.847	3.83
461.2	3.81
461.553	3.83
461.906	3.82
462.259	3.82
462.611	3.84
462.964	3.84
463.317	3.86
463.67	3.86
464.022	3.86
464.375	3.85
464.728	3.87
465.08	3.87
465.433	3.85
465.785	3.88
466.138	3.88
466.49	3.87
466.843	3.89
467.195	3.89
467.547	3.91
467.899	3.92
468.252	3.92
468.604	3.93
468.956	3.91
469.308	3.9
469.66	3.91
470.012	3.88
470.364	3.87
470.716	3.89
471.068	3.9
471.42	3.89
471.772	3.92
472.123	3.92
472.475	3.94
472.827	3.96
473.178	3.96
473.53	3.95
473.882	3.93
474.233	3.92
474.585	3.91
474.936	3.89
475.288	3.91
475.639	3.95
475.99	3.96
476.342	3.97
476.693	3.98
477.044	3.96
477.395	3.98
477.746	3.99
478.097	3.99
478.448	3.99
478.8	4
479.15	3.99
479.501	3.99
479.852	3.98
480.203	3.99
480.554	4
480.905	4.02
481.255	4.03
481.606	4.05
481.957	4.06
482.307	4.07
482.658	4.08
483.009	4.07
483.359	4.07
483.709	4.09
484.06	4.09
484.41	4.1
484.761	4.1
485.111	4.11
485.461	4.11
485.811	4.12
486.162	4.1
486.512	4.11
486.862	4.12
487.212	4.12
487.562	4.11
487.912	4.1
488.262	4.1
488.612	4.09
488.961	4.09
489.311	4.09
489.661	4.08
490.011	4.07
490.36	4.07
490.71	4.07
491.06	4.07
491.409	4.06
491.759	4.05
492.108	4.07
492.458	4.06
492.807	4.05
493.157	4.04
493.506	4.06
493.855	4.07
494.204	4.06
494.554	4.06
494.903	4.06
495.252	4.07
495.601	4.07
495.95	4.08
496.299	4.08
496.648	4.08
496.997	4.07
497.346	4.09
497.695	4.09
498.043	4.08
498.392	4.09
498.741	4.12
499.09	4.13
499.438	4.12
499.787	4.13
500.135	4.17
500.484	4.18
500.832	4.18
501.181	4.18
501.529	4.19
501.878	4.21
502.226	4.23
502.574	4.23
502.923	4.25
503.271	4.26
503.619	4.28
503.967	4.29
504.315	4.29
504.663	4.3
505.011	4.3
505.359	4.31
505.707	4.31
506.055	4.29
506.403	4.29
506.751	4.27
507.098	4.3
507.446	4.28
507.794	4.26
508.141	4.28
508.489	4.28
508.837	4.3
509.184	4.3
509.531	4.33
509.879	4.35
510.226	4.36
510.574	4.35
510.921	4.35
511.268	4.36
511.616	4.39
511.963	4.4
512.31	4.41
512.657	4.43
513.004	4.43
513.351	4.45
513.698	4.45
514.045	4.48
514.392	4.49
514.739	4.49
515.086	4.52
515.432	4.51
515.779	4.52
516.126	4.54
516.473	4.55
516.819	4.53
517.166	4.54
517.512	4.56
517.859	4.56
518.205	4.57
518.552	4.58
518.898	4.58
519.245	4.58
519.591	4.58
519.937	4.57
520.283	4.58
520.629	4.6
520.976	4.61
521.322	4.62
521.668	4.62
522.014	4.64
522.36	4.65
522.706	4.65
523.052	4.68
523.398	4.68
523.743	4.7
524.089	4.71
524.435	4.7
524.781	4.7
525.126	4.7
525.472	4.72
525.817	4.73
526.163	4.73
526.509	4.75
526.854	4.78
527.199	4.79
527.545	4.8
527.89	4.82
528.235	4.82
528.581	4.82
528.926	4.82
529.271	4.82
529.616	4.82
529.961	4.82
530.306	4.81
530.651	4.81
530.996	4.81
531.341	4.81
531.686	4.82
532.031	4.82
532.376	4.84
532.721	4.85
533.065	4.85
533.41	4.85
533.755	4.84
534.099	4.82
534.444	4.82
534.788	4.81
535.133	4.8
535.477	4.81
535.822	4.8
536.166	4.8
536.51	4.81
536.855	4.82
537.199	4.83
537.543	4.83
537.887	4.85
538.231	4.84
538.576	4.85
538.92	4.86
539.264	4.86
539.608	4.86
539.951	4.85
540.295	4.85
540.639	4.85
540.983	4.85
541.327	4.88
541.671	4.87
542.014	4.89
542.358	4.87
542.701	4.89
543.045	4.91
543.389	4.91
543.732	4.92
544.075	4.92
544.419	4.92
544.762	4.93
545.105	4.93
545.449	4.94
545.792	4.95
546.135	4.94
546.478	4.95
546.821	4.94
547.165	4.95
547.508	4.95
547.851	4.95
548.194	4.95
548.536	4.93
548.879	4.97
549.222	4.95
549.565	4.97
549.908	4.95
550.25	4.94
550.593	4.93
550.936	4.92
551.278	4.92
551.621	4.93
551.963	4.93
552.306	4.89
552.648	4.91
552.991	4.92
553.333	4.91
553.675	4.9
554.017	4.9
554.36	4.9
554.702	4.92
555.044	4.92
555.386	4.92
555.728	4.91
556.07	4.88
556.412	4.9
556.754	4.92
557.096	4.92
557.438	4.92
557.78	4.93
558.121	4.91
558.463	4.91
558.805	4.91
559.147	4.9
559.488	4.9
559.83	4.89
560.171	4.88
560.513	4.89
560.854	4.9
561.196	4.92
561.537	4.95
561.878	4.92
562.22	4.92
562.561	4.89
562.902	4.9
563.243	4.91
563.584	4.9
563.925	4.91
564.266	4.88
564.607	4.9
564.948	4.89
565.289	4.91
565.63	4.91
565.971	4.89
566.312	4.9
566.653	4.92
566.993	4.92
567.334	4.91
567.675	4.92
568.015	4.93
568.356	4.91
568.696	4.9
569.037	4.94
569.377	4.95
569.718	4.98
570.058	4.98
570.398	4.98
570.739	5
571.079	4.99
571.419	5.01
571.759	5.04
572.099	5.05
572.439	5.04
572.779	5.05
573.119	5.08
573.459	5.1
573.799	5.11
574.139	5.12
574.479	5.13
574.819	5.14
575.158	5.12
575.498	5.11
575.838	5.14
576.177	5.09
576.517	5.11
576.856	5.13
577.196	5.12
577.535	5.13
577.875	5.12
578.214	5.1
578.553	5.12
578.893	5.1
579.232	5.09
579.571	5.1
579.91	5.09
580.25	5.09
580.589	5.08
580.928	5.07
581.267	5.06
581.606	5.1
581.945	5.11
582.283	5.14
582.622	5.16
582.961	5.16
583.3	5.17
583.639	5.19
583.977	5.21
584.316	5.24
584.654	5.2
584.993	5.21
585.332	5.21
585.67	5.21
586.008	5.18
586.347	5.21
586.685	5.2
587.024	5.2
587.362	5.21
587.7	5.21
588.038	5.23
588.376	5.25
588.715	5.2
589.053	5.23
589.391	5.22
589.729	5.23
590.067	5.23
590.404	5.23
590.742	5.22
591.08	5.16
591.418	5.15
591.756	5.15
592.093	5.14
592.431	5.16
592.769	5.17
593.106	5.15
593.444	5.1
593.781	5.08
594.119	5.07
594.456	5.06
594.793	5.04
595.131	5.01
595.468	4.98
595.805	5
596.143	4.96
596.48	4.97
596.817	4.97
597.154	4.95
597.491	4.94
597.828	4.94
598.165	4.95
598.502	4.95
598.839	4.94
599.176	4.92
599.512	4.91
599.849	4.94
600.186	4.99
600.523	5.03
600.859	5.11
601.196	5.1
601.532	5.11
601.869	5.16
602.205	5.2
602.542	5.2
602.878	5.22
603.215	5.28
603.551	5.23
603.887	5.25
604.223	5.28
604.56	5.29
604.896	5.25
605.232	5.28
605.568	5.29
605.904	5.34
606.24	5.39
606.576	5.39
606.912	5.34
607.248	5.33
607.583	5.33
607.919	5.31
608.255	5.28
608.591	5.32
608.926	5.31
609.262	5.3
609.597	5.36
609.933	5.37
610.268	5.34
610.604	5.37
610.939	5.35
611.275	5.34
611.61	5.34
611.945	5.4
612.281	5.4
612.616	5.38
612.951	5.38
613.286	5.34
613.621	5.34
613.956	5.38
614.291	5.38
614.626	5.39
614.961	5.37
615.296	5.39
615.631	5.38
615.966	5.38
616.3	5.39
616.635	5.35
616.97	5.37
617.304	5.39
617.639	5.38
617.973	5.42
618.308	5.39
618.642	5.38
618.977	5.34
619.311	5.31
619.646	5.33
619.98	5.26
620.314	5.3
620.648	5.32
620.983	5.34
621.317	5.36
621.651	5.34
621.985	5.37
622.319	5.38
622.653	5.39
622.987	5.4
623.321	5.34
623.655	5.3
623.988	5.26
624.322	5.22
624.656	5.24
624.99	5.21
625.323	5.21
625.657	5.23
625.99	5.22
626.324	5.26
626.657	5.29
626.991	5.35
627.324	5.33
627.658	5.3
627.991	5.29
628.324	5.29
628.657	5.29
628.991	5.26
629.324	5.29
629.657	5.27
629.99	5.29
630.323	5.31
630.656	5.33
630.989	5.35
631.322	5.4
631.655	5.33
631.987	5.32
632.32	5.36
632.653	5.31
632.986	5.36
633.318	5.33
633.651	5.35
633.984	5.41
634.316	5.41
634.649	5.43
634.981	5.41
635.313	5.38
635.646	5.4
635.978	5.36
636.31	5.31
636.643	5.29
636.975	5.27
637.307	5.24
637.639	5.24
637.971	5.22
638.303	5.23
638.635	5.29
638.967	5.3
639.299	5.32
639.631	5.33
639.963	5.29
640.295	5.27
640.626	5.25
640.958	5.17
641.29	5.2
641.621	5.16
641.953	5.18
642.285	5.22
642.616	5.21
642.948	5.24
643.279	5.33
643.61	5.34
643.942	5.35
644.273	5.37
644.604	5.37
644.936	5.38
645.267	5.4
645.598	5.42
645.929	5.48
646.26	5.42
646.591	5.46
646.922	5.45
647.253	5.49
647.584	5.47
647.915	5.49
648.245	5.49
648.576	5.53
648.907	5.59
649.238	5.6
649.568	5.59
649.899	5.6
650.229	5.57
650.56	5.56
650.89	5.58
651.221	5.65
651.551	5.62
651.882	5.64
652.212	5.62
652.542	5.63
652.872	5.54
653.203	5.55
653.533	5.56
653.863	5.55
654.193	5.58
654.523	5.55
654.853	5.52
655.183	5.54
655.513	5.53
655.843	5.44
656.172	5.42
656.502	5.48
656.832	5.46
657.162	5.48
657.491	5.46
657.821	5.43
658.15	5.41
658.48	5.45
658.809	5.46
659.139	5.46
659.468	5.41
659.798	5.45
660.127	5.5
660.456	5.53
660.785	5.59
661.115	5.56
661.444	5.58
661.773	5.54
662.102	5.49
662.431	5.56
662.76	5.66
663.089	5.64
663.418	5.63
663.747	5.64
664.076	5.66
664.404	5.71
664.733	5.76
665.062	5.64
665.39	5.65
665.719	5.64
666.048	5.7
666.376	5.74
666.705	5.75
667.033	5.69
667.362	5.66
667.69	5.58
668.018	5.58
668.347	5.6
668.675	5.7
669.003	5.73
669.331	5.69
669.659	5.64
669.987	5.62
670.315	5.64
670.643	5.67
670.971	5.68
671.299	5.7
671.627	5.67
671.955	5.7
672.283	5.72
672.61	5.7
672.938	5.61
673.266	5.63
673.593	5.76
673.921	5.79
674.249	5.78
674.576	5.86
674.904	5.87
675.231	5.87
675.558	5.83
