Data from BU57614_Reflection_00010.txt Node
Date: Mon Nov 18 16:24:34 EST 2019
User: vgr7
Spectrometer: USB2G7710
Scans to average: 3
Trigger mode: 4
Integration Time (sec): 2.000000E-2
Electric dark correction enabled: true
Boxcar width: 10
XAxis mode: Wavelengths
Number of Pixels in Spectrum: 2048
>>>>>Begin Spectral Data<<<<<
177.721	-317.61
178.105	96.81
178.488	-0.99
178.871	-25.63
179.254	-7.27
179.636	133.98
180.019	-13.97
180.402	67.92
180.785	-51.05
181.168	1486.36
181.55	-96.3
181.933	57.18
182.316	96.29
182.698	90.05
183.081	105.84
183.463	103.44
183.846	157.4
184.228	161.7
184.611	137.1
184.993	135.44
185.376	-3723.53
185.758	-3175.86
186.14	971.56
186.522	-696.61
186.904	-178.97
187.287	-302.14
187.669	-91.27
188.051	-148.84
188.433	-33.3
188.815	-3.05
189.197	-28.69
189.579	-24.07
189.961	-27.75
190.342	-33.61
190.724	-3.7
191.106	-3.33
191.488	-19.11
191.869	-6.18
192.251	-37.71
192.633	-30.12
193.014	-37.12
193.396	-79.9
193.777	-41.14
194.159	-42.18
194.54	-24.43
194.922	-12.83
195.303	-17.23
195.684	-21.3
196.065	-17.68
196.447	-28.84
196.828	-37.27
197.209	-24.48
197.59	-25.3
197.971	-11.86
198.352	1.66
198.733	-10.67
199.114	-5.66
199.495	-4.91
199.876	9.53
200.257	16.92
200.638	18.27
201.018	15.82
201.399	12.87
201.78	7.7
202.16	7.3
202.541	-2.36
202.922	-15.83
203.302	-14.97
203.683	-6.64
204.063	-17.3
204.444	-11.49
204.824	-23.62
205.204	-41.48
205.585	-40.62
205.965	-46.73
206.345	-78.26
206.725	-68.35
207.106	-93.54
207.486	-110.31
207.866	-117.39
208.246	-112.02
208.626	-137.91
209.006	-127.71
209.386	-147.92
209.766	-168.97
210.145	-135.28
210.525	-115.18
210.905	-109.43
211.285	-83.09
211.664	-72.81
212.044	-67.69
212.424	-69.56
212.803	-80.17
213.183	-61.77
213.562	-54.2
213.942	-43.42
214.321	-36.67
214.701	-38.3
215.08	-22.43
215.459	-20.07
215.838	-20.23
216.218	-26.09
216.597	-17.33
216.976	-8.38
217.355	-0.86
217.734	3.49
218.113	-2.57
218.492	-8.49
218.871	-5.33
219.25	-2.72
219.629	-11.23
220.008	-15.13
220.387	-14.85
220.766	-6.15
221.144	-13.89
221.523	-23.61
221.902	-32.37
222.28	-34.03
222.659	-32.57
223.037	-36.98
223.416	-32.73
223.794	-28.41
224.173	-26.15
224.551	-21.02
224.929	-22.36
225.308	-20.32
225.686	-28.05
226.064	-20.62
226.442	-16.45
226.821	-13.85
227.199	-12.43
227.577	-12.23
227.955	-9.66
228.333	-9.03
228.711	-9.39
229.089	-7.48
229.467	-5.15
229.845	-3.63
230.222	-4
230.6	-3.46
230.978	-1.39
231.356	-2.93
231.733	-1.79
232.111	-1.75
232.488	-1.83
232.866	-1.8
233.243	-2.16
233.621	-0.57
233.998	0.25
234.376	0.27
234.753	-0.26
235.13	-0.07
235.508	1.57
235.885	2.22
236.262	2.69
236.639	2.43
237.016	2.78
237.393	3.29
237.77	3.36
238.147	4.12
238.524	3.38
238.901	2.96
239.278	4.42
239.655	4.39
240.032	5.23
240.409	4.49
240.785	4.82
241.162	5.44
241.539	5.92
241.915	5.67
242.292	5.77
242.668	5.52
243.045	5.38
243.421	5.41
243.798	4.69
244.174	4.51
244.551	4.69
244.927	4.81
245.303	5.01
245.679	4.86
246.056	4.85
246.432	5.11
246.808	5.22
247.184	4.89
247.56	4.63
247.936	4.24
248.312	4.48
248.688	4.38
249.064	4.13
249.44	4.14
249.815	3.93
250.191	4
250.567	4.22
250.943	4.1
251.318	4.08
251.694	4.45
252.069	4.55
252.445	4.47
252.82	4.27
253.196	4.14
253.571	4.23
253.947	4.21
254.322	4.09
254.697	3.98
255.073	4.18
255.448	4.2
255.823	4.29
256.198	4.11
256.573	3.87
256.948	4.07
257.323	3.99
257.698	4.2
258.073	4.04
258.448	3.94
258.823	4.07
259.198	3.95
259.573	4.03
259.948	4.02
260.322	3.99
260.697	4.03
261.072	3.94
261.446	3.99
261.821	3.98
262.195	4.09
262.57	3.93
262.944	3.84
263.319	3.98
263.693	4.02
264.067	4.26
264.442	4.56
264.816	4.53
265.19	4.54
265.564	4.58
265.938	4.6
266.313	4.5
266.687	4.4
267.061	4.54
267.435	4.39
267.809	4.31
268.183	4.37
268.556	4.34
268.93	4.3
269.304	4.06
269.678	4.06
270.051	3.94
270.425	4.07
270.799	4.24
271.172	4.12
271.546	4.15
271.919	4.04
272.293	3.92
272.666	4.03
273.04	4.02
273.413	3.83
273.787	3.78
274.16	3.76
274.533	3.65
274.906	3.59
275.279	3.67
275.653	3.82
276.026	3.78
276.399	3.84
276.772	4.05
277.145	4.13
277.518	4.2
277.891	4.43
278.263	4.39
278.636	4.33
279.009	4.27
279.382	4.16
279.755	4.19
280.127	4.34
280.5	4.27
280.872	4.33
281.245	4.37
281.617	4.57
281.99	4.65
282.362	4.75
282.735	4.67
283.107	4.63
283.479	4.6
283.852	4.61
284.224	4.59
284.596	4.36
284.968	4.38
285.34	4.41
285.713	4.25
286.085	4.32
286.457	4.36
286.829	4.43
287.201	4.58
287.572	4.54
287.944	4.47
288.316	4.43
288.688	4.48
289.06	4.56
289.431	4.39
289.803	4.38
290.175	4.45
290.546	4.65
290.918	4.62
291.289	4.68
291.661	4.74
292.032	4.75
292.403	4.97
292.775	5.16
293.146	5.01
293.517	5.05
293.889	5.13
294.26	5.16
294.631	5.23
295.002	5.02
295.373	5.02
295.744	5.06
296.115	5.15
296.486	5.09
296.857	5.16
297.228	5.29
297.599	5.41
297.97	5.41
298.34	5.28
298.711	5.34
299.082	5.3
299.452	5.26
299.823	5.48
300.194	5.32
300.564	5.23
300.935	5.39
301.305	5.45
301.676	5.5
302.046	5.56
302.416	5.73
302.787	5.95
303.157	5.97
303.527	6.11
303.897	6.25
304.267	6.43
304.637	6.46
305.008	6.56
305.378	6.68
305.748	6.85
306.117	7.03
306.487	7.23
306.857	7.31
307.227	7.43
307.597	7.38
307.967	7.61
308.336	7.64
308.706	7.74
309.076	7.92
309.445	7.86
309.815	7.87
310.184	7.89
310.554	8.03
310.923	8.21
311.293	8.14
311.662	8.12
312.031	8.03
312.401	8.04
312.77	8.2
313.139	8.22
313.508	8.32
313.877	8.29
314.246	8.28
314.616	8.22
314.985	8.35
315.353	8.44
315.722	8.35
316.091	8.57
316.46	8.54
316.829	8.44
317.198	8.62
317.567	8.77
317.935	8.63
318.304	8.83
318.672	8.68
319.041	8.88
319.41	8.92
319.778	8.99
320.147	9.06
320.515	9.03
320.883	8.97
321.252	8.98
321.62	9.18
321.988	9.21
322.357	9.32
322.725	9.3
323.093	9.24
323.461	9.52
323.829	9.52
324.197	9.61
324.565	9.7
324.933	9.77
325.301	9.83
325.669	10.15
326.037	10.01
326.405	10.22
326.772	10.36
327.14	10.4
327.508	10.53
327.875	10.61
328.243	10.6
328.61	10.66
328.978	10.83
329.346	10.85
329.713	10.85
330.08	11.06
330.448	11.14
330.815	11.2
331.182	11.19
331.55	11.21
331.917	11.29
332.284	11.55
332.651	11.55
333.018	11.56
333.385	11.54
333.752	11.68
334.119	11.7
334.486	11.58
334.853	11.73
335.22	11.7
335.587	11.73
335.954	11.76
336.32	11.85
336.687	11.69
337.054	11.65
337.42	11.79
337.787	11.69
338.153	11.77
338.52	11.89
338.886	11.76
339.253	11.8
339.619	11.89
339.986	11.82
340.352	11.9
340.718	11.87
341.084	11.83
341.451	11.79
341.817	11.93
342.183	11.97
342.549	11.89
342.915	12.09
343.281	12.09
343.647	12.2
344.013	12.31
344.379	12.37
344.745	12.54
345.11	12.62
345.476	12.83
345.842	12.79
346.208	12.84
346.573	13.02
346.939	13.11
347.304	12.96
347.67	12.88
348.035	12.87
348.401	12.97
348.766	13
349.132	13.05
349.497	12.94
349.862	13.09
350.228	13.26
350.593	13.2
350.958	13.35
351.323	13.29
351.688	13.31
352.053	13.42
352.418	13.35
352.783	13.39
353.148	13.29
353.513	13.3
353.878	13.28
354.243	13.29
354.608	13.23
354.972	13.35
355.337	13.42
355.702	13.52
356.066	13.57
356.431	13.59
356.795	13.66
357.16	13.61
357.524	13.57
357.889	13.45
358.253	13.43
358.618	13.39
358.982	13.4
359.346	13.35
359.71	13.25
360.075	13.24
360.439	13.2
360.803	13.17
361.167	13.17
361.531	13.16
361.895	13.1
362.259	13.11
362.623	13.11
362.987	13.05
363.351	12.98
363.714	12.83
364.078	12.72
364.442	12.64
364.806	12.58
365.169	12.47
365.533	12.4
365.896	12.36
366.26	12.28
366.623	12.28
366.987	12.14
367.35	12.1
367.714	12.06
368.077	11.9
368.44	11.78
368.803	11.71
369.167	11.58
369.53	11.56
369.893	11.45
370.256	11.37
370.619	11.37
370.982	11.29
371.345	11.31
371.708	11.33
372.071	11.21
372.434	11.18
372.797	11.1
373.159	11.06
373.522	11.03
373.885	10.96
374.247	10.86
374.61	10.87
374.973	10.76
375.335	10.65
375.698	10.58
376.06	10.52
376.423	10.49
376.785	10.43
377.147	10.4
377.51	10.33
377.872	10.34
378.234	10.23
378.596	10.13
378.958	10.05
379.321	10.02
379.683	9.97
380.045	9.94
380.407	9.91
380.769	9.84
381.13	9.7
381.492	9.63
381.854	9.56
382.216	9.46
382.578	9.47
382.939	9.39
383.301	9.39
383.663	9.36
384.024	9.24
384.386	9.23
384.747	9.15
385.109	9.08
385.47	8.94
385.832	8.85
386.193	8.82
386.554	8.73
386.916	8.61
387.277	8.6
387.638	8.52
387.999	8.46
388.36	8.4
388.721	8.38
389.082	8.36
389.443	8.28
389.804	8.2
390.165	8.09
390.526	8.07
390.887	8.03
391.248	7.99
391.609	7.95
391.969	7.89
392.33	7.81
392.691	7.81
393.051	7.75
393.412	7.73
393.772	7.65
394.133	7.62
394.493	7.58
394.854	7.48
395.214	7.44
395.574	7.37
395.935	7.33
396.295	7.27
396.655	7.18
397.015	7.14
397.376	7.09
397.736	7.01
398.096	6.93
398.456	6.84
398.816	6.81
399.176	6.69
399.535	6.62
399.895	6.6
400.255	6.53
400.615	6.48
400.975	6.43
401.334	6.37
401.694	6.32
402.054	6.24
402.413	6.21
402.773	6.12
403.132	6.1
403.492	6.01
403.851	5.97
404.211	5.93
404.57	5.87
404.929	5.84
405.288	5.81
405.648	5.76
406.007	5.73
406.366	5.68
406.725	5.71
407.084	5.69
407.443	5.62
407.802	5.59
408.161	5.56
408.52	5.48
408.879	5.46
409.238	5.43
409.596	5.4
409.955	5.37
410.314	5.39
410.673	5.35
411.031	5.37
411.39	5.32
411.748	5.27
412.107	5.29
412.465	5.28
412.824	5.26
413.182	5.23
413.54	5.2
413.899	5.18
414.257	5.16
414.615	5.1
414.974	5.11
415.332	5.06
415.69	5.01
416.048	4.99
416.406	4.98
416.764	4.95
417.122	4.94
417.48	4.91
417.838	4.86
418.195	4.83
418.553	4.79
418.911	4.78
419.269	4.76
419.626	4.72
419.984	4.68
420.342	4.66
420.699	4.65
421.057	4.63
421.414	4.58
421.772	4.54
422.129	4.53
422.486	4.49
422.844	4.5
423.201	4.48
423.558	4.47
423.915	4.45
424.273	4.42
424.63	4.39
424.987	4.38
425.344	4.38
425.701	4.35
426.058	4.34
426.415	4.31
426.772	4.29
427.128	4.27
427.485	4.26
427.842	4.24
428.199	4.22
428.555	4.2
428.912	4.2
429.269	4.21
429.625	4.18
429.982	4.16
430.338	4.11
430.695	4.14
431.051	4.12
431.407	4.1
431.764	4.11
432.12	4.09
432.476	4.06
432.832	4.04
433.189	4.05
433.545	4.02
433.901	4.02
434.257	4.01
434.613	4.03
434.969	4.04
435.325	4.05
435.681	4.05
436.036	4.06
436.392	4.05
436.748	4.05
437.104	4.05
437.459	4.07
437.815	4.07
438.171	4.05
438.526	4.04
438.882	4.04
439.237	4.04
439.593	4.05
439.948	4.06
440.304	4.08
440.659	4.06
441.014	4.08
441.369	4.07
441.725	4.06
442.08	4.04
442.435	4.04
442.79	4.03
443.145	4.02
443.5	4.01
443.855	4
444.21	3.99
444.565	4
444.92	3.98
445.275	3.98
445.629	3.98
445.984	3.98
446.339	3.96
446.693	3.93
447.048	3.9
447.403	3.89
447.757	3.87
448.112	3.88
448.466	3.86
448.82	3.86
449.175	3.88
449.529	3.87
449.883	3.85
450.238	3.84
450.592	3.81
450.946	3.79
451.3	3.77
451.654	3.75
452.008	3.73
452.362	3.72
452.716	3.7
453.07	3.69
453.424	3.68
453.778	3.69
454.132	3.69
454.486	3.7
454.839	3.7
455.193	3.69
455.547	3.68
455.9	3.7
456.254	3.68
456.607	3.66
456.961	3.67
457.314	3.66
457.668	3.65
458.021	3.66
458.375	3.67
458.728	3.68
459.081	3.69
459.434	3.68
459.787	3.69
460.141	3.7
460.494	3.69
460.847	3.71
461.2	3.7
461.553	3.71
461.906	3.72
462.259	3.72
462.611	3.73
462.964	3.72
463.317	3.71
463.67	3.72
464.022	3.73
464.375	3.72
464.728	3.71
465.08	3.73
465.433	3.73
465.785	3.73
466.138	3.74
466.49	3.73
466.843	3.75
467.195	3.77
467.547	3.79
467.899	3.79
468.252	3.8
468.604	3.84
468.956	3.84
469.308	3.83
469.66	3.86
470.012	3.87
470.364	3.9
470.716	3.91
471.068	3.95
471.42	3.96
471.772	3.98
472.123	4.02
472.475	4.04
472.827	4.07
473.178	4.07
473.53	4.08
473.882	4.09
474.233	4.1
474.585	4.1
474.936	4.11
475.288	4.15
475.639	4.14
475.99	4.14
476.342	4.14
476.693	4.15
477.044	4.14
477.395	4.15
477.746	4.15
478.097	4.14
478.448	4.12
478.8	4.12
479.15	4.08
479.501	4.08
479.852	4.05
480.203	4.06
480.554	4.06
480.905	4.06
481.255	4.06
481.606	4.06
481.957	4.07
482.307	4.07
482.658	4.05
483.009	4.04
483.359	4.03
483.709	4.02
484.06	4.02
484.41	4.02
484.761	4.02
485.111	4.02
485.461	4.02
485.811	4.02
486.162	4.02
486.512	4.04
486.862	4.03
487.212	4.03
487.562	4.02
487.912	4.01
488.262	4
488.612	3.99
488.961	3.98
489.311	3.97
489.661	3.95
490.011	3.95
490.36	3.96
490.71	3.97
491.06	3.98
491.409	3.98
491.759	3.98
492.108	3.98
492.458	3.99
492.807	3.99
493.157	4
493.506	4.02
493.855	4.02
494.204	4.03
494.554	4.05
494.903	4.07
495.252	4.08
495.601	4.11
495.95	4.15
496.299	4.17
496.648	4.21
496.997	4.26
497.346	4.3
497.695	4.34
498.043	4.36
498.392	4.4
498.741	4.45
499.09	4.48
499.438	4.53
499.787	4.57
500.135	4.62
500.484	4.67
500.832	4.7
501.181	4.74
501.529	4.8
501.878	4.86
502.226	4.9
502.574	4.98
502.923	5.03
503.271	5.07
503.619	5.14
503.967	5.21
504.315	5.26
504.663	5.33
505.011	5.39
505.359	5.47
505.707	5.54
506.055	5.59
506.403	5.67
506.751	5.74
507.098	5.83
507.446	5.89
507.794	5.97
508.141	6.05
508.489	6.15
508.837	6.24
509.184	6.33
509.531	6.44
509.879	6.53
510.226	6.63
510.574	6.74
510.921	6.83
511.268	6.91
511.616	6.99
511.963	7.08
512.31	7.19
512.657	7.29
513.004	7.38
513.351	7.52
513.698	7.62
514.045	7.71
514.392	7.81
514.739	7.93
515.086	8.03
515.432	8.16
515.779	8.26
516.126	8.38
516.473	8.48
516.819	8.57
517.166	8.64
517.512	8.73
517.859	8.82
518.205	8.92
518.552	9.04
518.898	9.16
519.245	9.26
519.591	9.34
519.937	9.45
520.283	9.58
520.629	9.7
520.976	9.83
521.322	9.99
521.668	10.13
522.014	10.28
522.36	10.42
522.706	10.58
523.052	10.76
523.398	10.94
523.743	11.13
524.089	11.34
524.435	11.54
524.781	11.73
525.126	11.92
525.472	12.08
525.817	12.22
526.163	12.36
526.509	12.5
526.854	12.64
527.199	12.77
527.545	12.87
527.89	12.99
528.235	13.13
528.581	13.26
528.926	13.4
529.271	13.54
529.616	13.67
529.961	13.82
530.306	13.98
530.651	14.13
530.996	14.32
531.341	14.48
531.686	14.66
532.031	14.84
532.376	15.02
532.721	15.22
533.065	15.43
533.41	15.64
533.755	15.87
534.099	16.09
534.444	16.31
534.788	16.55
535.133	16.76
535.477	16.98
535.822	17.23
536.166	17.48
536.51	17.74
536.855	18.03
537.199	18.33
537.543	18.62
537.887	18.93
538.231	19.24
538.576	19.55
538.92	19.86
539.264	20.15
539.608	20.44
539.951	20.72
540.295	20.98
540.639	21.23
540.983	21.46
541.327	21.7
541.671	21.96
542.014	22.2
542.358	22.46
542.701	22.72
543.045	22.95
543.389	23.2
543.732	23.47
544.075	23.74
544.419	24
544.762	24.27
545.105	24.55
545.449	24.83
545.792	25.14
546.135	25.46
546.478	25.82
546.821	26.17
547.165	26.52
547.508	26.89
547.851	27.28
548.194	27.64
548.536	28.02
548.879	28.38
549.222	28.73
549.565	29.12
549.908	29.48
550.25	29.84
550.593	30.23
550.936	30.55
551.278	30.92
551.621	31.28
551.963	31.72
552.306	32.06
552.648	32.44
552.991	32.82
553.333	33.16
553.675	33.48
554.017	33.79
554.36	34.14
554.702	34.42
555.044	34.74
555.386	35.09
555.728	35.47
556.07	35.79
556.412	36.18
556.754	36.45
557.096	36.75
557.438	37.04
557.78	37.43
558.121	37.87
558.463	38.18
558.805	38.47
559.147	38.72
559.488	39.06
559.83	39.38
560.171	39.68
560.513	40.04
560.854	40.37
561.196	40.71
561.537	41.01
561.878	41.3
562.22	41.57
562.561	41.87
562.902	42.07
563.243	42.37
563.584	42.65
563.925	42.97
564.266	43.26
564.607	43.59
564.948	43.75
565.289	43.97
565.63	44.25
565.971	44.55
566.312	44.78
566.653	45.02
566.993	45.23
567.334	45.49
567.675	45.65
568.015	45.86
568.356	46.02
568.696	46.22
569.037	46.41
569.377	46.68
569.718	46.85
570.058	47.06
570.398	47.25
570.739	47.36
571.079	47.48
571.419	47.68
571.759	47.85
572.099	48.01
572.439	48.11
572.779	48.2
573.119	48.4
573.459	48.61
573.799	48.76
574.139	48.86
574.479	49.02
574.819	49.14
575.158	49.29
575.498	49.45
575.838	49.64
576.177	49.8
576.517	49.92
576.856	50.09
577.196	50.3
577.535	50.43
577.875	50.59
578.214	50.84
578.553	51.01
578.893	51.15
579.232	51.28
579.571	51.45
579.91	51.75
580.25	51.84
580.589	51.96
580.928	52.08
581.267	52.23
581.606	52.26
581.945	52.45
582.283	52.59
582.622	52.7
582.961	52.83
583.3	52.88
583.639	53.02
583.977	53.17
584.316	53.24
584.654	53.35
584.993	53.51
585.332	53.59
585.67	53.63
586.008	53.67
586.347	53.8
586.685	53.92
587.024	53.99
587.362	54.02
587.7	54.08
588.038	54.21
588.376	54.31
588.715	54.43
589.053	54.52
589.391	54.58
589.729	54.64
590.067	54.67
590.404	54.87
590.742	54.89
591.08	54.94
591.418	55.01
591.756	55.05
592.093	55.09
592.431	55.13
592.769	55.21
593.106	55.3
593.444	55.38
593.781	55.46
594.119	55.48
594.456	55.56
594.793	55.6
595.131	55.59
595.468	55.62
595.805	55.65
596.143	55.71
596.48	55.76
596.817	55.81
597.154	55.89
597.491	55.92
597.828	55.93
598.165	55.98
598.502	56.04
598.839	56.08
599.176	56.09
599.512	56.2
599.849	56.34
600.186	56.46
600.523	56.53
600.859	56.58
601.196	56.64
601.532	56.69
601.869	56.73
602.205	56.89
602.542	56.95
602.878	57.03
603.215	57.1
603.551	57.12
603.887	57.19
604.223	57.21
604.56	57.19
604.896	57.32
605.232	57.41
605.568	57.45
605.904	57.6
606.24	57.74
606.576	57.76
606.912	57.76
607.248	57.77
607.583	57.82
607.919	57.84
608.255	57.87
608.591	57.99
608.926	58.13
609.262	58.14
609.597	58.25
609.933	58.3
610.268	58.29
610.604	58.34
610.939	58.37
611.275	58.41
611.61	58.52
611.945	58.55
612.281	58.61
612.616	58.64
612.951	58.63
613.286	58.59
613.621	58.65
613.956	58.67
614.291	58.79
614.626	58.91
614.961	58.98
615.296	59.06
615.631	59.07
615.966	59.07
616.3	59.07
616.635	59.05
616.97	59.06
617.304	59.05
617.639	59.05
617.973	59.11
618.308	59.23
618.642	59.23
618.977	59.17
619.311	59.07
619.646	59.08
619.98	59.12
620.314	59.24
620.648	59.22
620.983	59.21
621.317	59.25
621.651	59.21
621.985	59.27
622.319	59.29
622.653	59.29
622.987	59.26
623.321	59.35
623.655	59.38
623.988	59.45
624.322	59.56
624.656	59.61
624.99	59.52
625.323	59.5
625.657	59.47
625.99	59.58
626.324	59.65
626.657	59.61
626.991	59.69
627.324	59.66
627.658	59.68
627.991	59.79
628.324	59.74
628.657	59.67
628.991	59.68
629.324	59.7
629.657	59.74
629.99	59.76
630.323	59.72
630.656	59.81
630.989	59.84
631.322	59.91
631.655	59.94
631.987	60.05
632.32	60.09
632.653	60.12
632.986	60.05
633.318	60.14
633.651	60.16
633.984	60.09
634.316	60.09
634.649	60.16
634.981	60.1
635.313	60.14
635.646	60.22
635.978	60.26
636.31	60.27
636.643	60.34
636.975	60.39
637.307	60.47
637.639	60.47
637.971	60.33
638.303	60.28
638.635	60.2
638.967	60.25
639.299	60.16
639.631	60.2
639.963	60.17
640.295	60.09
640.626	60.24
640.958	60.37
641.29	60.52
641.621	60.41
641.953	60.47
642.285	60.37
642.616	60.43
642.948	60.39
643.279	60.38
643.61	60.45
643.942	60.45
644.273	60.35
644.604	60.2
644.936	60.27
645.267	60.37
645.598	60.42
645.929	60.51
646.26	60.64
646.591	60.59
646.922	60.6
647.253	60.61
647.584	60.52
647.915	60.42
648.245	60.42
648.576	60.53
648.907	60.56
649.238	60.61
649.568	60.57
649.899	60.49
650.229	60.56
650.56	60.54
650.89	60.53
651.221	60.53
651.551	60.61
651.882	60.6
652.212	60.56
652.542	60.62
652.872	60.57
653.203	60.53
653.533	60.69
653.863	60.75
654.193	60.74
654.523	60.84
654.853	60.83
655.183	60.77
655.513	60.83
655.843	60.79
656.172	60.87
656.502	60.89
656.832	61.05
657.162	61.1
657.491	60.93
657.821	61.08
658.15	61.16
658.48	61.08
658.809	61.14
659.139	61.17
659.468	61.21
659.798	61.16
660.127	61.2
660.456	61.1
660.785	61.19
661.115	61.24
661.444	61.09
661.773	61.12
662.102	61.07
662.431	61.09
662.76	61.11
663.089	61.14
663.418	61.16
