Data from BU57647_Reflection_00009.txt Node
Date: Mon Nov 18 16:49:37 EST 2019
User: vgr7
Spectrometer: USB2G7710
Scans to average: 3
Trigger mode: 4
Integration Time (sec): 2.000000E-2
Electric dark correction enabled: true
Boxcar width: 10
XAxis mode: Wavelengths
Number of Pixels in Spectrum: 2048
>>>>>Begin Spectral Data<<<<<
177.721	-6.49
178.105	19.31
178.488	45.66
178.871	30.85
179.254	-41.23
179.636	-400
180.019	-188.4
180.402	10
180.785	-387.94
181.168	-23.57
181.55	139.7
181.933	121.67
182.316	91
182.698	68.02
183.081	98.03
183.463	34.82
183.846	-1333.96
184.228	-12263.64
184.611	-332.65
184.993	-94.88
185.376	-132.48
185.758	-174.78
186.14	-101.27
186.522	-103.26
186.904	-99.55
187.287	-132.75
187.669	-171.94
188.051	-176.04
188.433	-117.04
188.815	-103.92
189.197	-85.5
189.579	-28.97
189.961	-26.02
190.342	-45.98
190.724	-17.6
191.106	-31.83
191.488	-54
191.869	-40.95
192.251	-7.67
192.633	-19.16
193.014	-43.85
193.396	-47
193.777	-25.74
194.159	-104.32
194.54	-78.96
194.922	-64.52
195.303	-15.33
195.684	-12.65
196.065	22.02
196.447	51.15
196.828	10.79
197.209	9.52
197.59	-15.59
197.971	-22.24
198.352	0.23
198.733	-20.46
199.114	-1.4
199.495	18.05
199.876	-6.92
200.257	-21.46
200.638	-14.05
201.018	-21.43
201.399	-19.89
201.78	-11.74
202.16	-20.71
202.541	-42.22
202.922	-65
203.302	-100.26
203.683	-72.66
204.063	-170.04
204.444	-172.16
204.824	-150.61
205.204	-189.21
205.585	-204.92
205.965	-308.04
206.345	-411.38
206.725	-1537.21
207.106	-1986.12
207.486	912.1
207.866	952.46
208.246	2627.61
208.626	2140.2
209.006	-1152.46
209.386	4805.88
209.766	-9559.57
210.145	-1558.36
210.525	-228.18
210.905	-182.11
211.285	-147.46
211.664	-119.34
212.044	-62.44
212.424	-41.35
212.803	-39.12
213.183	-48.43
213.562	-37.41
213.942	-25.11
214.321	-12.62
214.701	-14.5
215.08	10.23
215.459	9.65
215.838	35.06
216.218	42.46
216.597	39.88
216.976	35.28
217.355	42.12
217.734	41.43
218.113	37.37
218.492	43.2
218.871	35.06
219.25	43.66
219.629	39.63
220.008	17.65
220.387	16.4
220.766	16.16
221.144	26.07
221.523	-2.02
221.902	-6.48
222.28	-18.46
222.659	-23.09
223.037	-51.32
223.416	-51
223.794	-66.45
224.173	-56.01
224.551	-46.66
224.929	-45.99
225.308	-36.76
225.686	-25.76
226.064	-16.77
226.442	-15.23
226.821	-10.35
227.199	-12.11
227.577	-11.23
227.955	-4.6
228.333	-6.59
228.711	-5.49
229.089	-0.42
229.467	3.31
229.845	-0.1
230.222	-0.59
230.6	-0.37
230.978	2.65
231.356	2.16
231.733	3.13
232.111	5.06
232.488	5.86
232.866	4.81
233.243	4.36
233.621	3.5
233.998	3.93
234.376	4.98
234.753	6.7
235.13	6.04
235.508	7.67
235.885	6.26
236.262	4.82
236.639	4.61
237.016	3.28
237.393	4.28
237.77	4.87
238.147	6.87
238.524	6.64
238.901	6.56
239.278	7.92
239.655	8.5
240.032	7.89
240.409	6.65
240.785	7.16
241.162	7.48
241.539	7.54
241.915	7.46
242.292	6.64
242.668	6.56
243.045	6.21
243.421	5.95
243.798	5.61
244.174	5.55
244.551	5.54
244.927	5.41
245.303	5.72
245.679	5.82
246.056	5.44
246.432	5.47
246.808	5.57
247.184	4.92
247.56	4.43
247.936	4.61
248.312	4.81
248.688	4.83
249.064	4.57
249.44	4.51
249.815	4.52
250.191	4.69
250.567	4.48
250.943	4.54
251.318	4.51
251.694	4.56
252.069	4.6
252.445	4.73
252.82	4.54
253.196	4.01
253.571	3.93
253.947	4.28
254.322	4.67
254.697	4.51
255.073	4.75
255.448	4.7
255.823	4.33
256.198	4.26
256.573	3.94
256.948	4.17
257.323	4.33
257.698	4.22
258.073	4.29
258.448	4.31
258.823	4.21
259.198	3.98
259.573	3.94
259.948	3.93
260.322	3.73
260.697	3.93
261.072	3.93
261.446	3.98
261.821	3.83
262.195	3.75
262.57	3.68
262.944	3.59
263.319	3.59
263.693	3.57
264.067	3.62
264.442	3.7
264.816	3.51
265.19	3.4
265.564	3.51
265.938	3.5
266.313	3.24
266.687	3.27
267.061	3.43
267.435	3.5
267.809	3.43
268.183	3.62
268.556	3.53
268.93	3.57
269.304	3.44
269.678	3.73
270.051	3.54
270.425	3.6
270.799	3.63
271.172	3.6
271.546	3.72
271.919	3.57
272.293	3.5
272.666	3.51
273.04	3.62
273.413	3.51
273.787	3.54
274.16	3.65
274.533	3.75
274.906	3.74
275.279	3.6
275.653	3.58
276.026	3.47
276.399	3.35
276.772	3.53
277.145	3.62
277.518	3.49
277.891	3.57
278.263	3.44
278.636	3.39
279.009	3.53
279.382	3.56
279.755	3.71
280.127	3.91
280.5	4.12
280.872	4
281.245	4.09
281.617	4.19
281.99	4.31
282.362	4.35
282.735	4.29
283.107	4.4
283.479	4.55
283.852	4.6
284.224	4.71
284.596	4.6
284.968	4.66
285.34	4.63
285.713	4.56
286.085	4.69
286.457	4.68
286.829	4.67
287.201	4.77
287.572	4.71
287.944	4.69
288.316	4.51
288.688	4.51
289.06	4.36
289.431	4.32
289.803	4.26
290.175	4.21
290.546	4.44
290.918	4.47
291.289	4.48
291.661	4.64
292.032	4.69
292.403	4.78
292.775	4.86
293.146	4.86
293.517	4.96
293.889	5.14
294.26	5.27
294.631	5.22
295.002	5.06
295.373	5.16
295.744	5.18
296.115	5.35
296.486	5.35
296.857	5.5
297.228	5.45
297.599	5.53
297.97	5.59
298.34	5.6
298.711	5.73
299.082	5.79
299.452	5.78
299.823	5.85
300.194	5.84
300.564	5.79
300.935	5.89
301.305	5.97
301.676	5.99
302.046	6.1
302.416	6.31
302.787	6.48
303.157	6.52
303.527	6.5
303.897	6.62
304.267	6.8
304.637	6.96
305.008	7.11
305.378	7.17
305.748	7.35
306.117	7.29
306.487	7.32
306.857	7.5
307.227	7.66
307.597	7.73
307.967	7.83
308.336	8.02
308.706	8.17
309.076	8.23
309.445	8.14
309.815	8.25
310.184	8.23
310.554	8.35
310.923	8.54
311.293	8.71
311.662	8.7
312.031	8.65
312.401	8.76
312.77	8.78
313.139	8.97
313.508	9.11
313.877	9.31
314.246	9.32
314.616	9.39
314.985	9.46
315.353	9.46
315.722	9.66
316.091	9.8
316.46	9.81
316.829	9.9
317.198	10.17
317.567	10.06
317.935	10.24
318.304	10.32
318.672	10.36
319.041	10.6
319.41	10.64
319.778	10.84
320.147	10.93
320.515	11.12
320.883	10.99
321.252	11.05
321.62	10.98
321.988	11.27
322.357	11.25
322.725	11.22
323.093	11.55
323.461	11.48
323.829	11.41
324.197	11.48
324.565	11.64
324.933	11.76
325.301	11.8
325.669	11.79
326.037	11.83
326.405	11.9
326.772	11.92
327.14	12.08
327.508	12.02
327.875	11.85
328.243	11.86
328.61	12.08
328.978	12.16
329.346	12.29
329.713	12.19
330.08	12.33
330.448	12.29
330.815	12.06
331.182	12.12
331.55	12.18
331.917	12.28
332.284	12.3
332.651	12.22
333.018	12.4
333.385	12.43
333.752	12.52
334.119	12.49
334.486	12.48
334.853	12.56
335.22	12.75
335.587	12.86
335.954	12.93
336.32	12.93
336.687	13.06
337.054	13.22
337.42	13.32
337.787	13.34
338.153	13.53
338.52	13.78
338.886	13.74
339.253	13.71
339.619	13.65
339.986	13.71
340.352	13.8
340.718	13.93
341.084	13.97
341.451	14.01
341.817	14.21
342.183	14.17
342.549	14.15
342.915	14.22
343.281	14.42
343.647	14.34
344.013	14.39
344.379	14.3
344.745	14.19
345.11	14.21
345.476	14.2
345.842	14.08
346.208	14.03
346.573	14.14
346.939	14.27
347.304	14.29
347.67	14.14
348.035	14.08
348.401	14.07
348.766	14.11
349.132	13.99
349.497	13.83
349.862	13.89
350.228	13.98
350.593	13.92
350.958	13.9
351.323	14
351.688	13.92
352.053	13.94
352.418	13.93
352.783	13.95
353.148	13.88
353.513	13.98
353.878	13.93
354.243	13.92
354.608	13.94
354.972	13.92
355.337	14.04
355.702	14.08
356.066	14.07
356.431	14
356.795	14.05
357.16	14.07
357.524	14.01
357.889	13.83
358.253	13.82
358.618	13.65
358.982	13.58
359.346	13.57
359.71	13.49
360.075	13.54
360.439	13.55
360.803	13.56
361.167	13.46
361.531	13.43
361.895	13.41
362.259	13.36
362.623	13.28
362.987	13.23
363.351	13.16
363.714	13.07
364.078	13.08
364.442	12.99
364.806	12.91
365.169	12.9
365.533	12.94
365.896	12.9
366.26	12.95
366.623	12.95
366.987	12.88
367.35	12.85
367.714	12.7
368.077	12.5
368.44	12.44
368.803	12.37
369.167	12.22
369.53	12.13
369.893	12
370.256	11.96
370.619	11.9
370.982	11.8
371.345	11.71
371.708	11.55
372.071	11.48
372.434	11.43
372.797	11.3
373.159	11.22
373.522	11.1
373.885	11.02
374.247	10.88
374.61	10.75
374.973	10.58
375.335	10.53
375.698	10.51
376.06	10.39
376.423	10.32
376.785	10.31
377.147	10.25
377.51	10.21
377.872	10.2
378.234	10.09
378.596	10.03
378.958	9.89
379.321	9.87
379.683	9.81
380.045	9.72
380.407	9.61
380.769	9.48
381.13	9.42
381.492	9.28
381.854	9.21
382.216	9.18
382.578	9.13
382.939	9.03
383.301	8.96
383.663	8.83
384.024	8.74
384.386	8.69
384.747	8.61
385.109	8.55
385.47	8.45
385.832	8.4
386.193	8.34
386.554	8.31
386.916	8.24
387.277	8.18
387.638	8.11
387.999	8.06
388.36	7.99
388.721	7.91
389.082	7.86
389.443	7.78
389.804	7.74
390.165	7.69
390.526	7.64
390.887	7.52
391.248	7.55
391.609	7.52
391.969	7.48
392.33	7.42
392.691	7.35
393.051	7.29
393.412	7.25
393.772	7.19
394.133	7.14
394.493	7.06
394.854	6.98
395.214	6.92
395.574	6.86
395.935	6.8
396.295	6.81
396.655	6.78
397.015	6.72
397.376	6.62
397.736	6.56
398.096	6.54
398.456	6.51
398.816	6.42
399.176	6.32
399.535	6.21
399.895	6.13
400.255	6.02
400.615	5.93
400.975	5.85
401.334	5.81
401.694	5.74
402.054	5.7
402.413	5.63
402.773	5.59
403.132	5.57
403.492	5.56
403.851	5.48
404.211	5.43
404.57	5.41
404.929	5.39
405.288	5.36
405.648	5.3
406.007	5.28
406.366	5.24
406.725	5.27
407.084	5.29
407.443	5.29
407.802	5.31
408.161	5.29
408.52	5.27
408.879	5.2
409.238	5.2
409.596	5.18
409.955	5.18
410.314	5.19
410.673	5.11
411.031	5.08
411.39	5.06
411.748	5.05
412.107	5
412.465	4.99
412.824	4.97
413.182	4.93
413.54	4.9
413.899	4.89
414.257	4.84
414.615	4.77
414.974	4.77
415.332	4.73
415.69	4.73
416.048	4.72
416.406	4.73
416.764	4.69
417.122	4.69
417.48	4.68
417.838	4.67
418.195	4.65
418.553	4.63
418.911	4.6
419.269	4.58
419.626	4.56
419.984	4.55
420.342	4.53
420.699	4.52
421.057	4.49
421.414	4.48
421.772	4.47
422.129	4.46
422.486	4.43
422.844	4.4
423.201	4.37
423.558	4.34
423.915	4.33
424.273	4.31
424.63	4.28
424.987	4.27
425.344	4.25
425.701	4.25
426.058	4.24
426.415	4.2
426.772	4.19
427.128	4.17
427.485	4.14
427.842	4.12
428.199	4.12
428.555	4.12
428.912	4.09
429.269	4.08
429.625	4.05
429.982	4.05
430.338	4.06
430.695	4.06
431.051	4.05
431.407	4.03
431.764	4.02
432.12	4.02
432.476	4
432.832	3.98
433.189	3.95
433.545	3.94
433.901	3.98
434.257	3.97
434.613	4
434.969	4.02
435.325	4.03
435.681	4.03
436.036	4.02
436.392	4.03
436.748	4.04
437.104	4.05
437.459	4.03
437.815	4.02
438.171	4.04
438.526	4.04
438.882	4.06
439.237	4.06
439.593	4.08
439.948	4.09
440.304	4.1
440.659	4.12
441.014	4.11
441.369	4.07
441.725	4.06
442.08	4.03
442.435	4.02
442.79	4
443.145	3.99
443.5	3.98
443.855	3.97
444.21	3.94
444.565	3.94
444.92	3.96
445.275	3.94
445.629	3.93
445.984	3.91
446.339	3.89
446.693	3.86
447.048	3.85
447.403	3.82
447.757	3.79
448.112	3.77
448.466	3.77
448.82	3.76
449.175	3.76
449.529	3.74
449.883	3.72
450.238	3.7
450.592	3.71
450.946	3.68
451.3	3.67
451.654	3.66
452.008	3.64
452.362	3.61
452.716	3.61
453.07	3.61
453.424	3.62
453.778	3.6
454.132	3.62
454.486	3.6
454.839	3.61
455.193	3.61
455.547	3.6
455.9	3.61
456.254	3.63
456.607	3.61
456.961	3.64
457.314	3.62
457.668	3.64
458.021	3.63
458.375	3.65
458.728	3.66
459.081	3.66
459.434	3.66
459.787	3.67
460.141	3.68
460.494	3.69
460.847	3.69
461.2	3.69
461.553	3.69
461.906	3.71
462.259	3.73
462.611	3.76
462.964	3.77
463.317	3.76
463.67	3.76
464.022	3.78
464.375	3.78
464.728	3.82
465.08	3.82
465.433	3.84
465.785	3.85
466.138	3.85
466.49	3.88
466.843	3.87
467.195	3.88
467.547	3.89
467.899	3.88
468.252	3.9
468.604	3.94
468.956	3.94
469.308	3.96
469.66	3.96
470.012	3.98
470.364	4.02
470.716	4.04
471.068	4.07
471.42	4.08
471.772	4.11
472.123	4.12
472.475	4.14
472.827	4.16
473.178	4.15
473.53	4.15
473.882	4.16
474.233	4.2
474.585	4.22
474.936	4.23
475.288	4.23
475.639	4.25
475.99	4.25
476.342	4.26
476.693	4.25
477.044	4.25
477.395	4.23
477.746	4.21
478.097	4.21
478.448	4.18
478.8	4.17
479.15	4.14
479.501	4.12
479.852	4.1
480.203	4.08
480.554	4.09
480.905	4.08
481.255	4.09
481.606	4.08
481.957	4.08
482.307	4.07
482.658	4.08
483.009	4.06
483.359	4.06
483.709	4.06
484.06	4.06
484.41	4.05
484.761	4.04
485.111	4.04
485.461	4.04
485.811	4.04
486.162	4.04
486.512	4.04
486.862	4.05
487.212	4.05
487.562	4.04
487.912	4.03
488.262	4.04
488.612	4.03
488.961	4.02
489.311	4.02
489.661	4.01
490.011	4
490.36	4
490.71	4
491.06	4
491.409	4
491.759	4.01
492.108	4.02
492.458	4.04
492.807	4.04
493.157	4.05
493.506	4.07
493.855	4.08
494.204	4.09
494.554	4.11
494.903	4.13
495.252	4.16
495.601	4.2
495.95	4.23
496.299	4.27
496.648	4.29
496.997	4.34
497.346	4.39
497.695	4.44
498.043	4.48
498.392	4.51
498.741	4.55
499.09	4.56
499.438	4.6
499.787	4.63
500.135	4.69
500.484	4.75
500.832	4.82
501.181	4.89
501.529	4.95
501.878	5.02
502.226	5.11
502.574	5.19
502.923	5.23
503.271	5.31
503.619	5.39
503.967	5.46
504.315	5.52
504.663	5.62
505.011	5.7
505.359	5.79
505.707	5.89
506.055	5.98
506.403	6.11
506.751	6.22
507.098	6.35
507.446	6.46
507.794	6.55
508.141	6.65
508.489	6.76
508.837	6.86
509.184	6.97
509.531	7.1
509.879	7.22
510.226	7.37
510.574	7.47
510.921	7.58
511.268	7.72
511.616	7.87
511.963	8.01
512.31	8.14
512.657	8.3
513.004	8.49
513.351	8.65
513.698	8.84
514.045	9
514.392	9.16
514.739	9.32
515.086	9.52
515.432	9.7
515.779	9.9
516.126	10.1
516.473	10.29
516.819	10.46
517.166	10.62
517.512	10.78
517.859	10.96
518.205	11.12
518.552	11.27
518.898	11.4
519.245	11.55
519.591	11.71
519.937	11.88
520.283	12.06
520.629	12.25
520.976	12.44
521.322	12.64
521.668	12.84
522.014	13.07
522.36	13.28
522.706	13.49
523.052	13.72
523.398	13.96
523.743	14.19
524.089	14.43
524.435	14.67
524.781	14.9
525.126	15.1
525.472	15.31
525.817	15.48
526.163	15.67
526.509	15.81
526.854	15.98
527.199	16.1
527.545	16.23
527.89	16.37
528.235	16.52
528.581	16.67
528.926	16.81
529.271	16.94
529.616	17.08
529.961	17.23
530.306	17.37
530.651	17.53
530.996	17.72
531.341	17.88
531.686	18.05
532.031	18.24
532.376	18.44
532.721	18.63
533.065	18.85
533.41	19.05
533.755	19.27
534.099	19.45
534.444	19.69
534.788	19.92
535.133	20.12
535.477	20.29
535.822	20.47
536.166	20.7
536.51	20.94
536.855	21.2
537.199	21.43
537.543	21.74
537.887	22.02
538.231	22.25
538.576	22.52
538.92	22.78
539.264	23.01
539.608	23.2
539.951	23.42
540.295	23.64
540.639	23.85
540.983	24.06
541.327	24.3
541.671	24.46
542.014	24.62
542.358	24.82
542.701	25.03
543.045	25.25
543.389	25.44
543.732	25.62
544.075	25.85
544.419	26.07
544.762	26.27
545.105	26.48
545.449	26.72
545.792	26.95
546.135	27.2
546.478	27.46
546.821	27.76
547.165	28.02
547.508	28.29
547.851	28.56
548.194	28.82
548.536	29.05
548.879	29.38
549.222	29.69
549.565	29.94
549.908	30.25
550.25	30.54
550.593	30.91
550.936	31.21
551.278	31.41
551.621	31.7
551.963	31.99
552.306	32.26
552.648	32.56
552.991	32.82
553.333	33.06
553.675	33.33
554.017	33.62
554.36	33.89
554.702	34.17
555.044	34.41
555.386	34.68
555.728	34.99
556.07	35.28
556.412	35.53
556.754	35.82
557.096	36.03
557.438	36.32
557.78	36.51
558.121	36.8
558.463	37.11
558.805	37.39
559.147	37.65
559.488	37.91
559.83	38.18
560.171	38.43
560.513	38.77
560.854	39.08
561.196	39.33
561.537	39.57
561.878	39.8
562.22	40.01
562.561	40.26
562.902	40.5
563.243	40.67
563.584	40.85
563.925	41.11
564.266	41.33
564.607	41.49
564.948	41.71
565.289	41.95
565.63	42.16
565.971	42.36
566.312	42.51
566.653	42.7
566.993	42.83
567.334	43.04
567.675	43.16
568.015	43.27
568.356	43.44
568.696	43.63
569.037	43.8
569.377	43.95
569.718	44.14
570.058	44.33
570.398	44.5
570.739	44.73
571.079	44.9
571.419	45.08
571.759	45.24
572.099	45.43
572.439	45.55
572.779	45.69
573.119	45.83
573.459	46.02
573.799	46.15
574.139	46.33
574.479	46.48
574.819	46.62
575.158	46.78
575.498	46.94
575.838	47.15
576.177	47.25
576.517	47.48
576.856	47.59
577.196	47.68
577.535	47.93
577.875	48.07
578.214	48.16
578.553	48.29
578.893	48.43
579.232	48.58
579.571	48.76
579.91	48.93
580.25	49.06
580.589	49.15
580.928	49.28
581.267	49.39
581.606	49.45
581.945	49.65
582.283	49.76
582.622	49.86
582.961	49.87
583.3	49.97
583.639	50.08
583.977	50.23
584.316	50.24
584.654	50.31
584.993	50.39
585.332	50.52
585.67	50.59
586.008	50.75
586.347	50.86
586.685	50.88
587.024	50.95
587.362	51.02
587.7	51.15
588.038	51.21
588.376	51.28
588.715	51.38
589.053	51.46
589.391	51.55
589.729	51.6
590.067	51.68
590.404	51.8
590.742	51.85
591.08	51.89
591.418	52.1
591.756	52.12
592.093	52.12
592.431	52.22
592.769	52.34
593.106	52.35
593.444	52.36
593.781	52.46
594.119	52.58
594.456	52.68
594.793	52.71
595.131	52.77
595.468	52.88
595.805	52.89
596.143	52.94
596.48	52.97
596.817	53.04
597.154	53.08
597.491	53.15
597.828	53.18
598.165	53.26
598.502	53.31
598.839	53.43
599.176	53.54
599.512	53.57
599.849	53.64
600.186	53.75
600.523	53.88
600.859	53.97
601.196	54.02
601.532	54.05
601.869	54.07
602.205	54.14
602.542	54.15
602.878	54.31
603.215	54.35
603.551	54.42
603.887	54.43
604.223	54.48
604.56	54.57
604.896	54.62
605.232	54.65
605.568	54.67
605.904	54.69
606.24	54.66
606.576	54.69
606.912	54.69
607.248	54.74
607.583	54.71
607.919	54.62
608.255	54.65
608.591	54.73
608.926	54.82
609.262	54.89
609.597	54.94
609.933	54.93
610.268	54.97
610.604	55.04
610.939	55.13
611.275	55.16
611.61	55.12
611.945	55.19
612.281	55.23
612.616	55.26
612.951	55.26
613.286	55.35
613.621	55.44
613.956	55.52
614.291	55.48
614.626	55.55
614.961	55.73
615.296	55.77
615.631	55.77
615.966	55.78
616.3	55.72
616.635	55.76
616.97	55.83
617.304	55.81
617.639	55.78
617.973	55.75
618.308	55.76
618.642	55.83
618.977	55.74
619.311	55.74
619.646	55.82
619.98	55.9
620.314	55.96
620.648	55.93
620.983	55.97
621.317	56.05
621.651	56.01
621.985	56.07
622.319	56.05
622.653	56.06
622.987	56.11
623.321	56.14
623.655	56.18
623.988	56.16
624.322	56.16
624.656	56.19
624.99	56.25
625.323	56.27
625.657	56.29
625.99	56.33
626.324	56.42
626.657	56.41
626.991	56.4
627.324	56.42
627.658	56.43
627.991	56.42
628.324	56.4
628.657	56.39
628.991	56.33
629.324	56.4
629.657	56.41
629.99	56.38
630.323	56.45
630.656	56.48
630.989	56.52
631.322	56.63
631.655	56.72
631.987	56.77
632.32	56.84
632.653	56.85
632.986	56.91
633.318	56.86
633.651	56.85
633.984	56.88
634.316	56.86
634.649	56.89
634.981	56.87
635.313	56.88
635.646	57.04
635.978	57.09
636.31	57.12
636.643	57.18
636.975	57.17
637.307	57.19
637.639	57.14
637.971	57.16
638.303	57.15
638.635	57.1
638.967	57.09
639.299	57.05
639.631	57.07
639.963	57.03
640.295	57
640.626	57.08
640.958	57.11
641.29	57.18
641.621	57.17
641.953	57.28
642.285	57.34
642.616	57.37
642.948	57.48
643.279	57.38
643.61	57.3
643.942	57.49
644.273	57.51
644.604	57.52
644.936	57.42
645.267	57.44
645.598	57.39
645.929	57.41
646.26	57.54
646.591	57.47
646.922	57.5
647.253	57.58
647.584	57.56
647.915	57.5
648.245	57.41
648.576	57.43
648.907	57.44
649.238	57.44
649.568	57.5
649.899	57.47
650.229	57.63
650.56	57.75
650.89	57.72
651.221	57.72
651.551	57.74
651.882	57.73
652.212	57.64
652.542	57.7
652.872	57.74
653.203	57.64
653.533	57.7
653.863	57.67
654.193	57.69
654.523	57.67
654.853	57.79
655.183	57.82
655.513	57.83
655.843	57.75
656.172	57.74
656.502	57.72
656.832	57.8
657.162	57.71
657.491	57.67
657.821	57.73
658.15	57.86
658.48	57.87
658.809	57.86
659.139	57.88
659.468	57.89
659.798	57.82
660.127	57.8
660.456	57.72
660.785	57.8
661.115	57.89
661.444	57.85
661.773	57.79
662.102	57.87
662.431	57.87
662.76	57.84
663.089	57.88
663.418	57.77
