Data from BU57737_Reflection_00002.txt Node
Date: Mon Nov 18 16:29:38 EST 2019
User: vgr7
Spectrometer: USB2G7710
Scans to average: 3
Trigger mode: 4
Integration Time (sec): 2.000000E-2
Electric dark correction enabled: true
Boxcar width: 10
XAxis mode: Wavelengths
Number of Pixels in Spectrum: 2048
>>>>>Begin Spectral Data<<<<<
177.721	-36.17
178.105	322.22
178.488	59.41
178.871	62.7
179.254	30.29
179.636	-15.65
180.019	29.39
180.402	88.46
180.785	-53.15
181.168	-1209.52
181.55	151.05
181.933	67.87
182.316	39.2
182.698	65.12
183.081	86.24
183.463	124.53
183.846	21.23
184.228	33.04
184.611	46.18
184.993	80.3
185.376	64.57
185.758	58.41
186.14	65.27
186.522	50.02
186.904	19.16
187.287	7.91
187.669	12.24
188.051	33.93
188.433	22.83
188.815	-7.72
189.197	-15.8
189.579	-5.72
189.961	19.54
190.342	121.44
190.724	-44.36
191.106	-494.2
191.488	11766.67
191.869	-35.01
192.251	-78.83
192.633	-49.24
193.014	-5.72
193.396	-20.16
193.777	-4.08
194.159	23.46
194.54	24.75
194.922	6.51
195.303	-19.17
195.684	-13.85
196.065	10.63
196.447	11.09
196.828	-3.26
197.209	3.83
197.59	15.02
197.971	15.1
198.352	13.47
198.733	5.78
199.114	26.11
199.495	44.4
199.876	39.41
200.257	40.98
200.638	40.67
201.018	39.57
201.399	55.79
201.78	53.68
202.16	41
202.541	52.84
202.922	18.45
203.302	38.68
203.683	46.86
204.063	-33.1
204.444	-98.88
204.824	-3.37
205.204	60.68
205.585	-42.17
205.965	-48.82
206.345	-71.72
206.725	-91.4
207.106	-152.41
207.486	-221.69
207.866	-668.98
208.246	4433.33
208.626	17988.89
209.006	-136.04
209.386	981.48
209.766	296.22
210.145	504.53
210.525	-26.9
210.905	-38.07
211.285	-19.83
211.664	-17.02
212.044	23.48
212.424	25.7
212.803	37.52
213.183	28.97
213.562	25.83
213.942	48.69
214.321	38.36
214.701	30.71
215.08	13.9
215.459	20.37
215.838	29.03
216.218	14.94
216.597	25.82
216.976	27.01
217.355	25.63
217.734	27.9
218.113	38.83
218.492	19.29
218.871	16.01
219.25	29.86
219.629	29.9
220.008	16.32
220.387	8.13
220.766	0.16
221.144	-17.25
221.523	-25.83
221.902	-19.73
222.28	-35.54
222.659	-33.17
223.037	1.93
223.416	-19.64
223.794	-34.99
224.173	-13.51
224.551	-14.16
224.929	-14.54
225.308	-9.42
225.686	-14.18
226.064	-13.17
226.442	-10.56
226.821	-4.15
227.199	-10.41
227.577	-13.43
227.955	-16.7
228.333	-13.25
228.711	-7.21
229.089	-0.95
229.467	1.22
229.845	-0.37
230.222	1.94
230.6	-1.07
230.978	-2.64
231.356	1.81
231.733	3.34
232.111	1.47
232.488	3.02
232.866	0.46
233.243	0.75
233.621	1.03
233.998	1.55
234.376	2.87
234.753	2.57
235.13	5.46
235.508	9.05
235.885	10.02
236.262	7.45
236.639	4.04
237.016	3.22
237.393	4.29
237.77	5.22
238.147	5.22
238.524	6.37
238.901	6.33
239.278	6.8
239.655	7.41
240.032	7.35
240.409	6.63
240.785	7.12
241.162	6.5
241.539	7.49
241.915	6.73
242.292	6.05
242.668	6.01
243.045	5.91
243.421	5.3
243.798	4.82
244.174	4.67
244.551	4.93
244.927	4.86
245.303	4.65
245.679	4.59
246.056	4.47
246.432	4.35
246.808	4.28
247.184	3.71
247.56	3.15
247.936	3.03
248.312	3.11
248.688	3.27
249.064	3.24
249.44	2.93
249.815	3.24
250.191	3.36
250.567	3.49
250.943	3.27
251.318	3.3
251.694	3.4
252.069	3.52
252.445	3.53
252.82	3.47
253.196	3.14
253.571	3.12
253.947	3.1
254.322	3.15
254.697	2.92
255.073	3.02
255.448	3.36
255.823	3.51
256.198	3.48
256.573	3.28
256.948	3.31
257.323	3.31
257.698	3.44
258.073	3.53
258.448	3.4
258.823	3.49
259.198	3.42
259.573	3.42
259.948	3.34
260.322	3.45
260.697	3.27
261.072	3.45
261.446	3.47
261.821	3.34
262.195	3.38
262.57	3.47
262.944	3.57
263.319	3.59
263.693	3.6
264.067	3.64
264.442	3.78
264.816	3.75
265.19	3.71
265.564	3.56
265.938	3.41
266.313	3.58
266.687	3.54
267.061	3.76
267.435	3.7
267.809	3.86
268.183	3.56
268.556	3.73
268.93	3.87
269.304	3.61
269.678	3.84
270.051	3.83
270.425	3.8
270.799	3.75
271.172	3.76
271.546	3.83
271.919	3.69
272.293	3.53
272.666	3.67
273.04	3.87
273.413	3.74
273.787	3.67
274.16	3.58
274.533	3.5
274.906	3.39
275.279	3.55
275.653	3.5
276.026	3.49
276.399	3.55
276.772	3.46
277.145	3.53
277.518	3.57
277.891	3.57
278.263	3.51
278.636	3.43
279.009	3.39
279.382	3.37
279.755	3.55
280.127	3.66
280.5	3.55
280.872	3.31
281.245	3.44
281.617	3.64
281.99	3.73
282.362	4.01
282.735	4
283.107	3.96
283.479	4.17
283.852	4.31
284.224	4.29
284.596	4.19
284.968	4.24
285.34	4.16
285.713	4.13
286.085	4.26
286.457	4.43
286.829	4.4
287.201	4.36
287.572	4.26
287.944	4.16
288.316	4.16
288.688	4.19
289.06	4.08
289.431	4.11
289.803	4.19
290.175	4.2
290.546	4.31
290.918	4.31
291.289	4.14
291.661	4.07
292.032	4.18
292.403	4.19
292.775	4.25
293.146	4.05
293.517	4.07
293.889	3.99
294.26	3.8
294.631	3.83
295.002	3.78
295.373	3.77
295.744	3.78
296.115	3.79
296.486	3.85
296.857	3.91
297.228	3.73
297.599	3.61
297.97	3.48
298.34	3.45
298.711	3.48
299.082	3.39
299.452	3.37
299.823	3.37
300.194	3.41
300.564	3.32
300.935	3.44
301.305	3.45
301.676	3.49
302.046	3.59
302.416	3.8
302.787	3.82
303.157	3.78
303.527	3.8
303.897	3.82
304.267	3.85
304.637	3.89
305.008	4.11
305.378	4.08
305.748	4.23
306.117	4.12
306.487	4.12
306.857	4.38
307.227	4.42
307.597	4.3
307.967	4.24
308.336	4.25
308.706	4.33
309.076	4.23
309.445	4.16
309.815	4.13
310.184	3.86
310.554	3.88
310.923	3.97
311.293	3.99
311.662	4.03
312.031	3.92
312.401	3.9
312.77	3.99
313.139	3.98
313.508	4
313.877	4.17
314.246	4.18
314.616	4.05
314.985	4.09
315.353	4.05
315.722	4.15
316.091	4.06
316.46	4
316.829	4.09
317.198	4.23
317.567	4.16
317.935	4.29
318.304	4.29
318.672	4.14
319.041	4.09
319.41	4.08
319.778	4.15
320.147	4.24
320.515	4.08
320.883	4.11
321.252	3.94
321.62	3.76
321.988	3.57
322.357	3.48
322.725	3.42
323.093	3.52
323.461	3.4
323.829	3.42
324.197	3.4
324.565	3.45
324.933	3.41
325.301	3.5
325.669	3.55
326.037	3.58
326.405	3.61
326.772	3.65
327.14	3.71
327.508	3.7
327.875	3.64
328.243	3.7
328.61	3.68
328.978	3.74
329.346	3.92
329.713	3.98
330.08	4.14
330.448	4.14
330.815	3.98
331.182	3.96
331.55	4.09
331.917	4.14
332.284	4.14
332.651	4.11
333.018	4.06
333.385	4.03
333.752	4.07
334.119	4.23
334.486	4.17
334.853	4.16
335.22	4.18
335.587	4.25
335.954	4.14
336.32	4.23
336.687	4.19
337.054	4.09
337.42	4.07
337.787	4.06
338.153	4.04
338.52	4.17
338.886	4.18
339.253	4.16
339.619	4.12
339.986	4.1
340.352	4.21
340.718	4.25
341.084	4.25
341.451	4.19
341.817	4.17
342.183	4.26
342.549	4.11
342.915	4.11
343.281	4.06
343.647	4.13
344.013	4.12
344.379	4.13
344.745	4.08
345.11	4.09
345.476	4.01
345.842	4.1
346.208	3.96
346.573	4.04
346.939	4.09
347.304	4.09
347.67	4.08
348.035	3.98
348.401	3.92
348.766	3.93
349.132	3.9
349.497	3.82
349.862	3.87
350.228	3.9
350.593	3.84
350.958	3.76
351.323	3.77
351.688	3.64
352.053	3.68
352.418	3.78
352.783	3.8
353.148	3.77
353.513	3.75
353.878	3.84
354.243	3.83
354.608	3.77
354.972	3.82
355.337	3.88
355.702	3.96
356.066	4.09
356.431	4
356.795	4.05
357.16	4.05
357.524	3.99
357.889	4
358.253	3.98
358.618	4.09
358.982	4.04
359.346	4.03
359.71	4.01
360.075	3.93
360.439	3.97
360.803	3.99
361.167	3.97
361.531	3.96
361.895	3.9
362.259	3.91
362.623	3.9
362.987	3.83
363.351	3.79
363.714	3.78
364.078	3.81
364.442	3.74
364.806	3.77
365.169	3.74
365.533	3.79
365.896	3.84
366.26	3.74
366.623	3.75
366.987	3.81
367.35	3.83
367.714	3.9
368.077	3.87
368.44	3.92
368.803	3.89
369.167	3.83
369.53	3.85
369.893	3.79
370.256	3.76
370.619	3.77
370.982	3.73
371.345	3.71
371.708	3.76
372.071	3.79
372.434	3.71
372.797	3.69
373.159	3.65
373.522	3.69
373.885	3.75
374.247	3.79
374.61	3.76
374.973	3.68
375.335	3.62
375.698	3.64
376.06	3.6
376.423	3.59
376.785	3.68
377.147	3.71
377.51	3.75
377.872	3.82
378.234	3.86
378.596	3.87
378.958	3.82
379.321	3.78
379.683	3.75
380.045	3.81
380.407	3.84
380.769	3.86
381.13	3.8
381.492	3.75
381.854	3.73
382.216	3.77
382.578	3.84
382.939	3.81
383.301	3.79
383.663	3.74
384.024	3.81
384.386	3.8
384.747	3.81
385.109	3.83
385.47	3.75
385.832	3.7
386.193	3.72
386.554	3.74
386.916	3.75
387.277	3.78
387.638	3.82
387.999	3.79
388.36	3.76
388.721	3.75
389.082	3.72
389.443	3.65
389.804	3.62
390.165	3.56
390.526	3.55
390.887	3.57
391.248	3.65
391.609	3.6
391.969	3.59
392.33	3.59
392.691	3.58
393.051	3.58
393.412	3.6
393.772	3.57
394.133	3.54
394.493	3.54
394.854	3.52
395.214	3.48
395.574	3.47
395.935	3.47
396.295	3.51
396.655	3.54
397.015	3.56
397.376	3.58
397.736	3.61
398.096	3.63
398.456	3.62
398.816	3.56
399.176	3.57
399.535	3.54
399.895	3.5
400.255	3.5
400.615	3.54
400.975	3.53
401.334	3.53
401.694	3.54
402.054	3.52
402.413	3.52
402.773	3.5
403.132	3.48
403.492	3.5
403.851	3.48
404.211	3.48
404.57	3.48
404.929	3.47
405.288	3.45
405.648	3.46
406.007	3.46
406.366	3.47
406.725	3.47
407.084	3.49
407.443	3.47
407.802	3.47
408.161	3.43
408.52	3.4
408.879	3.35
409.238	3.38
409.596	3.37
409.955	3.36
410.314	3.37
410.673	3.38
411.031	3.38
411.39	3.37
411.748	3.38
412.107	3.41
412.465	3.41
412.824	3.39
413.182	3.4
413.54	3.4
413.899	3.4
414.257	3.43
414.615	3.42
414.974	3.43
415.332	3.43
415.69	3.43
416.048	3.44
416.406	3.47
416.764	3.44
417.122	3.43
417.48	3.42
417.838	3.44
418.195	3.44
418.553	3.41
418.911	3.41
419.269	3.39
419.626	3.36
419.984	3.35
420.342	3.36
420.699	3.35
421.057	3.34
421.414	3.32
421.772	3.3
422.129	3.29
422.486	3.29
422.844	3.27
423.201	3.26
423.558	3.27
423.915	3.27
424.273	3.27
424.63	3.27
424.987	3.27
425.344	3.25
425.701	3.25
426.058	3.25
426.415	3.25
426.772	3.26
427.128	3.27
427.485	3.29
427.842	3.28
428.199	3.28
428.555	3.28
428.912	3.3
429.269	3.3
429.625	3.31
429.982	3.3
430.338	3.32
430.695	3.33
431.051	3.3
431.407	3.3
431.764	3.3
432.12	3.3
432.476	3.29
432.832	3.28
433.189	3.28
433.545	3.28
433.901	3.27
434.257	3.25
434.613	3.26
434.969	3.25
435.325	3.25
435.681	3.26
436.036	3.28
436.392	3.27
436.748	3.27
437.104	3.26
437.459	3.25
437.815	3.26
438.171	3.25
438.526	3.27
438.882	3.28
439.237	3.27
439.593	3.28
439.948	3.3
440.304	3.3
440.659	3.31
441.014	3.32
441.369	3.31
441.725	3.32
442.08	3.31
442.435	3.31
442.79	3.31
443.145	3.29
443.5	3.26
443.855	3.26
444.21	3.26
444.565	3.26
444.92	3.28
445.275	3.27
445.629	3.28
445.984	3.28
446.339	3.26
446.693	3.25
447.048	3.24
447.403	3.23
447.757	3.23
448.112	3.2
448.466	3.2
448.82	3.2
449.175	3.2
449.529	3.2
449.883	3.18
450.238	3.16
450.592	3.17
450.946	3.16
451.3	3.15
451.654	3.15
452.008	3.15
452.362	3.13
452.716	3.14
453.07	3.13
453.424	3.13
453.778	3.13
454.132	3.13
454.486	3.13
454.839	3.13
455.193	3.11
455.547	3.14
455.9	3.14
456.254	3.13
456.607	3.15
456.961	3.14
457.314	3.16
457.668	3.17
458.021	3.16
458.375	3.18
458.728	3.19
459.081	3.18
459.434	3.18
459.787	3.19
460.141	3.18
460.494	3.17
460.847	3.16
461.2	3.17
461.553	3.19
461.906	3.2
462.259	3.23
462.611	3.23
462.964	3.23
463.317	3.22
463.67	3.23
464.022	3.22
464.375	3.23
464.728	3.23
465.08	3.23
465.433	3.24
465.785	3.23
466.138	3.22
466.49	3.22
466.843	3.23
467.195	3.23
467.547	3.25
467.899	3.25
468.252	3.25
468.604	3.25
468.956	3.24
469.308	3.25
469.66	3.23
470.012	3.24
470.364	3.24
470.716	3.24
471.068	3.24
471.42	3.24
471.772	3.25
472.123	3.27
472.475	3.28
472.827	3.28
473.178	3.29
473.53	3.3
473.882	3.3
474.233	3.29
474.585	3.27
474.936	3.26
475.288	3.28
475.639	3.3
475.99	3.3
476.342	3.29
476.693	3.29
477.044	3.29
477.395	3.29
477.746	3.3
478.097	3.3
478.448	3.3
478.8	3.31
479.15	3.29
479.501	3.29
479.852	3.26
480.203	3.26
480.554	3.28
480.905	3.28
481.255	3.3
481.606	3.31
481.957	3.31
482.307	3.32
482.658	3.32
483.009	3.31
483.359	3.31
483.709	3.31
484.06	3.31
484.41	3.32
484.761	3.32
485.111	3.32
485.461	3.33
485.811	3.32
486.162	3.33
486.512	3.33
486.862	3.32
487.212	3.33
487.562	3.34
487.912	3.34
488.262	3.34
488.612	3.33
488.961	3.34
489.311	3.34
489.661	3.34
490.011	3.34
490.36	3.33
490.71	3.34
491.06	3.34
491.409	3.33
491.759	3.32
492.108	3.31
492.458	3.31
492.807	3.3
493.157	3.3
493.506	3.32
493.855	3.32
494.204	3.33
494.554	3.32
494.903	3.31
495.252	3.31
495.601	3.31
495.95	3.32
496.299	3.31
496.648	3.31
496.997	3.31
497.346	3.31
497.695	3.34
498.043	3.34
498.392	3.34
498.741	3.36
499.09	3.36
499.438	3.39
499.787	3.41
500.135	3.44
500.484	3.44
500.832	3.45
501.181	3.44
501.529	3.45
501.878	3.48
502.226	3.5
502.574	3.51
502.923	3.51
503.271	3.51
503.619	3.53
503.967	3.55
504.315	3.54
504.663	3.54
505.011	3.54
505.359	3.55
505.707	3.57
506.055	3.56
506.403	3.59
506.751	3.59
507.098	3.58
507.446	3.6
507.794	3.57
508.141	3.57
508.489	3.59
508.837	3.6
509.184	3.59
509.531	3.59
509.879	3.6
510.226	3.62
510.574	3.62
510.921	3.61
511.268	3.61
511.616	3.63
511.963	3.66
512.31	3.65
512.657	3.66
513.004	3.68
513.351	3.7
513.698	3.72
514.045	3.73
514.392	3.74
514.739	3.75
515.086	3.79
515.432	3.81
515.779	3.81
516.126	3.83
516.473	3.84
516.819	3.86
517.166	3.88
517.512	3.89
517.859	3.92
518.205	3.94
518.552	3.96
518.898	3.98
519.245	3.96
519.591	3.97
519.937	3.96
520.283	3.95
520.629	3.96
520.976	3.95
521.322	3.97
521.668	3.96
522.014	3.97
522.36	3.98
522.706	3.97
523.052	3.99
523.398	4
523.743	3.98
524.089	3.98
524.435	3.98
524.781	3.96
525.126	3.95
525.472	3.96
525.817	3.95
526.163	3.94
526.509	3.96
526.854	3.98
527.199	4.01
527.545	4.01
527.89	4
528.235	4
528.581	4
528.926	4.01
529.271	4.01
529.616	4.01
529.961	4.01
530.306	4.02
530.651	4.02
530.996	4.05
531.341	4.05
531.686	4.06
532.031	4.08
532.376	4.09
532.721	4.1
533.065	4.1
533.41	4.11
533.755	4.09
534.099	4.1
534.444	4.1
534.788	4.11
535.133	4.12
535.477	4.13
535.822	4.13
536.166	4.11
536.51	4.11
536.855	4.13
537.199	4.13
537.543	4.12
537.887	4.11
538.231	4.1
538.576	4.1
538.92	4.1
539.264	4.09
539.608	4.1
539.951	4.08
540.295	4.08
540.639	4.09
540.983	4.11
541.327	4.1
541.671	4.1
542.014	4.1
542.358	4.11
542.701	4.11
543.045	4.12
543.389	4.15
543.732	4.17
544.075	4.17
544.419	4.17
544.762	4.17
545.105	4.19
545.449	4.23
545.792	4.22
546.135	4.23
546.478	4.26
546.821	4.25
547.165	4.25
547.508	4.29
547.851	4.28
548.194	4.26
548.536	4.24
548.879	4.28
549.222	4.29
549.565	4.26
549.908	4.26
550.25	4.25
550.593	4.24
550.936	4.23
551.278	4.22
551.621	4.21
551.963	4.22
552.306	4.2
552.648	4.15
552.991	4.17
553.333	4.17
553.675	4.15
554.017	4.15
554.36	4.17
554.702	4.18
555.044	4.19
555.386	4.22
555.728	4.25
556.07	4.23
556.412	4.24
556.754	4.26
557.096	4.28
557.438	4.26
557.78	4.27
558.121	4.29
558.463	4.27
558.805	4.3
559.147	4.31
559.488	4.34
559.83	4.33
560.171	4.32
560.513	4.34
560.854	4.35
561.196	4.35
561.537	4.36
561.878	4.32
562.22	4.31
562.561	4.31
562.902	4.3
563.243	4.26
563.584	4.26
563.925	4.26
564.266	4.23
564.607	4.27
564.948	4.28
565.289	4.29
565.63	4.31
565.971	4.29
566.312	4.29
566.653	4.29
566.993	4.3
567.334	4.3
567.675	4.31
568.015	4.31
568.356	4.31
568.696	4.31
569.037	4.3
569.377	4.3
569.718	4.29
570.058	4.29
570.398	4.33
570.739	4.31
571.079	4.3
571.419	4.33
571.759	4.34
572.099	4.32
572.439	4.29
572.779	4.27
573.119	4.3
573.459	4.3
573.799	4.29
574.139	4.28
574.479	4.3
574.819	4.28
575.158	4.29
575.498	4.29
575.838	4.29
576.177	4.29
576.517	4.29
576.856	4.29
577.196	4.28
577.535	4.28
577.875	4.29
578.214	4.3
578.553	4.33
578.893	4.31
579.232	4.32
579.571	4.35
579.91	4.36
580.25	4.37
580.589	4.35
580.928	4.35
581.267	4.36
581.606	4.33
581.945	4.36
582.283	4.36
582.622	4.35
582.961	4.36
583.3	4.41
583.639	4.45
583.977	4.53
584.316	4.55
584.654	4.53
584.993	4.56
585.332	4.54
585.67	4.54
586.008	4.5
586.347	4.49
586.685	4.49
587.024	4.49
587.362	4.44
587.7	4.44
588.038	4.5
588.376	4.52
588.715	4.52
589.053	4.52
589.391	4.54
589.729	4.57
590.067	4.57
590.404	4.54
590.742	4.52
591.08	4.45
591.418	4.49
591.756	4.5
592.093	4.48
592.431	4.5
592.769	4.51
593.106	4.55
593.444	4.52
593.781	4.54
594.119	4.55
594.456	4.56
594.793	4.57
595.131	4.55
595.468	4.56
595.805	4.58
596.143	4.56
596.48	4.54
596.817	4.55
597.154	4.54
597.491	4.57
597.828	4.57
598.165	4.58
598.502	4.52
598.839	4.51
599.176	4.51
599.512	4.5
599.849	4.48
600.186	4.46
600.523	4.49
600.859	4.51
601.196	4.53
601.532	4.53
601.869	4.51
602.205	4.5
602.542	4.52
602.878	4.52
603.215	4.56
603.551	4.59
603.887	4.55
604.223	4.57
604.56	4.6
604.896	4.61
605.232	4.65
605.568	4.67
605.904	4.7
606.24	4.74
606.576	4.76
606.912	4.76
607.248	4.79
607.583	4.81
607.919	4.83
608.255	4.79
608.591	4.85
608.926	4.89
609.262	4.93
609.597	4.9
609.933	4.91
610.268	4.92
610.604	4.89
610.939	4.91
611.275	4.92
611.61	4.85
611.945	4.81
612.281	4.81
612.616	4.78
612.951	4.76
613.286	4.78
613.621	4.78
613.956	4.82
614.291	4.81
614.626	4.75
614.961	4.72
615.296	4.73
615.631	4.66
615.966	4.64
616.3	4.64
616.635	4.68
616.97	4.65
617.304	4.61
617.639	4.62
617.973	4.57
618.308	4.54
618.642	4.56
618.977	4.55
619.311	4.53
619.646	4.56
619.98	4.6
620.314	4.56
620.648	4.6
620.983	4.58
621.317	4.62
621.651	4.65
621.985	4.67
622.319	4.72
622.653	4.78
622.987	4.82
623.321	4.79
623.655	4.8
623.988	4.83
624.322	4.84
624.656	4.88
624.99	4.96
625.323	5.01
625.657	5.06
625.99	5.14
626.324	5.13
626.657	5.15
626.991	5.13
627.324	5.13
627.658	5.12
627.991	5.13
628.324	5.09
628.657	5.09
628.991	5.07
629.324	5.08
629.657	5.05
629.99	5.06
630.323	5.07
630.656	5.05
630.989	5.1
631.322	5.12
631.655	5.06
631.987	5.02
632.32	5.02
632.653	5
632.986	5.01
633.318	4.99
633.651	4.99
633.984	5
634.316	5.05
634.649	5.02
634.981	5.02
635.313	5.03
635.646	5.06
635.978	5.06
636.31	5
636.643	4.98
636.975	4.93
637.307	4.93
637.639	4.93
637.971	4.88
638.303	4.84
638.635	4.85
638.967	4.85
639.299	4.87
639.631	4.84
639.963	4.77
640.295	4.8
640.626	4.8
640.958	4.83
641.29	4.81
641.621	4.85
641.953	4.82
642.285	4.86
642.616	4.87
642.948	4.9
643.279	4.96
643.61	4.96
643.942	4.98
644.273	5.02
644.604	4.99
644.936	4.93
645.267	4.97
645.598	4.99
645.929	5.05
646.26	5.03
646.591	5.05
646.922	5.07
647.253	5.05
647.584	5.05
647.915	4.97
648.245	4.96
648.576	4.93
648.907	4.97
649.238	4.93
649.568	4.92
649.899	4.89
650.229	4.9
650.56	4.9
650.89	4.93
651.221	4.91
651.551	4.96
651.882	4.99
652.212	5
652.542	5.01
652.872	4.95
653.203	4.94
653.533	4.98
653.863	5.03
654.193	5.07
654.523	5.04
654.853	5.14
655.183	5.14
655.513	5.13
655.843	5.07
656.172	5.1
656.502	5.14
656.832	5.2
657.162	5.2
657.491	5.22
657.821	5.22
658.15	5.28
658.48	5.32
658.809	5.3
659.139	5.28
659.468	5.28
659.798	5.34
660.127	5.35
660.456	5.33
660.785	5.3
661.115	5.33
661.444	5.39
661.773	5.37
662.102	5.33
662.431	5.32
662.76	5.4
663.089	5.42
663.418	5.38
663.747	5.32
664.076	5.3
664.404	5.25
664.733	5.28
665.062	5.2
665.39	5.16
665.719	5.19
666.048	5.18
666.376	5.17
666.705	5.14
667.033	5.1
667.362	5.19
667.69	5.19
668.018	5.07
668.347	5.07
668.675	5.05
669.003	5.1
669.331	5.19
669.659	5.2
669.987	5.14
670.315	5.12
670.643	5.12
670.971	5.15
671.299	5.27
671.627	5.25
671.955	5.29
672.283	5.28
672.61	5.28
672.938	5.29
673.266	5.33
673.593	5.38
673.921	5.4
674.249	5.32
674.576	5.3
674.904	5.42
675.231	5.41
675.558	5.42
675.886	5.43
676.213	5.4
676.54	5.4
676.867	5.49
677.195	5.48
677.522	5.48
677.849	5.49
678.176	5.43
678.503	5.36
678.83	5.36
679.157	5.31
679.484	5.24
679.81	5.2
