Data from BU57647_Reflection_00012.txt Node
Date: Mon Nov 18 16:49:44 EST 2019
User: vgr7
Spectrometer: USB2G7710
Scans to average: 3
Trigger mode: 4
Integration Time (sec): 2.000000E-2
Electric dark correction enabled: true
Boxcar width: 10
XAxis mode: Wavelengths
Number of Pixels in Spectrum: 2048
>>>>>Begin Spectral Data<<<<<
177.721	-67.51
178.105	-139.19
178.488	-410.96
178.871	775.53
179.254	248.06
179.636	176.09
180.019	228.53
180.402	107.5
180.785	-31.37
181.168	-61.6
181.55	23.08
181.933	63.55
182.316	80.06
182.698	68.54
183.081	122.66
183.463	149.74
183.846	-447.17
184.228	2372.73
184.611	-67.35
184.993	-44.95
185.376	-58.83
185.758	-87.44
186.14	-85.08
186.522	-201.78
186.904	-122.64
187.287	-189.39
187.669	-106.43
188.051	-86.95
188.433	-12.89
188.815	-26.07
189.197	-47.51
189.579	-20.4
189.961	-55.89
190.342	-72.08
190.724	-37.33
191.106	-55.49
191.488	-72.41
191.869	-95.53
192.251	-102.09
192.633	-104.98
193.014	-105.56
193.396	-169.92
193.777	-193.18
194.159	-494.24
194.54	-348.61
194.922	-545.24
195.303	-362.82
195.684	-338.89
196.065	-187.34
196.447	-259.39
196.828	-321.94
197.209	-189.85
197.59	-186.59
197.971	-161.9
198.352	-122.19
198.733	-139.81
199.114	-122.18
199.495	-92.99
199.876	-73.33
200.257	-76.74
200.638	-66.71
201.018	-84.77
201.399	-66.45
201.78	-53.02
202.16	-63.3
202.541	-77.77
202.922	-160.61
203.302	-205.18
203.683	-159.73
204.063	-241.58
204.444	-198.51
204.824	-192.05
205.204	-210.79
205.585	-213.01
205.965	-266.83
206.345	-288.95
206.725	-1374.42
207.106	-1789.95
207.486	810.58
207.866	912.65
208.246	2523.31
208.626	2265.83
209.006	-1411.48
209.386	5311.76
209.766	-9197.87
210.145	-1305.69
210.525	-177.57
210.905	-98.51
211.285	-101.62
211.664	-75.25
212.044	-62.75
212.424	-62.15
212.803	-68.73
213.183	-86.05
213.562	-94.45
213.942	-76.03
214.321	-59.5
214.701	-60.15
215.08	-40.32
215.459	-51.57
215.838	-59.68
216.218	-64.29
216.597	-43.58
216.976	-49.24
217.355	-46.09
217.734	-49.13
218.113	-44.17
218.492	-48.06
218.871	-56.77
219.25	-48
219.629	-68.97
220.008	-65.45
220.387	-62.04
220.766	-64.04
221.144	-75.39
221.523	-79.25
221.902	-84.77
222.28	-101.82
222.659	-96.03
223.037	-98.54
223.416	-93.38
223.794	-94.8
224.173	-69.6
224.551	-73.74
224.929	-76.95
225.308	-61.38
225.686	-55.8
226.064	-53.06
226.442	-59.14
226.821	-44.76
227.199	-35.85
227.577	-34.72
227.955	-27.48
228.333	-25.64
228.711	-20.41
229.089	-11.36
229.467	-10.17
229.845	-7.81
230.222	-4.29
230.6	-5.76
230.978	-6.23
231.356	-3.82
231.733	-0.22
232.111	-3.64
232.488	-2.25
232.866	-0.42
233.243	0.12
233.621	-1.62
233.998	-0.18
234.376	0.79
234.753	-0.4
235.13	0.19
235.508	1
235.885	-0.55
236.262	-1.39
236.639	-3.05
237.016	-3.27
237.393	-2.52
237.77	-1.63
238.147	-1.29
238.524	-0.05
238.901	0.27
239.278	0.98
239.655	1.49
240.032	2.13
240.409	2.45
240.785	2.59
241.162	3.38
241.539	4.11
241.915	4.22
242.292	4.19
242.668	4.42
243.045	4.31
243.421	4.68
243.798	4.5
244.174	4.67
244.551	5.03
244.927	4.72
245.303	4.68
245.679	4.75
246.056	4.54
246.432	4.37
246.808	4.66
247.184	4.2
247.56	3.94
247.936	3.91
248.312	3.95
248.688	4.01
249.064	3.57
249.44	3.58
249.815	3.6
250.191	3.79
250.567	3.69
250.943	3.65
251.318	3.8
251.694	3.99
252.069	3.91
252.445	3.8
252.82	4.04
253.196	3.97
253.571	3.63
253.947	4
254.322	4.21
254.697	3.81
255.073	3.87
255.448	4
255.823	3.95
256.198	3.93
256.573	3.82
256.948	3.99
257.323	4.05
257.698	3.67
258.073	3.54
258.448	3.5
258.823	3.41
259.198	3.12
259.573	3.05
259.948	3.06
260.322	3.15
260.697	3.04
261.072	3.02
261.446	3.06
261.821	2.95
262.195	2.98
262.57	3.03
262.944	3.19
263.319	3.24
263.693	3.21
264.067	3.2
264.442	3.25
264.816	3.27
265.19	3.26
265.564	3.59
265.938	3.63
266.313	3.79
266.687	4.03
267.061	4.33
267.435	4.46
267.809	4.46
268.183	4.53
268.556	4.39
268.93	4.42
269.304	4.56
269.678	4.46
270.051	4.42
270.425	4.48
270.799	4.44
271.172	4.33
271.546	4.31
271.919	4.15
272.293	4.23
272.666	4.2
273.04	4.07
273.413	3.86
273.787	3.83
274.16	3.85
274.533	3.67
274.906	3.46
275.279	3.37
275.653	3.4
276.026	3.2
276.399	3.46
276.772	3.56
277.145	3.29
277.518	3.48
277.891	3.44
278.263	3.32
278.636	3.27
279.009	3.22
279.382	3.49
279.755	3.64
280.127	3.69
280.5	3.77
280.872	4
281.245	4.19
281.617	4.29
281.99	4.18
282.362	4.28
282.735	4.36
283.107	4.33
283.479	4.26
283.852	4.26
284.224	4.09
284.596	4.06
284.968	4.19
285.34	4.05
285.713	4.01
286.085	4.08
286.457	4.13
286.829	4.19
287.201	4.16
287.572	4.14
287.944	4.1
288.316	4.11
288.688	3.93
289.06	3.87
289.431	3.8
289.803	3.88
290.175	3.93
290.546	4.05
290.918	4.12
291.289	4.2
291.661	4.32
292.032	4.4
292.403	4.47
292.775	4.6
293.146	4.69
293.517	4.65
293.889	4.69
294.26	4.6
294.631	4.58
295.002	4.64
295.373	4.77
295.744	4.69
296.115	4.64
296.486	4.7
296.857	4.79
297.228	4.73
297.599	4.56
297.97	4.41
298.34	4.31
298.711	4.32
299.082	4.35
299.452	4.37
299.823	4.45
300.194	4.47
300.564	4.43
300.935	4.59
301.305	4.67
301.676	4.62
302.046	4.7
302.416	4.83
302.787	4.72
303.157	4.64
303.527	4.74
303.897	4.81
304.267	4.94
304.637	4.85
305.008	5.02
305.378	5.28
305.748	5.54
306.117	5.52
306.487	5.52
306.857	5.63
307.227	5.66
307.597	5.66
307.967	5.63
308.336	5.72
308.706	5.71
309.076	5.77
309.445	5.84
309.815	5.9
310.184	5.84
310.554	5.99
310.923	6.1
311.293	6.25
311.662	6.13
312.031	6.07
312.401	6.12
312.77	6.15
313.139	6.19
313.508	6.28
313.877	6.37
314.246	6.57
314.616	6.53
314.985	6.58
315.353	6.55
315.722	6.73
316.091	6.73
316.46	6.65
316.829	6.77
317.198	6.91
317.567	6.9
317.935	7.07
318.304	7.11
318.672	7.12
319.041	7.1
319.41	7.4
319.778	7.36
320.147	7.46
320.515	7.52
320.883	7.48
321.252	7.41
321.62	7.52
321.988	7.43
322.357	7.59
322.725	7.59
323.093	7.83
323.461	7.74
323.829	7.92
324.197	8.07
324.565	8.07
324.933	8.1
325.301	8.3
325.669	8.26
326.037	8.25
326.405	8.27
326.772	8.43
327.14	8.44
327.508	8.64
327.875	8.69
328.243	8.86
328.61	9.03
328.978	9.15
329.346	9.27
329.713	9.27
330.08	9.37
330.448	9.39
330.815	9.31
331.182	9.29
331.55	9.22
331.917	9.3
332.284	9.38
332.651	9.47
333.018	9.39
333.385	9.45
333.752	9.53
334.119	9.54
334.486	9.36
334.853	9.33
335.22	9.34
335.587	9.26
335.954	9.2
336.32	9.15
336.687	9.13
337.054	9.12
337.42	9.1
337.787	8.91
338.153	9.01
338.52	9.05
338.886	9.17
339.253	9.1
339.619	9.02
339.986	9
340.352	9.01
340.718	9.02
341.084	9.05
341.451	9.1
341.817	9.13
342.183	9.13
342.549	9.16
342.915	9.16
343.281	9.25
343.647	9.25
344.013	9.31
344.379	9.31
344.745	9.32
345.11	9.36
345.476	9.4
345.842	9.31
346.208	9.27
346.573	9.2
346.939	9.27
347.304	9.3
347.67	9.38
348.035	9.4
348.401	9.34
348.766	9.25
349.132	9.16
349.497	9.18
349.862	9.32
350.228	9.31
350.593	9.27
350.958	9.23
351.323	9.21
351.688	9.15
352.053	9.13
352.418	9.11
352.783	9.06
353.148	9.07
353.513	9.21
353.878	9.16
354.243	9.19
354.608	9.2
354.972	9.26
355.337	9.16
355.702	9.15
356.066	9.26
356.431	9.27
356.795	9.29
357.16	9.34
357.524	9.21
357.889	9.17
358.253	9.18
358.618	9.24
358.982	9.15
359.346	9.08
359.71	9.08
360.075	9.04
360.439	9.11
360.803	9.03
361.167	8.89
361.531	8.88
361.895	8.82
362.259	8.72
362.623	8.57
362.987	8.56
363.351	8.52
363.714	8.43
364.078	8.33
364.442	8.28
364.806	8.13
365.169	8.13
365.533	8.1
365.896	8.05
366.26	7.98
366.623	7.91
366.987	7.85
367.35	7.76
367.714	7.71
368.077	7.61
368.44	7.6
368.803	7.56
369.167	7.51
369.53	7.51
369.893	7.54
370.256	7.6
370.619	7.57
370.982	7.48
371.345	7.41
371.708	7.47
372.071	7.34
372.434	7.32
372.797	7.28
373.159	7.13
373.522	7.08
373.885	7.01
374.247	6.98
374.61	6.97
374.973	6.86
375.335	6.79
375.698	6.75
376.06	6.68
376.423	6.62
376.785	6.57
377.147	6.5
377.51	6.42
377.872	6.33
378.234	6.24
378.596	6.17
378.958	6.08
379.321	6.01
379.683	6.03
380.045	5.95
380.407	5.89
380.769	5.9
381.13	5.86
381.492	5.78
381.854	5.72
382.216	5.64
382.578	5.67
382.939	5.58
383.301	5.48
383.663	5.47
384.024	5.51
384.386	5.52
384.747	5.46
385.109	5.42
385.47	5.39
385.832	5.37
386.193	5.38
386.554	5.36
386.916	5.29
387.277	5.21
387.638	5.19
387.999	5.15
388.36	5.16
388.721	5.12
389.082	5.12
389.443	5.08
389.804	5.08
390.165	5.01
390.526	4.98
390.887	5.02
391.248	4.98
391.609	4.94
391.969	4.88
392.33	4.86
392.691	4.85
393.051	4.79
393.412	4.78
393.772	4.72
394.133	4.73
394.493	4.75
394.854	4.73
395.214	4.72
395.574	4.67
395.935	4.6
396.295	4.6
396.655	4.51
397.015	4.5
397.376	4.46
397.736	4.42
398.096	4.44
398.456	4.39
398.816	4.37
399.176	4.3
399.535	4.27
399.895	4.25
400.255	4.23
400.615	4.24
400.975	4.21
401.334	4.2
401.694	4.12
402.054	4.09
402.413	4.11
402.773	4.05
403.132	4.05
403.492	4.06
403.851	4.01
404.211	4.03
404.57	4.02
404.929	4.01
405.288	3.98
405.648	3.93
406.007	3.9
406.366	3.84
406.725	3.85
407.084	3.84
407.443	3.83
407.802	3.82
408.161	3.81
408.52	3.77
408.879	3.75
409.238	3.76
409.596	3.74
409.955	3.69
410.314	3.73
410.673	3.69
411.031	3.65
411.39	3.65
411.748	3.64
412.107	3.63
412.465	3.6
412.824	3.6
413.182	3.6
413.54	3.63
413.899	3.67
414.257	3.66
414.615	3.65
414.974	3.67
415.332	3.62
415.69	3.61
416.048	3.59
416.406	3.6
416.764	3.58
417.122	3.57
417.48	3.56
417.838	3.54
418.195	3.57
418.553	3.57
418.911	3.55
419.269	3.54
419.626	3.53
419.984	3.54
420.342	3.54
420.699	3.52
421.057	3.49
421.414	3.46
421.772	3.44
422.129	3.41
422.486	3.39
422.844	3.39
423.201	3.37
423.558	3.37
423.915	3.36
424.273	3.35
424.63	3.34
424.987	3.33
425.344	3.33
425.701	3.3
426.058	3.29
426.415	3.29
426.772	3.27
427.128	3.27
427.485	3.26
427.842	3.26
428.199	3.27
428.555	3.27
428.912	3.28
429.269	3.29
429.625	3.28
429.982	3.28
430.338	3.27
430.695	3.28
431.051	3.25
431.407	3.24
431.764	3.24
432.12	3.24
432.476	3.25
432.832	3.22
433.189	3.21
433.545	3.22
433.901	3.21
434.257	3.22
434.613	3.23
434.969	3.24
435.325	3.21
435.681	3.2
436.036	3.2
436.392	3.19
436.748	3.18
437.104	3.21
437.459	3.2
437.815	3.19
438.171	3.2
438.526	3.21
438.882	3.21
439.237	3.22
439.593	3.23
439.948	3.22
440.304	3.24
440.659	3.24
441.014	3.23
441.369	3.23
441.725	3.22
442.08	3.2
442.435	3.2
442.79	3.21
443.145	3.2
443.5	3.2
443.855	3.19
444.21	3.19
444.565	3.19
444.92	3.19
445.275	3.18
445.629	3.17
445.984	3.17
446.339	3.15
446.693	3.13
447.048	3.13
447.403	3.13
447.757	3.11
448.112	3.1
448.466	3.08
448.82	3.09
449.175	3.1
449.529	3.1
449.883	3.09
450.238	3.09
450.592	3.11
450.946	3.1
451.3	3.09
451.654	3.1
452.008	3.09
452.362	3.07
452.716	3.08
453.07	3.1
453.424	3.12
453.778	3.13
454.132	3.12
454.486	3.09
454.839	3.09
455.193	3.09
455.547	3.09
455.9	3.09
456.254	3.09
456.607	3.07
456.961	3.07
457.314	3.05
457.668	3.05
458.021	3.02
458.375	3.04
458.728	3.05
459.081	3.05
459.434	3.03
459.787	3.05
460.141	3.06
460.494	3.04
460.847	3.03
461.2	3.03
461.553	3.05
461.906	3.06
462.259	3.06
462.611	3.08
462.964	3.11
463.317	3.12
463.67	3.13
464.022	3.14
464.375	3.13
464.728	3.14
465.08	3.14
465.433	3.14
465.785	3.14
466.138	3.15
466.49	3.14
466.843	3.16
467.195	3.17
467.547	3.19
467.899	3.2
468.252	3.2
468.604	3.2
468.956	3.2
469.308	3.2
469.66	3.18
470.012	3.2
470.364	3.18
470.716	3.17
471.068	3.17
471.42	3.17
471.772	3.18
472.123	3.21
472.475	3.21
472.827	3.22
473.178	3.23
473.53	3.22
473.882	3.23
474.233	3.26
474.585	3.24
474.936	3.22
475.288	3.21
475.639	3.2
475.99	3.22
476.342	3.21
476.693	3.22
477.044	3.25
477.395	3.23
477.746	3.23
478.097	3.23
478.448	3.23
478.8	3.22
479.15	3.21
479.501	3.21
479.852	3.2
480.203	3.23
480.554	3.23
480.905	3.24
481.255	3.25
481.606	3.24
481.957	3.25
482.307	3.25
482.658	3.25
483.009	3.26
483.359	3.26
483.709	3.26
484.06	3.26
484.41	3.25
484.761	3.25
485.111	3.26
485.461	3.27
485.811	3.26
486.162	3.27
486.512	3.27
486.862	3.27
487.212	3.28
487.562	3.29
487.912	3.28
488.262	3.28
488.612	3.28
488.961	3.29
489.311	3.29
489.661	3.29
490.011	3.31
490.36	3.31
490.71	3.3
491.06	3.31
491.409	3.32
491.759	3.32
492.108	3.33
492.458	3.33
492.807	3.33
493.157	3.34
493.506	3.35
493.855	3.35
494.204	3.37
494.554	3.38
494.903	3.36
495.252	3.38
495.601	3.38
495.95	3.39
496.299	3.39
496.648	3.4
496.997	3.41
497.346	3.41
497.695	3.44
498.043	3.46
498.392	3.46
498.741	3.48
499.09	3.49
499.438	3.52
499.787	3.54
500.135	3.59
500.484	3.61
500.832	3.65
501.181	3.7
501.529	3.72
501.878	3.76
502.226	3.82
502.574	3.87
502.923	3.91
503.271	3.94
503.619	4
503.967	4.05
504.315	4.09
504.663	4.12
505.011	4.17
505.359	4.23
505.707	4.32
506.055	4.39
506.403	4.48
506.751	4.55
507.098	4.61
507.446	4.67
507.794	4.73
508.141	4.8
508.489	4.85
508.837	4.92
509.184	4.97
509.531	5.02
509.879	5.1
510.226	5.19
510.574	5.27
510.921	5.33
511.268	5.39
511.616	5.48
511.963	5.58
512.31	5.66
512.657	5.74
513.004	5.82
513.351	5.89
513.698	5.97
514.045	6.06
514.392	6.17
514.739	6.27
515.086	6.39
515.432	6.49
515.779	6.59
516.126	6.71
516.473	6.81
516.819	6.92
517.166	7
517.512	7.1
517.859	7.2
518.205	7.3
518.552	7.41
518.898	7.5
519.245	7.61
519.591	7.7
519.937	7.8
520.283	7.93
520.629	8.06
520.976	8.19
521.322	8.31
521.668	8.47
522.014	8.62
522.36	8.76
522.706	8.91
523.052	9.11
523.398	9.26
523.743	9.44
524.089	9.62
524.435	9.79
524.781	9.95
525.126	10.1
525.472	10.23
525.817	10.36
526.163	10.5
526.509	10.6
526.854	10.71
527.199	10.84
527.545	10.92
527.89	11.01
528.235	11.12
528.581	11.23
528.926	11.32
529.271	11.44
529.616	11.53
529.961	11.63
530.306	11.73
530.651	11.86
530.996	11.98
531.341	12.09
531.686	12.22
532.031	12.35
532.376	12.49
532.721	12.65
533.065	12.8
533.41	12.95
533.755	13.11
534.099	13.29
534.444	13.43
534.788	13.61
535.133	13.77
535.477	13.96
535.822	14.13
536.166	14.31
536.51	14.49
536.855	14.72
537.199	14.96
537.543	15.18
537.887	15.41
538.231	15.62
538.576	15.87
538.92	16.09
539.264	16.29
539.608	16.49
539.951	16.66
540.295	16.85
540.639	17.03
540.983	17.22
541.327	17.39
541.671	17.56
542.014	17.71
542.358	17.87
542.701	18.03
543.045	18.21
543.389	18.37
543.732	18.57
544.075	18.74
544.419	18.92
544.762	19.11
545.105	19.33
545.449	19.55
545.792	19.8
546.135	20.05
546.478	20.3
546.821	20.55
547.165	20.85
547.508	21.14
547.851	21.43
548.194	21.68
548.536	21.96
548.879	22.28
549.222	22.63
549.565	22.92
549.908	23.21
550.25	23.48
550.593	23.83
550.936	24.12
551.278	24.43
551.621	24.71
551.963	25.03
552.306	25.32
552.648	25.65
552.991	25.91
553.333	26.16
553.675	26.47
554.017	26.79
554.36	27.02
554.702	27.32
555.044	27.6
555.386	27.87
555.728	28.15
556.07	28.38
556.412	28.68
556.754	28.97
557.096	29.27
557.438	29.6
557.78	29.9
558.121	30.22
558.463	30.52
558.805	30.86
559.147	31.18
559.488	31.43
559.83	31.67
560.171	31.95
560.513	32.29
560.854	32.64
561.196	32.91
561.537	33.29
561.878	33.54
562.22	33.8
562.561	34.12
562.902	34.41
563.243	34.73
563.584	34.91
563.925	35.18
564.266	35.45
564.607	35.66
564.948	35.88
565.289	36.09
565.63	36.33
565.971	36.56
566.312	36.75
566.653	36.99
566.993	37.23
567.334	37.43
567.675	37.63
568.015	37.83
568.356	38.06
568.696	38.24
569.037	38.52
569.377	38.78
569.718	39.04
570.058	39.29
570.398	39.49
570.739	39.75
571.079	39.96
571.419	40.16
571.759	40.39
572.099	40.62
572.439	40.83
572.779	41.08
573.119	41.27
573.459	41.5
573.799	41.72
574.139	41.9
574.479	42.13
574.819	42.33
575.158	42.52
575.498	42.67
575.838	42.87
576.177	43.02
576.517	43.19
576.856	43.36
577.196	43.49
577.535	43.73
577.875	43.87
578.214	44.09
578.553	44.29
578.893	44.45
579.232	44.65
579.571	44.89
579.91	45.04
580.25	45.24
580.589	45.42
580.928	45.57
581.267	45.72
581.606	45.89
581.945	46.04
582.283	46.21
582.622	46.44
582.961	46.64
583.3	46.7
583.639	46.86
583.977	47.03
584.316	47.18
584.654	47.32
584.993	47.53
585.332	47.67
585.67	47.87
586.008	48.05
586.347	48.15
586.685	48.2
587.024	48.35
587.362	48.49
587.7	48.61
588.038	48.67
588.376	48.89
588.715	49.01
589.053	49.14
589.391	49.21
589.729	49.35
590.067	49.44
590.404	49.63
590.742	49.72
591.08	49.76
591.418	49.93
591.756	50.08
592.093	50.21
592.431	50.28
592.769	50.31
593.106	50.36
593.444	50.47
593.781	50.61
594.119	50.78
594.456	50.83
594.793	50.92
595.131	51.07
595.468	51.19
595.805	51.22
596.143	51.28
596.48	51.4
596.817	51.48
597.154	51.52
597.491	51.68
597.828	51.72
598.165	51.85
598.502	51.94
598.839	51.99
599.176	52.06
599.512	52.17
599.849	52.27
600.186	52.46
600.523	52.54
600.859	52.63
601.196	52.61
601.532	52.63
601.869	52.66
602.205	52.73
602.542	52.79
602.878	52.92
603.215	52.99
603.551	53.07
603.887	53.1
604.223	53.11
604.56	53.17
604.896	53.28
605.232	53.31
605.568	53.37
605.904	53.42
606.24	53.46
606.576	53.55
606.912	53.66
607.248	53.71
607.583	53.77
607.919	53.77
608.255	53.91
608.591	54.07
608.926	54.18
609.262	54.29
609.597	54.36
609.933	54.4
610.268	54.46
610.604	54.52
610.939	54.58
611.275	54.73
611.61	54.74
611.945	54.81
612.281	54.92
612.616	54.94
612.951	55.02
613.286	55.11
613.621	55.15
613.956	55.19
614.291	55.18
614.626	55.22
614.961	55.36
615.296	55.39
615.631	55.46
615.966	55.48
616.3	55.55
616.635	55.56
616.97	55.59
617.304	55.58
617.639	55.58
617.973	55.57
618.308	55.56
618.642	55.6
618.977	55.65
619.311	55.67
619.646	55.71
619.98	55.76
620.314	55.88
620.648	55.9
620.983	55.97
621.317	56.02
621.651	56.15
621.985	56.19
622.319	56.21
622.653	56.19
622.987	56.31
623.321	56.29
623.655	56.28
623.988	56.32
624.322	56.45
624.656	56.45
624.99	56.52
625.323	56.57
625.657	56.58
625.99	56.61
626.324	56.71
626.657	56.74
626.991	56.74
627.324	56.67
627.658	56.79
627.991	56.79
628.324	56.81
628.657	56.84
628.991	56.85
629.324	56.87
629.657	56.93
629.99	56.92
630.323	56.99
630.656	57.05
630.989	57.11
631.322	57.18
631.655	57.34
631.987	57.4
632.32	57.38
632.653	57.43
632.986	57.51
633.318	57.48
633.651	57.51
633.984	57.56
634.316	57.59
634.649	57.49
634.981	57.5
635.313	57.48
635.646	57.51
635.978	57.5
636.31	57.5
636.643	57.62
636.975	57.58
637.307	57.61
637.639	57.58
637.971	57.64
638.303	57.6
638.635	57.55
638.967	57.62
639.299	57.76
639.631	57.71
639.963	57.6
640.295	57.56
640.626	57.56
640.958	57.6
641.29	57.7
641.621	57.68
641.953	57.7
642.285	57.84
642.616	57.83
642.948	58.02
643.279	58.12
643.61	58.01
643.942	58.11
644.273	58.11
644.604	58.16
644.936	58.06
645.267	58.14
645.598	58.13
645.929	58.05
646.26	57.99
646.591	58.12
646.922	58.15
647.253	58.23
647.584	58.34
647.915	58.31
648.245	58.3
648.576	58.41
648.907	58.49
649.238	58.47
649.568	58.58
649.899	58.51
650.229	58.5
650.56	58.47
650.89	58.45
651.221	58.41
651.551	58.47
651.882	58.55
652.212	58.52
652.542	58.51
652.872	58.57
653.203	58.48
653.533	58.39
653.863	58.39
654.193	58.32
654.523	58.29
654.853	58.19
655.183	58.2
655.513	58.14
655.843	58.11
656.172	58.2
656.502	58.2
656.832	58.18
657.162	58.16
657.491	58.21
657.821	58.26
658.15	58.46
658.48	58.5
658.809	58.38
659.139	58.34
659.468	58.33
659.798	58.34
660.127	58.53
660.456	58.49
660.785	58.62
661.115	58.7
661.444	58.69
661.773	58.77
662.102	58.82
662.431	58.89
662.76	58.76
663.089	58.66
663.418	58.5
663.747	58.46
664.076	58.44
664.404	58.44
664.733	58.44
665.062	58.19
665.39	58.09
665.719	58.17
