Data from BU57648_Reflection_00010.txt Node
Date: Tue Nov 19 10:46:47 EST 2019
User: vgr7
Spectrometer: USB2G7710
Scans to average: 3
Trigger mode: 4
Integration Time (sec): 2.000000E-2
Electric dark correction enabled: true
Boxcar width: 10
XAxis mode: Wavelengths
Number of Pixels in Spectrum: 2048
>>>>>Begin Spectral Data<<<<<
177.721	84.3
178.105	109.26
178.488	92.56
178.871	45.83
179.254	50
179.636	56.35
180.019	-37.82
180.402	121.43
180.785	88.33
181.168	93.06
181.55	55.88
181.933	-2.68
182.316	-0.49
182.698	2.54
183.081	36.75
183.463	40.72
183.846	-51.79
184.228	-40.63
184.611	15.76
184.993	-18.57
185.376	-18.54
185.758	5.64
186.14	17.86
186.522	16.67
186.904	4.46
187.287	-1.23
187.669	13.64
188.051	-5.42
188.433	3.04
188.815	12.98
189.197	23.32
189.579	22.38
189.961	13.21
190.342	18.1
190.724	26.3
191.106	-3.01
191.488	-5.65
191.869	25.73
192.251	-0.17
192.633	6.12
193.014	2.52
193.396	13.56
193.777	9.86
194.159	3.2
194.54	-3.75
194.922	-3.71
195.303	-14.13
195.684	-41.3
196.065	-31.06
196.447	-40.33
196.828	-60.43
197.209	-59.35
197.59	-44.05
197.971	-23.2
198.352	-25.46
198.733	-28.01
199.114	-36.28
199.495	-18.29
199.876	-28.79
200.257	-17.32
200.638	-10.54
201.018	10.43
201.399	31.01
201.78	45.65
202.16	35.83
202.541	41.88
202.922	38.23
203.302	53.7
203.683	65.74
204.063	56.78
204.444	63.54
204.824	79.84
205.204	73.24
205.585	78.37
205.965	90.96
206.345	71.79
206.725	75.09
207.106	73.54
207.486	70.34
207.866	54.48
208.246	46.74
208.626	28.47
209.006	24.86
209.386	-5.14
209.766	-14.91
210.145	-12.14
210.525	-23.86
210.905	-13.53
211.285	-10.07
211.664	-12.5
212.044	-18.17
212.424	-17.6
212.803	-27.85
213.183	-37
213.562	-30
213.942	-29.31
214.321	-18.27
214.701	-9.47
215.08	-2.71
215.459	-6.4
215.838	-7.59
216.218	-36.28
216.597	-3.76
216.976	-7.14
217.355	1.98
217.734	3.39
218.113	21.01
218.492	27.15
218.871	12.88
219.25	25.1
219.629	22.41
220.008	19.14
220.387	26.74
220.766	38.06
221.144	42.52
221.523	48.53
221.902	33.85
222.28	24.65
222.659	18.81
223.037	24.52
223.416	36.67
223.794	43.67
224.173	51.39
224.551	37.65
224.929	24.29
225.308	18.64
225.686	10.49
226.064	-2.57
226.442	-1.61
226.821	2.06
227.199	1.46
227.577	4.89
227.955	5.95
228.333	3.02
228.711	0.89
229.089	-3.1
229.467	-7.63
229.845	-5.83
230.222	0.86
230.6	-3.96
230.978	-4.31
231.356	-6.83
231.733	-5.51
232.111	-5.27
232.488	-6
232.866	-3.6
233.243	0.96
233.621	1.67
233.998	3.6
234.376	2.05
234.753	1.66
235.13	4.18
235.508	2.68
235.885	4.11
236.262	2.31
236.639	2.14
237.016	2.38
237.393	4.98
237.77	5.29
238.147	4.04
238.524	5.54
238.901	4.84
239.278	4.27
239.655	4.19
240.032	4.63
240.409	4.7
240.785	4.41
241.162	3.56
241.539	3.65
241.915	3.41
242.292	4.08
242.668	4.22
243.045	3.33
243.421	3.54
243.798	3.89
244.174	4.17
244.551	3.92
244.927	4.04
245.303	3.47
245.679	3.3
246.056	3.19
246.432	3.27
246.808	3.46
247.184	3.55
247.56	3.46
247.936	3.58
248.312	3.83
248.688	3.98
249.064	4.01
249.44	3.99
249.815	4.11
250.191	3.85
250.567	3.99
250.943	4.13
251.318	4.26
251.694	3.88
252.069	3.81
252.445	4.33
252.82	4.65
253.196	4.85
253.571	5.17
253.947	5.44
254.322	5.37
254.697	5.22
255.073	5.5
255.448	5.53
255.823	5.31
256.198	5
256.573	4.92
256.948	5.02
257.323	5.15
257.698	5.02
258.073	5.01
258.448	4.92
258.823	4.76
259.198	4.68
259.573	4.36
259.948	4.55
260.322	4.16
260.697	4.06
261.072	4.28
261.446	4.14
261.821	3.99
262.195	3.92
262.57	4.09
262.944	3.97
263.319	3.76
263.693	3.63
264.067	3.53
264.442	3.48
264.816	3.38
265.19	3.22
265.564	3.15
265.938	3.25
266.313	3.07
266.687	3.27
267.061	3.19
267.435	3.69
267.809	3.56
268.183	3.63
268.556	3.38
268.93	3.43
269.304	3.4
269.678	3.61
270.051	3.72
270.425	3.62
270.799	3.55
271.172	3.57
271.546	3.79
271.919	3.93
272.293	3.87
272.666	3.89
273.04	3.89
273.413	3.88
273.787	3.82
274.16	3.74
274.533	3.66
274.906	3.8
275.279	3.54
275.653	3.62
276.026	3.8
276.399	4.02
276.772	3.92
277.145	3.93
277.518	3.86
277.891	3.73
278.263	3.89
278.636	4.16
279.009	4.3
279.382	4.28
279.755	4.1
280.127	4.2
280.5	4.18
280.872	4.25
281.245	4.22
281.617	4.04
281.99	4.16
282.362	4.21
282.735	3.98
283.107	4.02
283.479	4.02
283.852	4.01
284.224	3.94
284.596	3.84
284.968	3.86
285.34	3.75
285.713	3.87
286.085	3.63
286.457	3.44
286.829	3.37
287.201	3.24
287.572	3.38
287.944	3.34
288.316	3.39
288.688	3.39
289.06	3.47
289.431	3.64
289.803	3.82
290.175	3.76
290.546	3.98
290.918	4.09
291.289	3.94
291.661	3.97
292.032	3.99
292.403	4.17
292.775	4.4
293.146	4.6
293.517	4.54
293.889	4.62
294.26	4.74
294.631	4.86
295.002	5.07
295.373	5.11
295.744	5.26
296.115	5.27
296.486	5.36
296.857	5.35
297.228	5.24
297.599	5.03
297.97	5.12
298.34	5.09
298.711	5.2
299.082	5.33
299.452	5.31
299.823	5.45
300.194	5.49
300.564	5.43
300.935	5.46
301.305	5.48
301.676	5.59
302.046	5.58
302.416	5.65
302.787	5.63
303.157	5.78
303.527	5.87
303.897	6.04
304.267	6.15
304.637	6.2
305.008	6.32
305.378	6.62
305.748	6.51
306.117	6.62
306.487	6.57
306.857	6.61
307.227	6.79
307.597	6.91
307.967	6.87
308.336	6.96
308.706	7.13
309.076	7.26
309.445	7.42
309.815	7.52
310.184	7.56
310.554	7.59
310.923	7.47
311.293	7.49
311.662	7.44
312.031	7.4
312.401	7.56
312.77	7.73
313.139	7.64
313.508	7.97
313.877	8.11
314.246	8.22
314.616	8.38
314.985	8.35
315.353	8.24
315.722	8.4
316.091	8.43
316.46	8.44
316.829	8.57
317.198	8.44
317.567	8.76
317.935	8.9
318.304	9.09
318.672	9.45
319.041	9.6
319.41	9.66
319.778	9.6
320.147	9.66
320.515	9.68
320.883	9.94
321.252	10.06
321.62	10.14
321.988	10.09
322.357	10.08
322.725	10.24
323.093	10.45
323.461	10.48
323.829	10.55
324.197	10.49
324.565	10.46
324.933	10.6
325.301	10.41
325.669	10.54
326.037	10.49
326.405	10.42
326.772	10.36
327.14	10.41
327.508	10.64
327.875	10.72
328.243	10.81
328.61	10.74
328.978	10.71
329.346	10.6
329.713	10.76
330.08	11
330.448	10.88
330.815	10.95
331.182	11.08
331.55	11.07
331.917	11.2
332.284	11.42
332.651	11.34
333.018	11.4
333.385	11.37
333.752	11.46
334.119	11.58
334.486	11.78
334.853	11.93
335.22	11.89
335.587	11.71
335.954	11.73
336.32	11.91
336.687	11.89
337.054	11.96
337.42	12.09
337.787	11.94
338.153	12.06
338.52	12.13
338.886	12.1
339.253	12.16
339.619	12.13
339.986	12.04
340.352	12.24
340.718	12.3
341.084	12.22
341.451	12.3
341.817	12.35
342.183	12.26
342.549	12.3
342.915	12.45
343.281	12.59
343.647	12.69
344.013	12.62
344.379	12.56
344.745	12.59
345.11	12.44
345.476	12.62
345.842	12.63
346.208	12.57
346.573	12.73
346.939	12.81
347.304	12.89
347.67	12.8
348.035	12.73
348.401	12.78
348.766	12.88
349.132	12.86
349.497	12.8
349.862	12.83
350.228	12.73
350.593	12.63
350.958	12.75
351.323	12.74
351.688	12.63
352.053	12.72
352.418	12.62
352.783	12.61
353.148	12.46
353.513	12.46
353.878	12.4
354.243	12.21
354.608	12.09
354.972	12.04
355.337	12.11
355.702	12.05
356.066	11.92
356.431	11.9
356.795	11.77
357.16	11.7
357.524	11.63
357.889	11.54
358.253	11.47
358.618	11.42
358.982	11.37
359.346	11.49
359.71	11.33
360.075	11.36
360.439	11.31
360.803	11.3
361.167	11.27
361.531	11.32
361.895	11.29
362.259	11.35
362.623	11.2
362.987	11.17
363.351	11.13
363.714	11.13
364.078	11.12
364.442	11.12
364.806	11.05
365.169	11.01
365.533	10.97
365.896	10.9
366.26	10.8
366.623	10.68
366.987	10.6
367.35	10.68
367.714	10.6
368.077	10.56
368.44	10.53
368.803	10.43
369.167	10.29
369.53	10.26
369.893	10.12
370.256	10.11
370.619	9.98
370.982	9.88
371.345	9.85
371.708	9.7
372.071	9.57
372.434	9.53
372.797	9.47
373.159	9.43
373.522	9.35
373.885	9.23
374.247	9.17
374.61	9.03
374.973	8.91
375.335	8.89
375.698	8.86
376.06	8.75
376.423	8.62
376.785	8.51
377.147	8.43
377.51	8.4
377.872	8.37
378.234	8.32
378.596	8.31
378.958	8.18
379.321	8.05
379.683	8.03
380.045	7.94
380.407	7.81
380.769	7.76
381.13	7.71
381.492	7.66
381.854	7.63
382.216	7.55
382.578	7.43
382.939	7.35
383.301	7.28
383.663	7.18
384.024	7.18
384.386	7.15
384.747	7.06
385.109	6.99
385.47	6.89
385.832	6.83
386.193	6.73
386.554	6.63
386.916	6.63
387.277	6.58
387.638	6.51
387.999	6.46
388.36	6.41
388.721	6.37
389.082	6.32
389.443	6.33
389.804	6.31
390.165	6.26
390.526	6.2
390.887	6.16
391.248	6.14
391.609	6.06
391.969	6.01
392.33	5.97
392.691	5.89
393.051	5.87
393.412	5.82
393.772	5.79
394.133	5.77
394.493	5.74
394.854	5.66
395.214	5.63
395.574	5.58
395.935	5.54
396.295	5.46
396.655	5.42
397.015	5.34
397.376	5.2
397.736	5.15
398.096	5.04
398.456	4.98
398.816	4.92
399.176	4.89
399.535	4.84
399.895	4.78
400.255	4.75
400.615	4.71
400.975	4.66
401.334	4.65
401.694	4.57
402.054	4.52
402.413	4.5
402.773	4.46
403.132	4.45
403.492	4.44
403.851	4.4
404.211	4.35
404.57	4.31
404.929	4.3
405.288	4.25
405.648	4.26
406.007	4.21
406.366	4.2
406.725	4.16
407.084	4.14
407.443	4.15
407.802	4.08
408.161	4.04
408.52	4.03
408.879	3.95
409.238	3.99
409.596	3.95
409.955	3.89
410.314	3.88
410.673	3.85
411.031	3.79
411.39	3.8
411.748	3.79
412.107	3.75
412.465	3.75
412.824	3.77
413.182	3.75
413.54	3.75
413.899	3.68
414.257	3.69
414.615	3.69
414.974	3.64
415.332	3.66
415.69	3.64
416.048	3.65
416.406	3.64
416.764	3.62
417.122	3.6
417.48	3.62
417.838	3.59
418.195	3.56
418.553	3.53
418.911	3.51
419.269	3.49
419.626	3.47
419.984	3.44
420.342	3.43
420.699	3.43
421.057	3.41
421.414	3.4
421.772	3.39
422.129	3.37
422.486	3.37
422.844	3.34
423.201	3.33
423.558	3.31
423.915	3.31
424.273	3.29
424.63	3.29
424.987	3.26
425.344	3.26
425.701	3.26
426.058	3.26
426.415	3.25
426.772	3.24
427.128	3.24
427.485	3.23
427.842	3.2
428.199	3.17
428.555	3.14
428.912	3.13
429.269	3.11
429.625	3.11
429.982	3.11
430.338	3.12
430.695	3.12
431.051	3.1
431.407	3.09
431.764	3.07
432.12	3.07
432.476	3.08
432.832	3.09
433.189	3.07
433.545	3.09
433.901	3.08
434.257	3.08
434.613	3.07
434.969	3.08
435.325	3.09
435.681	3.11
436.036	3.14
436.392	3.14
436.748	3.11
437.104	3.1
437.459	3.06
437.815	3.06
438.171	3.03
438.526	3.03
438.882	3.02
439.237	3.02
439.593	3.02
439.948	2.99
440.304	2.95
440.659	2.94
441.014	2.91
441.369	2.93
441.725	2.93
442.08	2.91
442.435	2.92
442.79	2.9
443.145	2.88
443.5	2.86
443.855	2.86
444.21	2.86
444.565	2.85
444.92	2.85
445.275	2.85
445.629	2.85
445.984	2.84
446.339	2.83
446.693	2.83
447.048	2.81
447.403	2.81
447.757	2.84
448.112	2.85
448.466	2.86
448.82	2.84
449.175	2.83
449.529	2.84
449.883	2.82
450.238	2.83
450.592	2.83
450.946	2.83
451.3	2.82
451.654	2.82
452.008	2.82
452.362	2.81
452.716	2.8
453.07	2.8
453.424	2.8
453.778	2.8
454.132	2.78
454.486	2.79
454.839	2.77
455.193	2.75
455.547	2.73
455.9	2.72
456.254	2.71
456.607	2.7
456.961	2.7
457.314	2.7
457.668	2.69
458.021	2.68
458.375	2.66
458.728	2.66
459.081	2.67
459.434	2.68
459.787	2.7
460.141	2.71
460.494	2.71
460.847	2.7
461.2	2.7
461.553	2.72
461.906	2.71
462.259	2.72
462.611	2.72
462.964	2.74
463.317	2.75
463.67	2.77
464.022	2.78
464.375	2.79
464.728	2.8
465.08	2.83
465.433	2.85
465.785	2.88
466.138	2.89
466.49	2.9
466.843	2.9
467.195	2.9
467.547	2.89
467.899	2.92
468.252	2.94
468.604	2.97
468.956	2.98
469.308	2.99
469.66	3.03
470.012	3.05
470.364	3.05
470.716	3.05
471.068	3.07
471.42	3.07
471.772	3.07
472.123	3.09
472.475	3.08
472.827	3.08
473.178	3.08
473.53	3.07
473.882	3.07
474.233	3.07
474.585	3.08
474.936	3.07
475.288	3.04
475.639	3.04
475.99	3.01
476.342	3.02
476.693	3
477.044	2.99
477.395	2.99
477.746	2.99
478.097	3
478.448	3
478.8	3
479.15	2.99
479.501	2.99
479.852	2.99
480.203	2.99
480.554	3.01
480.905	3.02
481.255	3.03
481.606	3.03
481.957	3.02
482.307	3.02
482.658	3.02
483.009	3.02
483.359	3.04
483.709	3.04
484.06	3.05
484.41	3.05
484.761	3.05
485.111	3.05
485.461	3.04
485.811	3.04
486.162	3.03
486.512	3.04
486.862	3.04
487.212	3.05
487.562	3.04
487.912	3.04
488.262	3.04
488.612	3.04
488.961	3.04
489.311	3.04
489.661	3.06
490.011	3.07
490.36	3.07
490.71	3.06
491.06	3.06
491.409	3.05
491.759	3.05
492.108	3.05
492.458	3.06
492.807	3.08
493.157	3.1
493.506	3.11
493.855	3.11
494.204	3.13
494.554	3.13
494.903	3.14
495.252	3.14
495.601	3.18
495.95	3.19
496.299	3.2
496.648	3.22
496.997	3.24
497.346	3.27
497.695	3.3
498.043	3.34
498.392	3.38
498.741	3.44
499.09	3.49
499.438	3.52
499.787	3.54
500.135	3.56
500.484	3.58
500.832	3.6
501.181	3.63
501.529	3.67
501.878	3.73
502.226	3.77
502.574	3.82
502.923	3.83
503.271	3.88
503.619	3.94
503.967	3.99
504.315	4.02
504.663	4.02
505.011	4.07
505.359	4.11
505.707	4.16
506.055	4.2
506.403	4.23
506.751	4.3
507.098	4.35
507.446	4.41
507.794	4.47
508.141	4.55
508.489	4.63
508.837	4.68
509.184	4.74
509.531	4.81
509.879	4.84
510.226	4.92
510.574	4.98
510.921	5.01
511.268	5.08
511.616	5.16
511.963	5.22
512.31	5.3
512.657	5.37
513.004	5.43
513.351	5.48
513.698	5.57
514.045	5.66
514.392	5.76
514.739	5.85
515.086	5.95
515.432	6.03
515.779	6.11
516.126	6.21
516.473	6.29
516.819	6.37
517.166	6.47
517.512	6.52
517.859	6.6
518.205	6.7
518.552	6.79
518.898	6.86
519.245	6.96
519.591	7.03
519.937	7.1
520.283	7.19
520.629	7.27
520.976	7.36
521.322	7.46
521.668	7.55
522.014	7.65
522.36	7.77
522.706	7.89
523.052	8
523.398	8.14
523.743	8.27
524.089	8.42
524.435	8.57
524.781	8.72
525.126	8.81
525.472	8.92
525.817	9
526.163	9.1
526.509	9.23
526.854	9.33
527.199	9.43
527.545	9.52
527.89	9.61
528.235	9.71
528.581	9.78
528.926	9.88
529.271	9.95
529.616	10.04
529.961	10.12
530.306	10.22
530.651	10.33
530.996	10.44
531.341	10.54
531.686	10.65
532.031	10.76
532.376	10.89
532.721	11.02
533.065	11.17
533.41	11.29
533.755	11.4
534.099	11.5
534.444	11.65
534.788	11.77
535.133	11.9
535.477	12.03
535.822	12.18
536.166	12.32
536.51	12.49
536.855	12.62
537.199	12.82
537.543	13.01
537.887	13.16
538.231	13.35
538.576	13.53
538.92	13.71
539.264	13.87
539.608	14.07
539.951	14.22
540.295	14.35
540.639	14.53
540.983	14.69
541.327	14.86
541.671	15
542.014	15.14
542.358	15.29
542.701	15.45
543.045	15.59
543.389	15.75
543.732	15.91
544.075	16.1
544.419	16.26
544.762	16.42
545.105	16.6
545.449	16.79
545.792	16.99
546.135	17.19
546.478	17.41
546.821	17.61
547.165	17.84
547.508	18.1
547.851	18.34
548.194	18.59
548.536	18.86
548.879	19.1
549.222	19.35
549.565	19.58
549.908	19.82
550.25	20.11
550.593	20.38
550.936	20.66
551.278	20.92
551.621	21.19
551.963	21.47
552.306	21.75
552.648	22.01
552.991	22.23
553.333	22.49
553.675	22.75
554.017	22.98
554.36	23.26
554.702	23.49
555.044	23.75
555.386	23.96
555.728	24.17
556.07	24.49
556.412	24.74
556.754	25
557.096	25.27
557.438	25.55
557.78	25.86
558.121	26.13
558.463	26.37
558.805	26.61
559.147	26.9
559.488	27.18
559.83	27.45
560.171	27.85
560.513	28.13
560.854	28.43
561.196	28.76
561.537	29.06
561.878	29.43
562.22	29.7
562.561	30.05
562.902	30.35
563.243	30.64
563.584	30.96
563.925	31.32
564.266	31.61
564.607	31.91
564.948	32.18
565.289	32.49
565.63	32.82
565.971	33.14
566.312	33.4
566.653	33.72
566.993	33.98
567.334	34.22
567.675	34.56
568.015	34.89
568.356	35.21
568.696	35.5
569.037	35.75
569.377	36.08
569.718	36.33
570.058	36.65
570.398	36.92
570.739	37.18
571.079	37.42
571.419	37.68
571.759	37.96
572.099	38.2
572.439	38.43
572.779	38.68
573.119	38.92
573.459	39.15
573.799	39.33
574.139	39.58
574.479	39.83
574.819	40.03
575.158	40.24
575.498	40.4
575.838	40.58
576.177	40.82
576.517	41.01
576.856	41.19
577.196	41.4
577.535	41.61
577.875	41.82
578.214	42.09
578.553	42.28
578.893	42.54
579.232	42.76
579.571	43.04
579.91	43.27
580.25	43.48
580.589	43.73
580.928	43.92
581.267	44.11
581.606	44.27
581.945	44.45
582.283	44.69
582.622	44.95
582.961	45.24
583.3	45.47
583.639	45.71
583.977	45.95
584.316	46.15
584.654	46.34
584.993	46.63
585.332	46.86
585.67	47.11
586.008	47.29
586.347	47.52
586.685	47.68
587.024	47.86
587.362	48.14
587.7	48.38
588.038	48.69
588.376	48.92
588.715	49.1
589.053	49.28
589.391	49.41
589.729	49.54
590.067	49.6
590.404	49.71
590.742	49.86
591.08	50.06
591.418	50.18
591.756	50.43
592.093	50.54
592.431	50.7
592.769	50.94
593.106	51.01
593.444	51.15
593.781	51.32
594.119	51.53
594.456	51.6
594.793	51.67
595.131	51.74
595.468	51.85
595.805	52.01
596.143	52.13
596.48	52.26
596.817	52.38
597.154	52.58
597.491	52.74
597.828	52.88
598.165	53
598.502	53.19
598.839	53.3
599.176	53.51
599.512	53.59
599.849	53.68
600.186	53.92
600.523	54.06
600.859	54.2
601.196	54.31
601.532	54.5
601.869	54.68
602.205	54.73
602.542	54.8
602.878	54.87
603.215	54.98
603.551	55.08
603.887	55.19
604.223	55.26
604.56	55.31
604.896	55.38
605.232	55.46
605.568	55.53
605.904	55.54
606.24	55.55
606.576	55.61
606.912	55.64
607.248	55.66
607.583	55.74
607.919	55.81
608.255	55.83
608.591	55.85
608.926	55.92
609.262	56.04
609.597	56.16
609.933	56.27
610.268	56.3
610.604	56.41
610.939	56.49
611.275	56.51
611.61	56.57
611.945	56.58
612.281	56.58
612.616	56.5
612.951	56.66
613.286	56.78
613.621	56.89
613.956	57.08
614.291	57.13
614.626	57.1
614.961	57.12
615.296	57.17
615.631	57.2
615.966	57.22
616.3	57.32
616.635	57.3
616.97	57.42
617.304	57.56
617.639	57.53
617.973	57.57
618.308	57.7
618.642	57.75
618.977	57.81
619.311	57.9
619.646	58.07
619.98	58.13
620.314	58.07
620.648	58.09
620.983	57.98
621.317	58.06
621.651	58.21
621.985	58.17
622.319	58.2
622.653	58.28
622.987	58.33
623.321	58.39
623.655	58.46
623.988	58.48
624.322	58.54
624.656	58.58
624.99	58.62
625.323	58.64
625.657	58.71
625.99	58.83
626.324	58.87
626.657	58.98
626.991	58.96
627.324	59.02
627.658	59.07
627.991	59.16
628.324	59.16
628.657	59.1
628.991	59.3
629.324	59.42
629.657	59.46
629.99	59.41
630.323	59.38
630.656	59.44
630.989	59.41
631.322	59.4
631.655	59.44
631.987	59.46
632.32	59.48
632.653	59.51
632.986	59.49
633.318	59.59
633.651	59.56
633.984	59.63
634.316	59.69
634.649	59.67
634.981	59.69
635.313	59.69
635.646	59.77
635.978	59.64
636.31	59.68
636.643	59.69
636.975	59.8
637.307	59.88
637.639	59.91
637.971	59.96
638.303	60.03
638.635	60.01
638.967	60.11
639.299	60.08
639.631	60.03
639.963	59.98
640.295	59.87
640.626	59.89
640.958	59.83
641.29	60
641.621	60.05
641.953	60.05
642.285	60.18
642.616	60.16
642.948	60.29
643.279	60.17
643.61	60.13
643.942	60.11
644.273	60.15
644.604	60.21
644.936	60.27
645.267	60.26
645.598	60.33
645.929	60.19
646.26	60.26
646.591	60.24
646.922	60.39
647.253	60.51
647.584	60.43
647.915	60.46
648.245	60.32
648.576	60.44
648.907	60.49
649.238	60.42
649.568	60.45
649.899	60.43
650.229	60.49
650.56	60.47
650.89	60.52
651.221	60.4
651.551	60.47
651.882	60.32
652.212	60.32
652.542	60.34
652.872	60.43
653.203	60.46
653.533	60.57
653.863	60.67
654.193	60.59
654.523	60.67
654.853	60.73
655.183	60.9
655.513	60.88
655.843	60.86
656.172	60.82
656.502	60.9
656.832	60.92
657.162	60.98
657.491	61.2
657.821	61.27
658.15	61.42
658.48	61.53
658.809	61.68
659.139	61.74
659.468	61.78
659.798	61.8
660.127	61.78
660.456	61.83
660.785	61.72
661.115	61.73
661.444	61.79
661.773	61.75
662.102	61.57
662.431	61.52
662.76	61.45
663.089	61.49
663.418	61.42
663.747	61.43
664.076	61.54
664.404	61.47
664.733	61.37
665.062	61.3
665.39	60.98
665.719	61.07
666.048	60.93
666.376	60.93
666.705	60.84
667.033	60.84
667.362	60.77
