Data from BU58127_Reflection_00014.txt Node
Date: Mon Nov 18 16:44:29 EST 2019
User: vgr7
Spectrometer: USB2G7710
Scans to average: 3
Trigger mode: 4
Integration Time (sec): 2.000000E-2
Electric dark correction enabled: true
Boxcar width: 10
XAxis mode: Wavelengths
Number of Pixels in Spectrum: 2048
>>>>>Begin Spectral Data<<<<<
177.721	-1122.22
178.105	-45.54
178.488	-16.2
178.871	3.38
179.254	52.38
179.636	-240.28
180.019	-48.43
180.402	160
180.785	-11.11
181.168	-492.59
181.55	274.6
181.933	115.53
182.316	28.61
182.698	3.3
183.081	7.1
183.463	98.49
183.846	119.4
184.228	134.76
184.611	62.96
184.993	574.75
185.376	-145.42
185.758	1202.56
186.14	71.68
186.522	-2.13
186.904	14.69
187.287	75.92
187.669	-78.29
188.051	48.24
188.433	1174.07
188.815	-9.06
189.197	29.66
189.579	-10.55
189.961	15.93
190.342	0.47
190.724	42.72
191.106	65.68
191.488	125.22
191.869	84.63
192.251	56.41
192.633	43.46
193.014	85.21
193.396	41.06
193.777	70.83
194.159	66.35
194.54	38.01
194.922	47.33
195.303	52.08
195.684	70.4
196.065	67.84
196.447	64.53
196.828	59.08
197.209	51.21
197.59	56.87
197.971	62.41
198.352	53.39
198.733	41.84
199.114	37.6
199.495	31.97
199.876	35.26
200.257	26.44
200.638	19.55
201.018	-6.42
201.399	-5.31
201.78	-5.86
202.16	-8.87
202.541	-16.72
202.922	-18.64
203.302	-12.81
203.683	-20.06
204.063	-25.6
204.444	-25.28
204.824	-21.44
205.204	-14.72
205.585	-14.16
205.965	-23.4
206.345	-24.75
206.725	-22.53
207.106	-33.67
207.486	-39.62
207.866	-31.23
208.246	-10.11
208.626	-9.63
209.006	16.11
209.386	14.83
209.766	21.46
210.145	31.88
210.525	29.79
210.905	35.05
211.285	22.96
211.664	29.23
212.044	13.48
212.424	29.65
212.803	31.13
213.183	11.13
213.562	18.73
213.942	24.12
214.321	19.13
214.701	9.92
215.08	10.87
215.459	16.49
215.838	6.46
216.218	-7.38
216.597	0.17
216.976	1.47
217.355	5.46
217.734	11.42
218.113	17.44
218.492	25.45
218.871	19.06
219.25	39.06
219.629	28.88
220.008	43.55
220.387	27.4
220.766	23.88
221.144	13.12
221.523	16.13
221.902	26.5
222.28	31.15
222.659	39.14
223.037	38.59
223.416	22.2
223.794	20.56
224.173	20.56
224.551	17.33
224.929	10.8
225.308	10.88
225.686	8.01
226.064	5.57
226.442	0.63
226.821	2.24
227.199	-3.13
227.577	-1.36
227.955	0.36
228.333	1.58
228.711	3.86
229.089	10.17
229.467	5.87
229.845	5.07
230.222	3.24
230.6	-0.17
230.978	0.58
231.356	4.07
231.733	3.35
232.111	3.23
232.488	4.04
232.866	5.05
233.243	4.06
233.621	3.28
233.998	3.93
234.376	4.58
234.753	3.07
235.13	1.52
235.508	-0.25
235.885	-1.63
236.262	-1.61
236.639	-1.59
237.016	-1.52
237.393	0.85
237.77	0.87
238.147	2.29
238.524	3.59
238.901	3.88
239.278	2.88
239.655	3.64
240.032	3.94
240.409	3.74
240.785	4.2
241.162	4.91
241.539	5.05
241.915	4.82
242.292	4.37
242.668	4.36
243.045	4.88
243.421	4.96
243.798	5.11
244.174	4.94
244.551	5.08
244.927	4.58
245.303	4.24
245.679	4.52
246.056	4.51
246.432	4.38
246.808	4.04
247.184	4.18
247.56	3.93
247.936	3.91
248.312	3.95
248.688	3.8
249.064	3.79
249.44	3.76
249.815	3.68
250.191	3.57
250.567	3.54
250.943	3.56
251.318	3.79
251.694	3.63
252.069	3.57
252.445	3.32
252.82	3.51
253.196	3.51
253.571	2.9
253.947	2.57
254.322	2.98
254.697	3.17
255.073	3.06
255.448	2.85
255.823	2.99
256.198	2.78
256.573	2.86
256.948	2.87
257.323	2.8
257.698	2.91
258.073	3.12
258.448	3.08
258.823	2.91
259.198	3
259.573	3.08
259.948	3.05
260.322	3
260.697	3.03
261.072	2.97
261.446	3.26
261.821	3.23
262.195	3.26
262.57	3.27
262.944	3.34
263.319	3.52
263.693	3.45
264.067	3.68
264.442	3.7
264.816	3.56
265.19	3.69
265.564	3.83
265.938	3.73
266.313	3.81
266.687	3.99
267.061	3.78
267.435	3.59
267.809	3.75
268.183	3.72
268.556	3.52
268.93	3.72
269.304	3.42
269.678	3.48
270.051	3.24
270.425	3.29
270.799	3.22
271.172	3.11
271.546	3.07
271.919	2.94
272.293	2.9
272.666	2.88
273.04	3.02
273.413	2.9
273.787	2.94
274.16	2.93
274.533	2.91
274.906	2.86
275.279	2.94
275.653	2.92
276.026	3.06
276.399	3.16
276.772	3.12
277.145	3.22
277.518	3.22
277.891	3.29
278.263	3.31
278.636	3.3
279.009	3.42
279.382	3.54
279.755	3.49
280.127	3.56
280.5	3.56
280.872	3.3
281.245	3.23
281.617	3.43
281.99	3.55
282.362	3.52
282.735	3.51
283.107	3.45
283.479	3.52
283.852	3.39
284.224	3.4
284.596	3.34
284.968	3.34
285.34	3.45
285.713	3.39
286.085	3.35
286.457	3.45
286.829	3.45
287.201	3.28
287.572	3.31
287.944	3.25
288.316	3.34
288.688	3.41
289.06	3.52
289.431	3.53
289.803	3.62
290.175	3.59
290.546	3.71
290.918	3.8
291.289	3.7
291.661	3.93
292.032	3.99
292.403	4.02
292.775	4.09
293.146	4.01
293.517	3.99
293.889	4.02
294.26	3.99
294.631	3.99
295.002	4.09
295.373	4.08
295.744	4.21
296.115	4.2
296.486	4.09
296.857	4.16
297.228	4.12
297.599	3.9
297.97	3.9
298.34	3.98
298.711	3.98
299.082	4.03
299.452	3.98
299.823	4.04
300.194	4.18
300.564	4.03
300.935	4.14
301.305	4.2
301.676	4.32
302.046	4.31
302.416	4.48
302.787	4.42
303.157	4.59
303.527	4.56
303.897	4.62
304.267	4.84
304.637	4.74
305.008	4.85
305.378	5.16
305.748	5.35
306.117	5.19
306.487	5.31
306.857	5.38
307.227	5.43
307.597	5.51
307.967	5.47
308.336	5.7
308.706	5.89
309.076	6
309.445	5.97
309.815	6.07
310.184	6.01
310.554	6.02
310.923	6.09
311.293	6.14
311.662	6.15
312.031	6.24
312.401	6.41
312.77	6.34
313.139	6.3
313.508	6.23
313.877	6.37
314.246	6.39
314.616	6.48
314.985	6.55
315.353	6.65
315.722	6.71
316.091	6.75
316.46	6.51
316.829	6.6
317.198	6.84
317.567	7.02
317.935	7.03
318.304	7.35
318.672	7.29
319.041	7.41
319.41	7.53
319.778	7.47
320.147	7.48
320.515	7.67
320.883	7.67
321.252	7.8
321.62	7.82
321.988	7.98
322.357	7.93
322.725	7.77
323.093	7.77
323.461	7.87
323.829	7.92
324.197	8
324.565	8.02
324.933	7.91
325.301	7.94
325.669	8.06
326.037	8.07
326.405	8.21
326.772	8.29
327.14	8.41
327.508	8.41
327.875	8.36
328.243	8.39
328.61	8.58
328.978	8.55
329.346	8.56
329.713	8.6
330.08	8.7
330.448	8.81
330.815	8.84
331.182	8.92
331.55	8.96
331.917	9.11
332.284	9.25
332.651	9.29
333.018	9.39
333.385	9.53
333.752	9.64
334.119	9.73
334.486	9.58
334.853	9.61
335.22	9.61
335.587	9.74
335.954	9.79
336.32	9.73
336.687	9.86
337.054	10.05
337.42	10.04
337.787	10.04
338.153	10.08
338.52	10.09
338.886	10.01
339.253	9.95
339.619	9.98
339.986	9.95
340.352	10.02
340.718	9.96
341.084	9.85
341.451	9.85
341.817	9.86
342.183	9.88
342.549	9.8
342.915	9.98
343.281	10.02
343.647	9.93
344.013	9.97
344.379	10
344.745	9.94
345.11	9.98
345.476	10.09
345.842	10.14
346.208	10.21
346.573	10.23
346.939	10.31
347.304	10.36
347.67	10.29
348.035	10.2
348.401	10.19
348.766	10.22
349.132	10.1
349.497	10.02
349.862	10.13
350.228	10.17
350.593	10.1
350.958	10.09
351.323	10.23
351.688	10.32
352.053	10.34
352.418	10.36
352.783	10.27
353.148	10.16
353.513	10.07
353.878	10.08
354.243	10.14
354.608	10.16
354.972	10.18
355.337	10.3
355.702	10.31
356.066	10.32
356.431	10.42
356.795	10.46
357.16	10.45
357.524	10.27
357.889	10.22
358.253	10.28
358.618	10.3
358.982	10.19
359.346	10.11
359.71	10.06
360.075	10.05
360.439	10.14
360.803	10.13
361.167	10.09
361.531	10.03
361.895	9.99
362.259	9.94
362.623	9.82
362.987	9.74
363.351	9.76
363.714	9.7
364.078	9.54
364.442	9.49
364.806	9.43
365.169	9.47
365.533	9.39
365.896	9.26
366.26	9.17
366.623	9.12
366.987	9.04
367.35	9.01
367.714	8.89
368.077	8.69
368.44	8.66
368.803	8.65
369.167	8.6
369.53	8.45
369.893	8.44
370.256	8.43
370.619	8.39
370.982	8.22
371.345	8.17
371.708	8.12
372.071	8.06
372.434	8.06
372.797	8
373.159	7.93
373.522	7.87
373.885	7.82
374.247	7.83
374.61	7.79
374.973	7.61
375.335	7.53
375.698	7.51
376.06	7.39
376.423	7.32
376.785	7.23
377.147	7.29
377.51	7.23
377.872	7.17
378.234	7.06
378.596	7.09
378.958	6.99
379.321	6.95
379.683	6.87
380.045	6.79
380.407	6.72
380.769	6.73
381.13	6.64
381.492	6.55
381.854	6.44
382.216	6.34
382.578	6.32
382.939	6.26
383.301	6.22
383.663	6.21
384.024	6.13
384.386	6.14
384.747	6.06
385.109	6
385.47	5.95
385.832	5.89
386.193	5.85
386.554	5.81
386.916	5.75
387.277	5.72
387.638	5.68
387.999	5.65
388.36	5.58
388.721	5.57
389.082	5.53
389.443	5.46
389.804	5.39
390.165	5.31
390.526	5.29
390.887	5.2
391.248	5.15
391.609	5.11
391.969	5.01
392.33	4.97
392.691	4.93
393.051	4.88
393.412	4.87
393.772	4.76
394.133	4.78
394.493	4.73
394.854	4.67
395.214	4.58
395.574	4.54
395.935	4.48
396.295	4.45
396.655	4.41
397.015	4.38
397.376	4.37
397.736	4.36
398.096	4.3
398.456	4.3
398.816	4.26
399.176	4.18
399.535	4.15
399.895	4.11
400.255	4.03
400.615	3.98
400.975	3.91
401.334	3.92
401.694	3.87
402.054	3.83
402.413	3.82
402.773	3.79
403.132	3.75
403.492	3.76
403.851	3.72
404.211	3.7
404.57	3.68
404.929	3.69
405.288	3.68
405.648	3.67
406.007	3.64
406.366	3.64
406.725	3.7
407.084	3.69
407.443	3.68
407.802	3.68
408.161	3.67
408.52	3.64
408.879	3.63
409.238	3.59
409.596	3.6
409.955	3.59
410.314	3.61
410.673	3.59
411.031	3.56
411.39	3.56
411.748	3.52
412.107	3.51
412.465	3.45
412.824	3.42
413.182	3.4
413.54	3.38
413.899	3.39
414.257	3.35
414.615	3.31
414.974	3.29
415.332	3.3
415.69	3.27
416.048	3.25
416.406	3.23
416.764	3.24
417.122	3.23
417.48	3.18
417.838	3.15
418.195	3.14
418.553	3.13
418.911	3.11
419.269	3.1
419.626	3.11
419.984	3.1
420.342	3.1
420.699	3.1
421.057	3.08
421.414	3.05
421.772	3.05
422.129	3.06
422.486	3.03
422.844	3.01
423.201	3.01
423.558	2.99
423.915	2.99
424.273	2.97
424.63	2.96
424.987	2.98
425.344	2.98
425.701	2.98
426.058	2.99
426.415	2.97
426.772	2.98
427.128	2.96
427.485	2.96
427.842	2.93
428.199	2.94
428.555	2.93
428.912	2.94
429.269	2.94
429.625	2.91
429.982	2.92
430.338	2.93
430.695	2.95
431.051	2.95
431.407	2.93
431.764	2.92
432.12	2.92
432.476	2.9
432.832	2.89
433.189	2.88
433.545	2.85
433.901	2.85
434.257	2.82
434.613	2.81
434.969	2.8
435.325	2.8
435.681	2.8
436.036	2.81
436.392	2.79
436.748	2.78
437.104	2.79
437.459	2.77
437.815	2.74
438.171	2.72
438.526	2.72
438.882	2.73
439.237	2.74
439.593	2.73
439.948	2.73
440.304	2.74
440.659	2.75
441.014	2.77
441.369	2.76
441.725	2.76
442.08	2.75
442.435	2.75
442.79	2.75
443.145	2.72
443.5	2.72
443.855	2.73
444.21	2.73
444.565	2.71
444.92	2.72
445.275	2.72
445.629	2.72
445.984	2.72
446.339	2.71
446.693	2.69
447.048	2.68
447.403	2.67
447.757	2.66
448.112	2.64
448.466	2.63
448.82	2.62
449.175	2.62
449.529	2.62
449.883	2.62
450.238	2.6
450.592	2.61
450.946	2.59
451.3	2.57
451.654	2.58
452.008	2.59
452.362	2.58
452.716	2.58
453.07	2.59
453.424	2.56
453.778	2.56
454.132	2.55
454.486	2.54
454.839	2.55
455.193	2.52
455.547	2.52
455.9	2.53
456.254	2.54
456.607	2.54
456.961	2.54
457.314	2.54
457.668	2.56
458.021	2.55
458.375	2.55
458.728	2.56
459.081	2.53
459.434	2.51
459.787	2.52
460.141	2.53
460.494	2.53
460.847	2.55
461.2	2.55
461.553	2.58
461.906	2.58
462.259	2.58
462.611	2.61
462.964	2.62
463.317	2.63
463.67	2.63
464.022	2.64
464.375	2.63
464.728	2.64
465.08	2.66
465.433	2.67
465.785	2.68
466.138	2.68
466.49	2.69
466.843	2.71
467.195	2.71
467.547	2.71
467.899	2.73
468.252	2.73
468.604	2.74
468.956	2.74
469.308	2.75
469.66	2.73
470.012	2.77
470.364	2.76
470.716	2.76
471.068	2.79
471.42	2.8
471.772	2.83
472.123	2.84
472.475	2.86
472.827	2.87
473.178	2.86
473.53	2.85
473.882	2.87
474.233	2.88
474.585	2.9
474.936	2.89
475.288	2.89
475.639	2.89
475.99	2.88
476.342	2.88
476.693	2.88
477.044	2.88
477.395	2.85
477.746	2.84
478.097	2.82
478.448	2.82
478.8	2.81
479.15	2.8
479.501	2.8
479.852	2.79
480.203	2.77
480.554	2.78
480.905	2.79
481.255	2.8
481.606	2.79
481.957	2.78
482.307	2.78
482.658	2.77
483.009	2.77
483.359	2.77
483.709	2.77
484.06	2.77
484.41	2.78
484.761	2.78
485.111	2.78
485.461	2.78
485.811	2.76
486.162	2.77
486.512	2.76
486.862	2.77
487.212	2.76
487.562	2.77
487.912	2.77
488.262	2.76
488.612	2.76
488.961	2.75
489.311	2.75
489.661	2.76
490.011	2.77
490.36	2.77
490.71	2.78
491.06	2.78
491.409	2.79
491.759	2.8
492.108	2.8
492.458	2.82
492.807	2.83
493.157	2.85
493.506	2.87
493.855	2.88
494.204	2.88
494.554	2.9
494.903	2.9
495.252	2.92
495.601	2.96
495.95	2.97
496.299	2.98
496.648	3.01
496.997	3.02
497.346	3.04
497.695	3.07
498.043	3.08
498.392	3.1
498.741	3.13
499.09	3.14
499.438	3.18
499.787	3.21
500.135	3.22
500.484	3.26
500.832	3.28
501.181	3.33
501.529	3.38
501.878	3.43
502.226	3.49
502.574	3.52
502.923	3.52
503.271	3.57
503.619	3.63
503.967	3.67
504.315	3.73
504.663	3.77
505.011	3.84
505.359	3.92
505.707	3.99
506.055	4.03
506.403	4.09
506.751	4.12
507.098	4.17
507.446	4.24
507.794	4.31
508.141	4.37
508.489	4.42
508.837	4.49
509.184	4.54
509.531	4.6
509.879	4.69
510.226	4.79
510.574	4.87
510.921	4.93
511.268	5.02
511.616	5.09
511.963	5.18
512.31	5.24
512.657	5.31
513.004	5.37
513.351	5.47
513.698	5.57
514.045	5.69
514.392	5.78
514.739	5.88
515.086	5.98
515.432	6.07
515.779	6.15
516.126	6.24
516.473	6.35
516.819	6.42
517.166	6.49
517.512	6.57
517.859	6.67
518.205	6.76
518.552	6.84
518.898	6.93
519.245	7.01
519.591	7.08
519.937	7.18
520.283	7.3
520.629	7.41
520.976	7.52
521.322	7.62
521.668	7.74
522.014	7.85
522.36	7.95
522.706	8.1
523.052	8.26
523.398	8.4
523.743	8.56
524.089	8.71
524.435	8.86
524.781	9
525.126	9.1
525.472	9.22
525.817	9.32
526.163	9.41
526.509	9.53
526.854	9.63
527.199	9.72
527.545	9.8
527.89	9.89
528.235	9.99
528.581	10.08
528.926	10.17
529.271	10.28
529.616	10.37
529.961	10.46
530.306	10.56
530.651	10.66
530.996	10.76
531.341	10.88
531.686	11.01
532.031	11.12
532.376	11.25
532.721	11.39
533.065	11.53
533.41	11.68
533.755	11.81
534.099	11.96
534.444	12.11
534.788	12.27
535.133	12.41
535.477	12.55
535.822	12.72
536.166	12.91
536.51	13.09
536.855	13.3
537.199	13.49
537.543	13.67
537.887	13.88
538.231	14.09
538.576	14.31
538.92	14.51
539.264	14.7
539.608	14.87
539.951	15.04
540.295	15.24
540.639	15.4
540.983	15.58
541.327	15.75
541.671	15.93
542.014	16.07
542.358	16.22
542.701	16.41
543.045	16.57
543.389	16.71
543.732	16.9
544.075	17.08
544.419	17.29
544.762	17.52
545.105	17.74
545.449	17.95
545.792	18.16
546.135	18.4
546.478	18.67
546.821	18.96
547.165	19.22
547.508	19.5
547.851	19.77
548.194	20.04
548.536	20.3
548.879	20.59
549.222	20.9
549.565	21.23
549.908	21.5
550.25	21.79
550.593	22.11
550.936	22.42
551.278	22.72
551.621	23.01
551.963	23.28
552.306	23.64
552.648	23.92
552.991	24.24
553.333	24.53
553.675	24.78
554.017	25.06
554.36	25.36
554.702	25.63
555.044	25.9
555.386	26.19
555.728	26.5
556.07	26.76
556.412	27.02
556.754	27.26
557.096	27.58
557.438	27.88
557.78	28.2
558.121	28.5
558.463	28.81
558.805	29.13
559.147	29.46
559.488	29.69
559.83	29.96
560.171	30.23
560.513	30.56
560.854	30.89
561.196	31.15
561.537	31.41
561.878	31.69
562.22	32
562.561	32.26
562.902	32.55
563.243	32.82
563.584	33.12
563.925	33.45
564.266	33.73
564.607	33.93
564.948	34.18
565.289	34.39
565.63	34.64
565.971	34.91
566.312	35.19
566.653	35.41
566.993	35.68
567.334	35.93
567.675	36.08
568.015	36.31
568.356	36.6
568.696	36.88
569.037	37.1
569.377	37.34
569.718	37.59
570.058	37.83
570.398	38.05
570.739	38.27
571.079	38.44
571.419	38.59
571.759	38.93
572.099	39.15
572.439	39.41
572.779	39.61
573.119	39.77
573.459	39.91
573.799	40.12
574.139	40.29
574.479	40.49
574.819	40.69
575.158	40.88
575.498	41.05
575.838	41.18
576.177	41.34
576.517	41.54
576.856	41.7
577.196	41.81
577.535	41.98
577.875	42.17
578.214	42.36
578.553	42.56
578.893	42.6
579.232	42.77
579.571	42.83
579.91	42.99
580.25	43.17
580.589	43.32
580.928	43.49
581.267	43.66
581.606	43.81
581.945	43.96
582.283	44.09
582.622	44.23
582.961	44.49
583.3	44.64
583.639	44.78
583.977	44.92
584.316	45.14
584.654	45.32
584.993	45.44
585.332	45.64
585.67	45.79
586.008	45.99
586.347	46.11
586.685	46.27
587.024	46.38
587.362	46.47
587.7	46.66
588.038	46.79
588.376	46.85
588.715	47
589.053	47.24
589.391	47.37
589.729	47.5
590.067	47.53
590.404	47.63
590.742	47.65
591.08	47.87
591.418	47.94
591.756	48.01
592.093	48.11
592.431	48.14
592.769	48.26
593.106	48.31
593.444	48.37
593.781	48.42
594.119	48.43
594.456	48.55
594.793	48.58
595.131	48.64
595.468	48.74
595.805	48.79
596.143	48.83
596.48	48.9
596.817	48.98
597.154	49.04
597.491	49.13
597.828	49.33
598.165	49.33
598.502	49.4
598.839	49.43
599.176	49.48
599.512	49.64
599.849	49.75
600.186	49.88
600.523	49.96
600.859	50.1
601.196	50.2
601.532	50.25
601.869	50.36
602.205	50.42
602.542	50.51
602.878	50.57
603.215	50.63
603.551	50.65
603.887	50.7
604.223	50.76
604.56	50.87
604.896	50.87
605.232	50.93
605.568	50.96
605.904	51.06
606.24	51.2
606.576	51.21
606.912	51.27
607.248	51.31
607.583	51.36
607.919	51.43
608.255	51.5
608.591	51.6
608.926	51.6
609.262	51.68
609.597	51.78
609.933	51.82
610.268	51.84
610.604	51.93
610.939	52.01
611.275	52.03
611.61	52.06
611.945	52.16
612.281	52.13
612.616	52.21
612.951	52.25
613.286	52.27
613.621	52.32
613.956	52.28
614.291	52.33
614.626	52.4
614.961	52.36
615.296	52.46
615.631	52.48
615.966	52.46
616.3	52.51
616.635	52.51
616.97	52.56
617.304	52.65
617.639	52.77
617.973	52.74
618.308	52.78
618.642	52.85
618.977	52.83
619.311	52.92
619.646	52.98
619.98	52.97
620.314	52.99
620.648	53
620.983	53.02
621.317	53.05
621.651	53.11
621.985	53.19
622.319	53.16
622.653	53.13
622.987	53.26
623.321	53.24
623.655	53.23
623.988	53.23
624.322	53.2
624.656	53.02
624.99	53.04
625.323	53.13
625.657	53.07
625.99	53.1
626.324	53.1
626.657	53.06
626.991	53.14
627.324	53.12
627.658	53.15
627.991	53.22
628.324	53.29
628.657	53.3
628.991	53.37
629.324	53.41
629.657	53.49
629.99	53.47
630.323	53.52
630.656	53.59
630.989	53.65
631.322	53.6
631.655	53.7
631.987	53.66
632.32	53.56
632.653	53.66
632.986	53.62
633.318	53.65
633.651	53.71
633.984	53.68
634.316	53.73
634.649	53.8
634.981	53.78
635.313	53.68
635.646	53.59
635.978	53.63
636.31	53.61
636.643	53.62
636.975	53.72
637.307	53.76
637.639	53.69
637.971	53.69
638.303	53.71
638.635	53.74
638.967	53.76
639.299	53.83
639.631	53.76
639.963	53.76
640.295	53.82
640.626	53.8
640.958	53.94
641.29	53.93
641.621	53.89
641.953	53.94
642.285	53.95
642.616	53.99
642.948	53.92
643.279	53.92
643.61	53.93
643.942	53.85
644.273	53.76
644.604	53.73
644.936	53.7
645.267	53.74
645.598	53.64
645.929	53.64
646.26	53.62
646.591	53.55
646.922	53.59
647.253	53.42
647.584	53.51
647.915	53.37
648.245	53.36
648.576	53.43
648.907	53.41
649.238	53.39
649.568	53.59
649.899	53.64
650.229	53.8
650.56	53.87
650.89	53.97
651.221	54.06
651.551	54.18
651.882	54.22
652.212	54.36
652.542	54.43
652.872	54.45
653.203	54.61
653.533	54.73
653.863	54.79
654.193	54.97
654.523	54.95
654.853	54.88
655.183	54.87
655.513	54.77
655.843	54.72
656.172	54.82
656.502	54.71
656.832	54.7
657.162	54.68
657.491	54.61
657.821	54.53
658.15	54.54
658.48	54.45
658.809	54.49
659.139	54.42
659.468	54.42
659.798	54.42
660.127	54.41
660.456	54.46
660.785	54.41
661.115	54.41
661.444	54.37
661.773	54.46
662.102	54.61
662.431	54.65
662.76	54.79
663.089	54.76
663.418	54.76
663.747	54.77
664.076	54.76
664.404	54.83
664.733	54.82
665.062	54.75
665.39	54.87
665.719	54.8
666.048	54.83
666.376	54.93
666.705	54.97
667.033	54.86
667.362	54.79
667.69	54.78
668.018	54.81
668.347	54.86
668.675	54.8
