Data from BU58138_Reflection_00011.txt Node
Date: Mon Nov 18 16:42:21 EST 2019
User: vgr7
Spectrometer: USB2G7710
Scans to average: 3
Trigger mode: 4
Integration Time (sec): 2.000000E-2
Electric dark correction enabled: true
Boxcar width: 10
XAxis mode: Wavelengths
Number of Pixels in Spectrum: 2048
>>>>>Begin Spectral Data<<<<<
177.721	-27900
178.105	100
178.488	1.35
178.871	787.5
179.254	-45.99
179.636	68.13
180.019	47.16
180.402	77.78
180.785	34.6
181.168	86.19
181.55	46.47
181.933	57.62
182.316	97.12
182.698	113.46
183.081	84.83
183.463	64.63
183.846	58.14
184.228	81.67
184.611	97.55
184.993	115.3
185.376	95.66
185.758	61.6
186.14	69.57
186.522	59.81
186.904	109.32
187.287	730.14
187.669	-244.09
188.051	561.54
188.433	200.29
188.815	5484.62
189.197	-708.08
189.579	-307.02
189.961	-297.48
190.342	-215.19
190.724	-84.25
191.106	-92.69
191.488	-94.31
191.869	-92.9
192.251	-116.51
192.633	-135.16
193.014	-162.52
193.396	-141.15
193.777	-149.13
194.159	-113.33
194.54	-103.69
194.922	-93.35
195.303	-115.05
195.684	-126.68
196.065	-63.13
196.447	-64.17
196.828	-63.21
197.209	-53.96
197.59	-53.62
197.971	-65.98
198.352	-57.51
198.733	-81.48
199.114	-40.93
199.495	-36.79
199.876	-27.95
200.257	-27.43
200.638	-32.83
201.018	-51.68
201.399	-63.89
201.78	-35.46
202.16	-51.45
202.541	-72.5
202.922	-135.74
203.302	-168.86
203.683	-131.03
204.063	-154.05
204.444	-107.74
204.824	-100.52
205.204	-108.07
205.585	-89.06
205.965	-68.82
206.345	-89
206.725	-94.24
207.106	-104.38
207.486	-95.2
207.866	-108.16
208.246	-92.51
208.626	-67.91
209.006	-44.55
209.386	-52.51
209.766	-51.9
210.145	-54.01
210.525	-35.52
210.905	-14.57
211.285	-5.39
211.664	0.12
212.044	-1.82
212.424	-1.1
212.803	1
213.183	-7.55
213.562	-15.58
213.942	-14.22
214.321	-3.7
214.701	-5.48
215.08	-9.16
215.459	-5.36
215.838	-5.36
216.218	-9.11
216.597	-8.11
216.976	-22.85
217.355	-25.87
217.734	-21.13
218.113	-6.59
218.492	-7.24
218.871	-28.13
219.25	-31.87
219.629	-62.46
220.008	-61.36
220.387	-64.74
220.766	-84.37
221.144	-105.84
221.523	-140.62
221.902	-187.08
222.28	-236.31
222.659	-160.37
223.037	-142.51
223.416	-114.51
223.794	-104.44
224.173	-97.43
224.551	-70.95
224.929	-61.21
225.308	-43.71
225.686	-47.87
226.064	-44.55
226.442	-47.95
226.821	-39.33
227.199	-37.62
227.577	-34.61
227.955	-35.95
228.333	-34.24
228.711	-26.85
229.089	-20.7
229.467	-14.9
229.845	-14.04
230.222	-12.11
230.6	-12.29
230.978	-11.32
231.356	-10.71
231.733	-11.31
232.111	-6.54
232.488	-6
232.866	-5.07
233.243	-6.53
233.621	-7.63
233.998	-6.82
234.376	-5.78
234.753	-4.61
235.13	-4.45
235.508	-1.76
235.885	-1.57
236.262	-1.41
236.639	-1.51
237.016	-1.19
237.393	-0.29
237.77	0.49
238.147	0.73
238.524	0.77
238.901	0.59
239.278	0.21
239.655	2.08
240.032	1.85
240.409	1.72
240.785	1.65
241.162	2.16
241.539	2.65
241.915	2.46
242.292	1.86
242.668	2.16
243.045	2.83
243.421	2.54
243.798	2.39
244.174	2.58
244.551	2.55
244.927	2.62
245.303	2.75
245.679	2.95
246.056	2.98
246.432	2.87
246.808	3.06
247.184	3.09
247.56	2.89
247.936	2.93
248.312	2.75
248.688	3.01
249.064	2.97
249.44	2.96
249.815	2.97
250.191	3.02
250.567	3.16
250.943	2.96
251.318	3.09
251.694	3.25
252.069	2.92
252.445	2.92
252.82	2.89
253.196	2.75
253.571	2.47
253.947	2.58
254.322	2.7
254.697	2.4
255.073	2.59
255.448	2.43
255.823	2.45
256.198	2.82
256.573	2.61
256.948	2.81
257.323	2.95
257.698	3.19
258.073	3.31
258.448	3.12
258.823	3.1
259.198	2.98
259.573	3.06
259.948	3.22
260.322	3.21
260.697	3.14
261.072	3.12
261.446	3.24
261.821	3.14
262.195	3.27
262.57	3.24
262.944	3.23
263.319	3.24
263.693	3.29
264.067	3.21
264.442	3.33
264.816	3.25
265.19	3.21
265.564	3.16
265.938	3.27
266.313	3.17
266.687	3.37
267.061	3.62
267.435	3.61
267.809	3.63
268.183	3.65
268.556	3.66
268.93	3.78
269.304	3.8
269.678	3.78
270.051	3.56
270.425	3.77
270.799	3.84
271.172	4.01
271.546	3.81
271.919	3.65
272.293	3.61
272.666	3.65
273.04	3.59
273.413	3.53
273.787	3.44
274.16	3.49
274.533	3.45
274.906	3.42
275.279	3.4
275.653	3.47
276.026	3.43
276.399	3.35
276.772	3.36
277.145	3.17
277.518	3.2
277.891	3.28
278.263	3.19
278.636	3.09
279.009	3.11
279.382	3.43
279.755	3.57
280.127	3.61
280.5	3.69
280.872	3.81
281.245	3.82
281.617	4.01
281.99	4.27
282.362	4.21
282.735	4
283.107	3.89
283.479	3.8
283.852	3.9
284.224	3.84
284.596	3.73
284.968	3.84
285.34	3.89
285.713	3.87
286.085	4
286.457	3.96
286.829	4
287.201	3.81
287.572	3.83
287.944	3.74
288.316	3.77
288.688	3.69
289.06	3.78
289.431	3.66
289.803	3.45
290.175	3.48
290.546	3.67
290.918	3.79
291.289	3.81
291.661	3.79
292.032	4.01
292.403	4.12
292.775	4.19
293.146	4.13
293.517	4.2
293.889	4.13
294.26	4.13
294.631	4.16
295.002	4.17
295.373	4.18
295.744	4.2
296.115	4.13
296.486	4.1
296.857	3.98
297.228	4.08
297.599	4.1
297.97	4.04
298.34	4.03
298.711	4.11
299.082	4.12
299.452	4.2
299.823	4.26
300.194	4.25
300.564	4.2
300.935	4.26
301.305	4.28
301.676	4.34
302.046	4.52
302.416	4.48
302.787	4.53
303.157	4.63
303.527	4.69
303.897	4.72
304.267	4.92
304.637	4.98
305.008	5.02
305.378	5.24
305.748	5.33
306.117	5.29
306.487	5.2
306.857	5.21
307.227	5.14
307.597	5.13
307.967	5.15
308.336	5.2
308.706	5.26
309.076	5.29
309.445	5.25
309.815	5.13
310.184	5.06
310.554	5.09
310.923	5.07
311.293	5.15
311.662	5.27
312.031	5.2
312.401	5.17
312.77	5.17
313.139	5.15
313.508	5.11
313.877	5.17
314.246	5.31
314.616	5.37
314.985	5.42
315.353	5.31
315.722	5.39
316.091	5.45
316.46	5.4
316.829	5.43
317.198	5.5
317.567	5.66
317.935	5.75
318.304	5.86
318.672	5.91
319.041	5.98
319.41	5.83
319.778	5.86
320.147	6
320.515	6.08
320.883	5.98
321.252	6.03
321.62	5.95
321.988	5.85
322.357	5.93
322.725	5.83
323.093	6.05
323.461	5.98
323.829	5.9
324.197	5.98
324.565	6.05
324.933	6.04
325.301	6.04
325.669	6.18
326.037	6.3
326.405	6.3
326.772	6.27
327.14	6.39
327.508	6.38
327.875	6.4
328.243	6.38
328.61	6.4
328.978	6.61
329.346	6.75
329.713	6.84
330.08	6.81
330.448	6.82
330.815	6.71
331.182	6.77
331.55	6.88
331.917	6.91
332.284	6.91
332.651	6.9
333.018	6.87
333.385	6.89
333.752	6.72
334.119	6.8
334.486	6.85
334.853	6.87
335.22	6.84
335.587	6.87
335.954	6.88
336.32	6.9
336.687	6.78
337.054	6.76
337.42	6.68
337.787	6.64
338.153	6.81
338.52	6.89
338.886	6.86
339.253	6.8
339.619	6.69
339.986	6.75
340.352	6.85
340.718	6.87
341.084	6.72
341.451	6.83
341.817	6.83
342.183	6.88
342.549	6.78
342.915	6.9
343.281	6.92
343.647	6.82
344.013	6.81
344.379	6.87
344.745	6.99
345.11	7.1
345.476	7.17
345.842	7.09
346.208	7.05
346.573	7.14
346.939	7.21
347.304	7.3
347.67	7.21
348.035	7.1
348.401	7.09
348.766	7.15
349.132	7.06
349.497	6.97
349.862	6.96
350.228	6.98
350.593	6.87
350.958	6.82
351.323	6.88
351.688	6.88
352.053	6.88
352.418	6.86
352.783	6.87
353.148	6.83
353.513	6.93
353.878	7
354.243	6.96
354.608	6.96
354.972	6.95
355.337	7.02
355.702	7.14
356.066	7.27
356.431	7.21
356.795	7.26
357.16	7.29
357.524	7.19
357.889	7.23
358.253	7.29
358.618	7.27
358.982	7.17
359.346	7.11
359.71	7.03
360.075	6.99
360.439	6.96
360.803	6.87
361.167	6.8
361.531	6.71
361.895	6.68
362.259	6.61
362.623	6.6
362.987	6.49
363.351	6.47
363.714	6.36
364.078	6.36
364.442	6.26
364.806	6.2
365.169	6.16
365.533	6.13
365.896	6.04
366.26	6.04
366.623	6.07
366.987	6.04
367.35	6.08
367.714	6.02
368.077	5.94
368.44	6
368.803	6.01
369.167	5.99
369.53	5.94
369.893	5.9
370.256	5.85
370.619	5.85
370.982	5.76
371.345	5.69
371.708	5.65
372.071	5.65
372.434	5.6
372.797	5.64
373.159	5.56
373.522	5.59
373.885	5.5
374.247	5.49
374.61	5.54
374.973	5.4
375.335	5.36
375.698	5.31
376.06	5.21
376.423	5.13
376.785	5.09
377.147	5.06
377.51	5.05
377.872	5.06
378.234	5.01
378.596	4.97
378.958	4.92
379.321	4.84
379.683	4.82
380.045	4.8
380.407	4.72
380.769	4.66
381.13	4.57
381.492	4.6
381.854	4.57
382.216	4.49
382.578	4.53
382.939	4.46
383.301	4.48
383.663	4.46
384.024	4.46
384.386	4.45
384.747	4.43
385.109	4.43
385.47	4.41
385.832	4.36
386.193	4.36
386.554	4.37
386.916	4.36
387.277	4.36
387.638	4.35
387.999	4.32
388.36	4.33
388.721	4.35
389.082	4.28
389.443	4.25
389.804	4.23
390.165	4.2
390.526	4.15
390.887	4.1
391.248	4.13
391.609	4.1
391.969	4.06
392.33	4.05
392.691	4.04
393.051	3.99
393.412	4
393.772	3.96
394.133	3.97
394.493	3.99
394.854	3.94
395.214	3.9
395.574	3.89
395.935	3.89
396.295	3.9
396.655	3.87
397.015	3.85
397.376	3.81
397.736	3.79
398.096	3.81
398.456	3.81
398.816	3.77
399.176	3.73
399.535	3.71
399.895	3.69
400.255	3.64
400.615	3.62
400.975	3.64
401.334	3.63
401.694	3.58
402.054	3.56
402.413	3.58
402.773	3.57
403.132	3.57
403.492	3.55
403.851	3.51
404.211	3.51
404.57	3.5
404.929	3.54
405.288	3.52
405.648	3.52
406.007	3.52
406.366	3.53
406.725	3.56
407.084	3.58
407.443	3.56
407.802	3.57
408.161	3.55
408.52	3.51
408.879	3.52
409.238	3.51
409.596	3.49
409.955	3.46
410.314	3.48
410.673	3.46
411.031	3.44
411.39	3.44
411.748	3.44
412.107	3.42
412.465	3.39
412.824	3.37
413.182	3.36
413.54	3.34
413.899	3.34
414.257	3.31
414.615	3.29
414.974	3.3
415.332	3.28
415.69	3.27
416.048	3.26
416.406	3.25
416.764	3.23
417.122	3.25
417.48	3.22
417.838	3.23
418.195	3.22
418.553	3.23
418.911	3.24
419.269	3.24
419.626	3.25
419.984	3.27
420.342	3.28
420.699	3.3
421.057	3.3
421.414	3.29
421.772	3.29
422.129	3.27
422.486	3.25
422.844	3.26
423.201	3.24
423.558	3.25
423.915	3.25
424.273	3.27
424.63	3.25
424.987	3.27
425.344	3.27
425.701	3.29
426.058	3.27
426.415	3.26
426.772	3.24
427.128	3.23
427.485	3.22
427.842	3.19
428.199	3.17
428.555	3.18
428.912	3.17
429.269	3.15
429.625	3.15
429.982	3.18
430.338	3.18
430.695	3.2
431.051	3.19
431.407	3.18
431.764	3.16
432.12	3.16
432.476	3.15
432.832	3.14
433.189	3.12
433.545	3.13
433.901	3.13
434.257	3.13
434.613	3.14
434.969	3.14
435.325	3.16
435.681	3.16
436.036	3.13
436.392	3.13
436.748	3.13
437.104	3.13
437.459	3.11
437.815	3.1
438.171	3.1
438.526	3.11
438.882	3.12
439.237	3.13
439.593	3.14
439.948	3.14
440.304	3.14
440.659	3.12
441.014	3.13
441.369	3.12
441.725	3.11
442.08	3.1
442.435	3.11
442.79	3.1
443.145	3.1
443.5	3.11
443.855	3.11
444.21	3.11
444.565	3.11
444.92	3.13
445.275	3.12
445.629	3.12
445.984	3.11
446.339	3.1
446.693	3.08
447.048	3.07
447.403	3.07
447.757	3.04
448.112	3.04
448.466	3.04
448.82	3.05
449.175	3.05
449.529	3.06
449.883	3.04
450.238	3.04
450.592	3.04
450.946	3.03
451.3	3.01
451.654	3.02
452.008	3.03
452.362	3.02
452.716	3.03
453.07	3.05
453.424	3.06
453.778	3.07
454.132	3.07
454.486	3.07
454.839	3.06
455.193	3.06
455.547	3.06
455.9	3.07
456.254	3.07
456.607	3.07
456.961	3.05
457.314	3.07
457.668	3.09
458.021	3.09
458.375	3.1
458.728	3.12
459.081	3.1
459.434	3.07
459.787	3.08
460.141	3.08
460.494	3.08
460.847	3.07
461.2	3.05
461.553	3.06
461.906	3.08
462.259	3.08
462.611	3.12
462.964	3.14
463.317	3.14
463.67	3.14
464.022	3.14
464.375	3.14
464.728	3.15
465.08	3.14
465.433	3.13
465.785	3.11
466.138	3.12
466.49	3.13
466.843	3.16
467.195	3.15
467.547	3.17
467.899	3.15
468.252	3.18
468.604	3.19
468.956	3.18
469.308	3.18
469.66	3.16
470.012	3.17
470.364	3.19
470.716	3.18
471.068	3.19
471.42	3.19
471.772	3.22
472.123	3.22
472.475	3.23
472.827	3.26
473.178	3.28
473.53	3.28
473.882	3.28
474.233	3.29
474.585	3.28
474.936	3.27
475.288	3.29
475.639	3.26
475.99	3.26
476.342	3.26
476.693	3.26
477.044	3.27
477.395	3.26
477.746	3.24
478.097	3.21
478.448	3.2
478.8	3.2
479.15	3.16
479.501	3.15
479.852	3.14
480.203	3.15
480.554	3.15
480.905	3.16
481.255	3.16
481.606	3.16
481.957	3.17
482.307	3.18
482.658	3.18
483.009	3.18
483.359	3.19
483.709	3.2
484.06	3.2
484.41	3.21
484.761	3.2
485.111	3.21
485.461	3.22
485.811	3.23
486.162	3.22
486.512	3.24
486.862	3.24
487.212	3.24
487.562	3.23
487.912	3.23
488.262	3.22
488.612	3.22
488.961	3.22
489.311	3.22
489.661	3.22
490.011	3.21
490.36	3.21
490.71	3.21
491.06	3.21
491.409	3.21
491.759	3.2
492.108	3.19
492.458	3.19
492.807	3.17
493.157	3.17
493.506	3.19
493.855	3.2
494.204	3.21
494.554	3.23
494.903	3.24
495.252	3.26
495.601	3.27
495.95	3.28
496.299	3.27
496.648	3.28
496.997	3.28
497.346	3.3
497.695	3.32
498.043	3.31
498.392	3.31
498.741	3.32
499.09	3.33
499.438	3.37
499.787	3.39
500.135	3.43
500.484	3.46
500.832	3.45
501.181	3.45
501.529	3.49
501.878	3.51
502.226	3.53
502.574	3.55
502.923	3.56
503.271	3.57
503.619	3.62
503.967	3.67
504.315	3.71
504.663	3.76
505.011	3.79
505.359	3.85
505.707	3.9
506.055	3.94
506.403	3.98
506.751	4
507.098	4.04
507.446	4.07
507.794	4.1
508.141	4.16
508.489	4.22
508.837	4.24
509.184	4.29
509.531	4.33
509.879	4.41
510.226	4.49
510.574	4.56
510.921	4.6
511.268	4.64
511.616	4.69
511.963	4.73
512.31	4.81
512.657	4.87
513.004	4.94
513.351	5.03
513.698	5.14
514.045	5.22
514.392	5.33
514.739	5.44
515.086	5.57
515.432	5.67
515.779	5.76
516.126	5.86
516.473	5.95
516.819	6.05
517.166	6.11
517.512	6.18
517.859	6.27
518.205	6.37
518.552	6.47
518.898	6.55
519.245	6.63
519.591	6.73
519.937	6.81
520.283	6.91
520.629	6.99
520.976	7.1
521.322	7.22
521.668	7.33
522.014	7.41
522.36	7.5
522.706	7.62
523.052	7.77
523.398	7.93
523.743	8.08
524.089	8.24
524.435	8.38
524.781	8.54
525.126	8.68
525.472	8.81
525.817	8.92
526.163	9.02
526.509	9.14
526.854	9.22
527.199	9.32
527.545	9.41
527.89	9.48
528.235	9.57
528.581	9.65
528.926	9.76
529.271	9.87
529.616	9.99
529.961	10.07
530.306	10.18
530.651	10.27
530.996	10.38
531.341	10.47
531.686	10.6
532.031	10.72
532.376	10.85
532.721	10.98
533.065	11.1
533.41	11.24
533.755	11.37
534.099	11.52
534.444	11.67
534.788	11.84
535.133	12
535.477	12.15
535.822	12.3
536.166	12.44
536.51	12.62
536.855	12.8
537.199	13
537.543	13.18
537.887	13.4
538.231	13.61
538.576	13.82
538.92	14.02
539.264	14.2
539.608	14.37
539.951	14.54
540.295	14.73
540.639	14.9
540.983	15.05
541.327	15.21
541.671	15.37
542.014	15.53
542.358	15.69
542.701	15.86
543.045	16.05
543.389	16.21
543.732	16.38
544.075	16.54
544.419	16.73
544.762	16.91
545.105	17.1
545.449	17.29
545.792	17.52
546.135	17.76
546.478	18.01
546.821	18.25
547.165	18.49
547.508	18.74
547.851	18.98
548.194	19.26
548.536	19.52
548.879	19.77
549.222	20.02
549.565	20.29
549.908	20.55
550.25	20.78
550.593	21.03
550.936	21.33
551.278	21.6
551.621	21.84
551.963	22.11
552.306	22.39
552.648	22.67
552.991	22.93
553.333	23.17
553.675	23.4
554.017	23.65
554.36	23.9
554.702	24.12
555.044	24.36
555.386	24.58
555.728	24.82
556.07	25.08
556.412	25.3
556.754	25.56
557.096	25.8
557.438	26.07
557.78	26.36
558.121	26.62
558.463	26.92
558.805	27.22
559.147	27.47
559.488	27.71
559.83	27.92
560.171	28.12
560.513	28.37
560.854	28.59
561.196	28.8
561.537	29.01
561.878	29.26
562.22	29.51
562.561	29.74
562.902	29.99
563.243	30.18
563.584	30.45
563.925	30.66
564.266	30.88
564.607	31.14
564.948	31.34
565.289	31.48
565.63	31.66
565.971	31.83
566.312	32.04
566.653	32.24
566.993	32.44
567.334	32.68
567.675	32.9
568.015	33.12
568.356	33.35
568.696	33.59
569.037	33.8
569.377	33.98
569.718	34.19
570.058	34.39
570.398	34.56
570.739	34.73
571.079	34.91
571.419	35.09
571.759	35.25
572.099	35.44
572.439	35.66
572.779	35.86
573.119	36.04
573.459	36.26
573.799	36.41
574.139	36.6
574.479	36.7
574.819	36.82
575.158	36.98
575.498	37.11
575.838	37.3
576.177	37.43
576.517	37.63
576.856	37.81
577.196	37.97
577.535	38.13
577.875	38.36
578.214	38.51
578.553	38.69
578.893	38.89
579.232	39.08
579.571	39.22
579.91	39.4
580.25	39.49
580.589	39.61
580.928	39.81
581.267	40.01
581.606	40.27
581.945	40.44
582.283	40.56
582.622	40.75
582.961	40.88
583.3	41.07
583.639	41.17
583.977	41.34
584.316	41.48
584.654	41.7
584.993	41.79
585.332	41.99
585.67	42.1
586.008	42.31
586.347	42.44
586.685	42.6
587.024	42.69
587.362	42.83
587.7	42.97
588.038	43.06
588.376	43.17
588.715	43.25
589.053	43.37
589.391	43.51
589.729	43.6
590.067	43.62
590.404	43.75
590.742	43.91
591.08	43.98
591.418	44.08
591.756	44.13
592.093	44.23
592.431	44.31
592.769	44.44
593.106	44.47
593.444	44.57
593.781	44.56
594.119	44.7
594.456	44.86
594.793	44.92
595.131	45.05
595.468	45.07
595.805	45.1
596.143	45.17
596.48	45.27
596.817	45.33
597.154	45.52
597.491	45.63
597.828	45.68
598.165	45.73
598.502	45.8
598.839	45.85
599.176	45.9
599.512	46.04
599.849	46.14
600.186	46.2
600.523	46.26
600.859	46.38
601.196	46.45
601.532	46.51
601.869	46.63
602.205	46.67
602.542	46.71
602.878	46.81
603.215	46.84
603.551	46.94
603.887	47.03
604.223	47.02
604.56	47.07
604.896	47.08
605.232	47.19
605.568	47.31
605.904	47.41
606.24	47.46
606.576	47.46
606.912	47.47
607.248	47.53
607.583	47.6
607.919	47.67
608.255	47.69
608.591	47.74
608.926	47.77
609.262	47.8
609.597	47.9
609.933	47.96
610.268	48.09
610.604	48.12
610.939	48.18
611.275	48.22
611.61	48.28
611.945	48.39
612.281	48.44
612.616	48.4
612.951	48.49
613.286	48.56
613.621	48.59
613.956	48.7
614.291	48.81
614.626	48.82
614.961	48.92
615.296	49.05
615.631	49.2
615.966	49.22
616.3	49.36
616.635	49.36
616.97	49.44
617.304	49.43
617.639	49.43
617.973	49.41
618.308	49.43
618.642	49.38
618.977	49.44
619.311	49.42
619.646	49.47
619.98	49.44
620.314	49.47
620.648	49.52
620.983	49.63
621.317	49.67
621.651	49.74
621.985	49.72
622.319	49.64
622.653	49.61
622.987	49.71
623.321	49.73
623.655	49.82
623.988	49.87
624.322	49.81
624.656	49.89
624.99	49.98
625.323	50.05
625.657	50.13
625.99	50.13
626.324	50.15
626.657	50.16
626.991	50.24
627.324	50.31
627.658	50.31
627.991	50.3
628.324	50.25
628.657	50.27
628.991	50.35
629.324	50.41
629.657	50.43
629.99	50.49
630.323	50.47
630.656	50.5
630.989	50.47
631.322	50.58
631.655	50.55
631.987	50.64
632.32	50.61
632.653	50.66
632.986	50.8
633.318	50.82
633.651	50.88
633.984	50.85
634.316	50.85
634.649	50.86
634.981	50.89
635.313	50.95
635.646	50.97
635.978	50.99
636.31	51.1
636.643	51.17
636.975	51.12
637.307	51.15
637.639	51.12
637.971	51.2
638.303	51.15
638.635	51.21
638.967	51.15
639.299	51.3
639.631	51.25
639.963	51.11
640.295	51.2
640.626	51.31
640.958	51.43
641.29	51.48
641.621	51.58
641.953	51.55
642.285	51.58
642.616	51.63
642.948	51.59
643.279	51.58
643.61	51.45
643.942	51.48
644.273	51.44
644.604	51.61
644.936	51.66
645.267	51.79
645.598	51.77
645.929	51.81
646.26	51.75
646.591	51.79
646.922	51.86
647.253	51.95
647.584	51.8
647.915	51.76
648.245	51.81
648.576	51.75
648.907	51.8
649.238	51.88
649.568	51.84
649.899	51.9
650.229	51.92
650.56	51.97
650.89	52
651.221	52.17
651.551	52.02
651.882	51.92
652.212	51.95
652.542	52.09
652.872	52.15
653.203	52.12
653.533	52.13
653.863	52.14
654.193	52.14
654.523	52.25
654.853	52.29
655.183	52.25
655.513	52.17
655.843	52.16
656.172	52.11
656.502	52.19
656.832	52.22
657.162	52.2
657.491	52.28
657.821	52.28
658.15	52.21
658.48	52.28
658.809	52.3
659.139	52.32
659.468	52.29
659.798	52.21
660.127	52.27
660.456	52.4
660.785	52.45
661.115	52.44
661.444	52.46
661.773	52.42
662.102	52.45
662.431	52.59
662.76	52.59
663.089	52.62
663.418	52.56
663.747	52.57
664.076	52.6
664.404	52.62
664.733	52.56
665.062	52.55
665.39	52.51
665.719	52.56
666.048	52.55
666.376	52.55
666.705	52.57
667.033	52.57
667.362	52.53
667.69	52.42
