Data from BU58137_Reflection_00007.txt Node
Date: Mon Nov 18 16:39:44 EST 2019
User: vgr7
Spectrometer: USB2G7710
Scans to average: 3
Trigger mode: 4
Integration Time (sec): 2.000000E-2
Electric dark correction enabled: true
Boxcar width: 10
XAxis mode: Wavelengths
Number of Pixels in Spectrum: 2048
>>>>>Begin Spectral Data<<<<<
177.721	-73.68
178.105	-60.41
178.488	41.33
178.871	188.41
179.254	125.71
179.636	-134.69
180.019	65.29
180.402	81.82
180.785	-585.92
181.168	158.28
181.55	-81.82
181.933	87.1
182.316	51.09
182.698	104.94
183.081	79.27
183.463	15.1
183.846	58.56
184.228	52.99
184.611	-1
184.993	-30.84
185.376	-26.93
185.758	7.6
186.14	30.78
186.522	97.37
186.904	698.8
187.287	216.86
187.669	-262.93
188.051	235.31
188.433	-133.25
188.815	103.7
189.197	34
189.579	30.54
189.961	-11.61
190.342	-44.73
190.724	30.36
191.106	73.46
191.488	28.23
191.869	56.48
192.251	77.62
192.633	39.74
193.014	34.77
193.396	30.01
193.777	34.38
194.159	19.66
194.54	19.57
194.922	19.97
195.303	12.81
195.684	-4.17
196.065	9.57
196.447	1.6
196.828	-13.55
197.209	-12.12
197.59	-13.98
197.971	-9.52
198.352	-7.82
198.733	-12.76
199.114	-8.5
199.495	-11.27
199.876	-5.21
200.257	-4.65
200.638	6.08
201.018	-1.45
201.399	-7.05
201.78	-3.93
202.16	2.49
202.541	-10.06
202.922	0.86
203.302	-7.08
203.683	6.71
204.063	-9.21
204.444	-12.13
204.824	-12.56
205.204	-8.92
205.585	-9.29
205.965	-10.02
206.345	-13.96
206.725	-2.75
207.106	-30.51
207.486	-35.73
207.866	-20.01
208.246	-36.3
208.626	-47.3
209.006	-29.68
209.386	-46.65
209.766	-46.95
210.145	-38.39
210.525	-22.33
210.905	-23.99
211.285	-17.14
211.664	-23.86
212.044	-13.99
212.424	1.71
212.803	1.31
213.183	1.68
213.562	-3.52
213.942	-5.05
214.321	-4.52
214.701	-7.57
215.08	-8.15
215.459	-8.82
215.838	-18.65
216.218	-17.47
216.597	-7.32
216.976	-7.44
217.355	3.82
217.734	-1.9
218.113	-6.68
218.492	-8.46
218.871	-15.02
219.25	-20.12
219.629	-42.66
220.008	-20.02
220.387	-47.74
220.766	-40.01
221.144	-36.99
221.523	-31.77
221.902	-20.1
222.28	-19.41
222.659	-27.56
223.037	-11.08
223.416	-5.46
223.794	-23.08
224.173	-1.6
224.551	1.47
224.929	5.73
225.308	7.29
225.686	10.26
226.064	9.71
226.442	5.69
226.821	7.55
227.199	7.02
227.577	9.69
227.955	9.49
228.333	9.02
228.711	10.45
229.089	13.51
229.467	8.92
229.845	7.3
230.222	5.85
230.6	8.17
230.978	8.33
231.356	9.34
231.733	10.17
232.111	7.76
232.488	8.7
232.866	8.15
233.243	7.35
233.621	6.33
233.998	5.96
234.376	5.44
234.753	6.15
235.13	5.47
235.508	6.01
235.885	4.1
236.262	2.93
236.639	2.63
237.016	1.62
237.393	4.67
237.77	5
238.147	4.43
238.524	3.36
238.901	3.86
239.278	3.89
239.655	4.74
240.032	5.3
240.409	4.81
240.785	4.61
241.162	4.7
241.539	4.63
241.915	4.67
242.292	4.17
242.668	4.47
243.045	4.73
243.421	4.46
243.798	4.5
244.174	4.8
244.551	4.7
244.927	4.51
245.303	4.41
245.679	4.66
246.056	4.74
246.432	4.85
246.808	4.75
247.184	4.52
247.56	4.25
247.936	4.04
248.312	3.94
248.688	4.09
249.064	3.91
249.44	3.89
249.815	3.81
250.191	4.12
250.567	3.95
250.943	3.64
251.318	3.69
251.694	3.62
252.069	3.35
252.445	3.4
252.82	3.42
253.196	3.35
253.571	2.87
253.947	2.52
254.322	2.5
254.697	2.38
255.073	2.23
255.448	2.21
255.823	2.33
256.198	2.31
256.573	2.07
256.948	2.35
257.323	2.48
257.698	2.55
258.073	2.59
258.448	2.61
258.823	2.86
259.198	2.55
259.573	2.61
259.948	2.69
260.322	2.57
260.697	2.59
261.072	2.59
261.446	2.7
261.821	2.82
262.195	2.87
262.57	2.9
262.944	2.87
263.319	2.96
263.693	2.88
264.067	2.95
264.442	3.05
264.816	3.03
265.19	2.92
265.564	2.88
265.938	2.83
266.313	2.83
266.687	2.68
267.061	2.97
267.435	3.1
267.809	3.13
268.183	3.24
268.556	3.3
268.93	3.16
269.304	3.06
269.678	3.31
270.051	3.24
270.425	3.33
270.799	3.39
271.172	3.39
271.546	3.39
271.919	3.37
272.293	3.34
272.666	3.4
273.04	3.59
273.413	3.59
273.787	3.7
274.16	3.57
274.533	3.69
274.906	3.65
275.279	3.57
275.653	3.47
276.026	3.37
276.399	3.17
276.772	3.35
277.145	3.4
277.518	3.35
277.891	3.45
278.263	3.2
278.636	3.31
279.009	3.24
279.382	3.19
279.755	3.15
280.127	3.18
280.5	3.27
280.872	3.2
281.245	3.26
281.617	3.27
281.99	3.36
282.362	3.36
282.735	3.3
283.107	3.32
283.479	3.57
283.852	3.67
284.224	3.83
284.596	3.71
284.968	3.66
285.34	3.64
285.713	3.43
286.085	3.52
286.457	3.68
286.829	3.68
287.201	3.78
287.572	3.75
287.944	3.84
288.316	3.62
288.688	3.66
289.06	3.65
289.431	3.54
289.803	3.59
290.175	3.61
290.546	3.85
290.918	3.87
291.289	3.79
291.661	3.84
292.032	3.87
292.403	4
292.775	4.23
293.146	4.1
293.517	4.35
293.889	4.47
294.26	4.43
294.631	4.5
295.002	4.44
295.373	4.62
295.744	4.71
296.115	4.83
296.486	4.8
296.857	4.91
297.228	5.08
297.599	5.12
297.97	5.09
298.34	5.09
298.711	5.26
299.082	5.34
299.452	5.37
299.823	5.4
300.194	5.44
300.564	5.39
300.935	5.74
301.305	5.72
301.676	5.71
302.046	5.7
302.416	5.99
302.787	6.17
303.157	6.15
303.527	6
303.897	6.22
304.267	6.46
304.637	6.54
305.008	6.58
305.378	6.72
305.748	6.9
306.117	6.82
306.487	6.88
306.857	7.02
307.227	7.2
307.597	7.31
307.967	7.4
308.336	7.41
308.706	7.28
309.076	7.41
309.445	7.52
309.815	7.63
310.184	7.44
310.554	7.56
310.923	7.63
311.293	7.74
311.662	7.76
312.031	7.78
312.401	7.82
312.77	8.12
313.139	8.24
313.508	8.42
313.877	8.62
314.246	8.64
314.616	8.65
314.985	8.65
315.353	8.83
315.722	8.97
316.091	9.22
316.46	9.31
316.829	9.46
317.198	9.56
317.567	9.79
317.935	10.06
318.304	10.27
318.672	10.38
319.041	10.67
319.41	10.65
319.778	10.7
320.147	10.91
320.515	10.74
320.883	10.75
321.252	10.76
321.62	10.85
321.988	11.12
322.357	11.19
322.725	11.34
323.093	11.48
323.461	11.48
323.829	11.62
324.197	11.87
324.565	11.87
324.933	11.89
325.301	11.79
325.669	11.7
326.037	11.69
326.405	11.94
326.772	12.03
327.14	12.22
327.508	12.37
327.875	12.39
328.243	12.36
328.61	12.5
328.978	12.63
329.346	12.76
329.713	12.74
330.08	12.87
330.448	12.97
330.815	12.91
331.182	13.05
331.55	13.11
331.917	13.24
332.284	13.3
332.651	13.45
333.018	13.63
333.385	13.81
333.752	13.87
334.119	13.76
334.486	13.7
334.853	13.72
335.22	13.7
335.587	13.89
335.954	14.06
336.32	14.03
336.687	14.06
337.054	14.04
337.42	14.06
337.787	14.05
338.153	13.96
338.52	14.09
338.886	14.09
339.253	14.03
339.619	13.94
339.986	13.98
340.352	14
340.718	14.02
341.084	14.07
341.451	14.2
341.817	14.4
342.183	14.34
342.549	14.28
342.915	14.36
343.281	14.29
343.647	14.29
344.013	14.32
344.379	14.23
344.745	14.21
345.11	14.19
345.476	14.25
345.842	14.29
346.208	14.33
346.573	14.47
346.939	14.56
347.304	14.49
347.67	14.44
348.035	14.49
348.401	14.56
348.766	14.52
349.132	14.4
349.497	14.22
349.862	14.31
350.228	14.41
350.593	14.35
350.958	14.41
351.323	14.49
351.688	14.53
352.053	14.81
352.418	14.83
352.783	14.82
353.148	14.79
353.513	14.8
353.878	14.69
354.243	14.59
354.608	14.61
354.972	14.67
355.337	14.76
355.702	14.75
356.066	14.72
356.431	14.73
356.795	14.73
357.16	14.83
357.524	14.72
357.889	14.59
358.253	14.65
358.618	14.56
358.982	14.47
359.346	14.34
359.71	14.21
360.075	14.22
360.439	14.19
360.803	14.17
361.167	14.11
361.531	14.08
361.895	13.99
362.259	13.87
362.623	13.88
362.987	13.82
363.351	13.75
363.714	13.69
364.078	13.61
364.442	13.59
364.806	13.43
365.169	13.45
365.533	13.45
365.896	13.27
366.26	13.22
366.623	13.18
366.987	13.16
367.35	13.06
367.714	12.98
368.077	12.9
368.44	12.78
368.803	12.66
369.167	12.55
369.53	12.51
369.893	12.52
370.256	12.43
370.619	12.31
370.982	12.13
371.345	11.95
371.708	11.91
372.071	11.74
372.434	11.67
372.797	11.58
373.159	11.38
373.522	11.38
373.885	11.27
374.247	11.13
374.61	11.02
374.973	10.89
375.335	10.73
375.698	10.64
376.06	10.56
376.423	10.54
376.785	10.5
377.147	10.43
377.51	10.25
377.872	10.13
378.234	10.08
378.596	10.09
378.958	10.03
379.321	9.92
379.683	9.9
380.045	9.82
380.407	9.71
380.769	9.68
381.13	9.56
381.492	9.44
381.854	9.35
382.216	9.29
382.578	9.18
382.939	9.12
383.301	9.02
383.663	8.9
384.024	8.81
384.386	8.74
384.747	8.7
385.109	8.71
385.47	8.64
385.832	8.51
386.193	8.44
386.554	8.36
386.916	8.29
387.277	8.18
387.638	8.16
387.999	8.05
388.36	8.02
388.721	7.95
389.082	7.92
389.443	7.85
389.804	7.79
390.165	7.74
390.526	7.68
390.887	7.65
391.248	7.58
391.609	7.49
391.969	7.42
392.33	7.29
392.691	7.22
393.051	7.13
393.412	7.09
393.772	6.99
394.133	6.95
394.493	6.93
394.854	6.84
395.214	6.74
395.574	6.73
395.935	6.66
396.295	6.63
396.655	6.56
397.015	6.51
397.376	6.44
397.736	6.38
398.096	6.34
398.456	6.24
398.816	6.25
399.176	6.23
399.535	6.18
399.895	6.16
400.255	6.1
400.615	6.07
400.975	6.04
401.334	5.99
401.694	5.97
402.054	5.88
402.413	5.88
402.773	5.81
403.132	5.77
403.492	5.71
403.851	5.63
404.211	5.59
404.57	5.54
404.929	5.51
405.288	5.5
405.648	5.45
406.007	5.39
406.366	5.31
406.725	5.31
407.084	5.28
407.443	5.23
407.802	5.21
408.161	5.16
408.52	5.1
408.879	5.06
409.238	5.05
409.596	5.03
409.955	4.99
410.314	4.99
410.673	4.95
411.031	4.93
411.39	4.92
411.748	4.89
412.107	4.89
412.465	4.85
412.824	4.83
413.182	4.78
413.54	4.82
413.899	4.83
414.257	4.76
414.615	4.7
414.974	4.66
415.332	4.63
415.69	4.59
416.048	4.56
416.406	4.54
416.764	4.48
417.122	4.47
417.48	4.41
417.838	4.39
418.195	4.36
418.553	4.34
418.911	4.32
419.269	4.3
419.626	4.28
419.984	4.25
420.342	4.21
420.699	4.2
421.057	4.18
421.414	4.13
421.772	4.11
422.129	4.09
422.486	4.08
422.844	4.06
423.201	4.05
423.558	4.04
423.915	4.02
424.273	4
424.63	3.98
424.987	3.99
425.344	3.98
425.701	3.97
426.058	3.95
426.415	3.94
426.772	3.93
427.128	3.9
427.485	3.87
427.842	3.85
428.199	3.85
428.555	3.81
428.912	3.82
429.269	3.83
429.625	3.82
429.982	3.81
430.338	3.8
430.695	3.78
431.051	3.77
431.407	3.77
431.764	3.78
432.12	3.78
432.476	3.78
432.832	3.76
433.189	3.76
433.545	3.76
433.901	3.75
434.257	3.75
434.613	3.76
434.969	3.76
435.325	3.77
435.681	3.76
436.036	3.76
436.392	3.77
436.748	3.75
437.104	3.73
437.459	3.75
437.815	3.74
438.171	3.76
438.526	3.76
438.882	3.75
439.237	3.74
439.593	3.73
439.948	3.71
440.304	3.71
440.659	3.7
441.014	3.7
441.369	3.68
441.725	3.67
442.08	3.65
442.435	3.65
442.79	3.63
443.145	3.61
443.5	3.61
443.855	3.58
444.21	3.57
444.565	3.57
444.92	3.54
445.275	3.52
445.629	3.51
445.984	3.49
446.339	3.48
446.693	3.47
447.048	3.46
447.403	3.46
447.757	3.44
448.112	3.42
448.466	3.41
448.82	3.42
449.175	3.41
449.529	3.4
449.883	3.39
450.238	3.38
450.592	3.39
450.946	3.38
451.3	3.38
451.654	3.38
452.008	3.4
452.362	3.39
452.716	3.38
453.07	3.38
453.424	3.38
453.778	3.38
454.132	3.38
454.486	3.37
454.839	3.35
455.193	3.36
455.547	3.37
455.9	3.4
456.254	3.38
456.607	3.37
456.961	3.37
457.314	3.36
457.668	3.39
458.021	3.38
458.375	3.38
458.728	3.38
459.081	3.38
459.434	3.37
459.787	3.38
460.141	3.39
460.494	3.38
460.847	3.39
461.2	3.4
461.553	3.4
461.906	3.41
462.259	3.42
462.611	3.43
462.964	3.45
463.317	3.43
463.67	3.44
464.022	3.47
464.375	3.48
464.728	3.51
465.08	3.52
465.433	3.53
465.785	3.56
466.138	3.55
466.49	3.56
466.843	3.57
467.195	3.59
467.547	3.59
467.899	3.61
468.252	3.63
468.604	3.64
468.956	3.65
469.308	3.68
469.66	3.69
470.012	3.71
470.364	3.7
470.716	3.73
471.068	3.74
471.42	3.75
471.772	3.76
472.123	3.78
472.475	3.78
472.827	3.81
473.178	3.79
473.53	3.81
473.882	3.84
474.233	3.84
474.585	3.82
474.936	3.84
475.288	3.83
475.639	3.82
475.99	3.8
476.342	3.81
476.693	3.81
477.044	3.82
477.395	3.81
477.746	3.8
478.097	3.77
478.448	3.75
478.8	3.74
479.15	3.69
479.501	3.68
479.852	3.67
480.203	3.65
480.554	3.66
480.905	3.66
481.255	3.64
481.606	3.64
481.957	3.65
482.307	3.65
482.658	3.65
483.009	3.65
483.359	3.65
483.709	3.65
484.06	3.64
484.41	3.64
484.761	3.65
485.111	3.65
485.461	3.66
485.811	3.66
486.162	3.67
486.512	3.69
486.862	3.69
487.212	3.69
487.562	3.7
487.912	3.69
488.262	3.69
488.612	3.7
488.961	3.71
489.311	3.72
489.661	3.71
490.011	3.72
490.36	3.72
490.71	3.73
491.06	3.74
491.409	3.76
491.759	3.77
492.108	3.77
492.458	3.76
492.807	3.77
493.157	3.79
493.506	3.8
493.855	3.81
494.204	3.83
494.554	3.86
494.903	3.88
495.252	3.92
495.601	3.96
495.95	3.99
496.299	4.01
496.648	4.04
496.997	4.1
497.346	4.15
497.695	4.2
498.043	4.24
498.392	4.27
498.741	4.3
499.09	4.33
499.438	4.39
499.787	4.46
500.135	4.52
500.484	4.59
500.832	4.66
501.181	4.73
501.529	4.76
501.878	4.82
502.226	4.9
502.574	4.96
502.923	5.02
503.271	5.09
503.619	5.17
503.967	5.25
504.315	5.31
504.663	5.36
505.011	5.45
505.359	5.53
505.707	5.65
506.055	5.74
506.403	5.84
506.751	5.94
507.098	6.04
507.446	6.15
507.794	6.23
508.141	6.3
508.489	6.38
508.837	6.49
509.184	6.62
509.531	6.71
509.879	6.83
510.226	6.95
510.574	7.07
510.921	7.17
511.268	7.27
511.616	7.38
511.963	7.5
512.31	7.64
512.657	7.75
513.004	7.86
513.351	7.98
513.698	8.11
514.045	8.22
514.392	8.33
514.739	8.45
515.086	8.59
515.432	8.73
515.779	8.87
516.126	9.01
516.473	9.13
516.819	9.24
517.166	9.37
517.512	9.49
517.859	9.59
518.205	9.72
518.552	9.86
518.898	9.98
519.245	10.09
519.591	10.18
519.937	10.3
520.283	10.42
520.629	10.56
520.976	10.7
521.322	10.86
521.668	11.01
522.014	11.16
522.36	11.31
522.706	11.49
523.052	11.68
523.398	11.88
523.743	12.07
524.089	12.28
524.435	12.47
524.781	12.67
525.126	12.86
525.472	13.03
525.817	13.19
526.163	13.32
526.509	13.47
526.854	13.61
527.199	13.75
527.545	13.88
527.89	14
528.235	14.13
528.581	14.27
528.926	14.42
529.271	14.57
529.616	14.71
529.961	14.86
530.306	15.01
530.651	15.18
530.996	15.36
531.341	15.54
531.686	15.7
532.031	15.87
532.376	16.07
532.721	16.27
533.065	16.46
533.41	16.69
533.755	16.9
534.099	17.14
534.444	17.36
534.788	17.57
535.133	17.78
535.477	18.01
535.822	18.24
536.166	18.47
536.51	18.73
536.855	19.01
537.199	19.29
537.543	19.59
537.887	19.86
538.231	20.11
538.576	20.41
538.92	20.71
539.264	20.99
539.608	21.26
539.951	21.48
540.295	21.74
540.639	21.99
540.983	22.2
541.327	22.43
541.671	22.65
542.014	22.9
542.358	23.15
542.701	23.36
543.045	23.59
543.389	23.83
543.732	24.06
544.075	24.3
544.419	24.56
544.762	24.77
545.105	25.04
545.449	25.36
545.792	25.61
546.135	25.89
546.478	26.18
546.821	26.49
547.165	26.82
547.508	27.08
547.851	27.37
548.194	27.67
548.536	27.94
548.879	28.25
549.222	28.53
549.565	28.81
549.908	29.16
550.25	29.48
550.593	29.79
550.936	30.02
551.278	30.34
551.621	30.61
551.963	30.91
552.306	31.19
552.648	31.42
552.991	31.71
553.333	31.98
553.675	32.24
554.017	32.44
554.36	32.67
554.702	32.98
555.044	33.23
555.386	33.5
555.728	33.78
556.07	34.03
556.412	34.28
556.754	34.5
557.096	34.67
557.438	34.84
557.78	35.06
558.121	35.41
558.463	35.63
558.805	35.83
559.147	36.05
559.488	36.24
559.83	36.4
560.171	36.62
560.513	36.82
560.854	36.95
561.196	37.15
561.537	37.32
561.878	37.48
562.22	37.7
562.561	37.86
562.902	38
563.243	38.16
563.584	38.31
563.925	38.48
564.266	38.69
564.607	38.88
564.948	39.07
565.289	39.17
565.63	39.31
565.971	39.46
566.312	39.56
566.653	39.69
566.993	39.88
567.334	40
567.675	40.15
568.015	40.31
568.356	40.43
568.696	40.64
569.037	40.73
569.377	40.82
569.718	40.96
570.058	41.09
570.398	41.2
570.739	41.31
571.079	41.41
571.419	41.53
571.759	41.68
572.099	41.76
572.439	41.87
572.779	41.96
573.119	42.05
573.459	42.2
573.799	42.29
574.139	42.35
574.479	42.48
574.819	42.53
575.158	42.64
575.498	42.77
575.838	42.78
576.177	42.92
576.517	43.02
576.856	43.16
577.196	43.26
577.535	43.34
577.875	43.43
578.214	43.53
578.553	43.62
578.893	43.65
579.232	43.68
579.571	43.79
579.91	43.88
580.25	43.91
580.589	44.06
580.928	44.18
581.267	44.25
581.606	44.33
581.945	44.37
582.283	44.44
582.622	44.51
582.961	44.63
583.3	44.74
583.639	44.77
583.977	44.82
584.316	44.83
584.654	44.89
584.993	45.04
585.332	45.19
585.67	45.26
586.008	45.34
586.347	45.39
586.685	45.45
587.024	45.43
587.362	45.57
587.7	45.52
588.038	45.6
588.376	45.75
588.715	45.76
589.053	45.88
589.391	46.04
589.729	46.11
590.067	46.16
590.404	46.14
590.742	46.26
591.08	46.27
591.418	46.38
591.756	46.49
592.093	46.52
592.431	46.47
592.769	46.45
593.106	46.48
593.444	46.51
593.781	46.51
594.119	46.58
594.456	46.57
594.793	46.63
595.131	46.61
595.468	46.59
595.805	46.61
596.143	46.64
596.48	46.58
596.817	46.59
597.154	46.63
597.491	46.68
597.828	46.6
598.165	46.63
598.502	46.67
598.839	46.68
599.176	46.66
599.512	46.71
599.849	46.74
600.186	46.8
600.523	46.9
600.859	46.93
601.196	47
601.532	46.99
601.869	46.97
602.205	47.01
602.542	47.02
602.878	47.08
603.215	47.04
603.551	47.15
603.887	47.17
604.223	47.13
604.56	47.11
604.896	47.2
605.232	47.27
605.568	47.22
605.904	47.24
606.24	47.28
606.576	47.36
606.912	47.45
607.248	47.46
607.583	47.49
607.919	47.55
608.255	47.57
608.591	47.65
608.926	47.72
609.262	47.79
609.597	47.8
609.933	47.83
610.268	47.97
610.604	47.97
610.939	47.98
611.275	48.07
611.61	48.11
611.945	48.07
612.281	48.05
612.616	48.13
612.951	48.11
613.286	48.12
613.621	48.12
613.956	48.07
614.291	48.14
614.626	48.09
614.961	48.07
615.296	48.03
615.631	48.04
615.966	47.98
616.3	47.98
616.635	48.05
616.97	48.04
617.304	47.93
617.639	47.91
617.973	47.93
618.308	47.94
618.642	48.01
618.977	48.1
619.311	48.06
619.646	48.1
619.98	48.12
620.314	48.11
620.648	48.1
620.983	48.2
621.317	48.2
621.651	48.19
621.985	48.21
622.319	48.3
622.653	48.3
622.987	48.41
623.321	48.44
623.655	48.42
623.988	48.48
624.322	48.52
624.656	48.51
624.99	48.52
625.323	48.51
625.657	48.5
625.99	48.51
626.324	48.59
626.657	48.6
626.991	48.65
627.324	48.74
627.658	48.74
627.991	48.8
628.324	48.73
628.657	48.85
628.991	48.87
629.324	48.82
629.657	48.9
629.99	48.89
630.323	48.91
630.656	48.9
630.989	48.96
631.322	48.95
631.655	48.97
631.987	48.98
632.32	48.97
632.653	48.95
632.986	48.98
633.318	48.97
633.651	48.95
633.984	48.94
634.316	48.85
634.649	48.88
634.981	48.81
635.313	48.93
635.646	48.85
635.978	48.85
636.31	48.96
636.643	48.98
636.975	49
637.307	49.06
637.639	49.1
637.971	49.02
638.303	49.03
638.635	48.99
638.967	48.97
639.299	48.97
639.631	48.98
639.963	48.93
640.295	48.89
640.626	48.86
640.958	48.9
641.29	48.98
641.621	48.89
641.953	48.86
642.285	48.81
642.616	48.96
642.948	48.92
643.279	48.8
643.61	48.65
643.942	48.61
644.273	48.52
644.604	48.43
644.936	48.37
645.267	48.41
645.598	48.44
645.929	48.57
646.26	48.62
646.591	48.71
646.922	48.6
647.253	48.62
647.584	48.71
647.915	48.62
648.245	48.54
648.576	48.52
648.907	48.48
649.238	48.42
649.568	48.24
649.899	48.24
650.229	48.36
650.56	48.41
650.89	48.43
651.221	48.44
651.551	48.51
651.882	48.53
652.212	48.59
652.542	48.55
652.872	48.48
653.203	48.41
653.533	48.38
653.863	48.48
654.193	48.51
654.523	48.47
654.853	48.52
655.183	48.55
655.513	48.53
655.843	48.49
656.172	48.56
656.502	48.67
656.832	48.62
657.162	48.61
657.491	48.59
657.821	48.62
658.15	48.64
658.48	48.63
658.809	48.71
659.139	48.71
659.468	48.78
659.798	48.74
660.127	48.82
660.456	48.83
660.785	48.87
661.115	48.86
661.444	48.9
661.773	49.04
662.102	49.1
662.431	49.08
662.76	49.2
663.089	49.14
663.418	49.12
663.747	49.27
664.076	49.27
664.404	49.27
664.733	49.26
665.062	49.23
665.39	49.39
