Data from BU58141_Reflection_00014.txt Node
Date: Mon Nov 18 16:47:03 EST 2019
User: vgr7
Spectrometer: USB2G7710
Scans to average: 3
Trigger mode: 4
Integration Time (sec): 2.000000E-2
Electric dark correction enabled: true
Boxcar width: 10
XAxis mode: Wavelengths
Number of Pixels in Spectrum: 2048
>>>>>Begin Spectral Data<<<<<
177.721	-189.24
178.105	-129.13
178.488	-85.03
178.871	-2.43
179.254	24.87
179.636	4037.5
180.019	-351.51
180.402	137.04
180.785	62.13
181.168	-2017.65
181.55	-328.57
181.933	113.45
182.316	111.04
182.698	42.56
183.081	-2.44
183.463	-2.77
183.846	-14.36
184.228	-17.63
184.611	-6
184.993	-22.42
185.376	-11
185.758	-30.74
186.14	-52.93
186.522	-77.59
186.904	-63.96
187.287	-59.14
187.669	463.32
188.051	414.08
188.433	145.02
188.815	208.54
189.197	-633.91
189.579	6700
189.961	779.56
190.342	730.57
190.724	85.97
191.106	8.72
191.488	25.91
191.869	34.61
192.251	40.87
192.633	58.51
193.014	48.9
193.396	55.22
193.777	101.59
194.159	94.21
194.54	43.59
194.922	70.68
195.303	56.28
195.684	52.58
196.065	52.25
196.447	34.59
196.828	18.57
197.209	27.72
197.59	21.79
197.971	22.15
198.352	27.32
198.733	36.53
199.114	49.51
199.495	26.26
199.876	13.66
200.257	8.02
200.638	-6.48
201.018	-5.34
201.399	-5.78
201.78	-7.46
202.16	-15.47
202.541	-29.26
202.922	-58.63
203.302	-65.84
203.683	-79.88
204.063	-96.07
204.444	-87.56
204.824	-85.09
205.204	-61.85
205.585	-64.06
205.965	-62.97
206.345	-75.47
206.725	-78.58
207.106	-99.72
207.486	-67.77
207.866	-69.57
208.246	-44.31
208.626	-51.08
209.006	-26.74
209.386	-32.47
209.766	-64.89
210.145	-43.57
210.525	-23.16
210.905	-11.69
211.285	-13.84
211.664	-6.4
212.044	-6.95
212.424	-12.04
212.803	-21.07
213.183	-27.68
213.562	-22.86
213.942	-8.7
214.321	-6.74
214.701	-14.89
215.08	-8.72
215.459	-9.56
215.838	-0.38
216.218	-1.34
216.597	15.02
216.976	18.56
217.355	19.26
217.734	24.03
218.113	27.78
218.492	22.67
218.871	20.19
219.25	26.55
219.629	9.98
220.008	13.15
220.387	19.82
220.766	22.26
221.144	9.34
221.523	1.43
221.902	-12.27
222.28	-27.73
222.659	-15.72
223.037	-7.9
223.416	-12.73
223.794	-28.35
224.173	-19.96
224.551	-17.92
224.929	-22.38
225.308	-18.8
225.686	-18.06
226.064	-14.57
226.442	-9.18
226.821	-5.17
227.199	-5.68
227.577	-0.25
227.955	-0.8
228.333	-5.34
228.711	-2.09
229.089	2.02
229.467	3.54
229.845	6.62
230.222	9.94
230.6	8.05
230.978	6.68
231.356	6.46
231.733	5.47
232.111	4.5
232.488	4.73
232.866	6.17
233.243	5.16
233.621	4.96
233.998	4.83
234.376	2.15
234.753	1.17
235.13	0.12
235.508	0.75
235.885	1.63
236.262	0.14
236.639	-1.08
237.016	-1.46
237.393	0.04
237.77	-0.1
238.147	-0.33
238.524	0.21
238.901	0.68
239.278	0.92
239.655	2
240.032	1.82
240.409	1.61
240.785	2.1
241.162	2.03
241.539	1.93
241.915	1.87
242.292	2.38
242.668	2.74
243.045	3.44
243.421	3.55
243.798	3.36
244.174	3.93
244.551	4.07
244.927	3.89
245.303	4.05
245.679	3.91
246.056	4.04
246.432	3.99
246.808	4.09
247.184	3.92
247.56	3.6
247.936	3.67
248.312	3.66
248.688	3.8
249.064	3.73
249.44	3.9
249.815	4.03
250.191	4.07
250.567	3.97
250.943	3.65
251.318	3.58
251.694	3.49
252.069	3.47
252.445	3.28
252.82	3.36
253.196	3.02
253.571	2.96
253.947	2.71
254.322	2.45
254.697	2.16
255.073	2.14
255.448	2.43
255.823	2.27
256.198	2.19
256.573	1.61
256.948	2.12
257.323	2.15
257.698	2.04
258.073	1.9
258.448	1.85
258.823	1.98
259.198	1.96
259.573	1.98
259.948	1.99
260.322	2.14
260.697	2.13
261.072	2.1
261.446	2.27
261.821	2.18
262.195	2.43
262.57	2.4
262.944	2.52
263.319	2.44
263.693	2.63
264.067	2.61
264.442	2.94
264.816	2.66
265.19	2.46
265.564	2.63
265.938	2.63
266.313	2.67
266.687	2.58
267.061	2.65
267.435	2.87
267.809	2.84
268.183	2.8
268.556	2.75
268.93	2.79
269.304	2.73
269.678	2.78
270.051	2.67
270.425	2.67
270.799	2.44
271.172	2.48
271.546	2.27
271.919	2.19
272.293	2.2
272.666	2.3
273.04	2.42
273.413	2.35
273.787	2.45
274.16	2.49
274.533	2.42
274.906	2.34
275.279	2.17
275.653	2.16
276.026	2.11
276.399	2.05
276.772	2.18
277.145	1.98
277.518	2.21
277.891	2.09
278.263	2.19
278.636	2.31
279.009	2.24
279.382	2.45
279.755	2.51
280.127	2.58
280.5	2.61
280.872	2.6
281.245	2.51
281.617	2.67
281.99	2.66
282.362	2.93
282.735	2.87
283.107	2.93
283.479	3.09
283.852	3.24
284.224	3.28
284.596	3.12
284.968	3.19
285.34	3.04
285.713	3.12
286.085	3.19
286.457	3.33
286.829	3.39
287.201	3.29
287.572	3.41
287.944	3.31
288.316	3.32
288.688	3.4
289.06	3.47
289.431	3.47
289.803	3.55
290.175	3.35
290.546	3.55
290.918	3.51
291.289	3.43
291.661	3.49
292.032	3.55
292.403	3.71
292.775	3.83
293.146	4.02
293.517	4.19
293.889	4.15
294.26	4.15
294.631	4.18
295.002	4.26
295.373	4.22
295.744	4.24
296.115	4.33
296.486	4.24
296.857	4.42
297.228	4.42
297.599	4.35
297.97	4.51
298.34	4.52
298.711	4.61
299.082	4.74
299.452	4.75
299.823	4.9
300.194	4.96
300.564	4.93
300.935	4.95
301.305	4.86
301.676	5.01
302.046	5.18
302.416	5.38
302.787	5.48
303.157	5.58
303.527	5.75
303.897	5.81
304.267	6.14
304.637	6.1
305.008	6.14
305.378	6.35
305.748	6.53
306.117	6.53
306.487	6.69
306.857	6.73
307.227	6.77
307.597	6.88
307.967	6.92
308.336	7
308.706	7.16
309.076	7.28
309.445	7.33
309.815	7.27
310.184	7.24
310.554	7.36
310.923	7.53
311.293	7.63
311.662	7.66
312.031	7.66
312.401	7.84
312.77	8.06
313.139	8.16
313.508	8.23
313.877	8.43
314.246	8.55
314.616	8.63
314.985	8.72
315.353	8.81
315.722	8.97
316.091	9.16
316.46	9.18
316.829	9.33
317.198	9.47
317.567	9.62
317.935	9.76
318.304	9.82
318.672	9.82
319.041	9.98
319.41	10.16
319.778	10.21
320.147	10.37
320.515	10.33
320.883	10.41
321.252	10.53
321.62	10.56
321.988	10.64
322.357	10.68
322.725	10.75
323.093	10.77
323.461	10.85
323.829	10.83
324.197	10.83
324.565	10.89
324.933	11
325.301	11.06
325.669	11.23
326.037	11.36
326.405	11.51
326.772	11.52
327.14	11.65
327.508	11.76
327.875	11.56
328.243	11.61
328.61	11.64
328.978	11.68
329.346	11.84
329.713	11.77
330.08	11.93
330.448	11.98
330.815	11.98
331.182	12.1
331.55	12.25
331.917	12.39
332.284	12.49
332.651	12.45
333.018	12.6
333.385	12.72
333.752	12.77
334.119	12.83
334.486	12.82
334.853	12.68
335.22	12.78
335.587	12.95
335.954	13.1
336.32	13.16
336.687	13.11
337.054	13.15
337.42	13.21
337.787	13.18
338.153	13.18
338.52	13.27
338.886	13.27
339.253	13.33
339.619	13.36
339.986	13.34
340.352	13.33
340.718	13.24
341.084	13.13
341.451	13.17
341.817	13.13
342.183	13.2
342.549	13.33
342.915	13.31
343.281	13.27
343.647	13.07
344.013	13.11
344.379	13.2
344.745	13.22
345.11	13.3
345.476	13.3
345.842	13.33
346.208	13.31
346.573	13.29
346.939	13.39
347.304	13.25
347.67	13.14
348.035	13.17
348.401	13.16
348.766	13.1
349.132	13.04
349.497	13.06
349.862	13.18
350.228	13.23
350.593	13.23
350.958	13.22
351.323	13.27
351.688	13.26
352.053	13.25
352.418	13.38
352.783	13.38
353.148	13.45
353.513	13.54
353.878	13.6
354.243	13.63
354.608	13.58
354.972	13.76
355.337	13.91
355.702	13.96
356.066	13.98
356.431	14.02
356.795	14.02
357.16	13.96
357.524	13.78
357.889	13.68
358.253	13.63
358.618	13.68
358.982	13.68
359.346	13.6
359.71	13.47
360.075	13.41
360.439	13.36
360.803	13.26
361.167	13.18
361.531	13.14
361.895	13.12
362.259	13.07
362.623	12.98
362.987	12.98
363.351	12.97
363.714	12.99
364.078	12.85
364.442	12.77
364.806	12.75
365.169	12.75
365.533	12.7
365.896	12.64
366.26	12.57
366.623	12.56
366.987	12.51
367.35	12.55
367.714	12.42
368.077	12.35
368.44	12.32
368.803	12.24
369.167	12.16
369.53	12.06
369.893	12.01
370.256	11.97
370.619	11.83
370.982	11.76
371.345	11.57
371.708	11.66
372.071	11.62
372.434	11.59
372.797	11.5
373.159	11.44
373.522	11.39
373.885	11.25
374.247	11.18
374.61	11.06
374.973	10.99
375.335	10.88
375.698	10.89
376.06	10.77
376.423	10.7
376.785	10.61
377.147	10.52
377.51	10.35
377.872	10.34
378.234	10.3
378.596	10.17
378.958	10.09
379.321	9.93
379.683	9.92
380.045	9.8
380.407	9.74
380.769	9.64
381.13	9.5
381.492	9.49
381.854	9.38
382.216	9.37
382.578	9.29
382.939	9.22
383.301	9.07
383.663	9
384.024	8.93
384.386	8.91
384.747	8.88
385.109	8.86
385.47	8.71
385.832	8.64
386.193	8.64
386.554	8.59
386.916	8.54
387.277	8.42
387.638	8.35
387.999	8.26
388.36	8.24
388.721	8.22
389.082	8.13
389.443	8.05
389.804	7.95
390.165	7.83
390.526	7.76
390.887	7.72
391.248	7.66
391.609	7.62
391.969	7.49
392.33	7.42
392.691	7.34
393.051	7.23
393.412	7.19
393.772	7.08
394.133	7.04
394.493	7
394.854	6.96
395.214	6.92
395.574	6.87
395.935	6.76
396.295	6.7
396.655	6.64
397.015	6.59
397.376	6.53
397.736	6.49
398.096	6.48
398.456	6.43
398.816	6.41
399.176	6.31
399.535	6.26
399.895	6.16
400.255	6.08
400.615	6.08
400.975	5.97
401.334	5.91
401.694	5.82
402.054	5.76
402.413	5.67
402.773	5.59
403.132	5.52
403.492	5.5
403.851	5.46
404.211	5.41
404.57	5.34
404.929	5.33
405.288	5.31
405.648	5.21
406.007	5.19
406.366	5.11
406.725	5.12
407.084	5.1
407.443	5.1
407.802	5.12
408.161	5.08
408.52	5.06
408.879	5.03
409.238	5.01
409.596	4.98
409.955	4.97
410.314	4.96
410.673	4.92
411.031	4.89
411.39	4.85
411.748	4.84
412.107	4.84
412.465	4.78
412.824	4.74
413.182	4.69
413.54	4.63
413.899	4.63
414.257	4.6
414.615	4.55
414.974	4.53
415.332	4.49
415.69	4.45
416.048	4.41
416.406	4.41
416.764	4.36
417.122	4.33
417.48	4.28
417.838	4.27
418.195	4.26
418.553	4.23
418.911	4.21
419.269	4.18
419.626	4.15
419.984	4.13
420.342	4.11
420.699	4.09
421.057	4.08
421.414	4.04
421.772	4.01
422.129	3.99
422.486	3.96
422.844	3.94
423.201	3.93
423.558	3.91
423.915	3.88
424.273	3.88
424.63	3.87
424.987	3.87
425.344	3.86
425.701	3.84
426.058	3.83
426.415	3.82
426.772	3.8
427.128	3.8
427.485	3.8
427.842	3.79
428.199	3.78
428.555	3.75
428.912	3.73
429.269	3.71
429.625	3.7
429.982	3.68
430.338	3.66
430.695	3.64
431.051	3.62
431.407	3.6
431.764	3.58
432.12	3.55
432.476	3.52
432.832	3.49
433.189	3.48
433.545	3.47
433.901	3.45
434.257	3.44
434.613	3.44
434.969	3.44
435.325	3.42
435.681	3.41
436.036	3.41
436.392	3.42
436.748	3.43
437.104	3.41
437.459	3.41
437.815	3.4
438.171	3.38
438.526	3.39
438.882	3.38
439.237	3.39
439.593	3.4
439.948	3.39
440.304	3.38
440.659	3.37
441.014	3.38
441.369	3.38
441.725	3.37
442.08	3.35
442.435	3.34
442.79	3.34
443.145	3.35
443.5	3.34
443.855	3.33
444.21	3.31
444.565	3.31
444.92	3.3
445.275	3.29
445.629	3.3
445.984	3.3
446.339	3.29
446.693	3.26
447.048	3.25
447.403	3.24
447.757	3.24
448.112	3.23
448.466	3.21
448.82	3.21
449.175	3.21
449.529	3.21
449.883	3.18
450.238	3.16
450.592	3.16
450.946	3.14
451.3	3.14
451.654	3.14
452.008	3.14
452.362	3.14
452.716	3.15
453.07	3.12
453.424	3.09
453.778	3.09
454.132	3.11
454.486	3.1
454.839	3.1
455.193	3.09
455.547	3.1
455.9	3.1
456.254	3.1
456.607	3.09
456.961	3.09
457.314	3.1
457.668	3.09
458.021	3.06
458.375	3.09
458.728	3.09
459.081	3.09
459.434	3.1
459.787	3.1
460.141	3.09
460.494	3.1
460.847	3.11
461.2	3.11
461.553	3.11
461.906	3.12
462.259	3.12
462.611	3.11
462.964	3.12
463.317	3.12
463.67	3.11
464.022	3.11
464.375	3.12
464.728	3.12
465.08	3.14
465.433	3.16
465.785	3.15
466.138	3.14
466.49	3.14
466.843	3.14
467.195	3.14
467.547	3.16
467.899	3.17
468.252	3.18
468.604	3.2
468.956	3.2
469.308	3.21
469.66	3.21
470.012	3.24
470.364	3.27
470.716	3.29
471.068	3.3
471.42	3.3
471.772	3.33
472.123	3.36
472.475	3.39
472.827	3.42
473.178	3.45
473.53	3.48
473.882	3.5
474.233	3.51
474.585	3.52
474.936	3.54
475.288	3.56
475.639	3.59
475.99	3.61
476.342	3.63
476.693	3.66
477.044	3.7
477.395	3.69
477.746	3.68
478.097	3.67
478.448	3.7
478.8	3.69
479.15	3.67
479.501	3.68
479.852	3.68
480.203	3.67
480.554	3.67
480.905	3.68
481.255	3.68
481.606	3.69
481.957	3.7
482.307	3.69
482.658	3.68
483.009	3.67
483.359	3.67
483.709	3.67
484.06	3.65
484.41	3.65
484.761	3.64
485.111	3.64
485.461	3.64
485.811	3.63
486.162	3.63
486.512	3.64
486.862	3.63
487.212	3.61
487.562	3.61
487.912	3.6
488.262	3.59
488.612	3.58
488.961	3.57
489.311	3.56
489.661	3.55
490.011	3.54
490.36	3.53
490.71	3.52
491.06	3.52
491.409	3.52
491.759	3.51
492.108	3.51
492.458	3.5
492.807	3.48
493.157	3.48
493.506	3.49
493.855	3.49
494.204	3.5
494.554	3.52
494.903	3.51
495.252	3.52
495.601	3.53
495.95	3.54
496.299	3.55
496.648	3.54
496.997	3.57
497.346	3.6
497.695	3.63
498.043	3.66
498.392	3.67
498.741	3.7
499.09	3.72
499.438	3.77
499.787	3.82
500.135	3.88
500.484	3.94
500.832	3.98
501.181	4.01
501.529	4.05
501.878	4.09
502.226	4.17
502.574	4.23
502.923	4.28
503.271	4.31
503.619	4.38
503.967	4.47
504.315	4.51
504.663	4.59
505.011	4.65
505.359	4.74
505.707	4.84
506.055	4.9
506.403	4.97
506.751	5.07
507.098	5.15
507.446	5.24
507.794	5.32
508.141	5.4
508.489	5.49
508.837	5.57
509.184	5.66
509.531	5.75
509.879	5.85
510.226	5.96
510.574	6.07
510.921	6.17
511.268	6.29
511.616	6.44
511.963	6.56
512.31	6.7
512.657	6.82
513.004	6.97
513.351	7.14
513.698	7.35
514.045	7.5
514.392	7.71
514.739	7.9
515.086	8.11
515.432	8.3
515.779	8.49
516.126	8.71
516.473	8.92
516.819	9.12
517.166	9.31
517.512	9.51
517.859	9.7
518.205	9.91
518.552	10.09
518.898	10.25
519.245	10.45
519.591	10.63
519.937	10.84
520.283	11.06
520.629	11.27
520.976	11.5
521.322	11.76
521.668	11.99
522.014	12.25
522.36	12.51
522.706	12.82
523.052	13.12
523.398	13.43
523.743	13.76
524.089	14.06
524.435	14.36
524.781	14.63
525.126	14.9
525.472	15.13
525.817	15.32
526.163	15.52
526.509	15.71
526.854	15.86
527.199	16
527.545	16.13
527.89	16.28
528.235	16.41
528.581	16.56
528.926	16.7
529.271	16.86
529.616	17.01
529.961	17.14
530.306	17.3
530.651	17.45
530.996	17.59
531.341	17.75
531.686	17.9
532.031	18.08
532.376	18.26
532.721	18.42
533.065	18.63
533.41	18.84
533.755	19.04
534.099	19.25
534.444	19.48
534.788	19.7
535.133	19.9
535.477	20.11
535.822	20.3
536.166	20.5
536.51	20.69
536.855	20.94
537.199	21.19
537.543	21.39
537.887	21.58
538.231	21.81
538.576	22.06
538.92	22.3
539.264	22.5
539.608	22.69
539.951	22.9
540.295	23.05
540.639	23.21
540.983	23.35
541.327	23.5
541.671	23.64
542.014	23.79
542.358	23.94
542.701	24.07
543.045	24.24
543.389	24.41
543.732	24.57
544.075	24.69
544.419	24.83
544.762	24.98
545.105	25.15
545.449	25.33
545.792	25.52
546.135	25.69
546.478	25.87
546.821	26.07
547.165	26.28
547.508	26.5
547.851	26.72
548.194	26.93
548.536	27.15
548.879	27.4
549.222	27.59
549.565	27.8
549.908	28.01
550.25	28.19
550.593	28.42
550.936	28.61
551.278	28.78
551.621	28.97
551.963	29.2
552.306	29.43
552.648	29.59
552.991	29.78
553.333	29.95
553.675	30.12
554.017	30.25
554.36	30.36
554.702	30.52
555.044	30.66
555.386	30.84
555.728	30.99
556.07	31.11
556.412	31.25
556.754	31.39
557.096	31.54
557.438	31.71
557.78	31.81
558.121	31.99
558.463	32.13
558.805	32.26
559.147	32.41
559.488	32.56
559.83	32.7
560.171	32.85
560.513	33.03
560.854	33.15
561.196	33.36
561.537	33.52
561.878	33.62
562.22	33.71
562.561	33.75
562.902	33.85
563.243	33.95
563.584	34.04
563.925	34.2
564.266	34.3
564.607	34.36
564.948	34.46
565.289	34.53
565.63	34.66
565.971	34.74
566.312	34.84
566.653	34.93
566.993	35.03
567.334	35.07
567.675	35.11
568.015	35.22
568.356	35.26
568.696	35.39
569.037	35.47
569.377	35.6
569.718	35.67
570.058	35.81
570.398	35.92
570.739	36.07
571.079	36.13
571.419	36.2
571.759	36.35
572.099	36.4
572.439	36.47
572.779	36.5
573.119	36.65
573.459	36.72
573.799	36.79
574.139	36.86
574.479	36.92
574.819	37.01
575.158	37.04
575.498	37.07
575.838	37.09
576.177	37.17
576.517	37.18
576.856	37.31
577.196	37.33
577.535	37.39
577.875	37.43
578.214	37.49
578.553	37.56
578.893	37.52
579.232	37.6
579.571	37.72
579.91	37.81
580.25	37.79
580.589	37.89
580.928	37.93
581.267	37.98
581.606	38.03
581.945	38.1
582.283	38.14
582.622	38.21
582.961	38.32
583.3	38.4
583.639	38.5
583.977	38.5
584.316	38.57
584.654	38.61
584.993	38.64
585.332	38.72
585.67	38.77
586.008	38.85
586.347	38.91
586.685	38.86
587.024	38.95
587.362	39
587.7	39.01
588.038	39.02
588.376	39.06
588.715	39.12
589.053	39.13
589.391	39.21
589.729	39.19
590.067	39.21
590.404	39.17
590.742	39.21
591.08	39.29
591.418	39.33
591.756	39.41
592.093	39.51
592.431	39.52
592.769	39.59
593.106	39.61
593.444	39.64
593.781	39.72
594.119	39.75
594.456	39.8
594.793	39.81
595.131	39.84
595.468	39.81
595.805	39.82
596.143	39.85
596.48	39.85
596.817	39.9
597.154	39.88
597.491	39.95
597.828	39.99
598.165	39.92
598.502	39.92
598.839	39.87
599.176	39.79
599.512	39.86
599.849	39.91
600.186	39.98
600.523	39.99
600.859	39.99
601.196	40.02
601.532	40.06
601.869	40.08
602.205	40.11
602.542	40.12
602.878	40.17
603.215	40.18
603.551	40.23
603.887	40.31
604.223	40.37
604.56	40.38
604.896	40.38
605.232	40.4
605.568	40.42
605.904	40.46
606.24	40.5
606.576	40.51
606.912	40.51
607.248	40.52
607.583	40.57
607.919	40.59
608.255	40.57
608.591	40.55
608.926	40.59
609.262	40.64
609.597	40.75
609.933	40.76
610.268	40.78
610.604	40.83
610.939	40.76
611.275	40.74
611.61	40.74
611.945	40.75
612.281	40.79
612.616	40.82
612.951	40.87
613.286	40.9
613.621	40.85
613.956	40.76
614.291	40.74
614.626	40.75
614.961	40.76
615.296	40.84
615.631	40.89
615.966	40.86
616.3	40.84
616.635	40.81
616.97	40.83
617.304	40.81
617.639	40.83
617.973	40.92
618.308	40.92
618.642	40.97
618.977	40.97
619.311	41.03
619.646	41.04
619.98	41.04
620.314	41.08
620.648	41.08
620.983	41.2
621.317	41.19
621.651	41.23
621.985	41.28
622.319	41.28
622.653	41.27
622.987	41.29
623.321	41.31
623.655	41.29
623.988	41.28
624.322	41.29
624.656	41.25
624.99	41.22
625.323	41.25
625.657	41.21
625.99	41.28
626.324	41.31
626.657	41.36
626.991	41.35
627.324	41.32
627.658	41.34
627.991	41.3
628.324	41.37
628.657	41.38
628.991	41.42
629.324	41.42
629.657	41.44
629.99	41.5
630.323	41.57
630.656	41.69
630.989	41.68
631.322	41.71
631.655	41.7
631.987	41.8
632.32	41.81
632.653	41.87
632.986	41.87
633.318	41.84
633.651	41.75
633.984	41.74
634.316	41.83
634.649	41.85
634.981	41.83
635.313	41.8
635.646	41.76
635.978	41.66
636.31	41.63
636.643	41.63
636.975	41.61
637.307	41.54
637.639	41.44
637.971	41.51
638.303	41.48
638.635	41.45
638.967	41.53
639.299	41.61
639.631	41.62
639.963	41.56
640.295	41.59
640.626	41.64
640.958	41.68
641.29	41.7
641.621	41.7
641.953	41.77
642.285	41.78
642.616	41.82
642.948	41.9
643.279	42
643.61	41.97
643.942	41.9
644.273	41.88
644.604	41.95
644.936	41.94
645.267	42.07
645.598	42.07
645.929	41.86
646.26	41.77
646.591	41.71
646.922	41.75
647.253	41.71
647.584	41.72
647.915	41.73
648.245	41.68
648.576	41.75
648.907	41.74
649.238	41.73
649.568	41.77
649.899	41.79
650.229	41.69
650.56	41.72
650.89	41.84
651.221	41.89
651.551	41.84
651.882	41.82
652.212	41.78
652.542	41.82
652.872	41.84
653.203	41.84
653.533	41.87
653.863	41.85
654.193	41.86
654.523	41.81
654.853	41.84
655.183	41.87
655.513	41.82
655.843	41.8
656.172	41.81
656.502	41.8
656.832	41.7
657.162	41.72
657.491	41.71
657.821	41.72
658.15	41.74
658.48	41.78
658.809	41.8
659.139	41.75
659.468	41.78
659.798	41.84
660.127	41.86
660.456	41.9
660.785	41.93
661.115	41.97
661.444	42.01
661.773	41.92
662.102	41.9
662.431	41.88
662.76	41.85
663.089	41.89
663.418	41.75
663.747	41.77
664.076	41.86
664.404	41.87
664.733	41.85
