Data from BU58130_Reflection_00006.txt Node
Date: Mon Nov 18 16:37:22 EST 2019
User: vgr7
Spectrometer: USB2G7710
Scans to average: 3
Trigger mode: 4
Integration Time (sec): 2.000000E-2
Electric dark correction enabled: true
Boxcar width: 10
XAxis mode: Wavelengths
Number of Pixels in Spectrum: 2048
>>>>>Begin Spectral Data<<<<<
177.721	-785.5
178.105	368.29
178.488	247.31
178.871	148.54
179.254	131.09
179.636	186.21
180.019	209.59
180.402	48.28
180.785	7.38
181.168	57.77
181.55	37.01
181.933	47.71
182.316	74.52
182.698	69.99
183.081	55.86
183.463	82.65
183.846	87.21
184.228	61.76
184.611	246.34
184.993	308.09
185.376	333.77
185.758	384.64
186.14	417.6
186.522	610.95
186.904	859.49
187.287	1242.86
187.669	-502.41
188.051	-2321.05
188.433	-738.71
188.815	-79.27
189.197	-2.16
189.579	-5.05
189.961	-49.91
190.342	-24.25
190.724	-10.5
191.106	-98.61
191.488	-121.45
191.869	-148.52
192.251	-195.57
192.633	-503.17
193.014	-5233.33
193.396	1877.78
193.777	2013.04
194.159	211.63
194.54	252.05
194.922	-231.29
195.303	-475.34
195.684	-367.07
196.065	-139.61
196.447	-119.97
196.828	-142.3
197.209	-144.58
197.59	-197.87
197.971	-184.11
198.352	-119.48
198.733	-145.36
199.114	-123.58
199.495	-97.9
199.876	-87.45
200.257	-71.89
200.638	-72.69
201.018	-68.29
201.399	-73.36
201.78	-54.06
202.16	-66.33
202.541	-93.9
202.922	-150.24
203.302	-128.3
203.683	-122.39
204.063	-130.33
204.444	-143.69
204.824	-133.36
205.204	-130.83
205.585	-136.73
205.965	-131.11
206.345	-185.37
206.725	-205.73
207.106	-173.02
207.486	-332.87
207.866	-459.49
208.246	-438.26
208.626	-387.7
209.006	-336.78
209.386	-285.88
209.766	-320.54
210.145	-281.16
210.525	-334.37
210.905	-328.13
211.285	-856.52
211.664	-524.28
212.044	-958.82
212.424	4452.94
212.803	562.59
213.183	1214.75
213.562	-229
213.942	-55.44
214.321	-53.85
214.701	-49.72
215.08	-64.71
215.459	-37.78
215.838	-22.63
216.218	-21.8
216.597	-6.76
216.976	-16.5
217.355	-17.75
217.734	-17.76
218.113	-12.62
218.492	2.74
218.871	-16.89
219.25	-15.41
219.629	-28.14
220.008	-24.09
220.387	-22.84
220.766	-15.94
221.144	-29.08
221.523	-49.58
221.902	-89.03
222.28	-90.48
222.659	-66.51
223.037	-54.35
223.416	-56.65
223.794	-68.08
224.173	-61.77
224.551	-54.7
224.929	-59.46
225.308	-37.17
225.686	-26.42
226.064	-21.03
226.442	-20.48
226.821	-13.2
227.199	-12.58
227.577	-9.49
227.955	-11.81
228.333	-9.32
228.711	-9.96
229.089	-6.75
229.467	-9.62
229.845	-8.42
230.222	-7.08
230.6	-9.76
230.978	-10.8
231.356	-8.92
231.733	-7.48
232.111	-4.36
232.488	-0.94
232.866	1.38
233.243	-2.31
233.621	-4.09
233.998	-4.41
234.376	-5.63
234.753	-6.17
235.13	-7.13
235.508	-7.78
235.885	-5.94
236.262	-5.84
236.639	-5.19
237.016	-3.86
237.393	0.16
237.77	0.86
238.147	2.55
238.524	3.24
238.901	4.89
239.278	5.96
239.655	6.15
240.032	5.28
240.409	4.22
240.785	4.3
241.162	4.71
241.539	4.9
241.915	5.52
242.292	5.17
242.668	5.47
243.045	5.86
243.421	5.78
243.798	5.53
244.174	5.46
244.551	5.44
244.927	5.05
245.303	4.96
245.679	5.1
246.056	5
246.432	4.94
246.808	4.79
247.184	4.49
247.56	4.31
247.936	4.34
248.312	4.34
248.688	4.13
249.064	4.33
249.44	4.26
249.815	4.15
250.191	4.31
250.567	4.24
250.943	4.21
251.318	4.52
251.694	4.69
252.069	4.4
252.445	4.54
252.82	4.81
253.196	4.72
253.571	4.66
253.947	4.88
254.322	5.26
254.697	5.05
255.073	4.87
255.448	4.94
255.823	4.91
256.198	5.15
256.573	5.43
256.948	5.14
257.323	5.36
257.698	5.36
258.073	5.44
258.448	5.46
258.823	5.47
259.198	5.2
259.573	5.04
259.948	5.23
260.322	5.26
260.697	5.12
261.072	5.05
261.446	5.05
261.821	4.94
262.195	4.94
262.57	4.99
262.944	4.96
263.319	4.77
263.693	4.85
264.067	4.74
264.442	4.73
264.816	4.78
265.19	4.71
265.564	4.52
265.938	4.56
266.313	4.44
266.687	4.36
267.061	4.46
267.435	4.29
267.809	4.36
268.183	4.39
268.556	4.5
268.93	4.51
269.304	4.53
269.678	4.63
270.051	4.35
270.425	4.39
270.799	4.56
271.172	4.75
271.546	4.69
271.919	4.67
272.293	4.68
272.666	4.69
273.04	4.6
273.413	4.72
273.787	4.53
274.16	4.41
274.533	4.3
274.906	4.4
275.279	4.56
275.653	4.45
276.026	4.26
276.399	4.18
276.772	4.3
277.145	4.21
277.518	4.21
277.891	4.53
278.263	4.41
278.636	4.36
279.009	4.41
279.382	4.49
279.755	4.37
280.127	4.51
280.5	4.6
280.872	4.79
281.245	4.77
281.617	5.02
281.99	5.2
282.362	5.27
282.735	5.28
283.107	5.33
283.479	5.32
283.852	5.35
284.224	5.46
284.596	5.49
284.968	5.6
285.34	5.49
285.713	5.4
286.085	5.57
286.457	5.51
286.829	5.47
287.201	5.59
287.572	5.66
287.944	5.58
288.316	5.61
288.688	5.52
289.06	5.45
289.431	5.33
289.803	5.49
290.175	5.57
290.546	5.66
290.918	5.75
291.289	5.73
291.661	5.79
292.032	5.77
292.403	5.65
292.775	5.7
293.146	5.79
293.517	5.69
293.889	5.62
294.26	5.76
294.631	5.79
295.002	5.68
295.373	5.7
295.744	5.71
296.115	5.77
296.486	5.71
296.857	5.84
297.228	5.96
297.599	5.81
297.97	5.67
298.34	5.5
298.711	5.4
299.082	5.39
299.452	5.37
299.823	5.36
300.194	5.45
300.564	5.3
300.935	5.44
301.305	5.39
301.676	5.45
302.046	5.42
302.416	5.46
302.787	5.52
303.157	5.49
303.527	5.49
303.897	5.31
304.267	5.52
304.637	5.62
305.008	5.58
305.378	5.72
305.748	5.71
306.117	5.74
306.487	5.84
306.857	5.91
307.227	6.02
307.597	5.99
307.967	5.95
308.336	5.97
308.706	5.84
309.076	5.91
309.445	5.85
309.815	5.82
310.184	5.76
310.554	5.76
310.923	5.87
311.293	5.8
311.662	5.81
312.031	5.83
312.401	5.75
312.77	5.83
313.139	5.76
313.508	5.93
313.877	5.98
314.246	5.9
314.616	5.95
314.985	5.92
315.353	5.88
315.722	5.97
316.091	6.09
316.46	5.96
316.829	5.96
317.198	6.06
317.567	6.08
317.935	6.2
318.304	6.23
318.672	6.12
319.041	6.27
319.41	6.41
319.778	6.37
320.147	6.43
320.515	6.35
320.883	6.39
321.252	6.37
321.62	6.38
321.988	6.46
322.357	6.24
322.725	6.2
323.093	6.28
323.461	6.19
323.829	6.04
324.197	6.27
324.565	6.4
324.933	6.36
325.301	6.46
325.669	6.45
326.037	6.58
326.405	6.58
326.772	6.59
327.14	6.43
327.508	6.25
327.875	6.08
328.243	6.12
328.61	6.04
328.978	6.08
329.346	6.12
329.713	6.14
330.08	6.34
330.448	6.38
330.815	6.33
331.182	6.38
331.55	6.37
331.917	6.27
332.284	6.25
332.651	6.21
333.018	6.16
333.385	6.11
333.752	6.01
334.119	6.07
334.486	5.99
334.853	6.01
335.22	6.01
335.587	6.1
335.954	5.97
336.32	5.87
336.687	5.84
337.054	5.8
337.42	5.74
337.787	5.8
338.153	5.84
338.52	5.79
338.886	5.71
339.253	5.8
339.619	5.83
339.986	5.82
340.352	5.96
340.718	5.9
341.084	6.02
341.451	5.93
341.817	5.97
342.183	6.01
342.549	5.96
342.915	6.03
343.281	6.07
343.647	6.19
344.013	6.27
344.379	6.18
344.745	6.15
345.11	6.18
345.476	6.17
345.842	6.04
346.208	6.08
346.573	6.21
346.939	6.22
347.304	6.22
347.67	6.16
348.035	6.07
348.401	6.13
348.766	6
349.132	6
349.497	5.81
349.862	5.74
350.228	5.78
350.593	5.79
350.958	5.73
351.323	5.72
351.688	5.71
352.053	5.74
352.418	5.82
352.783	5.81
353.148	5.73
353.513	5.77
353.878	5.75
354.243	5.7
354.608	5.65
354.972	5.61
355.337	5.63
355.702	5.63
356.066	5.67
356.431	5.66
356.795	5.74
357.16	5.81
357.524	5.84
357.889	5.9
358.253	5.94
358.618	5.99
358.982	5.91
359.346	5.81
359.71	5.82
360.075	5.81
360.439	5.83
360.803	5.84
361.167	5.8
361.531	5.8
361.895	5.76
362.259	5.69
362.623	5.72
362.987	5.78
363.351	5.79
363.714	5.78
364.078	5.82
364.442	5.75
364.806	5.74
365.169	5.74
365.533	5.7
365.896	5.6
366.26	5.54
366.623	5.56
366.987	5.59
367.35	5.59
367.714	5.55
368.077	5.46
368.44	5.46
368.803	5.52
369.167	5.54
369.53	5.5
369.893	5.59
370.256	5.52
370.619	5.42
370.982	5.27
371.345	5.24
371.708	5.16
372.071	5.17
372.434	5.12
372.797	5.12
373.159	5.08
373.522	5.14
373.885	5.22
374.247	5.28
374.61	5.3
374.973	5.3
375.335	5.28
375.698	5.29
376.06	5.27
376.423	5.24
376.785	5.24
377.147	5.28
377.51	5.24
377.872	5.25
378.234	5.28
378.596	5.4
378.958	5.38
379.321	5.43
379.683	5.4
380.045	5.44
380.407	5.44
380.769	5.49
381.13	5.45
381.492	5.43
381.854	5.42
382.216	5.47
382.578	5.47
382.939	5.48
383.301	5.5
383.663	5.49
384.024	5.5
384.386	5.47
384.747	5.43
385.109	5.44
385.47	5.44
385.832	5.46
386.193	5.42
386.554	5.42
386.916	5.41
387.277	5.43
387.638	5.44
387.999	5.43
388.36	5.4
388.721	5.42
389.082	5.37
389.443	5.33
389.804	5.3
390.165	5.22
390.526	5.21
390.887	5.17
391.248	5.19
391.609	5.16
391.969	5.17
392.33	5.17
392.691	5.16
393.051	5.13
393.412	5.09
393.772	5.07
394.133	5.1
394.493	5.09
394.854	5.08
395.214	5.07
395.574	5.09
395.935	5.05
396.295	5.06
396.655	5.05
397.015	5.08
397.376	5.06
397.736	5.1
398.096	5.09
398.456	5.07
398.816	5.04
399.176	5.04
399.535	5.04
399.895	5.04
400.255	5.03
400.615	5.06
400.975	5.07
401.334	5.07
401.694	5.03
402.054	4.99
402.413	4.99
402.773	4.96
403.132	4.94
403.492	4.95
403.851	4.93
404.211	4.95
404.57	4.86
404.929	4.87
405.288	4.87
405.648	4.82
406.007	4.85
406.366	4.82
406.725	4.85
407.084	4.84
407.443	4.83
407.802	4.85
408.161	4.83
408.52	4.8
408.879	4.78
409.238	4.78
409.596	4.79
409.955	4.78
410.314	4.77
410.673	4.76
411.031	4.74
411.39	4.73
411.748	4.7
412.107	4.73
412.465	4.73
412.824	4.73
413.182	4.77
413.54	4.72
413.899	4.76
414.257	4.74
414.615	4.71
414.974	4.69
415.332	4.68
415.69	4.69
416.048	4.69
416.406	4.68
416.764	4.67
417.122	4.66
417.48	4.65
417.838	4.67
418.195	4.66
418.553	4.67
418.911	4.67
419.269	4.68
419.626	4.67
419.984	4.65
420.342	4.65
420.699	4.63
421.057	4.65
421.414	4.63
421.772	4.62
422.129	4.62
422.486	4.62
422.844	4.61
423.201	4.58
423.558	4.59
423.915	4.59
424.273	4.59
424.63	4.58
424.987	4.58
425.344	4.56
425.701	4.54
426.058	4.53
426.415	4.52
426.772	4.5
427.128	4.49
427.485	4.48
427.842	4.45
428.199	4.47
428.555	4.43
428.912	4.44
429.269	4.44
429.625	4.45
429.982	4.43
430.338	4.44
430.695	4.45
431.051	4.43
431.407	4.42
431.764	4.42
432.12	4.42
432.476	4.41
432.832	4.42
433.189	4.43
433.545	4.44
433.901	4.43
434.257	4.41
434.613	4.43
434.969	4.45
435.325	4.46
435.681	4.47
436.036	4.48
436.392	4.47
436.748	4.47
437.104	4.45
437.459	4.45
437.815	4.45
438.171	4.43
438.526	4.45
438.882	4.45
439.237	4.46
439.593	4.46
439.948	4.48
440.304	4.47
440.659	4.48
441.014	4.48
441.369	4.46
441.725	4.46
442.08	4.45
442.435	4.47
442.79	4.46
443.145	4.43
443.5	4.44
443.855	4.43
444.21	4.41
444.565	4.42
444.92	4.43
445.275	4.42
445.629	4.42
445.984	4.41
446.339	4.39
446.693	4.36
447.048	4.34
447.403	4.32
447.757	4.3
448.112	4.29
448.466	4.27
448.82	4.27
449.175	4.27
449.529	4.26
449.883	4.25
450.238	4.24
450.592	4.24
450.946	4.21
451.3	4.2
451.654	4.21
452.008	4.2
452.362	4.19
452.716	4.2
453.07	4.2
453.424	4.2
453.778	4.22
454.132	4.23
454.486	4.21
454.839	4.23
455.193	4.21
455.547	4.19
455.9	4.2
456.254	4.23
456.607	4.23
456.961	4.23
457.314	4.23
457.668	4.21
458.021	4.19
458.375	4.21
458.728	4.22
459.081	4.21
459.434	4.2
459.787	4.21
460.141	4.21
460.494	4.19
460.847	4.19
461.2	4.19
461.553	4.19
461.906	4.2
462.259	4.21
462.611	4.23
462.964	4.24
463.317	4.24
463.67	4.24
464.022	4.25
464.375	4.25
464.728	4.26
465.08	4.29
465.433	4.33
465.785	4.34
466.138	4.32
466.49	4.34
466.843	4.35
467.195	4.33
467.547	4.33
467.899	4.34
468.252	4.33
468.604	4.35
468.956	4.36
469.308	4.36
469.66	4.35
470.012	4.36
470.364	4.38
470.716	4.4
471.068	4.4
471.42	4.4
471.772	4.43
472.123	4.43
472.475	4.43
472.827	4.42
473.178	4.42
473.53	4.43
473.882	4.43
474.233	4.45
474.585	4.46
474.936	4.46
475.288	4.45
475.639	4.48
475.99	4.48
476.342	4.49
476.693	4.5
477.044	4.51
477.395	4.49
477.746	4.49
478.097	4.47
478.448	4.45
478.8	4.47
479.15	4.44
479.501	4.44
479.852	4.43
480.203	4.44
480.554	4.44
480.905	4.45
481.255	4.45
481.606	4.46
481.957	4.47
482.307	4.49
482.658	4.48
483.009	4.48
483.359	4.47
483.709	4.48
484.06	4.48
484.41	4.49
484.761	4.5
485.111	4.49
485.461	4.5
485.811	4.5
486.162	4.5
486.512	4.51
486.862	4.51
487.212	4.51
487.562	4.51
487.912	4.52
488.262	4.51
488.612	4.51
488.961	4.51
489.311	4.51
489.661	4.5
490.011	4.5
490.36	4.51
490.71	4.51
491.06	4.5
491.409	4.49
491.759	4.48
492.108	4.49
492.458	4.49
492.807	4.47
493.157	4.49
493.506	4.5
493.855	4.49
494.204	4.49
494.554	4.48
494.903	4.48
495.252	4.47
495.601	4.47
495.95	4.47
496.299	4.48
496.648	4.47
496.997	4.47
497.346	4.48
497.695	4.48
498.043	4.49
498.392	4.5
498.741	4.51
499.09	4.52
499.438	4.52
499.787	4.54
500.135	4.59
500.484	4.6
500.832	4.6
501.181	4.62
501.529	4.65
501.878	4.69
502.226	4.69
502.574	4.7
502.923	4.72
503.271	4.74
503.619	4.76
503.967	4.75
504.315	4.77
504.663	4.79
505.011	4.79
505.359	4.78
505.707	4.8
506.055	4.82
506.403	4.85
506.751	4.86
507.098	4.88
507.446	4.88
507.794	4.88
508.141	4.87
508.489	4.88
508.837	4.88
509.184	4.89
509.531	4.93
509.879	4.97
510.226	4.99
510.574	5
510.921	5.02
511.268	5.05
511.616	5.06
511.963	5.07
512.31	5.1
512.657	5.14
513.004	5.15
513.351	5.17
513.698	5.16
514.045	5.18
514.392	5.22
514.739	5.22
515.086	5.25
515.432	5.28
515.779	5.28
516.126	5.29
516.473	5.31
516.819	5.33
517.166	5.31
517.512	5.32
517.859	5.33
518.205	5.31
518.552	5.34
518.898	5.34
519.245	5.36
519.591	5.38
519.937	5.35
520.283	5.37
520.629	5.37
520.976	5.39
521.322	5.39
521.668	5.38
522.014	5.41
522.36	5.41
522.706	5.42
523.052	5.45
523.398	5.47
523.743	5.45
524.089	5.46
524.435	5.47
524.781	5.47
525.126	5.49
525.472	5.51
525.817	5.52
526.163	5.54
526.509	5.55
526.854	5.57
527.199	5.59
527.545	5.6
527.89	5.61
528.235	5.62
528.581	5.62
528.926	5.63
529.271	5.63
529.616	5.64
529.961	5.66
530.306	5.66
530.651	5.66
530.996	5.68
531.341	5.68
531.686	5.69
532.031	5.7
532.376	5.71
532.721	5.73
533.065	5.74
533.41	5.74
533.755	5.74
534.099	5.74
534.444	5.74
534.788	5.75
535.133	5.76
535.477	5.77
535.822	5.78
536.166	5.77
536.51	5.78
536.855	5.78
537.199	5.77
537.543	5.79
537.887	5.79
538.231	5.79
538.576	5.81
538.92	5.8
539.264	5.81
539.608	5.82
539.951	5.8
540.295	5.8
540.639	5.83
540.983	5.84
541.327	5.84
541.671	5.86
542.014	5.86
542.358	5.87
542.701	5.88
543.045	5.88
543.389	5.9
543.732	5.91
544.075	5.91
544.419	5.94
544.762	5.93
545.105	5.96
545.449	5.97
545.792	5.98
546.135	5.99
546.478	6.01
546.821	6.01
547.165	6.02
547.508	6.02
547.851	5.99
548.194	5.98
548.536	5.97
548.879	5.97
549.222	5.96
549.565	5.98
549.908	5.97
550.25	5.98
550.593	5.99
550.936	6
551.278	6.01
551.621	6
551.963	6.02
552.306	6.04
552.648	6.06
552.991	6.08
553.333	6.08
553.675	6.07
554.017	6.11
554.36	6.11
554.702	6.12
555.044	6.14
555.386	6.2
555.728	6.21
556.07	6.21
556.412	6.21
556.754	6.19
557.096	6.2
557.438	6.18
557.78	6.19
558.121	6.19
558.463	6.2
558.805	6.2
559.147	6.16
559.488	6.15
559.83	6.15
560.171	6.15
560.513	6.18
560.854	6.15
561.196	6.12
561.537	6.13
561.878	6.13
562.22	6.14
562.561	6.1
562.902	6.09
563.243	6.1
563.584	6.13
563.925	6.14
564.266	6.17
564.607	6.2
564.948	6.18
565.289	6.16
565.63	6.16
565.971	6.12
566.312	6.16
566.653	6.15
566.993	6.15
567.334	6.14
567.675	6.15
568.015	6.17
568.356	6.17
568.696	6.19
569.037	6.22
569.377	6.23
569.718	6.24
570.058	6.24
570.398	6.22
570.739	6.22
571.079	6.24
571.419	6.22
571.759	6.23
572.099	6.23
572.439	6.2
572.779	6.22
573.119	6.26
573.459	6.27
573.799	6.28
574.139	6.29
574.479	6.29
574.819	6.28
575.158	6.29
575.498	6.28
575.838	6.28
576.177	6.22
576.517	6.24
576.856	6.28
577.196	6.31
577.535	6.29
577.875	6.27
578.214	6.25
578.553	6.26
578.893	6.23
579.232	6.23
579.571	6.26
579.91	6.26
580.25	6.27
580.589	6.22
580.928	6.25
581.267	6.19
581.606	6.22
581.945	6.22
582.283	6.21
582.622	6.22
582.961	6.2
583.3	6.23
583.639	6.22
583.977	6.2
584.316	6.14
584.654	6.22
584.993	6.24
585.332	6.25
585.67	6.22
586.008	6.23
586.347	6.21
586.685	6.19
587.024	6.17
587.362	6.16
587.7	6.16
588.038	6.16
588.376	6.17
588.715	6.14
589.053	6.15
589.391	6.21
589.729	6.24
590.067	6.25
590.404	6.26
590.742	6.26
591.08	6.2
591.418	6.24
591.756	6.21
592.093	6.2
592.431	6.19
592.769	6.2
593.106	6.22
593.444	6.22
593.781	6.25
594.119	6.26
594.456	6.27
594.793	6.29
595.131	6.26
595.468	6.3
595.805	6.34
596.143	6.35
596.48	6.29
596.817	6.29
597.154	6.33
597.491	6.32
597.828	6.32
598.165	6.37
598.502	6.33
598.839	6.32
599.176	6.31
599.512	6.32
599.849	6.34
600.186	6.36
600.523	6.43
600.859	6.48
601.196	6.47
601.532	6.45
601.869	6.42
602.205	6.42
602.542	6.42
602.878	6.42
603.215	6.4
603.551	6.41
603.887	6.39
604.223	6.35
604.56	6.36
604.896	6.35
605.232	6.36
605.568	6.35
605.904	6.38
606.24	6.41
606.576	6.39
606.912	6.4
607.248	6.36
607.583	6.32
607.919	6.26
608.255	6.26
608.591	6.29
608.926	6.28
609.262	6.31
609.597	6.32
609.933	6.31
610.268	6.33
610.604	6.32
610.939	6.31
611.275	6.34
611.61	6.35
611.945	6.37
612.281	6.36
612.616	6.38
612.951	6.35
613.286	6.35
613.621	6.38
613.956	6.36
614.291	6.41
614.626	6.42
614.961	6.44
615.296	6.47
615.631	6.48
615.966	6.51
616.3	6.54
616.635	6.54
616.97	6.52
617.304	6.46
617.639	6.49
617.973	6.49
618.308	6.5
618.642	6.48
618.977	6.43
619.311	6.4
619.646	6.42
619.98	6.45
620.314	6.44
620.648	6.48
620.983	6.49
621.317	6.48
621.651	6.49
621.985	6.48
622.319	6.48
622.653	6.47
622.987	6.46
623.321	6.46
623.655	6.45
623.988	6.51
624.322	6.53
624.656	6.56
624.99	6.59
625.323	6.59
625.657	6.6
625.99	6.65
626.324	6.72
626.657	6.71
626.991	6.74
627.324	6.74
627.658	6.75
627.991	6.73
628.324	6.7
628.657	6.64
628.991	6.67
629.324	6.7
629.657	6.69
629.99	6.71
630.323	6.69
630.656	6.67
630.989	6.66
631.322	6.65
631.655	6.62
631.987	6.62
632.32	6.62
632.653	6.58
632.986	6.53
633.318	6.49
633.651	6.5
633.984	6.45
634.316	6.47
634.649	6.39
634.981	6.45
635.313	6.49
635.646	6.54
635.978	6.53
636.31	6.48
636.643	6.45
636.975	6.46
637.307	6.47
637.639	6.53
637.971	6.49
638.303	6.5
638.635	6.45
638.967	6.47
639.299	6.55
639.631	6.56
639.963	6.6
640.295	6.65
640.626	6.7
640.958	6.75
641.29	6.71
641.621	6.77
641.953	6.72
642.285	6.7
642.616	6.71
642.948	6.68
643.279	6.71
643.61	6.7
643.942	6.67
644.273	6.63
644.604	6.56
644.936	6.57
645.267	6.62
645.598	6.65
645.929	6.65
646.26	6.61
646.591	6.6
646.922	6.52
647.253	6.46
647.584	6.45
647.915	6.42
648.245	6.5
648.576	6.48
648.907	6.46
649.238	6.51
649.568	6.52
649.899	6.51
650.229	6.5
650.56	6.59
650.89	6.62
651.221	6.67
651.551	6.71
651.882	6.71
652.212	6.7
652.542	6.69
652.872	6.63
653.203	6.55
653.533	6.59
653.863	6.67
654.193	6.73
654.523	6.7
654.853	6.75
655.183	6.72
655.513	6.74
655.843	6.8
656.172	6.76
656.502	6.8
656.832	6.76
657.162	6.77
657.491	6.76
657.821	6.74
658.15	6.72
658.48	6.69
658.809	6.68
659.139	6.62
659.468	6.62
659.798	6.66
660.127	6.69
660.456	6.73
660.785	6.71
661.115	6.64
661.444	6.64
661.773	6.63
662.102	6.55
662.431	6.52
662.76	6.51
663.089	6.48
663.418	6.38
663.747	6.37
664.076	6.4
664.404	6.36
664.733	6.48
665.062	6.51
665.39	6.54
665.719	6.59
666.048	6.66
666.376	6.72
666.705	6.76
667.033	6.73
667.362	6.85
667.69	6.87
668.018	6.91
668.347	6.96
668.675	6.87
669.003	6.9
669.331	7.01
669.659	7
669.987	7.04
670.315	7.08
670.643	7.15
670.971	7.09
671.299	7.16
671.627	6.97
671.955	7
672.283	7.02
672.61	6.96
672.938	7
673.266	7
673.593	6.98
673.921	7.01
674.249	6.84
674.576	6.82
674.904	6.76
675.231	6.68
675.558	6.67
675.886	6.79
676.213	6.71
