Data from BU58127_Reflection_00011.txt Node
Date: Mon Nov 18 16:44:22 EST 2019
User: vgr7
Spectrometer: USB2G7710
Scans to average: 3
Trigger mode: 4
Integration Time (sec): 2.000000E-2
Electric dark correction enabled: true
Boxcar width: 10
XAxis mode: Wavelengths
Number of Pixels in Spectrum: 2048
>>>>>Begin Spectral Data<<<<<
177.721	814.98
178.105	189.2
178.488	228.92
178.871	127.78
179.254	155.14
179.636	23.61
180.019	37.23
180.402	125
180.785	-325.12
181.168	-696.3
181.55	1115.87
181.933	98.17
182.316	105.9
182.698	261.55
183.081	320.77
183.463	404.68
183.846	530.34
184.228	439.47
184.611	319.26
184.993	2019.19
185.376	554.21
185.758	-3848.72
186.14	317.86
186.522	218.97
186.904	145.73
187.287	234.35
187.669	-1047.29
188.051	294.62
188.433	3803.7
188.815	-53.61
189.197	-169.11
189.579	-45.15
189.961	-71.66
190.342	-71.01
190.724	-22.84
191.106	-14.02
191.488	-13.16
191.869	-3.87
192.251	-60.83
192.633	-32.07
193.014	-20.83
193.396	-35.71
193.777	-40.29
194.159	-35.87
194.54	-18.77
194.922	-18.06
195.303	-14.73
195.684	-19.18
196.065	-2.19
196.447	-8.31
196.828	-41.83
197.209	-17.76
197.59	-10.2
197.971	1.78
198.352	11.05
198.733	20.57
199.114	15.63
199.495	4.87
199.876	-0.62
200.257	6.81
200.638	13.52
201.018	9.84
201.399	11.61
201.78	10.68
202.16	-5.97
202.541	0.28
202.922	-8.04
203.302	-13.79
203.683	-11.69
204.063	-23.1
204.444	-9.56
204.824	-2.88
205.204	-11.29
205.585	-23.12
205.965	-19.96
206.345	-25.66
206.725	-30.34
207.106	-30.08
207.486	-31.71
207.866	-29.67
208.246	-27.86
208.626	-52.44
209.006	-54.49
209.386	-51.84
209.766	-52.35
210.145	-22.25
210.525	-8.3
210.905	10.67
211.285	17.39
211.664	32.13
212.044	44.77
212.424	39.11
212.803	50.25
213.183	47.35
213.562	65.36
213.942	52.55
214.321	53.72
214.701	54.6
215.08	49.21
215.459	40.86
215.838	30.49
216.218	38.81
216.597	50.44
216.976	55.67
217.355	62.83
217.734	50.01
218.113	28.76
218.492	17.52
218.871	5.3
219.25	-2.36
219.629	-4.36
220.008	-2.91
220.387	7.45
220.766	-1.09
221.144	-4.51
221.523	-8.42
221.902	-19.36
222.28	-24.83
222.659	-22.86
223.037	-17.41
223.416	-3.97
223.794	1.06
224.173	1.38
224.551	5.41
224.929	-4.8
225.308	-2.38
225.686	1.2
226.064	2.11
226.442	-1.21
226.821	-0.26
227.199	-0.32
227.577	-4.34
227.955	-6.25
228.333	-7.6
228.711	-5.16
229.089	-1.9
229.467	-2.62
229.845	-0.95
230.222	0.73
230.6	1.1
230.978	-0.54
231.356	-0.51
231.733	0.63
232.111	0.97
232.488	-0.39
232.866	-0.22
233.243	0.46
233.621	-0.95
233.998	1.79
234.376	2.13
234.753	3.1
235.13	5.91
235.508	7.59
235.885	6.13
236.262	4.98
236.639	5.09
237.016	5.81
237.393	7.16
237.77	7.61
238.147	7.89
238.524	7.68
238.901	8.25
239.278	7.86
239.655	8.32
240.032	8
240.409	7.69
240.785	7.54
241.162	7.08
241.539	7.48
241.915	7.3
242.292	7.3
242.668	6.82
243.045	6.16
243.421	5.78
243.798	5.83
244.174	5.36
244.551	5.26
244.927	4.94
245.303	5.13
245.679	5
246.056	4.63
246.432	4.53
246.808	4.48
247.184	4.23
247.56	4.03
247.936	3.92
248.312	3.85
248.688	3.91
249.064	3.82
249.44	3.69
249.815	3.77
250.191	3.98
250.567	3.92
250.943	3.83
251.318	3.7
251.694	3.71
252.069	3.82
252.445	3.88
252.82	3.75
253.196	3.37
253.571	3.05
253.947	3.59
254.322	3.75
254.697	3.67
255.073	3.44
255.448	3.32
255.823	3.38
256.198	3.3
256.573	3.31
256.948	3.51
257.323	3.67
257.698	3.58
258.073	3.35
258.448	3.44
258.823	3.45
259.198	3.61
259.573	3.57
259.948	3.56
260.322	3.57
260.697	3.51
261.072	3.37
261.446	3.58
261.821	3.26
262.195	3.14
262.57	3.1
262.944	3.21
263.319	3.18
263.693	3.2
264.067	3.42
264.442	3.49
264.816	3.35
265.19	3.18
265.564	3.12
265.938	3.07
266.313	3.03
266.687	3.07
267.061	2.98
267.435	3.12
267.809	3.2
268.183	3.19
268.556	3.2
268.93	3.35
269.304	3.24
269.678	3.31
270.051	3.33
270.425	3.45
270.799	3.51
271.172	3.62
271.546	3.66
271.919	3.5
272.293	3.49
272.666	3.61
273.04	3.69
273.413	3.7
273.787	3.78
274.16	3.74
274.533	3.87
274.906	3.91
275.279	3.89
275.653	3.82
276.026	3.88
276.399	3.92
276.772	4.06
277.145	4.09
277.518	4.12
277.891	4.25
278.263	4.04
278.636	3.9
279.009	3.91
279.382	3.92
279.755	3.9
280.127	3.93
280.5	3.82
280.872	3.78
281.245	3.63
281.617	3.62
281.99	3.76
282.362	3.65
282.735	3.5
283.107	3.43
283.479	3.45
283.852	3.43
284.224	3.39
284.596	3.32
284.968	3.31
285.34	3.39
285.713	3.28
286.085	3.43
286.457	3.58
286.829	3.48
287.201	3.52
287.572	3.47
287.944	3.39
288.316	3.35
288.688	3.27
289.06	3.36
289.431	3.45
289.803	3.41
290.175	3.31
290.546	3.54
290.918	3.52
291.289	3.57
291.661	3.55
292.032	3.82
292.403	3.7
292.775	3.89
293.146	3.76
293.517	3.82
293.889	3.81
294.26	3.8
294.631	3.88
295.002	3.85
295.373	4.04
295.744	4.16
296.115	4.3
296.486	4.45
296.857	4.45
297.228	4.49
297.599	4.52
297.97	4.71
298.34	4.58
298.711	4.67
299.082	4.71
299.452	4.73
299.823	4.71
300.194	4.85
300.564	4.79
300.935	4.97
301.305	5.04
301.676	5.13
302.046	5.15
302.416	5.39
302.787	5.44
303.157	5.42
303.527	5.62
303.897	5.72
304.267	5.91
304.637	6.07
305.008	6.2
305.378	6.37
305.748	6.59
306.117	6.75
306.487	6.97
306.857	7.11
307.227	7.3
307.597	7.38
307.967	7.5
308.336	7.48
308.706	7.59
309.076	7.7
309.445	7.72
309.815	7.85
310.184	7.86
310.554	7.94
310.923	8.1
311.293	8.13
311.662	8.12
312.031	8.11
312.401	8.2
312.77	8.35
313.139	8.43
313.508	8.36
313.877	8.4
314.246	8.47
314.616	8.57
314.985	8.57
315.353	8.56
315.722	8.79
316.091	8.92
316.46	8.92
316.829	9.02
317.198	9.21
317.567	9.37
317.935	9.33
318.304	9.26
318.672	9.25
319.041	9.28
319.41	9.43
319.778	9.45
320.147	9.51
320.515	9.37
320.883	9.4
321.252	9.49
321.62	9.74
321.988	9.81
322.357	9.87
322.725	10.07
323.093	10.35
323.461	10.31
323.829	10.38
324.197	10.5
324.565	10.63
324.933	10.59
325.301	10.61
325.669	10.69
326.037	10.98
326.405	11.03
326.772	11.08
327.14	11.12
327.508	11.19
327.875	11.25
328.243	11.3
328.61	11.32
328.978	11.32
329.346	11.37
329.713	11.32
330.08	11.45
330.448	11.31
330.815	11.19
331.182	11.16
331.55	11.22
331.917	11.3
332.284	11.35
332.651	11.32
333.018	11.36
333.385	11.51
333.752	11.48
334.119	11.51
334.486	11.65
334.853	11.63
335.22	11.67
335.587	11.64
335.954	11.61
336.32	11.73
336.687	11.87
337.054	11.83
337.42	11.87
337.787	11.81
338.153	11.96
338.52	12.11
338.886	12.19
339.253	12.28
339.619	12.22
339.986	12.21
340.352	12.37
340.718	12.35
341.084	12.29
341.451	12.42
341.817	12.57
342.183	12.41
342.549	12.42
342.915	12.47
343.281	12.5
343.647	12.55
344.013	12.51
344.379	12.51
344.745	12.55
345.11	12.59
345.476	12.61
345.842	12.64
346.208	12.66
346.573	12.67
346.939	12.74
347.304	12.8
347.67	12.81
348.035	12.84
348.401	12.88
348.766	12.93
349.132	12.83
349.497	12.76
349.862	12.83
350.228	12.94
350.593	12.92
350.958	12.87
351.323	12.98
351.688	13
352.053	12.99
352.418	13.05
352.783	12.99
353.148	13
353.513	12.98
353.878	12.93
354.243	12.99
354.608	13.05
354.972	13.03
355.337	13
355.702	12.89
356.066	12.92
356.431	12.89
356.795	12.91
357.16	12.85
357.524	12.78
357.889	12.74
358.253	12.73
358.618	12.76
358.982	12.63
359.346	12.6
359.71	12.62
360.075	12.51
360.439	12.53
360.803	12.54
361.167	12.48
361.531	12.44
361.895	12.36
362.259	12.21
362.623	12.15
362.987	12.06
363.351	12.04
363.714	12.02
364.078	12
364.442	11.96
364.806	11.83
365.169	11.78
365.533	11.72
365.896	11.66
366.26	11.59
366.623	11.6
366.987	11.49
367.35	11.32
367.714	11.27
368.077	11.15
368.44	11.06
368.803	10.95
369.167	10.85
369.53	10.77
369.893	10.71
370.256	10.64
370.619	10.58
370.982	10.43
371.345	10.28
371.708	10.16
372.071	9.98
372.434	9.92
372.797	9.89
373.159	9.77
373.522	9.67
373.885	9.54
374.247	9.42
374.61	9.4
374.973	9.34
375.335	9.26
375.698	9.25
376.06	9.14
376.423	9.04
376.785	8.97
377.147	8.91
377.51	8.83
377.872	8.79
378.234	8.77
378.596	8.78
378.958	8.69
379.321	8.66
379.683	8.61
380.045	8.57
380.407	8.41
380.769	8.32
381.13	8.27
381.492	8.27
381.854	8.22
382.216	8.12
382.578	8.04
382.939	7.92
383.301	7.82
383.663	7.77
384.024	7.73
384.386	7.69
384.747	7.6
385.109	7.56
385.47	7.47
385.832	7.41
386.193	7.36
386.554	7.26
386.916	7.15
387.277	7.13
387.638	7.11
387.999	7.07
388.36	7.03
388.721	6.98
389.082	6.92
389.443	6.83
389.804	6.76
390.165	6.74
390.526	6.72
390.887	6.65
391.248	6.61
391.609	6.56
391.969	6.48
392.33	6.38
392.691	6.32
393.051	6.22
393.412	6.13
393.772	6.04
394.133	6.02
394.493	6
394.854	5.95
395.214	5.83
395.574	5.81
395.935	5.73
396.295	5.66
396.655	5.57
397.015	5.5
397.376	5.47
397.736	5.39
398.096	5.33
398.456	5.3
398.816	5.23
399.176	5.16
399.535	5.13
399.895	5.11
400.255	5.06
400.615	5.09
400.975	5.07
401.334	5.03
401.694	4.98
402.054	4.9
402.413	4.85
402.773	4.85
403.132	4.83
403.492	4.81
403.851	4.8
404.211	4.77
404.57	4.78
404.929	4.73
405.288	4.69
405.648	4.65
406.007	4.62
406.366	4.57
406.725	4.57
407.084	4.53
407.443	4.52
407.802	4.49
408.161	4.43
408.52	4.39
408.879	4.34
409.238	4.35
409.596	4.38
409.955	4.36
410.314	4.37
410.673	4.32
411.031	4.29
411.39	4.24
411.748	4.25
412.107	4.23
412.465	4.2
412.824	4.19
413.182	4.18
413.54	4.17
413.899	4.16
414.257	4.14
414.615	4.13
414.974	4.12
415.332	4.12
415.69	4.09
416.048	4.07
416.406	4.09
416.764	4.04
417.122	4.02
417.48	3.97
417.838	3.93
418.195	3.93
418.553	3.91
418.911	3.88
419.269	3.86
419.626	3.83
419.984	3.81
420.342	3.81
420.699	3.77
421.057	3.75
421.414	3.73
421.772	3.7
422.129	3.68
422.486	3.67
422.844	3.66
423.201	3.64
423.558	3.63
423.915	3.61
424.273	3.6
424.63	3.56
424.987	3.57
425.344	3.56
425.701	3.55
426.058	3.53
426.415	3.53
426.772	3.5
427.128	3.49
427.485	3.49
427.842	3.48
428.199	3.5
428.555	3.49
428.912	3.47
429.269	3.48
429.625	3.46
429.982	3.44
430.338	3.43
430.695	3.45
431.051	3.44
431.407	3.43
431.764	3.44
432.12	3.44
432.476	3.43
432.832	3.43
433.189	3.44
433.545	3.43
433.901	3.43
434.257	3.44
434.613	3.44
434.969	3.44
435.325	3.44
435.681	3.41
436.036	3.42
436.392	3.41
436.748	3.41
437.104	3.41
437.459	3.38
437.815	3.38
438.171	3.36
438.526	3.35
438.882	3.35
439.237	3.36
439.593	3.39
439.948	3.37
440.304	3.36
440.659	3.35
441.014	3.36
441.369	3.36
441.725	3.34
442.08	3.35
442.435	3.34
442.79	3.31
443.145	3.32
443.5	3.31
443.855	3.31
444.21	3.29
444.565	3.28
444.92	3.3
445.275	3.29
445.629	3.29
445.984	3.3
446.339	3.28
446.693	3.24
447.048	3.21
447.403	3.21
447.757	3.2
448.112	3.18
448.466	3.17
448.82	3.16
449.175	3.16
449.529	3.14
449.883	3.12
450.238	3.13
450.592	3.11
450.946	3.1
451.3	3.09
451.654	3.11
452.008	3.1
452.362	3.09
452.716	3.06
453.07	3.06
453.424	3.04
453.778	3.04
454.132	3.06
454.486	3.04
454.839	3.04
455.193	3.04
455.547	3.04
455.9	3.01
456.254	3.03
456.607	3.02
456.961	3.02
457.314	3.01
457.668	3.02
458.021	3.03
458.375	3.04
458.728	3.04
459.081	3.03
459.434	3.03
459.787	3.03
460.141	3.05
460.494	3.05
460.847	3.06
461.2	3.06
461.553	3.05
461.906	3.09
462.259	3.09
462.611	3.08
462.964	3.1
463.317	3.14
463.67	3.14
464.022	3.15
464.375	3.15
464.728	3.17
465.08	3.16
465.433	3.15
465.785	3.14
466.138	3.16
466.49	3.16
466.843	3.18
467.195	3.17
467.547	3.18
467.899	3.18
468.252	3.19
468.604	3.21
468.956	3.2
469.308	3.2
469.66	3.2
470.012	3.23
470.364	3.25
470.716	3.25
471.068	3.28
471.42	3.28
471.772	3.31
472.123	3.32
472.475	3.35
472.827	3.36
473.178	3.39
473.53	3.38
473.882	3.41
474.233	3.41
474.585	3.43
474.936	3.44
475.288	3.46
475.639	3.46
475.99	3.45
476.342	3.45
476.693	3.45
477.044	3.49
477.395	3.47
477.746	3.45
478.097	3.44
478.448	3.42
478.8	3.43
479.15	3.42
479.501	3.4
479.852	3.38
480.203	3.39
480.554	3.39
480.905	3.4
481.255	3.4
481.606	3.4
481.957	3.4
482.307	3.38
482.658	3.38
483.009	3.37
483.359	3.37
483.709	3.38
484.06	3.38
484.41	3.36
484.761	3.36
485.111	3.37
485.461	3.36
485.811	3.36
486.162	3.36
486.512	3.36
486.862	3.36
487.212	3.36
487.562	3.36
487.912	3.36
488.262	3.35
488.612	3.35
488.961	3.34
489.311	3.35
489.661	3.36
490.011	3.35
490.36	3.35
490.71	3.35
491.06	3.34
491.409	3.36
491.759	3.36
492.108	3.38
492.458	3.39
492.807	3.4
493.157	3.41
493.506	3.42
493.855	3.43
494.204	3.44
494.554	3.47
494.903	3.46
495.252	3.48
495.601	3.51
495.95	3.52
496.299	3.53
496.648	3.55
496.997	3.57
497.346	3.62
497.695	3.67
498.043	3.7
498.392	3.75
498.741	3.77
499.09	3.8
499.438	3.83
499.787	3.87
500.135	3.92
500.484	3.95
500.832	3.99
501.181	4.04
501.529	4.09
501.878	4.12
502.226	4.2
502.574	4.24
502.923	4.3
503.271	4.37
503.619	4.44
503.967	4.49
504.315	4.53
504.663	4.59
505.011	4.61
505.359	4.68
505.707	4.74
506.055	4.8
506.403	4.85
506.751	4.92
507.098	4.99
507.446	5.1
507.794	5.16
508.141	5.23
508.489	5.28
508.837	5.37
509.184	5.47
509.531	5.56
509.879	5.67
510.226	5.76
510.574	5.82
510.921	5.89
511.268	5.98
511.616	6.07
511.963	6.17
512.31	6.28
512.657	6.39
513.004	6.48
513.351	6.59
513.698	6.69
514.045	6.79
514.392	6.91
514.739	6.99
515.086	7.13
515.432	7.26
515.779	7.37
516.126	7.49
516.473	7.6
516.819	7.69
517.166	7.78
517.512	7.9
517.859	8.03
518.205	8.15
518.552	8.26
518.898	8.35
519.245	8.45
519.591	8.56
519.937	8.64
520.283	8.75
520.629	8.89
520.976	9.02
521.322	9.18
521.668	9.3
522.014	9.45
522.36	9.59
522.706	9.74
523.052	9.89
523.398	10.05
523.743	10.22
524.089	10.4
524.435	10.55
524.781	10.71
525.126	10.82
525.472	10.94
525.817	11.07
526.163	11.19
526.509	11.29
526.854	11.39
527.199	11.5
527.545	11.59
527.89	11.67
528.235	11.77
528.581	11.85
528.926	11.96
529.271	12.05
529.616	12.14
529.961	12.23
530.306	12.36
530.651	12.45
530.996	12.56
531.341	12.67
531.686	12.8
532.031	12.91
532.376	13.05
532.721	13.19
533.065	13.33
533.41	13.47
533.755	13.64
534.099	13.78
534.444	13.93
534.788	14.09
535.133	14.24
535.477	14.4
535.822	14.57
536.166	14.74
536.51	14.91
536.855	15.11
537.199	15.32
537.543	15.48
537.887	15.72
538.231	15.91
538.576	16.09
538.92	16.28
539.264	16.47
539.608	16.63
539.951	16.8
540.295	16.97
540.639	17.12
540.983	17.28
541.327	17.44
541.671	17.59
542.014	17.75
542.358	17.92
542.701	18.09
543.045	18.23
543.389	18.38
543.732	18.58
544.075	18.74
544.419	18.94
544.762	19.12
545.105	19.29
545.449	19.51
545.792	19.75
546.135	19.98
546.478	20.22
546.821	20.49
547.165	20.73
547.508	20.99
547.851	21.23
548.194	21.48
548.536	21.73
548.879	22
549.222	22.26
549.565	22.53
549.908	22.79
550.25	23.08
550.593	23.36
550.936	23.61
551.278	23.92
551.621	24.19
551.963	24.48
552.306	24.74
552.648	24.99
552.991	25.22
553.333	25.5
553.675	25.71
554.017	25.96
554.36	26.23
554.702	26.52
555.044	26.78
555.386	27.09
555.728	27.4
556.07	27.73
556.412	27.98
556.754	28.23
557.096	28.52
557.438	28.79
557.78	29.14
558.121	29.44
558.463	29.76
558.805	30.04
559.147	30.34
559.488	30.69
559.83	31.02
560.171	31.34
560.513	31.63
560.854	31.96
561.196	32.29
561.537	32.55
561.878	32.82
562.22	33.17
562.561	33.47
562.902	33.76
563.243	34.01
563.584	34.34
563.925	34.65
564.266	34.99
564.607	35.22
564.948	35.46
565.289	35.7
565.63	35.96
565.971	36.24
566.312	36.51
566.653	36.75
566.993	36.98
567.334	37.24
567.675	37.55
568.015	37.85
568.356	38.08
568.696	38.43
569.037	38.67
569.377	38.88
569.718	39.11
570.058	39.34
570.398	39.57
570.739	39.82
571.079	40.06
571.419	40.2
571.759	40.49
572.099	40.74
572.439	40.98
572.779	41.18
573.119	41.39
573.459	41.62
573.799	41.84
574.139	42.1
574.479	42.35
574.819	42.5
575.158	42.68
575.498	42.88
575.838	43.03
576.177	43.24
576.517	43.48
576.856	43.65
577.196	43.86
577.535	44.18
577.875	44.4
578.214	44.66
578.553	45.02
578.893	45.18
579.232	45.39
579.571	45.59
579.91	45.79
580.25	46.05
580.589	46.29
580.928	46.55
581.267	46.74
581.606	46.85
581.945	47.05
582.283	47.24
582.622	47.44
582.961	47.69
583.3	47.93
583.639	48.16
583.977	48.38
584.316	48.51
584.654	48.57
584.993	48.74
585.332	48.94
585.67	49.01
586.008	49.23
586.347	49.31
586.685	49.5
587.024	49.65
587.362	49.77
587.7	49.86
588.038	49.94
588.376	50.06
588.715	50.24
589.053	50.44
589.391	50.56
589.729	50.75
590.067	50.82
590.404	50.94
590.742	51.05
591.08	51.24
591.418	51.39
591.756	51.59
592.093	51.72
592.431	51.73
592.769	51.87
593.106	52
593.444	52.1
593.781	52.16
594.119	52.26
594.456	52.36
594.793	52.46
595.131	52.54
595.468	52.63
595.805	52.74
596.143	52.84
596.48	52.93
596.817	53.05
597.154	53.17
597.491	53.26
597.828	53.36
598.165	53.37
598.502	53.51
598.839	53.52
599.176	53.57
599.512	53.76
599.849	53.83
600.186	53.86
600.523	54.02
600.859	54.18
601.196	54.27
601.532	54.44
601.869	54.55
602.205	54.67
602.542	54.79
602.878	54.84
603.215	54.87
603.551	54.95
603.887	54.97
604.223	54.99
604.56	55.04
604.896	55.1
605.232	55.14
605.568	55.18
605.904	55.2
606.24	55.3
606.576	55.34
606.912	55.46
607.248	55.58
607.583	55.59
607.919	55.69
608.255	55.75
608.591	55.8
608.926	55.85
609.262	55.9
609.597	55.95
609.933	56.01
610.268	56.06
610.604	56.04
610.939	56.09
611.275	56.18
611.61	56.22
611.945	56.22
612.281	56.26
612.616	56.35
612.951	56.49
613.286	56.59
613.621	56.59
613.956	56.63
614.291	56.76
614.626	56.92
614.961	56.85
615.296	56.91
615.631	57
615.966	57.03
616.3	57.05
616.635	57.13
616.97	57.13
617.304	57.2
617.639	57.31
617.973	57.37
618.308	57.42
618.642	57.45
618.977	57.52
619.311	57.73
619.646	57.79
619.98	57.8
620.314	57.82
620.648	57.84
620.983	57.83
621.317	57.83
621.651	57.83
621.985	57.9
622.319	57.96
622.653	57.96
622.987	58.02
623.321	58.12
623.655	58.13
623.988	58.29
624.322	58.37
624.656	58.26
624.99	58.19
625.323	58.24
625.657	58.25
625.99	58.38
626.324	58.37
626.657	58.39
626.991	58.57
627.324	58.56
627.658	58.65
627.991	58.71
628.324	58.75
628.657	58.78
628.991	58.93
629.324	58.95
629.657	58.97
629.99	58.97
630.323	58.97
630.656	59.04
630.989	59
631.322	58.84
631.655	58.99
631.987	58.99
632.32	59.07
632.653	59.09
632.986	59.02
633.318	59.01
633.651	59.05
633.984	58.86
634.316	58.82
634.649	58.78
634.981	58.71
635.313	58.59
635.646	58.62
635.978	58.6
636.31	58.57
636.643	58.57
636.975	58.62
637.307	58.58
637.639	58.55
637.971	58.58
638.303	58.7
638.635	58.81
638.967	59.02
639.299	58.98
639.631	58.97
639.963	58.92
640.295	58.83
640.626	58.75
640.958	58.99
641.29	59.1
641.621	59.22
641.953	59.44
642.285	59.49
642.616	59.44
642.948	59.45
643.279	59.38
643.61	59.44
643.942	59.47
644.273	59.57
644.604	59.52
644.936	59.5
645.267	59.5
645.598	59.42
645.929	59.41
646.26	59.36
646.591	59.38
646.922	59.52
647.253	59.55
647.584	59.66
647.915	59.51
648.245	59.5
648.576	59.56
648.907	59.52
649.238	59.59
649.568	59.66
649.899	59.7
650.229	59.87
650.56	59.81
650.89	59.93
651.221	59.92
651.551	59.99
651.882	59.99
652.212	60.07
652.542	60.13
652.872	59.95
653.203	60.07
653.533	60.19
653.863	60.17
654.193	60.31
654.523	60.21
654.853	60.25
655.183	60.22
655.513	60.09
655.843	60.03
656.172	60.09
656.502	60.06
656.832	60.02
657.162	59.96
657.491	60.06
657.821	59.98
658.15	59.97
658.48	60.06
658.809	60.05
659.139	60.15
659.468	60.1
659.798	60.3
660.127	60.33
660.456	60.34
660.785	60.33
661.115	60.39
661.444	60.39
661.773	60.36
662.102	60.4
662.431	60.55
662.76	60.55
663.089	60.39
663.418	60.47
663.747	60.4
664.076	60.51
664.404	60.39
664.733	60.4
665.062	60.21
665.39	60.16
