Data from BU58129_Reflection_00003.txt Node
Date: Mon Nov 18 16:34:54 EST 2019
User: vgr7
Spectrometer: USB2G7710
Scans to average: 3
Trigger mode: 4
Integration Time (sec): 2.000000E-2
Electric dark correction enabled: true
Boxcar width: 10
XAxis mode: Wavelengths
Number of Pixels in Spectrum: 2048
>>>>>Begin Spectral Data<<<<<
177.721	79.93
178.105	57.26
178.488	-62.74
178.871	-205.56
179.254	85.51
179.636	-8.75
180.019	-280.12
180.402	200
180.785	-120.56
181.168	-526.98
181.55	-57.51
181.933	71.65
182.316	47.04
182.698	-5.6
183.081	-23.12
183.463	-29.69
183.846	-72.53
184.228	-292.33
184.611	-2722.22
184.993	178.14
185.376	121.99
185.758	153.91
186.14	126.72
186.522	19.23
186.904	106.54
187.287	55.97
187.669	49.91
188.051	-123.44
188.433	-307.41
188.815	-1122.22
189.197	-200.33
189.579	-560.61
189.961	-651.94
190.342	-142.58
190.724	-317.62
191.106	-319.91
191.488	-105.6
191.869	-104.63
192.251	-22.11
192.633	8.83
193.014	14.32
193.396	22.53
193.777	35.33
194.159	22.5
194.54	-4.81
194.922	6.75
195.303	-9.32
195.684	47.44
196.065	32.45
196.447	106.44
196.828	283.97
197.209	159.57
197.59	192.33
197.971	159.83
198.352	-470.62
198.733	545.69
199.114	-822.48
199.495	-106.04
199.876	-35.91
200.257	26.03
200.638	56.57
201.018	12.01
201.399	21.88
201.78	17.91
202.16	-0.74
202.541	-139.37
202.922	-382.99
203.302	433.33
203.683	97.88
204.063	355.41
204.444	335.77
204.824	68.04
205.204	-1166.67
205.585	258.47
205.965	496.08
206.345	827.89
206.725	449.02
207.106	161.56
207.486	290.65
207.866	589.76
208.246	1419.25
208.626	735.99
209.006	6077.78
209.386	1249.02
209.766	397.37
210.145	727.04
210.525	-2178.91
210.905	-6233.33
211.285	-614.94
211.664	-191.09
212.044	-306.54
212.424	-551.42
212.803	-2031.78
213.183	-480.25
213.562	-341.93
213.942	-60.73
214.321	-103.25
214.701	-91.92
215.08	-69.78
215.459	-99.65
215.838	-64.85
216.218	-162.93
216.597	-47.04
216.976	-76.38
217.355	-42.39
217.734	-31.14
218.113	-29.84
218.492	12.41
218.871	17.66
219.25	-9.27
219.629	-28.41
220.008	-35.09
220.387	-22.23
220.766	-24.28
221.144	-58.79
221.523	-77.27
221.902	-140.52
222.28	-129.68
222.659	-93.54
223.037	-89.02
223.416	-64.02
223.794	-61.74
224.173	-53.21
224.551	-43.92
224.929	-49.07
225.308	-33.48
225.686	-31.16
226.064	-22.27
226.442	-22.81
226.821	-17.42
227.199	-10.34
227.577	-12.03
227.955	-9.98
228.333	-10.52
228.711	-8.9
229.089	-3.01
229.467	-3.42
229.845	-3.35
230.222	0.64
230.6	-0.88
230.978	-0.51
231.356	-0.24
231.733	-0.61
232.111	0
232.488	0.75
232.866	1.93
233.243	1.94
233.621	1.8
233.998	3.26
234.376	1.54
234.753	1.86
235.13	0.75
235.508	1.72
235.885	1.46
236.262	0.84
236.639	0.63
237.016	0.59
237.393	3.11
237.77	3.7
238.147	3.54
238.524	3.72
238.901	3.75
239.278	3.91
239.655	5
240.032	5.9
240.409	4.88
240.785	4.59
241.162	4.06
241.539	3.9
241.915	3.62
242.292	3.91
242.668	3.98
243.045	3.96
243.421	3.87
243.798	4.11
244.174	4.21
244.551	4.49
244.927	4.48
245.303	4.39
245.679	4.66
246.056	4.6
246.432	4.54
246.808	4.63
247.184	4.4
247.56	4.19
247.936	3.95
248.312	3.93
248.688	4.05
249.064	4.24
249.44	4.53
249.815	4.54
250.191	4.57
250.567	4.48
250.943	4.45
251.318	4.56
251.694	4.69
252.069	4.59
252.445	4.53
252.82	4.38
253.196	4.27
253.571	4.13
253.947	4.29
254.322	4.6
254.697	4
255.073	4.07
255.448	3.64
255.823	3.58
256.198	3.76
256.573	3.69
256.948	3.6
257.323	3.44
257.698	3.34
258.073	3.07
258.448	3.1
258.823	2.99
259.198	2.81
259.573	2.66
259.948	2.65
260.322	2.71
260.697	2.61
261.072	2.59
261.446	2.51
261.821	2.45
262.195	2.31
262.57	2.44
262.944	2.28
263.319	2.42
263.693	2.56
264.067	2.55
264.442	2.7
264.816	2.49
265.19	2.44
265.564	2.41
265.938	2.4
266.313	2.38
266.687	2.69
267.061	3.02
267.435	3.06
267.809	3.2
268.183	3.15
268.556	3.27
268.93	3.39
269.304	3.51
269.678	3.54
270.051	3.46
270.425	3.59
270.799	3.64
271.172	3.63
271.546	3.65
271.919	3.53
272.293	3.5
272.666	3.62
273.04	3.71
273.413	3.75
273.787	3.84
274.16	3.66
274.533	3.55
274.906	3.37
275.279	3.36
275.653	3.21
276.026	3.25
276.399	3.23
276.772	3.4
277.145	3.37
277.518	3.25
277.891	3.32
278.263	3.16
278.636	3.28
279.009	3.27
279.382	3.34
279.755	3.22
280.127	3.23
280.5	3.29
280.872	3.28
281.245	3.3
281.617	3.41
281.99	3.64
282.362	3.71
282.735	3.78
283.107	3.71
283.479	3.8
283.852	3.73
284.224	3.88
284.596	3.71
284.968	3.72
285.34	3.77
285.713	3.72
286.085	3.83
286.457	3.89
286.829	4.02
287.201	3.87
287.572	4
287.944	3.96
288.316	3.96
288.688	3.98
289.06	3.98
289.431	4.06
289.803	4.09
290.175	4.06
290.546	4.1
290.918	4.27
291.289	4.27
291.661	4.3
292.032	4.2
292.403	4.23
292.775	4.19
293.146	4.17
293.517	4.27
293.889	4.22
294.26	4.12
294.631	4.06
295.002	4.12
295.373	4.09
295.744	4.04
296.115	4.15
296.486	4.04
296.857	4.02
297.228	4.02
297.599	3.94
297.97	4.05
298.34	4.01
298.711	4.03
299.082	4.07
299.452	4.11
299.823	4.15
300.194	4.16
300.564	4.08
300.935	4.27
301.305	4.26
301.676	4.31
302.046	4.43
302.416	4.54
302.787	4.5
303.157	4.51
303.527	4.58
303.897	4.4
304.267	4.5
304.637	4.67
305.008	4.47
305.378	4.48
305.748	4.26
306.117	4.13
306.487	4.05
306.857	4.07
307.227	3.94
307.597	3.93
307.967	3.86
308.336	4.02
308.706	3.84
309.076	3.85
309.445	3.77
309.815	3.62
310.184	3.38
310.554	3.5
310.923	3.5
311.293	3.49
311.662	3.54
312.031	3.44
312.401	3.3
312.77	3.45
313.139	3.48
313.508	3.61
313.877	3.66
314.246	3.74
314.616	3.64
314.985	3.79
315.353	3.73
315.722	3.77
316.091	3.62
316.46	3.5
316.829	3.5
317.198	3.46
317.567	3.5
317.935	3.49
318.304	3.41
318.672	3.53
319.041	3.54
319.41	3.55
319.778	3.68
320.147	3.65
320.515	3.49
320.883	3.47
321.252	3.54
321.62	3.6
321.988	3.44
322.357	3.57
322.725	3.37
323.093	3.53
323.461	3.42
323.829	3.47
324.197	3.7
324.565	3.82
324.933	3.98
325.301	4.15
325.669	4.39
326.037	4.32
326.405	4.27
326.772	4.31
327.14	4.35
327.508	4.25
327.875	4.26
328.243	4.33
328.61	4.34
328.978	4.34
329.346	4.31
329.713	4.34
330.08	4.32
330.448	4.32
330.815	4.01
331.182	4.07
331.55	4.19
331.917	4.03
332.284	4.05
332.651	3.91
333.018	3.84
333.385	3.68
333.752	3.76
334.119	3.71
334.486	3.63
334.853	3.57
335.22	3.64
335.587	3.73
335.954	3.66
336.32	3.66
336.687	3.59
337.054	3.58
337.42	3.57
337.787	3.54
338.153	3.61
338.52	3.86
338.886	3.82
339.253	3.68
339.619	3.69
339.986	3.54
340.352	3.65
340.718	3.57
341.084	3.61
341.451	3.62
341.817	3.68
342.183	3.68
342.549	3.68
342.915	3.77
343.281	3.7
343.647	3.73
344.013	3.68
344.379	3.69
344.745	3.8
345.11	3.81
345.476	3.82
345.842	3.77
346.208	3.69
346.573	3.73
346.939	3.79
347.304	3.79
347.67	3.81
348.035	3.67
348.401	3.64
348.766	3.73
349.132	3.7
349.497	3.7
349.862	3.78
350.228	3.79
350.593	3.63
350.958	3.69
351.323	3.77
351.688	3.69
352.053	3.71
352.418	3.66
352.783	3.67
353.148	3.57
353.513	3.61
353.878	3.68
354.243	3.75
354.608	3.74
354.972	3.74
355.337	3.75
355.702	3.86
356.066	3.95
356.431	3.92
356.795	3.96
357.16	3.92
357.524	3.78
357.889	3.7
358.253	3.77
358.618	3.72
358.982	3.69
359.346	3.76
359.71	3.73
360.075	3.74
360.439	3.8
360.803	3.83
361.167	3.8
361.531	3.77
361.895	3.7
362.259	3.66
362.623	3.72
362.987	3.69
363.351	3.68
363.714	3.68
364.078	3.63
364.442	3.59
364.806	3.6
365.169	3.62
365.533	3.69
365.896	3.65
366.26	3.61
366.623	3.55
366.987	3.48
367.35	3.48
367.714	3.42
368.077	3.32
368.44	3.36
368.803	3.43
369.167	3.34
369.53	3.37
369.893	3.39
370.256	3.36
370.619	3.4
370.982	3.33
371.345	3.24
371.708	3.32
372.071	3.35
372.434	3.33
372.797	3.39
373.159	3.37
373.522	3.38
373.885	3.43
374.247	3.44
374.61	3.52
374.973	3.5
375.335	3.56
375.698	3.62
376.06	3.58
376.423	3.58
376.785	3.62
377.147	3.61
377.51	3.64
377.872	3.7
378.234	3.66
378.596	3.7
378.958	3.74
379.321	3.71
379.683	3.73
380.045	3.76
380.407	3.74
380.769	3.76
381.13	3.78
381.492	3.79
381.854	3.84
382.216	3.79
382.578	3.81
382.939	3.75
383.301	3.74
383.663	3.8
384.024	3.76
384.386	3.78
384.747	3.8
385.109	3.79
385.47	3.72
385.832	3.79
386.193	3.82
386.554	3.84
386.916	3.81
387.277	3.79
387.638	3.77
387.999	3.81
388.36	3.83
388.721	3.86
389.082	3.84
389.443	3.8
389.804	3.83
390.165	3.8
390.526	3.85
390.887	3.83
391.248	3.82
391.609	3.82
391.969	3.81
392.33	3.82
392.691	3.82
393.051	3.85
393.412	3.82
393.772	3.76
394.133	3.76
394.493	3.78
394.854	3.78
395.214	3.79
395.574	3.79
395.935	3.78
396.295	3.78
396.655	3.76
397.015	3.78
397.376	3.8
397.736	3.82
398.096	3.81
398.456	3.82
398.816	3.79
399.176	3.79
399.535	3.79
399.895	3.77
400.255	3.75
400.615	3.76
400.975	3.76
401.334	3.78
401.694	3.76
402.054	3.74
402.413	3.74
402.773	3.72
403.132	3.72
403.492	3.74
403.851	3.71
404.211	3.74
404.57	3.74
404.929	3.73
405.288	3.73
405.648	3.74
406.007	3.74
406.366	3.75
406.725	3.8
407.084	3.8
407.443	3.81
407.802	3.85
408.161	3.82
408.52	3.8
408.879	3.79
409.238	3.81
409.596	3.79
409.955	3.78
410.314	3.81
410.673	3.79
411.031	3.77
411.39	3.78
411.748	3.77
412.107	3.75
412.465	3.76
412.824	3.75
413.182	3.75
413.54	3.77
413.899	3.77
414.257	3.74
414.615	3.75
414.974	3.77
415.332	3.74
415.69	3.74
416.048	3.73
416.406	3.74
416.764	3.73
417.122	3.77
417.48	3.77
417.838	3.77
418.195	3.78
418.553	3.79
418.911	3.8
419.269	3.8
419.626	3.81
419.984	3.79
420.342	3.8
420.699	3.79
421.057	3.78
421.414	3.74
421.772	3.74
422.129	3.73
422.486	3.73
422.844	3.73
423.201	3.72
423.558	3.74
423.915	3.74
424.273	3.74
424.63	3.74
424.987	3.73
425.344	3.74
425.701	3.72
426.058	3.71
426.415	3.71
426.772	3.7
427.128	3.68
427.485	3.68
427.842	3.68
428.199	3.7
428.555	3.71
428.912	3.74
429.269	3.74
429.625	3.77
429.982	3.77
430.338	3.77
430.695	3.79
431.051	3.77
431.407	3.75
431.764	3.75
432.12	3.74
432.476	3.75
432.832	3.73
433.189	3.76
433.545	3.75
433.901	3.73
434.257	3.75
434.613	3.78
434.969	3.8
435.325	3.78
435.681	3.77
436.036	3.77
436.392	3.75
436.748	3.76
437.104	3.74
437.459	3.73
437.815	3.73
438.171	3.72
438.526	3.73
438.882	3.74
439.237	3.73
439.593	3.73
439.948	3.73
440.304	3.74
440.659	3.75
441.014	3.77
441.369	3.78
441.725	3.75
442.08	3.75
442.435	3.75
442.79	3.74
443.145	3.75
443.5	3.73
443.855	3.73
444.21	3.72
444.565	3.73
444.92	3.74
445.275	3.74
445.629	3.75
445.984	3.76
446.339	3.75
446.693	3.74
447.048	3.74
447.403	3.73
447.757	3.71
448.112	3.7
448.466	3.68
448.82	3.67
449.175	3.69
449.529	3.69
449.883	3.68
450.238	3.68
450.592	3.68
450.946	3.69
451.3	3.7
451.654	3.69
452.008	3.7
452.362	3.68
452.716	3.68
453.07	3.68
453.424	3.68
453.778	3.7
454.132	3.73
454.486	3.71
454.839	3.71
455.193	3.72
455.547	3.71
455.9	3.71
456.254	3.74
456.607	3.75
456.961	3.74
457.314	3.75
457.668	3.76
458.021	3.75
458.375	3.75
458.728	3.75
459.081	3.76
459.434	3.75
459.787	3.76
460.141	3.78
460.494	3.77
460.847	3.76
461.2	3.76
461.553	3.73
461.906	3.76
462.259	3.77
462.611	3.78
462.964	3.79
463.317	3.79
463.67	3.76
464.022	3.74
464.375	3.74
464.728	3.74
465.08	3.74
465.433	3.75
465.785	3.75
466.138	3.75
466.49	3.74
466.843	3.77
467.195	3.77
467.547	3.75
467.899	3.74
468.252	3.74
468.604	3.73
468.956	3.74
469.308	3.74
469.66	3.72
470.012	3.71
470.364	3.73
470.716	3.74
471.068	3.76
471.42	3.76
471.772	3.8
472.123	3.8
472.475	3.77
472.827	3.78
473.178	3.78
473.53	3.78
473.882	3.8
474.233	3.79
474.585	3.79
474.936	3.77
475.288	3.78
475.639	3.8
475.99	3.8
476.342	3.82
476.693	3.81
477.044	3.82
477.395	3.82
477.746	3.8
478.097	3.8
478.448	3.78
478.8	3.79
479.15	3.77
479.501	3.78
479.852	3.82
480.203	3.82
480.554	3.82
480.905	3.83
481.255	3.83
481.606	3.82
481.957	3.83
482.307	3.83
482.658	3.84
483.009	3.84
483.359	3.85
483.709	3.84
484.06	3.84
484.41	3.86
484.761	3.86
485.111	3.87
485.461	3.87
485.811	3.88
486.162	3.87
486.512	3.87
486.862	3.87
487.212	3.86
487.562	3.85
487.912	3.85
488.262	3.84
488.612	3.84
488.961	3.85
489.311	3.84
489.661	3.85
490.011	3.85
490.36	3.84
490.71	3.84
491.06	3.84
491.409	3.83
491.759	3.83
492.108	3.82
492.458	3.82
492.807	3.83
493.157	3.83
493.506	3.83
493.855	3.83
494.204	3.82
494.554	3.82
494.903	3.82
495.252	3.82
495.601	3.83
495.95	3.84
496.299	3.84
496.648	3.83
496.997	3.81
497.346	3.82
497.695	3.84
498.043	3.83
498.392	3.82
498.741	3.83
499.09	3.82
499.438	3.81
499.787	3.83
500.135	3.82
500.484	3.8
500.832	3.8
501.181	3.81
501.529	3.81
501.878	3.8
502.226	3.82
502.574	3.84
502.923	3.83
503.271	3.81
503.619	3.82
503.967	3.84
504.315	3.85
504.663	3.86
505.011	3.86
505.359	3.88
505.707	3.91
506.055	3.93
506.403	3.93
506.751	3.94
507.098	3.93
507.446	3.94
507.794	3.94
508.141	3.96
508.489	3.97
508.837	3.99
509.184	4.01
509.531	4.01
509.879	4.03
510.226	4.04
510.574	4.06
510.921	4.06
511.268	4.06
511.616	4.05
511.963	4.04
512.31	4.04
512.657	4.05
513.004	4.04
513.351	4.04
513.698	4.04
514.045	4.02
514.392	4.02
514.739	4.01
515.086	4.01
515.432	3.98
515.779	3.97
516.126	3.97
516.473	3.96
516.819	3.95
517.166	3.93
517.512	3.93
517.859	3.95
518.205	3.93
518.552	3.94
518.898	3.95
519.245	3.95
519.591	3.93
519.937	3.93
520.283	3.94
520.629	3.95
520.976	3.96
521.322	3.97
521.668	3.98
522.014	3.99
522.36	4
522.706	4.03
523.052	4.03
523.398	4.04
523.743	4.04
524.089	4.03
524.435	4.01
524.781	4.01
525.126	4.01
525.472	4.03
525.817	4.03
526.163	4.04
526.509	4.05
526.854	4.05
527.199	4.05
527.545	4.04
527.89	4.03
528.235	4.03
528.581	4.04
528.926	4.05
529.271	4.04
529.616	4.05
529.961	4.04
530.306	4.06
530.651	4.05
530.996	4.06
531.341	4.06
531.686	4.07
532.031	4.08
532.376	4.08
532.721	4.07
533.065	4.09
533.41	4.09
533.755	4.09
534.099	4.09
534.444	4.08
534.788	4.1
535.133	4.1
535.477	4.11
535.822	4.09
536.166	4.08
536.51	4.08
536.855	4.1
537.199	4.1
537.543	4.09
537.887	4.09
538.231	4.08
538.576	4.07
538.92	4.09
539.264	4.08
539.608	4.08
539.951	4.07
540.295	4.04
540.639	4.02
540.983	4.02
541.327	4.03
541.671	4.02
542.014	4.01
542.358	4.03
542.701	4.02
543.045	4.02
543.389	4.03
543.732	4.03
544.075	3.99
544.419	3.99
544.762	3.99
545.105	4
545.449	4
545.792	4.01
546.135	4.01
546.478	4.01
546.821	4.01
547.165	4.02
547.508	4.03
547.851	4.06
548.194	4.07
548.536	4.07
548.879	4.09
549.222	4.09
549.565	4.08
549.908	4.11
550.25	4.11
550.593	4.12
550.936	4.13
551.278	4.14
551.621	4.15
551.963	4.16
552.306	4.15
552.648	4.18
552.991	4.17
553.333	4.14
553.675	4.12
554.017	4.14
554.36	4.13
554.702	4.15
555.044	4.14
555.386	4.12
555.728	4.13
556.07	4.14
556.412	4.12
556.754	4.1
557.096	4.11
557.438	4.12
557.78	4.12
558.121	4.14
558.463	4.16
558.805	4.14
559.147	4.14
559.488	4.15
559.83	4.1
560.171	4.13
560.513	4.15
560.854	4.15
561.196	4.14
561.537	4.15
561.878	4.13
562.22	4.17
562.561	4.16
562.902	4.17
563.243	4.15
563.584	4.19
563.925	4.16
564.266	4.13
564.607	4.12
564.948	4.12
565.289	4.1
565.63	4.1
565.971	4.13
566.312	4.11
566.653	4.13
566.993	4.15
567.334	4.16
567.675	4.17
568.015	4.17
568.356	4.16
568.696	4.15
569.037	4.17
569.377	4.16
569.718	4.15
570.058	4.12
570.398	4.12
570.739	4.1
571.079	4.14
571.419	4.15
571.759	4.15
572.099	4.14
572.439	4.15
572.779	4.14
573.119	4.15
573.459	4.17
573.799	4.18
574.139	4.18
574.479	4.13
574.819	4.13
575.158	4.11
575.498	4.11
575.838	4.12
576.177	4.08
576.517	4.09
576.856	4.11
577.196	4.1
577.535	4.12
577.875	4.13
578.214	4.09
578.553	4.1
578.893	4.11
579.232	4.1
579.571	4.08
579.91	4.06
580.25	4.05
580.589	4.05
580.928	3.99
581.267	3.98
581.606	4.04
581.945	4.03
582.283	4.04
582.622	4.02
582.961	4.04
583.3	4.05
583.639	4.01
583.977	3.99
584.316	4
584.654	3.99
584.993	4
585.332	4.08
585.67	4.08
586.008	4.06
586.347	4.04
586.685	4.06
587.024	4.09
587.362	4.11
587.7	4.14
588.038	4.17
588.376	4.17
588.715	4.16
589.053	4.2
589.391	4.21
589.729	4.25
590.067	4.27
590.404	4.28
590.742	4.33
591.08	4.34
591.418	4.36
591.756	4.35
592.093	4.34
592.431	4.28
592.769	4.25
593.106	4.29
593.444	4.31
593.781	4.32
594.119	4.31
594.456	4.28
594.793	4.23
595.131	4.2
595.468	4.24
595.805	4.21
596.143	4.19
596.48	4.17
596.817	4.16
597.154	4.16
597.491	4.15
597.828	4.13
598.165	4.13
598.502	4.11
598.839	4.08
599.176	4.06
599.512	4.09
599.849	4.12
600.186	4.12
600.523	4.14
600.859	4.13
601.196	4.14
601.532	4.15
601.869	4.15
602.205	4.19
602.542	4.2
602.878	4.21
603.215	4.26
603.551	4.27
603.887	4.24
604.223	4.22
604.56	4.24
604.896	4.25
605.232	4.27
605.568	4.27
605.904	4.31
606.24	4.34
606.576	4.31
606.912	4.29
607.248	4.31
607.583	4.29
607.919	4.31
608.255	4.28
608.591	4.32
608.926	4.34
609.262	4.35
609.597	4.35
609.933	4.38
610.268	4.33
610.604	4.35
610.939	4.39
611.275	4.38
611.61	4.38
611.945	4.36
612.281	4.33
612.616	4.36
612.951	4.36
613.286	4.36
613.621	4.41
613.956	4.42
614.291	4.42
614.626	4.41
614.961	4.38
615.296	4.39
615.631	4.36
615.966	4.39
616.3	4.35
616.635	4.34
616.97	4.29
617.304	4.31
617.639	4.28
617.973	4.27
618.308	4.28
618.642	4.3
618.977	4.32
619.311	4.31
619.646	4.32
619.98	4.32
620.314	4.34
620.648	4.28
620.983	4.28
621.317	4.26
621.651	4.27
621.985	4.28
622.319	4.31
622.653	4.3
622.987	4.27
623.321	4.27
623.655	4.27
623.988	4.3
624.322	4.29
624.656	4.3
624.99	4.34
625.323	4.34
625.657	4.33
625.99	4.35
626.324	4.41
626.657	4.38
626.991	4.39
627.324	4.38
627.658	4.44
627.991	4.47
628.324	4.46
628.657	4.48
628.991	4.53
629.324	4.54
629.657	4.56
629.99	4.59
630.323	4.55
630.656	4.57
630.989	4.57
631.322	4.53
631.655	4.52
631.987	4.49
632.32	4.5
632.653	4.49
632.986	4.52
633.318	4.46
633.651	4.45
633.984	4.45
634.316	4.48
634.649	4.42
634.981	4.38
635.313	4.37
635.646	4.39
635.978	4.33
636.31	4.34
636.643	4.33
636.975	4.29
637.307	4.34
637.639	4.31
637.971	4.34
638.303	4.4
638.635	4.42
638.967	4.4
639.299	4.44
639.631	4.44
639.963	4.41
640.295	4.42
640.626	4.47
640.958	4.47
641.29	4.44
641.621	4.46
641.953	4.52
642.285	4.53
642.616	4.54
642.948	4.58
643.279	4.52
643.61	4.57
643.942	4.6
644.273	4.61
644.604	4.58
644.936	4.56
645.267	4.56
645.598	4.56
645.929	4.56
646.26	4.56
646.591	4.5
646.922	4.47
647.253	4.5
647.584	4.54
647.915	4.44
648.245	4.46
648.576	4.49
648.907	4.47
649.238	4.46
649.568	4.34
649.899	4.29
650.229	4.27
650.56	4.21
650.89	4.22
651.221	4.23
651.551	4.18
651.882	4.14
652.212	4.11
652.542	4.11
652.872	4.15
653.203	4.06
653.533	4.14
653.863	4.14
654.193	4.08
654.523	4.06
654.853	4.14
655.183	4.16
655.513	4.1
655.843	4.07
656.172	4.09
656.502	4.22
656.832	4.27
657.162	4.38
657.491	4.37
657.821	4.39
658.15	4.36
658.48	4.44
658.809	4.45
659.139	4.45
659.468	4.39
659.798	4.39
660.127	4.47
660.456	4.4
660.785	4.43
661.115	4.46
661.444	4.44
661.773	4.43
662.102	4.4
662.431	4.45
662.76	4.48
663.089	4.5
663.418	4.45
663.747	4.49
664.076	4.49
664.404	4.51
664.733	4.53
665.062	4.53
665.39	4.47
665.719	4.51
666.048	4.52
666.376	4.65
666.705	4.63
667.033	4.55
667.362	4.65
667.69	4.6
668.018	4.62
668.347	4.65
668.675	4.66
669.003	4.67
669.331	4.7
669.659	4.66
669.987	4.69
670.315	4.69
670.643	4.65
670.971	4.55
671.299	4.57
671.627	4.53
671.955	4.58
672.283	4.67
672.61	4.61
672.938	4.62
673.266	4.61
673.593	4.64
673.921	4.71
674.249	4.65
674.576	4.68
674.904	4.71
675.231	4.62
675.558	4.66
675.886	4.65
676.213	4.6
676.54	4.65
