Data from BU58002_Reflection_00010.txt Node
Date: Tue Nov 19 10:57:52 EST 2019
User: vgr7
Spectrometer: USB2G7710
Scans to average: 3
Trigger mode: 4
Integration Time (sec): 2.000000E-2
Electric dark correction enabled: true
Boxcar width: 10
XAxis mode: Wavelengths
Number of Pixels in Spectrum: 2048
>>>>>Begin Spectral Data<<<<<
177.721	-13.5
178.105	-6.62
178.488	-3.51
178.871	54.55
179.254	-23.08
179.636	38.01
180.019	19.6
180.402	75
180.785	18.75
181.168	-944.12
181.55	-92.31
181.933	-9.12
182.316	6.69
182.698	4.21
183.081	-34.77
183.463	-8.27
183.846	-63.09
184.228	-51.64
184.611	-428.09
184.993	-395.45
185.376	-133.03
185.758	-1210.34
186.14	242.31
186.522	218.64
186.904	-690
187.287	-544.74
187.669	476.47
188.051	199.08
188.433	-1013.21
188.815	1832.14
189.197	189.93
189.579	77.46
189.961	25.76
190.342	32.02
190.724	9.45
191.106	-24.68
191.488	-9.04
191.869	-17.28
192.251	-9.99
192.633	-27.18
193.014	-16.7
193.396	-10.84
193.777	1
194.159	-1.27
194.54	14.49
194.922	25.28
195.303	23.65
195.684	10.6
196.065	4.61
196.447	3.92
196.828	6.36
197.209	24.14
197.59	26.24
197.971	16.74
198.352	19.93
198.733	32.24
199.114	39.41
199.495	36.43
199.876	52.28
200.257	46.98
200.638	61.87
201.018	33.84
201.399	37.07
201.78	28.28
202.16	42.61
202.541	36.19
202.922	15.2
203.302	21.67
203.683	25.89
204.063	18.83
204.444	9.13
204.824	13.98
205.204	6.83
205.585	15.64
205.965	28.05
206.345	35.13
206.725	32.62
207.106	35.19
207.486	37
207.866	31.67
208.246	19.39
208.626	-3.42
209.006	14.2
209.386	13.68
209.766	15.86
210.145	14.61
210.525	19.62
210.905	29.77
211.285	33.96
211.664	30.31
212.044	37.07
212.424	32.55
212.803	22.7
213.183	30.51
213.562	23.16
213.942	22.99
214.321	15.33
214.701	16.2
215.08	4.45
215.459	8.74
215.838	4.17
216.218	9.35
216.597	14.48
216.976	-2.02
217.355	8
217.734	-0.33
218.113	-16.91
218.492	-16.65
218.871	-13.5
219.25	-10.69
219.629	-30.46
220.008	-36.89
220.387	-31.1
220.766	-9.48
221.144	-23.22
221.523	-38.44
221.902	-41.82
222.28	-26.03
222.659	-16.69
223.037	-9.76
223.416	-6.56
223.794	3.08
224.173	3.64
224.551	8.6
224.929	9.62
225.308	4.72
225.686	1.08
226.064	4.32
226.442	1.96
226.821	2.62
227.199	0.45
227.577	3.65
227.955	8.21
228.333	6.45
228.711	2.03
229.089	2.76
229.467	6.13
229.845	7
230.222	5.57
230.6	6.16
230.978	6.08
231.356	3.44
231.733	2.63
232.111	4.11
232.488	2.95
232.866	4.43
233.243	5.33
233.621	6.35
233.998	6.51
234.376	6.18
234.753	5.24
235.13	5.62
235.508	6.11
235.885	3.46
236.262	3.14
236.639	4.36
237.016	5.69
237.393	5.9
237.77	5.61
238.147	5.01
238.524	3.26
238.901	2.74
239.278	2.98
239.655	2.55
240.032	2.28
240.409	2.46
240.785	2.41
241.162	2.11
241.539	2.19
241.915	1.91
242.292	2.45
242.668	2.35
243.045	2.53
243.421	2.28
243.798	3.02
244.174	3.55
244.551	3.54
244.927	3.39
245.303	3.16
245.679	3.32
246.056	3.48
246.432	3.8
246.808	3.89
247.184	4.05
247.56	4.08
247.936	3.94
248.312	4.3
248.688	4.27
249.064	4.45
249.44	4.38
249.815	4.53
250.191	4.35
250.567	4.42
250.943	4.39
251.318	4.59
251.694	4.29
252.069	4.05
252.445	4.42
252.82	4.53
253.196	4.61
253.571	4.7
253.947	5.08
254.322	4.92
254.697	4.89
255.073	4.37
255.448	4.27
255.823	4.53
256.198	4.13
256.573	4.07
256.948	4.06
257.323	4.17
257.698	4.21
258.073	4.2
258.448	4.18
258.823	4.01
259.198	3.95
259.573	3.66
259.948	3.68
260.322	3.56
260.697	3.53
261.072	3.56
261.446	3.48
261.821	3.27
262.195	3.21
262.57	3.19
262.944	3.46
263.319	3.43
263.693	3.34
264.067	3.37
264.442	3.38
264.816	3.2
265.19	3.06
265.564	2.9
265.938	2.93
266.313	2.92
266.687	3.01
267.061	3.02
267.435	3.35
267.809	3.29
268.183	3.09
268.556	3.02
268.93	3.12
269.304	3.3
269.678	3.48
270.051	3.73
270.425	3.84
270.799	3.69
271.172	3.86
271.546	3.85
271.919	3.83
272.293	3.92
272.666	4.06
273.04	4
273.413	4.04
273.787	3.92
274.16	3.77
274.533	3.84
274.906	3.93
275.279	3.87
275.653	4.01
276.026	4.17
276.399	4.21
276.772	4.18
277.145	4.04
277.518	3.95
277.891	3.69
278.263	3.79
278.636	3.86
279.009	3.77
279.382	3.75
279.755	3.73
280.127	3.73
280.5	3.49
280.872	3.71
281.245	3.64
281.617	3.72
281.99	3.92
282.362	3.87
282.735	3.91
283.107	3.91
283.479	3.92
283.852	3.91
284.224	3.89
284.596	3.77
284.968	3.82
285.34	3.84
285.713	3.95
286.085	3.82
286.457	3.76
286.829	3.8
287.201	3.77
287.572	3.77
287.944	3.76
288.316	3.88
288.688	3.87
289.06	3.88
289.431	3.98
289.803	3.93
290.175	3.93
290.546	3.83
290.918	3.87
291.289	3.77
291.661	3.77
292.032	3.87
292.403	3.97
292.775	4.04
293.146	4.03
293.517	4
293.889	4.05
294.26	4.13
294.631	4.15
295.002	4.21
295.373	4.26
295.744	4.15
296.115	4.2
296.486	4.21
296.857	4.27
297.228	4.18
297.599	4.15
297.97	4.26
298.34	4.22
298.711	4.31
299.082	4.35
299.452	4.39
299.823	4.34
300.194	4.24
300.564	4.09
300.935	4.08
301.305	4.1
301.676	4.01
302.046	3.93
302.416	3.93
302.787	3.88
303.157	3.95
303.527	4.2
303.897	4.2
304.267	4.19
304.637	4.35
305.008	4.42
305.378	4.52
305.748	4.49
306.117	4.67
306.487	4.65
306.857	4.77
307.227	4.74
307.597	4.77
307.967	4.95
308.336	5.15
308.706	5.27
309.076	5.39
309.445	5.67
309.815	5.91
310.184	5.95
310.554	6.02
310.923	6.09
311.293	6.05
311.662	6.2
312.031	6.27
312.401	6.32
312.77	6.39
313.139	6.49
313.508	6.62
313.877	6.63
314.246	6.74
314.616	6.74
314.985	6.79
315.353	7.03
315.722	7.2
316.091	7.3
316.46	7.48
316.829	7.49
317.198	7.39
317.567	7.46
317.935	7.46
318.304	7.71
318.672	7.78
319.041	7.86
319.41	7.75
319.778	7.8
320.147	7.74
320.515	7.82
320.883	7.79
321.252	7.8
321.62	7.83
321.988	7.86
322.357	8.06
322.725	8.25
323.093	8.08
323.461	8.13
323.829	8.17
324.197	8.08
324.565	8.05
324.933	8.18
325.301	8.04
325.669	8.04
326.037	7.94
326.405	7.9
326.772	8
327.14	7.98
327.508	8.05
327.875	8.12
328.243	8.08
328.61	8.16
328.978	8.14
329.346	8.06
329.713	8.22
330.08	8.11
330.448	8.11
330.815	8.24
331.182	8.12
331.55	8.08
331.917	8.05
332.284	8.19
332.651	8.24
333.018	8.24
333.385	8.37
333.752	8.48
334.119	8.56
334.486	8.41
334.853	8.56
335.22	8.61
335.587	8.55
335.954	8.57
336.32	8.51
336.687	8.55
337.054	8.72
337.42	8.64
337.787	8.69
338.153	8.72
338.52	8.78
338.886	8.93
339.253	9.04
339.619	9.2
339.986	9.2
340.352	9.15
340.718	9.28
341.084	9.25
341.451	9.27
341.817	9.23
342.183	9.4
342.549	9.35
342.915	9.34
343.281	9.39
343.647	9.46
344.013	9.58
344.379	9.6
344.745	9.56
345.11	9.56
345.476	9.62
345.842	9.57
346.208	9.56
346.573	9.48
346.939	9.42
347.304	9.28
347.67	9.3
348.035	9.31
348.401	9.36
348.766	9.42
349.132	9.3
349.497	9.41
349.862	9.35
350.228	9.42
350.593	9.39
350.958	9.42
351.323	9.3
351.688	9.32
352.053	9.31
352.418	9.37
352.783	9.32
353.148	9.24
353.513	9.21
353.878	9.17
354.243	9.17
354.608	9.21
354.972	9.23
355.337	9.18
355.702	9.16
356.066	9.04
356.431	9
356.795	8.98
357.16	8.87
357.524	8.85
357.889	8.77
358.253	8.7
358.618	8.7
358.982	8.76
359.346	8.74
359.71	8.69
360.075	8.61
360.439	8.6
360.803	8.64
361.167	8.65
361.531	8.58
361.895	8.54
362.259	8.46
362.623	8.44
362.987	8.46
363.351	8.46
363.714	8.49
364.078	8.49
364.442	8.48
364.806	8.49
365.169	8.45
365.533	8.47
365.896	8.49
366.26	8.43
366.623	8.34
366.987	8.25
367.35	8.19
367.714	8.17
368.077	8.11
368.44	8.01
368.803	7.95
369.167	7.92
369.53	7.9
369.893	7.82
370.256	7.83
370.619	7.8
370.982	7.69
371.345	7.55
371.708	7.48
372.071	7.42
372.434	7.35
372.797	7.29
373.159	7.19
373.522	7.04
373.885	6.92
374.247	6.87
374.61	6.85
374.973	6.76
375.335	6.71
375.698	6.61
376.06	6.58
376.423	6.51
376.785	6.48
377.147	6.4
377.51	6.38
377.872	6.26
378.234	6.14
378.596	6.12
378.958	6.17
379.321	6.09
379.683	6.07
380.045	5.95
380.407	5.96
380.769	5.87
381.13	5.84
381.492	5.89
381.854	5.89
382.216	5.84
382.578	5.85
382.939	5.76
383.301	5.75
383.663	5.66
384.024	5.63
384.386	5.58
384.747	5.53
385.109	5.47
385.47	5.42
385.832	5.38
386.193	5.32
386.554	5.15
386.916	5.13
387.277	5.04
387.638	5.09
387.999	5.05
388.36	5.08
388.721	5.04
389.082	4.96
389.443	4.92
389.804	4.88
390.165	4.84
390.526	4.8
390.887	4.78
391.248	4.77
391.609	4.73
391.969	4.71
392.33	4.68
392.691	4.64
393.051	4.63
393.412	4.6
393.772	4.59
394.133	4.61
394.493	4.54
394.854	4.53
395.214	4.42
395.574	4.34
395.935	4.27
396.295	4.26
396.655	4.22
397.015	4.16
397.376	4.12
397.736	4.09
398.096	4.04
398.456	4.01
398.816	3.96
399.176	3.91
399.535	3.88
399.895	3.85
400.255	3.85
400.615	3.82
400.975	3.75
401.334	3.73
401.694	3.71
402.054	3.7
402.413	3.68
402.773	3.7
403.132	3.69
403.492	3.67
403.851	3.64
404.211	3.62
404.57	3.59
404.929	3.56
405.288	3.54
405.648	3.56
406.007	3.55
406.366	3.56
406.725	3.57
407.084	3.56
407.443	3.55
407.802	3.52
408.161	3.53
408.52	3.56
408.879	3.54
409.238	3.52
409.596	3.52
409.955	3.51
410.314	3.51
410.673	3.5
411.031	3.45
411.39	3.46
411.748	3.47
412.107	3.47
412.465	3.44
412.824	3.4
413.182	3.38
413.54	3.38
413.899	3.35
414.257	3.33
414.615	3.29
414.974	3.3
415.332	3.31
415.69	3.29
416.048	3.28
416.406	3.26
416.764	3.24
417.122	3.21
417.48	3.19
417.838	3.16
418.195	3.13
418.553	3.14
418.911	3.11
419.269	3.09
419.626	3.08
419.984	3.09
420.342	3.07
420.699	3.06
421.057	3.05
421.414	3.04
421.772	3.02
422.129	3
422.486	2.98
422.844	2.96
423.201	2.94
423.558	2.92
423.915	2.93
424.273	2.93
424.63	2.92
424.987	2.92
425.344	2.92
425.701	2.93
426.058	2.95
426.415	2.95
426.772	2.95
427.128	2.94
427.485	2.93
427.842	2.93
428.199	2.92
428.555	2.91
428.912	2.89
429.269	2.89
429.625	2.89
429.982	2.9
430.338	2.9
430.695	2.9
431.051	2.89
431.407	2.89
431.764	2.89
432.12	2.9
432.476	2.89
432.832	2.9
433.189	2.88
433.545	2.86
433.901	2.86
434.257	2.85
434.613	2.85
434.969	2.85
435.325	2.84
435.681	2.84
436.036	2.83
436.392	2.86
436.748	2.88
437.104	2.89
437.459	2.87
437.815	2.87
438.171	2.87
438.526	2.86
438.882	2.85
439.237	2.84
439.593	2.82
439.948	2.82
440.304	2.81
440.659	2.81
441.014	2.8
441.369	2.79
441.725	2.79
442.08	2.8
442.435	2.79
442.79	2.8
443.145	2.8
443.5	2.79
443.855	2.78
444.21	2.77
444.565	2.77
444.92	2.77
445.275	2.76
445.629	2.75
445.984	2.74
446.339	2.73
446.693	2.73
447.048	2.73
447.403	2.73
447.757	2.7
448.112	2.7
448.466	2.7
448.82	2.7
449.175	2.72
449.529	2.7
449.883	2.68
450.238	2.69
450.592	2.68
450.946	2.67
451.3	2.66
451.654	2.64
452.008	2.63
452.362	2.65
452.716	2.66
453.07	2.67
453.424	2.67
453.778	2.68
454.132	2.68
454.486	2.68
454.839	2.67
455.193	2.7
455.547	2.71
455.9	2.7
456.254	2.7
456.607	2.69
456.961	2.68
457.314	2.68
457.668	2.69
458.021	2.68
458.375	2.67
458.728	2.67
459.081	2.68
459.434	2.68
459.787	2.66
460.141	2.67
460.494	2.68
460.847	2.68
461.2	2.69
461.553	2.71
461.906	2.74
462.259	2.75
462.611	2.76
462.964	2.75
463.317	2.74
463.67	2.76
464.022	2.77
464.375	2.79
464.728	2.81
465.08	2.79
465.433	2.81
465.785	2.85
466.138	2.87
466.49	2.89
466.843	2.9
467.195	2.9
467.547	2.9
467.899	2.89
468.252	2.9
468.604	2.88
468.956	2.88
469.308	2.84
469.66	2.86
470.012	2.87
470.364	2.88
470.716	2.9
471.068	2.88
471.42	2.87
471.772	2.88
472.123	2.9
472.475	2.91
472.827	2.91
473.178	2.89
473.53	2.87
473.882	2.86
474.233	2.87
474.585	2.9
474.936	2.88
475.288	2.89
475.639	2.91
475.99	2.88
476.342	2.89
476.693	2.88
477.044	2.87
477.395	2.85
477.746	2.84
478.097	2.83
478.448	2.84
478.8	2.86
479.15	2.85
479.501	2.85
479.852	2.85
480.203	2.85
480.554	2.87
480.905	2.87
481.255	2.87
481.606	2.88
481.957	2.86
482.307	2.87
482.658	2.89
483.009	2.88
483.359	2.89
483.709	2.9
484.06	2.91
484.41	2.9
484.761	2.91
485.111	2.91
485.461	2.91
485.811	2.91
486.162	2.91
486.512	2.92
486.862	2.92
487.212	2.92
487.562	2.92
487.912	2.92
488.262	2.92
488.612	2.92
488.961	2.91
489.311	2.91
489.661	2.91
490.011	2.9
490.36	2.91
490.71	2.9
491.06	2.9
491.409	2.91
491.759	2.91
492.108	2.92
492.458	2.93
492.807	2.93
493.157	2.95
493.506	2.95
493.855	2.94
494.204	2.94
494.554	2.94
494.903	2.97
495.252	2.97
495.601	2.99
495.95	3
496.299	3.01
496.648	3.04
496.997	3.05
497.346	3.07
497.695	3.08
498.043	3.11
498.392	3.11
498.741	3.13
499.09	3.14
499.438	3.17
499.787	3.18
500.135	3.19
500.484	3.21
500.832	3.24
501.181	3.26
501.529	3.29
501.878	3.32
502.226	3.32
502.574	3.34
502.923	3.36
503.271	3.4
503.619	3.43
503.967	3.44
504.315	3.47
504.663	3.49
505.011	3.53
505.359	3.54
505.707	3.56
506.055	3.59
506.403	3.62
506.751	3.65
507.098	3.69
507.446	3.73
507.794	3.77
508.141	3.8
508.489	3.87
508.837	3.9
509.184	3.94
509.531	3.98
509.879	4.01
510.226	4.07
510.574	4.11
510.921	4.17
511.268	4.24
511.616	4.29
511.963	4.32
512.31	4.4
512.657	4.49
513.004	4.55
513.351	4.61
513.698	4.7
514.045	4.75
514.392	4.83
514.739	4.92
515.086	4.99
515.432	5.07
515.779	5.13
516.126	5.21
516.473	5.3
516.819	5.37
517.166	5.47
517.512	5.55
517.859	5.64
518.205	5.71
518.552	5.78
518.898	5.85
519.245	5.95
519.591	6.02
519.937	6.09
520.283	6.18
520.629	6.27
520.976	6.35
521.322	6.47
521.668	6.57
522.014	6.68
522.36	6.79
522.706	6.92
523.052	7.05
523.398	7.17
523.743	7.32
524.089	7.47
524.435	7.59
524.781	7.72
525.126	7.83
525.472	7.94
525.817	8.05
526.163	8.16
526.509	8.24
526.854	8.32
527.199	8.41
527.545	8.49
527.89	8.57
528.235	8.67
528.581	8.75
528.926	8.83
529.271	8.91
529.616	8.99
529.961	9.08
530.306	9.17
530.651	9.25
530.996	9.34
531.341	9.45
531.686	9.56
532.031	9.66
532.376	9.76
532.721	9.87
533.065	9.99
533.41	10.09
533.755	10.2
534.099	10.33
534.444	10.45
534.788	10.57
535.133	10.7
535.477	10.81
535.822	10.92
536.166	11.07
536.51	11.24
536.855	11.4
537.199	11.56
537.543	11.72
537.887	11.89
538.231	12.06
538.576	12.18
538.92	12.36
539.264	12.52
539.608	12.68
539.951	12.84
540.295	12.99
540.639	13.12
540.983	13.25
541.327	13.37
541.671	13.5
542.014	13.62
542.358	13.74
542.701	13.89
543.045	14.04
543.389	14.16
543.732	14.28
544.075	14.41
544.419	14.56
544.762	14.72
545.105	14.9
545.449	15.06
545.792	15.28
546.135	15.44
546.478	15.64
546.821	15.84
547.165	16.03
547.508	16.22
547.851	16.45
548.194	16.67
548.536	16.89
548.879	17.13
549.222	17.37
549.565	17.63
549.908	17.85
550.25	18.09
550.593	18.32
550.936	18.61
551.278	18.9
551.621	19.14
551.963	19.37
552.306	19.62
552.648	19.87
552.991	20.1
553.333	20.37
553.675	20.59
554.017	20.84
554.36	21.07
554.702	21.32
555.044	21.57
555.386	21.85
555.728	22.11
556.07	22.4
556.412	22.67
556.754	22.89
557.096	23.18
557.438	23.49
557.78	23.77
558.121	24.01
558.463	24.26
558.805	24.54
559.147	24.82
559.488	25.1
559.83	25.41
560.171	25.7
560.513	25.98
560.854	26.25
561.196	26.55
561.537	26.87
561.878	27.19
562.22	27.5
562.561	27.79
562.902	28.07
563.243	28.28
563.584	28.54
563.925	28.85
564.266	29.09
564.607	29.37
564.948	29.65
565.289	29.91
565.63	30.16
565.971	30.45
566.312	30.73
566.653	30.99
566.993	31.19
567.334	31.49
567.675	31.72
568.015	32.04
568.356	32.28
568.696	32.55
569.037	32.81
569.377	33.09
569.718	33.34
570.058	33.67
570.398	34.02
570.739	34.31
571.079	34.56
571.419	34.89
571.759	35.15
572.099	35.44
572.439	35.7
572.779	35.97
573.119	36.16
573.459	36.34
573.799	36.57
574.139	36.83
574.479	37.06
574.819	37.31
575.158	37.54
575.498	37.75
575.838	38.02
576.177	38.19
576.517	38.45
576.856	38.74
577.196	38.96
577.535	39.2
577.875	39.4
578.214	39.6
578.553	39.79
578.893	40.02
579.232	40.24
579.571	40.49
579.91	40.76
580.25	41.01
580.589	41.29
580.928	41.53
581.267	41.75
581.606	41.98
581.945	42.24
582.283	42.43
582.622	42.66
582.961	42.87
583.3	43.2
583.639	43.36
583.977	43.5
584.316	43.68
584.654	43.85
584.993	44.1
585.332	44.4
585.67	44.67
586.008	44.88
586.347	45
586.685	45.19
587.024	45.42
587.362	45.67
587.7	45.86
588.038	46.07
588.376	46.29
588.715	46.47
589.053	46.67
589.391	46.87
589.729	47.11
590.067	47.2
590.404	47.4
590.742	47.54
591.08	47.74
591.418	47.9
591.756	48.15
592.093	48.32
592.431	48.46
592.769	48.51
593.106	48.59
593.444	48.81
593.781	48.99
594.119	49.12
594.456	49.26
594.793	49.43
595.131	49.58
595.468	49.67
595.805	49.81
596.143	49.92
596.48	50.04
596.817	50.17
597.154	50.37
597.491	50.5
597.828	50.65
598.165	50.72
598.502	50.84
598.839	50.91
599.176	51
599.512	51.11
599.849	51.38
600.186	51.6
600.523	51.82
600.859	51.96
601.196	52.02
601.532	52.17
601.869	52.25
602.205	52.38
602.542	52.51
602.878	52.62
603.215	52.7
603.551	52.77
603.887	52.85
604.223	52.89
604.56	52.88
604.896	53.02
605.232	53.15
605.568	53.31
605.904	53.47
606.24	53.66
606.576	53.83
606.912	53.85
607.248	53.93
607.583	53.95
607.919	54
608.255	54.19
608.591	54.35
608.926	54.49
609.262	54.55
609.597	54.61
609.933	54.74
610.268	54.87
610.604	55
610.939	55.11
611.275	55.19
611.61	55.44
611.945	55.5
612.281	55.65
612.616	55.69
612.951	55.79
613.286	55.81
613.621	55.81
613.956	55.86
614.291	55.98
614.626	56.05
614.961	56.18
615.296	56.27
615.631	56.26
615.966	56.31
616.3	56.38
616.635	56.49
616.97	56.58
617.304	56.62
617.639	56.77
617.973	56.76
618.308	56.89
618.642	56.82
618.977	56.84
619.311	56.88
619.646	56.91
619.98	56.93
620.314	57.02
620.648	57.17
620.983	57.31
621.317	57.28
621.651	57.37
621.985	57.44
622.319	57.39
622.653	57.45
622.987	57.42
623.321	57.4
623.655	57.54
623.988	57.55
624.322	57.67
624.656	57.56
624.99	57.65
625.323	57.79
625.657	57.83
625.99	57.86
626.324	57.84
626.657	57.89
626.991	57.89
627.324	57.88
627.658	57.86
627.991	57.86
628.324	57.92
628.657	57.92
628.991	58.02
629.324	58.14
629.657	58.23
629.99	58.42
630.323	58.58
630.656	58.63
630.989	58.67
631.322	58.62
631.655	58.78
631.987	58.84
632.32	58.8
632.653	58.86
632.986	58.87
633.318	58.97
633.651	59.09
633.984	59.19
634.316	59.29
634.649	59.39
634.981	59.45
635.313	59.54
635.646	59.69
635.978	59.62
636.31	59.59
636.643	59.49
636.975	59.48
637.307	59.44
637.639	59.37
637.971	59.27
638.303	59.34
638.635	59.32
638.967	59.36
639.299	59.31
639.631	59.3
639.963	59.55
640.295	59.53
640.626	59.58
640.958	59.49
641.29	59.59
641.621	59.53
641.953	59.56
642.285	59.44
642.616	59.47
642.948	59.63
643.279	59.75
643.61	59.91
643.942	59.99
644.273	60.01
644.604	60.15
644.936	60.33
645.267	60.28
645.598	60.27
645.929	60.3
646.26	60.34
646.591	60.47
646.922	60.39
647.253	60.54
647.584	60.47
647.915	60.6
648.245	60.48
648.576	60.61
648.907	60.69
649.238	60.76
649.568	60.72
649.899	60.68
650.229	60.72
650.56	60.72
650.89	60.67
651.221	60.79
651.551	60.77
651.882	60.72
652.212	60.83
652.542	61.01
652.872	61.11
653.203	61.2
653.533	61.17
653.863	61.23
654.193	61.17
654.523	61.24
654.853	61.22
655.183	61.32
655.513	61.22
655.843	61.3
656.172	61.55
656.502	61.7
656.832	61.69
657.162	61.62
657.491	61.62
657.821	61.68
658.15	61.57
658.48	61.53
658.809	61.52
659.139	61.53
659.468	61.39
659.798	61.36
660.127	61.28
660.456	61.29
660.785	61.19
661.115	61.27
661.444	61.28
661.773	61.31
662.102	61.31
662.431	61.34
662.76	61.39
663.089	61.32
663.418	61.15
663.747	61.2
664.076	61.32
664.404	61.29
664.733	61.2
665.062	61.28
665.39	61.32
665.719	61.45
666.048	61.38
666.376	61.44
666.705	61.43
667.033	61.43
667.362	61.37
667.69	61.41
668.018	61.31
668.347	61.33
668.675	61.29
669.003	61.26
669.331	61.27
669.659	61.22
669.987	61.02
670.315	60.98
670.643	60.89
