Data from BU58131_Reflection_00014.txt Node
Date: Mon Nov 18 16:32:38 EST 2019
User: vgr7
Spectrometer: USB2G7710
Scans to average: 3
Trigger mode: 4
Integration Time (sec): 2.000000E-2
Electric dark correction enabled: true
Boxcar width: 10
XAxis mode: Wavelengths
Number of Pixels in Spectrum: 2048
>>>>>Begin Spectral Data<<<<<
177.721	-481.47
178.105	-288.06
178.488	-403.74
178.871	35.27
179.254	33.25
179.636	-185.71
180.019	-43.65
180.402	100
180.785	-286.04
181.168	120.73
181.55	8.86
181.933	41.86
182.316	44.43
182.698	48.79
183.081	42.43
183.463	36.98
183.846	32.31
184.228	27.4
184.611	27.11
184.993	56.63
185.376	24.99
185.758	58.9
186.14	79.75
186.522	106.29
186.904	53.57
187.287	24.85
187.669	37.24
188.051	96.37
188.433	140.19
188.815	-11.29
189.197	-97.42
189.579	35.26
189.961	9.58
190.342	5.01
190.724	12.52
191.106	-9.04
191.488	-41.46
191.869	-16
192.251	3.82
192.633	5.54
193.014	-0.72
193.396	-7.87
193.777	11.14
194.159	24.1
194.54	23.5
194.922	57.61
195.303	30.89
195.684	63.79
196.065	65.02
196.447	54.64
196.828	24.8
197.209	4.55
197.59	5.67
197.971	-2.52
198.352	6.04
198.733	10.83
199.114	3.94
199.495	25.35
199.876	13.65
200.257	-9.17
200.638	-7.88
201.018	-12.42
201.399	-7.65
201.78	0.15
202.16	-13.86
202.541	-19.48
202.922	-62.39
203.302	-92.49
203.683	-82.46
204.063	-113.31
204.444	-132.37
204.824	-148.05
205.204	-127.86
205.585	-227.51
205.965	-105.19
206.345	-160.36
206.725	-460
207.106	-816.91
207.486	-3693.81
207.866	720.99
208.246	14013.04
208.626	1288.28
209.006	-884.62
209.386	861.64
209.766	1069.28
210.145	-819.67
210.525	-213.09
210.905	-224.15
211.285	-200.34
211.664	-210.22
212.044	-153.6
212.424	-125.65
212.803	-101.62
213.183	-85.82
213.562	-73.91
213.942	-84.53
214.321	-59.07
214.701	-61.02
215.08	-54.1
215.459	-36.03
215.838	-34.65
216.218	-37.54
216.597	-31.77
216.976	-25.58
217.355	-20.95
217.734	-21.57
218.113	-22.4
218.492	-9.53
218.871	5.64
219.25	-5.65
219.629	-1.38
220.008	-15.09
220.387	-3.75
220.766	2.66
221.144	-33.77
221.523	-32.75
221.902	-23.91
222.28	-20.3
222.659	-6.38
223.037	1.24
223.416	-2.08
223.794	-6.43
224.173	-9.87
224.551	-11.95
224.929	-15.23
225.308	-13.67
225.686	-10.51
226.064	-6.27
226.442	-5.88
226.821	-3.9
227.199	-4.02
227.577	2.57
227.955	5.46
228.333	3.85
228.711	3.38
229.089	13.01
229.467	9.14
229.845	5.88
230.222	2.04
230.6	-0.72
230.978	-0.08
231.356	2.17
231.733	2.85
232.111	5.01
232.488	4.26
232.866	5.05
233.243	5.62
233.621	4.73
233.998	5.33
234.376	2.93
234.753	1.22
235.13	3.01
235.508	1.35
235.885	0.26
236.262	0.01
236.639	-0.17
237.016	-0.48
237.393	2.61
237.77	2.83
238.147	3.78
238.524	4.93
238.901	5.91
239.278	5.88
239.655	6.51
240.032	6.17
240.409	5.86
240.785	5.5
241.162	5.57
241.539	5.62
241.915	4.89
242.292	5.33
242.668	5.31
243.045	5.36
243.421	5.32
243.798	5.18
244.174	5.02
244.551	4.71
244.927	4.53
245.303	4.57
245.679	4.65
246.056	4.39
246.432	4.23
246.808	4.12
247.184	3.56
247.56	3.24
247.936	3.26
248.312	3.12
248.688	3.34
249.064	3.25
249.44	3.17
249.815	3.41
250.191	3.66
250.567	3.64
250.943	3.52
251.318	3.5
251.694	3.32
252.069	3.35
252.445	3.8
252.82	3.83
253.196	3.69
253.571	3.69
253.947	3.91
254.322	4
254.697	3.73
255.073	3.91
255.448	3.85
255.823	3.47
256.198	3.74
256.573	3.41
256.948	3.52
257.323	3.81
257.698	3.81
258.073	3.58
258.448	3.61
258.823	3.6
259.198	3.44
259.573	3.51
259.948	3.52
260.322	3.28
260.697	3.18
261.072	3.07
261.446	2.96
261.821	2.98
262.195	3.04
262.57	2.94
262.944	3
263.319	3.15
263.693	3.3
264.067	3.45
264.442	3.66
264.816	3.57
265.19	3.34
265.564	3.21
265.938	3.13
266.313	3.07
266.687	3.03
267.061	3.21
267.435	3.14
267.809	3.09
268.183	3.1
268.556	3.04
268.93	3.07
269.304	3.07
269.678	3.03
270.051	3.09
270.425	3.13
270.799	3.21
271.172	3.21
271.546	3.15
271.919	2.95
272.293	2.93
272.666	2.97
273.04	2.91
273.413	2.94
273.787	3.03
274.16	3.04
274.533	3.06
274.906	2.96
275.279	3.18
275.653	3.14
276.026	3.17
276.399	3.18
276.772	3.29
277.145	3.37
277.518	3.33
277.891	3.21
278.263	3.21
278.636	2.96
279.009	2.83
279.382	2.89
279.755	2.89
280.127	3.07
280.5	3.06
280.872	3.24
281.245	3.23
281.617	3.12
281.99	3.23
282.362	3.23
282.735	3.21
283.107	3
283.479	3
283.852	2.91
284.224	3.04
284.596	2.97
284.968	3.02
285.34	3.13
285.713	2.97
286.085	3.01
286.457	3.29
286.829	3.34
287.201	3.45
287.572	3.43
287.944	3.25
288.316	3.27
288.688	3.26
289.06	3.27
289.431	3.34
289.803	3.28
290.175	3.36
290.546	3.42
290.918	3.45
291.289	3.67
291.661	3.97
292.032	4
292.403	4.11
292.775	4.14
293.146	4.1
293.517	4.3
293.889	4.38
294.26	4.43
294.631	4.28
295.002	4.16
295.373	4.25
295.744	4.33
296.115	4.36
296.486	4.18
296.857	4.26
297.228	4.38
297.599	4.51
297.97	4.55
298.34	4.59
298.711	4.7
299.082	4.59
299.452	4.47
299.823	4.5
300.194	4.49
300.564	4.48
300.935	4.62
301.305	4.65
301.676	4.8
302.046	4.76
302.416	4.99
302.787	5.12
303.157	5.19
303.527	5.22
303.897	5.33
304.267	5.63
304.637	5.71
305.008	5.73
305.378	5.84
305.748	5.93
306.117	5.95
306.487	6.14
306.857	6.26
307.227	6.41
307.597	6.5
307.967	6.54
308.336	6.68
308.706	6.7
309.076	6.85
309.445	6.79
309.815	6.81
310.184	6.94
310.554	6.92
310.923	6.92
311.293	6.92
311.662	6.91
312.031	7.01
312.401	7.09
312.77	7.18
313.139	7.15
313.508	7.17
313.877	7.25
314.246	7.19
314.616	7.28
314.985	7.35
315.353	7.35
315.722	7.56
316.091	7.48
316.46	7.53
316.829	7.61
317.198	7.73
317.567	7.83
317.935	7.84
318.304	7.94
318.672	7.95
319.041	8.16
319.41	8.21
319.778	8.21
320.147	8.34
320.515	8.44
320.883	8.46
321.252	8.65
321.62	8.77
321.988	8.71
322.357	8.84
322.725	8.79
323.093	9.05
323.461	8.99
323.829	9.26
324.197	9.27
324.565	9.37
324.933	9.33
325.301	9.33
325.669	9.37
326.037	9.42
326.405	9.62
326.772	9.81
327.14	9.94
327.508	10.07
327.875	9.95
328.243	10.01
328.61	10.11
328.978	10.09
329.346	10.21
329.713	10.38
330.08	10.45
330.448	10.45
330.815	10.21
331.182	10.22
331.55	10.15
331.917	10.25
332.284	10.16
332.651	10.32
333.018	10.45
333.385	10.5
333.752	10.58
334.119	10.64
334.486	10.5
334.853	10.51
335.22	10.51
335.587	10.67
335.954	10.64
336.32	10.62
336.687	10.7
337.054	10.85
337.42	11.01
337.787	11.03
338.153	11.14
338.52	11.47
338.886	11.54
339.253	11.54
339.619	11.58
339.986	11.65
340.352	11.69
340.718	11.72
341.084	11.72
341.451	11.9
341.817	11.9
342.183	11.95
342.549	11.95
342.915	12.01
343.281	12.01
343.647	12.03
344.013	12.17
344.379	12.15
344.745	11.95
345.11	11.98
345.476	12.01
345.842	12.02
346.208	11.88
346.573	11.95
346.939	12
347.304	12
347.67	11.97
348.035	11.93
348.401	11.97
348.766	12.03
349.132	11.97
349.497	11.85
349.862	11.86
350.228	11.96
350.593	11.82
350.958	11.83
351.323	11.92
351.688	11.86
352.053	11.99
352.418	12.02
352.783	11.96
353.148	11.88
353.513	11.92
353.878	12
354.243	11.94
354.608	11.86
354.972	11.87
355.337	11.82
355.702	11.83
356.066	11.81
356.431	11.69
356.795	11.66
357.16	11.73
357.524	11.66
357.889	11.58
358.253	11.69
358.618	11.69
358.982	11.61
359.346	11.58
359.71	11.41
360.075	11.43
360.439	11.42
360.803	11.38
361.167	11.31
361.531	11.23
361.895	11.19
362.259	11.19
362.623	11.15
362.987	11.14
363.351	11.02
363.714	10.93
364.078	10.96
364.442	10.87
364.806	10.78
365.169	10.77
365.533	10.71
365.896	10.59
366.26	10.47
366.623	10.38
366.987	10.3
367.35	10.31
367.714	10.23
368.077	10.05
368.44	10.03
368.803	9.94
369.167	9.89
369.53	9.84
369.893	9.85
370.256	9.81
370.619	9.72
370.982	9.67
371.345	9.6
371.708	9.48
372.071	9.42
372.434	9.33
372.797	9.24
373.159	9.12
373.522	9.06
373.885	9
374.247	8.92
374.61	8.82
374.973	8.69
375.335	8.59
375.698	8.6
376.06	8.51
376.423	8.42
376.785	8.33
377.147	8.23
377.51	8.09
377.872	7.99
378.234	7.89
378.596	7.81
378.958	7.73
379.321	7.7
379.683	7.66
380.045	7.63
380.407	7.51
380.769	7.55
381.13	7.48
381.492	7.41
381.854	7.37
382.216	7.31
382.578	7.22
382.939	7.07
383.301	7
383.663	6.85
384.024	6.83
384.386	6.77
384.747	6.72
385.109	6.71
385.47	6.59
385.832	6.58
386.193	6.57
386.554	6.53
386.916	6.45
387.277	6.38
387.638	6.3
387.999	6.27
388.36	6.18
388.721	6.12
389.082	6.08
389.443	5.99
389.804	5.96
390.165	5.91
390.526	5.89
390.887	5.83
391.248	5.83
391.609	5.79
391.969	5.72
392.33	5.66
392.691	5.62
393.051	5.63
393.412	5.56
393.772	5.46
394.133	5.4
394.493	5.34
394.854	5.25
395.214	5.22
395.574	5.14
395.935	5.06
396.295	5.01
396.655	4.95
397.015	4.9
397.376	4.84
397.736	4.81
398.096	4.8
398.456	4.76
398.816	4.71
399.176	4.64
399.535	4.6
399.895	4.54
400.255	4.49
400.615	4.43
400.975	4.44
401.334	4.41
401.694	4.4
402.054	4.36
402.413	4.34
402.773	4.31
403.132	4.29
403.492	4.24
403.851	4.19
404.211	4.2
404.57	4.17
404.929	4.15
405.288	4.11
405.648	4.05
406.007	4.04
406.366	4.01
406.725	4.01
407.084	4.02
407.443	4.02
407.802	4
408.161	3.96
408.52	3.88
408.879	3.87
409.238	3.81
409.596	3.82
409.955	3.82
410.314	3.82
410.673	3.78
411.031	3.78
411.39	3.78
411.748	3.73
412.107	3.71
412.465	3.69
412.824	3.7
413.182	3.71
413.54	3.68
413.899	3.69
414.257	3.68
414.615	3.63
414.974	3.61
415.332	3.56
415.69	3.54
416.048	3.51
416.406	3.5
416.764	3.49
417.122	3.46
417.48	3.42
417.838	3.4
418.195	3.39
418.553	3.4
418.911	3.38
419.269	3.38
419.626	3.36
419.984	3.36
420.342	3.35
420.699	3.34
421.057	3.33
421.414	3.3
421.772	3.29
422.129	3.29
422.486	3.27
422.844	3.27
423.201	3.24
423.558	3.25
423.915	3.24
424.273	3.23
424.63	3.2
424.987	3.2
425.344	3.19
425.701	3.17
426.058	3.15
426.415	3.12
426.772	3.1
427.128	3.09
427.485	3.07
427.842	3.04
428.199	3.01
428.555	2.99
428.912	2.98
429.269	2.96
429.625	2.93
429.982	2.92
430.338	2.93
430.695	2.94
431.051	2.92
431.407	2.9
431.764	2.89
432.12	2.92
432.476	2.92
432.832	2.89
433.189	2.91
433.545	2.92
433.901	2.93
434.257	2.92
434.613	2.92
434.969	2.94
435.325	2.95
435.681	2.97
436.036	2.96
436.392	2.97
436.748	2.96
437.104	2.96
437.459	2.96
437.815	2.95
438.171	2.97
438.526	2.97
438.882	2.96
439.237	2.98
439.593	2.97
439.948	2.95
440.304	2.96
440.659	2.96
441.014	2.96
441.369	2.96
441.725	2.96
442.08	2.97
442.435	2.96
442.79	2.96
443.145	2.95
443.5	2.95
443.855	2.93
444.21	2.92
444.565	2.92
444.92	2.93
445.275	2.92
445.629	2.92
445.984	2.92
446.339	2.93
446.693	2.9
447.048	2.9
447.403	2.9
447.757	2.89
448.112	2.89
448.466	2.87
448.82	2.86
449.175	2.85
449.529	2.82
449.883	2.82
450.238	2.81
450.592	2.8
450.946	2.79
451.3	2.79
451.654	2.79
452.008	2.79
452.362	2.77
452.716	2.76
453.07	2.74
453.424	2.74
453.778	2.73
454.132	2.73
454.486	2.72
454.839	2.73
455.193	2.73
455.547	2.71
455.9	2.71
456.254	2.72
456.607	2.72
456.961	2.71
457.314	2.71
457.668	2.71
458.021	2.7
458.375	2.69
458.728	2.68
459.081	2.67
459.434	2.65
459.787	2.66
460.141	2.66
460.494	2.66
460.847	2.65
461.2	2.65
461.553	2.65
461.906	2.65
462.259	2.67
462.611	2.68
462.964	2.69
463.317	2.69
463.67	2.7
464.022	2.72
464.375	2.71
464.728	2.71
465.08	2.71
465.433	2.73
465.785	2.73
466.138	2.75
466.49	2.75
466.843	2.79
467.195	2.79
467.547	2.82
467.899	2.83
468.252	2.84
468.604	2.85
468.956	2.85
469.308	2.88
469.66	2.85
470.012	2.86
470.364	2.88
470.716	2.9
471.068	2.9
471.42	2.9
471.772	2.92
472.123	2.91
472.475	2.93
472.827	2.93
473.178	2.94
473.53	2.93
473.882	2.95
474.233	2.95
474.585	2.96
474.936	2.94
475.288	2.96
475.639	2.96
475.99	2.97
476.342	2.98
476.693	2.97
477.044	2.99
477.395	2.98
477.746	2.97
478.097	2.96
478.448	2.96
478.8	2.96
479.15	2.95
479.501	2.95
479.852	2.95
480.203	2.96
480.554	2.97
480.905	2.98
481.255	2.97
481.606	2.98
481.957	2.99
482.307	2.99
482.658	2.98
483.009	2.99
483.359	2.98
483.709	2.98
484.06	2.98
484.41	2.98
484.761	2.97
485.111	2.98
485.461	2.98
485.811	2.98
486.162	2.98
486.512	2.98
486.862	2.98
487.212	2.98
487.562	2.97
487.912	2.97
488.262	2.96
488.612	2.96
488.961	2.96
489.311	2.94
489.661	2.94
490.011	2.93
490.36	2.92
490.71	2.93
491.06	2.93
491.409	2.94
491.759	2.94
492.108	2.96
492.458	2.96
492.807	2.96
493.157	2.97
493.506	2.98
493.855	2.99
494.204	2.99
494.554	3.01
494.903	3.01
495.252	3.02
495.601	3.05
495.95	3.06
496.299	3.07
496.648	3.09
496.997	3.1
497.346	3.14
497.695	3.19
498.043	3.21
498.392	3.21
498.741	3.23
499.09	3.24
499.438	3.26
499.787	3.28
500.135	3.32
500.484	3.34
500.832	3.38
501.181	3.42
501.529	3.45
501.878	3.49
502.226	3.53
502.574	3.57
502.923	3.6
503.271	3.63
503.619	3.68
503.967	3.74
504.315	3.79
504.663	3.85
505.011	3.89
505.359	3.95
505.707	4.03
506.055	4.08
506.403	4.15
506.751	4.21
507.098	4.26
507.446	4.32
507.794	4.39
508.141	4.47
508.489	4.53
508.837	4.61
509.184	4.68
509.531	4.75
509.879	4.85
510.226	4.93
510.574	5.01
510.921	5.1
511.268	5.16
511.616	5.23
511.963	5.31
512.31	5.41
512.657	5.51
513.004	5.59
513.351	5.69
513.698	5.77
514.045	5.85
514.392	5.96
514.739	6.08
515.086	6.16
515.432	6.28
515.779	6.39
516.126	6.49
516.473	6.61
516.819	6.73
517.166	6.81
517.512	6.89
517.859	6.99
518.205	7.09
518.552	7.19
518.898	7.29
519.245	7.37
519.591	7.46
519.937	7.53
520.283	7.64
520.629	7.79
520.976	7.94
521.322	8.08
521.668	8.2
522.014	8.32
522.36	8.46
522.706	8.59
523.052	8.75
523.398	8.93
523.743	9.09
524.089	9.25
524.435	9.41
524.781	9.58
525.126	9.75
525.472	9.88
525.817	10.02
526.163	10.14
526.509	10.26
526.854	10.39
527.199	10.51
527.545	10.61
527.89	10.7
528.235	10.8
528.581	10.9
528.926	10.99
529.271	11.09
529.616	11.2
529.961	11.31
530.306	11.42
530.651	11.53
530.996	11.66
531.341	11.79
531.686	11.91
532.031	12.05
532.376	12.19
532.721	12.33
533.065	12.48
533.41	12.65
533.755	12.81
534.099	12.94
534.444	13.08
534.788	13.24
535.133	13.41
535.477	13.59
535.822	13.76
536.166	13.96
536.51	14.18
536.855	14.4
537.199	14.62
537.543	14.83
537.887	15.06
538.231	15.29
538.576	15.53
538.92	15.77
539.264	15.98
539.608	16.16
539.951	16.38
540.295	16.57
540.639	16.77
540.983	16.95
541.327	17.14
541.671	17.32
542.014	17.5
542.358	17.67
542.701	17.83
543.045	18.01
543.389	18.2
543.732	18.39
544.075	18.59
544.419	18.79
544.762	19
545.105	19.21
545.449	19.41
545.792	19.63
546.135	19.89
546.478	20.13
546.821	20.39
547.165	20.64
547.508	20.94
547.851	21.18
548.194	21.48
548.536	21.77
548.879	22.07
549.222	22.36
549.565	22.66
549.908	22.97
550.25	23.28
550.593	23.6
550.936	23.91
551.278	24.26
551.621	24.6
551.963	24.93
552.306	25.24
552.648	25.53
552.991	25.81
553.333	26.09
553.675	26.42
554.017	26.7
554.36	26.99
554.702	27.26
555.044	27.55
555.386	27.8
555.728	28.1
556.07	28.41
556.412	28.73
556.754	29.08
557.096	29.38
557.438	29.72
557.78	29.99
558.121	30.27
558.463	30.54
558.805	30.8
559.147	31.08
559.488	31.37
559.83	31.71
560.171	32.04
560.513	32.36
560.854	32.7
561.196	33.02
561.537	33.28
561.878	33.57
562.22	33.82
562.561	34.08
562.902	34.36
563.243	34.64
563.584	34.89
563.925	35.06
564.266	35.29
564.607	35.51
564.948	35.78
565.289	36.05
565.63	36.32
565.971	36.56
566.312	36.81
566.653	37.04
566.993	37.29
567.334	37.47
567.675	37.74
568.015	37.93
568.356	38.16
568.696	38.41
569.037	38.65
569.377	38.89
569.718	39.13
570.058	39.36
570.398	39.54
570.739	39.75
571.079	39.98
571.419	40.18
571.759	40.42
572.099	40.54
572.439	40.74
572.779	40.9
573.119	41.05
573.459	41.24
573.799	41.44
574.139	41.58
574.479	41.78
574.819	41.88
575.158	42.1
575.498	42.26
575.838	42.44
576.177	42.56
576.517	42.69
576.856	42.92
577.196	43.06
577.535	43.28
577.875	43.44
578.214	43.64
578.553	43.88
578.893	44.05
579.232	44.29
579.571	44.41
579.91	44.53
580.25	44.71
580.589	44.87
580.928	44.99
581.267	45.09
581.606	45.23
581.945	45.38
582.283	45.38
582.622	45.53
582.961	45.59
583.3	45.76
583.639	45.94
583.977	46
584.316	46.04
584.654	46.16
584.993	46.24
585.332	46.42
585.67	46.47
586.008	46.55
586.347	46.62
586.685	46.72
587.024	46.88
587.362	47.03
587.7	47.07
588.038	47.18
588.376	47.33
588.715	47.39
589.053	47.49
589.391	47.71
589.729	47.76
590.067	47.85
590.404	47.95
590.742	48.04
591.08	48.11
591.418	48.23
591.756	48.26
592.093	48.43
592.431	48.5
592.769	48.58
593.106	48.66
593.444	48.74
593.781	48.78
594.119	48.83
594.456	48.85
594.793	48.89
595.131	48.96
595.468	48.98
595.805	49.06
596.143	49.11
596.48	49.09
596.817	49.08
597.154	49.09
597.491	49.09
597.828	49.13
598.165	49.16
598.502	49.3
598.839	49.38
599.176	49.41
599.512	49.43
599.849	49.43
600.186	49.48
600.523	49.55
600.859	49.73
601.196	49.84
601.532	49.93
601.869	50.02
602.205	50.03
602.542	50.11
602.878	50.19
603.215	50.28
603.551	50.39
603.887	50.52
604.223	50.64
604.56	50.73
604.896	50.83
605.232	50.93
605.568	50.99
605.904	51.05
606.24	51.05
606.576	51.12
606.912	51.25
607.248	51.32
607.583	51.39
607.919	51.39
608.255	51.43
608.591	51.48
608.926	51.57
609.262	51.67
609.597	51.77
609.933	51.8
610.268	51.84
610.604	51.85
610.939	51.88
611.275	51.99
611.61	52.06
611.945	52.09
612.281	52.15
612.616	52.12
612.951	52.18
613.286	52.23
613.621	52.23
613.956	52.18
614.291	52.17
614.626	52.24
614.961	52.25
615.296	52.2
615.631	52.22
615.966	52.17
616.3	52.14
616.635	52.09
616.97	52.11
617.304	52.1
617.639	52.14
617.973	52.18
618.308	52.04
618.642	52
618.977	51.93
619.311	51.9
619.646	51.94
619.98	51.89
620.314	51.97
620.648	52.02
620.983	52.09
621.317	52.14
621.651	52.16
621.985	52.23
622.319	52.29
622.653	52.32
622.987	52.42
623.321	52.44
623.655	52.59
623.988	52.61
624.322	52.64
624.656	52.6
624.99	52.6
625.323	52.74
625.657	52.7
625.99	52.77
626.324	52.77
626.657	52.81
626.991	52.88
627.324	52.82
627.658	52.88
627.991	52.9
628.324	52.88
628.657	52.86
628.991	52.8
629.324	52.88
629.657	52.88
629.99	52.91
630.323	53.04
630.656	53.04
630.989	53.13
631.322	53.24
631.655	53.33
631.987	53.37
632.32	53.35
632.653	53.42
632.986	53.44
633.318	53.54
633.651	53.57
633.984	53.6
634.316	53.69
634.649	53.62
634.981	53.63
635.313	53.67
635.646	53.77
635.978	53.81
636.31	53.77
636.643	53.77
636.975	53.73
637.307	53.67
637.639	53.62
637.971	53.64
638.303	53.52
638.635	53.54
638.967	53.63
639.299	53.63
639.631	53.66
639.963	53.59
640.295	53.52
640.626	53.58
640.958	53.66
641.29	53.7
641.621	53.78
641.953	53.69
642.285	53.71
642.616	53.67
642.948	53.71
643.279	53.74
643.61	53.83
643.942	53.92
644.273	53.97
644.604	53.99
644.936	53.94
645.267	53.92
645.598	53.9
645.929	53.89
646.26	53.85
646.591	53.87
646.922	53.87
647.253	53.91
647.584	53.91
647.915	53.73
648.245	53.72
648.576	53.68
648.907	53.92
649.238	53.96
649.568	53.96
649.899	54.03
650.229	54.04
650.56	53.95
650.89	53.91
651.221	53.97
651.551	53.87
651.882	53.75
652.212	53.78
652.542	53.77
652.872	53.68
653.203	53.77
653.533	53.86
653.863	53.93
654.193	54.01
654.523	54.04
654.853	54.15
655.183	54.09
655.513	54.02
655.843	53.88
656.172	53.94
656.502	53.92
656.832	53.87
657.162	53.86
657.491	54
657.821	53.99
658.15	53.96
658.48	54.04
658.809	54.12
659.139	54.22
659.468	54.27
659.798	54.31
660.127	54.34
660.456	54.32
660.785	54.31
661.115	54.28
661.444	54.3
661.773	54.29
662.102	54.38
662.431	54.51
662.76	54.53
663.089	54.43
663.418	54.45
663.747	54.55
664.076	54.61
664.404	54.53
664.733	54.51
665.062	54.35
665.39	54.45
665.719	54.4
