Data from BU58129_Reflection_00002.txt Node
Date: Mon Nov 18 16:34:52 EST 2019
User: vgr7
Spectrometer: USB2G7710
Scans to average: 3
Trigger mode: 4
Integration Time (sec): 2.000000E-2
Electric dark correction enabled: true
Boxcar width: 10
XAxis mode: Wavelengths
Number of Pixels in Spectrum: 2048
>>>>>Begin Spectral Data<<<<<
177.721	101.96
178.105	313.68
178.488	270.59
178.871	1544.44
179.254	389.86
179.636	44.44
180.019	-438.01
180.402	105
180.785	73.47
181.168	473.02
181.55	261.17
181.933	133.72
182.316	134.89
182.698	129.38
183.081	72.37
183.463	108.57
183.846	223.95
184.228	371.39
184.611	2144.44
184.993	-127.5
185.376	-123.39
185.758	-232.23
186.14	-240.37
186.522	-154.84
186.904	-697.39
187.287	1018.24
187.669	-172.88
188.051	590.84
188.433	369.36
188.815	786.87
189.197	166.01
189.579	148.48
189.961	627.13
190.342	124.43
190.724	15.71
191.106	238.53
191.488	59.76
191.869	40.71
192.251	44.37
192.633	37.35
193.014	26.13
193.396	21.57
193.777	38.55
194.159	37.73
194.54	57.62
194.922	110.3
195.303	189.87
195.684	265.59
196.065	341.42
196.447	480.95
196.828	748.45
197.209	482.76
197.59	497.5
197.971	544.44
198.352	-1911.3
198.733	1613.11
199.114	-3031.78
199.495	-419.96
199.876	-546.64
200.257	-322.67
200.638	-154.43
201.018	-159.47
201.399	-133.75
201.78	-59.78
202.16	-87.96
202.541	-374.27
202.922	-1178.91
203.302	841.78
203.683	435.46
204.063	1199.57
204.444	1872.36
204.824	794.06
205.204	12633.33
205.585	1258.47
205.965	719.61
206.345	1215.65
206.725	766.67
207.106	297.44
207.486	250.06
207.866	405.4
208.246	1207.98
208.626	693.05
209.006	8144.44
209.386	1778.43
209.766	559.2
210.145	929.84
210.525	-2240.14
210.905	-6645.1
211.285	-842.53
211.664	-221.4
212.044	-279.08
212.424	-374.95
212.803	-2055.04
213.183	-432.63
213.562	-364.56
213.942	-238.73
214.321	-225.2
214.701	-122.22
215.08	-51.11
215.459	-107.56
215.838	-67.03
216.218	-166.23
216.597	-62.86
216.976	-18.1
217.355	29.22
217.734	-46.74
218.113	-53.68
218.492	-43.48
218.871	-33.48
219.25	-22.72
219.629	-51.23
220.008	-45.43
220.387	-49.81
220.766	-47.77
221.144	-73.78
221.523	-92.88
221.902	-109.73
222.28	-111.57
222.659	-92.75
223.037	-93.4
223.416	-113.51
223.794	-108.16
224.173	-61.89
224.551	-52.7
224.929	-61.78
225.308	-49.07
225.686	-22.33
226.064	-18.61
226.442	-19.97
226.821	-12.13
227.199	-11.67
227.577	-9.96
227.955	-5.94
228.333	-8.29
228.711	-5.82
229.089	-3.51
229.467	-4.84
229.845	-3.5
230.222	-4.38
230.6	-5.74
230.978	-4.51
231.356	-0.83
231.733	-1.87
232.111	-2.99
232.488	-3.09
232.866	-1.94
233.243	-0.36
233.621	-4.16
233.998	-3.46
234.376	-4.67
234.753	-3.8
235.13	-3.25
235.508	-1.8
235.885	-1.6
236.262	-0.64
236.639	-1.54
237.016	-0.92
237.393	0.43
237.77	0.25
238.147	1.79
238.524	2.32
238.901	2.84
239.278	2.67
239.655	2.99
240.032	2.6
240.409	2.14
240.785	2.44
241.162	1.86
241.539	2.36
241.915	2.32
242.292	2.23
242.668	1.55
243.045	1.91
243.421	1.86
243.798	1.44
244.174	1.52
244.551	1.99
244.927	1.82
245.303	2.13
245.679	2.36
246.056	2.27
246.432	2.36
246.808	2.19
247.184	2.34
247.56	2.47
247.936	2.49
248.312	2.49
248.688	2.43
249.064	2.35
249.44	2.42
249.815	2.24
250.191	2.4
250.567	2.66
250.943	2.43
251.318	2.66
251.694	2.84
252.069	2.98
252.445	2.88
252.82	2.97
253.196	2.62
253.571	2.31
253.947	2.28
254.322	2.24
254.697	2.36
255.073	2.3
255.448	2.38
255.823	2.41
256.198	2.6
256.573	2.72
256.948	2.81
257.323	2.81
257.698	2.97
258.073	2.97
258.448	2.97
258.823	3.16
259.198	2.96
259.573	3.07
259.948	3.02
260.322	3.08
260.697	2.95
261.072	2.96
261.446	3.1
261.821	2.99
262.195	2.97
262.57	2.84
262.944	2.67
263.319	2.52
263.693	2.56
264.067	2.61
264.442	2.53
264.816	2.62
265.19	2.48
265.564	2.55
265.938	2.43
266.313	2.23
266.687	2.14
267.061	2.2
267.435	2.22
267.809	2.17
268.183	2.26
268.556	2.3
268.93	2.47
269.304	2.48
269.678	2.61
270.051	2.47
270.425	2.43
270.799	2.6
271.172	2.64
271.546	2.72
271.919	2.58
272.293	2.59
272.666	2.58
273.04	2.64
273.413	2.42
273.787	2.46
274.16	2.52
274.533	2.37
274.906	2.24
275.279	2.11
275.653	1.98
276.026	1.87
276.399	2
276.772	2.02
277.145	1.89
277.518	1.92
277.891	2.2
278.263	2.29
278.636	2.05
279.009	2.07
279.382	2.07
279.755	2.12
280.127	2.23
280.5	2.39
280.872	2.45
281.245	2.62
281.617	2.8
281.99	2.85
282.362	2.96
282.735	2.92
283.107	2.99
283.479	3.02
283.852	3.12
284.224	3.08
284.596	2.95
284.968	2.92
285.34	2.94
285.713	2.94
286.085	3.01
286.457	3.14
286.829	3.13
287.201	3.16
287.572	3.23
287.944	3.21
288.316	3.13
288.688	3.08
289.06	2.95
289.431	2.84
289.803	2.79
290.175	2.81
290.546	2.92
290.918	2.9
291.289	3.07
291.661	3.02
292.032	3.05
292.403	3.04
292.775	3.24
293.146	3.15
293.517	3.01
293.889	3.07
294.26	3.09
294.631	3.13
295.002	3.04
295.373	3
295.744	3.06
296.115	2.93
296.486	2.83
296.857	2.9
297.228	3.01
297.599	3.1
297.97	3.11
298.34	3.19
298.711	3.23
299.082	3.08
299.452	3.11
299.823	3.18
300.194	3.29
300.564	3.18
300.935	3.36
301.305	3.42
301.676	3.47
302.046	3.43
302.416	3.45
302.787	3.52
303.157	3.52
303.527	3.42
303.897	3.6
304.267	3.76
304.637	3.79
305.008	3.82
305.378	3.9
305.748	3.96
306.117	3.75
306.487	3.71
306.857	3.79
307.227	3.69
307.597	3.59
307.967	3.55
308.336	3.56
308.706	3.49
309.076	3.42
309.445	3.37
309.815	3.37
310.184	3.3
310.554	3.23
310.923	3.18
311.293	3.11
311.662	3.03
312.031	2.88
312.401	2.95
312.77	2.87
313.139	2.85
313.508	2.86
313.877	2.93
314.246	2.91
314.616	2.78
314.985	2.82
315.353	2.72
315.722	2.74
316.091	2.66
316.46	2.52
316.829	2.53
317.198	2.49
317.567	2.41
317.935	2.45
318.304	2.5
318.672	2.54
319.041	2.61
319.41	2.6
319.778	2.68
320.147	2.63
320.515	2.58
320.883	2.37
321.252	2.27
321.62	2.24
321.988	2.17
322.357	2.29
322.725	2.25
323.093	2.35
323.461	2.26
323.829	2.36
324.197	2.34
324.565	2.23
324.933	2.2
325.301	2.12
325.669	2.09
326.037	2.06
326.405	1.99
326.772	2.11
327.14	2.15
327.508	2.14
327.875	2.16
328.243	2.25
328.61	2.39
328.978	2.49
329.346	2.61
329.713	2.59
330.08	2.59
330.448	2.48
330.815	2.39
331.182	2.32
331.55	2.25
331.917	2.38
332.284	2.59
332.651	2.48
333.018	2.63
333.385	2.69
333.752	2.72
334.119	2.79
334.486	2.76
334.853	2.68
335.22	2.64
335.587	2.67
335.954	2.72
336.32	2.59
336.687	2.55
337.054	2.48
337.42	2.69
337.787	2.6
338.153	2.63
338.52	2.69
338.886	2.69
339.253	2.66
339.619	2.6
339.986	2.65
340.352	2.68
340.718	2.69
341.084	2.68
341.451	2.71
341.817	2.73
342.183	2.68
342.549	2.77
342.915	2.87
343.281	2.86
343.647	2.78
344.013	2.78
344.379	2.74
344.745	2.75
345.11	2.66
345.476	2.78
345.842	2.8
346.208	2.74
346.573	2.88
346.939	3
347.304	3.05
347.67	2.85
348.035	2.9
348.401	2.92
348.766	2.91
349.132	2.96
349.497	2.89
349.862	2.99
350.228	2.93
350.593	2.8
350.958	2.79
351.323	2.83
351.688	2.86
352.053	2.92
352.418	2.93
352.783	2.89
353.148	2.81
353.513	2.88
353.878	2.95
354.243	2.92
354.608	2.81
354.972	2.72
355.337	2.87
355.702	2.94
356.066	3.02
356.431	3.02
356.795	2.96
357.16	3.02
357.524	2.93
357.889	2.9
358.253	2.98
358.618	3.01
358.982	2.91
359.346	2.86
359.71	2.83
360.075	2.82
360.439	2.84
360.803	2.83
361.167	2.78
361.531	2.75
361.895	2.74
362.259	2.77
362.623	2.85
362.987	2.81
363.351	2.77
363.714	2.69
364.078	2.65
364.442	2.63
364.806	2.59
365.169	2.59
365.533	2.64
365.896	2.64
366.26	2.56
366.623	2.56
366.987	2.56
367.35	2.58
367.714	2.57
368.077	2.56
368.44	2.58
368.803	2.6
369.167	2.56
369.53	2.52
369.893	2.55
370.256	2.57
370.619	2.51
370.982	2.47
371.345	2.46
371.708	2.45
372.071	2.49
372.434	2.56
372.797	2.51
373.159	2.45
373.522	2.49
373.885	2.52
374.247	2.55
374.61	2.6
374.973	2.63
375.335	2.61
375.698	2.6
376.06	2.67
376.423	2.67
376.785	2.77
377.147	2.83
377.51	2.81
377.872	2.79
378.234	2.85
378.596	2.87
378.958	2.84
379.321	2.86
379.683	2.85
380.045	2.81
380.407	2.86
380.769	2.87
381.13	2.8
381.492	2.76
381.854	2.8
382.216	2.78
382.578	2.74
382.939	2.77
383.301	2.75
383.663	2.71
384.024	2.69
384.386	2.7
384.747	2.68
385.109	2.68
385.47	2.67
385.832	2.66
386.193	2.69
386.554	2.71
386.916	2.7
387.277	2.68
387.638	2.69
387.999	2.71
388.36	2.8
388.721	2.84
389.082	2.87
389.443	2.83
389.804	2.84
390.165	2.86
390.526	2.88
390.887	2.85
391.248	2.88
391.609	2.88
391.969	2.85
392.33	2.84
392.691	2.87
393.051	2.86
393.412	2.89
393.772	2.88
394.133	2.88
394.493	2.9
394.854	2.91
395.214	2.88
395.574	2.86
395.935	2.83
396.295	2.86
396.655	2.87
397.015	2.85
397.376	2.86
397.736	2.84
398.096	2.81
398.456	2.87
398.816	2.82
399.176	2.82
399.535	2.78
399.895	2.76
400.255	2.76
400.615	2.74
400.975	2.72
401.334	2.74
401.694	2.77
402.054	2.74
402.413	2.75
402.773	2.77
403.132	2.79
403.492	2.78
403.851	2.76
404.211	2.77
404.57	2.79
404.929	2.78
405.288	2.76
405.648	2.78
406.007	2.78
406.366	2.8
406.725	2.83
407.084	2.87
407.443	2.91
407.802	2.88
408.161	2.87
408.52	2.87
408.879	2.85
409.238	2.82
409.596	2.85
409.955	2.83
410.314	2.86
410.673	2.82
411.031	2.81
411.39	2.8
411.748	2.79
412.107	2.81
412.465	2.83
412.824	2.85
413.182	2.83
413.54	2.83
413.899	2.82
414.257	2.82
414.615	2.81
414.974	2.81
415.332	2.82
415.69	2.82
416.048	2.82
416.406	2.82
416.764	2.84
417.122	2.85
417.48	2.84
417.838	2.83
418.195	2.86
418.553	2.85
418.911	2.85
419.269	2.84
419.626	2.84
419.984	2.86
420.342	2.86
420.699	2.87
421.057	2.88
421.414	2.89
421.772	2.89
422.129	2.9
422.486	2.88
422.844	2.87
423.201	2.89
423.558	2.91
423.915	2.91
424.273	2.91
424.63	2.91
424.987	2.92
425.344	2.92
425.701	2.93
426.058	2.92
426.415	2.92
426.772	2.93
427.128	2.93
427.485	2.91
427.842	2.92
428.199	2.92
428.555	2.9
428.912	2.91
429.269	2.91
429.625	2.9
429.982	2.91
430.338	2.92
430.695	2.92
431.051	2.9
431.407	2.9
431.764	2.91
432.12	2.89
432.476	2.88
432.832	2.88
433.189	2.86
433.545	2.86
433.901	2.87
434.257	2.87
434.613	2.89
434.969	2.9
435.325	2.88
435.681	2.89
436.036	2.89
436.392	2.89
436.748	2.89
437.104	2.89
437.459	2.9
437.815	2.91
438.171	2.92
438.526	2.91
438.882	2.9
439.237	2.91
439.593	2.93
439.948	2.94
440.304	2.94
440.659	2.96
441.014	2.98
441.369	2.96
441.725	2.96
442.08	2.95
442.435	2.95
442.79	2.96
443.145	2.97
443.5	2.99
443.855	2.97
444.21	2.97
444.565	2.98
444.92	2.98
445.275	2.97
445.629	2.97
445.984	2.98
446.339	2.97
446.693	2.96
447.048	2.94
447.403	2.93
447.757	2.92
448.112	2.89
448.466	2.88
448.82	2.88
449.175	2.87
449.529	2.87
449.883	2.85
450.238	2.84
450.592	2.82
450.946	2.79
451.3	2.79
451.654	2.8
452.008	2.81
452.362	2.81
452.716	2.82
453.07	2.8
453.424	2.81
453.778	2.84
454.132	2.84
454.486	2.86
454.839	2.87
455.193	2.86
455.547	2.88
455.9	2.88
456.254	2.89
456.607	2.9
456.961	2.9
457.314	2.9
457.668	2.91
458.021	2.9
458.375	2.93
458.728	2.92
459.081	2.91
459.434	2.9
459.787	2.9
460.141	2.89
460.494	2.9
460.847	2.89
461.2	2.86
461.553	2.85
461.906	2.85
462.259	2.86
462.611	2.88
462.964	2.9
463.317	2.9
463.67	2.9
464.022	2.91
464.375	2.93
464.728	2.93
465.08	2.92
465.433	2.95
465.785	2.93
466.138	2.95
466.49	2.96
466.843	2.95
467.195	2.96
467.547	2.96
467.899	2.96
468.252	2.96
468.604	2.99
468.956	2.99
469.308	3.01
469.66	3.01
470.012	3.01
470.364	3.02
470.716	3.02
471.068	3.02
471.42	3.04
471.772	3.03
472.123	3.04
472.475	3.03
472.827	3.04
473.178	3.05
473.53	3.04
473.882	3.04
474.233	3.06
474.585	3.03
474.936	3.02
475.288	3.02
475.639	3.04
475.99	3.02
476.342	3.02
476.693	3.01
477.044	3
477.395	2.98
477.746	2.95
478.097	2.95
478.448	2.95
478.8	2.93
479.15	2.93
479.501	2.94
479.852	2.94
480.203	2.94
480.554	2.95
480.905	2.96
481.255	2.95
481.606	2.96
481.957	2.99
482.307	3
482.658	3
483.009	3
483.359	3.02
483.709	3.02
484.06	3.02
484.41	3.01
484.761	3.03
485.111	3.03
485.461	3.04
485.811	3.04
486.162	3.04
486.512	3.04
486.862	3.04
487.212	3.05
487.562	3.05
487.912	3.04
488.262	3.04
488.612	3.04
488.961	3.03
489.311	3.02
489.661	3.01
490.011	3.01
490.36	3
490.71	3
491.06	3
491.409	3.01
491.759	3.01
492.108	3
492.458	3
492.807	2.99
493.157	3
493.506	3
493.855	2.99
494.204	2.99
494.554	2.98
494.903	2.98
495.252	2.97
495.601	2.98
495.95	2.98
496.299	2.97
496.648	2.97
496.997	2.98
497.346	2.99
497.695	2.99
498.043	2.99
498.392	3
498.741	3
499.09	3.01
499.438	3.01
499.787	3.04
500.135	3.04
500.484	3.03
500.832	3.05
501.181	3.05
501.529	3.05
501.878	3.05
502.226	3.07
502.574	3.08
502.923	3.08
503.271	3.07
503.619	3.09
503.967	3.09
504.315	3.07
504.663	3.06
505.011	3.05
505.359	3.04
505.707	3.05
506.055	3.03
506.403	3.02
506.751	3.02
507.098	2.99
507.446	3
507.794	2.98
508.141	2.97
508.489	2.99
508.837	3.01
509.184	3
509.531	3
509.879	3.02
510.226	3.03
510.574	3.04
510.921	3.04
511.268	3.02
511.616	3.05
511.963	3.05
512.31	3.07
512.657	3.07
513.004	3.05
513.351	3.08
513.698	3.09
514.045	3.08
514.392	3.08
514.739	3.09
515.086	3.1
515.432	3.11
515.779	3.12
516.126	3.11
516.473	3.12
516.819	3.13
517.166	3.12
517.512	3.11
517.859	3.12
518.205	3.12
518.552	3.14
518.898	3.13
519.245	3.13
519.591	3.14
519.937	3.14
520.283	3.14
520.629	3.13
520.976	3.14
521.322	3.15
521.668	3.15
522.014	3.15
522.36	3.15
522.706	3.14
523.052	3.16
523.398	3.17
523.743	3.17
524.089	3.18
524.435	3.16
524.781	3.17
525.126	3.17
525.472	3.18
525.817	3.18
526.163	3.19
526.509	3.2
526.854	3.2
527.199	3.22
527.545	3.22
527.89	3.23
528.235	3.23
528.581	3.24
528.926	3.23
529.271	3.23
529.616	3.23
529.961	3.24
530.306	3.23
530.651	3.22
530.996	3.22
531.341	3.21
531.686	3.22
532.031	3.21
532.376	3.2
532.721	3.2
533.065	3.2
533.41	3.19
533.755	3.2
534.099	3.19
534.444	3.18
534.788	3.19
535.133	3.18
535.477	3.17
535.822	3.17
536.166	3.18
536.51	3.2
536.855	3.19
537.199	3.19
537.543	3.2
537.887	3.21
538.231	3.19
538.576	3.2
538.92	3.2
539.264	3.2
539.608	3.21
539.951	3.2
540.295	3.19
540.639	3.2
540.983	3.19
541.327	3.18
541.671	3.19
542.014	3.18
542.358	3.18
542.701	3.19
543.045	3.2
543.389	3.2
543.732	3.19
544.075	3.21
544.419	3.21
544.762	3.19
545.105	3.2
545.449	3.22
545.792	3.2
546.135	3.22
546.478	3.22
546.821	3.2
547.165	3.2
547.508	3.22
547.851	3.2
548.194	3.21
548.536	3.21
548.879	3.21
549.222	3.22
549.565	3.24
549.908	3.24
550.25	3.22
550.593	3.23
550.936	3.21
551.278	3.19
551.621	3.2
551.963	3.25
552.306	3.23
552.648	3.22
552.991	3.25
553.333	3.23
553.675	3.25
554.017	3.29
554.36	3.3
554.702	3.31
555.044	3.34
555.386	3.33
555.728	3.35
556.07	3.37
556.412	3.34
556.754	3.33
557.096	3.32
557.438	3.32
557.78	3.32
558.121	3.35
558.463	3.36
558.805	3.35
559.147	3.34
559.488	3.3
559.83	3.32
560.171	3.31
560.513	3.33
560.854	3.3
561.196	3.28
561.537	3.28
561.878	3.24
562.22	3.23
562.561	3.21
562.902	3.23
563.243	3.22
563.584	3.23
563.925	3.24
564.266	3.21
564.607	3.23
564.948	3.25
565.289	3.22
565.63	3.23
565.971	3.22
566.312	3.21
566.653	3.24
566.993	3.23
567.334	3.21
567.675	3.22
568.015	3.23
568.356	3.23
568.696	3.25
569.037	3.27
569.377	3.27
569.718	3.28
570.058	3.24
570.398	3.2
570.739	3.21
571.079	3.21
571.419	3.24
571.759	3.23
572.099	3.19
572.439	3.2
572.779	3.2
573.119	3.21
573.459	3.2
573.799	3.23
574.139	3.24
574.479	3.24
574.819	3.25
575.158	3.28
575.498	3.28
575.838	3.27
576.177	3.26
576.517	3.24
576.856	3.25
577.196	3.25
577.535	3.25
577.875	3.27
578.214	3.26
578.553	3.25
578.893	3.23
579.232	3.24
579.571	3.25
579.91	3.26
580.25	3.26
580.589	3.27
580.928	3.23
581.267	3.23
581.606	3.25
581.945	3.22
582.283	3.15
582.622	3.15
582.961	3.17
583.3	3.17
583.639	3.21
583.977	3.22
584.316	3.23
584.654	3.25
584.993	3.24
585.332	3.28
585.67	3.25
586.008	3.25
586.347	3.25
586.685	3.24
587.024	3.22
587.362	3.22
587.7	3.25
588.038	3.28
588.376	3.28
588.715	3.27
589.053	3.3
589.391	3.36
589.729	3.37
590.067	3.34
590.404	3.36
590.742	3.36
591.08	3.34
591.418	3.38
591.756	3.42
592.093	3.39
592.431	3.36
592.769	3.39
593.106	3.39
593.444	3.4
593.781	3.37
594.119	3.37
594.456	3.36
594.793	3.34
595.131	3.33
595.468	3.31
595.805	3.34
596.143	3.3
596.48	3.27
596.817	3.25
597.154	3.28
597.491	3.26
597.828	3.26
598.165	3.28
598.502	3.26
598.839	3.25
599.176	3.27
599.512	3.25
599.849	3.28
600.186	3.32
600.523	3.3
600.859	3.33
601.196	3.35
601.532	3.34
601.869	3.32
602.205	3.3
602.542	3.33
602.878	3.31
603.215	3.32
603.551	3.34
603.887	3.36
604.223	3.34
604.56	3.35
604.896	3.32
605.232	3.34
605.568	3.33
605.904	3.34
606.24	3.32
606.576	3.34
606.912	3.33
607.248	3.3
607.583	3.29
607.919	3.28
608.255	3.28
608.591	3.33
608.926	3.33
609.262	3.36
609.597	3.35
609.933	3.35
610.268	3.36
610.604	3.34
610.939	3.34
611.275	3.33
611.61	3.33
611.945	3.32
612.281	3.28
612.616	3.27
612.951	3.31
613.286	3.3
613.621	3.29
613.956	3.26
614.291	3.29
614.626	3.34
614.961	3.34
615.296	3.29
615.631	3.28
615.966	3.31
616.3	3.3
616.635	3.31
616.97	3.34
617.304	3.31
617.639	3.36
617.973	3.37
618.308	3.38
618.642	3.33
618.977	3.36
619.311	3.4
619.646	3.43
619.98	3.4
620.314	3.43
620.648	3.46
620.983	3.48
621.317	3.48
621.651	3.45
621.985	3.47
622.319	3.51
622.653	3.47
622.987	3.46
623.321	3.46
623.655	3.44
623.988	3.48
624.322	3.5
624.656	3.46
624.99	3.47
625.323	3.49
625.657	3.55
625.99	3.58
626.324	3.6
626.657	3.59
626.991	3.6
627.324	3.63
627.658	3.62
627.991	3.65
628.324	3.67
628.657	3.7
628.991	3.69
629.324	3.74
629.657	3.74
629.99	3.7
630.323	3.74
630.656	3.78
630.989	3.75
631.322	3.78
631.655	3.79
631.987	3.75
632.32	3.72
632.653	3.68
632.986	3.64
633.318	3.57
633.651	3.57
633.984	3.57
634.316	3.56
634.649	3.61
634.981	3.6
635.313	3.56
635.646	3.54
635.978	3.57
636.31	3.5
636.643	3.49
636.975	3.53
637.307	3.46
637.639	3.45
637.971	3.43
638.303	3.41
638.635	3.39
638.967	3.42
639.299	3.47
639.631	3.44
639.963	3.46
640.295	3.57
640.626	3.53
640.958	3.53
641.29	3.48
641.621	3.37
641.953	3.35
642.285	3.35
642.616	3.38
642.948	3.36
643.279	3.36
643.61	3.39
643.942	3.36
644.273	3.37
644.604	3.3
644.936	3.3
645.267	3.33
645.598	3.35
645.929	3.31
646.26	3.26
646.591	3.3
646.922	3.32
647.253	3.3
647.584	3.32
647.915	3.33
648.245	3.29
648.576	3.35
648.907	3.34
649.238	3.3
649.568	3.27
649.899	3.24
650.229	3.27
650.56	3.26
650.89	3.26
651.221	3.33
651.551	3.35
651.882	3.35
652.212	3.29
652.542	3.31
652.872	3.35
653.203	3.32
653.533	3.39
653.863	3.35
654.193	3.3
654.523	3.28
654.853	3.23
655.183	3.28
655.513	3.27
655.843	3.34
656.172	3.34
656.502	3.37
656.832	3.43
657.162	3.44
657.491	3.43
657.821	3.42
658.15	3.35
658.48	3.39
658.809	3.43
659.139	3.47
659.468	3.41
659.798	3.49
660.127	3.51
660.456	3.44
660.785	3.46
661.115	3.44
661.444	3.44
661.773	3.43
662.102	3.45
662.431	3.5
662.76	3.48
663.089	3.5
663.418	3.5
663.747	3.49
664.076	3.46
664.404	3.45
664.733	3.48
665.062	3.51
665.39	3.48
665.719	3.4
666.048	3.38
666.376	3.42
666.705	3.28
667.033	3.31
667.362	3.37
667.69	3.35
668.018	3.37
668.347	3.4
668.675	3.45
669.003	3.41
669.331	3.46
669.659	3.42
669.987	3.4
670.315	3.41
670.643	3.4
670.971	3.41
671.299	3.48
671.627	3.5
671.955	3.51
672.283	3.53
672.61	3.56
672.938	3.62
673.266	3.66
673.593	3.85
673.921	3.84
674.249	3.87
674.576	3.87
674.904	3.95
675.231	3.94
675.558	3.97
675.886	4
676.213	3.9
676.54	3.91
676.867	3.97
