Data from BU58138_Reflection_00001.txt Node
Date: Mon Nov 18 16:41:58 EST 2019
User: vgr7
Spectrometer: USB2G7710
Scans to average: 3
Trigger mode: 4
Integration Time (sec): 2.000000E-2
Electric dark correction enabled: true
Boxcar width: 10
XAxis mode: Wavelengths
Number of Pixels in Spectrum: 2048
>>>>>Begin Spectral Data<<<<<
177.721	31100
178.105	-280.95
178.488	-56.95
178.871	-587.5
179.254	-9.49
179.636	42.23
180.019	-1.72
180.402	155.56
180.785	15.66
181.168	30.94
181.55	48.91
181.933	53.64
182.316	107.19
182.698	90.58
183.081	59.24
183.463	26.61
183.846	37.22
184.228	71.36
184.611	96.32
184.993	128.68
185.376	171.58
185.758	131.02
186.14	129.05
186.522	132.46
186.904	181.59
187.287	1346.58
187.669	-727.96
188.051	858.24
188.433	191.45
188.815	4023.08
189.197	-516.16
189.579	-128.07
189.961	-205.99
190.342	-195.13
190.724	-88.71
191.106	-65.01
191.488	-59.96
191.869	-31.94
192.251	-42.55
192.633	-35.5
193.014	-36.67
193.396	-55.96
193.777	-53.4
194.159	-40.51
194.54	-25.55
194.922	-18.33
195.303	-24.14
195.684	-35.41
196.065	-30.91
196.447	-39.19
196.828	-59.63
197.209	-57.59
197.59	-67.52
197.971	-61.83
198.352	-48.48
198.733	-69.57
199.114	-62.31
199.495	-44.71
199.876	-66.79
200.257	-57.73
200.638	-60.75
201.018	-63.41
201.399	-53.01
201.78	-37.38
202.16	-35.17
202.541	-83.08
202.922	-152.22
203.302	-156.52
203.683	-136.69
204.063	-167.75
204.444	-110.58
204.824	-80.47
205.204	-83.86
205.585	-78.87
205.965	-54.37
206.345	-60.34
206.725	-67.08
207.106	-77.62
207.486	-87.76
207.866	-67.36
208.246	-59.66
208.626	-42.86
209.006	-32.71
209.386	-53.18
209.766	-51.3
210.145	-49.17
210.525	-36.05
210.905	-26.75
211.285	-17.76
211.664	-15.64
212.044	-7.07
212.424	-13.74
212.803	-21.15
213.183	-7.95
213.562	-8.16
213.942	-10
214.321	-2.53
214.701	1.42
215.08	8.35
215.459	-2.26
215.838	-3.14
216.218	-12.34
216.597	-3.84
216.976	-10.28
217.355	-4.9
217.734	-14.93
218.113	-19.16
218.492	-18.17
218.871	-20.2
219.25	-29.93
219.629	-39.93
220.008	-50.26
220.387	-48.58
220.766	-46.62
221.144	-114.74
221.523	-118.63
221.902	-147.21
222.28	-166.55
222.659	-136.05
223.037	-129.67
223.416	-92.43
223.794	-96.44
224.173	-81.88
224.551	-67.28
224.929	-69.27
225.308	-55.29
225.686	-43.07
226.064	-32.08
226.442	-28.21
226.821	-28.33
227.199	-27.95
227.577	-25.45
227.955	-24.92
228.333	-25.4
228.711	-22.93
229.089	-16.91
229.467	-18.13
229.845	-18.19
230.222	-15.95
230.6	-14.09
230.978	-15.28
231.356	-11.26
231.733	-7.63
232.111	-3.09
232.488	-1.22
232.866	1.8
233.243	1.85
233.621	0.65
233.998	-1.13
234.376	-1.6
234.753	-0.28
235.13	0.92
235.508	2.43
235.885	3.05
236.262	2.56
236.639	1.87
237.016	1.5
237.393	4.16
237.77	4.7
238.147	5.48
238.524	5.41
238.901	5.5
239.278	5.12
239.655	5.07
240.032	5.36
240.409	4.32
240.785	4.4
241.162	4.19
241.539	4.35
241.915	4.38
242.292	3.94
242.668	3.74
243.045	3.81
243.421	3.51
243.798	3.64
244.174	3.92
244.551	3.95
244.927	3.74
245.303	3.7
245.679	3.56
246.056	3
246.432	2.98
246.808	3.28
247.184	2.85
247.56	2.58
247.936	2.43
248.312	2.34
248.688	2.26
249.064	2.44
249.44	2.65
249.815	2.85
250.191	2.97
250.567	3.15
250.943	3.08
251.318	3.24
251.694	3.35
252.069	3.39
252.445	3.62
252.82	3.65
253.196	3.49
253.571	3.62
253.947	3.83
254.322	3.94
254.697	3.63
255.073	4.01
255.448	4
255.823	4.29
256.198	4.48
256.573	4.45
256.948	4.58
257.323	4.43
257.698	4.24
258.073	4.34
258.448	4.03
258.823	3.96
259.198	3.81
259.573	3.76
259.948	3.7
260.322	3.59
260.697	3.67
261.072	3.59
261.446	3.58
261.821	3.63
262.195	3.62
262.57	3.6
262.944	3.4
263.319	3.4
263.693	3.32
264.067	3.33
264.442	3.3
264.816	3.22
265.19	3.25
265.564	3.1
265.938	3.01
266.313	3.22
266.687	3.24
267.061	3.46
267.435	3.53
267.809	3.51
268.183	3.61
268.556	3.49
268.93	3.58
269.304	3.66
269.678	3.74
270.051	3.63
270.425	3.7
270.799	3.81
271.172	3.87
271.546	3.73
271.919	3.55
272.293	3.52
272.666	3.55
273.04	3.63
273.413	3.89
273.787	3.92
274.16	3.76
274.533	3.74
274.906	3.67
275.279	3.49
275.653	3.44
276.026	3.34
276.399	3.31
276.772	3.25
277.145	3.16
277.518	3.24
277.891	3.31
278.263	3.17
278.636	3.24
279.009	3.3
279.382	3.41
279.755	3.58
280.127	3.71
280.5	3.5
280.872	3.46
281.245	3.22
281.617	3.43
281.99	3.66
282.362	3.72
282.735	3.55
283.107	3.52
283.479	3.6
283.852	3.6
284.224	3.59
284.596	3.55
284.968	3.63
285.34	3.64
285.713	3.68
286.085	3.75
286.457	3.76
286.829	3.7
287.201	3.66
287.572	3.61
287.944	3.58
288.316	3.63
288.688	3.66
289.06	3.76
289.431	3.62
289.803	3.55
290.175	3.56
290.546	3.82
290.918	4
291.289	3.92
291.661	3.93
292.032	4.17
292.403	4.21
292.775	4.13
293.146	3.89
293.517	3.67
293.889	3.74
294.26	3.88
294.631	3.91
295.002	3.96
295.373	4.14
295.744	4.13
296.115	4.17
296.486	4.05
296.857	4.01
297.228	3.99
297.599	3.91
297.97	4.07
298.34	3.91
298.711	3.89
299.082	3.96
299.452	4.04
299.823	4
300.194	4.03
300.564	4
300.935	4.14
301.305	4.36
301.676	4.39
302.046	4.31
302.416	4.41
302.787	4.39
303.157	4.31
303.527	4.34
303.897	4.33
304.267	4.51
304.637	4.58
305.008	4.59
305.378	4.81
305.748	4.71
306.117	4.73
306.487	4.73
306.857	4.62
307.227	4.6
307.597	4.65
307.967	4.87
308.336	4.9
308.706	4.95
309.076	4.9
309.445	4.74
309.815	4.76
310.184	4.67
310.554	4.63
310.923	4.51
311.293	4.49
311.662	4.45
312.031	4.53
312.401	4.54
312.77	4.64
313.139	4.64
313.508	4.53
313.877	4.55
314.246	4.51
314.616	4.71
314.985	4.7
315.353	4.56
315.722	4.41
316.091	4.4
316.46	4.26
316.829	4.27
317.198	4.49
317.567	4.45
317.935	4.54
318.304	4.77
318.672	4.88
319.041	4.92
319.41	5.1
319.778	5
320.147	4.95
320.515	4.91
320.883	4.89
321.252	5.04
321.62	5.07
321.988	5.1
322.357	5
322.725	5.09
323.093	5.16
323.461	5.17
323.829	5.18
324.197	5.31
324.565	5.36
324.933	5.24
325.301	5.19
325.669	5.19
326.037	5.08
326.405	5.08
326.772	5.19
327.14	5.17
327.508	5.21
327.875	5.25
328.243	5.18
328.61	5.23
328.978	5.25
329.346	5.26
329.713	5.31
330.08	5.34
330.448	5.25
330.815	5.02
331.182	4.99
331.55	5.05
331.917	4.94
332.284	4.99
332.651	4.96
333.018	5.1
333.385	5.14
333.752	5.22
334.119	5.3
334.486	5.11
334.853	5.12
335.22	5.07
335.587	5.05
335.954	5.14
336.32	4.91
336.687	4.88
337.054	4.9
337.42	4.86
337.787	4.9
338.153	5
338.52	5.27
338.886	5.28
339.253	5.23
339.619	5.38
339.986	5.26
340.352	5.36
340.718	5.29
341.084	5.2
341.451	5.22
341.817	5.23
342.183	5.26
342.549	5.23
342.915	5.26
343.281	5.37
343.647	5.38
344.013	5.57
344.379	5.57
344.745	5.51
345.11	5.53
345.476	5.5
345.842	5.43
346.208	5.37
346.573	5.36
346.939	5.42
347.304	5.32
347.67	5.27
348.035	5.23
348.401	5.26
348.766	5.31
349.132	5.2
349.497	5.09
349.862	5.21
350.228	5.16
350.593	5.12
350.958	5.07
351.323	5.04
351.688	5.04
352.053	5
352.418	5.03
352.783	5.14
353.148	5.08
353.513	5.11
353.878	5.09
354.243	5.21
354.608	5.23
354.972	5.17
355.337	5.29
355.702	5.32
356.066	5.27
356.431	5.3
356.795	5.3
357.16	5.34
357.524	5.21
357.889	5.2
358.253	5.19
358.618	5.23
358.982	5.15
359.346	5.04
359.71	5.09
360.075	5.07
360.439	4.97
360.803	4.95
361.167	4.9
361.531	4.83
361.895	4.7
362.259	4.73
362.623	4.79
362.987	4.75
363.351	4.73
363.714	4.77
364.078	4.71
364.442	4.71
364.806	4.74
365.169	4.75
365.533	4.81
365.896	4.77
366.26	4.74
366.623	4.8
366.987	4.87
367.35	4.87
367.714	4.94
368.077	4.95
368.44	4.98
368.803	5
369.167	5.12
369.53	5.1
369.893	5.1
370.256	5.16
370.619	5.2
370.982	5.25
371.345	5.22
371.708	5.27
372.071	5.28
372.434	5.23
372.797	5.25
373.159	5.22
373.522	5.2
373.885	5.11
374.247	5.11
374.61	5.1
374.973	5.06
375.335	5
375.698	5.05
376.06	5.04
376.423	5.03
376.785	5.03
377.147	5.14
377.51	5.08
377.872	5.08
378.234	5.03
378.596	5.01
378.958	4.98
379.321	5.02
379.683	5.03
380.045	5.05
380.407	5.04
380.769	5.07
381.13	5.12
381.492	5.17
381.854	5.19
382.216	5.19
382.578	5.2
382.939	5.2
383.301	5.16
383.663	5.13
384.024	5.09
384.386	5.12
384.747	5.08
385.109	5.11
385.47	5.07
385.832	5.08
386.193	5.08
386.554	5.06
386.916	5.05
387.277	5.05
387.638	5.09
387.999	5.12
388.36	5.09
388.721	5.1
389.082	5.13
389.443	5.1
389.804	5.12
390.165	5.09
390.526	5.08
390.887	5.08
391.248	5.14
391.609	5.19
391.969	5.14
392.33	5.14
392.691	5.1
393.051	5.09
393.412	5.1
393.772	5.08
394.133	5.07
394.493	5.01
394.854	5.01
395.214	4.98
395.574	5
395.935	5
396.295	5.01
396.655	5.01
397.015	5.03
397.376	5.03
397.736	5.04
398.096	5.05
398.456	5.04
398.816	5.04
399.176	5.03
399.535	5.03
399.895	5.02
400.255	5.06
400.615	5.08
400.975	5.05
401.334	5.06
401.694	5.08
402.054	5.08
402.413	5.07
402.773	5.07
403.132	5.02
403.492	5.05
403.851	5.02
404.211	5.01
404.57	4.98
404.929	4.97
405.288	4.95
405.648	4.96
406.007	4.98
406.366	4.97
406.725	4.98
407.084	4.98
407.443	4.99
407.802	4.98
408.161	4.96
408.52	4.96
408.879	4.97
409.238	4.99
409.596	5.03
409.955	5.03
410.314	5.02
410.673	5
411.031	4.99
411.39	5.01
411.748	5
412.107	5.04
412.465	5.01
412.824	5.01
413.182	5.02
413.54	5.03
413.899	5.03
414.257	5.01
414.615	5
414.974	5
415.332	5.01
415.69	5.01
416.048	5.01
416.406	4.98
416.764	4.97
417.122	4.96
417.48	4.95
417.838	4.96
418.195	4.98
418.553	5
418.911	5.01
419.269	4.99
419.626	4.98
419.984	4.98
420.342	4.99
420.699	4.97
421.057	4.96
421.414	4.93
421.772	4.94
422.129	4.94
422.486	4.92
422.844	4.91
423.201	4.91
423.558	4.9
423.915	4.91
424.273	4.9
424.63	4.9
424.987	4.91
425.344	4.89
425.701	4.88
426.058	4.85
426.415	4.81
426.772	4.81
427.128	4.82
427.485	4.82
427.842	4.81
428.199	4.82
428.555	4.81
428.912	4.86
429.269	4.84
429.625	4.84
429.982	4.85
430.338	4.86
430.695	4.85
431.051	4.84
431.407	4.84
431.764	4.84
432.12	4.83
432.476	4.8
432.832	4.8
433.189	4.79
433.545	4.78
433.901	4.8
434.257	4.81
434.613	4.82
434.969	4.81
435.325	4.82
435.681	4.81
436.036	4.81
436.392	4.8
436.748	4.79
437.104	4.78
437.459	4.77
437.815	4.78
438.171	4.77
438.526	4.78
438.882	4.8
439.237	4.81
439.593	4.82
439.948	4.83
440.304	4.83
440.659	4.85
441.014	4.87
441.369	4.87
441.725	4.86
442.08	4.84
442.435	4.84
442.79	4.85
443.145	4.85
443.5	4.84
443.855	4.84
444.21	4.85
444.565	4.85
444.92	4.88
445.275	4.86
445.629	4.86
445.984	4.86
446.339	4.84
446.693	4.82
447.048	4.82
447.403	4.82
447.757	4.81
448.112	4.78
448.466	4.77
448.82	4.77
449.175	4.77
449.529	4.77
449.883	4.75
450.238	4.75
450.592	4.74
450.946	4.73
451.3	4.73
451.654	4.71
452.008	4.72
452.362	4.68
452.716	4.66
453.07	4.67
453.424	4.66
453.778	4.65
454.132	4.65
454.486	4.65
454.839	4.64
455.193	4.65
455.547	4.65
455.9	4.64
456.254	4.66
456.607	4.67
456.961	4.67
457.314	4.69
457.668	4.66
458.021	4.66
458.375	4.66
458.728	4.65
459.081	4.67
459.434	4.66
459.787	4.68
460.141	4.7
460.494	4.7
460.847	4.72
461.2	4.72
461.553	4.72
461.906	4.71
462.259	4.73
462.611	4.74
462.964	4.76
463.317	4.75
463.67	4.75
464.022	4.74
464.375	4.74
464.728	4.76
465.08	4.79
465.433	4.81
465.785	4.82
466.138	4.83
466.49	4.84
466.843	4.84
467.195	4.81
467.547	4.8
467.899	4.82
468.252	4.81
468.604	4.84
468.956	4.85
469.308	4.86
469.66	4.85
470.012	4.84
470.364	4.84
470.716	4.86
471.068	4.86
471.42	4.86
471.772	4.89
472.123	4.87
472.475	4.88
472.827	4.89
473.178	4.9
473.53	4.91
473.882	4.9
474.233	4.92
474.585	4.93
474.936	4.92
475.288	4.94
475.639	4.96
475.99	4.95
476.342	4.93
476.693	4.94
477.044	4.96
477.395	4.99
477.746	5
478.097	4.98
478.448	4.98
478.8	4.95
479.15	4.94
479.501	4.94
479.852	4.95
480.203	4.96
480.554	4.96
480.905	4.96
481.255	4.97
481.606	4.98
481.957	4.97
482.307	4.98
482.658	4.97
483.009	4.96
483.359	4.96
483.709	4.98
484.06	4.97
484.41	4.96
484.761	4.96
485.111	4.96
485.461	4.96
485.811	4.96
486.162	4.98
486.512	4.99
486.862	4.99
487.212	4.98
487.562	4.97
487.912	4.97
488.262	4.96
488.612	4.95
488.961	4.95
489.311	4.94
489.661	4.94
490.011	4.93
490.36	4.94
490.71	4.94
491.06	4.94
491.409	4.94
491.759	4.95
492.108	4.94
492.458	4.93
492.807	4.96
493.157	4.96
493.506	4.95
493.855	4.94
494.204	4.94
494.554	4.94
494.903	4.94
495.252	4.94
495.601	4.96
495.95	4.98
496.299	4.98
496.648	4.99
496.997	5
497.346	5.01
497.695	5.01
498.043	5.01
498.392	5.02
498.741	5.03
499.09	5.03
499.438	5.06
499.787	5.07
500.135	5.05
500.484	5.07
500.832	5.08
501.181	5.1
501.529	5.1
501.878	5.13
502.226	5.15
502.574	5.18
502.923	5.17
503.271	5.19
503.619	5.22
503.967	5.23
504.315	5.24
504.663	5.26
505.011	5.28
505.359	5.3
505.707	5.29
506.055	5.27
506.403	5.3
506.751	5.33
507.098	5.33
507.446	5.36
507.794	5.36
508.141	5.37
508.489	5.38
508.837	5.41
509.184	5.42
509.531	5.43
509.879	5.43
510.226	5.46
510.574	5.44
510.921	5.44
511.268	5.46
511.616	5.47
511.963	5.48
512.31	5.47
512.657	5.48
513.004	5.53
513.351	5.58
513.698	5.59
514.045	5.58
514.392	5.58
514.739	5.57
515.086	5.61
515.432	5.62
515.779	5.61
516.126	5.61
516.473	5.62
516.819	5.64
517.166	5.64
517.512	5.64
517.859	5.67
518.205	5.69
518.552	5.71
518.898	5.71
519.245	5.71
519.591	5.73
519.937	5.72
520.283	5.7
520.629	5.69
520.976	5.68
521.322	5.71
521.668	5.72
522.014	5.74
522.36	5.73
522.706	5.72
523.052	5.74
523.398	5.76
523.743	5.76
524.089	5.76
524.435	5.77
524.781	5.77
525.126	5.76
525.472	5.75
525.817	5.73
526.163	5.73
526.509	5.74
526.854	5.75
527.199	5.76
527.545	5.76
527.89	5.76
528.235	5.76
528.581	5.76
528.926	5.75
529.271	5.76
529.616	5.77
529.961	5.77
530.306	5.78
530.651	5.77
530.996	5.77
531.341	5.76
531.686	5.76
532.031	5.76
532.376	5.77
532.721	5.78
533.065	5.79
533.41	5.8
533.755	5.8
534.099	5.82
534.444	5.83
534.788	5.84
535.133	5.84
535.477	5.86
535.822	5.85
536.166	5.85
536.51	5.83
536.855	5.84
537.199	5.86
537.543	5.86
537.887	5.86
538.231	5.85
538.576	5.86
538.92	5.85
539.264	5.85
539.608	5.85
539.951	5.84
540.295	5.84
540.639	5.85
540.983	5.83
541.327	5.83
541.671	5.82
542.014	5.81
542.358	5.82
542.701	5.81
543.045	5.83
543.389	5.84
543.732	5.86
544.075	5.86
544.419	5.86
544.762	5.87
545.105	5.88
545.449	5.88
545.792	5.89
546.135	5.9
546.478	5.91
546.821	5.9
547.165	5.88
547.508	5.9
547.851	5.9
548.194	5.91
548.536	5.9
548.879	5.92
549.222	5.93
549.565	5.93
549.908	5.95
550.25	5.93
550.593	5.93
550.936	5.9
551.278	5.87
551.621	5.89
551.963	5.87
552.306	5.86
552.648	5.86
552.991	5.89
553.333	5.89
553.675	5.87
554.017	5.92
554.36	5.93
554.702	5.93
555.044	5.92
555.386	5.96
555.728	5.96
556.07	5.96
556.412	5.95
556.754	5.95
557.096	5.92
557.438	5.93
557.78	5.97
558.121	6
558.463	6
558.805	5.98
559.147	5.97
559.488	5.98
559.83	6.01
560.171	5.98
560.513	6
560.854	6.01
561.196	5.99
561.537	6
561.878	5.99
562.22	6.01
562.561	5.97
562.902	5.96
563.243	5.96
563.584	5.97
563.925	5.96
564.266	5.97
564.607	5.97
564.948	5.93
565.289	5.92
565.63	5.92
565.971	5.9
566.312	5.92
566.653	5.9
566.993	5.92
567.334	5.88
567.675	5.89
568.015	5.88
568.356	5.89
568.696	5.91
569.037	5.9
569.377	5.88
569.718	5.92
570.058	5.93
570.398	5.9
570.739	5.89
571.079	5.91
571.419	5.91
571.759	5.92
572.099	5.92
572.439	5.93
572.779	5.94
573.119	5.94
573.459	5.95
573.799	5.96
574.139	5.93
574.479	5.94
574.819	5.94
575.158	5.96
575.498	5.95
575.838	5.95
576.177	5.94
576.517	5.97
576.856	5.95
577.196	5.95
577.535	5.98
577.875	6.03
578.214	6.03
578.553	6.04
578.893	6.03
579.232	6.01
579.571	6.03
579.91	6.07
580.25	6.07
580.589	6.04
580.928	6.04
581.267	6.05
581.606	6.05
581.945	6.03
582.283	6.02
582.622	6.04
582.961	6.07
583.3	6.09
583.639	6.11
583.977	6.11
584.316	6.1
584.654	6.08
584.993	6.02
585.332	6.02
585.67	6.01
586.008	6.03
586.347	6.05
586.685	6.02
587.024	5.97
587.362	6
587.7	6.02
588.038	6.02
588.376	6.02
588.715	5.99
589.053	6.04
589.391	6.08
589.729	6.11
590.067	6.08
590.404	6.07
590.742	6.05
591.08	6.03
591.418	6.07
591.756	6.08
592.093	6.11
592.431	6.13
592.769	6.14
593.106	6.13
593.444	6.16
593.781	6.17
594.119	6.2
594.456	6.21
594.793	6.2
595.131	6.17
595.468	6.2
595.805	6.27
596.143	6.26
596.48	6.22
596.817	6.19
597.154	6.22
597.491	6.25
597.828	6.24
598.165	6.22
598.502	6.16
598.839	6.19
599.176	6.18
599.512	6.17
599.849	6.16
600.186	6.15
600.523	6.17
600.859	6.17
601.196	6.18
601.532	6.12
601.869	6.15
602.205	6.15
602.542	6.17
602.878	6.1
603.215	6.11
603.551	6.12
603.887	6.13
604.223	6.1
604.56	6.12
604.896	6.14
605.232	6.22
605.568	6.27
605.904	6.27
606.24	6.26
606.576	6.27
606.912	6.31
607.248	6.29
607.583	6.27
607.919	6.25
608.255	6.25
608.591	6.29
608.926	6.26
609.262	6.32
609.597	6.29
609.933	6.36
610.268	6.35
610.604	6.39
610.939	6.4
611.275	6.38
611.61	6.42
611.945	6.41
612.281	6.38
612.616	6.35
612.951	6.34
613.286	6.34
613.621	6.28
613.956	6.25
614.291	6.28
614.626	6.26
614.961	6.26
615.296	6.27
615.631	6.27
615.966	6.31
616.3	6.27
616.635	6.3
616.97	6.31
617.304	6.28
617.639	6.27
617.973	6.26
618.308	6.31
618.642	6.26
618.977	6.22
619.311	6.19
619.646	6.24
619.98	6.19
620.314	6.24
620.648	6.3
620.983	6.31
621.317	6.3
621.651	6.35
621.985	6.35
622.319	6.3
622.653	6.36
622.987	6.4
623.321	6.44
623.655	6.46
623.988	6.43
624.322	6.44
624.656	6.45
624.99	6.49
625.323	6.43
625.657	6.47
625.99	6.54
626.324	6.53
626.657	6.49
626.991	6.52
627.324	6.52
627.658	6.53
627.991	6.56
628.324	6.52
628.657	6.48
628.991	6.5
629.324	6.52
629.657	6.51
629.99	6.46
630.323	6.44
630.656	6.38
630.989	6.4
631.322	6.41
631.655	6.38
631.987	6.38
632.32	6.44
632.653	6.39
632.986	6.34
633.318	6.37
633.651	6.43
633.984	6.42
634.316	6.42
634.649	6.44
634.981	6.38
635.313	6.44
635.646	6.5
635.978	6.52
636.31	6.5
636.643	6.44
636.975	6.45
637.307	6.47
637.639	6.51
637.971	6.52
638.303	6.53
638.635	6.51
638.967	6.51
639.299	6.51
639.631	6.52
639.963	6.49
640.295	6.47
640.626	6.49
640.958	6.58
641.29	6.62
641.621	6.58
641.953	6.63
642.285	6.64
642.616	6.62
642.948	6.6
643.279	6.67
643.61	6.71
643.942	6.73
644.273	6.72
644.604	6.73
644.936	6.67
645.267	6.66
645.598	6.74
645.929	6.7
646.26	6.67
646.591	6.7
646.922	6.7
647.253	6.75
647.584	6.65
647.915	6.62
648.245	6.57
648.576	6.52
648.907	6.54
649.238	6.46
649.568	6.43
649.899	6.43
650.229	6.44
650.56	6.45
650.89	6.41
651.221	6.48
651.551	6.38
651.882	6.41
652.212	6.42
652.542	6.41
652.872	6.38
653.203	6.38
653.533	6.38
653.863	6.4
654.193	6.35
654.523	6.39
654.853	6.34
655.183	6.34
655.513	6.35
655.843	6.35
656.172	6.42
656.502	6.44
656.832	6.5
657.162	6.5
657.491	6.48
657.821	6.51
658.15	6.46
658.48	6.52
658.809	6.49
659.139	6.46
659.468	6.45
659.798	6.42
660.127	6.43
660.456	6.43
660.785	6.47
661.115	6.51
661.444	6.52
661.773	6.51
662.102	6.54
662.431	6.62
662.76	6.57
663.089	6.63
663.418	6.62
663.747	6.62
664.076	6.63
664.404	6.66
664.733	6.65
665.062	6.59
665.39	6.62
665.719	6.65
666.048	6.71
666.376	6.7
666.705	6.78
667.033	6.79
667.362	6.82
667.69	6.69
668.018	6.63
668.347	6.61
668.675	6.6
669.003	6.56
669.331	6.54
669.659	6.61
669.987	6.48
670.315	6.54
670.643	6.47
670.971	6.33
671.299	6.34
671.627	6.4
671.955	6.47
672.283	6.41
672.61	6.45
672.938	6.39
673.266	6.39
673.593	6.42
673.921	6.49
674.249	6.45
674.576	6.58
674.904	6.66
675.231	6.67
675.558	6.74
675.886	6.73
676.213	6.69
676.54	6.65
676.867	6.75
677.195	6.73
677.522	6.78
677.849	6.96
