Data from BU58141_Reflection_00009.txt Node
Date: Mon Nov 18 16:46:52 EST 2019
User: vgr7
Spectrometer: USB2G7710
Scans to average: 3
Trigger mode: 4
Integration Time (sec): 2.000000E-2
Electric dark correction enabled: true
Boxcar width: 10
XAxis mode: Wavelengths
Number of Pixels in Spectrum: 2048
>>>>>Begin Spectral Data<<<<<
177.721	-41.13
178.105	4.09
178.488	5.19
178.871	22.61
179.254	34.89
179.636	3287.5
180.019	230.43
180.402	155.56
180.785	-47.27
181.168	-2105.88
181.55	-356.22
181.933	178.03
182.316	265.64
182.698	168.56
183.081	111.97
183.463	81.43
183.846	58.32
184.228	52.73
184.611	47.51
184.993	46.03
185.376	86.32
185.758	98.26
186.14	112.86
186.522	159.2
186.904	450.07
187.287	659.92
187.669	-1010.73
188.051	-1318.77
188.433	-468.89
188.815	-538.21
189.197	1400.43
189.579	-13460
189.961	-1574.03
190.342	-1829.94
190.724	-262.02
191.106	-167.66
191.488	-143.83
191.869	-133.84
192.251	-153.25
192.633	-126.76
193.014	-195.39
193.396	-196.49
193.777	-263.3
194.159	-334.08
194.54	-224.01
194.922	-194.56
195.303	-144.58
195.684	-172.96
196.065	-132.4
196.447	-117.7
196.828	-113.65
197.209	-85.77
197.59	-81.59
197.971	-73.85
198.352	-63.68
198.733	-61.39
199.114	-54.3
199.495	-39
199.876	-49.12
200.257	-43.4
200.638	-43.46
201.018	-35.78
201.399	-36.93
201.78	-32.36
202.16	-29.39
202.541	-42.74
202.922	-78.75
203.302	-103.56
203.683	-98.12
204.063	-114.48
204.444	-128.21
204.824	-128.64
205.204	-128.02
205.585	-131.21
205.965	-104.86
206.345	-126.68
206.725	-135.28
207.106	-183.02
207.486	-210.91
207.866	-191.97
208.246	-180.41
208.626	-187.39
209.006	-136.63
209.386	-157.14
209.766	-169.71
210.145	-132.9
210.525	-100.48
210.905	-75.74
211.285	-60.06
211.664	-63.05
212.044	-58.53
212.424	-43.38
212.803	-35.92
213.183	-24.58
213.562	-15.84
213.942	-22.01
214.321	-17.35
214.701	-13.55
215.08	-2.97
215.459	-3.45
215.838	-3.35
216.218	-7
216.597	3.1
216.976	-6.03
217.355	1.85
217.734	11.29
218.113	11.39
218.492	9.7
218.871	3.54
219.25	5.7
219.629	1.75
220.008	2.78
220.387	-0.34
220.766	7.18
221.144	1.05
221.523	-20.35
221.902	-33.49
222.28	-40.7
222.659	-35.7
223.037	-30.67
223.416	-51.68
223.794	-59.06
224.173	-32.69
224.551	-26.89
224.929	-13.55
225.308	-22.55
225.686	-33.99
226.064	-26.23
226.442	-25.13
226.821	-20.02
227.199	-20.56
227.577	-17.55
227.955	-18.91
228.333	-18.72
228.711	-17.53
229.089	-13.39
229.467	-10.78
229.845	-9.35
230.222	-6.58
230.6	-8.66
230.978	-7.43
231.356	0.12
231.733	0.4
232.111	-0.73
232.488	-1.46
232.866	-2.26
233.243	-2.71
233.621	-1.21
233.998	0.32
234.376	0.15
234.753	0.99
235.13	0.98
235.508	1.24
235.885	2.9
236.262	3.73
236.639	3.97
237.016	3.04
237.393	5.56
237.77	6.98
238.147	6.59
238.524	6.32
238.901	6.44
239.278	4.71
239.655	5.33
240.032	4.58
240.409	4.06
240.785	4.11
241.162	4.43
241.539	4.5
241.915	4.28
242.292	4.16
242.668	4.13
243.045	4.41
243.421	4.57
243.798	4.13
244.174	3.97
244.551	3.77
244.927	3.8
245.303	3.65
245.679	3.61
246.056	3.56
246.432	3.75
246.808	3.48
247.184	3.32
247.56	2.91
247.936	3.1
248.312	3.03
248.688	3.24
249.064	3.31
249.44	3.19
249.815	3.21
250.191	3.25
250.567	3.21
250.943	2.92
251.318	3.04
251.694	2.89
252.069	2.63
252.445	2.89
252.82	2.85
253.196	2.64
253.571	2.5
253.947	2.74
254.322	2.96
254.697	3.14
255.073	3.06
255.448	3.15
255.823	3.32
256.198	3.45
256.573	3.02
256.948	3.01
257.323	3.36
257.698	3.23
258.073	3.24
258.448	3.26
258.823	3.32
259.198	3.07
259.573	3.38
259.948	3.56
260.322	3.46
260.697	3.32
261.072	3.22
261.446	3.28
261.821	2.98
262.195	2.79
262.57	2.67
262.944	2.64
263.319	2.77
263.693	2.6
264.067	2.73
264.442	2.94
264.816	3.04
265.19	3
265.564	3.17
265.938	3.08
266.313	2.99
266.687	2.94
267.061	3.11
267.435	2.85
267.809	2.84
268.183	2.75
268.556	2.72
268.93	2.93
269.304	2.83
269.678	2.97
270.051	2.9
270.425	2.9
270.799	3.17
271.172	3.17
271.546	3.21
271.919	3.09
272.293	2.97
272.666	2.89
273.04	2.85
273.413	2.67
273.787	2.69
274.16	2.62
274.533	2.71
274.906	2.62
275.279	2.69
275.653	2.68
276.026	2.48
276.399	2.61
276.772	2.55
277.145	2.47
277.518	2.48
277.891	2.68
278.263	2.63
278.636	2.44
279.009	2.36
279.382	2.4
279.755	2.45
280.127	2.7
280.5	2.74
280.872	2.71
281.245	2.77
281.617	2.9
281.99	2.94
282.362	2.89
282.735	2.92
283.107	2.94
283.479	3.06
283.852	3.28
284.224	3.28
284.596	3.25
284.968	3.35
285.34	3.49
285.713	3.49
286.085	3.61
286.457	3.71
286.829	3.62
287.201	3.59
287.572	3.51
287.944	3.29
288.316	3.34
288.688	3.13
289.06	3.12
289.431	3.11
289.803	3.25
290.175	3.45
290.546	3.55
290.918	3.59
291.289	3.4
291.661	3.45
292.032	3.47
292.403	3.51
292.775	3.49
293.146	3.37
293.517	3.33
293.889	3.34
294.26	3.34
294.631	3.52
295.002	3.61
295.373	3.66
295.744	3.8
296.115	3.75
296.486	3.85
296.857	3.87
297.228	3.87
297.599	3.79
297.97	3.63
298.34	3.6
298.711	3.67
299.082	3.76
299.452	3.76
299.823	3.84
300.194	3.87
300.564	3.77
300.935	3.82
301.305	3.92
301.676	4.03
302.046	4.01
302.416	4.06
302.787	4.01
303.157	3.97
303.527	3.88
303.897	3.9
304.267	4.13
304.637	4.2
305.008	4.24
305.378	4.35
305.748	4.51
306.117	4.51
306.487	4.44
306.857	4.5
307.227	4.56
307.597	4.55
307.967	4.56
308.336	4.69
308.706	4.78
309.076	4.74
309.445	4.68
309.815	4.75
310.184	4.74
310.554	4.93
310.923	4.96
311.293	5.11
311.662	5.23
312.031	5.15
312.401	5.29
312.77	5.43
313.139	5.48
313.508	5.47
313.877	5.62
314.246	5.67
314.616	5.77
314.985	5.84
315.353	5.82
315.722	5.96
316.091	6.21
316.46	6.23
316.829	6.4
317.198	6.59
317.567	6.64
317.935	6.79
318.304	6.75
318.672	6.93
319.041	7
319.41	7.03
319.778	7.05
320.147	6.94
320.515	6.92
320.883	7.02
321.252	7.19
321.62	7.3
321.988	7.43
322.357	7.36
322.725	7.43
323.093	7.7
323.461	7.76
323.829	7.7
324.197	7.73
324.565	7.75
324.933	7.8
325.301	7.93
325.669	7.89
326.037	7.84
326.405	7.85
326.772	7.92
327.14	7.99
327.508	8.13
327.875	8.11
328.243	8.12
328.61	8.17
328.978	8.15
329.346	8.18
329.713	8.23
330.08	8.43
330.448	8.39
330.815	8.34
331.182	8.21
331.55	8.21
331.917	8.3
332.284	8.45
332.651	8.36
333.018	8.41
333.385	8.46
333.752	8.58
334.119	8.62
334.486	8.59
334.853	8.59
335.22	8.64
335.587	8.91
335.954	8.93
336.32	9.01
336.687	8.96
337.054	9.02
337.42	9.03
337.787	9.05
338.153	9.02
338.52	9.09
338.886	9.24
339.253	9.22
339.619	9.32
339.986	9.32
340.352	9.43
340.718	9.38
341.084	9.48
341.451	9.49
341.817	9.57
342.183	9.6
342.549	9.6
342.915	9.66
343.281	9.44
343.647	9.44
344.013	9.41
344.379	9.38
344.745	9.31
345.11	9.37
345.476	9.33
345.842	9.44
346.208	9.35
346.573	9.37
346.939	9.41
347.304	9.37
347.67	9.27
348.035	9.2
348.401	9.24
348.766	9.2
349.132	9.22
349.497	9.16
349.862	9.21
350.228	9.22
350.593	9.14
350.958	9.22
351.323	9.29
351.688	9.32
352.053	9.43
352.418	9.46
352.783	9.45
353.148	9.47
353.513	9.38
353.878	9.47
354.243	9.49
354.608	9.59
354.972	9.59
355.337	9.68
355.702	9.87
356.066	9.97
356.431	9.91
356.795	9.94
357.16	9.88
357.524	9.76
357.889	9.71
358.253	9.77
358.618	9.78
358.982	9.78
359.346	9.7
359.71	9.67
360.075	9.62
360.439	9.61
360.803	9.61
361.167	9.61
361.531	9.56
361.895	9.47
362.259	9.4
362.623	9.36
362.987	9.29
363.351	9.13
363.714	9.02
364.078	8.95
364.442	8.88
364.806	8.89
365.169	8.94
365.533	8.94
365.896	8.87
366.26	8.82
366.623	8.72
366.987	8.7
367.35	8.66
367.714	8.65
368.077	8.53
368.44	8.5
368.803	8.46
369.167	8.37
369.53	8.32
369.893	8.29
370.256	8.24
370.619	8.23
370.982	8.21
371.345	8.15
371.708	8.16
372.071	8.05
372.434	7.99
372.797	7.95
373.159	7.89
373.522	7.85
373.885	7.83
374.247	7.8
374.61	7.76
374.973	7.69
375.335	7.61
375.698	7.59
376.06	7.49
376.423	7.44
376.785	7.41
377.147	7.39
377.51	7.34
377.872	7.27
378.234	7.2
378.596	7.15
378.958	7.1
379.321	7.02
379.683	7
380.045	6.96
380.407	6.85
380.769	6.76
381.13	6.63
381.492	6.56
381.854	6.51
382.216	6.39
382.578	6.33
382.939	6.22
383.301	6.06
383.663	6.02
384.024	5.92
384.386	5.92
384.747	5.87
385.109	5.82
385.47	5.8
385.832	5.73
386.193	5.68
386.554	5.66
386.916	5.59
387.277	5.59
387.638	5.58
387.999	5.53
388.36	5.5
388.721	5.47
389.082	5.47
389.443	5.41
389.804	5.4
390.165	5.37
390.526	5.35
390.887	5.42
391.248	5.39
391.609	5.37
391.969	5.3
392.33	5.26
392.691	5.23
393.051	5.18
393.412	5.18
393.772	5.14
394.133	5.07
394.493	5.07
394.854	5.01
395.214	4.97
395.574	5
395.935	4.97
396.295	4.92
396.655	4.84
397.015	4.79
397.376	4.75
397.736	4.7
398.096	4.68
398.456	4.6
398.816	4.59
399.176	4.54
399.535	4.48
399.895	4.44
400.255	4.4
400.615	4.34
400.975	4.26
401.334	4.2
401.694	4.15
402.054	4.08
402.413	4.06
402.773	4.01
403.132	3.93
403.492	3.88
403.851	3.87
404.211	3.87
404.57	3.83
404.929	3.83
405.288	3.78
405.648	3.77
406.007	3.79
406.366	3.75
406.725	3.77
407.084	3.77
407.443	3.78
407.802	3.74
408.161	3.72
408.52	3.7
408.879	3.69
409.238	3.73
409.596	3.77
409.955	3.74
410.314	3.74
410.673	3.74
411.031	3.73
411.39	3.72
411.748	3.7
412.107	3.7
412.465	3.66
412.824	3.67
413.182	3.66
413.54	3.64
413.899	3.63
414.257	3.61
414.615	3.6
414.974	3.55
415.332	3.55
415.69	3.55
416.048	3.53
416.406	3.53
416.764	3.48
417.122	3.44
417.48	3.45
417.838	3.44
418.195	3.42
418.553	3.42
418.911	3.42
419.269	3.41
419.626	3.41
419.984	3.4
420.342	3.39
420.699	3.37
421.057	3.34
421.414	3.31
421.772	3.31
422.129	3.29
422.486	3.27
422.844	3.27
423.201	3.27
423.558	3.26
423.915	3.24
424.273	3.24
424.63	3.24
424.987	3.21
425.344	3.18
425.701	3.18
426.058	3.18
426.415	3.15
426.772	3.14
427.128	3.11
427.485	3.09
427.842	3.1
428.199	3.1
428.555	3.08
428.912	3.09
429.269	3.07
429.625	3.07
429.982	3.07
430.338	3.04
430.695	3.04
431.051	3.01
431.407	3.03
431.764	3.01
432.12	3
432.476	3.01
432.832	3.02
433.189	3.01
433.545	3.01
433.901	3
434.257	3
434.613	3
434.969	3.01
435.325	2.99
435.681	3.01
436.036	3.01
436.392	3.01
436.748	3.01
437.104	3
437.459	2.98
437.815	2.98
438.171	2.98
438.526	3
438.882	2.98
439.237	2.99
439.593	2.99
439.948	2.99
440.304	2.97
440.659	2.98
441.014	2.97
441.369	2.97
441.725	2.97
442.08	2.98
442.435	2.97
442.79	2.96
443.145	2.96
443.5	2.97
443.855	2.95
444.21	2.96
444.565	2.97
444.92	2.99
445.275	2.98
445.629	2.99
445.984	2.99
446.339	2.99
446.693	3
447.048	2.99
447.403	2.99
447.757	3
448.112	2.97
448.466	2.97
448.82	2.96
449.175	2.97
449.529	2.95
449.883	2.95
450.238	2.96
450.592	2.96
450.946	2.93
451.3	2.94
451.654	2.92
452.008	2.92
452.362	2.9
452.716	2.9
453.07	2.9
453.424	2.88
453.778	2.85
454.132	2.83
454.486	2.82
454.839	2.81
455.193	2.78
455.547	2.79
455.9	2.81
456.254	2.8
456.607	2.79
456.961	2.78
457.314	2.77
457.668	2.77
458.021	2.74
458.375	2.74
458.728	2.73
459.081	2.73
459.434	2.71
459.787	2.73
460.141	2.73
460.494	2.72
460.847	2.72
461.2	2.73
461.553	2.73
461.906	2.73
462.259	2.74
462.611	2.76
462.964	2.77
463.317	2.77
463.67	2.77
464.022	2.76
464.375	2.78
464.728	2.81
465.08	2.8
465.433	2.82
465.785	2.83
466.138	2.82
466.49	2.84
466.843	2.85
467.195	2.83
467.547	2.84
467.899	2.83
468.252	2.84
468.604	2.87
468.956	2.89
469.308	2.9
469.66	2.89
470.012	2.89
470.364	2.88
470.716	2.88
471.068	2.88
471.42	2.9
471.772	2.91
472.123	2.92
472.475	2.9
472.827	2.9
473.178	2.9
473.53	2.92
473.882	2.93
474.233	2.95
474.585	2.96
474.936	2.97
475.288	2.99
475.639	3.02
475.99	3.03
476.342	3.02
476.693	3.02
477.044	3.04
477.395	3.05
477.746	3.04
478.097	3.03
478.448	3.04
478.8	3.06
479.15	3.06
479.501	3.06
479.852	3.08
480.203	3.09
480.554	3.09
480.905	3.1
481.255	3.1
481.606	3.11
481.957	3.11
482.307	3.1
482.658	3.1
483.009	3.09
483.359	3.07
483.709	3.08
484.06	3.08
484.41	3.08
484.761	3.08
485.111	3.09
485.461	3.09
485.811	3.08
486.162	3.08
486.512	3.08
486.862	3.07
487.212	3.07
487.562	3.06
487.912	3.07
488.262	3.06
488.612	3.07
488.961	3.06
489.311	3.05
489.661	3.05
490.011	3.05
490.36	3.05
490.71	3.07
491.06	3.07
491.409	3.07
491.759	3.07
492.108	3.08
492.458	3.07
492.807	3.06
493.157	3.08
493.506	3.09
493.855	3.09
494.204	3.08
494.554	3.09
494.903	3.09
495.252	3.09
495.601	3.09
495.95	3.09
496.299	3.1
496.648	3.1
496.997	3.1
497.346	3.13
497.695	3.14
498.043	3.14
498.392	3.14
498.741	3.16
499.09	3.15
499.438	3.15
499.787	3.16
500.135	3.19
500.484	3.22
500.832	3.24
501.181	3.25
501.529	3.28
501.878	3.31
502.226	3.35
502.574	3.37
502.923	3.4
503.271	3.43
503.619	3.46
503.967	3.51
504.315	3.54
504.663	3.55
505.011	3.57
505.359	3.62
505.707	3.67
506.055	3.71
506.403	3.77
506.751	3.82
507.098	3.88
507.446	3.92
507.794	3.95
508.141	4
508.489	4.08
508.837	4.13
509.184	4.19
509.531	4.25
509.879	4.32
510.226	4.39
510.574	4.46
510.921	4.53
511.268	4.6
511.616	4.68
511.963	4.79
512.31	4.87
512.657	4.96
513.004	5.05
513.351	5.16
513.698	5.27
514.045	5.41
514.392	5.54
514.739	5.67
515.086	5.83
515.432	5.97
515.779	6.1
516.126	6.26
516.473	6.42
516.819	6.56
517.166	6.7
517.512	6.84
517.859	6.98
518.205	7.11
518.552	7.26
518.898	7.4
519.245	7.55
519.591	7.72
519.937	7.88
520.283	8.07
520.629	8.24
520.976	8.46
521.322	8.65
521.668	8.85
522.014	9.11
522.36	9.33
522.706	9.57
523.052	9.84
523.398	10.1
523.743	10.36
524.089	10.66
524.435	10.95
524.781	11.24
525.126	11.48
525.472	11.72
525.817	11.94
526.163	12.17
526.509	12.33
526.854	12.49
527.199	12.64
527.545	12.81
527.89	12.97
528.235	13.13
528.581	13.29
528.926	13.46
529.271	13.61
529.616	13.79
529.961	13.97
530.306	14.14
530.651	14.34
530.996	14.53
531.341	14.73
531.686	14.93
532.031	15.12
532.376	15.31
532.721	15.55
533.065	15.77
533.41	15.98
533.755	16.25
534.099	16.49
534.444	16.77
534.788	16.98
535.133	17.2
535.477	17.43
535.822	17.69
536.166	17.94
536.51	18.22
536.855	18.5
537.199	18.77
537.543	19.05
537.887	19.31
538.231	19.6
538.576	19.89
538.92	20.17
539.264	20.44
539.608	20.72
539.951	20.96
540.295	21.2
540.639	21.42
540.983	21.62
541.327	21.85
541.671	22.04
542.014	22.27
542.358	22.52
542.701	22.74
543.045	22.96
543.389	23.19
543.732	23.37
544.075	23.56
544.419	23.79
544.762	24.03
545.105	24.29
545.449	24.56
545.792	24.82
546.135	25.07
546.478	25.37
546.821	25.68
547.165	25.96
547.508	26.29
547.851	26.59
548.194	26.9
548.536	27.21
548.879	27.55
549.222	27.86
549.565	28.18
549.908	28.53
550.25	28.85
550.593	29.16
550.936	29.56
551.278	29.93
551.621	30.31
551.963	30.67
552.306	30.98
552.648	31.28
552.991	31.61
553.333	31.92
553.675	32.16
554.017	32.44
554.36	32.72
554.702	32.96
555.044	33.29
555.386	33.62
555.728	33.96
556.07	34.24
556.412	34.48
556.754	34.74
557.096	34.98
557.438	35.24
557.78	35.55
558.121	35.81
558.463	36.13
558.805	36.37
559.147	36.58
559.488	36.87
559.83	37.13
560.171	37.41
560.513	37.69
560.854	38.01
561.196	38.3
561.537	38.55
561.878	38.84
562.22	39.05
562.561	39.24
562.902	39.45
563.243	39.7
563.584	39.97
563.925	40.24
564.266	40.49
564.607	40.72
564.948	40.94
565.289	41.17
565.63	41.34
565.971	41.56
566.312	41.82
566.653	42.06
566.993	42.33
567.334	42.52
567.675	42.72
568.015	42.98
568.356	43.16
568.696	43.45
569.037	43.62
569.377	43.9
569.718	44.15
570.058	44.4
570.398	44.6
570.739	44.85
571.079	45.05
571.419	45.24
571.759	45.46
572.099	45.62
572.439	45.77
572.779	45.93
573.119	46.1
573.459	46.25
573.799	46.41
574.139	46.56
574.479	46.73
574.819	46.96
575.158	47.13
575.498	47.25
575.838	47.39
576.177	47.57
576.517	47.69
576.856	47.81
577.196	47.91
577.535	48.05
577.875	48.2
578.214	48.37
578.553	48.53
578.893	48.66
579.232	48.85
579.571	49.15
579.91	49.34
580.25	49.44
580.589	49.67
580.928	49.82
581.267	49.89
581.606	50.08
581.945	50.12
582.283	50.23
582.622	50.47
582.961	50.63
583.3	50.82
583.639	50.98
583.977	51.13
584.316	51.26
584.654	51.43
584.993	51.55
585.332	51.67
585.67	51.8
586.008	51.95
586.347	52.01
586.685	52.04
587.024	52.07
587.362	52.22
587.7	52.31
588.038	52.35
588.376	52.44
588.715	52.58
589.053	52.75
589.391	52.88
589.729	52.95
590.067	53.02
590.404	53.05
590.742	53.13
591.08	53.28
591.418	53.38
591.756	53.51
592.093	53.56
592.431	53.57
592.769	53.65
593.106	53.74
593.444	53.8
593.781	53.85
594.119	53.98
594.456	54.1
594.793	54.13
595.131	54.35
595.468	54.45
595.805	54.48
596.143	54.56
596.48	54.59
596.817	54.61
597.154	54.69
597.491	54.79
597.828	54.87
598.165	54.85
598.502	54.97
598.839	54.93
599.176	54.98
599.512	55.12
599.849	55.21
600.186	55.24
600.523	55.38
600.859	55.46
601.196	55.57
601.532	55.55
601.869	55.66
602.205	55.67
602.542	55.73
602.878	55.76
603.215	55.79
603.551	55.86
603.887	55.92
604.223	55.91
604.56	55.99
604.896	56.04
605.232	56.12
605.568	56.14
605.904	56.21
606.24	56.28
606.576	56.31
606.912	56.33
607.248	56.37
607.583	56.46
607.919	56.56
608.255	56.61
608.591	56.74
608.926	56.79
609.262	56.84
609.597	56.88
609.933	56.98
610.268	57.04
610.604	57.11
610.939	57.18
611.275	57.18
611.61	57.2
611.945	57.19
612.281	57.21
612.616	57.22
612.951	57.33
613.286	57.39
613.621	57.41
613.956	57.44
614.291	57.44
614.626	57.4
614.961	57.39
615.296	57.49
615.631	57.6
615.966	57.63
616.3	57.6
616.635	57.67
616.97	57.66
617.304	57.7
617.639	57.73
617.973	57.8
618.308	58.01
618.642	58.04
618.977	58.12
619.311	58.24
619.646	58.34
619.98	58.42
620.314	58.52
620.648	58.59
620.983	58.64
621.317	58.77
621.651	58.85
621.985	58.89
622.319	58.8
622.653	58.76
622.987	58.79
623.321	58.85
623.655	58.93
623.988	58.88
624.322	58.91
624.656	58.96
624.99	58.93
625.323	58.9
625.657	58.89
625.99	58.9
626.324	58.92
626.657	58.96
626.991	58.85
627.324	58.84
627.658	58.83
627.991	58.87
628.324	58.83
628.657	58.85
628.991	58.92
629.324	59.02
629.657	59.05
629.99	59.07
630.323	59.12
630.656	59.14
630.989	59.22
631.322	59.28
631.655	59.24
631.987	59.34
632.32	59.39
632.653	59.49
632.986	59.56
633.318	59.51
633.651	59.55
633.984	59.67
634.316	59.77
634.649	59.79
634.981	59.9
635.313	59.98
635.646	59.89
635.978	59.86
636.31	59.87
636.643	59.82
636.975	59.88
637.307	59.83
637.639	59.75
637.971	59.83
638.303	59.79
638.635	59.86
638.967	59.84
639.299	59.89
639.631	59.81
639.963	59.68
640.295	59.74
640.626	59.72
640.958	59.72
641.29	59.66
641.621	59.86
641.953	59.7
642.285	59.74
642.616	59.96
642.948	60.02
643.279	60.08
643.61	60.15
643.942	60.15
644.273	60.19
644.604	60.28
644.936	60.27
645.267	60.34
645.598	60.33
645.929	60.29
646.26	60.24
646.591	60.32
646.922	60.41
647.253	60.31
647.584	60.35
647.915	60.33
648.245	60.3
648.576	60.2
648.907	60.28
649.238	60.27
649.568	60.25
649.899	60.14
650.229	60.05
650.56	60.06
650.89	60.1
651.221	60.14
651.551	60.08
651.882	60.11
652.212	60.12
652.542	60.12
652.872	60.31
653.203	60.35
653.533	60.27
653.863	60.3
654.193	60.48
654.523	60.42
654.853	60.55
655.183	60.63
655.513	60.65
655.843	60.68
656.172	60.69
656.502	60.78
656.832	60.86
657.162	60.95
657.491	60.89
657.821	60.85
658.15	60.8
658.48	60.78
658.809	60.72
659.139	60.64
659.468	60.48
659.798	60.35
660.127	60.36
660.456	60.44
660.785	60.44
661.115	60.34
661.444	60.37
661.773	60.28
662.102	60.3
662.431	60.22
662.76	60.14
663.089	60.15
663.418	59.97
663.747	60.01
664.076	60.08
664.404	60.17
664.733	60.2
665.062	60.27
665.39	60.36
665.719	60.49
666.048	60.57
666.376	60.73
666.705	60.78
