Data from BU58138_Reflection_00006.txt Node
Date: Mon Nov 18 16:42:09 EST 2019
User: vgr7
Spectrometer: USB2G7710
Scans to average: 3
Trigger mode: 4
Integration Time (sec): 2.000000E-2
Electric dark correction enabled: true
Boxcar width: 10
XAxis mode: Wavelengths
Number of Pixels in Spectrum: 2048
>>>>>Begin Spectral Data<<<<<
177.721	51766.67
178.105	-503.17
178.488	-242.3
178.871	-1545.83
179.254	9.98
179.636	39.58
180.019	-19.33
180.402	92.59
180.785	131.55
181.168	100.92
181.55	71.61
181.933	81.9
182.316	123.5
182.698	138.13
183.081	106
183.463	82.61
183.846	74.83
184.228	88.93
184.611	102.86
184.993	115.93
185.376	122.42
185.758	91.63
186.14	105.99
186.522	125.24
186.904	217.33
187.287	1666.21
187.669	-1193.91
188.051	1576.19
188.433	401.87
188.815	8433.33
189.197	-1297.31
189.579	-392.4
189.961	-336.38
190.342	-256.26
190.724	-114.46
191.106	-88.63
191.488	-73.05
191.869	-60.45
192.251	-82.57
192.633	-110.9
193.014	-152.14
193.396	-133.73
193.777	-117.22
194.159	-87.01
194.54	-68.86
194.922	-58.03
195.303	-60.64
195.684	-64.83
196.065	-29.08
196.447	-33
196.828	-40.54
197.209	-23.7
197.59	-43.62
197.971	-67.91
198.352	-65.98
198.733	-96.46
199.114	-61.78
199.495	-54.31
199.876	-72.38
200.257	-66.54
200.638	-49.69
201.018	-41
201.399	-45.27
201.78	-35.68
202.16	-48.86
202.541	-74.4
202.922	-108.28
203.302	-130.91
203.683	-113.29
204.063	-127.07
204.444	-96.73
204.824	-86.86
205.204	-95.81
205.585	-96.79
205.965	-56.91
206.345	-67.57
206.725	-73.11
207.106	-96.54
207.486	-107.06
207.866	-116.76
208.246	-106.52
208.626	-97.92
209.006	-92.11
209.386	-100.89
209.766	-91.88
210.145	-72.5
210.525	-67.46
210.905	-56.22
211.285	-47.84
211.664	-40.74
212.044	-40.74
212.424	-35.48
212.803	-39.09
213.183	-33.78
213.562	-28.99
213.942	-26.61
214.321	-28.01
214.701	-34.82
215.08	-36.18
215.459	-45.34
215.838	-36.49
216.218	-37
216.597	-33.87
216.976	-33.24
217.355	-33.49
217.734	-33.68
218.113	-40.94
218.492	-35.52
218.871	-44.19
219.25	-52.77
219.629	-62.68
220.008	-80.85
220.387	-105.03
220.766	-114.52
221.144	-174.88
221.523	-205.74
221.902	-292.88
222.28	-337.09
222.659	-235.24
223.037	-205.75
223.416	-135.89
223.794	-127.85
224.173	-99.01
224.551	-70.08
224.929	-65.17
225.308	-51.83
225.686	-45.04
226.064	-33.78
226.442	-30.37
226.821	-26.7
227.199	-22.85
227.577	-20.2
227.955	-17.57
228.333	-13.24
228.711	-8.84
229.089	-4.37
229.467	-3.15
229.845	-2.57
230.222	-1.02
230.6	-2.76
230.978	-4.36
231.356	-3.56
231.733	-1.89
232.111	0.33
232.488	0.8
232.866	0.92
233.243	0.99
233.621	0.52
233.998	0.15
234.376	-0.34
234.753	1.47
235.13	1.63
235.508	1.69
235.885	0.38
236.262	-0.71
236.639	-1.26
237.016	-2.52
237.393	-1.16
237.77	0.25
238.147	0.11
238.524	0.48
238.901	1.58
239.278	2.79
239.655	3.9
240.032	3.71
240.409	3.21
240.785	3.41
241.162	3.71
241.539	3.42
241.915	3.3
242.292	3.44
242.668	3.28
243.045	3.34
243.421	3.05
243.798	3.2
244.174	3.46
244.551	3.46
244.927	3.5
245.303	3.55
245.679	3.7
246.056	3.85
246.432	4.04
246.808	3.93
247.184	3.52
247.56	3.13
247.936	3.04
248.312	3.08
248.688	2.92
249.064	2.77
249.44	3.04
249.815	3.09
250.191	3.08
250.567	3.03
250.943	3.04
251.318	3.18
251.694	3.31
252.069	3.37
252.445	3.26
252.82	3.19
253.196	3.04
253.571	2.71
253.947	2.72
254.322	2.87
254.697	2.66
255.073	2.73
255.448	2.53
255.823	2.45
256.198	2.51
256.573	2.84
256.948	3.02
257.323	2.88
257.698	2.95
258.073	2.94
258.448	2.94
258.823	2.91
259.198	2.76
259.573	2.86
259.948	2.96
260.322	2.93
260.697	2.93
261.072	3.01
261.446	2.98
261.821	2.64
262.195	2.55
262.57	2.57
262.944	2.6
263.319	2.86
263.693	2.91
264.067	2.96
264.442	2.94
264.816	2.93
265.19	2.82
265.564	2.94
265.938	2.86
266.313	2.9
266.687	2.93
267.061	3.16
267.435	3.05
267.809	2.85
268.183	2.98
268.556	2.92
268.93	2.7
269.304	2.92
269.678	3.43
270.051	3.28
270.425	3.43
270.799	3.45
271.172	3.29
271.546	3.28
271.919	3.17
272.293	2.99
272.666	3.03
273.04	3.16
273.413	3
273.787	3.04
274.16	2.96
274.533	2.87
274.906	2.86
275.279	2.8
275.653	2.85
276.026	2.87
276.399	2.98
276.772	3.17
277.145	2.93
277.518	2.87
277.891	2.99
278.263	2.9
278.636	2.88
279.009	2.87
279.382	2.99
279.755	3.03
280.127	3.32
280.5	3.37
280.872	3.33
281.245	3.24
281.617	3.29
281.99	3.41
282.362	3.66
282.735	3.55
283.107	3.71
283.479	3.65
283.852	3.55
284.224	3.45
284.596	3.44
284.968	3.51
285.34	3.43
285.713	3.38
286.085	3.4
286.457	3.48
286.829	3.45
287.201	3.53
287.572	3.51
287.944	3.34
288.316	3.31
288.688	3.31
289.06	3.29
289.431	3.25
289.803	3.25
290.175	3.07
290.546	3.12
290.918	2.95
291.289	3.03
291.661	3.11
292.032	3.23
292.403	3.29
292.775	3.39
293.146	3.4
293.517	3.43
293.889	3.54
294.26	3.46
294.631	3.53
295.002	3.3
295.373	3.32
295.744	3.43
296.115	3.3
296.486	3.23
296.857	3.34
297.228	3.43
297.599	3.24
297.97	3.34
298.34	3.39
298.711	3.33
299.082	3.35
299.452	3.37
299.823	3.37
300.194	3.3
300.564	3.18
300.935	3.2
301.305	3.26
301.676	3.2
302.046	3.1
302.416	3.23
302.787	3.4
303.157	3.36
303.527	3.33
303.897	3.34
304.267	3.47
304.637	3.55
305.008	3.38
305.378	3.57
305.748	3.56
306.117	3.56
306.487	3.72
306.857	3.65
307.227	3.64
307.597	3.61
307.967	3.66
308.336	3.74
308.706	3.69
309.076	3.55
309.445	3.4
309.815	3.45
310.184	3.32
310.554	3.14
310.923	3.19
311.293	3.22
311.662	3.34
312.031	3.23
312.401	3.16
312.77	3.31
313.139	3.31
313.508	3.27
313.877	3.21
314.246	3.13
314.616	3.03
314.985	2.99
315.353	2.97
315.722	2.98
316.091	2.91
316.46	2.77
316.829	2.82
317.198	3.05
317.567	3.11
317.935	3.09
318.304	3.2
318.672	3.25
319.041	3.33
319.41	3.13
319.778	3.14
320.147	3.2
320.515	3.1
320.883	3.03
321.252	3.15
321.62	3.1
321.988	3.16
322.357	3.2
322.725	3.34
323.093	3.39
323.461	3.36
323.829	3.38
324.197	3.52
324.565	3.49
324.933	3.27
325.301	3.31
325.669	3.43
326.037	3.4
326.405	3.36
326.772	3.25
327.14	3.31
327.508	3.35
327.875	3.21
328.243	3.2
328.61	3.1
328.978	3.05
329.346	3.17
329.713	3.01
330.08	3.17
330.448	3.06
330.815	2.98
331.182	2.97
331.55	2.91
331.917	2.86
332.284	3.03
332.651	3.07
333.018	3.07
333.385	2.94
333.752	2.94
334.119	2.89
334.486	2.84
334.853	2.88
335.22	2.83
335.587	2.92
335.954	2.87
336.32	2.99
336.687	2.96
337.054	2.9
337.42	3.1
337.787	3.04
338.153	3.02
338.52	3.09
338.886	2.98
339.253	2.96
339.619	3.05
339.986	3.04
340.352	3.08
340.718	3.02
341.084	3.07
341.451	3.15
341.817	3.21
342.183	3.2
342.549	3.19
342.915	3.28
343.281	3.3
343.647	3.34
344.013	3.37
344.379	3.32
344.745	3.32
345.11	3.25
345.476	3.23
345.842	3.2
346.208	3.15
346.573	3.28
346.939	3.44
347.304	3.37
347.67	3.35
348.035	3.35
348.401	3.34
348.766	3.36
349.132	3.31
349.497	3.2
349.862	3.24
350.228	3.24
350.593	3.14
350.958	3.14
351.323	3.19
351.688	3.15
352.053	3.22
352.418	3.2
352.783	3.29
353.148	3.39
353.513	3.41
353.878	3.42
354.243	3.41
354.608	3.35
354.972	3.45
355.337	3.44
355.702	3.48
356.066	3.57
356.431	3.49
356.795	3.54
357.16	3.6
357.524	3.57
357.889	3.57
358.253	3.58
358.618	3.56
358.982	3.44
359.346	3.4
359.71	3.35
360.075	3.35
360.439	3.3
360.803	3.19
361.167	3.17
361.531	3.19
361.895	3.17
362.259	3.14
362.623	3.09
362.987	3.07
363.351	3.03
363.714	3.03
364.078	3.09
364.442	3.05
364.806	3.07
365.169	3.08
365.533	3.11
365.896	3.15
366.26	3.14
366.623	3.21
366.987	3.28
367.35	3.33
367.714	3.38
368.077	3.4
368.44	3.34
368.803	3.3
369.167	3.28
369.53	3.25
369.893	3.28
370.256	3.34
370.619	3.28
370.982	3.21
371.345	3.15
371.708	3.11
372.071	3.13
372.434	3.04
372.797	3.04
373.159	3.01
373.522	3.01
373.885	3.02
374.247	3.06
374.61	3.04
374.973	2.98
375.335	2.99
375.698	3.03
376.06	3.08
376.423	3.13
376.785	3.15
377.147	3.21
377.51	3.18
377.872	3.15
378.234	3.21
378.596	3.29
378.958	3.25
379.321	3.27
379.683	3.29
380.045	3.34
380.407	3.35
380.769	3.35
381.13	3.33
381.492	3.34
381.854	3.29
382.216	3.32
382.578	3.31
382.939	3.31
383.301	3.25
383.663	3.24
384.024	3.22
384.386	3.22
384.747	3.23
385.109	3.26
385.47	3.21
385.832	3.21
386.193	3.23
386.554	3.27
386.916	3.25
387.277	3.23
387.638	3.19
387.999	3.18
388.36	3.2
388.721	3.21
389.082	3.19
389.443	3.21
389.804	3.17
390.165	3.2
390.526	3.23
390.887	3.26
391.248	3.29
391.609	3.34
391.969	3.33
392.33	3.32
392.691	3.32
393.051	3.35
393.412	3.33
393.772	3.29
394.133	3.31
394.493	3.3
394.854	3.28
395.214	3.3
395.574	3.34
395.935	3.32
396.295	3.32
396.655	3.32
397.015	3.3
397.376	3.31
397.736	3.31
398.096	3.28
398.456	3.26
398.816	3.27
399.176	3.24
399.535	3.21
399.895	3.21
400.255	3.23
400.615	3.22
400.975	3.19
401.334	3.19
401.694	3.2
402.054	3.23
402.413	3.21
402.773	3.19
403.132	3.18
403.492	3.2
403.851	3.21
404.211	3.21
404.57	3.21
404.929	3.22
405.288	3.17
405.648	3.13
406.007	3.13
406.366	3.13
406.725	3.15
407.084	3.19
407.443	3.18
407.802	3.16
408.161	3.15
408.52	3.17
408.879	3.17
409.238	3.18
409.596	3.15
409.955	3.17
410.314	3.22
410.673	3.21
411.031	3.19
411.39	3.15
411.748	3.15
412.107	3.16
412.465	3.15
412.824	3.14
413.182	3.17
413.54	3.2
413.899	3.21
414.257	3.19
414.615	3.16
414.974	3.19
415.332	3.2
415.69	3.18
416.048	3.18
416.406	3.17
416.764	3.15
417.122	3.18
417.48	3.16
417.838	3.17
418.195	3.17
418.553	3.15
418.911	3.17
419.269	3.18
419.626	3.18
419.984	3.2
420.342	3.22
420.699	3.22
421.057	3.21
421.414	3.2
421.772	3.21
422.129	3.21
422.486	3.2
422.844	3.19
423.201	3.18
423.558	3.18
423.915	3.2
424.273	3.2
424.63	3.18
424.987	3.19
425.344	3.18
425.701	3.18
426.058	3.19
426.415	3.19
426.772	3.19
427.128	3.2
427.485	3.19
427.842	3.18
428.199	3.19
428.555	3.18
428.912	3.19
429.269	3.18
429.625	3.18
429.982	3.18
430.338	3.2
430.695	3.21
431.051	3.2
431.407	3.21
431.764	3.21
432.12	3.23
432.476	3.23
432.832	3.2
433.189	3.21
433.545	3.2
433.901	3.19
434.257	3.19
434.613	3.18
434.969	3.18
435.325	3.2
435.681	3.21
436.036	3.2
436.392	3.2
436.748	3.18
437.104	3.18
437.459	3.18
437.815	3.17
438.171	3.19
438.526	3.2
438.882	3.18
439.237	3.18
439.593	3.18
439.948	3.19
440.304	3.21
440.659	3.22
441.014	3.23
441.369	3.23
441.725	3.22
442.08	3.21
442.435	3.23
442.79	3.22
443.145	3.21
443.5	3.22
443.855	3.21
444.21	3.22
444.565	3.23
444.92	3.24
445.275	3.24
445.629	3.24
445.984	3.22
446.339	3.22
446.693	3.21
447.048	3.2
447.403	3.19
447.757	3.18
448.112	3.17
448.466	3.16
448.82	3.17
449.175	3.18
449.529	3.18
449.883	3.17
450.238	3.16
450.592	3.15
450.946	3.15
451.3	3.13
451.654	3.14
452.008	3.13
452.362	3.13
452.716	3.12
453.07	3.11
453.424	3.12
453.778	3.14
454.132	3.14
454.486	3.14
454.839	3.15
455.193	3.14
455.547	3.14
455.9	3.14
456.254	3.14
456.607	3.1
456.961	3.12
457.314	3.1
457.668	3.12
458.021	3.11
458.375	3.11
458.728	3.14
459.081	3.14
459.434	3.12
459.787	3.13
460.141	3.12
460.494	3.14
460.847	3.15
461.2	3.15
461.553	3.15
461.906	3.14
462.259	3.14
462.611	3.15
462.964	3.16
463.317	3.18
463.67	3.17
464.022	3.22
464.375	3.19
464.728	3.21
465.08	3.22
465.433	3.24
465.785	3.23
466.138	3.22
466.49	3.22
466.843	3.22
467.195	3.22
467.547	3.25
467.899	3.24
468.252	3.24
468.604	3.24
468.956	3.23
469.308	3.25
469.66	3.24
470.012	3.24
470.364	3.25
470.716	3.26
471.068	3.28
471.42	3.27
471.772	3.29
472.123	3.29
472.475	3.3
472.827	3.31
473.178	3.33
473.53	3.33
473.882	3.34
474.233	3.34
474.585	3.34
474.936	3.32
475.288	3.31
475.639	3.31
475.99	3.3
476.342	3.33
476.693	3.33
477.044	3.32
477.395	3.34
477.746	3.33
478.097	3.3
478.448	3.29
478.8	3.27
479.15	3.26
479.501	3.27
479.852	3.25
480.203	3.26
480.554	3.26
480.905	3.27
481.255	3.26
481.606	3.26
481.957	3.27
482.307	3.27
482.658	3.28
483.009	3.27
483.359	3.27
483.709	3.28
484.06	3.29
484.41	3.29
484.761	3.28
485.111	3.27
485.461	3.28
485.811	3.28
486.162	3.29
486.512	3.29
486.862	3.29
487.212	3.29
487.562	3.29
487.912	3.28
488.262	3.27
488.612	3.28
488.961	3.29
489.311	3.28
489.661	3.29
490.011	3.28
490.36	3.28
490.71	3.29
491.06	3.27
491.409	3.27
491.759	3.27
492.108	3.26
492.458	3.26
492.807	3.25
493.157	3.25
493.506	3.25
493.855	3.26
494.204	3.25
494.554	3.26
494.903	3.24
495.252	3.25
495.601	3.26
495.95	3.25
496.299	3.23
496.648	3.24
496.997	3.23
497.346	3.25
497.695	3.25
498.043	3.25
498.392	3.24
498.741	3.28
499.09	3.27
499.438	3.3
499.787	3.32
500.135	3.33
500.484	3.34
500.832	3.35
501.181	3.35
501.529	3.35
501.878	3.36
502.226	3.4
502.574	3.4
502.923	3.41
503.271	3.43
503.619	3.44
503.967	3.44
504.315	3.41
504.663	3.41
505.011	3.43
505.359	3.43
505.707	3.47
506.055	3.44
506.403	3.46
506.751	3.46
507.098	3.47
507.446	3.48
507.794	3.48
508.141	3.48
508.489	3.47
508.837	3.5
509.184	3.48
509.531	3.47
509.879	3.5
510.226	3.53
510.574	3.52
510.921	3.52
511.268	3.52
511.616	3.56
511.963	3.57
512.31	3.55
512.657	3.57
513.004	3.56
513.351	3.58
513.698	3.57
514.045	3.55
514.392	3.56
514.739	3.55
515.086	3.56
515.432	3.56
515.779	3.57
516.126	3.56
516.473	3.59
516.819	3.59
517.166	3.58
517.512	3.56
517.859	3.57
518.205	3.56
518.552	3.58
518.898	3.56
519.245	3.55
519.591	3.57
519.937	3.55
520.283	3.55
520.629	3.56
520.976	3.56
521.322	3.59
521.668	3.57
522.014	3.57
522.36	3.57
522.706	3.57
523.052	3.59
523.398	3.61
523.743	3.6
524.089	3.61
524.435	3.6
524.781	3.6
525.126	3.62
525.472	3.64
525.817	3.65
526.163	3.66
526.509	3.68
526.854	3.69
527.199	3.7
527.545	3.7
527.89	3.7
528.235	3.7
528.581	3.7
528.926	3.71
529.271	3.72
529.616	3.73
529.961	3.73
530.306	3.73
530.651	3.73
530.996	3.74
531.341	3.75
531.686	3.75
532.031	3.75
532.376	3.75
532.721	3.74
533.065	3.75
533.41	3.75
533.755	3.73
534.099	3.73
534.444	3.75
534.788	3.75
535.133	3.75
535.477	3.75
535.822	3.76
536.166	3.76
536.51	3.76
536.855	3.75
537.199	3.77
537.543	3.77
537.887	3.76
538.231	3.75
538.576	3.74
538.92	3.75
539.264	3.76
539.608	3.76
539.951	3.77
540.295	3.75
540.639	3.77
540.983	3.78
541.327	3.77
541.671	3.77
542.014	3.76
542.358	3.77
542.701	3.79
543.045	3.79
543.389	3.81
543.732	3.81
544.075	3.82
544.419	3.81
544.762	3.81
545.105	3.81
545.449	3.83
545.792	3.83
546.135	3.84
546.478	3.84
546.821	3.86
547.165	3.84
547.508	3.88
547.851	3.87
548.194	3.84
548.536	3.84
548.879	3.85
549.222	3.9
549.565	3.89
549.908	3.89
550.25	3.87
550.593	3.85
550.936	3.83
551.278	3.83
551.621	3.87
551.963	3.85
552.306	3.85
552.648	3.81
552.991	3.82
553.333	3.83
553.675	3.81
554.017	3.8
554.36	3.83
554.702	3.8
555.044	3.8
555.386	3.82
555.728	3.83
556.07	3.79
556.412	3.74
556.754	3.73
557.096	3.69
557.438	3.72
557.78	3.71
558.121	3.73
558.463	3.72
558.805	3.7
559.147	3.73
559.488	3.75
559.83	3.78
560.171	3.79
560.513	3.79
560.854	3.75
561.196	3.77
561.537	3.76
561.878	3.73
562.22	3.73
562.561	3.72
562.902	3.72
563.243	3.73
563.584	3.74
563.925	3.76
564.266	3.78
564.607	3.77
564.948	3.79
565.289	3.77
565.63	3.79
565.971	3.79
566.312	3.78
566.653	3.77
566.993	3.74
567.334	3.74
567.675	3.77
568.015	3.77
568.356	3.74
568.696	3.76
569.037	3.79
569.377	3.78
569.718	3.78
570.058	3.79
570.398	3.79
570.739	3.79
571.079	3.77
571.419	3.75
571.759	3.75
572.099	3.73
572.439	3.74
572.779	3.73
573.119	3.72
573.459	3.72
573.799	3.72
574.139	3.72
574.479	3.71
574.819	3.7
575.158	3.75
575.498	3.77
575.838	3.73
576.177	3.73
576.517	3.73
576.856	3.75
577.196	3.71
577.535	3.72
577.875	3.74
578.214	3.76
578.553	3.81
578.893	3.8
579.232	3.84
579.571	3.83
579.91	3.82
580.25	3.83
580.589	3.87
580.928	3.9
581.267	3.92
581.606	3.9
581.945	3.88
582.283	3.81
582.622	3.81
582.961	3.8
583.3	3.78
583.639	3.79
583.977	3.79
584.316	3.8
584.654	3.77
584.993	3.8
585.332	3.82
585.67	3.8
586.008	3.8
586.347	3.8
586.685	3.78
587.024	3.79
587.362	3.81
587.7	3.79
588.038	3.75
588.376	3.74
588.715	3.79
589.053	3.79
589.391	3.84
589.729	3.86
590.067	3.86
590.404	3.88
590.742	3.89
591.08	3.9
591.418	3.9
591.756	3.89
592.093	3.84
592.431	3.82
592.769	3.81
593.106	3.79
593.444	3.75
593.781	3.78
594.119	3.8
594.456	3.77
594.793	3.78
595.131	3.75
595.468	3.75
595.805	3.7
596.143	3.73
596.48	3.74
596.817	3.71
597.154	3.74
597.491	3.73
597.828	3.72
598.165	3.72
598.502	3.7
598.839	3.72
599.176	3.7
599.512	3.68
599.849	3.71
600.186	3.71
600.523	3.74
600.859	3.74
601.196	3.7
601.532	3.71
601.869	3.66
602.205	3.71
602.542	3.74
602.878	3.79
603.215	3.74
603.551	3.7
603.887	3.7
604.223	3.7
604.56	3.7
604.896	3.7
605.232	3.73
605.568	3.73
605.904	3.75
606.24	3.81
606.576	3.84
606.912	3.83
607.248	3.83
607.583	3.84
607.919	3.86
608.255	3.85
608.591	3.87
608.926	3.87
609.262	3.84
609.597	3.83
609.933	3.79
610.268	3.82
610.604	3.85
610.939	3.89
611.275	3.85
611.61	3.84
611.945	3.84
612.281	3.8
612.616	3.83
612.951	3.83
613.286	3.78
613.621	3.8
613.956	3.81
614.291	3.83
614.626	3.82
614.961	3.84
615.296	3.85
615.631	3.81
615.966	3.84
616.3	3.88
616.635	3.85
616.97	3.89
617.304	3.9
617.639	3.91
617.973	3.88
618.308	3.94
618.642	3.95
618.977	3.94
619.311	3.92
619.646	3.91
619.98	3.87
620.314	3.94
620.648	3.88
620.983	3.9
621.317	3.93
621.651	3.95
621.985	3.94
622.319	3.95
622.653	4
622.987	4.02
623.321	4
623.655	4.03
623.988	4.07
624.322	4.02
624.656	4.06
624.99	4.06
625.323	4.02
625.657	4.04
625.99	4.06
626.324	4.11
626.657	4.11
626.991	4.17
627.324	4.14
627.658	4.17
627.991	4.16
628.324	4.12
628.657	4.11
628.991	4.09
629.324	4.09
629.657	4.06
629.99	4.03
630.323	4.03
630.656	4
630.989	3.99
631.322	4.05
631.655	3.96
631.987	3.98
632.32	3.96
632.653	3.94
632.986	3.94
633.318	3.95
633.651	3.98
633.984	3.92
634.316	3.91
634.649	3.91
634.981	3.88
635.313	3.94
635.646	3.93
635.978	3.92
636.31	3.92
636.643	3.88
636.975	3.9
637.307	3.94
637.639	3.91
637.971	3.9
638.303	3.89
638.635	3.87
638.967	3.82
639.299	3.88
639.631	3.84
639.963	3.77
640.295	3.66
640.626	3.66
640.958	3.69
641.29	3.69
641.621	3.65
641.953	3.64
642.285	3.58
642.616	3.59
642.948	3.61
643.279	3.59
643.61	3.72
643.942	3.64
644.273	3.6
644.604	3.64
644.936	3.6
645.267	3.6
645.598	3.64
645.929	3.7
646.26	3.75
646.591	3.77
646.922	3.79
647.253	3.88
647.584	3.91
647.915	3.86
648.245	3.84
648.576	3.84
648.907	3.89
649.238	3.89
649.568	3.91
649.899	3.88
650.229	3.94
650.56	3.87
650.89	3.93
651.221	3.97
651.551	3.95
651.882	3.95
652.212	3.96
652.542	4.06
652.872	3.99
653.203	3.91
653.533	3.94
653.863	3.92
654.193	3.87
654.523	3.88
654.853	3.88
655.183	3.93
655.513	3.89
655.843	3.84
656.172	3.87
656.502	3.9
656.832	3.9
657.162	3.87
657.491	3.8
657.821	3.79
658.15	3.76
658.48	3.75
658.809	3.75
659.139	3.69
659.468	3.64
659.798	3.68
660.127	3.71
660.456	3.77
660.785	3.85
661.115	3.91
661.444	3.86
661.773	3.92
662.102	3.88
662.431	3.94
662.76	3.97
663.089	3.93
663.418	3.88
663.747	3.87
664.076	3.9
664.404	3.97
664.733	4.05
665.062	4.03
665.39	4.04
665.719	4
666.048	4.11
666.376	4.04
666.705	4.01
667.033	3.98
667.362	3.97
667.69	3.92
668.018	3.91
668.347	3.88
668.675	3.89
669.003	3.97
669.331	4.04
669.659	4.07
669.987	4.11
670.315	4.15
670.643	4.15
670.971	4.09
671.299	4.1
671.627	3.96
671.955	4.05
672.283	4.09
672.61	4.13
672.938	4.14
673.266	4.24
673.593	4.41
673.921	4.45
674.249	4.42
674.576	4.45
674.904	4.4
675.231	4.42
675.558	4.41
675.886	4.34
676.213	4.28
676.54	4.26
