Data from BU58130_Reflection_00003.txt Node
Date: Mon Nov 18 16:37:15 EST 2019
User: vgr7
Spectrometer: USB2G7710
Scans to average: 3
Trigger mode: 4
Integration Time (sec): 2.000000E-2
Electric dark correction enabled: true
Boxcar width: 10
XAxis mode: Wavelengths
Number of Pixels in Spectrum: 2048
>>>>>Begin Spectral Data<<<<<
177.721	346.82
178.105	-30.08
178.488	95.28
178.871	140.45
179.254	108.64
179.636	145.98
180.019	259.82
180.402	110.34
180.785	125.57
181.168	99.44
181.55	114.87
181.933	110.02
182.316	104.67
182.698	118.64
183.081	146.44
183.463	216.41
183.846	214.43
184.228	206.44
184.611	556.91
184.993	641.43
185.376	366.96
185.758	330.96
186.14	450.5
186.522	988.08
186.904	1716.03
187.287	2285.19
187.669	-1534.54
188.051	-6303.51
188.433	-3437.63
188.815	-212.79
189.197	-127.24
189.579	-137.71
189.961	-122.43
190.342	-171.88
190.724	-179.31
191.106	-222.56
191.488	-383.28
191.869	-643.59
192.251	-519.05
192.633	-1831.22
193.014	-14529.63
193.396	5420.99
193.777	5824.64
194.159	637.98
194.54	717.93
194.922	-830.47
195.303	-1840.64
195.684	-832.14
196.065	-368.62
196.447	-278.45
196.828	-375.7
197.209	-325.38
197.59	-317.15
197.971	-303.12
198.352	-195.84
198.733	-190.54
199.114	-196.58
199.495	-148.74
199.876	-95.76
200.257	-109.19
200.638	-93.54
201.018	-103.42
201.399	-88.86
201.78	-84.92
202.16	-78.09
202.541	-95.2
202.922	-132.6
203.302	-113.97
203.683	-122.14
204.063	-138.17
204.444	-132.96
204.824	-118.3
205.204	-125.82
205.585	-143.4
205.965	-146.81
206.345	-220.65
206.725	-246.07
207.106	-218.17
207.486	-416.37
207.866	-677.06
208.246	-484.87
208.626	-445.12
209.006	-395.79
209.386	-454.51
209.766	-490.87
210.145	-443.18
210.525	-457.68
210.905	-510.6
211.285	-1357.97
211.664	-799.81
212.044	-1378.43
212.424	7727.45
212.803	1036.51
213.183	3045.36
213.562	-703.75
213.942	-248.3
214.321	-184.85
214.701	-156.61
215.08	-174.07
215.459	-136.45
215.838	-108.9
216.218	-125.65
216.597	-101.56
216.976	-102.89
217.355	-116.16
217.734	-151.76
218.113	-162.43
218.492	-133.13
218.871	-123.91
219.25	-124.5
219.629	-143.87
220.008	-143.08
220.387	-130.27
220.766	-116.47
221.144	-122.98
221.523	-171.16
221.902	-238
222.28	-214.54
222.659	-197.16
223.037	-151.56
223.416	-122.6
223.794	-126.49
224.173	-107.11
224.551	-104.6
224.929	-92.64
225.308	-64.96
225.686	-48.42
226.064	-43.82
226.442	-43.89
226.821	-43.79
227.199	-39.92
227.577	-38.2
227.955	-30.78
228.333	-24.82
228.711	-23.99
229.089	-16.14
229.467	-15.56
229.845	-15.29
230.222	-10.5
230.6	-11.11
230.978	-12.09
231.356	-10.42
231.733	-8.67
232.111	-9.24
232.488	-8.19
232.866	-6.82
233.243	-7.99
233.621	-7.42
233.998	-8.1
234.376	-8.18
234.753	-5.74
235.13	-4.62
235.508	-4.46
235.885	-4.33
236.262	-5.47
236.639	-5.16
237.016	-5.95
237.393	-4.04
237.77	-1.96
238.147	-2.36
238.524	-1.2
238.901	-0.03
239.278	0.36
239.655	0.68
240.032	1.57
240.409	1.46
240.785	0.96
241.162	1.13
241.539	1.48
241.915	1.97
242.292	1.72
242.668	1.55
243.045	1.84
243.421	2.15
243.798	1.79
244.174	2.15
244.551	2.44
244.927	2.52
245.303	2.62
245.679	2.72
246.056	2.96
246.432	2.8
246.808	2.45
247.184	2.38
247.56	2.02
247.936	1.92
248.312	1.99
248.688	2.21
249.064	2.26
249.44	2.22
249.815	2.17
250.191	2.26
250.567	2.18
250.943	1.98
251.318	2.02
251.694	2.05
252.069	1.87
252.445	1.95
252.82	1.69
253.196	1.5
253.571	1.04
253.947	0.7
254.322	1
254.697	1.04
255.073	1.1
255.448	1.5
255.823	1.46
256.198	1.78
256.573	1.84
256.948	1.92
257.323	2.07
257.698	2.12
258.073	2.16
258.448	2.21
258.823	2.45
259.198	2.39
259.573	2.43
259.948	2.6
260.322	2.69
260.697	2.53
261.072	2.42
261.446	2.55
261.821	2.5
262.195	2.55
262.57	2.52
262.944	2.4
263.319	2.43
263.693	2.42
264.067	2.49
264.442	2.44
264.816	2.42
265.19	2.45
265.564	2.46
265.938	2.41
266.313	2.51
266.687	2.53
267.061	2.63
267.435	2.78
267.809	2.65
268.183	2.48
268.556	2.64
268.93	2.75
269.304	2.79
269.678	2.98
270.051	2.92
270.425	3.09
270.799	3.29
271.172	3.36
271.546	3.4
271.919	3.02
272.293	2.96
272.666	3.07
273.04	3.14
273.413	3.05
273.787	3.09
274.16	3.02
274.533	2.75
274.906	2.66
275.279	2.51
275.653	2.51
276.026	2.63
276.399	2.81
276.772	2.97
277.145	2.77
277.518	2.68
277.891	2.69
278.263	2.48
278.636	2.46
279.009	2.39
279.382	2.6
279.755	2.88
280.127	3.07
280.5	3.03
280.872	2.98
281.245	2.93
281.617	3.04
281.99	3.24
282.362	3.42
282.735	3.41
283.107	3.48
283.479	3.5
283.852	3.41
284.224	3.33
284.596	3.36
284.968	3.47
285.34	3.54
285.713	3.42
286.085	3.55
286.457	3.45
286.829	3.51
287.201	3.38
287.572	3.3
287.944	3.18
288.316	3.29
288.688	3.27
289.06	3.33
289.431	3.23
289.803	3.26
290.175	3.15
290.546	3.27
290.918	3.2
291.289	3.08
291.661	3.2
292.032	3.3
292.403	3.17
292.775	3.22
293.146	3.18
293.517	3.11
293.889	3.17
294.26	3.17
294.631	2.98
295.002	2.85
295.373	2.91
295.744	3.05
296.115	2.85
296.486	2.79
296.857	2.84
297.228	2.87
297.599	2.75
297.97	2.8
298.34	2.73
298.711	2.73
299.082	2.75
299.452	2.67
299.823	2.75
300.194	2.76
300.564	2.66
300.935	2.65
301.305	2.78
301.676	2.69
302.046	2.78
302.416	3.03
302.787	3.2
303.157	3.22
303.527	3.06
303.897	3.25
304.267	3.32
304.637	3.24
305.008	3.23
305.378	3.32
305.748	3.34
306.117	3.21
306.487	3.21
306.857	3.32
307.227	3.35
307.597	3.18
307.967	3.25
308.336	3.34
308.706	3.36
309.076	3.38
309.445	3.38
309.815	3.37
310.184	3.12
310.554	3.17
310.923	3.03
311.293	3.17
311.662	2.99
312.031	2.92
312.401	2.96
312.77	3.11
313.139	3.15
313.508	3.26
313.877	3.33
314.246	3.38
314.616	3.34
314.985	3.19
315.353	3.16
315.722	3.12
316.091	2.98
316.46	2.81
316.829	2.84
317.198	2.86
317.567	2.73
317.935	2.78
318.304	2.67
318.672	2.72
319.041	2.65
319.41	2.76
319.778	2.72
320.147	2.83
320.515	2.62
320.883	2.39
321.252	2.22
321.62	2.24
321.988	2.17
322.357	2.07
322.725	2.1
323.093	2.19
323.461	2.14
323.829	2.12
324.197	2.34
324.565	2.32
324.933	2.34
325.301	2.41
325.669	2.43
326.037	2.44
326.405	2.49
326.772	2.56
327.14	2.58
327.508	2.68
327.875	2.48
328.243	2.58
328.61	2.6
328.978	2.54
329.346	2.58
329.713	2.46
330.08	2.57
330.448	2.62
330.815	2.54
331.182	2.57
331.55	2.63
331.917	2.65
332.284	2.66
332.651	2.62
333.018	2.65
333.385	2.79
333.752	2.81
334.119	2.88
334.486	2.78
334.853	2.85
335.22	2.81
335.587	2.86
335.954	2.66
336.32	2.71
336.687	2.83
337.054	2.87
337.42	2.96
337.787	3.12
338.153	3.14
338.52	3.09
338.886	2.94
339.253	2.83
339.619	2.76
339.986	2.65
340.352	2.71
340.718	2.71
341.084	2.61
341.451	2.6
341.817	2.49
342.183	2.47
342.549	2.36
342.915	2.33
343.281	2.38
343.647	2.52
344.013	2.39
344.379	2.32
344.745	2.35
345.11	2.27
345.476	2.1
345.842	2.07
346.208	2.06
346.573	2.13
346.939	2.23
347.304	2.21
347.67	2.17
348.035	2.17
348.401	2.11
348.766	2.11
349.132	2.08
349.497	2.06
349.862	2.13
350.228	2.12
350.593	2.1
350.958	2.14
351.323	2.11
351.688	2.2
352.053	2.21
352.418	2.12
352.783	2.18
353.148	2.23
353.513	2.25
353.878	2.32
354.243	2.4
354.608	2.4
354.972	2.38
355.337	2.51
355.702	2.5
356.066	2.63
356.431	2.57
356.795	2.6
357.16	2.63
357.524	2.53
357.889	2.56
358.253	2.58
358.618	2.5
358.982	2.49
359.346	2.45
359.71	2.47
360.075	2.49
360.439	2.48
360.803	2.53
361.167	2.5
361.531	2.48
361.895	2.45
362.259	2.47
362.623	2.51
362.987	2.47
363.351	2.48
363.714	2.41
364.078	2.47
364.442	2.43
364.806	2.39
365.169	2.43
365.533	2.43
365.896	2.43
366.26	2.47
366.623	2.52
366.987	2.56
367.35	2.6
367.714	2.6
368.077	2.61
368.44	2.54
368.803	2.6
369.167	2.59
369.53	2.56
369.893	2.59
370.256	2.6
370.619	2.63
370.982	2.6
371.345	2.62
371.708	2.55
372.071	2.56
372.434	2.62
372.797	2.63
373.159	2.63
373.522	2.64
373.885	2.64
374.247	2.55
374.61	2.57
374.973	2.5
375.335	2.45
375.698	2.48
376.06	2.49
376.423	2.44
376.785	2.5
377.147	2.57
377.51	2.55
377.872	2.58
378.234	2.56
378.596	2.63
378.958	2.61
379.321	2.65
379.683	2.64
380.045	2.63
380.407	2.64
380.769	2.62
381.13	2.64
381.492	2.65
381.854	2.75
382.216	2.71
382.578	2.75
382.939	2.79
383.301	2.78
383.663	2.79
384.024	2.74
384.386	2.77
384.747	2.75
385.109	2.81
385.47	2.76
385.832	2.75
386.193	2.75
386.554	2.75
386.916	2.75
387.277	2.79
387.638	2.78
387.999	2.79
388.36	2.79
388.721	2.82
389.082	2.84
389.443	2.83
389.804	2.87
390.165	2.86
390.526	2.83
390.887	2.81
391.248	2.82
391.609	2.86
391.969	2.82
392.33	2.83
392.691	2.79
393.051	2.79
393.412	2.79
393.772	2.77
394.133	2.77
394.493	2.77
394.854	2.78
395.214	2.79
395.574	2.8
395.935	2.78
396.295	2.75
396.655	2.69
397.015	2.68
397.376	2.66
397.736	2.65
398.096	2.7
398.456	2.74
398.816	2.72
399.176	2.72
399.535	2.7
399.895	2.68
400.255	2.67
400.615	2.67
400.975	2.69
401.334	2.7
401.694	2.7
402.054	2.71
402.413	2.68
402.773	2.66
403.132	2.65
403.492	2.61
403.851	2.61
404.211	2.64
404.57	2.66
404.929	2.66
405.288	2.65
405.648	2.63
406.007	2.62
406.366	2.61
406.725	2.63
407.084	2.67
407.443	2.68
407.802	2.68
408.161	2.67
408.52	2.63
408.879	2.62
409.238	2.61
409.596	2.65
409.955	2.64
410.314	2.69
410.673	2.68
411.031	2.72
411.39	2.72
411.748	2.72
412.107	2.72
412.465	2.73
412.824	2.71
413.182	2.72
413.54	2.72
413.899	2.75
414.257	2.73
414.615	2.71
414.974	2.72
415.332	2.73
415.69	2.75
416.048	2.76
416.406	2.76
416.764	2.76
417.122	2.74
417.48	2.74
417.838	2.75
418.195	2.77
418.553	2.78
418.911	2.79
419.269	2.79
419.626	2.77
419.984	2.78
420.342	2.82
420.699	2.82
421.057	2.83
421.414	2.82
421.772	2.82
422.129	2.84
422.486	2.85
422.844	2.85
423.201	2.83
423.558	2.84
423.915	2.85
424.273	2.84
424.63	2.83
424.987	2.83
425.344	2.82
425.701	2.81
426.058	2.8
426.415	2.8
426.772	2.79
427.128	2.8
427.485	2.8
427.842	2.78
428.199	2.8
428.555	2.79
428.912	2.8
429.269	2.81
429.625	2.79
429.982	2.76
430.338	2.75
430.695	2.76
431.051	2.76
431.407	2.74
431.764	2.74
432.12	2.76
432.476	2.76
432.832	2.76
433.189	2.75
433.545	2.75
433.901	2.73
434.257	2.73
434.613	2.76
434.969	2.78
435.325	2.78
435.681	2.76
436.036	2.75
436.392	2.75
436.748	2.74
437.104	2.76
437.459	2.77
437.815	2.78
438.171	2.78
438.526	2.79
438.882	2.81
439.237	2.82
439.593	2.83
439.948	2.83
440.304	2.84
440.659	2.86
441.014	2.88
441.369	2.89
441.725	2.87
442.08	2.85
442.435	2.84
442.79	2.85
443.145	2.84
443.5	2.84
443.855	2.84
444.21	2.85
444.565	2.85
444.92	2.86
445.275	2.86
445.629	2.88
445.984	2.87
446.339	2.86
446.693	2.85
447.048	2.83
447.403	2.83
447.757	2.82
448.112	2.8
448.466	2.78
448.82	2.78
449.175	2.79
449.529	2.8
449.883	2.79
450.238	2.78
450.592	2.79
450.946	2.77
451.3	2.76
451.654	2.76
452.008	2.75
452.362	2.76
452.716	2.75
453.07	2.75
453.424	2.76
453.778	2.75
454.132	2.75
454.486	2.76
454.839	2.77
455.193	2.77
455.547	2.79
455.9	2.8
456.254	2.81
456.607	2.8
456.961	2.79
457.314	2.8
457.668	2.81
458.021	2.81
458.375	2.83
458.728	2.84
459.081	2.84
459.434	2.84
459.787	2.83
460.141	2.82
460.494	2.82
460.847	2.82
461.2	2.81
461.553	2.82
461.906	2.83
462.259	2.83
462.611	2.84
462.964	2.82
463.317	2.81
463.67	2.81
464.022	2.81
464.375	2.82
464.728	2.83
465.08	2.83
465.433	2.83
465.785	2.83
466.138	2.82
466.49	2.83
466.843	2.84
467.195	2.85
467.547	2.85
467.899	2.84
468.252	2.8
468.604	2.84
468.956	2.83
469.308	2.83
469.66	2.82
470.012	2.83
470.364	2.85
470.716	2.86
471.068	2.88
471.42	2.88
471.772	2.89
472.123	2.88
472.475	2.88
472.827	2.87
473.178	2.88
473.53	2.89
473.882	2.88
474.233	2.87
474.585	2.84
474.936	2.84
475.288	2.84
475.639	2.86
475.99	2.84
476.342	2.84
476.693	2.85
477.044	2.85
477.395	2.85
477.746	2.84
478.097	2.83
478.448	2.83
478.8	2.83
479.15	2.81
479.501	2.81
479.852	2.81
480.203	2.82
480.554	2.84
480.905	2.84
481.255	2.85
481.606	2.85
481.957	2.86
482.307	2.87
482.658	2.88
483.009	2.87
483.359	2.87
483.709	2.88
484.06	2.88
484.41	2.89
484.761	2.89
485.111	2.89
485.461	2.89
485.811	2.89
486.162	2.89
486.512	2.9
486.862	2.89
487.212	2.9
487.562	2.9
487.912	2.9
488.262	2.9
488.612	2.9
488.961	2.89
489.311	2.9
489.661	2.9
490.011	2.91
490.36	2.92
490.71	2.92
491.06	2.91
491.409	2.92
491.759	2.9
492.108	2.9
492.458	2.91
492.807	2.9
493.157	2.9
493.506	2.89
493.855	2.89
494.204	2.88
494.554	2.87
494.903	2.86
495.252	2.84
495.601	2.84
495.95	2.85
496.299	2.84
496.648	2.84
496.997	2.83
497.346	2.8
497.695	2.8
498.043	2.8
498.392	2.81
498.741	2.8
499.09	2.79
499.438	2.8
499.787	2.81
500.135	2.8
500.484	2.82
500.832	2.83
501.181	2.82
501.529	2.81
501.878	2.84
502.226	2.83
502.574	2.85
502.923	2.83
503.271	2.83
503.619	2.85
503.967	2.83
504.315	2.83
504.663	2.83
505.011	2.84
505.359	2.83
505.707	2.82
506.055	2.8
506.403	2.83
506.751	2.84
507.098	2.83
507.446	2.87
507.794	2.87
508.141	2.87
508.489	2.9
508.837	2.91
509.184	2.9
509.531	2.91
509.879	2.92
510.226	2.94
510.574	2.95
510.921	2.95
511.268	2.96
511.616	2.98
511.963	2.97
512.31	2.95
512.657	2.98
513.004	2.99
513.351	3.01
513.698	3.01
514.045	3
514.392	3.01
514.739	2.99
515.086	3.01
515.432	3
515.779	2.97
516.126	3
516.473	3.02
516.819	3.02
517.166	3.01
517.512	3.02
517.859	3.02
518.205	3.02
518.552	3.03
518.898	3.02
519.245	3.03
519.591	3.05
519.937	3.03
520.283	3.02
520.629	3.02
520.976	3
521.322	3.01
521.668	3
522.014	3.01
522.36	3
522.706	3
523.052	3.03
523.398	3.02
523.743	3.02
524.089	3.02
524.435	3.03
524.781	3.03
525.126	3.04
525.472	3.06
525.817	3.04
526.163	3.05
526.509	3.06
526.854	3.06
527.199	3.07
527.545	3.06
527.89	3.06
528.235	3.08
528.581	3.07
528.926	3.08
529.271	3.09
529.616	3.08
529.961	3.09
530.306	3.1
530.651	3.09
530.996	3.09
531.341	3.09
531.686	3.08
532.031	3.08
532.376	3.08
532.721	3.08
533.065	3.08
533.41	3.07
533.755	3.06
534.099	3.06
534.444	3.06
534.788	3.09
535.133	3.09
535.477	3.09
535.822	3.09
536.166	3.09
536.51	3.08
536.855	3.09
537.199	3.08
537.543	3.09
537.887	3.1
538.231	3.09
538.576	3.09
538.92	3.1
539.264	3.1
539.608	3.11
539.951	3.11
540.295	3.11
540.639	3.12
540.983	3.13
541.327	3.13
541.671	3.13
542.014	3.12
542.358	3.13
542.701	3.13
543.045	3.14
543.389	3.16
543.732	3.17
544.075	3.18
544.419	3.2
544.762	3.19
545.105	3.18
545.449	3.21
545.792	3.21
546.135	3.21
546.478	3.21
546.821	3.19
547.165	3.17
547.508	3.18
547.851	3.17
548.194	3.15
548.536	3.14
548.879	3.15
549.222	3.15
549.565	3.16
549.908	3.14
550.25	3.13
550.593	3.11
550.936	3.08
551.278	3.05
551.621	3.05
551.963	3.04
552.306	3.04
552.648	3.02
552.991	3.03
553.333	3.01
553.675	3
554.017	3.03
554.36	3.04
554.702	3.03
555.044	3.03
555.386	3.06
555.728	3.06
556.07	3.07
556.412	3.08
556.754	3.08
557.096	3.09
557.438	3.08
557.78	3.09
558.121	3.12
558.463	3.11
558.805	3.09
559.147	3.09
559.488	3.09
559.83	3.08
560.171	3.08
560.513	3.11
560.854	3.08
561.196	3.07
561.537	3.09
561.878	3.09
562.22	3.09
562.561	3.07
562.902	3.11
563.243	3.1
563.584	3.1
563.925	3.09
564.266	3.07
564.607	3.11
564.948	3.11
565.289	3.09
565.63	3.11
565.971	3.11
566.312	3.12
566.653	3.13
566.993	3.13
567.334	3.1
567.675	3.11
568.015	3.13
568.356	3.13
568.696	3.14
569.037	3.15
569.377	3.17
569.718	3.17
570.058	3.14
570.398	3.14
570.739	3.15
571.079	3.16
571.419	3.17
571.759	3.16
572.099	3.15
572.439	3.14
572.779	3.14
573.119	3.14
573.459	3.15
573.799	3.16
574.139	3.17
574.479	3.18
574.819	3.18
575.158	3.17
575.498	3.16
575.838	3.17
576.177	3.14
576.517	3.11
576.856	3.15
577.196	3.12
577.535	3.1
577.875	3.11
578.214	3.09
578.553	3.12
578.893	3.14
579.232	3.12
579.571	3.13
579.91	3.14
580.25	3.13
580.589	3.13
580.928	3.13
581.267	3.11
581.606	3.11
581.945	3.1
582.283	3.11
582.622	3.08
582.961	3.09
583.3	3.11
583.639	3.18
583.977	3.16
584.316	3.19
584.654	3.19
584.993	3.12
585.332	3.13
585.67	3.08
586.008	3.04
586.347	3.06
586.685	3.05
587.024	3.02
587.362	3.06
587.7	3.07
588.038	3.09
588.376	3.06
588.715	3.06
589.053	3.1
589.391	3.14
589.729	3.16
590.067	3.16
590.404	3.15
590.742	3.16
591.08	3.15
591.418	3.15
591.756	3.16
592.093	3.21
592.431	3.21
592.769	3.22
593.106	3.22
593.444	3.2
593.781	3.21
594.119	3.23
594.456	3.19
594.793	3.16
595.131	3.13
595.468	3.11
595.805	3.11
596.143	3.04
596.48	2.99
596.817	3.02
597.154	2.98
597.491	2.96
597.828	2.93
598.165	2.91
598.502	2.93
598.839	2.95
599.176	2.9
599.512	2.89
599.849	2.91
600.186	2.95
600.523	2.99
600.859	3
601.196	3.03
601.532	3.01
601.869	3.01
602.205	3
602.542	3.04
602.878	3.03
603.215	3.06
603.551	3.1
603.887	3.07
604.223	3.1
604.56	3.11
604.896	3.13
605.232	3.17
605.568	3.17
605.904	3.14
606.24	3.19
606.576	3.2
606.912	3.18
607.248	3.17
607.583	3.18
607.919	3.17
608.255	3.12
608.591	3.16
608.926	3.18
609.262	3.23
609.597	3.24
609.933	3.25
610.268	3.26
610.604	3.26
610.939	3.28
611.275	3.26
611.61	3.28
611.945	3.3
612.281	3.27
612.616	3.26
612.951	3.31
613.286	3.3
613.621	3.32
613.956	3.35
614.291	3.36
614.626	3.31
614.961	3.3
615.296	3.3
615.631	3.28
615.966	3.29
616.3	3.23
616.635	3.22
616.97	3.22
617.304	3.2
617.639	3.19
617.973	3.2
618.308	3.23
618.642	3.22
618.977	3.16
619.311	3.16
619.646	3.14
619.98	3.1
620.314	3.09
620.648	3.05
620.983	3.04
621.317	3.04
621.651	3.11
621.985	3.14
622.319	3.2
622.653	3.22
622.987	3.23
623.321	3.2
623.655	3.22
623.988	3.25
624.322	3.23
624.656	3.25
624.99	3.25
625.323	3.23
625.657	3.25
625.99	3.27
626.324	3.27
626.657	3.26
626.991	3.26
627.324	3.27
627.658	3.3
627.991	3.32
628.324	3.34
628.657	3.26
628.991	3.25
629.324	3.25
629.657	3.24
629.99	3.26
630.323	3.28
630.656	3.26
630.989	3.27
631.322	3.32
631.655	3.31
631.987	3.33
632.32	3.31
632.653	3.29
632.986	3.26
633.318	3.22
633.651	3.28
633.984	3.27
634.316	3.26
634.649	3.23
634.981	3.2
635.313	3.17
635.646	3.19
635.978	3.2
636.31	3.13
636.643	3.15
636.975	3.16
637.307	3.19
637.639	3.19
637.971	3.2
638.303	3.15
638.635	3.16
638.967	3.1
639.299	3.13
639.631	3.09
639.963	3.07
640.295	3.11
640.626	3.11
640.958	3.16
641.29	3.13
641.621	3.1
641.953	3.07
642.285	3.03
642.616	3.06
642.948	3.02
643.279	3.02
643.61	3.09
643.942	3.01
644.273	2.98
644.604	2.98
644.936	2.96
645.267	3
645.598	3
645.929	3.05
646.26	3.08
646.591	3.15
646.922	3.15
647.253	3.22
647.584	3.17
647.915	3.11
648.245	3.15
648.576	3.24
648.907	3.28
649.238	3.28
649.568	3.25
649.899	3.29
650.229	3.36
650.56	3.34
650.89	3.43
651.221	3.41
651.551	3.35
651.882	3.36
652.212	3.37
652.542	3.34
652.872	3.24
653.203	3.17
653.533	3.18
653.863	3.18
654.193	3.11
654.523	3.12
654.853	3.14
655.183	3.13
655.513	3.04
655.843	3.04
656.172	3.11
656.502	3.16
656.832	3.17
657.162	3.17
657.491	3.11
657.821	3.08
658.15	3.11
658.48	3.18
658.809	3.15
659.139	3.14
659.468	3.14
659.798	3.19
660.127	3.23
660.456	3.24
660.785	3.26
661.115	3.28
661.444	3.35
661.773	3.38
662.102	3.42
662.431	3.49
662.76	3.49
663.089	3.47
663.418	3.43
663.747	3.39
664.076	3.32
664.404	3.33
664.733	3.35
665.062	3.32
665.39	3.3
665.719	3.29
666.048	3.3
666.376	3.37
666.705	3.36
667.033	3.29
667.362	3.38
667.69	3.37
668.018	3.37
668.347	3.31
668.675	3.32
669.003	3.21
669.331	3.23
669.659	3.17
669.987	3.11
670.315	3.12
670.643	3.15
670.971	3.21
671.299	3.23
671.627	3.17
671.955	3.2
672.283	3.18
672.61	3.17
672.938	3.15
673.266	3.11
673.593	3.22
673.921	3.28
674.249	3.2
674.576	3.18
