Data from BU58119_Reflection_00003.txt Node
Date: Tue Nov 19 10:50:42 EST 2019
User: vgr7
Spectrometer: USB2G7710
Scans to average: 3
Trigger mode: 4
Integration Time (sec): 2.000000E-2
Electric dark correction enabled: true
Boxcar width: 10
XAxis mode: Wavelengths
Number of Pixels in Spectrum: 2048
>>>>>Begin Spectral Data<<<<<
177.721	-99.68
178.105	2.91
178.488	167.72
178.871	177.27
179.254	480
179.636	43.97
180.019	-5.15
180.402	118.52
180.785	-109.09
181.168	83.77
181.55	91.17
181.933	80.64
182.316	61.88
182.698	43.74
183.081	35.1
183.463	206.41
183.846	121.06
184.228	405.76
184.611	291.7
184.993	76.06
185.376	101.81
185.758	-213.08
186.14	-143.28
186.522	-102.82
186.904	-60.76
187.287	-1.34
187.669	-0
188.051	2.67
188.433	2.43
188.815	3.6
189.197	-18.15
189.579	-4.55
189.961	10.23
190.342	14.73
190.724	28.25
191.106	47.58
191.488	63.78
191.869	68.19
192.251	80.48
192.633	67.59
193.014	47.27
193.396	37.72
193.777	27.4
194.159	43.3
194.54	41.39
194.922	27.61
195.303	21.21
195.684	41.48
196.065	35.4
196.447	47.49
196.828	35.96
197.209	66.71
197.59	91.31
197.971	50.4
198.352	34.59
198.733	22.69
199.114	-5.47
199.495	-25.72
199.876	-74.52
200.257	-323.08
200.638	-62.34
201.018	1664.52
201.399	-75.77
201.78	8.92
202.16	-98.51
202.541	-772.88
202.922	-104.7
203.302	2215.38
203.683	3240
204.063	-726.32
204.444	-528.71
204.824	-9600
205.204	-49.22
205.585	-66.24
205.965	-50.64
206.345	-40.45
206.725	-38.08
207.106	-37.67
207.486	-22.33
207.866	-24.61
208.246	-21.68
208.626	-38.11
209.006	-19.61
209.386	-16.78
209.766	-38.48
210.145	-7.85
210.525	-3.99
210.905	-8.02
211.285	-6.83
211.664	6.72
212.044	4.4
212.424	0.75
212.803	3.05
213.183	-2.88
213.562	3.33
213.942	19.14
214.321	29.09
214.701	46.14
215.08	45.01
215.459	43.4
215.838	44.91
216.218	37.17
216.597	45.11
216.976	42.21
217.355	44.59
217.734	48.4
218.113	50.96
218.492	46.11
218.871	44.65
219.25	57.21
219.629	55.37
220.008	54.92
220.387	47.23
220.766	54.04
221.144	50.35
221.523	54.42
221.902	44.83
222.28	32.03
222.659	23.12
223.037	26.06
223.416	30.07
223.794	41.89
224.173	44.6
224.551	45.55
224.929	30.12
225.308	18.48
225.686	20.83
226.064	11.35
226.442	13.12
226.821	13.27
227.199	5.88
227.577	7.81
227.955	10.76
228.333	12.53
228.711	8.36
229.089	8.07
229.467	7.37
229.845	6.08
230.222	4.92
230.6	-0.45
230.978	1.93
231.356	0.07
231.733	-4.09
232.111	-1.74
232.488	-4.03
232.866	-2.28
233.243	-0.4
233.621	-2.59
233.998	-2.63
234.376	-3.15
234.753	-0.45
235.13	-0
235.508	2.1
235.885	2.77
236.262	3.17
236.639	2.04
237.016	4.66
237.393	5
237.77	5.07
238.147	5.44
238.524	6.39
238.901	5.54
239.278	5.03
239.655	5.6
240.032	5.33
240.409	5.45
240.785	6.02
241.162	6.39
241.539	6.19
241.915	7.03
242.292	7.88
242.668	6.9
243.045	6.78
243.421	6.72
243.798	6.65
244.174	6.29
244.551	6.84
244.927	6.64
245.303	6.64
245.679	6.7
246.056	6.78
246.432	6.98
246.808	7.34
247.184	7.64
247.56	7.3
247.936	7.3
248.312	7.49
248.688	7.26
249.064	7.02
249.44	7.32
249.815	6.95
250.191	6.66
250.567	6.51
250.943	6.43
251.318	6.27
251.694	5.97
252.069	6.13
252.445	6.03
252.82	6.28
253.196	6.19
253.571	6.41
253.947	6.05
254.322	5.9
254.697	5.67
255.073	5.65
255.448	5.7
255.823	6.11
256.198	5.96
256.573	6.12
256.948	6.24
257.323	6.1
257.698	6.11
258.073	6.03
258.448	6.33
258.823	6.17
259.198	6.11
259.573	6.09
259.948	5.98
260.322	6.02
260.697	5.87
261.072	5.72
261.446	5.67
261.821	5.77
262.195	5.64
262.57	5.58
262.944	5.47
263.319	5.6
263.693	5.4
264.067	5.31
264.442	5.26
264.816	5.06
265.19	5
265.564	5.14
265.938	4.99
266.313	4.63
266.687	5
267.061	5.03
267.435	5.35
267.809	5.29
268.183	5.2
268.556	5.12
268.93	5.22
269.304	5.05
269.678	5.25
270.051	5.39
270.425	5.45
270.799	5.27
271.172	5.33
271.546	5.34
271.919	5.31
272.293	5.38
272.666	5.61
273.04	5.77
273.413	5.68
273.787	5.73
274.16	5.73
274.533	5.79
274.906	5.89
275.279	5.72
275.653	6.03
276.026	6.16
276.399	6.18
276.772	6.32
277.145	6.44
277.518	6.29
277.891	6.14
278.263	6.05
278.636	6.37
279.009	6.35
279.382	6.19
279.755	6.2
280.127	6.1
280.5	6.02
280.872	6.06
281.245	5.93
281.617	5.84
281.99	5.88
282.362	5.7
282.735	5.6
283.107	5.32
283.479	5.1
283.852	5.12
284.224	5.01
284.596	4.99
284.968	5.13
285.34	5.04
285.713	5.1
286.085	5.18
286.457	5.1
286.829	5.2
287.201	5.27
287.572	5.35
287.944	5.42
288.316	5.35
288.688	5.29
289.06	5.29
289.431	5.29
289.803	5.44
290.175	5.53
290.546	5.5
290.918	5.72
291.289	5.77
291.661	5.71
292.032	5.9
292.403	5.88
292.775	5.83
293.146	5.97
293.517	5.98
293.889	6.11
294.26	6.13
294.631	6.13
295.002	6.21
295.373	6.14
295.744	6.01
296.115	6.16
296.486	6.22
296.857	6.27
297.228	6.22
297.599	6.08
297.97	6.13
298.34	6.1
298.711	6.18
299.082	6.17
299.452	6.01
299.823	5.94
300.194	5.93
300.564	5.86
300.935	5.96
301.305	6.06
301.676	5.99
302.046	6.07
302.416	5.97
302.787	5.97
303.157	6.04
303.527	6.24
303.897	6.17
304.267	6.02
304.637	6.15
305.008	6.4
305.378	6.6
305.748	6.71
306.117	6.88
306.487	6.81
306.857	6.86
307.227	7.17
307.597	7.16
307.967	7.11
308.336	7.17
308.706	7.11
309.076	7.12
309.445	6.98
309.815	6.98
310.184	7.05
310.554	7.03
310.923	7
311.293	6.91
311.662	7.03
312.031	7.08
312.401	7.07
312.77	6.96
313.139	6.94
313.508	6.82
313.877	6.69
314.246	6.66
314.616	6.74
314.985	6.58
315.353	6.76
315.722	6.97
316.091	6.84
316.46	6.77
316.829	6.69
317.198	6.71
317.567	6.78
317.935	6.86
318.304	6.95
318.672	7.02
319.041	7.06
319.41	6.79
319.778	6.8
320.147	6.86
320.515	7.01
320.883	7.01
321.252	6.9
321.62	6.95
321.988	7.16
322.357	7.02
322.725	7.09
323.093	6.9
323.461	6.86
323.829	6.94
324.197	6.96
324.565	7.01
324.933	7.25
325.301	7.12
325.669	7.03
326.037	7.09
326.405	7.09
326.772	7.16
327.14	7.18
327.508	7.19
327.875	7.06
328.243	6.99
328.61	7.01
328.978	7.1
329.346	7.18
329.713	7.06
330.08	7.21
330.448	7.17
330.815	7.09
331.182	7.1
331.55	7.15
331.917	7.2
332.284	7.23
332.651	7.09
333.018	7.19
333.385	7.16
333.752	6.99
334.119	7.04
334.486	7.06
334.853	7.19
335.22	7.22
335.587	7.21
335.954	7.24
336.32	7.15
336.687	7.28
337.054	7.18
337.42	7.25
337.787	7.2
338.153	7.25
338.52	7.54
338.886	7.51
339.253	7.43
339.619	7.55
339.986	7.47
340.352	7.54
340.718	7.42
341.084	7.44
341.451	7.48
341.817	7.48
342.183	7.48
342.549	7.46
342.915	7.39
343.281	7.19
343.647	7.16
344.013	7.17
344.379	7.02
344.745	7.03
345.11	6.95
345.476	6.94
345.842	6.89
346.208	6.67
346.573	6.63
346.939	6.68
347.304	6.57
347.67	6.6
348.035	6.49
348.401	6.67
348.766	6.68
349.132	6.73
349.497	6.66
349.862	6.62
350.228	6.69
350.593	6.79
350.958	7.05
351.323	7.05
351.688	7.02
352.053	6.98
352.418	7.06
352.783	7.17
353.148	7.2
353.513	7.16
353.878	7.17
354.243	7.17
354.608	7.14
354.972	7.08
355.337	7.03
355.702	7.1
356.066	7.02
356.431	7.04
356.795	6.99
357.16	7.02
357.524	6.98
357.889	6.89
358.253	6.83
358.618	6.7
358.982	6.72
359.346	6.75
359.71	6.78
360.075	6.76
360.439	6.72
360.803	6.7
361.167	6.68
361.531	6.68
361.895	6.68
362.259	6.71
362.623	6.74
362.987	6.82
363.351	6.77
363.714	6.74
364.078	6.64
364.442	6.66
364.806	6.72
365.169	6.69
365.533	6.72
365.896	6.77
366.26	6.86
366.623	6.86
366.987	6.89
367.35	6.87
367.714	6.85
368.077	6.79
368.44	6.83
368.803	6.86
369.167	6.9
369.53	6.89
369.893	6.88
370.256	6.85
370.619	6.7
370.982	6.69
371.345	6.68
371.708	6.72
372.071	6.67
372.434	6.58
372.797	6.6
373.159	6.5
373.522	6.44
373.885	6.4
374.247	6.36
374.61	6.37
374.973	6.39
375.335	6.43
375.698	6.44
376.06	6.4
376.423	6.43
376.785	6.46
377.147	6.47
377.51	6.47
377.872	6.53
378.234	6.66
378.596	6.64
378.958	6.63
379.321	6.6
379.683	6.65
380.045	6.65
380.407	6.63
380.769	6.68
381.13	6.66
381.492	6.64
381.854	6.69
382.216	6.71
382.578	6.7
382.939	6.69
383.301	6.66
383.663	6.66
384.024	6.65
384.386	6.65
384.747	6.56
385.109	6.55
385.47	6.49
385.832	6.48
386.193	6.49
386.554	6.47
386.916	6.51
387.277	6.47
387.638	6.47
387.999	6.48
388.36	6.51
388.721	6.57
389.082	6.6
389.443	6.56
389.804	6.52
390.165	6.53
390.526	6.52
390.887	6.54
391.248	6.59
391.609	6.59
391.969	6.55
392.33	6.56
392.691	6.54
393.051	6.52
393.412	6.44
393.772	6.4
394.133	6.41
394.493	6.39
394.854	6.43
395.214	6.45
395.574	6.44
395.935	6.41
396.295	6.37
396.655	6.36
397.015	6.36
397.376	6.37
397.736	6.31
398.096	6.31
398.456	6.3
398.816	6.23
399.176	6.21
399.535	6.21
399.895	6.28
400.255	6.3
400.615	6.32
400.975	6.39
401.334	6.45
401.694	6.44
402.054	6.46
402.413	6.44
402.773	6.46
403.132	6.48
403.492	6.48
403.851	6.5
404.211	6.5
404.57	6.48
404.929	6.45
405.288	6.5
405.648	6.5
406.007	6.52
406.366	6.5
406.725	6.49
407.084	6.53
407.443	6.5
407.802	6.5
408.161	6.51
408.52	6.47
408.879	6.48
409.238	6.53
409.596	6.53
409.955	6.52
410.314	6.5
410.673	6.48
411.031	6.46
411.39	6.46
411.748	6.46
412.107	6.48
412.465	6.52
412.824	6.48
413.182	6.45
413.54	6.48
413.899	6.45
414.257	6.47
414.615	6.44
414.974	6.46
415.332	6.45
415.69	6.44
416.048	6.43
416.406	6.38
416.764	6.34
417.122	6.31
417.48	6.31
417.838	6.29
418.195	6.31
418.553	6.32
418.911	6.33
419.269	6.34
419.626	6.34
419.984	6.33
420.342	6.35
420.699	6.36
421.057	6.33
421.414	6.36
421.772	6.36
422.129	6.35
422.486	6.35
422.844	6.36
423.201	6.37
423.558	6.38
423.915	6.42
424.273	6.41
424.63	6.42
424.987	6.4
425.344	6.4
425.701	6.38
426.058	6.38
426.415	6.37
426.772	6.39
427.128	6.39
427.485	6.38
427.842	6.36
428.199	6.35
428.555	6.34
428.912	6.33
429.269	6.31
429.625	6.34
429.982	6.33
430.338	6.34
430.695	6.32
431.051	6.31
431.407	6.31
431.764	6.32
432.12	6.33
432.476	6.35
432.832	6.35
433.189	6.35
433.545	6.37
433.901	6.34
434.257	6.31
434.613	6.3
434.969	6.31
435.325	6.32
435.681	6.34
436.036	6.34
436.392	6.37
436.748	6.37
437.104	6.36
437.459	6.33
437.815	6.33
438.171	6.33
438.526	6.35
438.882	6.35
439.237	6.38
439.593	6.4
439.948	6.4
440.304	6.4
440.659	6.41
441.014	6.39
441.369	6.4
441.725	6.42
442.08	6.42
442.435	6.41
442.79	6.41
443.145	6.42
443.5	6.42
443.855	6.4
444.21	6.42
444.565	6.4
444.92	6.42
445.275	6.39
445.629	6.39
445.984	6.37
446.339	6.37
446.693	6.35
447.048	6.31
447.403	6.3
447.757	6.3
448.112	6.29
448.466	6.3
448.82	6.29
449.175	6.29
449.529	6.31
449.883	6.29
450.238	6.3
450.592	6.27
450.946	6.26
451.3	6.27
451.654	6.24
452.008	6.25
452.362	6.26
452.716	6.28
453.07	6.26
453.424	6.27
453.778	6.26
454.132	6.24
454.486	6.26
454.839	6.27
455.193	6.26
455.547	6.28
455.9	6.29
456.254	6.31
456.607	6.3
456.961	6.28
457.314	6.3
457.668	6.28
458.021	6.28
458.375	6.28
458.728	6.28
459.081	6.3
459.434	6.29
459.787	6.29
460.141	6.3
460.494	6.32
460.847	6.31
461.2	6.32
461.553	6.33
461.906	6.33
462.259	6.32
462.611	6.32
462.964	6.31
463.317	6.3
463.67	6.29
464.022	6.28
464.375	6.28
464.728	6.27
465.08	6.3
465.433	6.31
465.785	6.33
466.138	6.33
466.49	6.32
466.843	6.35
467.195	6.36
467.547	6.34
467.899	6.34
468.252	6.35
468.604	6.34
468.956	6.35
469.308	6.37
469.66	6.4
470.012	6.41
470.364	6.42
470.716	6.43
471.068	6.45
471.42	6.46
471.772	6.47
472.123	6.47
472.475	6.49
472.827	6.48
473.178	6.47
473.53	6.47
473.882	6.47
474.233	6.45
474.585	6.47
474.936	6.48
475.288	6.46
475.639	6.47
475.99	6.48
476.342	6.47
476.693	6.47
477.044	6.47
477.395	6.46
477.746	6.47
478.097	6.46
478.448	6.45
478.8	6.47
479.15	6.47
479.501	6.46
479.852	6.44
480.203	6.46
480.554	6.47
480.905	6.48
481.255	6.49
481.606	6.51
481.957	6.51
482.307	6.52
482.658	6.53
483.009	6.54
483.359	6.54
483.709	6.55
484.06	6.55
484.41	6.56
484.761	6.56
485.111	6.55
485.461	6.53
485.811	6.54
486.162	6.53
486.512	6.53
486.862	6.54
487.212	6.54
487.562	6.53
487.912	6.54
488.262	6.54
488.612	6.55
488.961	6.53
489.311	6.51
489.661	6.5
490.011	6.5
490.36	6.48
490.71	6.49
491.06	6.48
491.409	6.47
491.759	6.47
492.108	6.47
492.458	6.47
492.807	6.5
493.157	6.5
493.506	6.53
493.855	6.53
494.204	6.53
494.554	6.53
494.903	6.54
495.252	6.54
495.601	6.53
495.95	6.52
496.299	6.53
496.648	6.55
496.997	6.57
497.346	6.58
497.695	6.59
498.043	6.59
498.392	6.62
498.741	6.62
499.09	6.63
499.438	6.63
499.787	6.63
500.135	6.64
500.484	6.63
500.832	6.6
501.181	6.62
501.529	6.64
501.878	6.65
502.226	6.68
502.574	6.67
502.923	6.66
503.271	6.68
503.619	6.7
503.967	6.68
504.315	6.69
504.663	6.7
505.011	6.7
505.359	6.69
505.707	6.69
506.055	6.69
506.403	6.7
506.751	6.72
507.098	6.73
507.446	6.74
507.794	6.75
508.141	6.75
508.489	6.77
508.837	6.75
509.184	6.76
509.531	6.75
509.879	6.77
510.226	6.77
510.574	6.76
510.921	6.77
511.268	6.78
511.616	6.79
511.963	6.8
512.31	6.82
512.657	6.84
513.004	6.83
513.351	6.85
513.698	6.84
514.045	6.83
514.392	6.86
514.739	6.86
515.086	6.88
515.432	6.9
515.779	6.89
516.126	6.9
516.473	6.91
516.819	6.92
517.166	6.94
517.512	6.95
517.859	6.95
518.205	6.91
518.552	6.93
518.898	6.9
519.245	6.9
519.591	6.89
519.937	6.88
520.283	6.9
520.629	6.89
520.976	6.91
521.322	6.89
521.668	6.88
522.014	6.89
522.36	6.87
522.706	6.88
523.052	6.88
523.398	6.89
523.743	6.89
524.089	6.9
524.435	6.87
524.781	6.9
525.126	6.92
525.472	6.95
525.817	6.95
526.163	6.96
526.509	6.96
526.854	6.96
527.199	6.97
527.545	6.95
527.89	6.96
528.235	6.96
528.581	6.96
528.926	6.96
529.271	6.94
529.616	6.95
529.961	6.94
530.306	6.95
530.651	6.95
530.996	6.96
531.341	6.96
531.686	6.98
532.031	6.98
532.376	6.98
532.721	6.96
533.065	6.97
533.41	6.96
533.755	6.96
534.099	6.96
534.444	6.94
534.788	6.96
535.133	6.96
535.477	6.97
535.822	6.97
536.166	6.98
536.51	7
536.855	7.01
537.199	7.01
537.543	7.01
537.887	7.03
538.231	7.03
538.576	7.01
538.92	7.02
539.264	7.02
539.608	7.02
539.951	7.03
540.295	7.03
540.639	7.05
540.983	7.05
541.327	7.06
541.671	7.09
542.014	7.11
542.358	7.12
542.701	7.13
543.045	7.12
543.389	7.11
543.732	7.12
544.075	7.13
544.419	7.12
544.762	7.13
545.105	7.13
545.449	7.14
545.792	7.16
546.135	7.13
546.478	7.13
546.821	7.14
547.165	7.15
547.508	7.18
547.851	7.19
548.194	7.19
548.536	7.18
548.879	7.16
549.222	7.13
549.565	7.09
549.908	7.05
550.25	7.06
550.593	7.06
550.936	7.04
551.278	7.03
551.621	7.04
551.963	7.04
552.306	7.01
552.648	7
552.991	7
553.333	7
553.675	7.01
554.017	7
554.36	6.98
554.702	6.95
555.044	6.92
555.386	6.93
555.728	6.97
556.07	6.96
556.412	6.95
556.754	6.97
557.096	7.02
557.438	7.05
557.78	7.11
558.121	7.09
558.463	7.05
558.805	7.08
559.147	7.05
559.488	7.06
559.83	7.07
560.171	7.03
560.513	7.06
560.854	7.04
561.196	7.03
561.537	7.05
561.878	7.08
562.22	7.1
562.561	7.11
562.902	7.08
563.243	7.1
563.584	7.12
563.925	7.12
564.266	7.12
564.607	7.12
564.948	7.1
565.289	7.15
565.63	7.2
565.971	7.17
566.312	7.17
566.653	7.14
566.993	7.15
567.334	7.21
567.675	7.2
568.015	7.18
568.356	7.17
568.696	7.17
569.037	7.12
569.377	7.1
569.718	7.1
570.058	7.12
570.398	7.1
570.739	7.05
571.079	7.05
571.419	7.05
571.759	7.04
572.099	7
572.439	6.98
572.779	6.98
573.119	6.98
573.459	7.02
573.799	7.06
574.139	7.04
574.479	7.04
574.819	7.06
575.158	7.12
575.498	7.15
575.838	7.16
576.177	7.17
576.517	7.19
576.856	7.16
577.196	7.18
577.535	7.22
577.875	7.23
578.214	7.29
578.553	7.28
578.893	7.28
579.232	7.33
579.571	7.32
579.91	7.36
580.25	7.36
580.589	7.34
580.928	7.32
581.267	7.38
581.606	7.36
581.945	7.34
582.283	7.33
582.622	7.3
582.961	7.29
583.3	7.28
583.639	7.3
583.977	7.36
584.316	7.33
584.654	7.34
584.993	7.36
585.332	7.35
585.67	7.36
586.008	7.37
586.347	7.35
586.685	7.34
587.024	7.33
587.362	7.37
587.7	7.36
588.038	7.4
588.376	7.36
588.715	7.37
589.053	7.37
589.391	7.38
589.729	7.4
590.067	7.36
590.404	7.4
590.742	7.4
591.08	7.37
591.418	7.41
591.756	7.42
592.093	7.42
592.431	7.41
592.769	7.42
593.106	7.39
593.444	7.4
593.781	7.42
594.119	7.38
594.456	7.37
594.793	7.37
595.131	7.33
595.468	7.35
595.805	7.34
596.143	7.33
596.48	7.34
596.817	7.35
597.154	7.38
597.491	7.38
597.828	7.33
598.165	7.33
598.502	7.3
598.839	7.29
599.176	7.32
599.512	7.3
599.849	7.31
600.186	7.3
600.523	7.3
600.859	7.31
601.196	7.3
601.532	7.3
601.869	7.3
602.205	7.3
602.542	7.26
602.878	7.29
603.215	7.29
603.551	7.26
603.887	7.26
604.223	7.26
604.56	7.26
604.896	7.33
605.232	7.36
605.568	7.4
605.904	7.38
606.24	7.36
606.576	7.37
606.912	7.34
607.248	7.38
607.583	7.38
607.919	7.31
608.255	7.34
608.591	7.33
608.926	7.3
609.262	7.28
609.597	7.31
609.933	7.27
610.268	7.27
610.604	7.29
610.939	7.3
611.275	7.31
611.61	7.3
611.945	7.26
612.281	7.24
612.616	7.18
612.951	7.19
613.286	7.18
613.621	7.18
613.956	7.25
614.291	7.24
614.626	7.28
614.961	7.35
615.296	7.32
615.631	7.33
615.966	7.39
616.3	7.39
616.635	7.42
616.97	7.45
617.304	7.48
617.639	7.51
617.973	7.48
618.308	7.45
618.642	7.44
618.977	7.42
619.311	7.42
619.646	7.42
619.98	7.5
620.314	7.52
620.648	7.52
620.983	7.41
621.317	7.39
621.651	7.39
621.985	7.38
622.319	7.4
622.653	7.41
622.987	7.44
623.321	7.48
623.655	7.49
623.988	7.43
624.322	7.39
624.656	7.4
624.99	7.43
625.323	7.43
625.657	7.48
625.99	7.46
626.324	7.43
626.657	7.43
626.991	7.33
627.324	7.34
627.658	7.29
627.991	7.37
628.324	7.4
628.657	7.4
628.991	7.41
629.324	7.39
629.657	7.35
629.99	7.33
630.323	7.32
630.656	7.26
630.989	7.28
631.322	7.33
631.655	7.27
631.987	7.27
632.32	7.32
632.653	7.28
632.986	7.28
633.318	7.32
633.651	7.32
633.984	7.34
634.316	7.36
634.649	7.43
634.981	7.39
635.313	7.37
635.646	7.36
635.978	7.35
636.31	7.35
636.643	7.35
636.975	7.33
637.307	7.31
637.639	7.35
637.971	7.37
638.303	7.34
638.635	7.39
638.967	7.34
639.299	7.37
639.631	7.38
639.963	7.34
640.295	7.38
640.626	7.35
640.958	7.36
641.29	7.36
641.621	7.24
641.953	7.19
642.285	7.2
642.616	7.24
642.948	7.29
643.279	7.33
643.61	7.38
643.942	7.3
644.273	7.4
644.604	7.42
644.936	7.47
645.267	7.53
645.598	7.5
645.929	7.55
646.26	7.51
646.591	7.5
646.922	7.6
647.253	7.59
647.584	7.59
647.915	7.6
648.245	7.59
648.576	7.7
648.907	7.81
649.238	7.76
649.568	7.73
649.899	7.74
650.229	7.81
650.56	7.86
650.89	7.97
651.221	7.92
651.551	7.93
651.882	7.9
652.212	7.83
652.542	7.84
652.872	7.81
653.203	7.83
653.533	7.88
653.863	7.82
654.193	7.79
654.523	7.79
654.853	7.81
655.183	7.84
655.513	7.89
655.843	7.86
656.172	7.93
656.502	7.95
656.832	7.94
657.162	7.85
657.491	7.85
657.821	7.87
658.15	7.87
658.48	7.95
658.809	8
659.139	8.07
659.468	8.04
659.798	8.08
660.127	8.08
660.456	7.99
660.785	8.1
661.115	8.12
661.444	8.25
661.773	8.26
662.102	8.23
662.431	8.25
662.76	8.25
663.089	8.26
663.418	8.25
663.747	8.22
664.076	8.24
664.404	8.27
664.733	8.29
665.062	8.35
665.39	8.21
665.719	8.12
666.048	8.03
666.376	8.03
666.705	8.03
667.033	8.03
667.362	8.11
667.69	8.07
668.018	8.08
668.347	7.97
668.675	7.91
669.003	7.85
669.331	7.79
669.659	7.75
669.987	7.7
670.315	7.61
670.643	7.65
670.971	7.69
671.299	7.59
671.627	7.58
671.955	7.48
672.283	7.56
672.61	7.56
672.938	7.66
673.266	7.75
673.593	7.75
673.921	7.74
674.249	7.77
674.576	7.87
674.904	7.79
675.231	7.84
675.558	7.98
675.886	7.92
676.213	7.92
676.54	7.98
676.867	8
677.195	8.11
677.522	8.08
677.849	8.02
678.176	7.97
678.503	8
678.83	8.07
679.157	7.92
679.484	7.92
679.81	7.85
680.137	7.87
680.464	7.88
