Data from BU58119_Reflection_00010.txt Node
Date: Tue Nov 19 10:50:59 EST 2019
User: vgr7
Spectrometer: USB2G7710
Scans to average: 3
Trigger mode: 4
Integration Time (sec): 2.000000E-2
Electric dark correction enabled: true
Boxcar width: 10
XAxis mode: Wavelengths
Number of Pixels in Spectrum: 2048
>>>>>Begin Spectral Data<<<<<
177.721	-27.8
178.105	32.04
178.488	51.01
178.871	54.55
179.254	-300
179.636	237.93
180.019	168.67
180.402	-25.93
180.785	-518.18
181.168	200.65
181.55	138.87
181.933	172.89
182.316	203.14
182.698	155.47
183.081	224.31
183.463	368.22
183.846	343.9
184.228	999.28
184.611	558.5
184.993	342.25
185.376	410.47
185.758	-731.78
186.14	-246.27
186.522	-184.16
186.904	-201.27
187.287	-198.44
187.669	-130.34
188.051	-145.83
188.433	-156.83
188.815	-180.72
189.197	-115.04
189.579	-88.88
189.961	-78.33
190.342	-80.62
190.724	-62.79
191.106	-52.63
191.488	-30.8
191.869	-15.4
192.251	-19.43
192.633	-22.93
193.014	-23.76
193.396	-34.5
193.777	-45.56
194.159	-60.91
194.54	-48.12
194.922	-55.34
195.303	-56.76
195.684	-43.24
196.065	-36.34
196.447	-32.4
196.828	-35.81
197.209	-51.5
197.59	-49.41
197.971	-43.64
198.352	-46.31
198.733	-69.48
199.114	-84.3
199.495	-183.89
199.876	-334.69
200.257	-1256.64
200.638	-1835.06
201.018	4616.13
201.399	-408.53
201.78	-342.38
202.16	-228.36
202.541	-2120.34
202.922	-658.39
203.302	5100
203.683	4260
204.063	-963.16
204.444	-1018.81
204.824	-17100
205.204	-136.21
205.585	-110.53
205.965	-75.66
206.345	-78.05
206.725	-39.1
207.106	-15.11
207.486	0.74
207.866	-13.11
208.246	-3.22
208.626	-24.95
209.006	-38.8
209.386	-45.52
209.766	-62.1
210.145	-53.66
210.525	-36.59
210.905	-36.23
211.285	-38.29
211.664	-28.32
212.044	-30.72
212.424	-18.59
212.803	-19.81
213.183	-21.6
213.562	-18.72
213.942	-16.05
214.321	-6.78
214.701	-9.05
215.08	-15.1
215.459	-15.26
215.838	-6.65
216.218	-8.25
216.597	1.23
216.976	-0.09
217.355	4.1
217.734	9.81
218.113	14.76
218.492	22.28
218.871	13.4
219.25	22.12
219.629	18.49
220.008	19.7
220.387	5.9
220.766	15.52
221.144	26.71
221.523	33.12
221.902	24.79
222.28	10.47
222.659	14.27
223.037	21.46
223.416	26.65
223.794	14.17
224.173	17
224.551	20.54
224.929	13.85
225.308	10.43
225.686	14.37
226.064	4.16
226.442	1.09
226.821	8.03
227.199	10.04
227.577	13.93
227.955	19.21
228.333	23.45
228.711	19.86
229.089	14.33
229.467	12.3
229.845	12.5
230.222	14.57
230.6	11.39
230.978	9.7
231.356	6.45
231.733	7.52
232.111	5.38
232.488	3.28
232.866	5.01
233.243	5.01
233.621	1.68
233.998	3.47
234.376	0.26
234.753	1.92
235.13	1.2
235.508	-0.27
235.885	-3.65
236.262	-4.47
236.639	-1.51
237.016	-1.84
237.393	0.26
237.77	1.81
238.147	1.45
238.524	3
238.901	2.78
239.278	2.19
239.655	2.72
240.032	3.65
240.409	4.86
240.785	5.09
241.162	5.24
241.539	5.11
241.915	4.86
242.292	5.69
242.668	4.64
243.045	5.04
243.421	5.08
243.798	5.15
244.174	5.39
244.551	5.29
244.927	5.59
245.303	5.45
245.679	5.54
246.056	5.69
246.432	5.76
246.808	5.8
247.184	6.12
247.56	5.83
247.936	5.69
248.312	5.57
248.688	5.75
249.064	5.99
249.44	5.98
249.815	6.11
250.191	5.92
250.567	6.19
250.943	6.08
251.318	6.42
251.694	6.51
252.069	6.4
252.445	6.25
252.82	6.57
253.196	6.37
253.571	6.16
253.947	6.1
254.322	5.72
254.697	5.42
255.073	5.2
255.448	5.43
255.823	5.25
256.198	5.13
256.573	5.15
256.948	5
257.323	5.18
257.698	5.19
258.073	5.3
258.448	5.44
258.823	5.18
259.198	5.07
259.573	4.98
259.948	4.9
260.322	4.83
260.697	4.67
261.072	4.87
261.446	4.77
261.821	4.83
262.195	4.93
262.57	5.1
262.944	5.13
263.319	5.17
263.693	5.1
264.067	4.97
264.442	4.86
264.816	4.65
265.19	4.74
265.564	4.61
265.938	4.45
266.313	4.03
266.687	4.08
267.061	3.86
267.435	3.95
267.809	4.18
268.183	4.16
268.556	4.24
268.93	4.09
269.304	3.98
269.678	3.92
270.051	4.05
270.425	4.21
270.799	4.24
271.172	4.2
271.546	4.42
271.919	4.47
272.293	4.52
272.666	4.7
273.04	4.57
273.413	4.67
273.787	4.81
274.16	5.12
274.533	5.23
274.906	5.38
275.279	5.22
275.653	5.11
276.026	5.06
276.399	4.91
276.772	4.9
277.145	5.06
277.518	5.11
277.891	5.17
278.263	5.03
278.636	5.19
279.009	5.29
279.382	4.95
279.755	5.02
280.127	4.9
280.5	4.8
280.872	4.86
281.245	4.68
281.617	4.72
281.99	4.68
282.362	4.67
282.735	4.73
283.107	4.99
283.479	4.93
283.852	5.12
284.224	5.16
284.596	5.2
284.968	5.22
285.34	5.14
285.713	5
286.085	4.99
286.457	4.93
286.829	4.88
287.201	5.14
287.572	5.17
287.944	5.15
288.316	5.21
288.688	5.47
289.06	5.65
289.431	5.8
289.803	5.83
290.175	5.88
290.546	5.84
290.918	5.85
291.289	5.97
291.661	5.96
292.032	6.29
292.403	6.32
292.775	6.37
293.146	6.48
293.517	6.62
293.889	6.78
294.26	6.83
294.631	6.86
295.002	7.07
295.373	7.15
295.744	7.34
296.115	7.34
296.486	7.22
296.857	7.17
297.228	7.1
297.599	7.14
297.97	7.25
298.34	7.4
298.711	7.42
299.082	7.43
299.452	7.44
299.823	7.19
300.194	7.34
300.564	7.46
300.935	7.62
301.305	7.6
301.676	7.57
302.046	7.54
302.416	7.51
302.787	7.4
303.157	7.43
303.527	7.58
303.897	7.76
304.267	7.82
304.637	8.15
305.008	8.16
305.378	8.22
305.748	8.2
306.117	8.2
306.487	8.44
306.857	8.55
307.227	8.81
307.597	8.92
307.967	8.95
308.336	9.09
308.706	9.11
309.076	9.22
309.445	9.41
309.815	9.61
310.184	9.68
310.554	9.87
310.923	10.05
311.293	10.14
311.662	10.26
312.031	10.35
312.401	10.3
312.77	10.52
313.139	10.77
313.508	10.75
313.877	10.94
314.246	10.9
314.616	11.15
314.985	11.28
315.353	11.59
315.722	11.87
316.091	11.99
316.46	12.16
316.829	12.47
317.198	12.62
317.567	12.7
317.935	13.06
318.304	13.3
318.672	13.47
319.041	13.61
319.41	13.63
319.778	13.76
320.147	13.85
320.515	13.83
320.883	13.87
321.252	14.37
321.62	14.58
321.988	14.79
322.357	14.81
322.725	14.9
323.093	14.91
323.461	14.83
323.829	14.95
324.197	15.07
324.565	14.91
324.933	14.95
325.301	15.05
325.669	15.12
326.037	15.08
326.405	15.04
326.772	15.07
327.14	15.14
327.508	15.2
327.875	15.34
328.243	15.35
328.61	15.28
328.978	15.13
329.346	14.97
329.713	15.05
330.08	15.22
330.448	15.23
330.815	15.43
331.182	15.46
331.55	15.32
331.917	15.25
332.284	15.58
332.651	15.52
333.018	15.48
333.385	15.48
333.752	15.52
334.119	15.63
334.486	15.65
334.853	15.72
335.22	15.84
335.587	15.88
335.954	15.96
336.32	16.06
336.687	16.26
337.054	16.49
337.42	16.5
337.787	16.46
338.153	16.5
338.52	16.4
338.886	16.56
339.253	16.78
339.619	16.95
339.986	16.91
340.352	16.99
340.718	17.2
341.084	17.26
341.451	17.29
341.817	17.31
342.183	17.38
342.549	17.38
342.915	17.4
343.281	17.44
343.647	17.49
344.013	17.54
344.379	17.47
344.745	17.42
345.11	17.37
345.476	17.61
345.842	17.54
346.208	17.59
346.573	17.58
346.939	17.57
347.304	17.53
347.67	17.43
348.035	17.5
348.401	17.45
348.766	17.39
349.132	17.43
349.497	17.52
349.862	17.4
350.228	17.44
350.593	17.45
350.958	17.52
351.323	17.47
351.688	17.49
352.053	17.53
352.418	17.51
352.783	17.66
353.148	17.39
353.513	17.57
353.878	17.59
354.243	17.55
354.608	17.5
354.972	17.53
355.337	17.56
355.702	17.5
356.066	17.46
356.431	17.45
356.795	17.33
357.16	17.13
357.524	17.22
357.889	17.17
358.253	17.21
358.618	17.12
358.982	17.15
359.346	17.07
359.71	17.01
360.075	16.92
360.439	16.85
360.803	16.88
361.167	16.74
361.531	16.73
361.895	16.72
362.259	16.66
362.623	16.69
362.987	16.66
363.351	16.52
363.714	16.48
364.078	16.48
364.442	16.48
364.806	16.51
365.169	16.37
365.533	16.35
365.896	16.23
366.26	16.15
366.623	16.03
366.987	15.97
367.35	15.83
367.714	15.85
368.077	15.73
368.44	15.64
368.803	15.48
369.167	15.28
369.53	15.2
369.893	15.11
370.256	14.89
370.619	14.7
370.982	14.71
371.345	14.6
371.708	14.48
372.071	14.38
372.434	14.2
372.797	14.16
373.159	13.99
373.522	13.81
373.885	13.73
374.247	13.68
374.61	13.53
374.973	13.46
375.335	13.3
375.698	13.14
376.06	12.98
376.423	12.96
376.785	12.96
377.147	12.79
377.51	12.64
377.872	12.6
378.234	12.53
378.596	12.41
378.958	12.35
379.321	12.15
379.683	12.08
380.045	12
380.407	11.84
380.769	11.72
381.13	11.63
381.492	11.5
381.854	11.4
382.216	11.34
382.578	11.24
382.939	11.12
383.301	11.04
383.663	11.04
384.024	10.98
384.386	10.85
384.747	10.76
385.109	10.73
385.47	10.6
385.832	10.53
386.193	10.43
386.554	10.3
386.916	10.3
387.277	10.18
387.638	10.16
387.999	10.07
388.36	9.96
388.721	9.87
389.082	9.84
389.443	9.76
389.804	9.68
390.165	9.56
390.526	9.48
390.887	9.42
391.248	9.28
391.609	9.15
391.969	9.03
392.33	8.97
392.691	8.91
393.051	8.82
393.412	8.74
393.772	8.72
394.133	8.63
394.493	8.55
394.854	8.53
395.214	8.4
395.574	8.32
395.935	8.3
396.295	8.24
396.655	8.12
397.015	8.01
397.376	7.95
397.736	7.93
398.096	7.88
398.456	7.79
398.816	7.73
399.176	7.61
399.535	7.6
399.895	7.51
400.255	7.43
400.615	7.4
400.975	7.32
401.334	7.2
401.694	7.15
402.054	7.11
402.413	7.02
402.773	7
403.132	7
403.492	6.94
403.851	6.89
404.211	6.88
404.57	6.83
404.929	6.77
405.288	6.68
405.648	6.66
406.007	6.62
406.366	6.57
406.725	6.59
407.084	6.51
407.443	6.53
407.802	6.5
408.161	6.44
408.52	6.42
408.879	6.43
409.238	6.42
409.596	6.42
409.955	6.39
410.314	6.37
410.673	6.3
411.031	6.28
411.39	6.28
411.748	6.26
412.107	6.23
412.465	6.21
412.824	6.17
413.182	6.14
413.54	6.13
413.899	6.12
414.257	6.11
414.615	6.1
414.974	6.06
415.332	6.03
415.69	6.02
416.048	6
416.406	5.95
416.764	5.9
417.122	5.84
417.48	5.82
417.838	5.78
418.195	5.75
418.553	5.72
418.911	5.69
419.269	5.64
419.626	5.61
419.984	5.59
420.342	5.57
420.699	5.54
421.057	5.52
421.414	5.49
421.772	5.48
422.129	5.45
422.486	5.42
422.844	5.39
423.201	5.38
423.558	5.34
423.915	5.31
424.273	5.3
424.63	5.28
424.987	5.26
425.344	5.23
425.701	5.2
426.058	5.19
426.415	5.14
426.772	5.14
427.128	5.13
427.485	5.11
427.842	5.08
428.199	5.04
428.555	5.01
428.912	4.99
429.269	4.94
429.625	4.93
429.982	4.9
430.338	4.9
430.695	4.85
431.051	4.86
431.407	4.85
431.764	4.85
432.12	4.86
432.476	4.85
432.832	4.83
433.189	4.84
433.545	4.83
433.901	4.84
434.257	4.82
434.613	4.79
434.969	4.78
435.325	4.81
435.681	4.81
436.036	4.81
436.392	4.81
436.748	4.82
437.104	4.82
437.459	4.82
437.815	4.83
438.171	4.86
438.526	4.87
438.882	4.87
439.237	4.85
439.593	4.85
439.948	4.86
440.304	4.85
440.659	4.87
441.014	4.86
441.369	4.88
441.725	4.89
442.08	4.88
442.435	4.87
442.79	4.87
443.145	4.86
443.5	4.85
443.855	4.84
444.21	4.83
444.565	4.82
444.92	4.82
445.275	4.81
445.629	4.79
445.984	4.76
446.339	4.75
446.693	4.72
447.048	4.69
447.403	4.67
447.757	4.68
448.112	4.65
448.466	4.64
448.82	4.61
449.175	4.58
449.529	4.59
449.883	4.59
450.238	4.58
450.592	4.55
450.946	4.55
451.3	4.54
451.654	4.52
452.008	4.49
452.362	4.45
452.716	4.45
453.07	4.43
453.424	4.41
453.778	4.38
454.132	4.39
454.486	4.39
454.839	4.39
455.193	4.35
455.547	4.33
455.9	4.34
456.254	4.34
456.607	4.35
456.961	4.34
457.314	4.34
457.668	4.34
458.021	4.34
458.375	4.35
458.728	4.34
459.081	4.35
459.434	4.36
459.787	4.39
460.141	4.38
460.494	4.39
460.847	4.4
461.2	4.41
461.553	4.43
461.906	4.44
462.259	4.44
462.611	4.47
462.964	4.5
463.317	4.53
463.67	4.54
464.022	4.58
464.375	4.58
464.728	4.59
465.08	4.6
465.433	4.63
465.785	4.66
466.138	4.65
466.49	4.69
466.843	4.72
467.195	4.73
467.547	4.74
467.899	4.78
468.252	4.81
468.604	4.84
468.956	4.83
469.308	4.85
469.66	4.9
470.012	4.93
470.364	4.96
470.716	4.94
471.068	4.97
471.42	4.98
471.772	4.99
472.123	5.02
472.475	5.05
472.827	5.09
473.178	5.08
473.53	5.12
473.882	5.12
474.233	5.13
474.585	5.15
474.936	5.15
475.288	5.14
475.639	5.16
475.99	5.17
476.342	5.18
476.693	5.18
477.044	5.14
477.395	5.14
477.746	5.12
478.097	5.13
478.448	5.12
478.8	5.1
479.15	5.09
479.501	5.07
479.852	5.04
480.203	5.02
480.554	5.01
480.905	5
481.255	4.98
481.606	4.98
481.957	4.98
482.307	4.99
482.658	4.97
483.009	4.94
483.359	4.93
483.709	4.93
484.06	4.92
484.41	4.92
484.761	4.92
485.111	4.92
485.461	4.91
485.811	4.9
486.162	4.91
486.512	4.9
486.862	4.9
487.212	4.89
487.562	4.89
487.912	4.88
488.262	4.89
488.612	4.89
488.961	4.88
489.311	4.86
489.661	4.85
490.011	4.87
490.36	4.87
490.71	4.87
491.06	4.88
491.409	4.89
491.759	4.89
492.108	4.89
492.458	4.9
492.807	4.92
493.157	4.94
493.506	4.96
493.855	4.98
494.204	5
494.554	5.03
494.903	5.05
495.252	5.09
495.601	5.13
495.95	5.18
496.299	5.23
496.648	5.3
496.997	5.35
497.346	5.41
497.695	5.46
498.043	5.53
498.392	5.58
498.741	5.65
499.09	5.7
499.438	5.77
499.787	5.85
500.135	5.92
500.484	6
500.832	6.09
501.181	6.18
501.529	6.28
501.878	6.37
502.226	6.48
502.574	6.57
502.923	6.66
503.271	6.77
503.619	6.91
503.967	7.01
504.315	7.13
504.663	7.25
505.011	7.38
505.359	7.51
505.707	7.63
506.055	7.77
506.403	7.93
506.751	8.1
507.098	8.26
507.446	8.43
507.794	8.56
508.141	8.72
508.489	8.9
508.837	9.04
509.184	9.23
509.531	9.38
509.879	9.54
510.226	9.73
510.574	9.92
510.921	10.06
511.268	10.23
511.616	10.43
511.963	10.62
512.31	10.82
512.657	11.03
513.004	11.26
513.351	11.5
513.698	11.72
514.045	11.91
514.392	12.16
514.739	12.37
515.086	12.65
515.432	12.86
515.779	13.08
516.126	13.35
516.473	13.57
516.819	13.81
517.166	14.05
517.512	14.22
517.859	14.4
518.205	14.6
518.552	14.82
518.898	15.02
519.245	15.21
519.591	15.39
519.937	15.57
520.283	15.81
520.629	16.01
520.976	16.24
521.322	16.49
521.668	16.72
522.014	16.99
522.36	17.19
522.706	17.47
523.052	17.73
523.398	17.99
523.743	18.29
524.089	18.62
524.435	18.91
524.781	19.2
525.126	19.49
525.472	19.75
525.817	19.94
526.163	20.13
526.509	20.33
526.854	20.53
527.199	20.7
527.545	20.84
527.89	21.02
528.235	21.2
528.581	21.37
528.926	21.54
529.271	21.72
529.616	21.92
529.961	22.14
530.306	22.33
530.651	22.54
530.996	22.76
531.341	22.96
531.686	23.16
532.031	23.39
532.376	23.61
532.721	23.86
533.065	24.15
533.41	24.41
533.755	24.71
534.099	24.97
534.444	25.29
534.788	25.56
535.133	25.82
535.477	26.1
535.822	26.39
536.166	26.74
536.51	27.08
536.855	27.44
537.199	27.75
537.543	28.16
537.887	28.57
538.231	28.94
538.576	29.35
538.92	29.74
539.264	30.14
539.608	30.48
539.951	30.78
540.295	31.1
540.639	31.44
540.983	31.7
541.327	32.02
541.671	32.32
542.014	32.63
542.358	32.92
542.701	33.21
543.045	33.49
543.389	33.74
543.732	34.01
544.075	34.27
544.419	34.59
544.762	34.87
545.105	35.19
545.449	35.51
545.792	35.83
546.135	36.17
546.478	36.52
546.821	36.87
547.165	37.25
547.508	37.59
547.851	37.92
548.194	38.29
548.536	38.68
548.879	38.98
549.222	39.33
549.565	39.69
549.908	40.05
550.25	40.41
550.593	40.79
550.936	41.15
551.278	41.56
551.621	41.93
551.963	42.3
552.306	42.55
552.648	42.91
552.991	43.22
553.333	43.56
553.675	43.83
554.017	44.17
554.36	44.5
554.702	44.86
555.044	45.16
555.386	45.46
555.728	45.71
556.07	46.04
556.412	46.33
556.754	46.65
557.096	47
557.438	47.31
557.78	47.63
558.121	47.9
558.463	48.19
558.805	48.44
559.147	48.72
559.488	49.02
559.83	49.23
560.171	49.53
560.513	49.84
560.854	50.05
561.196	50.27
561.537	50.47
561.878	50.72
562.22	50.92
562.561	51.17
562.902	51.4
563.243	51.62
563.584	51.88
563.925	52.09
564.266	52.27
564.607	52.53
564.948	52.75
565.289	53.02
565.63	53.24
565.971	53.4
566.312	53.63
566.653	53.88
566.993	54.17
567.334	54.36
567.675	54.5
568.015	54.76
568.356	55.01
568.696	55.22
569.037	55.38
569.377	55.51
569.718	55.66
570.058	55.81
570.398	56
570.739	56.18
571.079	56.39
571.419	56.54
571.759	56.61
572.099	56.79
572.439	56.96
572.779	57.08
573.119	57.29
573.459	57.39
573.799	57.46
574.139	57.5
574.479	57.63
574.819	57.76
575.158	57.87
575.498	57.96
575.838	58.08
576.177	58.21
576.517	58.42
576.856	58.6
577.196	58.75
577.535	58.88
577.875	58.98
578.214	59.1
578.553	59.17
578.893	59.38
579.232	59.44
579.571	59.53
579.91	59.66
580.25	59.73
580.589	59.78
580.928	59.84
581.267	60.02
581.606	60.12
581.945	60.22
582.283	60.26
582.622	60.28
582.961	60.37
583.3	60.42
583.639	60.55
583.977	60.6
584.316	60.72
584.654	60.91
584.993	60.87
585.332	60.89
585.67	61.08
586.008	61.11
586.347	61.15
586.685	61.22
587.024	61.26
587.362	61.37
587.7	61.53
588.038	61.72
588.376	61.85
588.715	61.94
589.053	62.01
589.391	62.18
589.729	62.28
590.067	62.32
590.404	62.46
590.742	62.54
591.08	62.65
591.418	62.69
591.756	62.7
592.093	62.91
592.431	62.97
592.769	63.07
593.106	63.1
593.444	63.23
593.781	63.27
594.119	63.3
594.456	63.37
594.793	63.43
595.131	63.46
595.468	63.44
595.805	63.51
596.143	63.61
596.48	63.65
596.817	63.76
597.154	63.87
597.491	63.9
597.828	63.94
598.165	64
598.502	64.06
598.839	64.18
599.176	64.15
599.512	64.18
599.849	64.33
600.186	64.46
600.523	64.5
600.859	64.63
601.196	64.78
601.532	64.73
601.869	64.8
602.205	64.88
602.542	64.93
602.878	64.88
603.215	64.9
603.551	64.86
603.887	64.88
604.223	64.9
604.56	64.98
604.896	65.05
605.232	65.13
605.568	65.2
605.904	65.22
606.24	65.37
606.576	65.4
606.912	65.4
607.248	65.45
607.583	65.49
607.919	65.47
608.255	65.5
608.591	65.63
608.926	65.61
609.262	65.61
609.597	65.71
609.933	65.72
610.268	65.67
610.604	65.81
610.939	65.85
611.275	65.89
611.61	65.86
611.945	65.84
612.281	65.78
612.616	65.8
612.951	65.79
613.286	65.67
613.621	65.8
613.956	65.79
614.291	65.76
614.626	65.82
614.961	65.83
615.296	65.8
615.631	65.77
615.966	65.77
616.3	65.85
616.635	65.8
616.97	65.96
617.304	66.05
617.639	66.02
617.973	66
618.308	66.01
618.642	66.08
618.977	66.09
619.311	66.28
619.646	66.29
619.98	66.29
620.314	66.4
620.648	66.31
620.983	66.31
621.317	66.44
621.651	66.5
621.985	66.63
622.319	66.62
622.653	66.71
622.987	66.79
623.321	66.8
623.655	66.8
623.988	66.85
624.322	66.81
624.656	66.78
624.99	66.81
625.323	66.84
625.657	66.75
625.99	66.74
626.324	66.59
626.657	66.6
626.991	66.61
627.324	66.61
627.658	66.71
627.991	66.77
628.324	66.76
628.657	66.68
628.991	66.68
629.324	66.74
629.657	66.7
629.99	66.81
630.323	66.85
630.656	66.9
630.989	66.86
631.322	67.03
631.655	67.08
631.987	67.18
632.32	67.26
632.653	67.42
632.986	67.57
633.318	67.7
633.651	67.76
633.984	67.83
634.316	67.89
634.649	67.87
634.981	67.88
635.313	67.9
635.646	68.02
635.978	67.91
636.31	67.91
636.643	67.9
636.975	67.73
637.307	67.76
637.639	67.83
637.971	67.89
638.303	67.75
638.635	67.78
638.967	67.77
639.299	67.66
639.631	67.61
639.963	67.52
640.295	67.58
640.626	67.51
640.958	67.4
641.29	67.47
641.621	67.45
641.953	67.38
642.285	67.33
642.616	67.42
642.948	67.61
643.279	67.58
643.61	67.71
643.942	67.76
644.273	67.69
644.604	67.66
644.936	67.59
645.267	67.7
645.598	67.66
645.929	67.65
646.26	67.72
646.591	67.86
646.922	67.86
647.253	67.76
647.584	67.72
647.915	67.85
648.245	67.87
648.576	68.02
648.907	68.16
649.238	68.16
649.568	68.06
649.899	67.89
650.229	67.91
650.56	67.82
650.89	68.06
651.221	68.04
651.551	68.1
651.882	68.25
652.212	68.24
652.542	68.27
652.872	68.28
653.203	68.31
653.533	68.21
653.863	68.28
654.193	68.17
654.523	68.23
654.853	68.2
655.183	68.16
655.513	68.08
655.843	68.09
656.172	68.13
656.502	68.14
656.832	68.37
657.162	68.45
657.491	68.51
657.821	68.29
658.15	68.39
658.48	68.4
658.809	68.51
659.139	68.5
659.468	68.64
659.798	68.63
660.127	68.68
660.456	68.77
660.785	68.81
661.115	69.09
661.444	69.13
661.773	69.1
662.102	69.02
662.431	69.12
662.76	69.07
