Data from BU58137_Reflection_00004.txt Node
Date: Mon Nov 18 16:39:36 EST 2019
User: vgr7
Spectrometer: USB2G7710
Scans to average: 3
Trigger mode: 4
Integration Time (sec): 2.000000E-2
Electric dark correction enabled: true
Boxcar width: 10
XAxis mode: Wavelengths
Number of Pixels in Spectrum: 2048
>>>>>Begin Spectral Data<<<<<
177.721	-44.38
178.105	76.11
178.488	75.38
178.871	240.24
179.254	128.28
179.636	166.33
180.019	82.64
180.402	218.18
180.785	-48.01
181.168	198.16
181.55	-375.94
181.933	170.97
182.316	214.41
182.698	313.84
183.081	285.49
183.463	229.32
183.846	347.55
184.228	212.96
184.611	195.02
184.993	266.89
185.376	180.69
185.758	268.41
186.14	328.68
186.522	319.45
186.904	1602.99
187.287	458.93
187.669	-753.28
188.051	592.6
188.433	-641.94
188.815	-519.22
189.197	-346.2
189.579	-272.46
189.961	-223.13
190.342	-244.38
190.724	-205.77
191.106	-181.06
191.488	-98.38
191.869	-120.44
192.251	-104.74
192.633	-90.45
193.014	-126.56
193.396	-115.38
193.777	-135.74
194.159	-79.7
194.54	-99.02
194.922	-79.68
195.303	-57.36
195.684	-56.91
196.065	-19.58
196.447	-23
196.828	-21.2
197.209	-26.9
197.59	-24.37
197.971	-22.44
198.352	-6.53
198.733	-22.07
199.114	-26.18
199.495	-4.67
199.876	13.19
200.257	26.63
200.638	14.42
201.018	9.34
201.399	9.47
201.78	24.43
202.16	-11.33
202.541	-1.1
202.922	6.3
203.302	-9.41
203.683	-22.67
204.063	-71.78
204.444	-67.8
204.824	-75.15
205.204	-58.81
205.585	-39.47
205.965	-29.27
206.345	-42.45
206.725	-44.95
207.106	-24.88
207.486	-36.07
207.866	-49.56
208.246	-44.62
208.626	-34.14
209.006	-25.63
209.386	-41.8
209.766	-61.12
210.145	-41.69
210.525	-46.84
210.905	-52.13
211.285	-52.13
211.664	-66.85
212.044	-47.77
212.424	-28.57
212.803	-22.79
213.183	-19.41
213.562	-25.22
213.942	-20.77
214.321	-15.58
214.701	-18.33
215.08	-44.11
215.459	-62.98
215.838	-68.43
216.218	-76.7
216.597	-71.99
216.976	-74.8
217.355	-60.96
217.734	-53.4
218.113	-65.36
218.492	-64.47
218.871	-77.99
219.25	-62.65
219.629	-37.7
220.008	-39.36
220.387	-80.96
220.766	-84.98
221.144	-97.33
221.523	-110.76
221.902	-118.33
222.28	-144.19
222.659	-123.07
223.037	-78.32
223.416	-65.83
223.794	-62.45
224.173	-55.19
224.551	-42.18
224.929	-44.91
225.308	-33.03
225.686	-28.01
226.064	-22.03
226.442	-16.83
226.821	-5.76
227.199	-3.78
227.577	-8.78
227.955	-7.42
228.333	-4.42
228.711	-1.98
229.089	2.71
229.467	2.71
229.845	4.28
230.222	6.36
230.6	2.96
230.978	0.91
231.356	3.68
231.733	3.45
232.111	6.5
232.488	5.85
232.866	6.57
233.243	5.8
233.621	2.77
233.998	4.49
234.376	2.89
234.753	-0.24
235.13	-0.9
235.508	2.29
235.885	1.35
236.262	0.47
236.639	0.42
237.016	0.38
237.393	2.66
237.77	2.28
238.147	2.37
238.524	3.62
238.901	4.01
239.278	3.48
239.655	4.66
240.032	4.26
240.409	3.4
240.785	3.76
241.162	4.36
241.539	5.25
241.915	5.11
242.292	5.42
242.668	5.42
243.045	5.89
243.421	5.72
243.798	6.08
244.174	6.17
244.551	6.31
244.927	6.4
245.303	6.54
245.679	6.82
246.056	6.77
246.432	6.97
246.808	6.92
247.184	6.89
247.56	6.74
247.936	6.73
248.312	7
248.688	7.11
249.064	6.87
249.44	6.97
249.815	6.84
250.191	6.96
250.567	7.21
250.943	6.86
251.318	7.01
251.694	6.97
252.069	7.09
252.445	7.11
252.82	7.04
253.196	6.66
253.571	6.55
253.947	6.48
254.322	6.57
254.697	6.35
255.073	6.19
255.448	6.07
255.823	6.03
256.198	6.25
256.573	6.22
256.948	6.52
257.323	6.57
257.698	6.7
258.073	6.63
258.448	6.5
258.823	6.62
259.198	6.59
259.573	6.59
259.948	6.66
260.322	6.71
260.697	6.57
261.072	6.56
261.446	6.44
261.821	6.53
262.195	6.51
262.57	6.53
262.944	6.58
263.319	6.73
263.693	6.66
264.067	6.57
264.442	6.52
264.816	6.41
265.19	6.17
265.564	6.15
265.938	5.96
266.313	5.95
266.687	6.07
267.061	5.93
267.435	6.02
267.809	5.73
268.183	5.59
268.556	5.51
268.93	5.57
269.304	5.54
269.678	5.47
270.051	5.33
270.425	5.53
270.799	5.47
271.172	5.3
271.546	5.3
271.919	5.38
272.293	5.42
272.666	5.4
273.04	5.46
273.413	5.38
273.787	5.53
274.16	5.75
274.533	5.71
274.906	5.7
275.279	5.64
275.653	5.74
276.026	5.74
276.399	5.75
276.772	5.87
277.145	5.94
277.518	6.04
277.891	6.07
278.263	5.91
278.636	5.79
279.009	5.86
279.382	6.13
279.755	6.2
280.127	6.14
280.5	6.09
280.872	6.14
281.245	6.01
281.617	5.93
281.99	5.94
282.362	5.94
282.735	5.92
283.107	5.86
283.479	5.96
283.852	6.06
284.224	6.26
284.596	6.17
284.968	6.13
285.34	6.15
285.713	6.13
286.085	6.31
286.457	6.64
286.829	6.74
287.201	6.56
287.572	6.37
287.944	6.38
288.316	6.55
288.688	6.61
289.06	6.78
289.431	6.89
289.803	6.87
290.175	6.81
290.546	6.98
290.918	7.05
291.289	6.94
291.661	6.92
292.032	6.93
292.403	6.91
292.775	7.08
293.146	6.99
293.517	7.09
293.889	7.11
294.26	7
294.631	7.03
295.002	7.09
295.373	7.26
295.744	7.41
296.115	7.34
296.486	7.32
296.857	7.35
297.228	7.36
297.599	7.31
297.97	7.47
298.34	7.54
298.711	7.5
299.082	7.62
299.452	7.7
299.823	7.69
300.194	7.77
300.564	7.79
300.935	8.08
301.305	8.01
301.676	8.06
302.046	8.09
302.416	8.15
302.787	8.16
303.157	8.15
303.527	8.06
303.897	8.12
304.267	8.17
304.637	8.2
305.008	8.16
305.378	8.18
305.748	8.14
306.117	7.92
306.487	8.15
306.857	7.99
307.227	7.88
307.597	7.92
307.967	7.96
308.336	7.93
308.706	7.79
309.076	8.02
309.445	7.82
309.815	7.81
310.184	7.69
310.554	7.71
310.923	7.74
311.293	7.78
311.662	7.69
312.031	7.68
312.401	7.64
312.77	7.83
313.139	7.88
313.508	7.88
313.877	7.86
314.246	7.77
314.616	7.84
314.985	7.85
315.353	7.65
315.722	7.74
316.091	7.65
316.46	7.49
316.829	7.42
317.198	7.57
317.567	7.61
317.935	7.73
318.304	7.84
318.672	7.63
319.041	7.75
319.41	7.71
319.778	7.55
320.147	7.66
320.515	7.5
320.883	7.45
321.252	7.42
321.62	7.63
321.988	7.57
322.357	7.65
322.725	7.66
323.093	7.76
323.461	7.84
323.829	7.93
324.197	8.07
324.565	8.06
324.933	8.01
325.301	8.08
325.669	8.12
326.037	8.11
326.405	8.23
326.772	8.24
327.14	8.41
327.508	8.57
327.875	8.5
328.243	8.51
328.61	8.55
328.978	8.59
329.346	8.55
329.713	8.62
330.08	8.57
330.448	8.6
330.815	8.62
331.182	8.44
331.55	8.53
331.917	8.54
332.284	8.59
332.651	8.53
333.018	8.47
333.385	8.44
333.752	8.41
334.119	8.53
334.486	8.38
334.853	8.3
335.22	8.25
335.587	8.26
335.954	8.25
336.32	8.27
336.687	8.32
337.054	8.3
337.42	8.24
337.787	8.36
338.153	8.29
338.52	8.44
338.886	8.48
339.253	8.53
339.619	8.59
339.986	8.52
340.352	8.69
340.718	8.64
341.084	8.59
341.451	8.66
341.817	8.68
342.183	8.8
342.549	8.8
342.915	8.86
343.281	8.91
343.647	8.9
344.013	8.87
344.379	8.75
344.745	8.82
345.11	8.84
345.476	8.88
345.842	8.85
346.208	8.81
346.573	8.87
346.939	8.84
347.304	8.77
347.67	8.75
348.035	8.63
348.401	8.65
348.766	8.64
349.132	8.55
349.497	8.39
349.862	8.4
350.228	8.38
350.593	8.34
350.958	8.32
351.323	8.35
351.688	8.33
352.053	8.38
352.418	8.38
352.783	8.38
353.148	8.31
353.513	8.45
353.878	8.42
354.243	8.46
354.608	8.41
354.972	8.51
355.337	8.53
355.702	8.63
356.066	8.67
356.431	8.71
356.795	8.75
357.16	8.86
357.524	8.78
357.889	8.78
358.253	8.85
358.618	8.9
358.982	8.86
359.346	8.81
359.71	8.83
360.075	8.76
360.439	8.8
360.803	8.8
361.167	8.71
361.531	8.65
361.895	8.57
362.259	8.56
362.623	8.49
362.987	8.51
363.351	8.43
363.714	8.46
364.078	8.43
364.442	8.36
364.806	8.26
365.169	8.22
365.533	8.2
365.896	8.09
366.26	8.05
366.623	8.04
366.987	8.11
367.35	8.09
367.714	8.13
368.077	8.08
368.44	8.07
368.803	8.08
369.167	8.12
369.53	8.17
369.893	8.24
370.256	8.22
370.619	8.23
370.982	8.2
371.345	8.11
371.708	8.16
372.071	8.16
372.434	8.2
372.797	8.29
373.159	8.35
373.522	8.37
373.885	8.36
374.247	8.37
374.61	8.34
374.973	8.32
375.335	8.32
375.698	8.34
376.06	8.35
376.423	8.38
376.785	8.39
377.147	8.38
377.51	8.32
377.872	8.36
378.234	8.31
378.596	8.32
378.958	8.31
379.321	8.3
379.683	8.37
380.045	8.41
380.407	8.36
380.769	8.36
381.13	8.36
381.492	8.29
381.854	8.33
382.216	8.27
382.578	8.27
382.939	8.27
383.301	8.25
383.663	8.13
384.024	8.07
384.386	8.06
384.747	8.08
385.109	8.04
385.47	8
385.832	8
386.193	8.01
386.554	8.04
386.916	8.02
387.277	7.97
387.638	7.98
387.999	7.94
388.36	7.99
388.721	8
389.082	8.07
389.443	8.03
389.804	8.13
390.165	8.14
390.526	8.12
390.887	8.09
391.248	8.19
391.609	8.24
391.969	8.25
392.33	8.21
392.691	8.2
393.051	8.22
393.412	8.25
393.772	8.19
394.133	8.17
394.493	8.16
394.854	8.18
395.214	8.11
395.574	8.14
395.935	8.08
396.295	8.08
396.655	7.98
397.015	7.99
397.376	7.95
397.736	7.95
398.096	7.97
398.456	7.99
398.816	7.94
399.176	7.89
399.535	7.84
399.895	7.81
400.255	7.87
400.615	7.86
400.975	7.86
401.334	7.89
401.694	7.89
402.054	7.85
402.413	7.84
402.773	7.87
403.132	7.86
403.492	7.85
403.851	7.86
404.211	7.92
404.57	7.9
404.929	7.89
405.288	7.92
405.648	7.9
406.007	7.89
406.366	7.91
406.725	7.93
407.084	7.96
407.443	7.99
407.802	7.98
408.161	7.98
408.52	7.94
408.879	7.96
409.238	7.94
409.596	8.01
409.955	8.02
410.314	8.01
410.673	8.01
411.031	8.02
411.39	8.01
411.748	7.99
412.107	8.01
412.465	7.97
412.824	7.89
413.182	7.87
413.54	7.86
413.899	7.82
414.257	7.82
414.615	7.8
414.974	7.78
415.332	7.79
415.69	7.76
416.048	7.78
416.406	7.76
416.764	7.76
417.122	7.74
417.48	7.71
417.838	7.73
418.195	7.72
418.553	7.69
418.911	7.67
419.269	7.68
419.626	7.67
419.984	7.67
420.342	7.67
420.699	7.66
421.057	7.67
421.414	7.67
421.772	7.66
422.129	7.67
422.486	7.67
422.844	7.67
423.201	7.66
423.558	7.65
423.915	7.65
424.273	7.65
424.63	7.64
424.987	7.65
425.344	7.62
425.701	7.62
426.058	7.61
426.415	7.62
426.772	7.62
427.128	7.6
427.485	7.61
427.842	7.62
428.199	7.62
428.555	7.61
428.912	7.61
429.269	7.61
429.625	7.58
429.982	7.57
430.338	7.54
430.695	7.55
431.051	7.55
431.407	7.54
431.764	7.52
432.12	7.51
432.476	7.5
432.832	7.49
433.189	7.48
433.545	7.5
433.901	7.49
434.257	7.46
434.613	7.48
434.969	7.47
435.325	7.46
435.681	7.47
436.036	7.47
436.392	7.49
436.748	7.47
437.104	7.48
437.459	7.49
437.815	7.49
438.171	7.51
438.526	7.53
438.882	7.54
439.237	7.56
439.593	7.57
439.948	7.57
440.304	7.57
440.659	7.59
441.014	7.58
441.369	7.57
441.725	7.57
442.08	7.56
442.435	7.56
442.79	7.56
443.145	7.54
443.5	7.53
443.855	7.52
444.21	7.55
444.565	7.55
444.92	7.53
445.275	7.52
445.629	7.53
445.984	7.51
446.339	7.48
446.693	7.46
447.048	7.44
447.403	7.44
447.757	7.44
448.112	7.43
448.466	7.42
448.82	7.42
449.175	7.41
449.529	7.41
449.883	7.4
450.238	7.39
450.592	7.41
450.946	7.39
451.3	7.35
451.654	7.3
452.008	7.3
452.362	7.29
452.716	7.3
453.07	7.27
453.424	7.26
453.778	7.27
454.132	7.28
454.486	7.27
454.839	7.27
455.193	7.25
455.547	7.25
455.9	7.25
456.254	7.28
456.607	7.28
456.961	7.3
457.314	7.31
457.668	7.33
458.021	7.32
458.375	7.33
458.728	7.35
459.081	7.38
459.434	7.37
459.787	7.37
460.141	7.36
460.494	7.38
460.847	7.4
461.2	7.4
461.553	7.41
461.906	7.42
462.259	7.42
462.611	7.45
462.964	7.48
463.317	7.49
463.67	7.48
464.022	7.49
464.375	7.49
464.728	7.48
465.08	7.46
465.433	7.46
465.785	7.48
466.138	7.49
466.49	7.48
466.843	7.49
467.195	7.51
467.547	7.5
467.899	7.48
468.252	7.48
468.604	7.47
468.956	7.46
469.308	7.49
469.66	7.5
470.012	7.51
470.364	7.5
470.716	7.52
471.068	7.55
471.42	7.56
471.772	7.56
472.123	7.55
472.475	7.56
472.827	7.58
473.178	7.56
473.53	7.55
473.882	7.56
474.233	7.57
474.585	7.56
474.936	7.6
475.288	7.62
475.639	7.65
475.99	7.68
476.342	7.69
476.693	7.68
477.044	7.69
477.395	7.66
477.746	7.64
478.097	7.63
478.448	7.62
478.8	7.61
479.15	7.57
479.501	7.59
479.852	7.59
480.203	7.58
480.554	7.6
480.905	7.62
481.255	7.63
481.606	7.63
481.957	7.63
482.307	7.63
482.658	7.64
483.009	7.63
483.359	7.64
483.709	7.65
484.06	7.65
484.41	7.64
484.761	7.65
485.111	7.67
485.461	7.67
485.811	7.68
486.162	7.68
486.512	7.71
486.862	7.7
487.212	7.7
487.562	7.72
487.912	7.72
488.262	7.72
488.612	7.73
488.961	7.73
489.311	7.73
489.661	7.73
490.011	7.73
490.36	7.74
490.71	7.73
491.06	7.71
491.409	7.72
491.759	7.74
492.108	7.74
492.458	7.72
492.807	7.71
493.157	7.71
493.506	7.74
493.855	7.75
494.204	7.76
494.554	7.79
494.903	7.78
495.252	7.8
495.601	7.8
495.95	7.8
496.299	7.82
496.648	7.82
496.997	7.84
497.346	7.86
497.695	7.87
498.043	7.88
498.392	7.9
498.741	7.91
499.09	7.9
499.438	7.92
499.787	7.97
500.135	8.02
500.484	8.01
500.832	8.01
501.181	8.01
501.529	8.02
501.878	8.03
502.226	8.07
502.574	8.07
502.923	8.08
503.271	8.11
503.619	8.12
503.967	8.13
504.315	8.12
504.663	8.13
505.011	8.16
505.359	8.2
505.707	8.22
506.055	8.24
506.403	8.28
506.751	8.3
507.098	8.28
507.446	8.29
507.794	8.29
508.141	8.29
508.489	8.31
508.837	8.34
509.184	8.36
509.531	8.39
509.879	8.41
510.226	8.43
510.574	8.43
510.921	8.44
511.268	8.46
511.616	8.47
511.963	8.48
512.31	8.47
512.657	8.48
513.004	8.47
513.351	8.5
513.698	8.5
514.045	8.5
514.392	8.51
514.739	8.5
515.086	8.54
515.432	8.58
515.779	8.59
516.126	8.59
516.473	8.59
516.819	8.6
517.166	8.6
517.512	8.6
517.859	8.6
518.205	8.65
518.552	8.66
518.898	8.69
519.245	8.73
519.591	8.73
519.937	8.72
520.283	8.74
520.629	8.75
520.976	8.74
521.322	8.76
521.668	8.75
522.014	8.76
522.36	8.76
522.706	8.75
523.052	8.77
523.398	8.78
523.743	8.8
524.089	8.79
524.435	8.79
524.781	8.83
525.126	8.88
525.472	8.88
525.817	8.89
526.163	8.9
526.509	8.88
526.854	8.9
527.199	8.93
527.545	8.94
527.89	8.94
528.235	8.96
528.581	8.97
528.926	8.99
529.271	9
529.616	9.02
529.961	9.02
530.306	9.02
530.651	9.03
530.996	9.03
531.341	9.04
531.686	9.05
532.031	9.04
532.376	9.03
532.721	9.03
533.065	9.04
533.41	9.04
533.755	9.05
534.099	9.04
534.444	9.04
534.788	9.04
535.133	9.03
535.477	9.04
535.822	9.02
536.166	9.02
536.51	9
536.855	9
537.199	9.01
537.543	9.02
537.887	9.02
538.231	9.05
538.576	9.06
538.92	9.07
539.264	9.08
539.608	9.09
539.951	9.07
540.295	9.07
540.639	9.07
540.983	9.07
541.327	9.08
541.671	9.07
542.014	9.08
542.358	9.1
542.701	9.09
543.045	9.13
543.389	9.14
543.732	9.16
544.075	9.18
544.419	9.18
544.762	9.16
545.105	9.15
545.449	9.15
545.792	9.16
546.135	9.15
546.478	9.15
546.821	9.14
547.165	9.14
547.508	9.15
547.851	9.15
548.194	9.17
548.536	9.15
548.879	9.16
549.222	9.16
549.565	9.16
549.908	9.18
550.25	9.15
550.593	9.14
550.936	9.13
551.278	9.12
551.621	9.16
551.963	9.19
552.306	9.2
552.648	9.18
552.991	9.19
553.333	9.18
553.675	9.2
554.017	9.21
554.36	9.24
554.702	9.27
555.044	9.29
555.386	9.28
555.728	9.29
556.07	9.34
556.412	9.29
556.754	9.28
557.096	9.25
557.438	9.27
557.78	9.28
558.121	9.33
558.463	9.32
558.805	9.31
559.147	9.29
559.488	9.28
559.83	9.28
560.171	9.3
560.513	9.31
560.854	9.28
561.196	9.28
561.537	9.29
561.878	9.25
562.22	9.25
562.561	9.24
562.902	9.24
563.243	9.23
563.584	9.28
563.925	9.29
564.266	9.3
564.607	9.29
564.948	9.29
565.289	9.27
565.63	9.32
565.971	9.3
566.312	9.33
566.653	9.32
566.993	9.31
567.334	9.3
567.675	9.33
568.015	9.32
568.356	9.32
568.696	9.36
569.037	9.41
569.377	9.4
569.718	9.44
570.058	9.45
570.398	9.43
570.739	9.43
571.079	9.42
571.419	9.45
571.759	9.47
572.099	9.49
572.439	9.49
572.779	9.45
573.119	9.5
573.459	9.52
573.799	9.55
574.139	9.56
574.479	9.57
574.819	9.58
575.158	9.59
575.498	9.56
575.838	9.53
576.177	9.47
576.517	9.49
576.856	9.49
577.196	9.51
577.535	9.54
577.875	9.55
578.214	9.55
578.553	9.54
578.893	9.51
579.232	9.48
579.571	9.49
579.91	9.52
580.25	9.46
580.589	9.41
580.928	9.44
581.267	9.43
581.606	9.38
581.945	9.37
582.283	9.4
582.622	9.39
582.961	9.36
583.3	9.42
583.639	9.42
583.977	9.42
584.316	9.42
584.654	9.43
584.993	9.46
585.332	9.51
585.67	9.5
586.008	9.5
586.347	9.53
586.685	9.5
587.024	9.47
587.362	9.52
587.7	9.54
588.038	9.57
588.376	9.62
588.715	9.69
589.053	9.7
589.391	9.75
589.729	9.76
590.067	9.82
590.404	9.8
590.742	9.81
591.08	9.76
591.418	9.81
591.756	9.79
592.093	9.75
592.431	9.73
592.769	9.73
593.106	9.75
593.444	9.71
593.781	9.77
594.119	9.79
594.456	9.79
594.793	9.79
595.131	9.74
595.468	9.7
595.805	9.69
596.143	9.66
596.48	9.63
596.817	9.67
597.154	9.66
597.491	9.69
597.828	9.69
598.165	9.7
598.502	9.68
598.839	9.67
599.176	9.68
599.512	9.67
599.849	9.7
600.186	9.71
600.523	9.73
600.859	9.7
601.196	9.74
601.532	9.72
601.869	9.76
602.205	9.78
602.542	9.8
602.878	9.81
603.215	9.82
603.551	9.84
603.887	9.81
604.223	9.81
604.56	9.85
604.896	9.86
605.232	9.9
605.568	9.89
605.904	9.88
606.24	9.92
606.576	9.91
606.912	9.91
607.248	9.93
607.583	9.98
607.919	9.99
608.255	9.98
608.591	10.03
608.926	10.01
609.262	10.02
609.597	10.01
609.933	10
610.268	10.05
610.604	10.03
610.939	10.08
611.275	10.07
611.61	10.02
611.945	10.04
612.281	10
612.616	10
612.951	10.06
613.286	10
613.621	10.06
613.956	10.05
614.291	10.04
614.626	9.99
614.961	9.93
615.296	9.89
615.631	9.85
615.966	9.84
616.3	9.83
616.635	9.87
616.97	9.87
617.304	9.82
617.639	9.87
617.973	9.9
618.308	9.91
618.642	9.93
618.977	9.92
619.311	9.96
619.646	10
619.98	9.98
620.314	10.02
620.648	9.98
620.983	10.02
621.317	10.02
621.651	10.03
621.985	10.11
622.319	10.12
622.653	10.14
622.987	10.16
623.321	10.14
623.655	10.09
623.988	10.07
624.322	10.07
624.656	10.03
624.99	9.99
625.323	9.98
625.657	9.99
625.99	10.01
626.324	9.97
626.657	9.95
626.991	9.96
627.324	9.99
627.658	10.06
627.991	10.06
628.324	10.02
628.657	9.96
628.991	9.94
629.324	9.96
629.657	9.92
629.99	9.92
630.323	9.95
630.656	9.97
630.989	10.04
631.322	10.08
631.655	10.06
631.987	10.1
632.32	10.08
632.653	10.05
632.986	10
633.318	10
633.651	10.05
633.984	10.04
634.316	10.02
634.649	9.98
634.981	9.99
635.313	10.07
635.646	10.12
635.978	10.18
636.31	10.16
636.643	10.23
636.975	10.27
637.307	10.31
637.639	10.28
637.971	10.26
638.303	10.23
638.635	10.19
638.967	10.14
639.299	10.25
639.631	10.26
639.963	10.23
640.295	10.23
640.626	10.16
640.958	10.19
641.29	10.2
641.621	10.14
641.953	10.1
642.285	10.09
642.616	10.15
642.948	10.09
643.279	10.11
643.61	10.03
643.942	10.01
644.273	10.01
644.604	10.08
644.936	10.04
645.267	10.07
645.598	10.14
645.929	10.25
646.26	10.17
646.591	10.13
646.922	10.14
647.253	10.15
647.584	10.11
647.915	10.1
648.245	10.07
648.576	10.15
648.907	10.16
649.238	10.12
649.568	10.15
649.899	10.11
650.229	10.09
650.56	10.1
650.89	10.1
651.221	10.04
651.551	10.03
651.882	10.1
652.212	10.03
652.542	9.99
652.872	9.96
653.203	9.98
653.533	10.01
653.863	10.01
654.193	10.04
654.523	10.1
654.853	10.05
655.183	10.08
655.513	10.04
655.843	10.05
656.172	10.1
656.502	10.04
656.832	10.14
657.162	10.18
657.491	10.19
657.821	10.16
658.15	10.22
658.48	10.17
658.809	10.13
659.139	10.17
659.468	10.19
659.798	10.22
660.127	10.21
660.456	10.24
660.785	10.24
661.115	10.32
661.444	10.35
661.773	10.43
662.102	10.43
662.431	10.43
662.76	10.51
663.089	10.47
663.418	10.57
663.747	10.5
664.076	10.56
664.404	10.58
664.733	10.6
665.062	10.51
665.39	10.58
665.719	10.58
666.048	10.59
666.376	10.54
666.705	10.43
667.033	10.46
667.362	10.48
667.69	10.52
668.018	10.39
668.347	10.33
668.675	10.26
669.003	10.26
669.331	10.39
669.659	10.3
669.987	10.29
670.315	10.23
670.643	10.31
670.971	10.25
671.299	10.21
671.627	10.29
671.955	10.41
672.283	10.4
672.61	10.37
672.938	10.37
673.266	10.47
673.593	10.62
