Data from BU58119_Reflection_00013.txt Node
Date: Tue Nov 19 10:51:06 EST 2019
User: vgr7
Spectrometer: USB2G7710
Scans to average: 3
Trigger mode: 4
Integration Time (sec): 2.000000E-2
Electric dark correction enabled: true
Boxcar width: 10
XAxis mode: Wavelengths
Number of Pixels in Spectrum: 2048
>>>>>Begin Spectral Data<<<<<
177.721	-122.04
178.105	-108.74
178.488	-209.8
178.871	-86.36
179.254	-640
179.636	168.97
180.019	-0.86
180.402	55.56
180.785	363.64
181.168	106.49
181.55	-39.58
181.933	3.19
182.316	43.95
182.698	8.87
183.081	5.85
183.463	-15.16
183.846	5.76
184.228	-97.84
184.611	-79.84
184.993	-121.13
185.376	-42.6
185.758	48.6
186.14	74.63
186.522	88.07
186.904	-12.66
187.287	-45.88
187.669	-40
188.051	-29.59
188.433	-20.83
188.815	-10.39
189.197	-19.79
189.579	-28.55
189.961	-36.64
190.342	-50.72
190.724	-49.46
191.106	-69.2
191.488	-62.32
191.869	-47.21
192.251	-54.11
192.633	-33.88
193.014	-39.47
193.396	-32.31
193.777	-29.04
194.159	-51.73
194.54	-58.48
194.922	-56.82
195.303	-56.96
195.684	-66.52
196.065	-75.46
196.447	-80.44
196.828	-89.71
197.209	-104.95
197.59	-122.72
197.971	-104.2
198.352	-104.28
198.733	-118.43
199.114	-86.76
199.495	-163.62
199.876	-310.06
200.257	-1029.37
200.638	-2192.21
201.018	5019.35
201.399	-615.02
201.78	-578.44
202.16	-373.13
202.541	-2128.81
202.922	-681.88
203.302	6984.62
203.683	2960
204.063	-715.79
204.444	-726.73
204.824	-4000
205.204	3.11
205.585	15.92
205.965	9.22
206.345	33.02
206.725	47.67
207.106	55.2
207.486	49.63
207.866	44.79
208.246	52.56
208.626	36.27
209.006	26.34
209.386	47.44
209.766	35.57
210.145	27.53
210.525	32.37
210.905	32.51
211.285	24.46
211.664	14.72
212.044	24.68
212.424	22.77
212.803	13.21
213.183	11.84
213.562	7.77
213.942	7.26
214.321	-6.94
214.701	-8.22
215.08	-18.15
215.459	-9.23
215.838	-11.63
216.218	-28.26
216.597	-31.96
216.976	-23.49
217.355	-28.45
217.734	-34.17
218.113	-37.1
218.492	-43.74
218.871	-41.95
219.25	-43.77
219.629	-42.3
220.008	-56.01
220.387	-67.26
220.766	-77.34
221.144	-81.2
221.523	-99.04
221.902	-95.7
222.28	-63.66
222.659	-62.6
223.037	-69.59
223.416	-91.12
223.794	-83.37
224.173	-73.04
224.551	-58.39
224.929	-56.96
225.308	-50.75
225.686	-40.49
226.064	-42.88
226.442	-26.73
226.821	-31.2
227.199	-18.21
227.577	-17.06
227.955	-8.54
228.333	-4.3
228.711	-0.88
229.089	-3.83
229.467	-4.49
229.845	-8.2
230.222	-6.31
230.6	-9.73
230.978	-5.54
231.356	-3.43
231.733	-3.06
232.111	-4.26
232.488	-3.38
232.866	-1.13
233.243	-3.09
233.621	-2.02
233.998	1.28
234.376	-0.25
234.753	1.66
235.13	0.51
235.508	0.11
235.885	-1.64
236.262	-3.15
236.639	-3.55
237.016	-1.53
237.393	0.86
237.77	3.38
238.147	3.26
238.524	4.29
238.901	2.98
239.278	2.67
239.655	3.34
240.032	4.33
240.409	4.21
240.785	3.97
241.162	5.02
241.539	4.25
241.915	3.26
242.292	3.24
242.668	3.57
243.045	3.52
243.421	3.9
243.798	4.11
244.174	4.51
244.551	4.61
244.927	4.37
245.303	4.14
245.679	4.27
246.056	4.21
246.432	4.15
246.808	4.52
247.184	4.63
247.56	4.36
247.936	4.13
248.312	4.06
248.688	3.98
249.064	3.71
249.44	4.01
249.815	4.27
250.191	4.29
250.567	4.29
250.943	4.34
251.318	4.07
251.694	3.92
252.069	3.79
252.445	3.61
252.82	3.84
253.196	3.78
253.571	3.58
253.947	3.35
254.322	3.49
254.697	3.35
255.073	3.52
255.448	3.79
255.823	4.2
256.198	4.33
256.573	4.53
256.948	4.59
257.323	4.5
257.698	4.64
258.073	4.54
258.448	4.36
258.823	4.25
259.198	4.28
259.573	4.1
259.948	4.06
260.322	4.01
260.697	4.09
261.072	3.94
261.446	3.82
261.821	3.79
262.195	3.78
262.57	3.77
262.944	3.85
263.319	3.66
263.693	3.51
264.067	3.56
264.442	3.36
264.816	3.39
265.19	3.47
265.564	3.2
265.938	3.17
266.313	3.29
266.687	3.35
267.061	3.39
267.435	3.88
267.809	3.84
268.183	4.1
268.556	3.79
268.93	4.01
269.304	4.07
269.678	4.26
270.051	4.22
270.425	4.32
270.799	4.07
271.172	4.18
271.546	4.21
271.919	4.07
272.293	4.07
272.666	4.1
273.04	4.03
273.413	4.08
273.787	4.08
274.16	4.03
274.533	3.92
274.906	3.89
275.279	3.81
275.653	3.95
276.026	3.87
276.399	4.07
276.772	3.96
277.145	4.02
277.518	3.85
277.891	3.83
278.263	3.84
278.636	3.9
279.009	4.12
279.382	3.91
279.755	3.98
280.127	4.21
280.5	4.35
280.872	4.49
281.245	4.71
281.617	4.78
281.99	4.52
282.362	4.61
282.735	4.73
283.107	4.61
283.479	4.6
283.852	4.71
284.224	4.56
284.596	4.69
284.968	4.62
285.34	4.64
285.713	4.63
286.085	4.47
286.457	4.37
286.829	4.22
287.201	4.48
287.572	4.54
287.944	4.44
288.316	4.28
288.688	4.39
289.06	4.28
289.431	4.41
289.803	4.76
290.175	4.68
290.546	4.69
290.918	4.74
291.289	4.63
291.661	4.51
292.032	4.55
292.403	4.51
292.775	4.52
293.146	4.63
293.517	4.66
293.889	4.79
294.26	4.89
294.631	4.92
295.002	4.98
295.373	4.93
295.744	5.06
296.115	5.19
296.486	5.14
296.857	5.29
297.228	5.18
297.599	4.97
297.97	5.1
298.34	5.17
298.711	5.25
299.082	5.27
299.452	5.29
299.823	5.44
300.194	5.54
300.564	5.66
300.935	5.78
301.305	5.83
301.676	5.73
302.046	5.82
302.416	5.87
302.787	5.77
303.157	5.88
303.527	5.86
303.897	5.86
304.267	5.9
304.637	5.85
305.008	5.85
305.378	6.03
305.748	6
306.117	6.06
306.487	6.15
306.857	6.35
307.227	6.49
307.597	6.53
307.967	6.62
308.336	6.7
308.706	6.6
309.076	6.74
309.445	7.04
309.815	7.16
310.184	7.12
310.554	7.23
310.923	7.3
311.293	7.26
311.662	7.34
312.031	7.32
312.401	7.35
312.77	7.52
313.139	7.61
313.508	7.61
313.877	7.47
314.246	7.36
314.616	7.52
314.985	7.59
315.353	7.71
315.722	7.76
316.091	7.76
316.46	7.9
316.829	7.96
317.198	8.07
317.567	8.18
317.935	8.44
318.304	8.6
318.672	8.66
319.041	8.95
319.41	9.15
319.778	9.07
320.147	9.14
320.515	9.08
320.883	9.17
321.252	9.38
321.62	9.65
321.988	9.87
322.357	9.8
322.725	9.85
323.093	9.84
323.461	9.91
323.829	9.97
324.197	9.99
324.565	9.97
324.933	9.82
325.301	9.69
325.669	9.71
326.037	9.68
326.405	9.63
326.772	9.45
327.14	9.34
327.508	9.49
327.875	9.43
328.243	9.56
328.61	9.67
328.978	9.62
329.346	9.6
329.713	9.65
330.08	9.7
330.448	9.82
330.815	9.86
331.182	9.81
331.55	9.78
331.917	9.94
332.284	10.04
332.651	10.12
333.018	10.11
333.385	10.19
333.752	10.35
334.119	10.66
334.486	10.82
334.853	10.85
335.22	10.93
335.587	10.91
335.954	10.94
336.32	10.91
336.687	10.97
337.054	11.04
337.42	10.99
337.787	11.02
338.153	10.97
338.52	11.01
338.886	11.07
339.253	11.2
339.619	11.13
339.986	11.15
340.352	11.12
340.718	11.25
341.084	11.31
341.451	11.35
341.817	11.24
342.183	11.26
342.549	11.27
342.915	11.14
343.281	11.23
343.647	11.18
344.013	11.26
344.379	11.22
344.745	11.19
345.11	11.28
345.476	11.34
345.842	11.38
346.208	11.38
346.573	11.24
346.939	11.2
347.304	11.24
347.67	11.14
348.035	11.1
348.401	11.07
348.766	11.01
349.132	10.88
349.497	11
349.862	11.04
350.228	11.09
350.593	11.24
350.958	11.27
351.323	11.25
351.688	11.19
352.053	11.2
352.418	11.2
352.783	11.09
353.148	10.98
353.513	10.94
353.878	10.89
354.243	10.96
354.608	10.95
354.972	10.83
355.337	10.94
355.702	10.98
356.066	10.96
356.431	10.88
356.795	10.84
357.16	10.72
357.524	10.69
357.889	10.67
358.253	10.61
358.618	10.57
358.982	10.59
359.346	10.55
359.71	10.46
360.075	10.47
360.439	10.39
360.803	10.4
361.167	10.29
361.531	10.25
361.895	10.19
362.259	10.22
362.623	10.17
362.987	10.05
363.351	9.97
363.714	9.89
364.078	9.79
364.442	9.76
364.806	9.66
365.169	9.58
365.533	9.46
365.896	9.42
366.26	9.35
366.623	9.28
366.987	9.24
367.35	9.26
367.714	9.18
368.077	9.19
368.44	9.07
368.803	9.15
369.167	9.07
369.53	9.04
369.893	8.92
370.256	8.86
370.619	8.87
370.982	8.81
371.345	8.87
371.708	8.83
372.071	8.75
372.434	8.72
372.797	8.64
373.159	8.6
373.522	8.44
373.885	8.41
374.247	8.37
374.61	8.24
374.973	8.15
375.335	8.07
375.698	8.03
376.06	8
376.423	7.89
376.785	7.8
377.147	7.76
377.51	7.66
377.872	7.64
378.234	7.53
378.596	7.52
378.958	7.43
379.321	7.35
379.683	7.32
380.045	7.27
380.407	7.24
380.769	7.17
381.13	7.08
381.492	6.99
381.854	6.92
382.216	6.94
382.578	6.91
382.939	6.86
383.301	6.73
383.663	6.68
384.024	6.62
384.386	6.64
384.747	6.52
385.109	6.5
385.47	6.47
385.832	6.44
386.193	6.36
386.554	6.22
386.916	6.26
387.277	6.23
387.638	6.18
387.999	6.09
388.36	6.07
388.721	6.05
389.082	6.06
389.443	6.03
389.804	6
390.165	5.94
390.526	5.89
390.887	5.87
391.248	5.81
391.609	5.79
391.969	5.74
392.33	5.71
392.691	5.67
393.051	5.62
393.412	5.61
393.772	5.59
394.133	5.6
394.493	5.51
394.854	5.44
395.214	5.42
395.574	5.38
395.935	5.33
396.295	5.34
396.655	5.25
397.015	5.22
397.376	5.15
397.736	5.11
398.096	5.05
398.456	5.01
398.816	4.95
399.176	4.88
399.535	4.82
399.895	4.78
400.255	4.74
400.615	4.73
400.975	4.69
401.334	4.63
401.694	4.58
402.054	4.57
402.413	4.53
402.773	4.49
403.132	4.47
403.492	4.47
403.851	4.42
404.211	4.4
404.57	4.34
404.929	4.3
405.288	4.31
405.648	4.38
406.007	4.35
406.366	4.35
406.725	4.34
407.084	4.35
407.443	4.37
407.802	4.37
408.161	4.33
408.52	4.32
408.879	4.3
409.238	4.3
409.596	4.28
409.955	4.28
410.314	4.3
410.673	4.3
411.031	4.26
411.39	4.25
411.748	4.25
412.107	4.23
412.465	4.22
412.824	4.18
413.182	4.12
413.54	4.15
413.899	4.13
414.257	4.16
414.615	4.12
414.974	4.09
415.332	4.06
415.69	4.06
416.048	4.02
416.406	4.02
416.764	4
417.122	4
417.48	3.99
417.838	3.97
418.195	3.96
418.553	3.96
418.911	3.96
419.269	3.93
419.626	3.92
419.984	3.9
420.342	3.91
420.699	3.89
421.057	3.88
421.414	3.88
421.772	3.86
422.129	3.84
422.486	3.83
422.844	3.82
423.201	3.82
423.558	3.81
423.915	3.81
424.273	3.81
424.63	3.79
424.987	3.77
425.344	3.75
425.701	3.72
426.058	3.72
426.415	3.69
426.772	3.68
427.128	3.69
427.485	3.69
427.842	3.64
428.199	3.63
428.555	3.59
428.912	3.58
429.269	3.55
429.625	3.54
429.982	3.54
430.338	3.54
430.695	3.54
431.051	3.54
431.407	3.54
431.764	3.52
432.12	3.53
432.476	3.55
432.832	3.56
433.189	3.55
433.545	3.53
433.901	3.53
434.257	3.52
434.613	3.5
434.969	3.47
435.325	3.5
435.681	3.49
436.036	3.5
436.392	3.49
436.748	3.51
437.104	3.51
437.459	3.5
437.815	3.49
438.171	3.47
438.526	3.45
438.882	3.44
439.237	3.43
439.593	3.42
439.948	3.42
440.304	3.4
440.659	3.41
441.014	3.41
441.369	3.41
441.725	3.43
442.08	3.43
442.435	3.44
442.79	3.43
443.145	3.45
443.5	3.44
443.855	3.44
444.21	3.43
444.565	3.44
444.92	3.46
445.275	3.43
445.629	3.42
445.984	3.44
446.339	3.43
446.693	3.45
447.048	3.43
447.403	3.42
447.757	3.43
448.112	3.43
448.466	3.43
448.82	3.43
449.175	3.43
449.529	3.42
449.883	3.41
450.238	3.41
450.592	3.4
450.946	3.41
451.3	3.41
451.654	3.38
452.008	3.36
452.362	3.35
452.716	3.37
453.07	3.37
453.424	3.36
453.778	3.34
454.132	3.31
454.486	3.33
454.839	3.33
455.193	3.33
455.547	3.33
455.9	3.34
456.254	3.35
456.607	3.35
456.961	3.34
457.314	3.36
457.668	3.36
458.021	3.33
458.375	3.33
458.728	3.32
459.081	3.34
459.434	3.34
459.787	3.34
460.141	3.35
460.494	3.36
460.847	3.37
461.2	3.37
461.553	3.37
461.906	3.39
462.259	3.38
462.611	3.39
462.964	3.38
463.317	3.37
463.67	3.34
464.022	3.34
464.375	3.35
464.728	3.31
465.08	3.31
465.433	3.35
465.785	3.35
466.138	3.38
466.49	3.38
466.843	3.39
467.195	3.41
467.547	3.39
467.899	3.4
468.252	3.4
468.604	3.42
468.956	3.47
469.308	3.44
469.66	3.45
470.012	3.46
470.364	3.48
470.716	3.49
471.068	3.51
471.42	3.52
471.772	3.55
472.123	3.58
472.475	3.58
472.827	3.57
473.178	3.59
473.53	3.58
473.882	3.58
474.233	3.59
474.585	3.57
474.936	3.59
475.288	3.58
475.639	3.57
475.99	3.56
476.342	3.56
476.693	3.61
477.044	3.6
477.395	3.6
477.746	3.59
478.097	3.59
478.448	3.6
478.8	3.58
479.15	3.56
479.501	3.57
479.852	3.57
480.203	3.58
480.554	3.57
480.905	3.57
481.255	3.56
481.606	3.55
481.957	3.56
482.307	3.56
482.658	3.56
483.009	3.57
483.359	3.57
483.709	3.56
484.06	3.55
484.41	3.54
484.761	3.54
485.111	3.54
485.461	3.55
485.811	3.55
486.162	3.55
486.512	3.55
486.862	3.55
487.212	3.55
487.562	3.53
487.912	3.53
488.262	3.53
488.612	3.54
488.961	3.54
489.311	3.52
489.661	3.51
490.011	3.5
490.36	3.5
490.71	3.5
491.06	3.51
491.409	3.51
491.759	3.52
492.108	3.52
492.458	3.52
492.807	3.51
493.157	3.5
493.506	3.52
493.855	3.52
494.204	3.54
494.554	3.55
494.903	3.57
495.252	3.59
495.601	3.62
495.95	3.63
496.299	3.64
496.648	3.69
496.997	3.72
497.346	3.75
497.695	3.77
498.043	3.81
498.392	3.82
498.741	3.84
499.09	3.86
499.438	3.9
499.787	3.93
500.135	3.96
500.484	4
500.832	4.02
501.181	4.06
501.529	4.1
501.878	4.13
502.226	4.18
502.574	4.2
502.923	4.23
503.271	4.28
503.619	4.34
503.967	4.38
504.315	4.44
504.663	4.48
505.011	4.54
505.359	4.57
505.707	4.63
506.055	4.69
506.403	4.75
506.751	4.81
507.098	4.88
507.446	4.95
507.794	5.03
508.141	5.1
508.489	5.18
508.837	5.24
509.184	5.31
509.531	5.39
509.879	5.49
510.226	5.57
510.574	5.64
510.921	5.72
511.268	5.8
511.616	5.91
511.963	5.99
512.31	6.08
512.657	6.17
513.004	6.27
513.351	6.38
513.698	6.49
514.045	6.6
514.392	6.7
514.739	6.8
515.086	6.91
515.432	7.01
515.779	7.1
516.126	7.23
516.473	7.35
516.819	7.44
517.166	7.55
517.512	7.61
517.859	7.7
518.205	7.76
518.552	7.81
518.898	7.87
519.245	7.97
519.591	8.04
519.937	8.12
520.283	8.22
520.629	8.29
520.976	8.42
521.322	8.52
521.668	8.63
522.014	8.76
522.36	8.88
522.706	9.02
523.052	9.17
523.398	9.31
523.743	9.44
524.089	9.6
524.435	9.74
524.781	9.9
525.126	10.06
525.472	10.22
525.817	10.36
526.163	10.47
526.509	10.58
526.854	10.69
527.199	10.79
527.545	10.89
527.89	11.01
528.235	11.11
528.581	11.22
528.926	11.34
529.271	11.43
529.616	11.54
529.961	11.64
530.306	11.75
530.651	11.86
530.996	11.99
531.341	12.12
531.686	12.25
532.031	12.4
532.376	12.55
532.721	12.7
533.065	12.88
533.41	13.06
533.755	13.22
534.099	13.4
534.444	13.59
534.788	13.76
535.133	13.93
535.477	14.11
535.822	14.29
536.166	14.5
536.51	14.72
536.855	14.97
537.199	15.2
537.543	15.46
537.887	15.73
538.231	16
538.576	16.25
538.92	16.54
539.264	16.78
539.608	16.98
539.951	17.18
540.295	17.38
540.639	17.57
540.983	17.77
541.327	17.98
541.671	18.2
542.014	18.41
542.358	18.63
542.701	18.83
543.045	19.04
543.389	19.23
543.732	19.48
544.075	19.7
544.419	19.94
544.762	20.17
545.105	20.43
545.449	20.67
545.792	20.95
546.135	21.19
546.478	21.48
546.821	21.8
547.165	22.13
547.508	22.46
547.851	22.81
548.194	23.14
548.536	23.44
548.879	23.73
549.222	24.05
549.565	24.36
549.908	24.71
550.25	25.05
550.593	25.36
550.936	25.65
551.278	25.94
551.621	26.28
551.963	26.58
552.306	26.88
552.648	27.2
552.991	27.48
553.333	27.8
553.675	28.11
554.017	28.42
554.36	28.73
554.702	29.04
555.044	29.36
555.386	29.68
555.728	30
556.07	30.36
556.412	30.68
556.754	30.99
557.096	31.27
557.438	31.56
557.78	31.93
558.121	32.25
558.463	32.58
558.805	32.88
559.147	33.17
559.488	33.5
559.83	33.85
560.171	34.17
560.513	34.48
560.854	34.73
561.196	35.05
561.537	35.31
561.878	35.58
562.22	35.83
562.561	36.09
562.902	36.31
563.243	36.54
563.584	36.83
563.925	37.04
564.266	37.28
564.607	37.56
564.948	37.72
565.289	37.98
565.63	38.27
565.971	38.51
566.312	38.78
566.653	39.04
566.993	39.26
567.334	39.47
567.675	39.64
568.015	39.86
568.356	40.12
568.696	40.39
569.037	40.58
569.377	40.75
569.718	40.99
570.058	41.2
570.398	41.46
570.739	41.63
571.079	41.88
571.419	42.08
571.759	42.24
572.099	42.47
572.439	42.63
572.779	42.77
573.119	42.93
573.459	43.08
573.799	43.22
574.139	43.34
574.479	43.52
574.819	43.74
575.158	43.93
575.498	44.04
575.838	44.17
576.177	44.36
576.517	44.63
576.856	44.77
577.196	45.01
577.535	45.15
577.875	45.31
578.214	45.51
578.553	45.58
578.893	45.77
579.232	45.95
579.571	46.12
579.91	46.3
580.25	46.48
580.589	46.62
580.928	46.67
581.267	46.89
581.606	47.06
581.945	47.26
582.283	47.42
582.622	47.63
582.961	47.77
583.3	47.92
583.639	47.93
583.977	48.06
584.316	48.19
584.654	48.34
584.993	48.49
585.332	48.67
585.67	49.02
586.008	49.15
586.347	49.19
586.685	49.35
587.024	49.49
587.362	49.55
587.7	49.67
588.038	49.9
588.376	49.93
588.715	50
589.053	50.09
589.391	50.19
589.729	50.22
590.067	50.25
590.404	50.35
590.742	50.5
591.08	50.63
591.418	50.67
591.756	50.71
592.093	50.83
592.431	50.82
592.769	50.8
593.106	50.93
593.444	51.1
593.781	51.15
594.119	51.17
594.456	51.3
594.793	51.42
595.131	51.44
595.468	51.56
595.805	51.63
596.143	51.66
596.48	51.67
596.817	51.74
597.154	51.82
597.491	51.81
597.828	51.94
598.165	52.04
598.502	52.13
598.839	52.26
599.176	52.26
599.512	52.31
599.849	52.4
600.186	52.45
600.523	52.49
600.859	52.59
601.196	52.68
601.532	52.66
601.869	52.74
602.205	52.83
602.542	52.88
602.878	53
603.215	53.05
603.551	53.19
603.887	53.23
604.223	53.33
604.56	53.49
604.896	53.48
605.232	53.5
605.568	53.54
605.904	53.56
606.24	53.68
606.576	53.74
606.912	53.85
607.248	53.93
607.583	54.02
607.919	54.05
608.255	54.1
608.591	54.28
608.926	54.3
609.262	54.31
609.597	54.34
609.933	54.33
610.268	54.33
610.604	54.33
610.939	54.33
611.275	54.39
611.61	54.37
611.945	54.48
612.281	54.52
612.616	54.56
612.951	54.65
613.286	54.66
613.621	54.78
613.956	54.7
614.291	54.67
614.626	54.73
614.961	54.78
615.296	54.81
615.631	54.73
615.966	54.79
616.3	54.94
616.635	54.98
616.97	55.04
617.304	55.15
617.639	55.23
617.973	55.33
618.308	55.28
618.642	55.26
618.977	55.18
619.311	55.37
619.646	55.42
619.98	55.35
620.314	55.36
620.648	55.37
620.983	55.55
621.317	55.67
621.651	55.63
621.985	55.66
622.319	55.74
622.653	55.9
622.987	55.92
623.321	55.93
623.655	55.95
623.988	56.01
624.322	56
624.656	55.9
624.99	55.9
625.323	56.03
625.657	56.13
625.99	56.16
626.324	55.95
626.657	56.01
626.991	56.07
627.324	56.1
627.658	56.08
627.991	56.01
628.324	56.02
628.657	55.99
628.991	56.05
629.324	56.08
629.657	56.03
629.99	55.96
630.323	55.94
630.656	56.01
630.989	55.99
631.322	56.14
631.655	56.19
631.987	56.29
632.32	56.24
632.653	56.33
632.986	56.44
633.318	56.65
633.651	56.64
633.984	56.63
634.316	56.69
634.649	56.73
634.981	56.86
635.313	56.9
635.646	57
635.978	57.07
636.31	57.11
636.643	57.24
636.975	57.42
637.307	57.47
637.639	57.49
637.971	57.61
638.303	57.48
638.635	57.51
638.967	57.57
639.299	57.55
639.631	57.35
639.963	57.34
640.295	57.34
640.626	57.4
640.958	57.49
641.29	57.62
641.621	57.65
641.953	57.6
642.285	57.57
642.616	57.61
642.948	57.6
643.279	57.5
643.61	57.39
643.942	57.33
644.273	57.34
644.604	57.43
644.936	57.32
645.267	57.3
645.598	57.37
645.929	57.41
646.26	57.58
646.591	57.76
646.922	57.89
647.253	57.89
647.584	57.88
647.915	57.98
648.245	57.9
648.576	57.94
648.907	57.96
649.238	57.93
649.568	57.99
649.899	57.94
650.229	58.1
650.56	58.22
650.89	58.29
651.221	58.22
651.551	58.2
651.882	58.33
652.212	58.4
652.542	58.46
652.872	58.35
653.203	58.29
653.533	58.23
653.863	58.08
654.193	58.06
654.523	58.06
654.853	58.04
655.183	58.05
655.513	57.85
655.843	57.94
656.172	58.04
656.502	58.07
656.832	58.16
657.162	58.08
657.491	58.07
657.821	58.12
658.15	58.3
658.48	58.36
658.809	58.39
659.139	58.52
659.468	58.56
659.798	58.61
660.127	58.68
660.456	58.75
660.785	58.77
661.115	58.89
661.444	58.93
661.773	58.92
662.102	58.94
662.431	59.13
662.76	59
663.089	58.91
663.418	58.91
663.747	58.87
664.076	58.89
664.404	58.9
664.733	58.8
665.062	58.81
665.39	58.69
665.719	58.6
