Data from BU58138_Reflection_00002.txt Node
Date: Mon Nov 18 16:42:00 EST 2019
User: vgr7
Spectrometer: USB2G7710
Scans to average: 3
Trigger mode: 4
Integration Time (sec): 2.000000E-2
Electric dark correction enabled: true
Boxcar width: 10
XAxis mode: Wavelengths
Number of Pixels in Spectrum: 2048
>>>>>Begin Spectral Data<<<<<
177.721	-2233.33
178.105	20.63
178.488	80.57
178.871	141.67
179.254	-19.22
179.636	57.5
180.019	36.15
180.402	92.59
180.785	59.27
181.168	1.47
181.55	-45.17
181.933	31.57
182.316	83.21
182.698	95.07
183.081	85.15
183.463	61.39
183.846	38.43
184.228	49.98
184.611	34.15
184.993	50.92
185.376	5.28
185.758	-35.4
186.14	-32.32
186.522	-29.31
186.904	-67.06
187.287	-607.76
187.669	784.59
188.051	-643.59
188.433	-152.7
188.815	-5874.36
189.197	561.28
189.579	169.01
189.961	193.59
190.342	299.62
190.724	197.57
191.106	152.79
191.488	127.15
191.869	116.08
192.251	133.94
192.633	139.94
193.014	161.8
193.396	102.18
193.777	78.85
194.159	79.15
194.54	89.17
194.922	85.82
195.303	101.63
195.684	89.64
196.065	77.84
196.447	79.78
196.828	69.7
197.209	77.97
197.59	71.96
197.971	73.17
198.352	70.19
198.733	72.2
199.114	63.31
199.495	60.88
199.876	57.1
200.257	57.78
200.638	49.94
201.018	54.39
201.399	63.5
201.78	75.51
202.16	65.79
202.541	37.89
202.922	33.67
203.302	-7.45
203.683	13.55
204.063	-0.04
204.444	5.26
204.824	2.06
205.204	-4.33
205.585	-4.11
205.965	8.49
206.345	-7.15
206.725	-17.15
207.106	-30.04
207.486	-40.89
207.866	-68.47
208.246	-49.99
208.626	-34.28
209.006	-29.8
209.386	-28.65
209.766	-29.19
210.145	-17.57
210.525	-2.88
210.905	0.62
211.285	11.24
211.664	6.9
212.044	9.36
212.424	16.7
212.803	26.91
213.183	27.11
213.562	27.24
213.942	24.75
214.321	35.15
214.701	37.39
215.08	41.21
215.459	43.19
215.838	60.01
216.218	50.84
216.597	45.79
216.976	57.03
217.355	53.22
217.734	46.43
218.113	58.61
218.492	70.67
218.871	85.15
219.25	84.27
219.629	87.49
220.008	99.75
220.387	93.58
220.766	92.68
221.144	119.91
221.523	133.2
221.902	179.21
222.28	138.76
222.659	116.69
223.037	102.38
223.416	61.79
223.794	60.59
224.173	51.09
224.551	47.39
224.929	32.51
225.308	26.41
225.686	25.94
226.064	19.3
226.442	16.79
226.821	11.43
227.199	10.43
227.577	9.62
227.955	4.48
228.333	3.3
228.711	4.8
229.089	9.58
229.467	6.96
229.845	5.19
230.222	8.88
230.6	8.02
230.978	8.74
231.356	11.92
231.733	8.82
232.111	8.03
232.488	7.63
232.866	5.63
233.243	9.1
233.621	9.61
233.998	11.19
234.376	9.74
234.753	11.66
235.13	12.36
235.508	12.93
235.885	15.38
236.262	14.44
236.639	13.12
237.016	10.86
237.393	10.65
237.77	9.77
238.147	8.92
238.524	8.65
238.901	9.05
239.278	7.81
239.655	7.77
240.032	7.98
240.409	8.05
240.785	8.74
241.162	8.05
241.539	7.51
241.915	7.17
242.292	6.23
242.668	6.3
243.045	6.25
243.421	5.4
243.798	4.74
244.174	4.56
244.551	4.43
244.927	4.42
245.303	4.71
245.679	4.95
246.056	4.57
246.432	4.55
246.808	4.41
247.184	4.42
247.56	4.4
247.936	4.54
248.312	4.4
248.688	4.32
249.064	4.25
249.44	4.46
249.815	4.33
250.191	4.6
250.567	4.37
250.943	4.27
251.318	4.63
251.694	4.81
252.069	4.98
252.445	5.22
252.82	5.21
253.196	4.73
253.571	4.52
253.947	4.82
254.322	5.23
254.697	4.97
255.073	4.67
255.448	4.47
255.823	4.32
256.198	4.37
256.573	4.09
256.948	4.11
257.323	3.98
257.698	3.9
258.073	3.99
258.448	3.91
258.823	3.96
259.198	3.88
259.573	3.66
259.948	3.64
260.322	3.56
260.697	3.75
261.072	3.73
261.446	3.69
261.821	3.66
262.195	3.7
262.57	3.79
262.944	4.01
263.319	4
263.693	3.9
264.067	3.94
264.442	4.04
264.816	4.06
265.19	4.1
265.564	4.12
265.938	3.88
266.313	3.73
266.687	3.59
267.061	3.65
267.435	3.66
267.809	3.6
268.183	3.65
268.556	3.45
268.93	3.46
269.304	3.52
269.678	3.59
270.051	3.32
270.425	3.36
270.799	3.37
271.172	3.29
271.546	3.25
271.919	3.26
272.293	3.29
272.666	3.32
273.04	3.3
273.413	3.31
273.787	3.32
274.16	3.5
274.533	3.53
274.906	3.54
275.279	3.65
275.653	3.58
276.026	3.39
276.399	3.56
276.772	3.71
277.145	3.59
277.518	3.68
277.891	3.68
278.263	3.61
278.636	3.42
279.009	3.5
279.382	3.68
279.755	3.52
280.127	3.61
280.5	3.43
280.872	3.55
281.245	3.55
281.617	3.74
281.99	3.87
282.362	3.91
282.735	3.85
283.107	3.85
283.479	3.83
283.852	3.9
284.224	3.77
284.596	3.68
284.968	3.76
285.34	3.72
285.713	3.68
286.085	3.7
286.457	3.81
286.829	3.84
287.201	3.7
287.572	3.74
287.944	3.75
288.316	3.92
288.688	3.8
289.06	3.77
289.431	3.75
289.803	3.59
290.175	3.68
290.546	3.84
290.918	3.76
291.289	3.97
291.661	4.09
292.032	4.28
292.403	4.46
292.775	4.66
293.146	4.54
293.517	4.55
293.889	4.67
294.26	4.65
294.631	4.68
295.002	4.73
295.373	4.75
295.744	4.67
296.115	4.64
296.486	4.61
296.857	4.62
297.228	4.68
297.599	4.73
297.97	4.65
298.34	4.56
298.711	4.63
299.082	4.54
299.452	4.61
299.823	4.61
300.194	4.49
300.564	4.23
300.935	4.47
301.305	4.52
301.676	4.56
302.046	4.61
302.416	4.77
302.787	4.89
303.157	4.88
303.527	4.97
303.897	4.9
304.267	5.05
304.637	5.11
305.008	4.95
305.378	4.96
305.748	4.91
306.117	4.89
306.487	4.97
306.857	5.04
307.227	5.11
307.597	5.05
307.967	5.18
308.336	5.3
308.706	5.28
309.076	5.36
309.445	5.3
309.815	5.2
310.184	5.02
310.554	4.97
310.923	4.96
311.293	5.03
311.662	5.13
312.031	5.07
312.401	5.14
312.77	5.23
313.139	5.3
313.508	5.33
313.877	5.36
314.246	5.45
314.616	5.54
314.985	5.43
315.353	5.35
315.722	5.3
316.091	5.28
316.46	5.03
316.829	4.94
317.198	5.04
317.567	5.07
317.935	5.25
318.304	5.4
318.672	5.37
319.041	5.38
319.41	5.2
319.778	5.21
320.147	5.17
320.515	5.3
320.883	5.16
321.252	5.18
321.62	5.14
321.988	5.07
322.357	4.86
322.725	4.81
323.093	4.98
323.461	5.02
323.829	5.08
324.197	5.29
324.565	5.32
324.933	5.11
325.301	5.23
325.669	5.24
326.037	5.29
326.405	5.38
326.772	5.41
327.14	5.57
327.508	5.57
327.875	5.42
328.243	5.46
328.61	5.45
328.978	5.56
329.346	5.6
329.713	5.61
330.08	5.75
330.448	5.77
330.815	5.54
331.182	5.54
331.55	5.5
331.917	5.36
332.284	5.37
332.651	5.39
333.018	5.33
333.385	5.25
333.752	5.09
334.119	5.06
334.486	4.87
334.853	4.77
335.22	4.68
335.587	4.83
335.954	4.67
336.32	4.65
336.687	4.58
337.054	4.55
337.42	4.45
337.787	4.4
338.153	4.4
338.52	4.48
338.886	4.37
339.253	4.35
339.619	4.53
339.986	4.54
340.352	4.63
340.718	4.66
341.084	4.61
341.451	4.64
341.817	4.7
342.183	4.78
342.549	4.86
342.915	4.98
343.281	4.9
343.647	4.92
344.013	4.86
344.379	4.72
344.745	4.79
345.11	4.75
345.476	4.8
345.842	4.79
346.208	4.86
346.573	5.03
346.939	5.17
347.304	5.03
347.67	5.05
348.035	4.98
348.401	4.97
348.766	4.97
349.132	4.99
349.497	4.92
349.862	4.93
350.228	4.78
350.593	4.76
350.958	4.81
351.323	4.85
351.688	5
352.053	5.14
352.418	5.22
352.783	5.29
353.148	5.27
353.513	5.31
353.878	5.2
354.243	5.15
354.608	5.09
354.972	5.17
355.337	5.24
355.702	5.31
356.066	5.3
356.431	5.3
356.795	5.33
357.16	5.32
357.524	5.19
357.889	5.3
358.253	5.34
358.618	5.37
358.982	5.29
359.346	5.26
359.71	5.25
360.075	5.19
360.439	5.26
360.803	5.25
361.167	5.23
361.531	5.25
361.895	5.22
362.259	5.18
362.623	5.11
362.987	5.03
363.351	4.98
363.714	4.99
364.078	5.02
364.442	4.95
364.806	4.98
365.169	5.11
365.533	5.1
365.896	5.04
366.26	5
366.623	5.03
366.987	5.03
367.35	5.04
367.714	4.99
368.077	4.97
368.44	4.97
368.803	5
369.167	5
369.53	4.99
369.893	5
370.256	5.05
370.619	5.05
370.982	5.07
371.345	5.01
371.708	4.98
372.071	4.99
372.434	4.97
372.797	4.92
373.159	4.89
373.522	4.96
373.885	4.95
374.247	4.98
374.61	5.03
374.973	4.99
375.335	5.04
375.698	4.98
376.06	4.95
376.423	4.88
376.785	4.9
377.147	4.94
377.51	4.99
377.872	5.03
378.234	5.06
378.596	5.06
378.958	5.05
379.321	5.03
379.683	5.03
380.045	5.04
380.407	5.06
380.769	5.08
381.13	5.05
381.492	5.04
381.854	5.03
382.216	4.99
382.578	5
382.939	4.92
383.301	4.96
383.663	4.88
384.024	4.91
384.386	4.93
384.747	4.96
385.109	4.93
385.47	4.84
385.832	4.79
386.193	4.78
386.554	4.81
386.916	4.83
387.277	4.89
387.638	4.9
387.999	4.88
388.36	4.82
388.721	4.8
389.082	4.83
389.443	4.75
389.804	4.75
390.165	4.75
390.526	4.8
390.887	4.78
391.248	4.85
391.609	4.84
391.969	4.82
392.33	4.76
392.691	4.74
393.051	4.77
393.412	4.79
393.772	4.79
394.133	4.81
394.493	4.79
394.854	4.7
395.214	4.69
395.574	4.68
395.935	4.68
396.295	4.7
396.655	4.67
397.015	4.69
397.376	4.69
397.736	4.68
398.096	4.68
398.456	4.7
398.816	4.69
399.176	4.71
399.535	4.73
399.895	4.72
400.255	4.74
400.615	4.76
400.975	4.76
401.334	4.75
401.694	4.71
402.054	4.66
402.413	4.7
402.773	4.66
403.132	4.67
403.492	4.7
403.851	4.68
404.211	4.66
404.57	4.68
404.929	4.66
405.288	4.65
405.648	4.61
406.007	4.6
406.366	4.58
406.725	4.56
407.084	4.56
407.443	4.56
407.802	4.55
408.161	4.54
408.52	4.53
408.879	4.51
409.238	4.55
409.596	4.58
409.955	4.56
410.314	4.57
410.673	4.55
411.031	4.49
411.39	4.49
411.748	4.53
412.107	4.54
412.465	4.55
412.824	4.58
413.182	4.58
413.54	4.57
413.899	4.59
414.257	4.61
414.615	4.57
414.974	4.58
415.332	4.59
415.69	4.58
416.048	4.54
416.406	4.58
416.764	4.56
417.122	4.58
417.48	4.58
417.838	4.59
418.195	4.61
418.553	4.64
418.911	4.63
419.269	4.62
419.626	4.6
419.984	4.58
420.342	4.59
420.699	4.59
421.057	4.59
421.414	4.56
421.772	4.54
422.129	4.55
422.486	4.55
422.844	4.53
423.201	4.53
423.558	4.54
423.915	4.53
424.273	4.52
424.63	4.5
424.987	4.5
425.344	4.48
425.701	4.46
426.058	4.46
426.415	4.45
426.772	4.46
427.128	4.46
427.485	4.47
427.842	4.46
428.199	4.46
428.555	4.46
428.912	4.47
429.269	4.46
429.625	4.45
429.982	4.44
430.338	4.42
430.695	4.42
431.051	4.41
431.407	4.4
431.764	4.39
432.12	4.39
432.476	4.38
432.832	4.38
433.189	4.4
433.545	4.39
433.901	4.39
434.257	4.38
434.613	4.39
434.969	4.39
435.325	4.37
435.681	4.37
436.036	4.37
436.392	4.37
436.748	4.39
437.104	4.38
437.459	4.37
437.815	4.39
438.171	4.39
438.526	4.41
438.882	4.42
439.237	4.44
439.593	4.45
439.948	4.45
440.304	4.45
440.659	4.44
441.014	4.44
441.369	4.45
441.725	4.43
442.08	4.41
442.435	4.42
442.79	4.43
443.145	4.43
443.5	4.42
443.855	4.42
444.21	4.43
444.565	4.45
444.92	4.48
445.275	4.47
445.629	4.46
445.984	4.45
446.339	4.44
446.693	4.42
447.048	4.4
447.403	4.42
447.757	4.42
448.112	4.42
448.466	4.42
448.82	4.41
449.175	4.42
449.529	4.44
449.883	4.42
450.238	4.41
450.592	4.42
450.946	4.42
451.3	4.41
451.654	4.4
452.008	4.39
452.362	4.37
452.716	4.36
453.07	4.37
453.424	4.37
453.778	4.38
454.132	4.38
454.486	4.38
454.839	4.36
455.193	4.34
455.547	4.34
455.9	4.35
456.254	4.35
456.607	4.36
456.961	4.35
457.314	4.35
457.668	4.35
458.021	4.35
458.375	4.36
458.728	4.35
459.081	4.36
459.434	4.34
459.787	4.35
460.141	4.36
460.494	4.36
460.847	4.37
461.2	4.36
461.553	4.36
461.906	4.38
462.259	4.39
462.611	4.41
462.964	4.41
463.317	4.41
463.67	4.43
464.022	4.44
464.375	4.45
464.728	4.46
465.08	4.46
465.433	4.45
465.785	4.46
466.138	4.47
466.49	4.46
466.843	4.47
467.195	4.46
467.547	4.48
467.899	4.48
468.252	4.48
468.604	4.49
468.956	4.48
469.308	4.46
469.66	4.47
470.012	4.48
470.364	4.48
470.716	4.48
471.068	4.48
471.42	4.46
471.772	4.48
472.123	4.51
472.475	4.53
472.827	4.55
473.178	4.54
473.53	4.54
473.882	4.56
474.233	4.58
474.585	4.6
474.936	4.6
475.288	4.59
475.639	4.61
475.99	4.62
476.342	4.64
476.693	4.66
477.044	4.65
477.395	4.64
477.746	4.63
478.097	4.62
478.448	4.61
478.8	4.61
479.15	4.6
479.501	4.59
479.852	4.6
480.203	4.61
480.554	4.63
480.905	4.62
481.255	4.63
481.606	4.63
481.957	4.61
482.307	4.61
482.658	4.61
483.009	4.62
483.359	4.63
483.709	4.64
484.06	4.64
484.41	4.64
484.761	4.65
485.111	4.65
485.461	4.66
485.811	4.66
486.162	4.66
486.512	4.67
486.862	4.67
487.212	4.66
487.562	4.65
487.912	4.63
488.262	4.62
488.612	4.61
488.961	4.6
489.311	4.62
489.661	4.62
490.011	4.61
490.36	4.59
490.71	4.58
491.06	4.57
491.409	4.57
491.759	4.57
492.108	4.56
492.458	4.56
492.807	4.55
493.157	4.54
493.506	4.55
493.855	4.53
494.204	4.53
494.554	4.54
494.903	4.56
495.252	4.58
495.601	4.61
495.95	4.62
496.299	4.62
496.648	4.61
496.997	4.61
497.346	4.63
497.695	4.66
498.043	4.66
498.392	4.66
498.741	4.68
499.09	4.68
499.438	4.72
499.787	4.73
500.135	4.75
500.484	4.76
500.832	4.75
501.181	4.78
501.529	4.79
501.878	4.8
502.226	4.84
502.574	4.84
502.923	4.84
503.271	4.87
503.619	4.89
503.967	4.9
504.315	4.92
504.663	4.93
505.011	4.93
505.359	4.92
505.707	4.94
506.055	4.97
506.403	4.99
506.751	4.99
507.098	5
507.446	5.02
507.794	5.03
508.141	5.06
508.489	5.08
508.837	5.1
509.184	5.11
509.531	5.09
509.879	5.12
510.226	5.15
510.574	5.13
510.921	5.15
511.268	5.16
511.616	5.17
511.963	5.19
512.31	5.21
512.657	5.22
513.004	5.23
513.351	5.25
513.698	5.26
514.045	5.27
514.392	5.27
514.739	5.25
515.086	5.29
515.432	5.27
515.779	5.28
516.126	5.28
516.473	5.29
516.819	5.31
517.166	5.3
517.512	5.29
517.859	5.3
518.205	5.29
518.552	5.33
518.898	5.33
519.245	5.34
519.591	5.35
519.937	5.37
520.283	5.36
520.629	5.35
520.976	5.34
521.322	5.34
521.668	5.36
522.014	5.39
522.36	5.36
522.706	5.38
523.052	5.37
523.398	5.37
523.743	5.37
524.089	5.37
524.435	5.37
524.781	5.36
525.126	5.37
525.472	5.37
525.817	5.36
526.163	5.37
526.509	5.37
526.854	5.38
527.199	5.37
527.545	5.37
527.89	5.37
528.235	5.38
528.581	5.39
528.926	5.39
529.271	5.39
529.616	5.4
529.961	5.4
530.306	5.4
530.651	5.41
530.996	5.42
531.341	5.42
531.686	5.42
532.031	5.44
532.376	5.44
532.721	5.44
533.065	5.45
533.41	5.46
533.755	5.46
534.099	5.46
534.444	5.47
534.788	5.49
535.133	5.5
535.477	5.5
535.822	5.5
536.166	5.49
536.51	5.5
536.855	5.49
537.199	5.49
537.543	5.5
537.887	5.49
538.231	5.48
538.576	5.49
538.92	5.51
539.264	5.51
539.608	5.51
539.951	5.53
540.295	5.53
540.639	5.54
540.983	5.56
541.327	5.56
541.671	5.56
542.014	5.56
542.358	5.56
542.701	5.56
543.045	5.56
543.389	5.58
543.732	5.58
544.075	5.6
544.419	5.61
544.762	5.62
545.105	5.63
545.449	5.65
545.792	5.65
546.135	5.64
546.478	5.66
546.821	5.67
547.165	5.68
547.508	5.68
547.851	5.68
548.194	5.66
548.536	5.67
548.879	5.68
549.222	5.65
549.565	5.67
549.908	5.67
550.25	5.66
550.593	5.66
550.936	5.66
551.278	5.67
551.621	5.66
551.963	5.65
552.306	5.65
552.648	5.64
552.991	5.69
553.333	5.69
553.675	5.68
554.017	5.68
554.36	5.65
554.702	5.65
555.044	5.66
555.386	5.67
555.728	5.65
556.07	5.67
556.412	5.69
556.754	5.71
557.096	5.71
557.438	5.77
557.78	5.77
558.121	5.73
558.463	5.74
558.805	5.73
559.147	5.73
559.488	5.75
559.83	5.74
560.171	5.69
560.513	5.71
560.854	5.67
561.196	5.67
561.537	5.73
561.878	5.73
562.22	5.71
562.561	5.71
562.902	5.73
563.243	5.69
563.584	5.68
563.925	5.67
564.266	5.68
564.607	5.64
564.948	5.62
565.289	5.65
565.63	5.64
565.971	5.63
566.312	5.64
566.653	5.63
566.993	5.65
567.334	5.65
567.675	5.65
568.015	5.66
568.356	5.65
568.696	5.62
569.037	5.65
569.377	5.64
569.718	5.63
570.058	5.65
570.398	5.66
570.739	5.67
571.079	5.67
571.419	5.67
571.759	5.68
572.099	5.7
572.439	5.71
572.779	5.72
573.119	5.74
573.459	5.74
573.799	5.76
574.139	5.77
574.479	5.76
574.819	5.74
575.158	5.77
575.498	5.79
575.838	5.78
576.177	5.75
576.517	5.73
576.856	5.75
577.196	5.72
577.535	5.73
577.875	5.73
578.214	5.69
578.553	5.72
578.893	5.7
579.232	5.67
579.571	5.68
579.91	5.7
580.25	5.71
580.589	5.75
580.928	5.72
581.267	5.73
581.606	5.75
581.945	5.76
582.283	5.78
582.622	5.77
582.961	5.79
583.3	5.79
583.639	5.82
583.977	5.82
584.316	5.85
584.654	5.84
584.993	5.85
585.332	5.89
585.67	5.89
586.008	5.91
586.347	5.93
586.685	5.9
587.024	5.86
587.362	5.87
587.7	5.84
588.038	5.87
588.376	5.85
588.715	5.88
589.053	5.9
589.391	5.9
589.729	5.92
590.067	5.9
590.404	5.88
590.742	5.92
591.08	5.9
591.418	5.92
591.756	5.92
592.093	5.9
592.431	5.92
592.769	5.93
593.106	5.91
593.444	5.89
593.781	5.88
594.119	5.91
594.456	5.86
594.793	5.88
595.131	5.85
595.468	5.86
595.805	5.83
596.143	5.8
596.48	5.82
596.817	5.8
597.154	5.85
597.491	5.89
597.828	5.88
598.165	5.86
598.502	5.83
598.839	5.84
599.176	5.86
599.512	5.83
599.849	5.81
600.186	5.81
600.523	5.85
600.859	5.88
601.196	5.86
601.532	5.88
601.869	5.86
602.205	5.9
602.542	5.88
602.878	5.88
603.215	5.92
603.551	5.87
603.887	5.89
604.223	5.86
604.56	5.88
604.896	5.88
605.232	5.9
605.568	5.9
605.904	5.91
606.24	5.91
606.576	5.91
606.912	5.93
607.248	5.88
607.583	5.92
607.919	5.9
608.255	5.91
608.591	5.96
608.926	5.96
609.262	5.96
609.597	5.99
609.933	5.98
610.268	5.94
610.604	5.94
610.939	5.95
611.275	5.93
611.61	5.91
611.945	5.89
612.281	5.9
612.616	5.92
612.951	5.92
613.286	5.97
613.621	5.98
613.956	5.93
614.291	6.03
614.626	5.96
614.961	5.97
615.296	5.96
615.631	5.98
615.966	6
616.3	5.98
616.635	5.96
616.97	5.96
617.304	6
617.639	6.04
617.973	6.01
618.308	6.05
618.642	6.05
618.977	6.02
619.311	6.01
619.646	5.98
619.98	5.98
620.314	5.98
620.648	6.03
620.983	6.12
621.317	6.12
621.651	6.18
621.985	6.21
622.319	6.26
622.653	6.23
622.987	6.23
623.321	6.25
623.655	6.26
623.988	6.3
624.322	6.25
624.656	6.24
624.99	6.26
625.323	6.29
625.657	6.3
625.99	6.34
626.324	6.33
626.657	6.38
626.991	6.41
627.324	6.36
627.658	6.31
627.991	6.28
628.324	6.25
628.657	6.22
628.991	6.21
629.324	6.21
629.657	6.22
629.99	6.23
630.323	6.22
630.656	6.23
630.989	6.28
631.322	6.32
631.655	6.32
631.987	6.33
632.32	6.28
632.653	6.24
632.986	6.28
633.318	6.27
633.651	6.27
633.984	6.27
634.316	6.28
634.649	6.31
634.981	6.31
635.313	6.32
635.646	6.33
635.978	6.31
636.31	6.29
636.643	6.32
636.975	6.34
637.307	6.36
637.639	6.39
637.971	6.37
638.303	6.34
638.635	6.35
638.967	6.34
639.299	6.38
639.631	6.42
639.963	6.37
640.295	6.39
640.626	6.38
640.958	6.39
641.29	6.45
641.621	6.49
641.953	6.54
642.285	6.5
642.616	6.52
642.948	6.52
643.279	6.49
643.61	6.44
643.942	6.44
644.273	6.46
644.604	6.41
644.936	6.41
645.267	6.44
645.598	6.44
645.929	6.48
646.26	6.51
646.591	6.49
646.922	6.48
647.253	6.56
647.584	6.55
647.915	6.47
648.245	6.47
648.576	6.42
648.907	6.35
649.238	6.38
649.568	6.41
649.899	6.37
650.229	6.43
650.56	6.51
650.89	6.5
651.221	6.48
651.551	6.54
651.882	6.49
652.212	6.48
652.542	6.47
652.872	6.37
653.203	6.29
653.533	6.34
653.863	6.4
654.193	6.35
654.523	6.31
654.853	6.37
655.183	6.37
655.513	6.42
655.843	6.46
656.172	6.47
656.502	6.38
656.832	6.42
657.162	6.49
657.491	6.39
657.821	6.38
658.15	6.36
658.48	6.3
658.809	6.26
659.139	6.32
659.468	6.29
659.798	6.37
660.127	6.46
660.456	6.44
660.785	6.41
661.115	6.42
661.444	6.46
661.773	6.47
662.102	6.43
662.431	6.45
662.76	6.45
663.089	6.47
663.418	6.5
663.747	6.49
664.076	6.41
664.404	6.44
664.733	6.47
665.062	6.55
665.39	6.61
665.719	6.66
666.048	6.65
666.376	6.68
666.705	6.63
667.033	6.58
667.362	6.57
667.69	6.61
668.018	6.61
668.347	6.67
668.675	6.66
669.003	6.73
669.331	6.74
669.659	6.74
669.987	6.71
670.315	6.73
670.643	6.79
670.971	6.77
671.299	6.86
671.627	6.85
671.955	6.78
672.283	6.79
672.61	6.85
672.938	6.76
673.266	6.85
673.593	6.96
673.921	6.97
674.249	7
674.576	6.94
674.904	7
675.231	6.89
675.558	6.82
675.886	6.81
676.213	6.71
676.54	6.62
676.867	6.65
677.195	6.7
677.522	6.67
677.849	6.74
678.176	6.65
678.503	6.64
678.83	6.61
679.157	6.54
