Data from BU58130_Reflection_00007.txt Node
Date: Mon Nov 18 16:37:25 EST 2019
User: vgr7
Spectrometer: USB2G7710
Scans to average: 3
Trigger mode: 4
Integration Time (sec): 2.000000E-2
Electric dark correction enabled: true
Boxcar width: 10
XAxis mode: Wavelengths
Number of Pixels in Spectrum: 2048
>>>>>Begin Spectral Data<<<<<
177.721	626.72
178.105	-95.12
178.488	-129.46
178.871	-89.32
179.254	32.64
179.636	-262.07
180.019	305.48
180.402	82.76
180.785	-8.54
181.168	-1.35
181.55	44.88
181.933	43.79
182.316	42.68
182.698	33.15
183.081	13.1
183.463	-1.95
183.846	-8.74
184.228	-31.93
184.611	-80.49
184.993	36.42
185.376	-77.49
185.758	-46.07
186.14	104.29
186.522	121.9
186.904	264.56
187.287	560.32
187.669	-201.2
188.051	-1321.05
188.433	-1093.55
188.815	-98.88
189.197	-94.5
189.579	-63.64
189.961	-73.67
190.342	-86.37
190.724	-86
191.106	-105.54
191.488	-159.52
191.869	-142.6
192.251	-121.67
192.633	-709.52
193.014	-3566.67
193.396	2507.41
193.777	3447.83
194.159	244.19
194.54	140.94
194.922	-176.07
195.303	-187.67
195.684	-169.46
196.065	-24.69
196.447	-9.98
196.828	-21.15
197.209	-8.48
197.59	9.09
197.971	12.15
198.352	10.84
198.733	7.28
199.114	-5.67
199.495	-10.59
199.876	-12.64
200.257	-19.07
200.638	-18.94
201.018	-39.06
201.399	-34.75
201.78	-16.61
202.16	-28.41
202.541	-66.54
202.922	-78.06
203.302	-79.05
203.683	-69.84
204.063	-98.7
204.444	-87.12
204.824	-81.59
205.204	-63.64
205.585	-64.49
205.965	-76.89
206.345	-89.06
206.725	-105.1
207.106	-87.43
207.486	-194.59
207.866	-334.08
208.246	-219.26
208.626	-175.17
209.006	-109.2
209.386	-156.47
209.766	-171.39
210.145	-184.8
210.525	-160.14
210.905	-196.64
211.285	-639.13
211.664	-483.82
212.044	-947.06
212.424	4864.71
212.803	528.57
213.183	1296.72
213.562	-406.49
213.942	-140.07
214.321	-119.58
214.701	-108.94
215.08	-128.76
215.459	-90.53
215.838	-68.62
216.218	-95.06
216.597	-75.98
216.976	-88.95
217.355	-89.61
217.734	-90.43
218.113	-80.4
218.492	-60.04
218.871	-60.93
219.25	-52.62
219.629	-53.25
220.008	-39.4
220.387	-34.58
220.766	-30.43
221.144	-49.58
221.523	-57.89
221.902	-97.2
222.28	-114.77
222.659	-97.38
223.037	-86.03
223.416	-85.69
223.794	-92.18
224.173	-74.36
224.551	-71.95
224.929	-58.94
225.308	-40.86
225.686	-32.99
226.064	-29.87
226.442	-29
226.821	-23.51
227.199	-24.85
227.577	-21.48
227.955	-22.95
228.333	-22.41
228.711	-23.17
229.089	-16.35
229.467	-17.66
229.845	-16.7
230.222	-11.27
230.6	-9.9
230.978	-5.89
231.356	0.22
231.733	2.75
232.111	3.71
232.488	5.14
232.866	6.13
233.243	7.3
233.621	7.79
233.998	9.04
234.376	7.18
234.753	5.43
235.13	5.91
235.508	7.08
235.885	7.66
236.262	6.35
236.639	5.44
237.016	3.92
237.393	4.86
237.77	6.71
238.147	6.64
238.524	7.04
238.901	6.49
239.278	5.26
239.655	4.31
240.032	4.4
240.409	4.39
240.785	4.33
241.162	4.51
241.539	3.68
241.915	3.74
242.292	3.94
242.668	4.15
243.045	4.45
243.421	3.9
243.798	3.52
244.174	3.92
244.551	4.27
244.927	4.04
245.303	4.33
245.679	4.09
246.056	4
246.432	3.67
246.808	3.57
247.184	3.45
247.56	3.71
247.936	3.57
248.312	3.41
248.688	3.51
249.064	3.15
249.44	3.42
249.815	3.27
250.191	3.27
250.567	3.31
250.943	3.08
251.318	3.38
251.694	3.55
252.069	3.17
252.445	3.01
252.82	3.06
253.196	2.62
253.571	2.75
253.947	2.58
254.322	3.12
254.697	2.79
255.073	2.97
255.448	2.71
255.823	2.65
256.198	2.68
256.573	2.41
256.948	2.77
257.323	2.66
257.698	2.49
258.073	2.51
258.448	2.53
258.823	2.61
259.198	2.35
259.573	2.23
259.948	2.35
260.322	2.43
260.697	2.28
261.072	2.36
261.446	2.28
261.821	2.29
262.195	2.15
262.57	2.24
262.944	2.15
263.319	2.21
263.693	2.21
264.067	2.31
264.442	2.35
264.816	2.19
265.19	2.11
265.564	2.19
265.938	2.04
266.313	2.05
266.687	2.12
267.061	2.41
267.435	2.66
267.809	2.68
268.183	2.68
268.556	2.9
268.93	2.91
269.304	2.93
269.678	3.02
270.051	3.15
270.425	3.19
270.799	3.12
271.172	3.14
271.546	3.09
271.919	2.92
272.293	2.96
272.666	3
273.04	3.11
273.413	3.21
273.787	3.26
274.16	3.15
274.533	3.03
274.906	2.87
275.279	2.93
275.653	2.93
276.026	2.84
276.399	2.88
276.772	2.82
277.145	2.81
277.518	2.75
277.891	2.75
278.263	2.64
278.636	2.73
279.009	2.65
279.382	2.82
279.755	2.87
280.127	3.14
280.5	3.06
280.872	3.05
281.245	3.01
281.617	3.11
281.99	3.34
282.362	3.37
282.735	3.22
283.107	3.23
283.479	3.26
283.852	3.34
284.224	3.28
284.596	3.25
284.968	3.28
285.34	3.4
285.713	3.3
286.085	3.35
286.457	3.47
286.829	3.52
287.201	3.46
287.572	3.54
287.944	3.4
288.316	3.39
288.688	3.41
289.06	3.31
289.431	3.27
289.803	3.24
290.175	3.39
290.546	3.65
290.918	3.6
291.289	3.61
291.661	3.63
292.032	3.65
292.403	3.69
292.775	3.67
293.146	3.69
293.517	3.7
293.889	3.82
294.26	3.77
294.631	3.82
295.002	3.77
295.373	3.77
295.744	3.78
296.115	3.9
296.486	3.85
296.857	3.98
297.228	4.03
297.599	4.04
297.97	4.02
298.34	3.98
298.711	4.03
299.082	4
299.452	4.08
299.823	4.24
300.194	4.26
300.564	4.24
300.935	4.28
301.305	4.17
301.676	4.13
302.046	4.17
302.416	4.25
302.787	4.35
303.157	4.29
303.527	4.25
303.897	4.41
304.267	4.67
304.637	4.72
305.008	4.9
305.378	5.08
305.748	5.1
306.117	5.26
306.487	5.41
306.857	5.6
307.227	5.65
307.597	5.59
307.967	5.74
308.336	5.9
308.706	5.88
309.076	6.04
309.445	6.06
309.815	6.09
310.184	6.07
310.554	6.18
310.923	6.22
311.293	6.26
311.662	6.21
312.031	6.1
312.401	6.13
312.77	6.19
313.139	6.29
313.508	6.31
313.877	6.18
314.246	6.07
314.616	6.01
314.985	6
315.353	6.03
315.722	6.04
316.091	6.04
316.46	6.04
316.829	6.22
317.198	6.29
317.567	6.3
317.935	6.34
318.304	6.48
318.672	6.68
319.041	6.91
319.41	6.89
319.778	6.92
320.147	6.92
320.515	6.88
320.883	6.63
321.252	6.74
321.62	6.76
321.988	6.91
322.357	6.83
322.725	6.91
323.093	7.05
323.461	7.08
323.829	7.09
324.197	7.19
324.565	7.17
324.933	7.17
325.301	7.18
325.669	7.39
326.037	7.3
326.405	7.35
326.772	7.34
327.14	7.49
327.508	7.51
327.875	7.5
328.243	7.54
328.61	7.61
328.978	7.65
329.346	7.81
329.713	7.77
330.08	7.96
330.448	7.86
330.815	7.74
331.182	7.83
331.55	7.88
331.917	7.91
332.284	8.05
332.651	8.12
333.018	8.26
333.385	8.15
333.752	8.22
334.119	8.31
334.486	8.2
334.853	8.21
335.22	8.29
335.587	8.45
335.954	8.45
336.32	8.58
336.687	8.63
337.054	8.67
337.42	8.76
337.787	8.77
338.153	9.05
338.52	9.18
338.886	9.07
339.253	9.08
339.619	9.18
339.986	9.19
340.352	9.24
340.718	9.25
341.084	9.25
341.451	9.38
341.817	9.36
342.183	9.38
342.549	9.43
342.915	9.57
343.281	9.63
343.647	9.64
344.013	9.62
344.379	9.48
344.745	9.44
345.11	9.38
345.476	9.39
345.842	9.27
346.208	9.23
346.573	9.28
346.939	9.34
347.304	9.19
347.67	9.19
348.035	9.16
348.401	9.2
348.766	9.23
349.132	9.13
349.497	9.08
349.862	9.22
350.228	9.17
350.593	9.02
350.958	8.92
351.323	8.93
351.688	8.83
352.053	8.95
352.418	8.97
352.783	9.02
353.148	8.97
353.513	8.9
353.878	8.91
354.243	8.98
354.608	8.93
354.972	9.01
355.337	8.91
355.702	8.95
356.066	9.02
356.431	9
356.795	9.04
357.16	8.98
357.524	8.91
357.889	8.89
358.253	8.92
358.618	8.95
358.982	8.89
359.346	8.8
359.71	8.73
360.075	8.73
360.439	8.72
360.803	8.67
361.167	8.61
361.531	8.59
361.895	8.46
362.259	8.38
362.623	8.34
362.987	8.3
363.351	8.24
363.714	8.15
364.078	8.09
364.442	7.98
364.806	7.94
365.169	7.82
365.533	7.73
365.896	7.68
366.26	7.59
366.623	7.52
366.987	7.57
367.35	7.54
367.714	7.39
368.077	7.25
368.44	7.22
368.803	7.19
369.167	7.12
369.53	7.11
369.893	7.17
370.256	7
370.619	7.01
370.982	6.97
371.345	6.86
371.708	6.83
372.071	6.75
372.434	6.73
372.797	6.69
373.159	6.65
373.522	6.55
373.885	6.44
374.247	6.42
374.61	6.37
374.973	6.31
375.335	6.28
375.698	6.27
376.06	6.24
376.423	6.21
376.785	6.19
377.147	6.12
377.51	6
377.872	6.03
378.234	5.86
378.596	5.78
378.958	5.71
379.321	5.67
379.683	5.64
380.045	5.54
380.407	5.53
380.769	5.49
381.13	5.42
381.492	5.43
381.854	5.34
382.216	5.29
382.578	5.23
382.939	5.18
383.301	5.14
383.663	5.08
384.024	5.04
384.386	4.99
384.747	5
385.109	4.96
385.47	4.91
385.832	4.95
386.193	4.95
386.554	4.96
386.916	4.91
387.277	4.89
387.638	4.9
387.999	4.86
388.36	4.8
388.721	4.81
389.082	4.76
389.443	4.76
389.804	4.71
390.165	4.7
390.526	4.7
390.887	4.64
391.248	4.6
391.609	4.61
391.969	4.58
392.33	4.49
392.691	4.49
393.051	4.45
393.412	4.43
393.772	4.36
394.133	4.31
394.493	4.25
394.854	4.17
395.214	4.11
395.574	4.06
395.935	4.04
396.295	4
396.655	3.97
397.015	3.95
397.376	3.94
397.736	3.88
398.096	3.83
398.456	3.79
398.816	3.77
399.176	3.66
399.535	3.63
399.895	3.61
400.255	3.59
400.615	3.57
400.975	3.53
401.334	3.5
401.694	3.49
402.054	3.5
402.413	3.53
402.773	3.5
403.132	3.52
403.492	3.54
403.851	3.48
404.211	3.48
404.57	3.45
404.929	3.44
405.288	3.39
405.648	3.38
406.007	3.41
406.366	3.41
406.725	3.45
407.084	3.44
407.443	3.44
407.802	3.41
408.161	3.39
408.52	3.39
408.879	3.39
409.238	3.38
409.596	3.34
409.955	3.3
410.314	3.3
410.673	3.28
411.031	3.24
411.39	3.24
411.748	3.21
412.107	3.22
412.465	3.18
412.824	3.21
413.182	3.22
413.54	3.15
413.899	3.15
414.257	3.15
414.615	3.12
414.974	3.11
415.332	3.06
415.69	3.06
416.048	3.04
416.406	3.02
416.764	2.99
417.122	2.99
417.48	2.98
417.838	2.98
418.195	2.96
418.553	2.94
418.911	2.94
419.269	2.91
419.626	2.9
419.984	2.89
420.342	2.88
420.699	2.85
421.057	2.85
421.414	2.82
421.772	2.79
422.129	2.79
422.486	2.77
422.844	2.78
423.201	2.75
423.558	2.73
423.915	2.73
424.273	2.74
424.63	2.71
424.987	2.7
425.344	2.68
425.701	2.66
426.058	2.66
426.415	2.64
426.772	2.65
427.128	2.62
427.485	2.63
427.842	2.61
428.199	2.6
428.555	2.59
428.912	2.59
429.269	2.61
429.625	2.6
429.982	2.6
430.338	2.6
430.695	2.61
431.051	2.61
431.407	2.6
431.764	2.57
432.12	2.59
432.476	2.58
432.832	2.59
433.189	2.59
433.545	2.59
433.901	2.61
434.257	2.59
434.613	2.61
434.969	2.59
435.325	2.61
435.681	2.62
436.036	2.63
436.392	2.62
436.748	2.59
437.104	2.57
437.459	2.57
437.815	2.57
438.171	2.58
438.526	2.59
438.882	2.59
439.237	2.61
439.593	2.61
439.948	2.61
440.304	2.59
440.659	2.58
441.014	2.59
441.369	2.56
441.725	2.55
442.08	2.55
442.435	2.53
442.79	2.53
443.145	2.52
443.5	2.54
443.855	2.53
444.21	2.54
444.565	2.55
444.92	2.56
445.275	2.55
445.629	2.54
445.984	2.55
446.339	2.54
446.693	2.52
447.048	2.5
447.403	2.5
447.757	2.5
448.112	2.52
448.466	2.51
448.82	2.52
449.175	2.54
449.529	2.54
449.883	2.55
450.238	2.55
450.592	2.54
450.946	2.49
451.3	2.51
451.654	2.48
452.008	2.49
452.362	2.48
452.716	2.47
453.07	2.45
453.424	2.42
453.778	2.42
454.132	2.43
454.486	2.42
454.839	2.43
455.193	2.43
455.547	2.4
455.9	2.43
456.254	2.42
456.607	2.41
456.961	2.41
457.314	2.4
457.668	2.4
458.021	2.4
458.375	2.42
458.728	2.41
459.081	2.44
459.434	2.4
459.787	2.41
460.141	2.44
460.494	2.44
460.847	2.46
461.2	2.45
461.553	2.46
461.906	2.48
462.259	2.48
462.611	2.49
462.964	2.49
463.317	2.47
463.67	2.47
464.022	2.47
464.375	2.46
464.728	2.47
465.08	2.47
465.433	2.48
465.785	2.49
466.138	2.51
466.49	2.49
466.843	2.52
467.195	2.51
467.547	2.5
467.899	2.51
468.252	2.51
468.604	2.53
468.956	2.52
469.308	2.5
469.66	2.51
470.012	2.52
470.364	2.54
470.716	2.55
471.068	2.56
471.42	2.56
471.772	2.6
472.123	2.59
472.475	2.6
472.827	2.6
473.178	2.61
473.53	2.61
473.882	2.63
474.233	2.64
474.585	2.63
474.936	2.65
475.288	2.65
475.639	2.64
475.99	2.64
476.342	2.64
476.693	2.65
477.044	2.66
477.395	2.65
477.746	2.67
478.097	2.66
478.448	2.67
478.8	2.66
479.15	2.64
479.501	2.64
479.852	2.64
480.203	2.64
480.554	2.63
480.905	2.63
481.255	2.62
481.606	2.63
481.957	2.63
482.307	2.62
482.658	2.63
483.009	2.62
483.359	2.63
483.709	2.63
484.06	2.63
484.41	2.63
484.761	2.63
485.111	2.61
485.461	2.61
485.811	2.61
486.162	2.61
486.512	2.62
486.862	2.63
487.212	2.62
487.562	2.63
487.912	2.63
488.262	2.62
488.612	2.62
488.961	2.61
489.311	2.61
489.661	2.61
490.011	2.6
490.36	2.61
490.71	2.6
491.06	2.6
491.409	2.6
491.759	2.59
492.108	2.6
492.458	2.6
492.807	2.6
493.157	2.6
493.506	2.61
493.855	2.61
494.204	2.6
494.554	2.6
494.903	2.61
495.252	2.61
495.601	2.64
495.95	2.65
496.299	2.68
496.648	2.7
496.997	2.71
497.346	2.74
497.695	2.75
498.043	2.76
498.392	2.79
498.741	2.81
499.09	2.81
499.438	2.83
499.787	2.85
500.135	2.88
500.484	2.89
500.832	2.91
501.181	2.93
501.529	2.95
501.878	2.96
502.226	2.99
502.574	3.03
502.923	3.04
503.271	3.08
503.619	3.08
503.967	3.1
504.315	3.13
504.663	3.16
505.011	3.19
505.359	3.23
505.707	3.24
506.055	3.28
506.403	3.34
506.751	3.39
507.098	3.44
507.446	3.48
507.794	3.5
508.141	3.53
508.489	3.57
508.837	3.6
509.184	3.66
509.531	3.71
509.879	3.74
510.226	3.79
510.574	3.81
510.921	3.86
511.268	3.92
511.616	3.96
511.963	4.01
512.31	4.06
512.657	4.11
513.004	4.2
513.351	4.26
513.698	4.32
514.045	4.37
514.392	4.42
514.739	4.48
515.086	4.57
515.432	4.65
515.779	4.71
516.126	4.79
516.473	4.85
516.819	4.9
517.166	4.94
517.512	4.99
517.859	5.05
518.205	5.11
518.552	5.15
518.898	5.2
519.245	5.25
519.591	5.3
519.937	5.33
520.283	5.37
520.629	5.42
520.976	5.44
521.322	5.49
521.668	5.54
522.014	5.61
522.36	5.67
522.706	5.73
523.052	5.81
523.398	5.86
523.743	5.94
524.089	6.02
524.435	6.12
524.781	6.21
525.126	6.3
525.472	6.38
525.817	6.44
526.163	6.51
526.509	6.57
526.854	6.63
527.199	6.7
527.545	6.75
527.89	6.8
528.235	6.87
528.581	6.94
528.926	7.01
529.271	7.06
529.616	7.12
529.961	7.18
530.306	7.25
530.651	7.32
530.996	7.39
531.341	7.46
531.686	7.52
532.031	7.6
532.376	7.68
532.721	7.77
533.065	7.87
533.41	7.96
533.755	8.07
534.099	8.17
534.444	8.26
534.788	8.38
535.133	8.47
535.477	8.59
535.822	8.69
536.166	8.82
536.51	8.95
536.855	9.1
537.199	9.26
537.543	9.44
537.887	9.6
538.231	9.78
538.576	9.96
538.92	10.14
539.264	10.3
539.608	10.46
539.951	10.6
540.295	10.74
540.639	10.89
540.983	11.02
541.327	11.16
541.671	11.31
542.014	11.46
542.358	11.61
542.701	11.78
543.045	11.92
543.389	12.09
543.732	12.25
544.075	12.44
544.419	12.6
544.762	12.78
545.105	12.98
545.449	13.17
545.792	13.41
546.135	13.61
546.478	13.84
546.821	14.09
547.165	14.37
547.508	14.64
547.851	14.91
548.194	15.17
548.536	15.45
548.879	15.74
549.222	16.01
549.565	16.31
549.908	16.59
550.25	16.93
550.593	17.25
550.936	17.56
551.278	17.85
551.621	18.18
551.963	18.51
552.306	18.87
552.648	19.19
552.991	19.51
553.333	19.82
553.675	20.15
554.017	20.43
554.36	20.73
554.702	21.1
555.044	21.42
555.386	21.77
555.728	22.11
556.07	22.47
556.412	22.84
556.754	23.2
557.096	23.52
557.438	23.87
557.78	24.2
558.121	24.55
558.463	24.93
558.805	25.3
559.147	25.64
559.488	25.94
559.83	26.3
560.171	26.55
560.513	26.93
560.854	27.3
561.196	27.65
561.537	27.94
561.878	28.28
562.22	28.54
562.561	28.84
562.902	29.2
563.243	29.55
563.584	29.87
563.925	30.21
564.266	30.54
564.607	30.85
564.948	31.14
565.289	31.41
565.63	31.7
565.971	31.99
566.312	32.26
566.653	32.54
566.993	32.82
567.334	33.17
567.675	33.45
568.015	33.73
568.356	33.98
568.696	34.3
569.037	34.53
569.377	34.86
569.718	35.19
570.058	35.47
570.398	35.68
570.739	35.92
571.079	36.2
571.419	36.47
571.759	36.72
572.099	36.99
572.439	37.29
572.779	37.53
573.119	37.81
573.459	38.05
573.799	38.34
574.139	38.61
574.479	38.86
574.819	39.14
575.158	39.34
575.498	39.66
575.838	39.91
576.177	40.17
576.517	40.46
576.856	40.69
577.196	40.88
577.535	41.11
577.875	41.4
578.214	41.68
578.553	41.93
578.893	42.15
579.232	42.42
579.571	42.62
579.91	42.84
580.25	42.99
580.589	43.22
580.928	43.39
581.267	43.57
581.606	43.77
581.945	43.92
582.283	44.17
582.622	44.29
582.961	44.45
583.3	44.66
583.639	44.85
583.977	45.06
584.316	45.25
584.654	45.47
584.993	45.68
585.332	45.77
585.67	45.9
586.008	46.08
586.347	46.16
586.685	46.33
587.024	46.53
587.362	46.7
587.7	46.86
588.038	47.01
588.376	47.18
588.715	47.28
589.053	47.48
589.391	47.62
589.729	47.73
590.067	47.91
590.404	48.03
590.742	48.05
591.08	48.07
591.418	48.22
591.756	48.38
592.093	48.46
592.431	48.61
592.769	48.77
593.106	48.94
593.444	49.07
593.781	49.23
594.119	49.34
594.456	49.52
594.793	49.72
595.131	49.8
595.468	49.84
595.805	49.97
596.143	50.05
596.48	50.13
596.817	50.3
597.154	50.37
597.491	50.44
597.828	50.56
598.165	50.73
598.502	50.83
598.839	50.93
599.176	51.02
599.512	51.18
599.849	51.26
600.186	51.28
600.523	51.41
600.859	51.56
601.196	51.71
601.532	51.76
601.869	51.74
602.205	51.79
602.542	51.88
602.878	51.94
603.215	51.99
603.551	52.01
603.887	52.04
604.223	52.06
604.56	52.13
604.896	52.25
605.232	52.29
605.568	52.35
605.904	52.39
606.24	52.46
606.576	52.44
606.912	52.61
607.248	52.75
607.583	52.83
607.919	52.82
608.255	52.81
608.591	52.87
608.926	52.95
609.262	53.14
609.597	53.23
609.933	53.31
610.268	53.37
610.604	53.47
610.939	53.52
611.275	53.55
611.61	53.56
611.945	53.61
612.281	53.7
612.616	53.75
612.951	53.79
613.286	53.87
613.621	53.97
613.956	53.86
614.291	53.87
614.626	53.88
614.961	53.94
615.296	53.96
615.631	53.98
615.966	53.99
616.3	53.98
616.635	53.96
616.97	54.01
617.304	53.97
617.639	54.06
617.973	54.04
618.308	54.19
618.642	54.31
618.977	54.29
619.311	54.24
619.646	54.31
619.98	54.41
620.314	54.35
620.648	54.41
620.983	54.47
621.317	54.51
621.651	54.52
621.985	54.59
622.319	54.7
622.653	54.82
622.987	54.96
623.321	54.97
623.655	55.08
623.988	55.12
624.322	55.21
624.656	55.24
624.99	55.34
625.323	55.32
625.657	55.35
625.99	55.44
626.324	55.53
626.657	55.56
626.991	55.56
627.324	55.58
627.658	55.64
627.991	55.69
628.324	55.71
628.657	55.78
628.991	55.74
629.324	55.76
629.657	55.71
629.99	55.68
630.323	55.68
630.656	55.73
630.989	55.81
631.322	55.78
631.655	55.75
631.987	55.76
632.32	55.73
632.653	55.75
632.986	55.79
633.318	55.84
633.651	55.88
633.984	55.91
634.316	56.02
634.649	56.02
634.981	55.97
635.313	55.97
635.646	56.03
635.978	56.13
636.31	56.09
636.643	56.16
636.975	56.13
637.307	56.27
637.639	56.23
637.971	56.18
638.303	56.31
638.635	56.26
638.967	56.29
639.299	56.34
639.631	56.27
639.963	56.18
640.295	56.17
640.626	56.06
640.958	56.16
641.29	56.21
641.621	56.13
641.953	56.29
642.285	56.34
642.616	56.34
642.948	56.27
643.279	56.3
643.61	56.31
643.942	56.25
644.273	56.24
644.604	56.26
644.936	56.33
645.267	56.22
645.598	56.4
645.929	56.41
646.26	56.4
646.591	56.5
646.922	56.62
647.253	56.68
647.584	56.8
647.915	56.67
648.245	56.65
648.576	56.82
648.907	56.7
649.238	56.68
649.568	56.72
649.899	56.81
650.229	56.86
650.56	56.92
650.89	57.07
651.221	56.88
651.551	56.97
651.882	56.96
652.212	57.15
652.542	57.15
652.872	57.19
653.203	57.23
653.533	57.22
653.863	57.27
654.193	57.28
654.523	57.25
654.853	57.35
655.183	57.33
655.513	57.31
655.843	57.44
656.172	57.51
656.502	57.55
656.832	57.48
657.162	57.49
657.491	57.49
657.821	57.53
658.15	57.66
658.48	57.59
658.809	57.53
659.139	57.44
659.468	57.47
659.798	57.49
660.127	57.58
660.456	57.59
660.785	57.47
661.115	57.46
661.444	57.5
661.773	57.51
662.102	57.59
662.431	57.64
662.76	57.65
663.089	57.68
663.418	57.65
663.747	57.68
664.076	57.75
664.404	57.66
664.733	57.55
665.062	57.63
665.39	57.77
665.719	57.83
666.048	57.78
666.376	57.67
666.705	57.7
667.033	57.65
667.362	57.72
