Data from BU58002_Reflection_00003.txt Node
Date: Tue Nov 19 10:57:36 EST 2019
User: vgr7
Spectrometer: USB2G7710
Scans to average: 3
Trigger mode: 4
Integration Time (sec): 2.000000E-2
Electric dark correction enabled: true
Boxcar width: 10
XAxis mode: Wavelengths
Number of Pixels in Spectrum: 2048
>>>>>Begin Spectral Data<<<<<
177.721	145.5
178.105	77.94
178.488	53.67
178.871	72.73
179.254	-21.15
179.636	-5.12
180.019	-31.91
180.402	308.33
180.785	34.38
181.168	585.29
181.55	121.63
181.933	31.63
182.316	31.06
182.698	28.15
183.081	29.25
183.463	85.24
183.846	109.66
184.228	69.26
184.611	7.3
184.993	-97.73
185.376	-73.08
185.758	-598.28
186.14	105.77
186.522	169.92
186.904	-155
187.287	80.26
187.669	38.24
188.051	-62.44
188.433	312.26
188.815	-676.79
189.197	-121.22
189.579	-99.8
189.961	-70.39
190.342	-68.68
190.724	-52.7
191.106	-70.63
191.488	-84
191.869	-78.02
192.251	-85.6
192.633	-61.3
193.014	-69.43
193.396	-69.19
193.777	-73.4
194.159	-69.41
194.54	-78.82
194.922	-82.8
195.303	-86.95
195.684	-99.95
196.065	-114.15
196.447	-70.01
196.828	-67.62
197.209	-60.27
197.59	-50.4
197.971	-38.84
198.352	-33.08
198.733	-41.58
199.114	-39.45
199.495	-38.76
199.876	-44.01
200.257	-46.43
200.638	-65.15
201.018	-60.25
201.399	-51.89
201.78	-51.2
202.16	-49.15
202.541	-60.96
202.922	-48.14
203.302	-34.38
203.683	-33.25
204.063	-24.9
204.444	-36.31
204.824	-37.92
205.204	-47.34
205.585	-51.72
205.965	-78.83
206.345	-88.58
206.725	-101.3
207.106	-76.68
207.486	-64.54
207.866	-46.69
208.246	-36.87
208.626	-35.91
209.006	-35.04
209.386	-33.75
209.766	-28.85
210.145	-33.89
210.525	-26.35
210.905	-26.79
211.285	-18.74
211.664	-24.91
212.044	-21.45
212.424	-11.34
212.803	-9.17
213.183	-11.23
213.562	-13.05
213.942	-4.76
214.321	-9.69
214.701	-7.82
215.08	-9.4
215.459	-3.87
215.838	-15.34
216.218	-21.21
216.597	-13.54
216.976	-29.64
217.355	-49.72
217.734	-65.13
218.113	-38.57
218.492	-65.51
218.871	-46.25
219.25	-58.3
219.629	-63.81
220.008	-73.14
220.387	-98.48
220.766	-76.92
221.144	-77.95
221.523	-87.93
221.902	-76.43
222.28	-63.02
222.659	-30.77
223.037	-28.75
223.416	-31.72
223.794	-15.3
224.173	-18.64
224.551	-22.46
224.929	-19.01
225.308	-14.5
225.686	-16.33
226.064	-20.65
226.442	-16.36
226.821	-17.12
227.199	-16.23
227.577	-15.94
227.955	-16.36
228.333	-17.38
228.711	-17.6
229.089	-16.55
229.467	-14.54
229.845	-16.37
230.222	-13.89
230.6	-17.4
230.978	-14.77
231.356	-13.5
231.733	-14.25
232.111	-12.72
232.488	-10.13
232.866	-9.57
233.243	-7.09
233.621	-5.97
233.998	-7.62
234.376	-8.77
234.753	-7.82
235.13	-6.86
235.508	-5.67
235.885	-3.57
236.262	-3.14
236.639	-3.5
237.016	-2.33
237.393	-0.89
237.77	0.63
238.147	0.09
238.524	1.23
238.901	-0.44
239.278	-0.73
239.655	-0.45
240.032	0.01
240.409	0.81
240.785	1
241.162	0.55
241.539	0.56
241.915	1.12
242.292	2.21
242.668	1.82
243.045	1.79
243.421	1.98
243.798	2.14
244.174	2.34
244.551	2.57
244.927	2.71
245.303	2.46
245.679	2.52
246.056	2.53
246.432	2.31
246.808	2.75
247.184	2.68
247.56	2.44
247.936	2.42
248.312	2.23
248.688	2.4
249.064	2.42
249.44	2.55
249.815	2.45
250.191	2.11
250.567	2.35
250.943	2.44
251.318	2.19
251.694	2.14
252.069	2.42
252.445	2.35
252.82	2.47
253.196	2.66
253.571	2.65
253.947	2.77
254.322	2.92
254.697	2.96
255.073	3.09
255.448	3.29
255.823	3.07
256.198	3
256.573	2.93
256.948	3.07
257.323	3.2
257.698	3.23
258.073	3.18
258.448	3.13
258.823	2.99
259.198	3.17
259.573	3.12
259.948	3.23
260.322	3.23
260.697	3.13
261.072	3.14
261.446	3.24
261.821	3.25
262.195	3.07
262.57	3.06
262.944	3.1
263.319	3.09
263.693	3.16
264.067	3.2
264.442	3.15
264.816	3.13
265.19	2.81
265.564	2.94
265.938	3.06
266.313	3.04
266.687	3.2
267.061	3.15
267.435	3.29
267.809	3.06
268.183	2.86
268.556	2.9
268.93	2.95
269.304	2.76
269.678	2.76
270.051	2.91
270.425	2.86
270.799	2.75
271.172	2.76
271.546	2.85
271.919	2.78
272.293	2.67
272.666	2.64
273.04	2.76
273.413	2.6
273.787	2.49
274.16	2.41
274.533	2.29
274.906	2.32
275.279	2.13
275.653	2.13
276.026	2.41
276.399	2.45
276.772	2.43
277.145	2.68
277.518	2.67
277.891	2.64
278.263	2.68
278.636	2.95
279.009	3.04
279.382	2.99
279.755	3.15
280.127	3.26
280.5	3.19
280.872	3.38
281.245	3.39
281.617	3.6
281.99	3.62
282.362	3.58
282.735	3.46
283.107	3.55
283.479	3.56
283.852	3.51
284.224	3.49
284.596	3.49
284.968	3.29
285.34	3.39
285.713	3.47
286.085	3.4
286.457	3.21
286.829	3.1
287.201	3.13
287.572	3.15
287.944	3.2
288.316	3.24
288.688	3.1
289.06	3.22
289.431	3.22
289.803	3.27
290.175	3.32
290.546	3.22
290.918	3.09
291.289	2.99
291.661	2.95
292.032	3
292.403	2.87
292.775	2.96
293.146	2.76
293.517	2.75
293.889	2.83
294.26	2.93
294.631	2.96
295.002	2.94
295.373	2.95
295.744	3.01
296.115	3.1
296.486	3.11
296.857	3.11
297.228	3.08
297.599	3.02
297.97	3.07
298.34	3.31
298.711	3.38
299.082	3.52
299.452	3.44
299.823	3.3
300.194	3.35
300.564	3.33
300.935	3.44
301.305	3.3
301.676	3.25
302.046	3.19
302.416	3.2
302.787	3.18
303.157	3.14
303.527	3.1
303.897	2.9
304.267	3.05
304.637	2.97
305.008	2.87
305.378	2.91
305.748	2.91
306.117	2.84
306.487	2.92
306.857	2.93
307.227	3.09
307.597	3.21
307.967	3.16
308.336	3.17
308.706	3.23
309.076	3.4
309.445	3.52
309.815	3.65
310.184	3.69
310.554	3.66
310.923	3.58
311.293	3.61
311.662	3.7
312.031	3.52
312.401	3.54
312.77	3.53
313.139	3.6
313.508	3.51
313.877	3.51
314.246	3.5
314.616	3.46
314.985	3.44
315.353	3.32
315.722	3.45
316.091	3.41
316.46	3.38
316.829	3.39
317.198	3.17
317.567	3.13
317.935	3.22
318.304	3.48
318.672	3.67
319.041	3.59
319.41	3.58
319.778	3.72
320.147	3.62
320.515	3.56
320.883	3.41
321.252	3.48
321.62	3.44
321.988	3.39
322.357	3.41
322.725	3.17
323.093	3.22
323.461	3.21
323.829	3.24
324.197	3.13
324.565	3.15
324.933	3.17
325.301	2.99
325.669	2.91
326.037	2.74
326.405	2.58
326.772	2.62
327.14	2.62
327.508	2.59
327.875	2.7
328.243	2.77
328.61	2.84
328.978	2.95
329.346	2.93
329.713	3.06
330.08	3.08
330.448	3.22
330.815	3.25
331.182	3.2
331.55	3.21
331.917	3.36
332.284	3.3
332.651	3.37
333.018	3.45
333.385	3.44
333.752	3.43
334.119	3.5
334.486	3.43
334.853	3.53
335.22	3.53
335.587	3.46
335.954	3.46
336.32	3.47
336.687	3.43
337.054	3.3
337.42	3.29
337.787	3.28
338.153	3.38
338.52	3.49
338.886	3.53
339.253	3.47
339.619	3.38
339.986	3.29
340.352	3.33
340.718	3.38
341.084	3.48
341.451	3.57
341.817	3.55
342.183	3.59
342.549	3.57
342.915	3.6
343.281	3.65
343.647	3.69
344.013	3.73
344.379	3.7
344.745	3.78
345.11	3.74
345.476	3.7
345.842	3.63
346.208	3.56
346.573	3.56
346.939	3.63
347.304	3.7
347.67	3.79
348.035	3.72
348.401	3.74
348.766	3.56
349.132	3.54
349.497	3.61
349.862	3.62
350.228	3.66
350.593	3.69
350.958	3.73
351.323	3.73
351.688	3.76
352.053	3.84
352.418	3.91
352.783	3.98
353.148	4
353.513	4.03
353.878	4.05
354.243	3.99
354.608	4
354.972	3.93
355.337	3.97
355.702	3.98
356.066	3.92
356.431	3.98
356.795	3.96
357.16	3.93
357.524	3.97
357.889	3.95
358.253	3.89
358.618	3.78
358.982	3.79
359.346	3.8
359.71	3.73
360.075	3.68
360.439	3.62
360.803	3.61
361.167	3.59
361.531	3.56
361.895	3.53
362.259	3.56
362.623	3.58
362.987	3.52
363.351	3.5
363.714	3.53
364.078	3.49
364.442	3.47
364.806	3.44
365.169	3.4
365.533	3.4
365.896	3.51
366.26	3.55
366.623	3.54
366.987	3.51
367.35	3.56
367.714	3.61
368.077	3.63
368.44	3.56
368.803	3.55
369.167	3.52
369.53	3.56
369.893	3.54
370.256	3.49
370.619	3.5
370.982	3.55
371.345	3.62
371.708	3.66
372.071	3.69
372.434	3.69
372.797	3.73
373.159	3.67
373.522	3.61
373.885	3.6
374.247	3.6
374.61	3.53
374.973	3.57
375.335	3.53
375.698	3.54
376.06	3.59
376.423	3.59
376.785	3.64
377.147	3.65
377.51	3.65
377.872	3.71
378.234	3.74
378.596	3.76
378.958	3.75
379.321	3.77
379.683	3.77
380.045	3.8
380.407	3.8
380.769	3.84
381.13	3.75
381.492	3.77
381.854	3.73
382.216	3.72
382.578	3.69
382.939	3.71
383.301	3.69
383.663	3.7
384.024	3.71
384.386	3.69
384.747	3.71
385.109	3.72
385.47	3.71
385.832	3.68
386.193	3.6
386.554	3.53
386.916	3.55
387.277	3.57
387.638	3.56
387.999	3.53
388.36	3.49
388.721	3.56
389.082	3.59
389.443	3.63
389.804	3.69
390.165	3.66
390.526	3.65
390.887	3.67
391.248	3.68
391.609	3.72
391.969	3.7
392.33	3.69
392.691	3.71
393.051	3.69
393.412	3.72
393.772	3.72
394.133	3.73
394.493	3.67
394.854	3.63
395.214	3.63
395.574	3.66
395.935	3.7
396.295	3.7
396.655	3.69
397.015	3.66
397.376	3.65
397.736	3.69
398.096	3.69
398.456	3.7
398.816	3.69
399.176	3.65
399.535	3.69
399.895	3.67
400.255	3.66
400.615	3.66
400.975	3.67
401.334	3.68
401.694	3.71
402.054	3.72
402.413	3.75
402.773	3.78
403.132	3.75
403.492	3.74
403.851	3.77
404.211	3.77
404.57	3.76
404.929	3.75
405.288	3.76
405.648	3.74
406.007	3.71
406.366	3.73
406.725	3.76
407.084	3.74
407.443	3.75
407.802	3.76
408.161	3.77
408.52	3.76
408.879	3.79
409.238	3.79
409.596	3.8
409.955	3.77
410.314	3.74
410.673	3.75
411.031	3.73
411.39	3.7
411.748	3.67
412.107	3.68
412.465	3.68
412.824	3.65
413.182	3.65
413.54	3.68
413.899	3.66
414.257	3.63
414.615	3.61
414.974	3.62
415.332	3.6
415.69	3.61
416.048	3.61
416.406	3.58
416.764	3.58
417.122	3.59
417.48	3.6
417.838	3.6
418.195	3.6
418.553	3.6
418.911	3.6
419.269	3.62
419.626	3.62
419.984	3.62
420.342	3.62
420.699	3.63
421.057	3.62
421.414	3.61
421.772	3.61
422.129	3.6
422.486	3.6
422.844	3.6
423.201	3.58
423.558	3.58
423.915	3.59
424.273	3.6
424.63	3.59
424.987	3.58
425.344	3.57
425.701	3.58
426.058	3.57
426.415	3.57
426.772	3.56
427.128	3.57
427.485	3.56
427.842	3.56
428.199	3.55
428.555	3.55
428.912	3.56
429.269	3.53
429.625	3.56
429.982	3.57
430.338	3.57
430.695	3.58
431.051	3.58
431.407	3.57
431.764	3.56
432.12	3.55
432.476	3.55
432.832	3.58
433.189	3.56
433.545	3.55
433.901	3.55
434.257	3.55
434.613	3.54
434.969	3.54
435.325	3.55
435.681	3.54
436.036	3.54
436.392	3.55
436.748	3.57
437.104	3.56
437.459	3.57
437.815	3.57
438.171	3.58
438.526	3.56
438.882	3.55
439.237	3.55
439.593	3.57
439.948	3.59
440.304	3.58
440.659	3.59
441.014	3.6
441.369	3.61
441.725	3.61
442.08	3.62
442.435	3.62
442.79	3.62
443.145	3.64
443.5	3.63
443.855	3.61
444.21	3.61
444.565	3.62
444.92	3.62
445.275	3.61
445.629	3.6
445.984	3.61
446.339	3.63
446.693	3.63
447.048	3.61
447.403	3.59
447.757	3.58
448.112	3.58
448.466	3.59
448.82	3.58
449.175	3.58
449.529	3.57
449.883	3.57
450.238	3.57
450.592	3.56
450.946	3.54
451.3	3.56
451.654	3.53
452.008	3.53
452.362	3.52
452.716	3.52
453.07	3.5
453.424	3.51
453.778	3.49
454.132	3.48
454.486	3.49
454.839	3.5
455.193	3.52
455.547	3.52
455.9	3.51
456.254	3.52
456.607	3.53
456.961	3.53
457.314	3.53
457.668	3.54
458.021	3.54
458.375	3.54
458.728	3.54
459.081	3.56
459.434	3.56
459.787	3.56
460.141	3.56
460.494	3.57
460.847	3.57
461.2	3.57
461.553	3.59
461.906	3.59
462.259	3.59
462.611	3.59
462.964	3.59
463.317	3.6
463.67	3.59
464.022	3.57
464.375	3.57
464.728	3.59
465.08	3.59
465.433	3.58
465.785	3.58
466.138	3.59
466.49	3.59
466.843	3.61
467.195	3.6
467.547	3.61
467.899	3.63
468.252	3.64
468.604	3.66
468.956	3.66
469.308	3.66
469.66	3.66
470.012	3.67
470.364	3.67
470.716	3.66
471.068	3.66
471.42	3.68
471.772	3.68
472.123	3.67
472.475	3.65
472.827	3.66
473.178	3.67
473.53	3.67
473.882	3.67
474.233	3.66
474.585	3.69
474.936	3.69
475.288	3.67
475.639	3.66
475.99	3.64
476.342	3.66
476.693	3.65
477.044	3.64
477.395	3.64
477.746	3.64
478.097	3.63
478.448	3.65
478.8	3.67
479.15	3.69
479.501	3.71
479.852	3.73
480.203	3.76
480.554	3.76
480.905	3.77
481.255	3.77
481.606	3.77
481.957	3.77
482.307	3.77
482.658	3.77
483.009	3.77
483.359	3.78
483.709	3.78
484.06	3.79
484.41	3.79
484.761	3.8
485.111	3.8
485.461	3.8
485.811	3.79
486.162	3.79
486.512	3.79
486.862	3.79
487.212	3.78
487.562	3.77
487.912	3.77
488.262	3.77
488.612	3.78
488.961	3.78
489.311	3.77
489.661	3.78
490.011	3.77
490.36	3.78
490.71	3.78
491.06	3.77
491.409	3.76
491.759	3.75
492.108	3.73
492.458	3.73
492.807	3.75
493.157	3.75
493.506	3.75
493.855	3.74
494.204	3.74
494.554	3.74
494.903	3.75
495.252	3.73
495.601	3.73
495.95	3.75
496.299	3.75
496.648	3.76
496.997	3.75
497.346	3.77
497.695	3.77
498.043	3.79
498.392	3.82
498.741	3.83
499.09	3.86
499.438	3.88
499.787	3.88
500.135	3.88
500.484	3.88
500.832	3.89
501.181	3.91
501.529	3.94
501.878	3.96
502.226	3.97
502.574	4.01
502.923	4
503.271	3.99
503.619	4
503.967	3.99
504.315	4.01
504.663	4.02
505.011	4.01
505.359	3.99
505.707	3.99
506.055	3.99
506.403	3.98
506.751	3.98
507.098	4
507.446	4.01
507.794	4.02
508.141	4.02
508.489	4.02
508.837	4
509.184	3.98
509.531	4.01
509.879	3.98
510.226	3.98
510.574	3.99
510.921	3.99
511.268	4.01
511.616	4.01
511.963	4.02
512.31	4.04
512.657	4.05
513.004	4.02
513.351	4.02
513.698	4.03
514.045	4.01
514.392	4.01
514.739	4.02
515.086	4.03
515.432	4.04
515.779	4.03
516.126	4.06
516.473	4.08
516.819	4.06
517.166	4.09
517.512	4.1
517.859	4.11
518.205	4.1
518.552	4.1
518.898	4.1
519.245	4.1
519.591	4.1
519.937	4.1
520.283	4.11
520.629	4.1
520.976	4.11
521.322	4.12
521.668	4.12
522.014	4.12
522.36	4.12
522.706	4.13
523.052	4.12
523.398	4.1
523.743	4.11
524.089	4.13
524.435	4.13
524.781	4.15
525.126	4.14
525.472	4.16
525.817	4.15
526.163	4.17
526.509	4.17
526.854	4.18
527.199	4.19
527.545	4.21
527.89	4.22
528.235	4.22
528.581	4.23
528.926	4.24
529.271	4.24
529.616	4.23
529.961	4.24
530.306	4.25
530.651	4.26
530.996	4.26
531.341	4.25
531.686	4.25
532.031	4.24
532.376	4.26
532.721	4.24
533.065	4.24
533.41	4.24
533.755	4.24
534.099	4.23
534.444	4.22
534.788	4.2
535.133	4.2
535.477	4.2
535.822	4.21
536.166	4.21
536.51	4.21
536.855	4.21
537.199	4.2
537.543	4.2
537.887	4.2
538.231	4.21
538.576	4.22
538.92	4.22
539.264	4.23
539.608	4.24
539.951	4.24
540.295	4.26
540.639	4.26
540.983	4.26
541.327	4.27
541.671	4.27
542.014	4.28
542.358	4.29
542.701	4.31
543.045	4.31
543.389	4.3
543.732	4.31
544.075	4.32
544.419	4.34
544.762	4.33
545.105	4.34
545.449	4.32
545.792	4.3
546.135	4.3
546.478	4.3
546.821	4.29
547.165	4.3
547.508	4.28
547.851	4.29
548.194	4.26
548.536	4.27
548.879	4.27
549.222	4.27
549.565	4.27
549.908	4.24
550.25	4.24
550.593	4.23
550.936	4.2
551.278	4.18
551.621	4.19
551.963	4.24
552.306	4.22
552.648	4.24
552.991	4.27
553.333	4.28
553.675	4.27
554.017	4.3
554.36	4.28
554.702	4.27
555.044	4.28
555.386	4.32
555.728	4.3
556.07	4.3
556.412	4.32
556.754	4.29
557.096	4.29
557.438	4.29
557.78	4.3
558.121	4.32
558.463	4.32
558.805	4.33
559.147	4.34
559.488	4.33
559.83	4.3
560.171	4.26
560.513	4.27
560.854	4.29
561.196	4.25
561.537	4.29
561.878	4.31
562.22	4.3
562.561	4.29
562.902	4.29
563.243	4.31
563.584	4.3
563.925	4.33
564.266	4.33
564.607	4.34
564.948	4.33
565.289	4.36
565.63	4.36
565.971	4.32
566.312	4.29
566.653	4.3
566.993	4.33
567.334	4.34
567.675	4.33
568.015	4.34
568.356	4.34
568.696	4.35
569.037	4.33
569.377	4.32
569.718	4.35
570.058	4.35
570.398	4.34
570.739	4.33
571.079	4.32
571.419	4.31
571.759	4.28
572.099	4.3
572.439	4.25
572.779	4.26
573.119	4.28
573.459	4.28
573.799	4.27
574.139	4.24
574.479	4.26
574.819	4.27
575.158	4.26
575.498	4.28
575.838	4.24
576.177	4.25
576.517	4.25
576.856	4.24
577.196	4.25
577.535	4.23
577.875	4.24
578.214	4.25
578.553	4.25
578.893	4.27
579.232	4.26
579.571	4.31
579.91	4.3
580.25	4.32
580.589	4.3
580.928	4.32
581.267	4.33
581.606	4.32
581.945	4.32
582.283	4.32
582.622	4.3
582.961	4.31
583.3	4.35
583.639	4.36
583.977	4.33
584.316	4.32
584.654	4.34
584.993	4.35
585.332	4.37
585.67	4.4
586.008	4.42
586.347	4.41
586.685	4.35
587.024	4.35
587.362	4.33
587.7	4.38
588.038	4.44
588.376	4.44
588.715	4.41
589.053	4.43
589.391	4.47
589.729	4.47
590.067	4.48
590.404	4.47
590.742	4.47
591.08	4.49
591.418	4.51
591.756	4.48
592.093	4.48
592.431	4.45
592.769	4.42
593.106	4.42
593.444	4.46
593.781	4.5
594.119	4.5
594.456	4.51
594.793	4.47
595.131	4.43
595.468	4.43
595.805	4.46
596.143	4.44
596.48	4.43
596.817	4.42
597.154	4.4
597.491	4.41
597.828	4.4
598.165	4.4
598.502	4.37
598.839	4.38
599.176	4.35
599.512	4.34
599.849	4.34
600.186	4.32
600.523	4.28
600.859	4.25
601.196	4.24
601.532	4.25
601.869	4.26
602.205	4.26
602.542	4.28
602.878	4.29
603.215	4.28
603.551	4.27
603.887	4.27
604.223	4.27
604.56	4.26
604.896	4.29
605.232	4.28
605.568	4.32
605.904	4.34
606.24	4.36
606.576	4.39
606.912	4.39
607.248	4.4
607.583	4.41
607.919	4.41
608.255	4.43
608.591	4.45
608.926	4.44
609.262	4.45
609.597	4.45
609.933	4.43
610.268	4.47
610.604	4.47
610.939	4.51
611.275	4.55
611.61	4.52
611.945	4.47
612.281	4.5
612.616	4.49
612.951	4.51
613.286	4.53
613.621	4.51
613.956	4.55
614.291	4.58
614.626	4.61
614.961	4.63
615.296	4.69
615.631	4.65
615.966	4.69
616.3	4.7
616.635	4.66
616.97	4.7
617.304	4.65
617.639	4.66
617.973	4.63
618.308	4.63
618.642	4.69
618.977	4.74
619.311	4.76
619.646	4.73
619.98	4.77
620.314	4.78
620.648	4.77
620.983	4.79
621.317	4.73
621.651	4.66
621.985	4.63
622.319	4.61
622.653	4.62
622.987	4.57
623.321	4.58
623.655	4.58
623.988	4.57
624.322	4.59
624.656	4.56
624.99	4.55
625.323	4.54
625.657	4.56
625.99	4.54
626.324	4.51
626.657	4.51
626.991	4.49
627.324	4.45
627.658	4.44
627.991	4.44
628.324	4.46
628.657	4.5
628.991	4.54
629.324	4.57
629.657	4.52
629.99	4.53
630.323	4.52
630.656	4.55
630.989	4.53
631.322	4.49
631.655	4.55
631.987	4.55
632.32	4.57
632.653	4.53
632.986	4.51
633.318	4.54
633.651	4.54
633.984	4.58
634.316	4.57
634.649	4.63
634.981	4.62
635.313	4.64
635.646	4.68
635.978	4.67
636.31	4.6
636.643	4.61
636.975	4.66
637.307	4.66
637.639	4.68
637.971	4.66
638.303	4.69
638.635	4.6
638.967	4.58
639.299	4.54
639.631	4.59
639.963	4.59
640.295	4.54
640.626	4.46
640.958	4.41
641.29	4.46
641.621	4.43
641.953	4.37
642.285	4.34
642.616	4.29
642.948	4.29
643.279	4.26
643.61	4.32
643.942	4.29
644.273	4.37
644.604	4.33
644.936	4.37
645.267	4.38
645.598	4.45
645.929	4.5
646.26	4.5
646.591	4.45
646.922	4.49
647.253	4.51
647.584	4.6
647.915	4.57
648.245	4.53
648.576	4.55
648.907	4.6
649.238	4.59
649.568	4.56
649.899	4.57
650.229	4.61
650.56	4.62
650.89	4.64
651.221	4.55
651.551	4.58
651.882	4.58
652.212	4.61
652.542	4.69
652.872	4.65
653.203	4.7
653.533	4.72
653.863	4.77
654.193	4.78
654.523	4.79
654.853	4.87
655.183	4.85
655.513	4.85
655.843	4.86
656.172	4.88
656.502	4.93
656.832	4.91
657.162	4.92
657.491	4.94
657.821	4.93
658.15	4.96
658.48	4.97
658.809	4.99
659.139	4.98
659.468	4.91
659.798	4.92
660.127	4.89
660.456	4.91
660.785	4.9
661.115	4.92
661.444	4.91
661.773	4.91
662.102	4.93
662.431	4.94
662.76	4.92
663.089	4.97
663.418	4.99
663.747	4.99
664.076	5.01
664.404	5.05
664.733	4.97
665.062	4.93
665.39	4.87
665.719	4.87
666.048	4.82
666.376	4.83
666.705	4.81
667.033	4.8
667.362	4.74
667.69	4.73
668.018	4.74
668.347	4.71
668.675	4.67
669.003	4.6
669.331	4.6
669.659	4.59
669.987	4.5
670.315	4.47
670.643	4.44
670.971	4.4
671.299	4.35
671.627	4.47
671.955	4.44
672.283	4.4
672.61	4.35
672.938	4.39
673.266	4.4
673.593	4.4
673.921	4.43
674.249	4.41
674.576	4.38
674.904	4.29
675.231	4.31
675.558	4.32
675.886	4.42
676.213	4.4
676.54	4.46
676.867	4.42
677.195	4.47
677.522	4.51
