Data from BU58127_Reflection_00010.txt Node
Date: Mon Nov 18 16:44:20 EST 2019
User: vgr7
Spectrometer: USB2G7710
Scans to average: 3
Trigger mode: 4
Integration Time (sec): 2.000000E-2
Electric dark correction enabled: true
Boxcar width: 10
XAxis mode: Wavelengths
Number of Pixels in Spectrum: 2048
>>>>>Begin Spectral Data<<<<<
177.721	-117.39
178.105	-12.68
178.488	46.56
178.871	2.17
179.254	77.44
179.636	-900
180.019	-75.57
180.402	100
180.785	-465.22
181.168	-1400
181.55	338.1
181.933	86.3
182.316	101.77
182.698	198.98
183.081	142.62
183.463	122.62
183.846	105.29
184.228	69.33
184.611	60
184.993	-51.52
185.376	-174.73
185.758	484.62
186.14	1.96
186.522	-11.11
186.904	-82.06
187.287	-48.29
187.669	1146.51
188.051	-303.73
188.433	-6677.78
188.815	344.24
189.197	659.63
189.579	122.78
189.961	55.91
190.342	73.95
190.724	135.2
191.106	119.2
191.488	130.67
191.869	114.31
192.251	127.62
192.633	96.44
193.014	98.73
193.396	89.6
193.777	127.93
194.159	170.48
194.54	119.51
194.922	79.85
195.303	96.85
195.684	112.69
196.065	72.05
196.447	40.7
196.828	44.7
197.209	30.06
197.59	36.42
197.971	51.44
198.352	49.61
198.733	45.43
199.114	34.12
199.495	38.03
199.876	35.66
200.257	20.2
200.638	19.9
201.018	26.09
201.399	30.51
201.78	37.83
202.16	28.08
202.541	30.16
202.922	21.31
203.302	13.48
203.683	8.35
204.063	16.33
204.444	31.05
204.824	33.06
205.204	50.68
205.585	71.98
205.965	77.78
206.345	82.07
206.725	73.57
207.106	72.21
207.486	72.42
207.866	76.53
208.246	80.12
208.626	87.38
209.006	72.69
209.386	49.47
209.766	44.05
210.145	30.85
210.525	24.03
210.905	48.99
211.285	70.61
211.664	91.29
212.044	79.94
212.424	85.42
212.803	81.93
213.183	78.89
213.562	70.42
213.942	52.78
214.321	48.45
214.701	40.5
215.08	47.99
215.459	66.64
215.838	60.11
216.218	77.93
216.597	66.4
216.976	63.79
217.355	79.79
217.734	74.21
218.113	93.21
218.492	106.12
218.871	79.71
219.25	56.41
219.629	35.93
220.008	36.15
220.387	23.89
220.766	30.46
221.144	22.79
221.523	13.49
221.902	13.07
222.28	12.81
222.659	12.38
223.037	19.5
223.416	3.9
223.794	3.19
224.173	2.28
224.551	7.79
224.929	13.18
225.308	15.93
225.686	15.68
226.064	13.32
226.442	11.36
226.821	15.68
227.199	12.3
227.577	13.58
227.955	14.87
228.333	17.08
228.711	15.95
229.089	17.37
229.467	18.48
229.845	18.88
230.222	19.12
230.6	19.81
230.978	16
231.356	19.51
231.733	18.65
232.111	21.2
232.488	19.94
232.866	17.67
233.243	16.77
233.621	15.58
233.998	13.94
234.376	11.74
234.753	10.84
235.13	11.52
235.508	12.38
235.885	10.02
236.262	8.84
236.639	8.21
237.016	7.44
237.393	8.12
237.77	8
238.147	7.69
238.524	7.6
238.901	8.36
239.278	7.71
239.655	7.66
240.032	7.05
240.409	6.41
240.785	6.1
241.162	6.01
241.539	6.04
241.915	6.65
242.292	6.41
242.668	6.78
243.045	6.69
243.421	6.41
243.798	6.52
244.174	6.32
244.551	6.27
244.927	6.28
245.303	6
245.679	5.75
246.056	5.48
246.432	5.28
246.808	5.52
247.184	4.99
247.56	4.96
247.936	4.68
248.312	4.83
248.688	5.08
249.064	5
249.44	4.93
249.815	4.79
250.191	5.05
250.567	4.99
250.943	4.79
251.318	4.91
251.694	5.07
252.069	5.11
252.445	4.99
252.82	5.04
253.196	5.08
253.571	5.1
253.947	5.15
254.322	5.44
254.697	5.14
255.073	4.85
255.448	4.75
255.823	5.01
256.198	5.05
256.573	4.75
256.948	4.82
257.323	4.73
257.698	4.51
258.073	4.38
258.448	4.11
258.823	4.22
259.198	3.96
259.573	3.97
259.948	3.97
260.322	3.85
260.697	3.79
261.072	3.75
261.446	3.62
261.821	3.73
262.195	3.61
262.57	3.57
262.944	3.81
263.319	3.85
263.693	3.72
264.067	3.54
264.442	3.72
264.816	3.5
265.19	3.51
265.564	3.73
265.938	3.65
266.313	3.73
266.687	3.75
267.061	3.97
267.435	3.83
267.809	3.9
268.183	4.04
268.556	4.01
268.93	3.86
269.304	4.06
269.678	4.03
270.051	4.01
270.425	3.91
270.799	3.9
271.172	3.83
271.546	3.74
271.919	3.7
272.293	3.53
272.666	3.76
273.04	3.93
273.413	3.84
273.787	3.93
274.16	3.96
274.533	3.94
274.906	4
275.279	4.18
275.653	4.07
276.026	4.08
276.399	4.03
276.772	4.18
277.145	4.06
277.518	3.89
277.891	4.11
278.263	4.25
278.636	4.29
279.009	4.4
279.382	4.74
279.755	4.82
280.127	4.96
280.5	4.88
280.872	4.86
281.245	4.75
281.617	4.72
281.99	4.85
282.362	4.8
282.735	4.73
283.107	4.65
283.479	4.83
283.852	4.81
284.224	4.81
284.596	4.78
284.968	4.93
285.34	5.08
285.713	4.89
286.085	4.97
286.457	5
286.829	5.06
287.201	5.1
287.572	5.02
287.944	5.07
288.316	5.05
288.688	4.99
289.06	5.11
289.431	5.21
289.803	5.05
290.175	5.19
290.546	5.31
290.918	5.31
291.289	5.14
291.661	5.22
292.032	5.19
292.403	5.22
292.775	5.25
293.146	5.25
293.517	5.35
293.889	5.29
294.26	5.35
294.631	5.22
295.002	5.15
295.373	5.25
295.744	5.25
296.115	5.41
296.486	5.3
296.857	5.26
297.228	5.26
297.599	5.44
297.97	5.45
298.34	5.32
298.711	5.4
299.082	5.57
299.452	5.61
299.823	5.87
300.194	5.93
300.564	5.87
300.935	5.8
301.305	5.88
301.676	5.86
302.046	5.97
302.416	6.18
302.787	6.3
303.157	6.28
303.527	6.34
303.897	6.31
304.267	6.46
304.637	6.55
305.008	6.59
305.378	6.7
305.748	6.78
306.117	6.77
306.487	6.85
306.857	6.9
307.227	7
307.597	6.96
307.967	7.07
308.336	7.21
308.706	7.42
309.076	7.47
309.445	7.58
309.815	7.58
310.184	7.56
310.554	7.5
310.923	7.69
311.293	7.73
311.662	7.8
312.031	7.79
312.401	7.81
312.77	7.9
313.139	7.96
313.508	7.94
313.877	8.13
314.246	8.19
314.616	8.24
314.985	8.28
315.353	8.25
315.722	8.35
316.091	8.38
316.46	8.48
316.829	8.62
317.198	8.73
317.567	8.81
317.935	8.9
318.304	9.06
318.672	9.18
319.041	9.34
319.41	9.41
319.778	9.6
320.147	9.7
320.515	9.93
320.883	9.87
321.252	10.01
321.62	10.1
321.988	10.04
322.357	10.07
322.725	10.09
323.093	10.18
323.461	10.24
323.829	10.23
324.197	10.21
324.565	10.07
324.933	10.21
325.301	10.22
325.669	10.27
326.037	10.3
326.405	10.35
326.772	10.31
327.14	10.44
327.508	10.49
327.875	10.56
328.243	10.56
328.61	10.58
328.978	10.59
329.346	10.69
329.713	10.63
330.08	10.8
330.448	10.67
330.815	10.81
331.182	10.87
331.55	10.93
331.917	10.98
332.284	11.2
332.651	11.09
333.018	11.05
333.385	11.13
333.752	11.16
334.119	11.09
334.486	11.05
334.853	11.03
335.22	10.94
335.587	11.09
335.954	11.02
336.32	10.96
336.687	11.03
337.054	10.9
337.42	11.14
337.787	11.08
338.153	11.23
338.52	11.28
338.886	11.22
339.253	11.24
339.619	11.27
339.986	11.38
340.352	11.54
340.718	11.55
341.084	11.62
341.451	11.64
341.817	11.72
342.183	11.85
342.549	11.82
342.915	12.02
343.281	11.97
343.647	11.97
344.013	12.1
344.379	12.13
344.745	12.25
345.11	12.2
345.476	12.28
345.842	12.33
346.208	12.31
346.573	12.35
346.939	12.45
347.304	12.48
347.67	12.24
348.035	12.16
348.401	12.23
348.766	12.13
349.132	12.17
349.497	12.09
349.862	12.13
350.228	12.13
350.593	11.99
350.958	11.97
351.323	12
351.688	12.09
352.053	12.05
352.418	12.08
352.783	12.09
353.148	11.98
353.513	11.91
353.878	11.87
354.243	11.76
354.608	11.69
354.972	11.74
355.337	11.83
355.702	11.91
356.066	11.87
356.431	11.86
356.795	11.84
357.16	11.86
357.524	11.73
357.889	11.68
358.253	11.7
358.618	11.7
358.982	11.64
359.346	11.52
359.71	11.46
360.075	11.37
360.439	11.34
360.803	11.31
361.167	11.22
361.531	11.17
361.895	11.17
362.259	11.1
362.623	11.08
362.987	10.96
363.351	10.84
363.714	10.83
364.078	10.75
364.442	10.71
364.806	10.64
365.169	10.61
365.533	10.57
365.896	10.51
366.26	10.45
366.623	10.39
366.987	10.3
367.35	10.3
367.714	10.22
368.077	10.17
368.44	10.13
368.803	10.14
369.167	10.16
369.53	10.03
369.893	9.98
370.256	9.82
370.619	9.84
370.982	9.73
371.345	9.59
371.708	9.54
372.071	9.43
372.434	9.31
372.797	9.28
373.159	9.21
373.522	9.14
373.885	9.06
374.247	9.01
374.61	9.03
374.973	8.83
375.335	8.81
375.698	8.7
376.06	8.6
376.423	8.5
376.785	8.38
377.147	8.42
377.51	8.35
377.872	8.29
378.234	8.24
378.596	8.29
378.958	8.26
379.321	8.26
379.683	8.19
380.045	8.13
380.407	8.06
380.769	8.02
381.13	7.9
381.492	7.83
381.854	7.8
382.216	7.65
382.578	7.63
382.939	7.54
383.301	7.5
383.663	7.41
384.024	7.34
384.386	7.32
384.747	7.27
385.109	7.19
385.47	7.08
385.832	7
386.193	6.87
386.554	6.82
386.916	6.71
387.277	6.64
387.638	6.65
387.999	6.57
388.36	6.5
388.721	6.45
389.082	6.42
389.443	6.32
389.804	6.26
390.165	6.22
390.526	6.16
390.887	6.05
391.248	6.07
391.609	6.03
391.969	5.94
392.33	5.85
392.691	5.81
393.051	5.78
393.412	5.76
393.772	5.69
394.133	5.65
394.493	5.63
394.854	5.58
395.214	5.49
395.574	5.43
395.935	5.39
396.295	5.37
396.655	5.28
397.015	5.26
397.376	5.24
397.736	5.17
398.096	5.18
398.456	5.18
398.816	5.08
399.176	5.04
399.535	5
399.895	4.96
400.255	4.96
400.615	4.93
400.975	4.85
401.334	4.81
401.694	4.78
402.054	4.7
402.413	4.68
402.773	4.61
403.132	4.58
403.492	4.55
403.851	4.52
404.211	4.53
404.57	4.49
404.929	4.46
405.288	4.42
405.648	4.37
406.007	4.3
406.366	4.29
406.725	4.32
407.084	4.29
407.443	4.28
407.802	4.25
408.161	4.21
408.52	4.18
408.879	4.18
409.238	4.16
409.596	4.18
409.955	4.18
410.314	4.2
410.673	4.2
411.031	4.19
411.39	4.18
411.748	4.16
412.107	4.13
412.465	4.1
412.824	4.09
413.182	4.07
413.54	4.08
413.899	4.08
414.257	4.04
414.615	4.04
414.974	4.05
415.332	4.01
415.69	4
416.048	3.96
416.406	3.97
416.764	3.93
417.122	3.9
417.48	3.85
417.838	3.83
418.195	3.78
418.553	3.75
418.911	3.72
419.269	3.71
419.626	3.71
419.984	3.7
420.342	3.68
420.699	3.65
421.057	3.63
421.414	3.61
421.772	3.58
422.129	3.57
422.486	3.52
422.844	3.51
423.201	3.49
423.558	3.5
423.915	3.48
424.273	3.48
424.63	3.45
424.987	3.43
425.344	3.43
425.701	3.44
426.058	3.43
426.415	3.42
426.772	3.41
427.128	3.37
427.485	3.36
427.842	3.37
428.199	3.4
428.555	3.39
428.912	3.38
429.269	3.4
429.625	3.36
429.982	3.35
430.338	3.36
430.695	3.36
431.051	3.35
431.407	3.32
431.764	3.32
432.12	3.32
432.476	3.32
432.832	3.29
433.189	3.29
433.545	3.28
433.901	3.29
434.257	3.26
434.613	3.28
434.969	3.27
435.325	3.25
435.681	3.22
436.036	3.21
436.392	3.22
436.748	3.2
437.104	3.2
437.459	3.2
437.815	3.2
438.171	3.19
438.526	3.2
438.882	3.21
439.237	3.19
439.593	3.2
439.948	3.21
440.304	3.23
440.659	3.2
441.014	3.21
441.369	3.19
441.725	3.18
442.08	3.18
442.435	3.19
442.79	3.2
443.145	3.2
443.5	3.2
443.855	3.18
444.21	3.17
444.565	3.17
444.92	3.17
445.275	3.15
445.629	3.15
445.984	3.13
446.339	3.11
446.693	3.11
447.048	3.1
447.403	3.09
447.757	3.07
448.112	3.08
448.466	3.07
448.82	3.08
449.175	3.08
449.529	3.07
449.883	3.06
450.238	3.04
450.592	3.03
450.946	3.01
451.3	3.01
451.654	3.01
452.008	3
452.362	3
452.716	2.99
453.07	2.98
453.424	2.99
453.778	3
454.132	2.98
454.486	2.97
454.839	2.96
455.193	2.97
455.547	2.93
455.9	2.94
456.254	2.94
456.607	2.93
456.961	2.95
457.314	2.93
457.668	2.93
458.021	2.92
458.375	2.93
458.728	2.94
459.081	2.94
459.434	2.95
459.787	2.97
460.141	2.97
460.494	2.99
460.847	2.99
461.2	3
461.553	3.01
461.906	3.03
462.259	3.02
462.611	3.04
462.964	3.07
463.317	3.07
463.67	3.08
464.022	3.09
464.375	3.06
464.728	3.06
465.08	3.09
465.433	3.11
465.785	3.1
466.138	3.1
466.49	3.1
466.843	3.09
467.195	3.09
467.547	3.11
467.899	3.11
468.252	3.12
468.604	3.12
468.956	3.13
469.308	3.14
469.66	3.15
470.012	3.13
470.364	3.15
470.716	3.17
471.068	3.19
471.42	3.2
471.772	3.26
472.123	3.28
472.475	3.27
472.827	3.28
473.178	3.28
473.53	3.28
473.882	3.31
474.233	3.31
474.585	3.31
474.936	3.3
475.288	3.32
475.639	3.31
475.99	3.33
476.342	3.33
476.693	3.31
477.044	3.34
477.395	3.34
477.746	3.32
478.097	3.31
478.448	3.3
478.8	3.29
479.15	3.25
479.501	3.23
479.852	3.23
480.203	3.22
480.554	3.23
480.905	3.24
481.255	3.23
481.606	3.23
481.957	3.24
482.307	3.24
482.658	3.23
483.009	3.23
483.359	3.23
483.709	3.23
484.06	3.23
484.41	3.22
484.761	3.22
485.111	3.22
485.461	3.22
485.811	3.22
486.162	3.22
486.512	3.22
486.862	3.23
487.212	3.22
487.562	3.24
487.912	3.25
488.262	3.24
488.612	3.25
488.961	3.25
489.311	3.25
489.661	3.25
490.011	3.24
490.36	3.24
490.71	3.23
491.06	3.23
491.409	3.24
491.759	3.24
492.108	3.25
492.458	3.26
492.807	3.27
493.157	3.28
493.506	3.3
493.855	3.3
494.204	3.32
494.554	3.34
494.903	3.33
495.252	3.33
495.601	3.37
495.95	3.38
496.299	3.38
496.648	3.38
496.997	3.4
497.346	3.44
497.695	3.49
498.043	3.51
498.392	3.52
498.741	3.55
499.09	3.58
499.438	3.61
499.787	3.65
500.135	3.69
500.484	3.73
500.832	3.77
501.181	3.82
501.529	3.84
501.878	3.9
502.226	3.97
502.574	4.01
502.923	4.03
503.271	4.08
503.619	4.16
503.967	4.22
504.315	4.28
504.663	4.34
505.011	4.38
505.359	4.44
505.707	4.5
506.055	4.58
506.403	4.65
506.751	4.7
507.098	4.74
507.446	4.82
507.794	4.89
508.141	4.96
508.489	5.02
508.837	5.09
509.184	5.14
509.531	5.2
509.879	5.3
510.226	5.38
510.574	5.45
510.921	5.51
511.268	5.6
511.616	5.69
511.963	5.76
512.31	5.84
512.657	5.94
513.004	6.02
513.351	6.12
513.698	6.21
514.045	6.32
514.392	6.44
514.739	6.52
515.086	6.64
515.432	6.74
515.779	6.84
516.126	6.95
516.473	7.06
516.819	7.16
517.166	7.24
517.512	7.34
517.859	7.43
518.205	7.53
518.552	7.64
518.898	7.74
519.245	7.85
519.591	7.95
519.937	8.04
520.283	8.16
520.629	8.29
520.976	8.43
521.322	8.55
521.668	8.68
522.014	8.81
522.36	8.92
522.706	9.05
523.052	9.2
523.398	9.34
523.743	9.5
524.089	9.64
524.435	9.79
524.781	9.9
525.126	10.03
525.472	10.14
525.817	10.25
526.163	10.33
526.509	10.42
526.854	10.51
527.199	10.61
527.545	10.68
527.89	10.75
528.235	10.85
528.581	10.96
528.926	11.04
529.271	11.14
529.616	11.21
529.961	11.31
530.306	11.4
530.651	11.51
530.996	11.61
531.341	11.71
531.686	11.82
532.031	11.94
532.376	12.07
532.721	12.2
533.065	12.32
533.41	12.47
533.755	12.6
534.099	12.74
534.444	12.87
534.788	13.02
535.133	13.13
535.477	13.24
535.822	13.37
536.166	13.54
536.51	13.7
536.855	13.91
537.199	14.08
537.543	14.29
537.887	14.46
538.231	14.64
538.576	14.86
538.92	15.09
539.264	15.27
539.608	15.43
539.951	15.6
540.295	15.77
540.639	15.93
540.983	16.1
541.327	16.27
541.671	16.44
542.014	16.61
542.358	16.77
542.701	16.95
543.045	17.09
543.389	17.25
543.732	17.41
544.075	17.57
544.419	17.74
544.762	17.91
545.105	18.11
545.449	18.32
545.792	18.52
546.135	18.71
546.478	18.97
546.821	19.23
547.165	19.49
547.508	19.76
547.851	20.02
548.194	20.31
548.536	20.55
548.879	20.82
549.222	21.09
549.565	21.37
549.908	21.65
550.25	21.96
550.593	22.28
550.936	22.57
551.278	22.91
551.621	23.24
551.963	23.53
552.306	23.85
552.648	24.18
552.991	24.48
553.333	24.8
553.675	25.05
554.017	25.33
554.36	25.62
554.702	25.89
555.044	26.18
555.386	26.43
555.728	26.74
556.07	26.99
556.412	27.3
556.754	27.59
557.096	27.89
557.438	28.19
557.78	28.49
558.121	28.82
558.463	29.08
558.805	29.38
559.147	29.7
559.488	30.01
559.83	30.31
560.171	30.62
560.513	30.87
560.854	31.2
561.196	31.5
561.537	31.79
561.878	32.11
562.22	32.4
562.561	32.72
562.902	32.99
563.243	33.35
563.584	33.65
563.925	33.98
564.266	34.26
564.607	34.53
564.948	34.81
565.289	35.06
565.63	35.4
565.971	35.7
566.312	35.98
566.653	36.25
566.993	36.51
567.334	36.76
567.675	37.07
568.015	37.33
568.356	37.61
568.696	37.9
569.037	38.12
569.377	38.4
569.718	38.67
570.058	38.95
570.398	39.16
570.739	39.46
571.079	39.68
571.419	39.95
571.759	40.22
572.099	40.48
572.439	40.74
572.779	40.97
573.119	41.17
573.459	41.36
573.799	41.54
574.139	41.77
574.479	42.07
574.819	42.26
575.158	42.45
575.498	42.63
575.838	42.83
576.177	43.05
576.517	43.27
576.856	43.45
577.196	43.69
577.535	43.99
577.875	44.17
578.214	44.39
578.553	44.62
578.893	44.82
579.232	45.04
579.571	45.22
579.91	45.37
580.25	45.61
580.589	45.9
580.928	46.19
581.267	46.42
581.606	46.45
581.945	46.62
582.283	46.87
582.622	47.13
582.961	47.31
583.3	47.61
583.639	47.79
583.977	48.01
584.316	48.13
584.654	48.29
584.993	48.41
585.332	48.61
585.67	48.78
586.008	48.98
586.347	49.14
586.685	49.38
587.024	49.62
587.362	49.78
587.7	49.9
588.038	50.09
588.376	50.25
588.715	50.47
589.053	50.69
589.391	50.79
589.729	50.95
590.067	51.12
590.404	51.21
590.742	51.31
591.08	51.56
591.418	51.71
591.756	51.82
592.093	52
592.431	52.11
592.769	52.28
593.106	52.34
593.444	52.41
593.781	52.54
594.119	52.64
594.456	52.7
594.793	52.82
595.131	52.88
595.468	52.92
595.805	53.02
596.143	53.12
596.48	53.24
596.817	53.38
597.154	53.45
597.491	53.53
597.828	53.69
598.165	53.75
598.502	53.92
598.839	53.92
599.176	54.02
599.512	54.19
599.849	54.25
600.186	54.43
600.523	54.51
600.859	54.54
601.196	54.66
601.532	54.84
601.869	54.94
602.205	55
602.542	55.21
602.878	55.3
603.215	55.38
603.551	55.44
603.887	55.46
604.223	55.51
604.56	55.62
604.896	55.58
605.232	55.57
605.568	55.58
605.904	55.74
606.24	55.78
606.576	55.88
606.912	55.97
607.248	56.02
607.583	56.14
607.919	56.34
608.255	56.4
608.591	56.49
608.926	56.54
609.262	56.66
609.597	56.72
609.933	56.78
610.268	56.88
610.604	56.92
610.939	56.96
611.275	57.03
611.61	57.07
611.945	57.27
612.281	57.4
612.616	57.42
612.951	57.51
613.286	57.6
613.621	57.57
613.956	57.61
614.291	57.73
614.626	57.83
614.961	57.74
615.296	57.77
615.631	57.85
615.966	57.88
616.3	57.94
616.635	57.95
616.97	57.97
617.304	57.99
617.639	58.08
617.973	58.12
618.308	58.24
618.642	58.35
618.977	58.37
619.311	58.42
619.646	58.53
619.98	58.53
620.314	58.66
620.648	58.74
620.983	58.77
621.317	58.73
621.651	58.72
621.985	58.79
622.319	58.84
622.653	58.8
622.987	58.86
623.321	58.91
623.655	59.01
623.988	59.08
624.322	59.1
624.656	59.01
624.99	59.06
625.323	59.12
625.657	59.05
625.99	59
626.324	59.06
626.657	59.1
626.991	59.25
627.324	59.18
627.658	59.28
627.991	59.37
628.324	59.49
628.657	59.59
628.991	59.63
629.324	59.7
629.657	59.75
629.99	59.8
630.323	59.79
630.656	59.79
630.989	59.93
631.322	59.89
631.655	59.91
631.987	59.9
632.32	59.89
632.653	59.96
632.986	59.98
633.318	59.94
633.651	59.93
633.984	59.82
634.316	59.87
634.649	59.83
634.981	59.75
635.313	59.65
635.646	59.62
635.978	59.55
636.31	59.43
636.643	59.44
636.975	59.45
637.307	59.47
637.639	59.44
637.971	59.33
638.303	59.4
638.635	59.49
638.967	59.59
639.299	59.56
639.631	59.58
639.963	59.57
640.295	59.69
640.626	59.72
640.958	59.83
641.29	59.8
641.621	59.88
641.953	60
642.285	60.06
642.616	60.04
642.948	60.12
643.279	60.16
643.61	60.18
643.942	60.22
644.273	60.21
644.604	60.19
644.936	60.19
645.267	60.29
645.598	60.2
645.929	60.17
646.26	60.28
646.591	60.29
646.922	60.51
647.253	60.39
647.584	60.59
647.915	60.63
648.245	60.61
648.576	60.6
648.907	60.65
649.238	60.63
649.568	60.7
649.899	60.69
650.229	60.68
650.56	60.72
650.89	60.72
651.221	60.71
651.551	60.74
651.882	60.82
652.212	60.81
652.542	60.99
652.872	61.04
653.203	61.03
653.533	61.08
653.863	61.08
654.193	61.15
654.523	60.99
654.853	60.9
655.183	60.97
655.513	60.88
655.843	60.73
656.172	60.73
656.502	60.75
656.832	60.84
657.162	60.94
657.491	60.96
657.821	61.05
658.15	61.12
658.48	61.21
658.809	61.22
659.139	61.23
659.468	61.14
659.798	61.14
660.127	61.07
660.456	60.97
660.785	60.88
661.115	60.94
661.444	60.9
661.773	60.91
662.102	60.92
662.431	61.09
662.76	61.24
663.089	61.28
663.418	61.37
663.747	61.32
664.076	61.35
664.404	61.27
664.733	61.21
665.062	61.09
665.39	61.12
665.719	61.05
666.048	61.07
666.376	61.2
666.705	61.29
667.033	61.49
