Data from BU58131_Reflection_00007.txt Node
Date: Mon Nov 18 16:32:21 EST 2019
User: vgr7
Spectrometer: USB2G7710
Scans to average: 3
Trigger mode: 4
Integration Time (sec): 2.000000E-2
Electric dark correction enabled: true
Boxcar width: 10
XAxis mode: Wavelengths
Number of Pixels in Spectrum: 2048
>>>>>Begin Spectral Data<<<<<
177.721	48.88
178.105	-183.58
178.488	-249.13
178.871	204.91
179.254	112.84
179.636	-16.07
180.019	-452.49
180.402	33.33
180.785	-290.14
181.168	195.85
181.55	77.64
181.933	78.28
182.316	107.7
182.698	129.77
183.081	175.51
183.463	227
183.846	150.59
184.228	175.14
184.611	205.69
184.993	328.52
185.376	220.02
185.758	199.95
186.14	313.22
186.522	405.27
186.904	337.02
187.287	285.06
187.669	445.17
188.051	527.92
188.433	801.7
188.815	735.93
189.197	1997
189.579	-501.16
189.961	-277.16
190.342	-257.84
190.724	-204.37
191.106	-261.46
191.488	-157.35
191.869	-149.72
192.251	-156.76
192.633	-124.62
193.014	-207.69
193.396	-134.01
193.777	-112.11
194.159	-83.68
194.54	-98.29
194.922	-88.27
195.303	-90.82
195.684	-85.37
196.065	-22.43
196.447	-66.59
196.828	-67.54
197.209	-74.7
197.59	-73.09
197.971	-58.35
198.352	-25.05
198.733	-44.15
199.114	-26.53
199.495	-5.6
199.876	-1.55
200.257	-30.75
200.638	-30.84
201.018	-47.4
201.399	-80.83
201.78	-62.94
202.16	-107.62
202.541	-151.58
202.922	-169.25
203.302	-178.81
203.683	-176.15
204.063	-267.15
204.444	-311.38
204.824	-387.6
205.204	-307.43
205.585	-488.78
205.965	-300
206.345	-486.64
206.725	-1121.05
207.106	-1682.23
207.486	-6559.79
207.866	1483.3
208.246	28708.7
208.626	3003.77
209.006	-1887.69
209.386	1721.92
209.766	2100
210.145	-1706.09
210.525	-349.59
210.905	-344.59
211.285	-349.15
211.664	-370.34
212.044	-279.25
212.424	-184.71
212.803	-183.19
213.183	-194.75
213.562	-156.22
213.942	-190.62
214.321	-131.06
214.701	-127.26
215.08	-136.44
215.459	-138.19
215.838	-96
216.218	-98.42
216.597	-85.62
216.976	-78.43
217.355	-50.06
217.734	-51.61
218.113	-48.31
218.492	-48.97
218.871	-39.56
219.25	-38.73
219.629	-16.94
220.008	-32.88
220.387	-39.84
220.766	-18.7
221.144	-35.67
221.523	-30.42
221.902	-27.04
222.28	-43.84
222.659	-32.59
223.037	-24.5
223.416	-23.1
223.794	-27.81
224.173	-25.37
224.551	-21.16
224.929	-29.03
225.308	-24.27
225.686	-19.82
226.064	-15.76
226.442	-20.61
226.821	-18.24
227.199	-16.53
227.577	-16.94
227.955	-14.97
228.333	-19.5
228.711	-17.98
229.089	-11.34
229.467	-12.47
229.845	-8.62
230.222	-7.84
230.6	-7.96
230.978	-5.49
231.356	-5.15
231.733	-6.03
232.111	-5.44
232.488	-4.08
232.866	-2.93
233.243	-3.56
233.621	-6.03
233.998	-4.86
234.376	-5.02
234.753	-5.96
235.13	-5.07
235.508	-3.99
235.885	-2.06
236.262	-1.86
236.639	-3.04
237.016	-2.89
237.393	-0.51
237.77	-0.25
238.147	-0.14
238.524	0.29
238.901	0.95
239.278	1.58
239.655	2.86
240.032	2.69
240.409	2.42
240.785	2.17
241.162	2.27
241.539	2.48
241.915	2.44
242.292	2.45
242.668	2.75
243.045	2.56
243.421	2.09
243.798	2.08
244.174	2.47
244.551	2.62
244.927	2.74
245.303	2.66
245.679	2.78
246.056	3.01
246.432	2.85
246.808	2.71
247.184	2.44
247.56	2.07
247.936	2.14
248.312	2.2
248.688	2.25
249.064	2.21
249.44	2.29
249.815	2.42
250.191	2.53
250.567	2.21
250.943	2.2
251.318	2.38
251.694	2.57
252.069	2.31
252.445	2.32
252.82	2
253.196	1.79
253.571	1.71
253.947	1.51
254.322	1.68
254.697	1.85
255.073	2.14
255.448	2.38
255.823	2.33
256.198	2.38
256.573	2.51
256.948	2.79
257.323	2.86
257.698	2.85
258.073	2.98
258.448	3.26
258.823	3.27
259.198	3.26
259.573	2.97
259.948	3.08
260.322	3.05
260.697	3.08
261.072	3.13
261.446	3.15
261.821	3.04
262.195	3.18
262.57	3.06
262.944	2.91
263.319	2.79
263.693	2.76
264.067	2.77
264.442	2.85
264.816	2.74
265.19	2.76
265.564	2.68
265.938	2.5
266.313	2.47
266.687	2.59
267.061	2.76
267.435	2.83
267.809	2.91
268.183	2.95
268.556	2.96
268.93	2.87
269.304	2.63
269.678	2.74
270.051	2.59
270.425	2.55
270.799	2.66
271.172	2.81
271.546	2.74
271.919	2.51
272.293	2.3
272.666	2.38
273.04	2.42
273.413	2.37
273.787	2.29
274.16	2.09
274.533	2
274.906	1.94
275.279	1.95
275.653	2.02
276.026	2.07
276.399	2.09
276.772	2.14
277.145	2.23
277.518	2.27
277.891	2.41
278.263	2.33
278.636	2.28
279.009	2.31
279.382	2.62
279.755	2.9
280.127	3.02
280.5	3.01
280.872	3.07
281.245	3.1
281.617	3.31
281.99	3.62
282.362	3.62
282.735	3.41
283.107	3.44
283.479	3.33
283.852	3.41
284.224	3.45
284.596	3.49
284.968	3.59
285.34	3.64
285.713	3.64
286.085	3.86
286.457	3.94
286.829	3.95
287.201	3.89
287.572	3.74
287.944	3.81
288.316	3.88
288.688	3.75
289.06	3.79
289.431	3.71
289.803	3.71
290.175	3.84
290.546	3.96
290.918	4.01
291.289	4.09
291.661	4.05
292.032	4.1
292.403	4.05
292.775	4.01
293.146	4
293.517	4.03
293.889	4.06
294.26	4.09
294.631	4.15
295.002	4.14
295.373	4.36
295.744	4.39
296.115	4.29
296.486	4.42
296.857	4.42
297.228	4.52
297.599	4.54
297.97	4.46
298.34	4.58
298.711	4.72
299.082	4.82
299.452	4.81
299.823	4.93
300.194	5.04
300.564	5.15
300.935	5.3
301.305	5.24
301.676	5.3
302.046	5.48
302.416	5.69
302.787	5.89
303.157	5.96
303.527	5.93
303.897	6.08
304.267	6.21
304.637	6.37
305.008	6.57
305.378	6.65
305.748	6.87
306.117	6.96
306.487	7.07
306.857	7.1
307.227	7.31
307.597	7.39
307.967	7.54
308.336	7.64
308.706	7.64
309.076	7.85
309.445	7.91
309.815	7.94
310.184	7.86
310.554	7.92
310.923	7.99
311.293	8.2
311.662	8.3
312.031	8.32
312.401	8.32
312.77	8.38
313.139	8.49
313.508	8.53
313.877	8.54
314.246	8.47
314.616	8.55
314.985	8.5
315.353	8.43
315.722	8.5
316.091	8.48
316.46	8.51
316.829	8.61
317.198	8.72
317.567	8.7
317.935	8.78
318.304	8.83
318.672	8.74
319.041	8.64
319.41	8.73
319.778	8.85
320.147	9.04
320.515	9.11
320.883	9.02
321.252	9.06
321.62	9.27
321.988	9.48
322.357	9.63
322.725	9.86
323.093	10.06
323.461	10.28
323.829	10.43
324.197	10.64
324.565	10.69
324.933	10.69
325.301	10.68
325.669	10.76
326.037	10.86
326.405	10.99
326.772	11.22
327.14	11.37
327.508	11.43
327.875	11.46
328.243	11.45
328.61	11.54
328.978	11.75
329.346	11.94
329.713	12
330.08	12.08
330.448	12
330.815	11.93
331.182	11.88
331.55	12.07
331.917	12.12
332.284	12.24
332.651	12.2
333.018	12.39
333.385	12.49
333.752	12.52
334.119	12.7
334.486	12.58
334.853	12.57
335.22	12.6
335.587	12.71
335.954	12.71
336.32	12.78
336.687	12.76
337.054	12.67
337.42	12.56
337.787	12.62
338.153	12.65
338.52	12.79
338.886	12.77
339.253	12.77
339.619	12.82
339.986	12.84
340.352	13.04
340.718	13.02
341.084	12.95
341.451	12.92
341.817	12.92
342.183	13.1
342.549	13.12
342.915	13.32
343.281	13.31
343.647	13.42
344.013	13.55
344.379	13.53
344.745	13.52
345.11	13.64
345.476	13.61
345.842	13.77
346.208	13.87
346.573	13.94
346.939	13.95
347.304	13.95
347.67	13.85
348.035	13.87
348.401	13.97
348.766	14.11
349.132	14.28
349.497	14.29
349.862	14.3
350.228	14.27
350.593	14.08
350.958	14.13
351.323	14.14
351.688	14.19
352.053	14.16
352.418	14.18
352.783	14.15
353.148	14.19
353.513	14.09
353.878	14.03
354.243	14.07
354.608	14.02
354.972	13.99
355.337	14.02
355.702	14.07
356.066	14.04
356.431	14.02
356.795	13.97
357.16	13.91
357.524	13.76
357.889	13.8
358.253	13.87
358.618	13.82
358.982	13.78
359.346	13.63
359.71	13.7
360.075	13.65
360.439	13.72
360.803	13.69
361.167	13.7
361.531	13.68
361.895	13.63
362.259	13.54
362.623	13.52
362.987	13.54
363.351	13.47
363.714	13.45
364.078	13.33
364.442	13.19
364.806	13.19
365.169	13.27
365.533	13.26
365.896	13.14
366.26	13.13
366.623	13.09
366.987	13.1
367.35	13.01
367.714	12.99
368.077	12.8
368.44	12.69
368.803	12.62
369.167	12.57
369.53	12.49
369.893	12.49
370.256	12.39
370.619	12.27
370.982	12.13
371.345	12.04
371.708	12.05
372.071	11.95
372.434	11.87
372.797	11.74
373.159	11.58
373.522	11.54
373.885	11.45
374.247	11.42
374.61	11.34
374.973	11.21
375.335	11.09
375.698	11.07
376.06	11.06
376.423	10.96
376.785	10.91
377.147	10.77
377.51	10.68
377.872	10.63
378.234	10.51
378.596	10.44
378.958	10.4
379.321	10.32
379.683	10.28
380.045	10.15
380.407	10.03
380.769	9.96
381.13	9.85
381.492	9.71
381.854	9.64
382.216	9.54
382.578	9.51
382.939	9.37
383.301	9.28
383.663	9.09
384.024	9.02
384.386	8.96
384.747	8.95
385.109	8.89
385.47	8.83
385.832	8.83
386.193	8.74
386.554	8.65
386.916	8.57
387.277	8.49
387.638	8.44
387.999	8.45
388.36	8.38
388.721	8.33
389.082	8.27
389.443	8.15
389.804	8.04
390.165	7.95
390.526	7.93
390.887	7.83
391.248	7.8
391.609	7.72
391.969	7.64
392.33	7.56
392.691	7.5
393.051	7.45
393.412	7.36
393.772	7.3
394.133	7.23
394.493	7.15
394.854	7.09
395.214	7.04
395.574	6.95
395.935	6.86
396.295	6.83
396.655	6.74
397.015	6.64
397.376	6.62
397.736	6.56
398.096	6.45
398.456	6.42
398.816	6.39
399.176	6.31
399.535	6.23
399.895	6.16
400.255	6.11
400.615	6.03
400.975	5.95
401.334	5.86
401.694	5.8
402.054	5.76
402.413	5.72
402.773	5.64
403.132	5.6
403.492	5.58
403.851	5.51
404.211	5.49
404.57	5.49
404.929	5.48
405.288	5.44
405.648	5.44
406.007	5.43
406.366	5.39
406.725	5.37
407.084	5.34
407.443	5.34
407.802	5.3
408.161	5.24
408.52	5.21
408.879	5.21
409.238	5.18
409.596	5.14
409.955	5.12
410.314	5.12
410.673	5.09
411.031	5.07
411.39	5.01
411.748	5.02
412.107	5
412.465	4.94
412.824	4.94
413.182	4.89
413.54	4.84
413.899	4.78
414.257	4.75
414.615	4.72
414.974	4.71
415.332	4.68
415.69	4.68
416.048	4.66
416.406	4.63
416.764	4.61
417.122	4.59
417.48	4.56
417.838	4.54
418.195	4.52
418.553	4.46
418.911	4.44
419.269	4.41
419.626	4.39
419.984	4.35
420.342	4.32
420.699	4.29
421.057	4.27
421.414	4.27
421.772	4.24
422.129	4.22
422.486	4.17
422.844	4.15
423.201	4.12
423.558	4.1
423.915	4.07
424.273	4.05
424.63	4.04
424.987	4.02
425.344	4
425.701	3.96
426.058	3.95
426.415	3.93
426.772	3.9
427.128	3.86
427.485	3.87
427.842	3.86
428.199	3.86
428.555	3.85
428.912	3.84
429.269	3.86
429.625	3.83
429.982	3.81
430.338	3.78
430.695	3.77
431.051	3.76
431.407	3.76
431.764	3.74
432.12	3.7
432.476	3.7
432.832	3.68
433.189	3.68
433.545	3.67
433.901	3.68
434.257	3.67
434.613	3.68
434.969	3.65
435.325	3.65
435.681	3.64
436.036	3.62
436.392	3.61
436.748	3.57
437.104	3.56
437.459	3.56
437.815	3.58
438.171	3.58
438.526	3.61
438.882	3.6
439.237	3.59
439.593	3.62
439.948	3.61
440.304	3.6
440.659	3.61
441.014	3.62
441.369	3.6
441.725	3.61
442.08	3.62
442.435	3.62
442.79	3.59
443.145	3.59
443.5	3.58
443.855	3.57
444.21	3.57
444.565	3.61
444.92	3.6
445.275	3.58
445.629	3.58
445.984	3.54
446.339	3.54
446.693	3.53
447.048	3.5
447.403	3.49
447.757	3.5
448.112	3.49
448.466	3.45
448.82	3.46
449.175	3.45
449.529	3.43
449.883	3.41
450.238	3.41
450.592	3.39
450.946	3.38
451.3	3.38
451.654	3.37
452.008	3.33
452.362	3.32
452.716	3.31
453.07	3.3
453.424	3.3
453.778	3.29
454.132	3.27
454.486	3.26
454.839	3.23
455.193	3.21
455.547	3.21
455.9	3.24
456.254	3.22
456.607	3.22
456.961	3.23
457.314	3.23
457.668	3.21
458.021	3.2
458.375	3.22
458.728	3.21
459.081	3.22
459.434	3.23
459.787	3.23
460.141	3.22
460.494	3.23
460.847	3.24
461.2	3.24
461.553	3.28
461.906	3.29
462.259	3.31
462.611	3.33
462.964	3.35
463.317	3.32
463.67	3.33
464.022	3.33
464.375	3.32
464.728	3.33
465.08	3.36
465.433	3.37
465.785	3.38
466.138	3.38
466.49	3.38
466.843	3.38
467.195	3.4
467.547	3.43
467.899	3.44
468.252	3.41
468.604	3.43
468.956	3.4
469.308	3.4
469.66	3.41
470.012	3.41
470.364	3.42
470.716	3.46
471.068	3.47
471.42	3.48
471.772	3.52
472.123	3.55
472.475	3.56
472.827	3.6
473.178	3.6
473.53	3.61
473.882	3.64
474.233	3.66
474.585	3.65
474.936	3.64
475.288	3.66
475.639	3.7
475.99	3.73
476.342	3.76
476.693	3.78
477.044	3.8
477.395	3.8
477.746	3.8
478.097	3.8
478.448	3.8
478.8	3.81
479.15	3.78
479.501	3.79
479.852	3.79
480.203	3.77
480.554	3.78
480.905	3.78
481.255	3.77
481.606	3.76
481.957	3.76
482.307	3.77
482.658	3.75
483.009	3.75
483.359	3.75
483.709	3.74
484.06	3.73
484.41	3.73
484.761	3.72
485.111	3.71
485.461	3.71
485.811	3.71
486.162	3.7
486.512	3.71
486.862	3.7
487.212	3.69
487.562	3.68
487.912	3.67
488.262	3.67
488.612	3.68
488.961	3.68
489.311	3.68
489.661	3.68
490.011	3.68
490.36	3.66
490.71	3.65
491.06	3.67
491.409	3.67
491.759	3.68
492.108	3.68
492.458	3.7
492.807	3.71
493.157	3.72
493.506	3.74
493.855	3.74
494.204	3.74
494.554	3.75
494.903	3.77
495.252	3.8
495.601	3.81
495.95	3.83
496.299	3.83
496.648	3.86
496.997	3.89
497.346	3.94
497.695	4
498.043	4.03
498.392	4.02
498.741	4.08
499.09	4.1
499.438	4.16
499.787	4.19
500.135	4.23
500.484	4.28
500.832	4.33
501.181	4.39
501.529	4.47
501.878	4.52
502.226	4.61
502.574	4.66
502.923	4.73
503.271	4.8
503.619	4.9
503.967	4.97
504.315	5.02
504.663	5.07
505.011	5.14
505.359	5.21
505.707	5.32
506.055	5.39
506.403	5.48
506.751	5.56
507.098	5.64
507.446	5.74
507.794	5.82
508.141	5.92
508.489	6.01
508.837	6.11
509.184	6.19
509.531	6.27
509.879	6.4
510.226	6.51
510.574	6.6
510.921	6.68
511.268	6.78
511.616	6.89
511.963	7.01
512.31	7.11
512.657	7.23
513.004	7.35
513.351	7.47
513.698	7.6
514.045	7.71
514.392	7.85
514.739	7.97
515.086	8.13
515.432	8.25
515.779	8.37
516.126	8.49
516.473	8.65
516.819	8.8
517.166	8.88
517.512	9
517.859	9.11
518.205	9.25
518.552	9.38
518.898	9.48
519.245	9.6
519.591	9.72
519.937	9.84
520.283	9.98
520.629	10.12
520.976	10.27
521.322	10.39
521.668	10.53
522.014	10.69
522.36	10.81
522.706	10.99
523.052	11.18
523.398	11.36
523.743	11.54
524.089	11.71
524.435	11.91
524.781	12.08
525.126	12.26
525.472	12.39
525.817	12.51
526.163	12.65
526.509	12.77
526.854	12.89
527.199	13.02
527.545	13.11
527.89	13.21
528.235	13.31
528.581	13.43
528.926	13.53
529.271	13.63
529.616	13.76
529.961	13.88
530.306	13.99
530.651	14.12
530.996	14.24
531.341	14.36
531.686	14.49
532.031	14.62
532.376	14.76
532.721	14.89
533.065	15.05
533.41	15.21
533.755	15.36
534.099	15.52
534.444	15.65
534.788	15.8
535.133	15.96
535.477	16.12
535.822	16.29
536.166	16.48
536.51	16.68
536.855	16.86
537.199	17.06
537.543	17.28
537.887	17.47
538.231	17.68
538.576	17.92
538.92	18.12
539.264	18.32
539.608	18.49
539.951	18.69
540.295	18.85
540.639	19.02
540.983	19.18
541.327	19.33
541.671	19.5
542.014	19.65
542.358	19.81
542.701	19.97
543.045	20.14
543.389	20.28
543.732	20.47
544.075	20.64
544.419	20.79
544.762	20.95
545.105	21.16
545.449	21.35
545.792	21.52
546.135	21.72
546.478	21.92
546.821	22.15
547.165	22.36
547.508	22.59
547.851	22.82
548.194	23.06
548.536	23.3
548.879	23.56
549.222	23.84
549.565	24.08
549.908	24.32
550.25	24.52
550.593	24.77
550.936	24.96
551.278	25.2
551.621	25.43
551.963	25.7
552.306	25.9
552.648	26.15
552.991	26.39
553.333	26.63
553.675	26.84
554.017	27.08
554.36	27.33
554.702	27.48
555.044	27.65
555.386	27.83
555.728	28.02
556.07	28.21
556.412	28.37
556.754	28.59
557.096	28.84
557.438	29.11
557.78	29.33
558.121	29.57
558.463	29.79
558.805	30
559.147	30.22
559.488	30.35
559.83	30.5
560.171	30.7
560.513	30.88
560.854	31.1
561.196	31.29
561.537	31.45
561.878	31.67
562.22	31.9
562.561	32.14
562.902	32.35
563.243	32.57
563.584	32.78
563.925	32.92
564.266	33.09
564.607	33.22
564.948	33.41
565.289	33.56
565.63	33.72
565.971	33.89
566.312	34.02
566.653	34.16
566.993	34.35
567.334	34.52
567.675	34.71
568.015	34.84
568.356	34.95
568.696	35.15
569.037	35.31
569.377	35.42
569.718	35.55
570.058	35.63
570.398	35.71
570.739	35.82
571.079	35.94
571.419	36
571.759	36.2
572.099	36.29
572.439	36.41
572.779	36.52
573.119	36.61
573.459	36.69
573.799	36.84
574.139	36.93
574.479	37.03
574.819	37.11
575.158	37.2
575.498	37.31
575.838	37.34
576.177	37.45
576.517	37.53
576.856	37.64
577.196	37.77
577.535	37.88
577.875	37.98
578.214	38.06
578.553	38.22
578.893	38.24
579.232	38.36
579.571	38.46
579.91	38.54
580.25	38.64
580.589	38.75
580.928	38.81
581.267	38.9
581.606	38.94
581.945	39.02
582.283	39.14
582.622	39.18
582.961	39.25
583.3	39.3
583.639	39.38
583.977	39.38
584.316	39.43
584.654	39.51
584.993	39.58
585.332	39.73
585.67	39.74
586.008	39.76
586.347	39.77
586.685	39.82
587.024	39.89
587.362	39.91
587.7	39.97
588.038	40.05
588.376	40.05
588.715	40.17
589.053	40.22
589.391	40.26
589.729	40.31
590.067	40.37
590.404	40.44
590.742	40.55
591.08	40.62
591.418	40.67
591.756	40.71
592.093	40.8
592.431	40.87
592.769	40.95
593.106	41.04
593.444	41.08
593.781	41.12
594.119	41.16
594.456	41.25
594.793	41.26
595.131	41.32
595.468	41.35
595.805	41.27
596.143	41.28
596.48	41.3
596.817	41.36
597.154	41.38
597.491	41.32
597.828	41.34
598.165	41.37
598.502	41.4
598.839	41.43
599.176	41.45
599.512	41.46
599.849	41.47
600.186	41.43
600.523	41.48
600.859	41.57
601.196	41.58
601.532	41.58
601.869	41.62
602.205	41.58
602.542	41.59
602.878	41.68
603.215	41.71
603.551	41.73
603.887	41.78
604.223	41.84
604.56	41.92
604.896	41.98
605.232	41.98
605.568	42.01
605.904	42.06
606.24	42.01
606.576	42.04
606.912	42.04
607.248	42.12
607.583	42.26
607.919	42.3
608.255	42.34
608.591	42.4
608.926	42.44
609.262	42.58
609.597	42.65
609.933	42.7
610.268	42.73
610.604	42.8
610.939	42.84
611.275	42.83
611.61	42.85
611.945	42.74
612.281	42.78
612.616	42.79
612.951	42.82
613.286	42.89
613.621	42.91
613.956	42.94
614.291	42.96
614.626	42.88
614.961	42.85
615.296	42.76
615.631	42.78
615.966	42.79
616.3	42.72
616.635	42.62
616.97	42.63
617.304	42.69
617.639	42.71
617.973	42.62
618.308	42.63
618.642	42.65
618.977	42.72
619.311	42.75
619.646	42.8
619.98	42.76
620.314	42.8
620.648	42.82
620.983	42.89
621.317	42.88
621.651	42.85
621.985	42.88
622.319	42.96
622.653	42.96
622.987	43.03
623.321	43.06
623.655	43.23
623.988	43.27
624.322	43.28
624.656	43.18
624.99	43.28
625.323	43.29
625.657	43.39
625.99	43.44
626.324	43.48
626.657	43.5
626.991	43.52
627.324	43.45
627.658	43.49
627.991	43.45
628.324	43.42
628.657	43.41
628.991	43.36
629.324	43.42
629.657	43.4
629.99	43.38
630.323	43.4
630.656	43.35
630.989	43.35
631.322	43.36
631.655	43.45
631.987	43.37
632.32	43.46
632.653	43.43
632.986	43.42
633.318	43.4
633.651	43.46
633.984	43.45
634.316	43.48
634.649	43.43
634.981	43.53
635.313	43.6
635.646	43.67
635.978	43.67
636.31	43.69
636.643	43.75
636.975	43.81
637.307	43.84
637.639	43.85
637.971	43.82
638.303	43.75
638.635	43.8
638.967	43.88
639.299	43.93
639.631	43.9
639.963	43.83
640.295	43.83
640.626	43.83
640.958	43.91
641.29	43.99
641.621	43.94
641.953	43.78
642.285	43.68
642.616	43.71
642.948	43.73
643.279	43.7
643.61	43.74
643.942	43.71
644.273	43.66
644.604	43.62
644.936	43.6
645.267	43.68
645.598	43.67
645.929	43.77
646.26	43.74
646.591	43.62
646.922	43.62
647.253	43.66
647.584	43.57
647.915	43.48
648.245	43.42
648.576	43.4
648.907	43.54
649.238	43.62
649.568	43.6
649.899	43.69
650.229	43.75
650.56	43.6
650.89	43.59
651.221	43.56
651.551	43.53
651.882	43.48
652.212	43.38
652.542	43.37
652.872	43.21
653.203	43.16
653.533	43.36
653.863	43.48
654.193	43.54
654.523	43.63
654.853	43.64
655.183	43.71
655.513	43.77
655.843	43.66
656.172	43.74
656.502	43.71
656.832	43.69
657.162	43.57
657.491	43.7
657.821	43.67
658.15	43.71
658.48	43.79
658.809	43.83
659.139	43.89
659.468	43.86
659.798	43.88
660.127	43.85
660.456	43.83
660.785	43.77
661.115	43.73
661.444	43.63
661.773	43.62
662.102	43.61
