Data from BU58002_Reflection_00005.txt Node
Date: Tue Nov 19 10:57:40 EST 2019
User: vgr7
Spectrometer: USB2G7710
Scans to average: 3
Trigger mode: 4
Integration Time (sec): 2.000000E-2
Electric dark correction enabled: true
Boxcar width: 10
XAxis mode: Wavelengths
Number of Pixels in Spectrum: 2048
>>>>>Begin Spectral Data<<<<<
177.721	27.59
178.105	9.93
178.488	21.54
178.871	47.73
179.254	57.69
179.636	90.57
180.019	147.74
180.402	283.33
180.785	150
181.168	1129.41
181.55	138.46
181.933	61.33
182.316	73.54
182.698	56.78
183.081	46.09
183.463	109.84
183.846	162.23
184.228	304.92
184.611	448.31
184.993	368.18
185.376	179.19
185.758	1272.41
186.14	-380.77
186.522	-277.12
186.904	630
187.287	797.37
187.669	-264.71
188.051	-132.72
188.433	713.21
188.815	-792.86
189.197	-166.19
189.579	-100.82
189.961	-60.11
190.342	-34.69
190.724	-37.8
191.106	-43.96
191.488	-37.02
191.869	-6.74
192.251	5.21
192.633	7.21
193.014	13.81
193.396	0.88
193.777	-5.64
194.159	-2.86
194.54	-15.69
194.922	-12.34
195.303	-20.69
195.684	-39.19
196.065	-18.44
196.447	-22.67
196.828	-32.07
197.209	-34.14
197.59	-30.74
197.971	-27.1
198.352	-45.59
198.733	-60.7
199.114	-57.72
199.495	-60.34
199.876	-112.54
200.257	-107.63
200.638	-115.36
201.018	-130.48
201.399	-117.39
201.78	-89.07
202.16	-100.57
202.541	-104.76
202.922	-102.69
203.302	-86.68
203.683	-89.85
204.063	-92.89
204.444	-84.7
204.824	-91.53
205.204	-81.7
205.585	-97
205.965	-110.61
206.345	-99.2
206.725	-74.41
207.106	-54.21
207.486	-52.86
207.866	-30.93
208.246	-28.48
208.626	-53.23
209.006	-41.59
209.386	-38.84
209.766	-44.93
210.145	-34.08
210.525	-38.08
210.905	-32.04
211.285	-26.33
211.664	-15.68
212.044	-22.79
212.424	-26.22
212.803	-32.81
213.183	-29.24
213.562	-15.44
213.942	-13.54
214.321	-13.02
214.701	-21.67
215.08	-31.83
215.459	-26.42
215.838	-36.4
216.218	-43.56
216.597	-28.48
216.976	-33.64
217.355	-44.43
217.734	-58.89
218.113	-38.83
218.492	-43.13
218.871	-36
219.25	-30.39
219.629	-55.25
220.008	-29.93
220.387	-27.44
220.766	-11.17
221.144	-29.33
221.523	-35.01
221.902	-36.01
222.28	-26.03
222.659	-7.53
223.037	-0.19
223.416	-1.88
223.794	10.8
224.173	5.04
224.551	2.99
224.929	0.87
225.308	0.97
225.686	2.87
226.064	-5.18
226.442	-5.87
226.821	-7.47
227.199	-12.2
227.577	-5.82
227.955	-5.58
228.333	-4.4
228.711	-0.95
229.089	2.17
229.467	0.33
229.845	0.16
230.222	3.29
230.6	3.68
230.978	2.28
231.356	3.21
231.733	1.07
232.111	3.67
232.488	5.41
232.866	6.8
233.243	8.05
233.621	8.7
233.998	9.37
234.376	10.17
234.753	10.66
235.13	11.96
235.508	10.11
235.885	8
236.262	6.86
236.639	5.29
237.016	3.96
237.393	5.1
237.77	6.22
238.147	4.9
238.524	5.31
238.901	3.96
239.278	3.15
239.655	3.42
240.032	3.9
240.409	4.05
240.785	4.42
241.162	4.1
241.539	4.04
241.915	4.4
242.292	4.47
242.668	4.76
243.045	4.94
243.421	5.29
243.798	5.56
244.174	5.9
244.551	5.92
244.927	5.83
245.303	5.55
245.679	5.48
246.056	5.44
246.432	5.19
246.808	5.64
247.184	5.8
247.56	5.67
247.936	5.59
248.312	5.52
248.688	5.22
249.064	5.26
249.44	5.07
249.815	5
250.191	4.95
250.567	4.82
250.943	4.87
251.318	4.52
251.694	4.53
252.069	4.52
252.445	4.5
252.82	4.69
253.196	4.83
253.571	4.75
253.947	4.72
254.322	4.66
254.697	4.6
255.073	4.62
255.448	4.71
255.823	4.72
256.198	4.52
256.573	4.77
256.948	4.79
257.323	4.9
257.698	5
258.073	5.01
258.448	5.04
258.823	4.96
259.198	5.09
259.573	4.85
259.948	4.81
260.322	4.85
260.697	4.92
261.072	4.89
261.446	4.96
261.821	4.99
262.195	5.02
262.57	5.02
262.944	5.03
263.319	5.05
263.693	4.79
264.067	4.79
264.442	4.7
264.816	4.57
265.19	4.59
265.564	4.52
265.938	4.54
266.313	4.26
266.687	4.11
267.061	4.23
267.435	4.59
267.809	4.25
268.183	4.18
268.556	4.04
268.93	4.1
269.304	3.98
269.678	3.86
270.051	3.82
270.425	3.65
270.799	3.49
271.172	3.58
271.546	3.91
271.919	3.88
272.293	3.94
272.666	4.07
273.04	4.01
273.413	3.95
273.787	3.95
274.16	4.07
274.533	4.11
274.906	4.1
275.279	4.02
275.653	4.26
276.026	4.3
276.399	4.24
276.772	4.35
277.145	4.35
277.518	4.33
277.891	4.37
278.263	4.57
278.636	4.83
279.009	4.78
279.382	4.61
279.755	4.77
280.127	4.82
280.5	4.74
280.872	4.86
281.245	4.83
281.617	4.77
281.99	4.6
282.362	4.69
282.735	4.59
283.107	4.58
283.479	4.44
283.852	4.36
284.224	4.43
284.596	4.28
284.968	4.39
285.34	4.45
285.713	4.43
286.085	4.3
286.457	4.34
286.829	4.33
287.201	4.43
287.572	4.46
287.944	4.47
288.316	4.6
288.688	4.6
289.06	4.64
289.431	4.72
289.803	4.97
290.175	5
290.546	5.06
290.918	5.11
291.289	5.08
291.661	5.27
292.032	5.28
292.403	5.4
292.775	5.34
293.146	5.41
293.517	5.43
293.889	5.5
294.26	5.28
294.631	5.34
295.002	5.36
295.373	5.36
295.744	5.39
296.115	5.35
296.486	5.46
296.857	5.42
297.228	5.43
297.599	5.24
297.97	5.26
298.34	5.36
298.711	5.34
299.082	5.39
299.452	5.24
299.823	5.27
300.194	5.4
300.564	5.4
300.935	5.46
301.305	5.45
301.676	5.49
302.046	5.58
302.416	5.52
302.787	5.54
303.157	5.56
303.527	5.56
303.897	5.39
304.267	5.31
304.637	5.53
305.008	5.44
305.378	5.53
305.748	5.47
306.117	5.48
306.487	5.5
306.857	5.55
307.227	5.79
307.597	5.9
307.967	5.83
308.336	5.82
308.706	5.8
309.076	5.93
309.445	5.99
309.815	6.06
310.184	6.11
310.554	6.01
310.923	5.89
311.293	5.88
311.662	5.94
312.031	5.9
312.401	5.85
312.77	5.99
313.139	6.19
313.508	6.13
313.877	5.89
314.246	5.81
314.616	5.85
314.985	5.59
315.353	5.61
315.722	5.62
316.091	5.63
316.46	5.55
316.829	5.38
317.198	5.36
317.567	5.4
317.935	5.33
318.304	5.35
318.672	5.43
319.041	5.41
319.41	5.48
319.778	5.51
320.147	5.54
320.515	5.37
320.883	5.32
321.252	5.38
321.62	5.43
321.988	5.6
322.357	5.55
322.725	5.78
323.093	5.63
323.461	5.64
323.829	5.62
324.197	5.72
324.565	5.8
324.933	5.75
325.301	5.59
325.669	5.64
326.037	5.64
326.405	5.67
326.772	5.6
327.14	5.64
327.508	5.5
327.875	5.45
328.243	5.51
328.61	5.41
328.978	5.41
329.346	5.58
329.713	5.46
330.08	5.55
330.448	5.41
330.815	5.59
331.182	5.44
331.55	5.52
331.917	5.43
332.284	5.41
332.651	5.47
333.018	5.53
333.385	5.53
333.752	5.5
334.119	5.4
334.486	5.47
334.853	5.37
335.22	5.48
335.587	5.57
335.954	5.56
336.32	5.64
336.687	5.63
337.054	5.61
337.42	5.6
337.787	5.64
338.153	5.69
338.52	5.57
338.886	5.72
339.253	5.63
339.619	5.67
339.986	5.73
340.352	5.76
340.718	5.75
341.084	5.75
341.451	5.82
341.817	5.9
342.183	5.8
342.549	5.81
342.915	5.75
343.281	5.65
343.647	5.61
344.013	5.47
344.379	5.49
344.745	5.39
345.11	5.41
345.476	5.39
345.842	5.29
346.208	5.28
346.573	5.18
346.939	5.26
347.304	5.28
347.67	5.18
348.035	5.24
348.401	5.28
348.766	5.3
349.132	5.33
349.497	5.37
349.862	5.5
350.228	5.56
350.593	5.61
350.958	5.68
351.323	5.73
351.688	5.83
352.053	5.92
352.418	5.94
352.783	5.81
353.148	5.78
353.513	5.73
353.878	5.75
354.243	5.77
354.608	5.81
354.972	5.78
355.337	5.84
355.702	5.73
356.066	5.76
356.431	5.76
356.795	5.72
357.16	5.69
357.524	5.63
357.889	5.62
358.253	5.59
358.618	5.59
358.982	5.62
359.346	5.58
359.71	5.55
360.075	5.58
360.439	5.7
360.803	5.75
361.167	5.82
361.531	5.82
361.895	5.8
362.259	5.75
362.623	5.75
362.987	5.72
363.351	5.72
363.714	5.69
364.078	5.69
364.442	5.71
364.806	5.66
365.169	5.61
365.533	5.64
365.896	5.66
366.26	5.64
366.623	5.59
366.987	5.66
367.35	5.64
367.714	5.62
368.077	5.58
368.44	5.58
368.803	5.55
369.167	5.49
369.53	5.53
369.893	5.54
370.256	5.5
370.619	5.48
370.982	5.49
371.345	5.47
371.708	5.47
372.071	5.44
372.434	5.44
372.797	5.5
373.159	5.47
373.522	5.48
373.885	5.44
374.247	5.44
374.61	5.38
374.973	5.39
375.335	5.37
375.698	5.33
376.06	5.29
376.423	5.31
376.785	5.35
377.147	5.35
377.51	5.31
377.872	5.32
378.234	5.3
378.596	5.33
378.958	5.36
379.321	5.32
379.683	5.34
380.045	5.34
380.407	5.39
380.769	5.45
381.13	5.41
381.492	5.45
381.854	5.49
382.216	5.55
382.578	5.54
382.939	5.53
383.301	5.54
383.663	5.56
384.024	5.56
384.386	5.54
384.747	5.54
385.109	5.54
385.47	5.56
385.832	5.56
386.193	5.5
386.554	5.47
386.916	5.5
387.277	5.47
387.638	5.51
387.999	5.46
388.36	5.39
388.721	5.42
389.082	5.39
389.443	5.33
389.804	5.29
390.165	5.29
390.526	5.31
390.887	5.3
391.248	5.28
391.609	5.28
391.969	5.26
392.33	5.23
392.691	5.22
393.051	5.22
393.412	5.23
393.772	5.26
394.133	5.29
394.493	5.24
394.854	5.28
395.214	5.25
395.574	5.24
395.935	5.27
396.295	5.27
396.655	5.25
397.015	5.25
397.376	5.25
397.736	5.27
398.096	5.25
398.456	5.28
398.816	5.28
399.176	5.24
399.535	5.25
399.895	5.24
400.255	5.26
400.615	5.25
400.975	5.27
401.334	5.23
401.694	5.22
402.054	5.23
402.413	5.21
402.773	5.21
403.132	5.22
403.492	5.2
403.851	5.16
404.211	5.15
404.57	5.14
404.929	5.11
405.288	5.1
405.648	5.08
406.007	5.07
406.366	5.07
406.725	5.06
407.084	5.04
407.443	5.05
407.802	5.02
408.161	5.04
408.52	5.01
408.879	5
409.238	4.95
409.596	4.93
409.955	4.92
410.314	4.88
410.673	4.85
411.031	4.82
411.39	4.83
411.748	4.84
412.107	4.86
412.465	4.89
412.824	4.87
413.182	4.87
413.54	4.85
413.899	4.82
414.257	4.86
414.615	4.85
414.974	4.84
415.332	4.84
415.69	4.82
416.048	4.82
416.406	4.83
416.764	4.87
417.122	4.87
417.48	4.88
417.838	4.9
418.195	4.91
418.553	4.93
418.911	4.93
419.269	4.9
419.626	4.89
419.984	4.89
420.342	4.88
420.699	4.87
421.057	4.87
421.414	4.86
421.772	4.86
422.129	4.87
422.486	4.87
422.844	4.87
423.201	4.87
423.558	4.87
423.915	4.86
424.273	4.83
424.63	4.84
424.987	4.82
425.344	4.8
425.701	4.79
426.058	4.77
426.415	4.78
426.772	4.79
427.128	4.78
427.485	4.77
427.842	4.73
428.199	4.73
428.555	4.71
428.912	4.7
429.269	4.7
429.625	4.68
429.982	4.66
430.338	4.66
430.695	4.65
431.051	4.66
431.407	4.66
431.764	4.67
432.12	4.68
432.476	4.67
432.832	4.68
433.189	4.66
433.545	4.66
433.901	4.64
434.257	4.64
434.613	4.64
434.969	4.65
435.325	4.69
435.681	4.68
436.036	4.72
436.392	4.73
436.748	4.72
437.104	4.73
437.459	4.73
437.815	4.71
438.171	4.73
438.526	4.72
438.882	4.73
439.237	4.72
439.593	4.71
439.948	4.71
440.304	4.71
440.659	4.73
441.014	4.73
441.369	4.74
441.725	4.73
442.08	4.73
442.435	4.72
442.79	4.71
443.145	4.72
443.5	4.7
443.855	4.69
444.21	4.68
444.565	4.68
444.92	4.67
445.275	4.68
445.629	4.66
445.984	4.67
446.339	4.67
446.693	4.67
447.048	4.65
447.403	4.64
447.757	4.64
448.112	4.63
448.466	4.63
448.82	4.61
449.175	4.62
449.529	4.62
449.883	4.6
450.238	4.59
450.592	4.58
450.946	4.57
451.3	4.57
451.654	4.55
452.008	4.56
452.362	4.56
452.716	4.54
453.07	4.55
453.424	4.53
453.778	4.52
454.132	4.52
454.486	4.53
454.839	4.53
455.193	4.54
455.547	4.54
455.9	4.54
456.254	4.55
456.607	4.55
456.961	4.56
457.314	4.58
457.668	4.59
458.021	4.59
458.375	4.59
458.728	4.59
459.081	4.59
459.434	4.59
459.787	4.6
460.141	4.61
460.494	4.61
460.847	4.61
461.2	4.59
461.553	4.59
461.906	4.59
462.259	4.58
462.611	4.58
462.964	4.59
463.317	4.59
463.67	4.59
464.022	4.59
464.375	4.59
464.728	4.59
465.08	4.58
465.433	4.58
465.785	4.59
466.138	4.6
466.49	4.61
466.843	4.61
467.195	4.6
467.547	4.61
467.899	4.6
468.252	4.61
468.604	4.65
468.956	4.68
469.308	4.66
469.66	4.68
470.012	4.7
470.364	4.67
470.716	4.69
471.068	4.69
471.42	4.68
471.772	4.69
472.123	4.69
472.475	4.71
472.827	4.72
473.178	4.72
473.53	4.74
473.882	4.75
474.233	4.75
474.585	4.78
474.936	4.79
475.288	4.82
475.639	4.81
475.99	4.79
476.342	4.77
476.693	4.79
477.044	4.79
477.395	4.77
477.746	4.78
478.097	4.77
478.448	4.75
478.8	4.75
479.15	4.73
479.501	4.72
479.852	4.71
480.203	4.71
480.554	4.73
480.905	4.73
481.255	4.74
481.606	4.75
481.957	4.74
482.307	4.74
482.658	4.74
483.009	4.76
483.359	4.77
483.709	4.78
484.06	4.77
484.41	4.78
484.761	4.78
485.111	4.79
485.461	4.8
485.811	4.81
486.162	4.82
486.512	4.83
486.862	4.83
487.212	4.84
487.562	4.85
487.912	4.84
488.262	4.84
488.612	4.84
488.961	4.85
489.311	4.84
489.661	4.84
490.011	4.83
490.36	4.81
490.71	4.8
491.06	4.8
491.409	4.81
491.759	4.81
492.108	4.8
492.458	4.79
492.807	4.79
493.157	4.8
493.506	4.78
493.855	4.79
494.204	4.79
494.554	4.78
494.903	4.8
495.252	4.79
495.601	4.79
495.95	4.79
496.299	4.77
496.648	4.78
496.997	4.79
497.346	4.81
497.695	4.85
498.043	4.85
498.392	4.86
498.741	4.86
499.09	4.87
499.438	4.88
499.787	4.89
500.135	4.89
500.484	4.9
500.832	4.9
501.181	4.9
501.529	4.92
501.878	4.94
502.226	4.91
502.574	4.93
502.923	4.94
503.271	4.95
503.619	4.96
503.967	4.97
504.315	4.94
504.663	4.94
505.011	4.94
505.359	4.95
505.707	4.96
506.055	4.96
506.403	4.96
506.751	4.96
507.098	4.97
507.446	4.98
507.794	4.98
508.141	5.01
508.489	5.04
508.837	5.05
509.184	5.06
509.531	5.08
509.879	5.08
510.226	5.1
510.574	5.11
510.921	5.12
511.268	5.14
511.616	5.18
511.963	5.2
512.31	5.2
512.657	5.21
513.004	5.2
513.351	5.21
513.698	5.23
514.045	5.28
514.392	5.3
514.739	5.32
515.086	5.33
515.432	5.33
515.779	5.34
516.126	5.34
516.473	5.34
516.819	5.35
517.166	5.38
517.512	5.37
517.859	5.37
518.205	5.37
518.552	5.39
518.898	5.38
519.245	5.39
519.591	5.42
519.937	5.44
520.283	5.45
520.629	5.46
520.976	5.47
521.322	5.48
521.668	5.49
522.014	5.49
522.36	5.51
522.706	5.54
523.052	5.55
523.398	5.57
523.743	5.59
524.089	5.61
524.435	5.6
524.781	5.61
525.126	5.63
525.472	5.64
525.817	5.64
526.163	5.65
526.509	5.67
526.854	5.68
527.199	5.69
527.545	5.7
527.89	5.72
528.235	5.71
528.581	5.7
528.926	5.7
529.271	5.7
529.616	5.7
529.961	5.69
530.306	5.69
530.651	5.69
530.996	5.7
531.341	5.71
531.686	5.71
532.031	5.73
532.376	5.73
532.721	5.74
533.065	5.74
533.41	5.75
533.755	5.74
534.099	5.74
534.444	5.74
534.788	5.73
535.133	5.74
535.477	5.76
535.822	5.77
536.166	5.77
536.51	5.77
536.855	5.79
537.199	5.8
537.543	5.82
537.887	5.82
538.231	5.82
538.576	5.82
538.92	5.82
539.264	5.82
539.608	5.82
539.951	5.82
540.295	5.84
540.639	5.84
540.983	5.83
541.327	5.82
541.671	5.81
542.014	5.8
542.358	5.8
542.701	5.8
543.045	5.8
543.389	5.82
543.732	5.83
544.075	5.82
544.419	5.81
544.762	5.8
545.105	5.8
545.449	5.81
545.792	5.8
546.135	5.8
546.478	5.78
546.821	5.79
547.165	5.8
547.508	5.8
547.851	5.8
548.194	5.81
548.536	5.83
548.879	5.85
549.222	5.89
549.565	5.88
549.908	5.86
550.25	5.87
550.593	5.84
550.936	5.85
551.278	5.85
551.621	5.84
551.963	5.86
552.306	5.85
552.648	5.84
552.991	5.87
553.333	5.84
553.675	5.87
554.017	5.86
554.36	5.84
554.702	5.83
555.044	5.82
555.386	5.8
555.728	5.79
556.07	5.76
556.412	5.75
556.754	5.73
557.096	5.75
557.438	5.73
557.78	5.75
558.121	5.74
558.463	5.73
558.805	5.74
559.147	5.73
559.488	5.74
559.83	5.73
560.171	5.72
560.513	5.77
560.854	5.77
561.196	5.79
561.537	5.8
561.878	5.82
562.22	5.83
562.561	5.87
562.902	5.9
563.243	5.94
563.584	5.93
563.925	5.96
564.266	5.96
564.607	5.97
564.948	6.01
565.289	6.01
565.63	6.04
565.971	6.04
566.312	6.02
566.653	6.02
566.993	6.04
567.334	6.06
567.675	6.06
568.015	6.05
568.356	6.02
568.696	6
569.037	5.99
569.377	5.99
569.718	5.97
570.058	5.98
570.398	5.96
570.739	5.94
571.079	5.93
571.419	5.93
571.759	5.9
572.099	5.85
572.439	5.85
572.779	5.86
573.119	5.84
573.459	5.85
573.799	5.83
574.139	5.81
574.479	5.81
574.819	5.82
575.158	5.81
575.498	5.84
575.838	5.85
576.177	5.81
576.517	5.83
576.856	5.84
577.196	5.81
577.535	5.79
577.875	5.78
578.214	5.8
578.553	5.8
578.893	5.84
579.232	5.86
579.571	5.84
579.91	5.82
580.25	5.87
580.589	5.89
580.928	5.91
581.267	5.91
581.606	5.9
581.945	5.88
582.283	5.9
582.622	5.9
582.961	5.89
583.3	5.92
583.639	5.91
583.977	5.86
584.316	5.89
584.654	5.91
584.993	5.93
585.332	5.9
585.67	5.93
586.008	5.9
586.347	5.94
586.685	5.91
587.024	5.95
587.362	5.97
587.7	5.93
588.038	5.98
588.376	5.98
588.715	5.97
589.053	5.99
589.391	5.97
589.729	5.97
590.067	6.02
590.404	6.05
590.742	6.05
591.08	6.05
591.418	6.05
591.756	6.04
592.093	6.02
592.431	6.05
592.769	6.02
593.106	6.05
593.444	6.06
593.781	6.11
594.119	6.09
594.456	6.04
594.793	6.06
595.131	6.03
595.468	6.05
595.805	6.05
596.143	6.05
596.48	6.07
596.817	6.07
597.154	6.02
597.491	6.01
597.828	6.05
598.165	6.06
598.502	6.05
598.839	6.1
599.176	6.11
599.512	6.11
599.849	6.14
600.186	6.1
600.523	6.07
600.859	6.04
601.196	6.03
601.532	6.05
601.869	6.05
602.205	6.03
602.542	6.02
602.878	6.03
603.215	6.04
603.551	6.03
603.887	6.04
604.223	6.04
604.56	6.04
604.896	6.03
605.232	6.05
605.568	6.07
605.904	6.03
606.24	6.01
606.576	6.01
606.912	6.01
607.248	6.06
607.583	6.07
607.919	6.1
608.255	6.13
608.591	6.15
608.926	6.15
609.262	6.19
609.597	6.17
609.933	6.16
610.268	6.14
610.604	6.14
610.939	6.13
611.275	6.17
611.61	6.2
611.945	6.19
612.281	6.18
612.616	6.18
612.951	6.2
613.286	6.24
613.621	6.23
613.956	6.25
614.291	6.23
614.626	6.2
614.961	6.16
615.296	6.16
615.631	6.16
615.966	6.17
616.3	6.15
616.635	6.15
616.97	6.18
617.304	6.18
617.639	6.17
617.973	6.16
618.308	6.1
618.642	6.08
618.977	6.06
619.311	6.06
619.646	6.08
619.98	6.07
620.314	6.08
620.648	6.08
620.983	6.1
621.317	6.11
621.651	6.1
621.985	6.14
622.319	6.05
622.653	6.08
622.987	6.1
623.321	6.09
623.655	6.11
623.988	6.09
624.322	6.14
624.656	6.17
624.99	6.21
625.323	6.25
625.657	6.3
625.99	6.34
626.324	6.32
626.657	6.25
626.991	6.22
627.324	6.19
627.658	6.2
627.991	6.17
628.324	6.14
628.657	6.17
628.991	6.13
629.324	6.16
629.657	6.13
629.99	6.15
630.323	6.19
630.656	6.2
630.989	6.19
631.322	6.15
631.655	6.09
631.987	6.07
632.32	6.05
632.653	6.04
632.986	6
633.318	6
633.651	6.04
633.984	6.08
634.316	6.11
634.649	6.1
634.981	6.06
635.313	6.07
635.646	6.09
635.978	6.17
636.31	6.19
636.643	6.17
636.975	6.16
637.307	6.12
637.639	6.11
637.971	6.08
638.303	6.09
638.635	6.15
638.967	6.14
639.299	6.13
639.631	6.15
639.963	6.13
640.295	6.13
640.626	6.12
640.958	6.11
641.29	6.13
641.621	6.1
641.953	6.06
642.285	6.1
642.616	6.13
642.948	6.08
643.279	6.07
643.61	6.06
643.942	5.99
644.273	5.97
644.604	6.06
644.936	6.13
645.267	6.13
645.598	6.12
645.929	6.08
646.26	6.07
646.591	6.02
646.922	6.03
647.253	6.03
647.584	6.08
647.915	6.08
648.245	6.12
648.576	6.17
648.907	6.2
649.238	6.2
649.568	6.18
649.899	6.12
650.229	6.14
650.56	6.18
650.89	6.27
651.221	6.32
651.551	6.22
651.882	6.2
652.212	6.2
652.542	6.23
652.872	6.24
653.203	6.27
653.533	6.22
653.863	6.27
654.193	6.32
654.523	6.28
654.853	6.32
655.183	6.23
655.513	6.22
655.843	6.29
656.172	6.32
656.502	6.28
656.832	6.31
657.162	6.25
657.491	6.28
657.821	6.24
658.15	6.25
658.48	6.24
658.809	6.24
659.139	6.25
659.468	6.21
659.798	6.29
660.127	6.26
660.456	6.28
660.785	6.25
661.115	6.22
661.444	6.25
661.773	6.29
662.102	6.32
662.431	6.36
662.76	6.35
663.089	6.35
663.418	6.35
663.747	6.35
664.076	6.45
664.404	6.44
664.733	6.45
665.062	6.47
665.39	6.46
665.719	6.45
666.048	6.44
666.376	6.39
666.705	6.36
667.033	6.45
667.362	6.52
667.69	6.57
668.018	6.58
668.347	6.61
668.675	6.58
669.003	6.51
669.331	6.55
669.659	6.49
669.987	6.44
670.315	6.53
670.643	6.58
670.971	6.58
671.299	6.52
671.627	6.51
671.955	6.5
672.283	6.5
672.61	6.55
672.938	6.58
673.266	6.72
673.593	6.69
673.921	6.63
674.249	6.55
674.576	6.5
674.904	6.48
675.231	6.44
675.558	6.43
675.886	6.5
676.213	6.49
676.54	6.55
676.867	6.55
677.195	6.54
677.522	6.55
677.849	6.53
678.176	6.6
