Data from BU58140_Reflection_00006.txt Node
Date: Tue Nov 19 10:53:30 EST 2019
User: vgr7
Spectrometer: USB2G7710
Scans to average: 3
Trigger mode: 4
Integration Time (sec): 2.000000E-2
Electric dark correction enabled: true
Boxcar width: 10
XAxis mode: Wavelengths
Number of Pixels in Spectrum: 2048
>>>>>Begin Spectral Data<<<<<
177.721	764.41
178.105	-175.64
178.488	-112.85
178.871	-252.38
179.254	27.78
179.636	135.46
180.019	-8.97
180.402	-600
180.785	139.58
181.168	433.33
181.55	-472.92
181.933	34.03
182.316	34.83
182.698	0.21
183.081	-15.44
183.463	-6.12
183.846	-40.71
184.228	-104.43
184.611	-444.87
184.993	161.67
185.376	34.74
185.758	35.11
186.14	-47.92
186.522	9.62
186.904	-37.82
187.287	-54.08
187.669	-28.51
188.051	-37.77
188.433	-54
188.815	-63.35
189.197	-88.23
189.579	-90.63
189.961	-69.02
190.342	-42.31
190.724	-38.47
191.106	-42.54
191.488	-21.57
191.869	-3.29
192.251	-22.24
192.633	-20.47
193.014	-38.98
193.396	-18.54
193.777	-7.61
194.159	2
194.54	8.29
194.922	18.31
195.303	15.4
195.684	12.97
196.065	16.24
196.447	28.42
196.828	24.71
197.209	24.08
197.59	28.42
197.971	18.64
198.352	5.44
198.733	-2.89
199.114	-7.96
199.495	-14.44
199.876	-34.99
200.257	-31.62
200.638	-31.75
201.018	-28.66
201.399	-43.72
201.78	-34.41
202.16	-42.53
202.541	-47.45
202.922	-53.27
203.302	-49.73
203.683	-48.81
204.063	-51.53
204.444	-51.59
204.824	-46.7
205.204	-48.67
205.585	-39.04
205.965	-44.12
206.345	-43.14
206.725	-40.58
207.106	-24.84
207.486	-16.67
207.866	-13.65
208.246	-13.45
208.626	-14.17
209.006	-23.26
209.386	-8.08
209.766	-10.2
210.145	-1.93
210.525	-2.32
210.905	5.43
211.285	2.19
211.664	1.72
212.044	-9.63
212.424	-5.64
212.803	-3.05
213.183	0.15
213.562	0.15
213.942	3.15
214.321	3.6
214.701	2.58
215.08	0.96
215.459	-8.62
215.838	-4.52
216.218	-3.65
216.597	-13.89
216.976	-2.47
217.355	1.09
217.734	-7.75
218.113	-12.12
218.492	-14.32
218.871	-22.16
219.25	-23.2
219.629	-24.3
220.008	-13.06
220.387	-21.56
220.766	-15.97
221.144	-14.84
221.523	-13.36
221.902	-2.83
222.28	4.57
222.659	12.24
223.037	3.37
223.416	-0.66
223.794	-6.03
224.173	-2.67
224.551	5.58
224.929	-2.97
225.308	-7.3
225.686	-5.78
226.064	-11.32
226.442	-12.22
226.821	-9.56
227.199	-8.31
227.577	-5.05
227.955	-2.7
228.333	0.35
228.711	-1
229.089	0.49
229.467	-1.95
229.845	-7
230.222	-4.5
230.6	-6.57
230.978	-3.02
231.356	0.09
231.733	4.54
232.111	3.61
232.488	2.02
232.866	4.56
233.243	6.52
233.621	6.31
233.998	7.39
234.376	8.48
234.753	7.88
235.13	7.9
235.508	8.27
235.885	7.33
236.262	7.05
236.639	6.42
237.016	6.03
237.393	6.45
237.77	7.21
238.147	6.34
238.524	6.08
238.901	5.18
239.278	4.53
239.655	3.77
240.032	4.05
240.409	4.3
240.785	4.46
241.162	3.72
241.539	3.9
241.915	4.41
242.292	4.19
242.668	4.53
243.045	5
243.421	4.82
243.798	4.96
244.174	4.94
244.551	5.08
244.927	5.27
245.303	5.39
245.679	5.42
246.056	5.27
246.432	5.18
246.808	5.14
247.184	5.11
247.56	4.95
247.936	4.86
248.312	4.8
248.688	4.68
249.064	4.77
249.44	4.69
249.815	4.48
250.191	4.7
250.567	4.59
250.943	4.28
251.318	4.29
251.694	4.13
252.069	4.11
252.445	4.14
252.82	4.22
253.196	4.18
253.571	4.24
253.947	4.37
254.322	4.88
254.697	4.95
255.073	5.03
255.448	5.13
255.823	5.03
256.198	5.04
256.573	4.81
256.948	4.79
257.323	4.94
257.698	5.1
258.073	4.78
258.448	4.87
258.823	4.85
259.198	4.66
259.573	4.64
259.948	4.61
260.322	4.4
260.697	4.32
261.072	4.37
261.446	4.37
261.821	4.39
262.195	4.16
262.57	4.2
262.944	4.33
263.319	4.45
263.693	4.32
264.067	4.42
264.442	4.6
264.816	4.72
265.19	4.65
265.564	4.52
265.938	4.72
266.313	4.66
266.687	4.71
267.061	4.75
267.435	4.8
267.809	4.56
268.183	4.62
268.556	4.47
268.93	4.28
269.304	4.23
269.678	4.15
270.051	4.28
270.425	4.27
270.799	4.11
271.172	4.02
271.546	4.17
271.919	4.07
272.293	4.11
272.666	4.03
273.04	4
273.413	4.07
273.787	4.11
274.16	4.14
274.533	4.23
274.906	4.35
275.279	4.23
275.653	4.42
276.026	4.34
276.399	4.37
276.772	4.44
277.145	4.43
277.518	4.45
277.891	4.41
278.263	4.38
278.636	4.48
279.009	4.42
279.382	4.51
279.755	4.65
280.127	4.57
280.5	4.43
280.872	4.51
281.245	4.47
281.617	4.39
281.99	4.2
282.362	4.18
282.735	4.12
283.107	4.25
283.479	4.16
283.852	4.24
284.224	4.24
284.596	4.23
284.968	4.36
285.34	4.32
285.713	4.4
286.085	4.38
286.457	4.3
286.829	4.43
287.201	4.38
287.572	4.32
287.944	4.34
288.316	4.48
288.688	4.46
289.06	4.38
289.431	4.53
289.803	4.74
290.175	4.65
290.546	4.84
290.918	4.73
291.289	4.7
291.661	4.69
292.032	4.67
292.403	4.62
292.775	4.54
293.146	4.58
293.517	4.47
293.889	4.48
294.26	4.52
294.631	4.44
295.002	4.5
295.373	4.44
295.744	4.49
296.115	4.35
296.486	4.23
296.857	4.33
297.228	4.01
297.599	3.95
297.97	4.07
298.34	3.98
298.711	4.14
299.082	4.21
299.452	4.2
299.823	4.27
300.194	4.26
300.564	4.19
300.935	4.27
301.305	4.27
301.676	4.27
302.046	4.34
302.416	4.34
302.787	4.35
303.157	4.36
303.527	4.41
303.897	4.57
304.267	4.6
304.637	4.62
305.008	4.81
305.378	4.82
305.748	4.87
306.117	4.8
306.487	4.66
306.857	4.67
307.227	4.81
307.597	4.8
307.967	4.92
308.336	4.95
308.706	4.98
309.076	5.02
309.445	5.1
309.815	5.06
310.184	5.13
310.554	5.09
310.923	5.09
311.293	5.11
311.662	5.1
312.031	5.09
312.401	5.1
312.77	5.11
313.139	5.07
313.508	4.95
313.877	4.98
314.246	5.03
314.616	5.12
314.985	5.06
315.353	5.01
315.722	5.01
316.091	5.04
316.46	4.88
316.829	4.88
317.198	4.81
317.567	4.83
317.935	4.75
318.304	4.84
318.672	4.87
319.041	4.89
319.41	4.94
319.778	4.99
320.147	4.87
320.515	4.85
320.883	4.78
321.252	4.9
321.62	4.89
321.988	4.81
322.357	4.76
322.725	4.72
323.093	4.61
323.461	4.61
323.829	4.59
324.197	4.59
324.565	4.56
324.933	4.56
325.301	4.47
325.669	4.38
326.037	4.29
326.405	4.33
326.772	4.24
327.14	4.11
327.508	4.09
327.875	4.04
328.243	3.98
328.61	3.97
328.978	3.73
329.346	3.77
329.713	3.83
330.08	3.77
330.448	3.79
330.815	3.82
331.182	3.72
331.55	3.78
331.917	3.81
332.284	3.94
332.651	3.88
333.018	3.91
333.385	4.02
333.752	4.11
334.119	4.11
334.486	4.2
334.853	4.24
335.22	4.24
335.587	4.35
335.954	4.46
336.32	4.44
336.687	4.64
337.054	4.54
337.42	4.5
337.787	4.62
338.153	4.57
338.52	4.68
338.886	4.81
339.253	4.71
339.619	4.77
339.986	4.65
340.352	4.72
340.718	4.76
341.084	4.69
341.451	4.75
341.817	4.78
342.183	4.6
342.549	4.64
342.915	4.78
343.281	4.71
343.647	4.71
344.013	4.76
344.379	4.69
344.745	4.75
345.11	4.71
345.476	4.74
345.842	4.76
346.208	4.81
346.573	4.8
346.939	4.82
347.304	4.85
347.67	4.85
348.035	4.76
348.401	4.66
348.766	4.67
349.132	4.53
349.497	4.45
349.862	4.55
350.228	4.51
350.593	4.45
350.958	4.49
351.323	4.41
351.688	4.46
352.053	4.46
352.418	4.43
352.783	4.48
353.148	4.39
353.513	4.39
353.878	4.3
354.243	4.15
354.608	4.25
354.972	4.15
355.337	4.22
355.702	4.3
356.066	4.39
356.431	4.43
356.795	4.47
357.16	4.5
357.524	4.48
357.889	4.5
358.253	4.49
358.618	4.5
358.982	4.59
359.346	4.57
359.71	4.61
360.075	4.62
360.439	4.65
360.803	4.67
361.167	4.68
361.531	4.66
361.895	4.75
362.259	4.74
362.623	4.82
362.987	4.78
363.351	4.75
363.714	4.71
364.078	4.7
364.442	4.68
364.806	4.72
365.169	4.75
365.533	4.76
365.896	4.78
366.26	4.75
366.623	4.71
366.987	4.72
367.35	4.69
367.714	4.69
368.077	4.71
368.44	4.67
368.803	4.62
369.167	4.69
369.53	4.68
369.893	4.68
370.256	4.59
370.619	4.61
370.982	4.58
371.345	4.64
371.708	4.66
372.071	4.63
372.434	4.61
372.797	4.56
373.159	4.52
373.522	4.46
373.885	4.5
374.247	4.45
374.61	4.46
374.973	4.47
375.335	4.48
375.698	4.41
376.06	4.39
376.423	4.44
376.785	4.42
377.147	4.4
377.51	4.31
377.872	4.35
378.234	4.37
378.596	4.41
378.958	4.41
379.321	4.36
379.683	4.44
380.045	4.39
380.407	4.41
380.769	4.42
381.13	4.44
381.492	4.38
381.854	4.4
382.216	4.41
382.578	4.4
382.939	4.41
383.301	4.45
383.663	4.45
384.024	4.41
384.386	4.39
384.747	4.4
385.109	4.43
385.47	4.4
385.832	4.35
386.193	4.36
386.554	4.33
386.916	4.32
387.277	4.25
387.638	4.27
387.999	4.32
388.36	4.3
388.721	4.3
389.082	4.34
389.443	4.35
389.804	4.35
390.165	4.32
390.526	4.31
390.887	4.33
391.248	4.34
391.609	4.38
391.969	4.35
392.33	4.33
392.691	4.33
393.051	4.32
393.412	4.35
393.772	4.33
394.133	4.29
394.493	4.28
394.854	4.31
395.214	4.35
395.574	4.29
395.935	4.27
396.295	4.28
396.655	4.28
397.015	4.29
397.376	4.27
397.736	4.26
398.096	4.22
398.456	4.16
398.816	4.17
399.176	4.14
399.535	4.14
399.895	4.18
400.255	4.16
400.615	4.19
400.975	4.18
401.334	4.2
401.694	4.26
402.054	4.27
402.413	4.26
402.773	4.2
403.132	4.19
403.492	4.23
403.851	4.21
404.211	4.19
404.57	4.19
404.929	4.19
405.288	4.19
405.648	4.22
406.007	4.22
406.366	4.21
406.725	4.22
407.084	4.22
407.443	4.21
407.802	4.21
408.161	4.18
408.52	4.2
408.879	4.18
409.238	4.16
409.596	4.19
409.955	4.17
410.314	4.17
410.673	4.17
411.031	4.16
411.39	4.18
411.748	4.17
412.107	4.19
412.465	4.18
412.824	4.19
413.182	4.18
413.54	4.22
413.899	4.22
414.257	4.2
414.615	4.21
414.974	4.2
415.332	4.22
415.69	4.22
416.048	4.2
416.406	4.17
416.764	4.16
417.122	4.14
417.48	4.16
417.838	4.18
418.195	4.16
418.553	4.16
418.911	4.13
419.269	4.14
419.626	4.11
419.984	4.11
420.342	4.1
420.699	4.08
421.057	4.08
421.414	4.08
421.772	4.08
422.129	4.06
422.486	4.06
422.844	4.05
423.201	4.06
423.558	4.06
423.915	4.08
424.273	4.07
424.63	4.07
424.987	4.06
425.344	4.05
425.701	4.08
426.058	4.07
426.415	4.07
426.772	4.06
427.128	4.08
427.485	4.09
427.842	4.08
428.199	4.09
428.555	4.07
428.912	4.05
429.269	4.06
429.625	4.06
429.982	4.07
430.338	4.07
430.695	4.04
431.051	4.05
431.407	4.05
431.764	4.03
432.12	4.02
432.476	4.02
432.832	4.02
433.189	4
433.545	4.01
433.901	4.02
434.257	4.01
434.613	4
434.969	3.99
435.325	4.01
435.681	4.01
436.036	4.02
436.392	4.03
436.748	4.03
437.104	4.04
437.459	4.04
437.815	4.04
438.171	4.06
438.526	4.05
438.882	4.06
439.237	4.07
439.593	4.07
439.948	4.08
440.304	4.07
440.659	4.07
441.014	4.06
441.369	4.08
441.725	4.09
442.08	4.08
442.435	4.09
442.79	4.07
443.145	4.06
443.5	4.05
443.855	4.05
444.21	4.04
444.565	4.05
444.92	4.05
445.275	4.03
445.629	4.03
445.984	4.01
446.339	4.01
446.693	4.01
447.048	3.99
447.403	3.98
447.757	3.97
448.112	3.99
448.466	4
448.82	3.98
449.175	3.97
449.529	3.97
449.883	3.96
450.238	3.97
450.592	3.97
450.946	3.97
451.3	3.96
451.654	3.96
452.008	3.96
452.362	3.93
452.716	3.92
453.07	3.93
453.424	3.94
453.778	3.94
454.132	3.91
454.486	3.93
454.839	3.93
455.193	3.94
455.547	3.91
455.9	3.88
456.254	3.89
456.607	3.88
456.961	3.89
457.314	3.87
457.668	3.86
458.021	3.85
458.375	3.86
458.728	3.87
459.081	3.87
459.434	3.85
459.787	3.86
460.141	3.87
460.494	3.86
460.847	3.86
461.2	3.88
461.553	3.89
461.906	3.89
462.259	3.87
462.611	3.87
462.964	3.88
463.317	3.9
463.67	3.9
464.022	3.92
464.375	3.89
464.728	3.92
465.08	3.96
465.433	3.98
465.785	4
466.138	4
466.49	3.99
466.843	4.01
467.195	4.02
467.547	4.01
467.899	4.02
468.252	4.02
468.604	4.02
468.956	4.04
469.308	4.04
469.66	4.07
470.012	4.07
470.364	4.08
470.716	4.1
471.068	4.09
471.42	4.11
471.772	4.13
472.123	4.14
472.475	4.12
472.827	4.1
473.178	4.1
473.53	4.11
473.882	4.12
474.233	4.12
474.585	4.11
474.936	4.13
475.288	4.12
475.639	4.12
475.99	4.12
476.342	4.12
476.693	4.14
477.044	4.13
477.395	4.12
477.746	4.11
478.097	4.09
478.448	4.08
478.8	4.08
479.15	4.08
479.501	4.07
479.852	4.09
480.203	4.08
480.554	4.08
480.905	4.08
481.255	4.08
481.606	4.09
481.957	4.11
482.307	4.11
482.658	4.11
483.009	4.12
483.359	4.12
483.709	4.12
484.06	4.11
484.41	4.11
484.761	4.12
485.111	4.13
485.461	4.14
485.811	4.15
486.162	4.15
486.512	4.14
486.862	4.14
487.212	4.13
487.562	4.13
487.912	4.13
488.262	4.12
488.612	4.12
488.961	4.12
489.311	4.12
489.661	4.11
490.011	4.12
490.36	4.11
490.71	4.09
491.06	4.08
491.409	4.07
491.759	4.08
492.108	4.06
492.458	4.04
492.807	4.04
493.157	4.03
493.506	4.02
493.855	4.02
494.204	4.02
494.554	4.03
494.903	4.04
495.252	4.05
495.601	4.06
495.95	4.06
496.299	4.06
496.648	4.06
496.997	4.06
497.346	4.07
497.695	4.06
498.043	4.08
498.392	4.1
498.741	4.1
499.09	4.12
499.438	4.15
499.787	4.16
500.135	4.17
500.484	4.2
500.832	4.19
501.181	4.2
501.529	4.22
501.878	4.24
502.226	4.24
502.574	4.24
502.923	4.23
503.271	4.25
503.619	4.25
503.967	4.26
504.315	4.3
504.663	4.3
505.011	4.35
505.359	4.35
505.707	4.38
506.055	4.42
506.403	4.42
506.751	4.41
507.098	4.44
507.446	4.43
507.794	4.42
508.141	4.46
508.489	4.5
508.837	4.5
509.184	4.51
509.531	4.54
509.879	4.54
510.226	4.56
510.574	4.58
510.921	4.59
511.268	4.6
511.616	4.63
511.963	4.65
512.31	4.64
512.657	4.65
513.004	4.63
513.351	4.63
513.698	4.65
514.045	4.66
514.392	4.67
514.739	4.68
515.086	4.7
515.432	4.71
515.779	4.71
516.126	4.72
516.473	4.71
516.819	4.72
517.166	4.75
517.512	4.76
517.859	4.78
518.205	4.77
518.552	4.78
518.898	4.76
519.245	4.77
519.591	4.78
519.937	4.8
520.283	4.8
520.629	4.81
520.976	4.81
521.322	4.84
521.668	4.85
522.014	4.87
522.36	4.86
522.706	4.88
523.052	4.89
523.398	4.91
523.743	4.93
524.089	4.93
524.435	4.92
524.781	4.93
525.126	4.93
525.472	4.96
525.817	4.97
526.163	4.98
526.509	4.98
526.854	4.98
527.199	4.99
527.545	5.01
527.89	5.02
528.235	5.03
528.581	5.03
528.926	5.05
529.271	5.05
529.616	5.06
529.961	5.05
530.306	5.03
530.651	5.02
530.996	5.01
531.341	5.03
531.686	5.04
532.031	5.04
532.376	5.05
532.721	5.04
533.065	5.04
533.41	5.02
533.755	5.02
534.099	5.03
534.444	5.04
534.788	5.02
535.133	5.01
535.477	4.99
535.822	4.98
536.166	4.97
536.51	4.98
536.855	4.98
537.199	4.99
537.543	5.02
537.887	5.05
538.231	5.07
538.576	5.06
538.92	5.06
539.264	5.08
539.608	5.07
539.951	5.07
540.295	5.07
540.639	5.07
540.983	5.08
541.327	5.07
541.671	5.06
542.014	5.09
542.358	5.09
542.701	5.09
543.045	5.09
543.389	5.08
543.732	5.07
544.075	5.07
544.419	5.06
544.762	5.06
545.105	5.06
545.449	5.06
545.792	5.05
546.135	5.04
546.478	5.03
546.821	5.01
547.165	5.03
547.508	5.05
547.851	5.05
548.194	5.04
548.536	5.06
548.879	5.07
549.222	5.07
549.565	5.08
549.908	5.07
550.25	5.09
550.593	5.12
550.936	5.15
551.278	5.16
551.621	5.15
551.963	5.16
552.306	5.17
552.648	5.17
552.991	5.19
553.333	5.18
553.675	5.19
554.017	5.22
554.36	5.19
554.702	5.17
555.044	5.18
555.386	5.17
555.728	5.17
556.07	5.18
556.412	5.18
556.754	5.18
557.096	5.21
557.438	5.19
557.78	5.16
558.121	5.14
558.463	5.15
558.805	5.18
559.147	5.15
559.488	5.12
559.83	5.11
560.171	5.13
560.513	5.14
560.854	5.16
561.196	5.18
561.537	5.2
561.878	5.21
562.22	5.22
562.561	5.23
562.902	5.21
563.243	5.21
563.584	5.2
563.925	5.21
564.266	5.19
564.607	5.22
564.948	5.25
565.289	5.27
565.63	5.24
565.971	5.24
566.312	5.23
566.653	5.21
566.993	5.2
567.334	5.18
567.675	5.19
568.015	5.16
568.356	5.12
568.696	5.11
569.037	5.11
569.377	5.1
569.718	5.12
570.058	5.11
570.398	5.1
570.739	5.08
571.079	5.06
571.419	5.06
571.759	5.04
572.099	5.02
572.439	5.01
572.779	5.03
573.119	5.02
573.459	5.04
573.799	5.07
574.139	5.07
574.479	5.07
574.819	5.08
575.158	5.1
575.498	5.13
575.838	5.11
576.177	5.11
576.517	5.12
576.856	5.12
577.196	5.14
577.535	5.13
577.875	5.15
578.214	5.19
578.553	5.18
578.893	5.19
579.232	5.19
579.571	5.15
579.91	5.18
580.25	5.2
580.589	5.2
580.928	5.19
581.267	5.2
581.606	5.2
581.945	5.2
582.283	5.22
582.622	5.2
582.961	5.22
583.3	5.19
583.639	5.21
583.977	5.18
584.316	5.17
584.654	5.2
584.993	5.19
585.332	5.19
585.67	5.21
586.008	5.23
586.347	5.27
586.685	5.27
587.024	5.28
587.362	5.25
587.7	5.27
588.038	5.28
588.376	5.29
588.715	5.27
589.053	5.28
589.391	5.24
589.729	5.24
590.067	5.26
590.404	5.28
590.742	5.27
591.08	5.32
591.418	5.36
591.756	5.34
592.093	5.33
592.431	5.3
592.769	5.31
593.106	5.29
593.444	5.29
593.781	5.32
594.119	5.29
594.456	5.3
594.793	5.29
595.131	5.28
595.468	5.29
595.805	5.28
596.143	5.28
596.48	5.29
596.817	5.3
597.154	5.29
597.491	5.3
597.828	5.29
598.165	5.3
598.502	5.25
598.839	5.24
599.176	5.28
599.512	5.27
599.849	5.26
600.186	5.28
600.523	5.28
600.859	5.25
601.196	5.26
601.532	5.23
601.869	5.24
602.205	5.24
602.542	5.18
602.878	5.23
603.215	5.22
603.551	5.2
603.887	5.19
604.223	5.18
604.56	5.19
604.896	5.19
605.232	5.13
605.568	5.17
605.904	5.16
606.24	5.17
606.576	5.16
606.912	5.14
607.248	5.13
607.583	5.12
607.919	5.13
608.255	5.12
608.591	5.17
608.926	5.16
609.262	5.15
609.597	5.21
609.933	5.18
610.268	5.18
610.604	5.18
610.939	5.21
611.275	5.22
611.61	5.19
611.945	5.16
612.281	5.2
612.616	5.19
612.951	5.22
613.286	5.16
613.621	5.2
613.956	5.22
614.291	5.21
614.626	5.21
614.961	5.21
615.296	5.23
615.631	5.24
615.966	5.22
616.3	5.27
616.635	5.21
616.97	5.23
617.304	5.27
617.639	5.27
617.973	5.22
618.308	5.22
618.642	5.26
618.977	5.28
619.311	5.36
619.646	5.39
619.98	5.41
620.314	5.41
620.648	5.43
620.983	5.44
621.317	5.42
621.651	5.43
621.985	5.48
622.319	5.46
622.653	5.45
622.987	5.5
623.321	5.45
623.655	5.47
623.988	5.46
624.322	5.41
624.656	5.41
624.99	5.45
625.323	5.41
625.657	5.41
625.99	5.44
626.324	5.37
626.657	5.32
626.991	5.32
627.324	5.32
627.658	5.27
627.991	5.25
628.324	5.29
628.657	5.3
628.991	5.3
629.324	5.31
629.657	5.26
629.99	5.24
630.323	5.27
630.656	5.25
630.989	5.25
631.322	5.25
631.655	5.32
631.987	5.33
632.32	5.39
632.653	5.37
632.986	5.37
633.318	5.37
633.651	5.41
633.984	5.37
634.316	5.41
634.649	5.46
634.981	5.52
635.313	5.52
635.646	5.47
635.978	5.44
636.31	5.45
636.643	5.5
636.975	5.48
637.307	5.47
637.639	5.51
637.971	5.48
638.303	5.5
638.635	5.47
638.967	5.44
639.299	5.44
639.631	5.42
639.963	5.4
640.295	5.42
640.626	5.4
640.958	5.42
641.29	5.37
641.621	5.33
641.953	5.21
642.285	5.24
642.616	5.28
642.948	5.29
643.279	5.26
643.61	5.24
643.942	5.28
644.273	5.34
644.604	5.3
644.936	5.37
645.267	5.45
645.598	5.43
645.929	5.42
646.26	5.37
646.591	5.44
646.922	5.5
647.253	5.46
647.584	5.48
647.915	5.5
648.245	5.56
648.576	5.6
648.907	5.71
649.238	5.67
649.568	5.7
649.899	5.67
650.229	5.77
650.56	5.78
650.89	5.74
651.221	5.67
651.551	5.68
651.882	5.68
652.212	5.56
652.542	5.53
652.872	5.51
653.203	5.52
653.533	5.46
653.863	5.43
654.193	5.44
654.523	5.41
654.853	5.47
655.183	5.49
655.513	5.49
655.843	5.44
656.172	5.49
656.502	5.49
656.832	5.55
657.162	5.48
657.491	5.54
657.821	5.61
658.15	5.66
658.48	5.71
658.809	5.72
659.139	5.79
659.468	5.81
659.798	5.83
660.127	5.89
660.456	5.89
660.785	5.9
661.115	5.9
661.444	5.95
661.773	5.94
662.102	5.92
662.431	5.9
662.76	5.9
663.089	5.91
663.418	5.92
663.747	5.91
664.076	5.9
664.404	5.89
664.733	5.89
665.062	5.92
665.39	5.87
665.719	5.86
666.048	5.87
666.376	5.8
666.705	5.8
667.033	5.75
667.362	5.78
667.69	5.74
668.018	5.81
668.347	5.74
668.675	5.66
669.003	5.67
669.331	5.7
669.659	5.71
669.987	5.66
670.315	5.66
670.643	5.64
670.971	5.62
671.299	5.54
671.627	5.49
671.955	5.41
672.283	5.33
672.61	5.32
672.938	5.29
673.266	5.41
673.593	5.39
673.921	5.36
674.249	5.38
674.576	5.38
674.904	5.34
675.231	5.37
675.558	5.41
675.886	5.32
676.213	5.24
676.54	5.31
676.867	5.35
677.195	5.42
677.522	5.38
677.849	5.39
678.176	5.45
678.503	5.43
678.83	5.46
