Data from BU58129_Reflection_00005.txt Node
Date: Mon Nov 18 16:34:58 EST 2019
User: vgr7
Spectrometer: USB2G7710
Scans to average: 3
Trigger mode: 4
Integration Time (sec): 2.000000E-2
Electric dark correction enabled: true
Boxcar width: 10
XAxis mode: Wavelengths
Number of Pixels in Spectrum: 2048
>>>>>Begin Spectral Data<<<<<
177.721	114.19
178.105	296.58
178.488	114.59
178.871	572.22
179.254	375.36
179.636	56.26
180.019	-221.64
180.402	205
180.785	-47.6
181.168	393.65
181.55	37.73
181.933	96.17
182.316	85.67
182.698	100.92
183.081	71.77
183.463	49.62
183.846	101.68
184.228	-20.94
184.611	655.56
184.993	-19.68
185.376	-6.42
185.758	-39.71
186.14	-53.31
186.522	-71.79
186.904	-337.91
187.287	1162.89
187.669	-295.51
188.051	719.05
188.433	709.43
188.815	2291.92
189.197	756.77
189.579	1778.79
189.961	2433.33
190.342	709.08
190.724	1345.21
191.106	1740.69
191.488	342.34
191.869	308.97
192.251	222.11
192.633	172.16
193.014	163.88
193.396	171.68
193.777	186.1
194.159	179.53
194.54	200.26
194.922	289.08
195.303	338.1
195.684	364.22
196.065	486.49
196.447	556.89
196.828	812.2
197.209	527.12
197.59	646.17
197.971	665.81
198.352	-1973.45
198.733	1317.23
199.114	-2233.33
199.495	-328.26
199.876	-467.95
200.257	-252.55
200.638	-120.8
201.018	-139.56
201.399	-140.31
201.78	-122.04
202.16	-152.2
202.541	-640.49
202.922	-1743.54
203.302	1315.96
203.683	535.24
204.063	1688.74
204.444	3181.3
204.824	1748.4
205.204	22566.67
205.585	1515.3
205.965	1209.8
206.345	2106.8
206.725	1492.16
207.106	463.53
207.486	440.71
207.866	414.71
208.246	1259.62
208.626	666.46
209.006	4922.22
209.386	950.98
209.766	366.94
210.145	731.7
210.525	-1661.9
210.905	-4272.55
211.285	-412.64
211.664	-187.42
212.044	-152.29
212.424	-281.26
212.803	-1303.1
213.183	-335.63
213.562	-335.9
213.942	-140.56
214.321	-165.04
214.701	-144.44
215.08	-66.22
215.459	-85.58
215.838	-118.59
216.218	-184.93
216.597	-72.82
216.976	-115.23
217.355	-88.48
217.734	-35.76
218.113	4.08
218.492	-5.03
218.871	-11.35
219.25	0.38
219.629	24.38
220.008	0.88
220.387	7.73
220.766	13.86
221.144	-6.5
221.523	-15.65
221.902	-36.99
222.28	-28.15
222.659	-11.46
223.037	-22.99
223.416	-31.03
223.794	-11.67
224.173	-24.31
224.551	-26.73
224.929	-28.43
225.308	-26.65
225.686	-20.67
226.064	-23.16
226.442	-22.39
226.821	-22.06
227.199	-22.2
227.577	-24.18
227.955	-22.44
228.333	-18.79
228.711	-16.62
229.089	-12.4
229.467	-13.91
229.845	-14.45
230.222	-13.5
230.6	-16.78
230.978	-15.04
231.356	-12.76
231.733	-13.73
232.111	-7.61
232.488	-5.69
232.866	-6.93
233.243	-5.32
233.621	-6.47
233.998	-5.7
234.376	-6.49
234.753	-7.11
235.13	-7.12
235.508	-5.05
235.885	-2.89
236.262	-1.08
236.639	-0.32
237.016	0.69
237.393	3.2
237.77	3.31
238.147	3.4
238.524	4.93
238.901	5.64
239.278	6.36
239.655	6.65
240.032	6.08
240.409	5.74
240.785	6.1
241.162	5.88
241.539	6.54
241.915	6.55
242.292	6.14
242.668	6.63
243.045	6.48
243.421	6.17
243.798	5.77
244.174	5.34
244.551	5.37
244.927	5.06
245.303	5.02
245.679	5.39
246.056	5.39
246.432	5.22
246.808	5
247.184	4.75
247.56	4.67
247.936	4.27
248.312	4.18
248.688	4.41
249.064	4.38
249.44	4.1
249.815	4
250.191	4.46
250.567	4.17
250.943	4.24
251.318	4.53
251.694	4.43
252.069	4.37
252.445	4.4
252.82	4.65
253.196	4.47
253.571	4.09
253.947	4.09
254.322	4.28
254.697	4.14
255.073	4.17
255.448	4.19
255.823	4.71
256.198	4.98
256.573	4.6
256.948	4.88
257.323	4.91
257.698	5.21
258.073	4.95
258.448	5.13
258.823	5
259.198	4.82
259.573	4.84
259.948	4.83
260.322	4.87
260.697	4.78
261.072	4.74
261.446	4.8
261.821	4.64
262.195	4.66
262.57	4.78
262.944	4.69
263.319	4.67
263.693	4.55
264.067	4.51
264.442	4.6
264.816	4.36
265.19	4.28
265.564	3.97
265.938	3.81
266.313	3.48
266.687	3.57
267.061	3.44
267.435	3.58
267.809	3.7
268.183	3.62
268.556	3.5
268.93	3.5
269.304	3.46
269.678	3.63
270.051	3.65
270.425	3.67
270.799	3.65
271.172	3.5
271.546	3.47
271.919	3.31
272.293	3.31
272.666	3.33
273.04	3.44
273.413	3.49
273.787	3.51
274.16	3.63
274.533	3.61
274.906	3.64
275.279	3.61
275.653	3.48
276.026	3.55
276.399	3.75
276.772	3.85
277.145	3.85
277.518	3.94
277.891	3.99
278.263	4
278.636	4.11
279.009	4.37
279.382	4.62
279.755	4.67
280.127	4.69
280.5	4.77
280.872	4.9
281.245	4.87
281.617	4.94
281.99	5.02
282.362	5.03
282.735	5.05
283.107	4.97
283.479	5.08
283.852	5.01
284.224	4.86
284.596	4.95
284.968	4.99
285.34	5.04
285.713	4.9
286.085	4.91
286.457	4.9
286.829	4.84
287.201	4.76
287.572	4.78
287.944	4.72
288.316	4.68
288.688	4.53
289.06	4.6
289.431	4.61
289.803	4.53
290.175	4.51
290.546	4.7
290.918	4.65
291.289	4.58
291.661	4.65
292.032	4.87
292.403	4.83
292.775	4.86
293.146	4.75
293.517	4.74
293.889	4.79
294.26	4.79
294.631	4.82
295.002	4.81
295.373	4.86
295.744	4.87
296.115	4.91
296.486	4.91
296.857	4.91
297.228	5.04
297.599	5.05
297.97	5.15
298.34	5.04
298.711	5.18
299.082	5.2
299.452	5.23
299.823	5.19
300.194	5.19
300.564	5.24
300.935	5.3
301.305	5.35
301.676	5.39
302.046	5.48
302.416	5.51
302.787	5.49
303.157	5.53
303.527	5.75
303.897	5.81
304.267	5.96
304.637	6.03
305.008	5.91
305.378	5.95
305.748	5.81
306.117	5.78
306.487	5.69
306.857	5.78
307.227	5.77
307.597	5.67
307.967	5.64
308.336	5.65
308.706	5.57
309.076	5.58
309.445	5.44
309.815	5.4
310.184	5.36
310.554	5.41
310.923	5.38
311.293	5.27
311.662	5.32
312.031	5.16
312.401	5.07
312.77	5.17
313.139	5.23
313.508	5.21
313.877	5.14
314.246	5.15
314.616	5
314.985	4.94
315.353	5.04
315.722	5.1
316.091	4.98
316.46	4.92
316.829	4.83
317.198	4.93
317.567	4.8
317.935	4.86
318.304	4.79
318.672	4.78
319.041	4.75
319.41	4.76
319.778	4.85
320.147	4.93
320.515	4.84
320.883	4.78
321.252	4.86
321.62	4.98
321.988	5.04
322.357	5.07
322.725	5.06
323.093	5.18
323.461	5.2
323.829	5.24
324.197	5.33
324.565	5.32
324.933	5.25
325.301	5.29
325.669	5.26
326.037	5.3
326.405	5.3
326.772	5.35
327.14	5.27
327.508	5.3
327.875	5.22
328.243	5.3
328.61	5.2
328.978	5.3
329.346	5.33
329.713	5.31
330.08	5.34
330.448	5.24
330.815	4.92
331.182	4.82
331.55	4.79
331.917	4.88
332.284	5.12
332.651	5.13
333.018	5.19
333.385	5.09
333.752	5.19
334.119	5.29
334.486	5.2
334.853	5.22
335.22	5.15
335.587	5.19
335.954	5.14
336.32	5.27
336.687	5.26
337.054	5.26
337.42	5.38
337.787	5.54
338.153	5.61
338.52	5.84
338.886	5.77
339.253	5.74
339.619	5.66
339.986	5.46
340.352	5.49
340.718	5.4
341.084	5.4
341.451	5.45
341.817	5.42
342.183	5.54
342.549	5.45
342.915	5.48
343.281	5.56
343.647	5.52
344.013	5.5
344.379	5.42
344.745	5.35
345.11	5.27
345.476	5.24
345.842	5.27
346.208	5.22
346.573	5.3
346.939	5.38
347.304	5.34
347.67	5.41
348.035	5.4
348.401	5.45
348.766	5.52
349.132	5.47
349.497	5.36
349.862	5.35
350.228	5.43
350.593	5.37
350.958	5.26
351.323	5.3
351.688	5.17
352.053	5.19
352.418	5.24
352.783	5.19
353.148	5.11
353.513	5.07
353.878	5.03
354.243	4.99
354.608	4.95
354.972	5.04
355.337	5.09
355.702	5.22
356.066	5.26
356.431	5.19
356.795	5.19
357.16	5.21
357.524	5.13
357.889	5.08
358.253	5.16
358.618	5.23
358.982	5.24
359.346	5.29
359.71	5.32
360.075	5.31
360.439	5.32
360.803	5.25
361.167	5.24
361.531	5.2
361.895	5.18
362.259	5.21
362.623	5.19
362.987	5.23
363.351	5.11
363.714	5.11
364.078	5.14
364.442	5.12
364.806	5.15
365.169	5.15
365.533	5.16
365.896	5.14
366.26	5.11
366.623	5.13
366.987	5.12
367.35	5.18
367.714	5.19
368.077	5.22
368.44	5.33
368.803	5.32
369.167	5.33
369.53	5.35
369.893	5.35
370.256	5.38
370.619	5.25
370.982	5.26
371.345	5.19
371.708	5.18
372.071	5.05
372.434	5
372.797	4.99
373.159	4.99
373.522	5.03
373.885	5.06
374.247	5.06
374.61	5.08
374.973	5
375.335	4.95
375.698	4.94
376.06	4.88
376.423	4.85
376.785	4.9
377.147	4.92
377.51	4.9
377.872	4.9
378.234	4.94
378.596	5.01
378.958	5.02
379.321	5.05
379.683	5.15
380.045	5.17
380.407	5.21
380.769	5.21
381.13	5.16
381.492	5.1
381.854	5.06
382.216	5.08
382.578	5.1
382.939	5.11
383.301	5.05
383.663	5.05
384.024	5.09
384.386	5.09
384.747	5.11
385.109	5.14
385.47	5.12
385.832	5.11
386.193	5.08
386.554	5.08
386.916	5
387.277	5.04
387.638	5.05
387.999	5.04
388.36	5.04
388.721	5.03
389.082	5.11
389.443	5.12
389.804	5.1
390.165	5.05
390.526	5.09
390.887	5.09
391.248	5.12
391.609	5.16
391.969	5.11
392.33	5.09
392.691	5.09
393.051	5.06
393.412	5.1
393.772	5.04
394.133	5.06
394.493	5.08
394.854	5.06
395.214	5.04
395.574	5.02
395.935	4.99
396.295	5.05
396.655	4.98
397.015	4.95
397.376	4.94
397.736	4.99
398.096	4.96
398.456	4.98
398.816	4.95
399.176	4.9
399.535	4.92
399.895	4.95
400.255	4.93
400.615	4.95
400.975	4.95
401.334	4.98
401.694	4.98
402.054	4.97
402.413	4.96
402.773	4.96
403.132	4.99
403.492	5.03
403.851	5
404.211	5.01
404.57	5.02
404.929	5.02
405.288	4.98
405.648	4.97
406.007	4.97
406.366	4.94
406.725	4.96
407.084	4.97
407.443	4.92
407.802	4.91
408.161	4.89
408.52	4.85
408.879	4.85
409.238	4.84
409.596	4.84
409.955	4.82
410.314	4.83
410.673	4.78
411.031	4.76
411.39	4.74
411.748	4.73
412.107	4.73
412.465	4.73
412.824	4.73
413.182	4.73
413.54	4.73
413.899	4.74
414.257	4.73
414.615	4.7
414.974	4.71
415.332	4.7
415.69	4.68
416.048	4.67
416.406	4.66
416.764	4.66
417.122	4.67
417.48	4.68
417.838	4.68
418.195	4.69
418.553	4.69
418.911	4.7
419.269	4.71
419.626	4.71
419.984	4.69
420.342	4.7
420.699	4.71
421.057	4.7
421.414	4.7
421.772	4.69
422.129	4.69
422.486	4.7
422.844	4.7
423.201	4.7
423.558	4.7
423.915	4.71
424.273	4.71
424.63	4.71
424.987	4.72
425.344	4.7
425.701	4.7
426.058	4.68
426.415	4.66
426.772	4.65
427.128	4.65
427.485	4.64
427.842	4.62
428.199	4.61
428.555	4.62
428.912	4.6
429.269	4.59
429.625	4.58
429.982	4.57
430.338	4.58
430.695	4.58
431.051	4.56
431.407	4.56
431.764	4.55
432.12	4.53
432.476	4.5
432.832	4.52
433.189	4.51
433.545	4.52
433.901	4.52
434.257	4.52
434.613	4.51
434.969	4.53
435.325	4.55
435.681	4.57
436.036	4.58
436.392	4.59
436.748	4.59
437.104	4.6
437.459	4.57
437.815	4.56
438.171	4.56
438.526	4.58
438.882	4.59
439.237	4.59
439.593	4.6
439.948	4.6
440.304	4.61
440.659	4.62
441.014	4.62
441.369	4.62
441.725	4.61
442.08	4.63
442.435	4.63
442.79	4.62
443.145	4.61
443.5	4.61
443.855	4.61
444.21	4.61
444.565	4.61
444.92	4.64
445.275	4.62
445.629	4.61
445.984	4.61
446.339	4.59
446.693	4.59
447.048	4.58
447.403	4.58
447.757	4.56
448.112	4.54
448.466	4.53
448.82	4.53
449.175	4.55
449.529	4.53
449.883	4.52
450.238	4.51
450.592	4.51
450.946	4.49
451.3	4.49
451.654	4.48
452.008	4.47
452.362	4.45
452.716	4.47
453.07	4.47
453.424	4.48
453.778	4.49
454.132	4.48
454.486	4.47
454.839	4.48
455.193	4.49
455.547	4.49
455.9	4.49
456.254	4.48
456.607	4.48
456.961	4.49
457.314	4.48
457.668	4.49
458.021	4.48
458.375	4.5
458.728	4.49
459.081	4.49
459.434	4.49
459.787	4.5
460.141	4.5
460.494	4.52
460.847	4.5
461.2	4.49
461.553	4.5
461.906	4.51
462.259	4.51
462.611	4.52
462.964	4.52
463.317	4.52
463.67	4.53
464.022	4.52
464.375	4.52
464.728	4.53
465.08	4.54
465.433	4.55
465.785	4.54
466.138	4.54
466.49	4.57
466.843	4.57
467.195	4.57
467.547	4.56
467.899	4.57
468.252	4.57
468.604	4.58
468.956	4.58
469.308	4.59
469.66	4.6
470.012	4.59
470.364	4.6
470.716	4.59
471.068	4.58
471.42	4.58
471.772	4.62
472.123	4.61
472.475	4.62
472.827	4.62
473.178	4.62
473.53	4.64
473.882	4.62
474.233	4.63
474.585	4.61
474.936	4.64
475.288	4.64
475.639	4.64
475.99	4.65
476.342	4.64
476.693	4.65
477.044	4.67
477.395	4.67
477.746	4.66
478.097	4.67
478.448	4.68
478.8	4.69
479.15	4.65
479.501	4.64
479.852	4.65
480.203	4.65
480.554	4.66
480.905	4.66
481.255	4.67
481.606	4.7
481.957	4.7
482.307	4.69
482.658	4.7
483.009	4.71
483.359	4.71
483.709	4.72
484.06	4.71
484.41	4.7
484.761	4.71
485.111	4.72
485.461	4.72
485.811	4.72
486.162	4.72
486.512	4.72
486.862	4.73
487.212	4.73
487.562	4.74
487.912	4.73
488.262	4.72
488.612	4.71
488.961	4.69
489.311	4.69
489.661	4.7
490.011	4.7
490.36	4.69
490.71	4.7
491.06	4.7
491.409	4.68
491.759	4.69
492.108	4.69
492.458	4.68
492.807	4.67
493.157	4.69
493.506	4.69
493.855	4.71
494.204	4.68
494.554	4.67
494.903	4.67
495.252	4.67
495.601	4.7
495.95	4.72
496.299	4.73
496.648	4.72
496.997	4.72
497.346	4.73
497.695	4.74
498.043	4.74
498.392	4.74
498.741	4.76
499.09	4.78
499.438	4.78
499.787	4.8
500.135	4.82
500.484	4.82
500.832	4.83
501.181	4.85
501.529	4.89
501.878	4.91
502.226	4.93
502.574	4.96
502.923	4.98
503.271	4.98
503.619	5
503.967	5.03
504.315	5.02
504.663	5.04
505.011	5.05
505.359	5.06
505.707	5.09
506.055	5.11
506.403	5.11
506.751	5.13
507.098	5.15
507.446	5.16
507.794	5.16
508.141	5.18
508.489	5.19
508.837	5.2
509.184	5.23
509.531	5.25
509.879	5.27
510.226	5.29
510.574	5.3
510.921	5.3
511.268	5.31
511.616	5.34
511.963	5.35
512.31	5.36
512.657	5.37
513.004	5.38
513.351	5.41
513.698	5.4
514.045	5.41
514.392	5.41
514.739	5.4
515.086	5.44
515.432	5.45
515.779	5.46
516.126	5.47
516.473	5.46
516.819	5.48
517.166	5.47
517.512	5.45
517.859	5.47
518.205	5.47
518.552	5.48
518.898	5.49
519.245	5.5
519.591	5.5
519.937	5.49
520.283	5.5
520.629	5.51
520.976	5.54
521.322	5.54
521.668	5.54
522.014	5.57
522.36	5.56
522.706	5.56
523.052	5.58
523.398	5.58
523.743	5.59
524.089	5.6
524.435	5.61
524.781	5.64
525.126	5.66
525.472	5.69
525.817	5.69
526.163	5.71
526.509	5.71
526.854	5.74
527.199	5.76
527.545	5.76
527.89	5.76
528.235	5.74
528.581	5.73
528.926	5.74
529.271	5.74
529.616	5.74
529.961	5.75
530.306	5.75
530.651	5.77
530.996	5.77
531.341	5.76
531.686	5.75
532.031	5.75
532.376	5.74
532.721	5.74
533.065	5.74
533.41	5.74
533.755	5.74
534.099	5.72
534.444	5.71
534.788	5.72
535.133	5.72
535.477	5.74
535.822	5.76
536.166	5.76
536.51	5.77
536.855	5.76
537.199	5.77
537.543	5.77
537.887	5.76
538.231	5.76
538.576	5.78
538.92	5.79
539.264	5.78
539.608	5.8
539.951	5.8
540.295	5.82
540.639	5.82
540.983	5.84
541.327	5.84
541.671	5.84
542.014	5.85
542.358	5.86
542.701	5.87
543.045	5.87
543.389	5.88
543.732	5.86
544.075	5.89
544.419	5.89
544.762	5.89
545.105	5.9
545.449	5.89
545.792	5.89
546.135	5.89
546.478	5.89
546.821	5.88
547.165	5.88
547.508	5.89
547.851	5.88
548.194	5.86
548.536	5.87
548.879	5.9
549.222	5.89
549.565	5.87
549.908	5.87
550.25	5.87
550.593	5.87
550.936	5.87
551.278	5.85
551.621	5.87
551.963	5.89
552.306	5.88
552.648	5.89
552.991	5.91
553.333	5.9
553.675	5.92
554.017	5.93
554.36	5.93
554.702	5.94
555.044	5.92
555.386	5.93
555.728	5.93
556.07	5.91
556.412	5.91
556.754	5.9
557.096	5.89
557.438	5.89
557.78	5.89
558.121	5.93
558.463	5.94
558.805	5.93
559.147	5.94
559.488	5.98
559.83	6.01
560.171	6
560.513	6.03
560.854	6.01
561.196	6.01
561.537	6.02
561.878	6.01
562.22	6.04
562.561	6.02
562.902	6.05
563.243	6.05
563.584	6.05
563.925	6.07
564.266	6.07
564.607	6.09
564.948	6.1
565.289	6.07
565.63	6.06
565.971	6.07
566.312	6.05
566.653	6.03
566.993	6.01
567.334	6
567.675	6
568.015	6.01
568.356	6.01
568.696	6.01
569.037	6
569.377	6.02
569.718	6.05
570.058	6.02
570.398	5.99
570.739	6.01
571.079	6.03
571.419	6.05
571.759	6.06
572.099	6.02
572.439	6.03
572.779	6.04
573.119	6.07
573.459	6.07
573.799	6.08
574.139	6.07
574.479	6.06
574.819	6.06
575.158	6.03
575.498	6.02
575.838	5.99
576.177	5.98
576.517	5.95
576.856	5.92
577.196	5.89
577.535	5.91
577.875	5.92
578.214	5.87
578.553	5.85
578.893	5.81
579.232	5.85
579.571	5.85
579.91	5.86
580.25	5.83
580.589	5.83
580.928	5.82
581.267	5.83
581.606	5.82
581.945	5.83
582.283	5.8
582.622	5.79
582.961	5.81
583.3	5.81
583.639	5.81
583.977	5.85
584.316	5.87
584.654	5.86
584.993	5.84
585.332	5.89
585.67	5.89
586.008	5.88
586.347	5.86
586.685	5.84
587.024	5.85
587.362	5.88
587.7	5.9
588.038	5.94
588.376	5.96
588.715	6.01
589.053	6.03
589.391	6.08
589.729	6.09
590.067	6.09
590.404	6.11
590.742	6.14
591.08	6.11
591.418	6.17
591.756	6.19
592.093	6.22
592.431	6.17
592.769	6.18
593.106	6.19
593.444	6.22
593.781	6.19
594.119	6.19
594.456	6.14
594.793	6.15
595.131	6.11
595.468	6.12
595.805	6.07
596.143	6.05
596.48	6.04
596.817	6.04
597.154	6.04
597.491	6.03
597.828	6.02
598.165	6.02
598.502	5.98
598.839	6.01
599.176	5.98
599.512	5.97
599.849	6.01
600.186	5.98
600.523	6
600.859	6.05
601.196	6.03
601.532	6.06
601.869	6.03
602.205	6.02
602.542	6.04
602.878	6.05
603.215	6.08
603.551	6.07
603.887	6.04
604.223	6.05
604.56	6.04
604.896	6.05
605.232	6.09
605.568	6.09
605.904	6.05
606.24	6.08
606.576	6.07
606.912	6.06
607.248	6.1
607.583	6.07
607.919	6.04
608.255	6.03
608.591	6.03
608.926	6.06
609.262	6.09
609.597	6.09
609.933	6.09
610.268	6.08
610.604	6.08
610.939	6.12
611.275	6.1
611.61	6.09
611.945	6.12
612.281	6.08
612.616	6.08
612.951	6.1
613.286	6.05
613.621	6.1
613.956	6.08
614.291	6.06
614.626	6.03
614.961	6.07
615.296	6.11
615.631	6.09
615.966	6.07
616.3	6.03
616.635	5.98
616.97	5.97
617.304	5.94
617.639	5.96
617.973	5.97
618.308	6.02
618.642	6.06
618.977	5.96
619.311	5.97
619.646	6.01
619.98	6.02
620.314	6.06
620.648	6.06
620.983	6.04
621.317	6.07
621.651	6.14
621.985	6.11
622.319	6.13
622.653	6.19
622.987	6.19
623.321	6.2
623.655	6.22
623.988	6.24
624.322	6.21
624.656	6.21
624.99	6.21
625.323	6.18
625.657	6.14
625.99	6.27
626.324	6.24
626.657	6.24
626.991	6.24
627.324	6.25
627.658	6.25
627.991	6.28
628.324	6.26
628.657	6.23
628.991	6.2
629.324	6.17
629.657	6.16
629.99	6.19
630.323	6.18
630.656	6.19
630.989	6.2
631.322	6.29
631.655	6.29
631.987	6.31
632.32	6.36
632.653	6.4
632.986	6.33
633.318	6.36
633.651	6.34
633.984	6.31
634.316	6.24
634.649	6.22
634.981	6.2
635.313	6.25
635.646	6.23
635.978	6.29
636.31	6.28
636.643	6.25
636.975	6.2
637.307	6.19
637.639	6.19
637.971	6.2
638.303	6.15
638.635	6.15
638.967	6.14
639.299	6.16
639.631	6.12
639.963	6.15
640.295	6.16
640.626	6.2
640.958	6.28
641.29	6.4
641.621	6.43
641.953	6.42
642.285	6.4
642.616	6.44
642.948	6.4
643.279	6.34
643.61	6.36
643.942	6.35
644.273	6.38
644.604	6.35
644.936	6.31
645.267	6.24
645.598	6.27
645.929	6.27
646.26	6.28
646.591	6.28
646.922	6.2
647.253	6.21
647.584	6.17
647.915	6.13
648.245	6.06
648.576	6.07
648.907	6.09
649.238	6.02
649.568	6
649.899	6.03
650.229	6.12
650.56	6.19
650.89	6.21
651.221	6.19
651.551	6.2
651.882	6.22
652.212	6.3
652.542	6.33
652.872	6.3
653.203	6.22
653.533	6.29
653.863	6.3
654.193	6.3
654.523	6.31
654.853	6.32
655.183	6.3
655.513	6.29
655.843	6.3
656.172	6.38
656.502	6.38
656.832	6.39
657.162	6.43
657.491	6.38
657.821	6.44
658.15	6.4
658.48	6.39
658.809	6.43
659.139	6.41
659.468	6.36
659.798	6.4
660.127	6.47
660.456	6.45
660.785	6.48
661.115	6.46
661.444	6.43
661.773	6.47
662.102	6.46
662.431	6.52
662.76	6.53
663.089	6.56
663.418	6.56
663.747	6.54
664.076	6.49
664.404	6.48
664.733	6.48
665.062	6.55
665.39	6.55
665.719	6.5
666.048	6.55
666.376	6.48
666.705	6.45
667.033	6.37
667.362	6.34
667.69	6.32
668.018	6.33
668.347	6.37
668.675	6.29
669.003	6.37
669.331	6.36
669.659	6.36
669.987	6.26
670.315	6.27
670.643	6.21
670.971	6.29
671.299	6.31
671.627	6.25
671.955	6.27
672.283	6.22
672.61	6.18
672.938	6.1
673.266	6.14
673.593	6.26
673.921	6.3
674.249	6.25
674.576	6.26
674.904	6.28
675.231	6.21
675.558	6.23
675.886	6.18
676.213	6.08
676.54	6.03
676.867	5.99
