Data from BU58119_Reflection_00002.txt Node
Date: Tue Nov 19 10:50:40 EST 2019
User: vgr7
Spectrometer: USB2G7710
Scans to average: 3
Trigger mode: 4
Integration Time (sec): 2.000000E-2
Electric dark correction enabled: true
Boxcar width: 10
XAxis mode: Wavelengths
Number of Pixels in Spectrum: 2048
>>>>>Begin Spectral Data<<<<<
177.721	-515.02
178.105	-283.5
178.488	-296.25
178.871	-359.09
179.254	-1840
179.636	531.03
180.019	140.77
180.402	51.85
180.785	-1545.45
181.168	-224.68
181.55	-28.98
181.933	92.03
182.316	151.57
182.698	70.68
183.081	38.76
183.463	81.05
183.846	98.89
184.228	161.15
184.611	38.74
184.993	39.44
185.376	141.52
185.758	-203.74
186.14	-95.52
186.522	-146.2
186.904	-172.15
187.287	-146.1
187.669	-106.21
188.051	-129.7
188.433	-145.2
188.815	-172.23
189.197	-125.27
189.579	-106.25
189.961	-76.81
190.342	-71.49
190.724	-66.48
191.106	-78.98
191.488	-62.32
191.869	-49.85
192.251	-54.11
192.633	-55.34
193.014	-39.47
193.396	-32.31
193.777	-33.49
194.159	-27.52
194.54	-17.86
194.922	-21.36
195.303	-13.31
195.684	-5.51
196.065	-5.72
196.447	4.68
196.828	0.19
197.209	-7.82
197.59	-1.81
197.971	-5.6
198.352	-16.86
198.733	-13.1
199.114	-6.87
199.495	-10.66
199.876	-40.26
200.257	-232.17
200.638	-477.92
201.018	1825.81
201.399	-184.98
201.78	-165.8
202.16	-292.54
202.541	-1722.03
202.922	-782.55
203.302	11138.46
203.683	6920
204.063	-1757.89
204.444	-1409.9
204.824	-23200
205.204	-141.16
205.585	-107.32
205.965	-90.87
206.345	-86.26
206.725	-79.95
207.106	-76.26
207.486	-50.12
207.866	-39.03
208.246	-14.13
208.626	-20.14
209.006	-17.72
209.386	-16.26
209.766	-32.65
210.145	-11.73
210.525	-6.21
210.905	3.68
211.285	20.19
211.664	30.08
212.044	29.92
212.424	19.94
212.803	4.24
213.183	7.04
213.562	7.77
213.942	5.38
214.321	9.76
214.701	7.69
215.08	9.75
215.459	12.82
215.838	10.54
216.218	5.15
216.597	1.07
216.976	-0.25
217.355	-4.64
217.734	-1.78
218.113	8.96
218.492	15.2
218.871	18.13
219.25	11.31
219.629	4.18
220.008	8.3
220.387	12.16
220.766	34.31
221.144	28.73
221.523	23.27
221.902	46.81
222.28	39.84
222.659	54.19
223.037	55.46
223.416	49.66
223.794	49.69
224.173	26.56
224.551	28.88
224.929	26.71
225.308	23.85
225.686	11.96
226.064	3.28
226.442	-3.4
226.821	-10.24
227.199	-11.17
227.577	-8.32
227.955	-7
228.333	-11.59
228.711	-9.8
229.089	-13.58
229.467	-11.77
229.845	-13.66
230.222	-10.09
230.6	-14.24
230.978	-12.1
231.356	-9.98
231.733	-11.42
232.111	-7.75
232.488	-6.14
232.866	-6.16
233.243	-2.83
233.621	0.18
233.998	1.99
234.376	2.1
234.753	3.69
235.13	5.3
235.508	2.37
235.885	2.64
236.262	3.43
236.639	0.28
237.016	-0.35
237.393	2.41
237.77	2.8
238.147	2.34
238.524	4.05
238.901	3.19
239.278	2.67
239.655	3.07
240.032	3.04
240.409	3.97
240.785	3.16
241.162	2.38
241.539	3.6
241.915	3.69
242.292	3.98
242.668	3.99
243.045	4.55
243.421	5.75
243.798	6.13
244.174	6.19
244.551	6.6
244.927	6.62
245.303	6.17
245.679	6.35
246.056	6.24
246.432	6.29
246.808	6.47
247.184	6.47
247.56	6.2
247.936	6.35
248.312	6.52
248.688	6.87
249.064	7.03
249.44	6.63
249.815	6.49
250.191	6.28
250.567	6.31
250.943	6.1
251.318	5.61
251.694	5.25
252.069	5.28
252.445	5.09
252.82	5.4
253.196	5.44
253.571	5.36
253.947	5.52
254.322	5.06
254.697	4.97
255.073	5.2
255.448	5.46
255.823	5.34
256.198	4.7
256.573	4.77
256.948	5.2
257.323	5.32
257.698	5.42
258.073	5.36
258.448	5.52
258.823	5.3
259.198	5.41
259.573	5.39
259.948	5.39
260.322	5.27
260.697	5.24
261.072	5.44
261.446	5.46
261.821	5.39
262.195	5.47
262.57	5.69
262.944	5.58
263.319	5.75
263.693	5.62
264.067	5.87
264.442	5.74
264.816	5.51
265.19	5.5
265.564	5.31
265.938	5.6
266.313	5.29
266.687	5.42
267.061	5.38
267.435	5.55
267.809	5.45
268.183	5.52
268.556	5.47
268.93	5.48
269.304	5.27
269.678	5.32
270.051	5.31
270.425	5.21
270.799	5.11
271.172	5.07
271.546	5.26
271.919	5.27
272.293	5.26
272.666	5.32
273.04	5.29
273.413	5.41
273.787	5.39
274.16	5.29
274.533	5.33
274.906	5.38
275.279	5.37
275.653	5.35
276.026	5.27
276.399	5.33
276.772	5.4
277.145	5.45
277.518	5.39
277.891	5.53
278.263	5.49
278.636	5.84
279.009	5.79
279.382	5.66
279.755	5.47
280.127	5.44
280.5	5.31
280.872	5.38
281.245	5.4
281.617	5.42
281.99	5.46
282.362	5.52
282.735	5.53
283.107	5.5
283.479	5.61
283.852	5.74
284.224	5.72
284.596	5.66
284.968	5.66
285.34	5.66
285.713	5.57
286.085	5.38
286.457	5.13
286.829	5.06
287.201	5
287.572	5.06
287.944	5.19
288.316	5.3
288.688	5.4
289.06	5.4
289.431	5.42
289.803	5.53
290.175	5.49
290.546	5.31
290.918	5.29
291.289	5.25
291.661	5.31
292.032	5.33
292.403	5.26
292.775	5.43
293.146	5.6
293.517	5.62
293.889	5.78
294.26	5.86
294.631	6.02
295.002	6.18
295.373	6.17
295.744	6.24
296.115	6.23
296.486	6.26
296.857	6.34
297.228	6.26
297.599	6.24
297.97	6.35
298.34	6.65
298.711	6.75
299.082	6.71
299.452	6.62
299.823	6.63
300.194	6.78
300.564	6.58
300.935	6.58
301.305	6.57
301.676	6.72
302.046	6.74
302.416	6.57
302.787	6.51
303.157	6.56
303.527	6.62
303.897	6.58
304.267	6.48
304.637	6.4
305.008	6.42
305.378	6.51
305.748	6.42
306.117	6.3
306.487	6.33
306.857	6.31
307.227	6.41
307.597	6.32
307.967	6.17
308.336	6.34
308.706	6.4
309.076	6.62
309.445	6.63
309.815	6.64
310.184	6.75
310.554	6.78
310.923	6.9
311.293	6.81
311.662	6.89
312.031	6.82
312.401	6.91
312.77	6.88
313.139	6.86
313.508	6.86
313.877	6.93
314.246	6.84
314.616	7
314.985	6.9
315.353	7.08
315.722	7.17
316.091	7.32
316.46	7.14
316.829	6.88
317.198	6.79
317.567	6.87
317.935	6.96
318.304	7.13
318.672	7.17
319.041	7.18
319.41	6.97
319.778	6.99
320.147	6.83
320.515	6.96
320.883	7.03
321.252	7.08
321.62	7.07
321.988	7.06
322.357	6.99
322.725	7.12
323.093	7.08
323.461	6.81
323.829	6.83
324.197	6.95
324.565	7.11
324.933	7.04
325.301	6.91
325.669	6.96
326.037	6.95
326.405	6.88
326.772	6.77
327.14	6.76
327.508	6.85
327.875	6.95
328.243	6.84
328.61	6.88
328.978	6.63
329.346	6.57
329.713	6.54
330.08	6.65
330.448	6.6
330.815	6.5
331.182	6.69
331.55	6.56
331.917	6.61
332.284	6.51
332.651	6.65
333.018	6.67
333.385	6.64
333.752	6.56
334.119	6.54
334.486	6.57
334.853	6.63
335.22	6.54
335.587	6.4
335.954	6.4
336.32	6.35
336.687	6.51
337.054	6.59
337.42	6.61
337.787	6.54
338.153	6.57
338.52	6.77
338.886	6.91
339.253	6.89
339.619	6.83
339.986	6.84
340.352	6.84
340.718	6.93
341.084	6.95
341.451	7.07
341.817	7.05
342.183	7.12
342.549	7.22
342.915	7.35
343.281	7.51
343.647	7.48
344.013	7.54
344.379	7.57
344.745	7.5
345.11	7.51
345.476	7.6
345.842	7.58
346.208	7.53
346.573	7.38
346.939	7.32
347.304	7.33
347.67	7.37
348.035	7.27
348.401	7.3
348.766	7.21
349.132	7.12
349.497	7.15
349.862	7.12
350.228	7.15
350.593	7.12
350.958	7.07
351.323	7.19
351.688	7.17
352.053	7.18
352.418	7.18
352.783	7.15
353.148	7.01
353.513	7.02
353.878	7.07
354.243	7.08
354.608	7.21
354.972	7.08
355.337	7.08
355.702	7.1
356.066	7.1
356.431	7.08
356.795	7.16
357.16	7.12
357.524	7.15
357.889	7.04
358.253	6.98
358.618	6.97
358.982	6.93
359.346	6.91
359.71	6.89
360.075	6.86
360.439	6.93
360.803	7.06
361.167	7.03
361.531	6.94
361.895	6.89
362.259	6.82
362.623	6.88
362.987	6.88
363.351	6.9
363.714	6.86
364.078	6.89
364.442	6.76
364.806	6.75
365.169	6.74
365.533	6.76
365.896	6.84
366.26	6.82
366.623	6.87
366.987	6.87
367.35	6.89
367.714	6.9
368.077	6.86
368.44	6.75
368.803	6.74
369.167	6.74
369.53	6.83
369.893	6.87
370.256	6.79
370.619	6.79
370.982	6.72
371.345	6.73
371.708	6.71
372.071	6.76
372.434	6.77
372.797	6.79
373.159	6.79
373.522	6.72
373.885	6.76
374.247	6.71
374.61	6.68
374.973	6.7
375.335	6.71
375.698	6.71
376.06	6.66
376.423	6.74
376.785	6.73
377.147	6.72
377.51	6.69
377.872	6.8
378.234	6.77
378.596	6.84
378.958	6.83
379.321	6.86
379.683	6.91
380.045	6.9
380.407	6.89
380.769	6.86
381.13	6.89
381.492	6.81
381.854	6.76
382.216	6.83
382.578	6.81
382.939	6.79
383.301	6.79
383.663	6.81
384.024	6.8
384.386	6.79
384.747	6.74
385.109	6.74
385.47	6.74
385.832	6.76
386.193	6.75
386.554	6.69
386.916	6.69
387.277	6.68
387.638	6.76
387.999	6.75
388.36	6.77
388.721	6.8
389.082	6.87
389.443	6.9
389.804	6.86
390.165	6.83
390.526	6.82
390.887	6.85
391.248	6.86
391.609	6.85
391.969	6.86
392.33	6.92
392.691	6.91
393.051	6.89
393.412	6.85
393.772	6.81
394.133	6.83
394.493	6.79
394.854	6.8
395.214	6.78
395.574	6.78
395.935	6.81
396.295	6.77
396.655	6.74
397.015	6.74
397.376	6.78
397.736	6.8
398.096	6.84
398.456	6.8
398.816	6.77
399.176	6.75
399.535	6.72
399.895	6.69
400.255	6.68
400.615	6.7
400.975	6.73
401.334	6.76
401.694	6.76
402.054	6.78
402.413	6.77
402.773	6.72
403.132	6.7
403.492	6.68
403.851	6.68
404.211	6.64
404.57	6.62
404.929	6.58
405.288	6.58
405.648	6.58
406.007	6.57
406.366	6.6
406.725	6.61
407.084	6.66
407.443	6.69
407.802	6.7
408.161	6.7
408.52	6.71
408.879	6.73
409.238	6.74
409.596	6.74
409.955	6.7
410.314	6.69
410.673	6.68
411.031	6.64
411.39	6.63
411.748	6.66
412.107	6.69
412.465	6.67
412.824	6.65
413.182	6.63
413.54	6.62
413.899	6.63
414.257	6.62
414.615	6.56
414.974	6.54
415.332	6.57
415.69	6.56
416.048	6.55
416.406	6.52
416.764	6.51
417.122	6.51
417.48	6.55
417.838	6.55
418.195	6.55
418.553	6.57
418.911	6.57
419.269	6.58
419.626	6.56
419.984	6.56
420.342	6.59
420.699	6.61
421.057	6.64
421.414	6.63
421.772	6.63
422.129	6.65
422.486	6.63
422.844	6.62
423.201	6.62
423.558	6.62
423.915	6.63
424.273	6.62
424.63	6.63
424.987	6.61
425.344	6.63
425.701	6.64
426.058	6.65
426.415	6.63
426.772	6.64
427.128	6.66
427.485	6.67
427.842	6.64
428.199	6.63
428.555	6.6
428.912	6.57
429.269	6.57
429.625	6.56
429.982	6.56
430.338	6.57
430.695	6.55
431.051	6.56
431.407	6.54
431.764	6.56
432.12	6.57
432.476	6.57
432.832	6.55
433.189	6.53
433.545	6.51
433.901	6.52
434.257	6.51
434.613	6.51
434.969	6.5
435.325	6.49
435.681	6.5
436.036	6.5
436.392	6.53
436.748	6.54
437.104	6.57
437.459	6.59
437.815	6.57
438.171	6.57
438.526	6.57
438.882	6.57
439.237	6.57
439.593	6.55
439.948	6.56
440.304	6.56
440.659	6.58
441.014	6.61
441.369	6.61
441.725	6.61
442.08	6.59
442.435	6.61
442.79	6.61
443.145	6.59
443.5	6.59
443.855	6.59
444.21	6.6
444.565	6.57
444.92	6.58
445.275	6.59
445.629	6.59
445.984	6.6
446.339	6.6
446.693	6.6
447.048	6.61
447.403	6.6
447.757	6.59
448.112	6.6
448.466	6.58
448.82	6.57
449.175	6.56
449.529	6.56
449.883	6.56
450.238	6.55
450.592	6.57
450.946	6.57
451.3	6.57
451.654	6.53
452.008	6.54
452.362	6.5
452.716	6.51
453.07	6.51
453.424	6.48
453.778	6.48
454.132	6.48
454.486	6.46
454.839	6.48
455.193	6.5
455.547	6.5
455.9	6.52
456.254	6.54
456.607	6.55
456.961	6.55
457.314	6.56
457.668	6.55
458.021	6.56
458.375	6.54
458.728	6.53
459.081	6.56
459.434	6.53
459.787	6.56
460.141	6.54
460.494	6.55
460.847	6.55
461.2	6.57
461.553	6.56
461.906	6.56
462.259	6.53
462.611	6.5
462.964	6.48
463.317	6.45
463.67	6.44
464.022	6.44
464.375	6.44
464.728	6.43
465.08	6.43
465.433	6.45
465.785	6.48
466.138	6.47
466.49	6.48
466.843	6.52
467.195	6.53
467.547	6.51
467.899	6.53
468.252	6.53
468.604	6.52
468.956	6.53
469.308	6.56
469.66	6.6
470.012	6.64
470.364	6.63
470.716	6.66
471.068	6.63
471.42	6.65
471.772	6.64
472.123	6.65
472.475	6.65
472.827	6.65
473.178	6.64
473.53	6.66
473.882	6.66
474.233	6.66
474.585	6.67
474.936	6.7
475.288	6.67
475.639	6.69
475.99	6.66
476.342	6.69
476.693	6.67
477.044	6.67
477.395	6.68
477.746	6.71
478.097	6.7
478.448	6.71
478.8	6.69
479.15	6.7
479.501	6.69
479.852	6.69
480.203	6.68
480.554	6.7
480.905	6.69
481.255	6.7
481.606	6.71
481.957	6.72
482.307	6.73
482.658	6.74
483.009	6.75
483.359	6.78
483.709	6.77
484.06	6.78
484.41	6.77
484.761	6.77
485.111	6.77
485.461	6.78
485.811	6.78
486.162	6.79
486.512	6.8
486.862	6.81
487.212	6.81
487.562	6.82
487.912	6.81
488.262	6.81
488.612	6.81
488.961	6.79
489.311	6.76
489.661	6.75
490.011	6.75
490.36	6.75
490.71	6.73
491.06	6.72
491.409	6.72
491.759	6.73
492.108	6.73
492.458	6.73
492.807	6.72
493.157	6.72
493.506	6.72
493.855	6.72
494.204	6.69
494.554	6.69
494.903	6.68
495.252	6.68
495.601	6.71
495.95	6.68
496.299	6.71
496.648	6.72
496.997	6.74
497.346	6.75
497.695	6.74
498.043	6.74
498.392	6.75
498.741	6.75
499.09	6.75
499.438	6.75
499.787	6.75
500.135	6.75
500.484	6.75
500.832	6.75
501.181	6.76
501.529	6.78
501.878	6.78
502.226	6.8
502.574	6.8
502.923	6.79
503.271	6.8
503.619	6.8
503.967	6.81
504.315	6.81
504.663	6.8
505.011	6.82
505.359	6.81
505.707	6.82
506.055	6.82
506.403	6.82
506.751	6.84
507.098	6.87
507.446	6.87
507.794	6.87
508.141	6.87
508.489	6.88
508.837	6.9
509.184	6.91
509.531	6.92
509.879	6.95
510.226	6.94
510.574	6.94
510.921	6.94
511.268	6.95
511.616	6.96
511.963	6.95
512.31	6.95
512.657	6.96
513.004	6.96
513.351	6.96
513.698	6.96
514.045	6.95
514.392	6.95
514.739	6.95
515.086	6.95
515.432	6.95
515.779	6.93
516.126	6.93
516.473	6.94
516.819	6.95
517.166	6.96
517.512	6.95
517.859	6.96
518.205	6.96
518.552	6.95
518.898	6.97
519.245	7.01
519.591	7.03
519.937	7.04
520.283	7.05
520.629	7.05
520.976	7.06
521.322	7.05
521.668	7.03
522.014	7.04
522.36	7.08
522.706	7.08
523.052	7.08
523.398	7.08
523.743	7.1
524.089	7.08
524.435	7.06
524.781	7.08
525.126	7.09
525.472	7.11
525.817	7.12
526.163	7.12
526.509	7.12
526.854	7.11
527.199	7.11
527.545	7.11
527.89	7.12
528.235	7.13
528.581	7.14
528.926	7.16
529.271	7.16
529.616	7.13
529.961	7.15
530.306	7.15
530.651	7.15
530.996	7.16
531.341	7.16
531.686	7.16
532.031	7.15
532.376	7.15
532.721	7.14
533.065	7.14
533.41	7.14
533.755	7.12
534.099	7.1
534.444	7.1
534.788	7.1
535.133	7.09
535.477	7.08
535.822	7.06
536.166	7.06
536.51	7.06
536.855	7.06
537.199	7.06
537.543	7.06
537.887	7.08
538.231	7.07
538.576	7.07
538.92	7.09
539.264	7.1
539.608	7.11
539.951	7.11
540.295	7.14
540.639	7.16
540.983	7.14
541.327	7.16
541.671	7.17
542.014	7.19
542.358	7.2
542.701	7.2
543.045	7.23
543.389	7.24
543.732	7.24
544.075	7.25
544.419	7.25
544.762	7.26
545.105	7.26
545.449	7.27
545.792	7.29
546.135	7.31
546.478	7.3
546.821	7.32
547.165	7.33
547.508	7.32
547.851	7.29
548.194	7.3
548.536	7.31
548.879	7.28
549.222	7.26
549.565	7.25
549.908	7.22
550.25	7.2
550.593	7.16
550.936	7.15
551.278	7.16
551.621	7.16
551.963	7.16
552.306	7.15
552.648	7.13
552.991	7.11
553.333	7.05
553.675	7.07
554.017	7.04
554.36	7.04
554.702	7.03
555.044	7.06
555.386	7.08
555.728	7.06
556.07	7.07
556.412	7.08
556.754	7.07
557.096	7.1
557.438	7.11
557.78	7.1
558.121	7.13
558.463	7.11
558.805	7.09
559.147	7.08
559.488	7.07
559.83	7.05
560.171	7.02
560.513	7.06
560.854	7.06
561.196	7.08
561.537	7.06
561.878	7.08
562.22	7.08
562.561	7.08
562.902	7.09
563.243	7.11
563.584	7.1
563.925	7.11
564.266	7.09
564.607	7.07
564.948	7.09
565.289	7.11
565.63	7.13
565.971	7.14
566.312	7.15
566.653	7.18
566.993	7.21
567.334	7.24
567.675	7.23
568.015	7.22
568.356	7.19
568.696	7.19
569.037	7.18
569.377	7.15
569.718	7.17
570.058	7.14
570.398	7.12
570.739	7.1
571.079	7.12
571.419	7.15
571.759	7.17
572.099	7.18
572.439	7.14
572.779	7.15
573.119	7.17
573.459	7.16
573.799	7.16
574.139	7.14
574.479	7.16
574.819	7.17
575.158	7.19
575.498	7.21
575.838	7.22
576.177	7.2
576.517	7.22
576.856	7.2
577.196	7.2
577.535	7.23
577.875	7.25
578.214	7.25
578.553	7.23
578.893	7.25
579.232	7.22
579.571	7.26
579.91	7.24
580.25	7.18
580.589	7.17
580.928	7.14
581.267	7.15
581.606	7.16
581.945	7.13
582.283	7.09
582.622	7.07
582.961	7.07
583.3	7.09
583.639	7.13
583.977	7.13
584.316	7.18
584.654	7.23
584.993	7.24
585.332	7.24
585.67	7.25
586.008	7.22
586.347	7.27
586.685	7.24
587.024	7.23
587.362	7.31
587.7	7.31
588.038	7.37
588.376	7.34
588.715	7.32
589.053	7.36
589.391	7.39
589.729	7.43
590.067	7.43
590.404	7.43
590.742	7.38
591.08	7.41
591.418	7.42
591.756	7.37
592.093	7.35
592.431	7.38
592.769	7.38
593.106	7.38
593.444	7.39
593.781	7.44
594.119	7.44
594.456	7.41
594.793	7.4
595.131	7.34
595.468	7.41
595.805	7.44
596.143	7.46
596.48	7.43
596.817	7.44
597.154	7.43
597.491	7.49
597.828	7.51
598.165	7.49
598.502	7.47
598.839	7.46
599.176	7.49
599.512	7.44
599.849	7.44
600.186	7.45
600.523	7.42
600.859	7.44
601.196	7.44
601.532	7.42
601.869	7.48
602.205	7.45
602.542	7.43
602.878	7.39
603.215	7.36
603.551	7.37
603.887	7.39
604.223	7.4
604.56	7.31
604.896	7.34
605.232	7.32
605.568	7.32
605.904	7.31
606.24	7.33
606.576	7.38
606.912	7.39
607.248	7.42
607.583	7.45
607.919	7.42
608.255	7.45
608.591	7.48
608.926	7.41
609.262	7.46
609.597	7.42
609.933	7.44
610.268	7.43
610.604	7.47
610.939	7.47
611.275	7.48
611.61	7.53
611.945	7.45
612.281	7.46
612.616	7.51
612.951	7.54
613.286	7.45
613.621	7.39
613.956	7.42
614.291	7.39
614.626	7.33
614.961	7.32
615.296	7.33
615.631	7.37
615.966	7.39
616.3	7.39
616.635	7.43
616.97	7.37
617.304	7.36
617.639	7.35
617.973	7.28
618.308	7.27
618.642	7.25
618.977	7.36
619.311	7.41
619.646	7.36
619.98	7.34
620.314	7.39
620.648	7.41
620.983	7.38
621.317	7.35
621.651	7.37
621.985	7.39
622.319	7.35
622.653	7.29
622.987	7.32
623.321	7.34
623.655	7.38
623.988	7.45
624.322	7.51
624.656	7.47
624.99	7.51
625.323	7.49
625.657	7.46
625.99	7.36
626.324	7.34
626.657	7.33
626.991	7.34
627.324	7.33
627.658	7.32
627.991	7.35
628.324	7.38
628.657	7.37
628.991	7.38
629.324	7.39
629.657	7.42
629.99	7.41
630.323	7.4
630.656	7.38
630.989	7.37
631.322	7.33
631.655	7.34
631.987	7.33
632.32	7.32
632.653	7.38
632.986	7.43
633.318	7.51
633.651	7.5
633.984	7.48
634.316	7.53
634.649	7.58
634.981	7.55
635.313	7.56
635.646	7.58
635.978	7.62
636.31	7.61
636.643	7.63
636.975	7.71
637.307	7.74
637.639	7.71
637.971	7.65
638.303	7.65
638.635	7.66
638.967	7.69
639.299	7.73
639.631	7.79
639.963	7.78
640.295	7.75
640.626	7.82
640.958	7.84
641.29	7.84
641.621	7.81
641.953	7.77
642.285	7.78
642.616	7.83
642.948	7.79
643.279	7.76
643.61	7.74
643.942	7.68
644.273	7.75
644.604	7.78
644.936	7.81
645.267	7.88
645.598	7.93
645.929	7.84
646.26	7.8
646.591	7.78
646.922	7.78
647.253	7.74
647.584	7.68
647.915	7.76
648.245	7.74
648.576	7.73
648.907	7.81
649.238	7.75
649.568	7.74
649.899	7.67
650.229	7.72
650.56	7.69
650.89	7.69
651.221	7.53
651.551	7.52
651.882	7.44
652.212	7.42
652.542	7.35
652.872	7.39
653.203	7.44
653.533	7.36
653.863	7.38
654.193	7.4
654.523	7.43
654.853	7.37
655.183	7.37
655.513	7.4
655.843	7.36
656.172	7.42
656.502	7.36
656.832	7.41
657.162	7.36
657.491	7.33
657.821	7.36
658.15	7.38
658.48	7.43
658.809	7.56
659.139	7.54
659.468	7.57
659.798	7.56
660.127	7.54
660.456	7.59
660.785	7.57
661.115	7.57
661.444	7.56
661.773	7.61
662.102	7.6
662.431	7.59
662.76	7.64
663.089	7.6
663.418	7.62
663.747	7.66
664.076	7.75
664.404	7.84
664.733	7.82
665.062	7.87
665.39	7.76
665.719	7.68
666.048	7.71
666.376	7.69
666.705	7.77
667.033	7.82
667.362	7.75
667.69	7.79
668.018	7.83
668.347	7.87
668.675	7.83
669.003	7.8
669.331	7.8
669.659	7.73
669.987	7.74
670.315	7.71
670.643	7.64
670.971	7.56
671.299	7.5
671.627	7.39
671.955	7.34
672.283	7.39
672.61	7.39
672.938	7.39
673.266	7.44
673.593	7.35
673.921	7.25
674.249	7.27
674.576	7.29
674.904	7.22
675.231	7.22
675.558	7.23
675.886	7.23
676.213	7.25
676.54	7.34
676.867	7.39
677.195	7.44
677.522	7.5
