Data from BU58140_Reflection_00001.txt Node
Date: Tue Nov 19 10:53:18 EST 2019
User: vgr7
Spectrometer: USB2G7710
Scans to average: 3
Trigger mode: 4
Integration Time (sec): 2.000000E-2
Electric dark correction enabled: true
Boxcar width: 10
XAxis mode: Wavelengths
Number of Pixels in Spectrum: 2048
>>>>>Begin Spectral Data<<<<<
177.721	440.09
178.105	-2.56
178.488	-84.18
178.871	-338.1
179.254	-105.56
179.636	71.63
180.019	-239.74
180.402	766.67
180.785	-122.92
181.168	58.33
181.55	652.08
181.933	304.86
182.316	111.75
182.698	37.24
183.081	13.25
183.463	13.41
183.846	156.01
184.228	98.7
184.611	285.9
184.993	-78.33
185.376	4.62
185.758	2.32
186.14	-147.92
186.522	-53.76
186.904	-30.13
187.287	-46.88
187.669	-49.56
188.051	-75.46
188.433	-68.71
188.815	-41.22
189.197	-50.95
189.579	-28.4
189.961	-32.73
190.342	-26.47
190.724	-44.17
191.106	-18.11
191.488	-28.73
191.869	-24.33
192.251	-33.77
192.633	-37.71
193.014	-52.4
193.396	-46.59
193.777	-52.58
194.159	-39.05
194.54	-29.07
194.922	-28.3
195.303	-25.51
195.684	-31.41
196.065	-25.11
196.447	-23.56
196.828	-33.46
197.209	-30.95
197.59	-40.88
197.971	-36.92
198.352	-37.94
198.733	-40.17
199.114	-50.79
199.495	-41.82
199.876	-42.11
200.257	-39.99
200.638	-38.7
201.018	-36.84
201.399	-46.83
201.78	-55.04
202.16	-62.33
202.541	-73.31
202.922	-76.24
203.302	-78.91
203.683	-70.24
204.063	-73.37
204.444	-75.5
204.824	-74.83
205.204	-79.07
205.585	-62.09
205.965	-60.15
206.345	-65.03
206.725	-55.29
207.106	-54.42
207.486	-56.27
207.866	-53.53
208.246	-50.12
208.626	-54.3
209.006	-50.48
209.386	-47.51
209.766	-36.93
210.145	-33.94
210.525	-28.55
210.905	-25.07
211.285	-24.67
211.664	-26.85
212.044	-19.54
212.424	-16.05
212.803	-13.73
213.183	-12.13
213.562	-12.81
213.942	-18.02
214.321	-21.26
214.701	-18.54
215.08	-14.91
215.459	-16.6
215.838	-17.34
216.218	-13.81
216.597	-16.03
216.976	-19.75
217.355	-7.92
217.734	-15.46
218.113	-17.88
218.492	-21.17
218.871	-17.91
219.25	-22.11
219.629	-16.91
220.008	-15.06
220.387	-9.6
220.766	-19.28
221.144	-17.12
221.523	-16.63
221.902	-21.07
222.28	-5.16
222.659	-9.31
223.037	-4.27
223.416	2.49
223.794	5.51
224.173	2.47
224.551	-0.02
224.929	-3.64
225.308	-3.05
225.686	-0.79
226.064	4.44
226.442	7.26
226.821	3.29
227.199	3.54
227.577	1.45
227.955	-3.49
228.333	-5.49
228.711	-2.65
229.089	-3.57
229.467	-3.13
229.845	-1.73
230.222	-3.7
230.6	-4.47
230.978	-5.25
231.356	-5.61
231.733	-3.87
232.111	-2.86
232.488	-0.73
232.866	1.93
233.243	1.72
233.621	1.85
233.998	-0.53
234.376	-0.04
234.753	-0.15
235.13	0.9
235.508	2.07
235.885	3.73
236.262	3.41
236.639	2.78
237.016	2.93
237.393	3.32
237.77	3.2
238.147	2.67
238.524	3.33
238.901	2.83
239.278	1.96
239.655	1.48
240.032	0.93
240.409	0.71
240.785	0.72
241.162	0.07
241.539	0.27
241.915	0.84
242.292	1.05
242.668	1.69
243.045	1.84
243.421	2.14
243.798	2.04
244.174	2.34
244.551	2.59
244.927	2.72
245.303	2.68
245.679	2.91
246.056	2.91
246.432	2.92
246.808	3.32
247.184	3.73
247.56	3.82
247.936	4.02
248.312	4.22
248.688	4.23
249.064	4.66
249.44	4.91
249.815	4.92
250.191	4.94
250.567	4.75
250.943	4.69
251.318	4.47
251.694	4.48
252.069	4.33
252.445	4.21
252.82	4.41
253.196	4.65
253.571	4.44
253.947	4.66
254.322	4.67
254.697	4.45
255.073	4.52
255.448	4.51
255.823	4.56
256.198	4.45
256.573	4.45
256.948	4.25
257.323	3.8
257.698	3.78
258.073	3.64
258.448	3.79
258.823	3.81
259.198	3.91
259.573	3.73
259.948	3.73
260.322	3.7
260.697	3.75
261.072	3.59
261.446	3.58
261.821	3.49
262.195	3.36
262.57	3.36
262.944	3.32
263.319	3.2
263.693	3.11
264.067	3.15
264.442	3.09
264.816	3
265.19	2.97
265.564	2.91
265.938	3.02
266.313	2.87
266.687	2.81
267.061	2.94
267.435	3.25
267.809	3.26
268.183	3.4
268.556	3.09
268.93	3.25
269.304	3.46
269.678	3.62
270.051	3.79
270.425	3.78
270.799	3.68
271.172	3.84
271.546	3.9
271.919	3.92
272.293	3.87
272.666	4.08
273.04	4.17
273.413	4.12
273.787	3.95
274.16	3.88
274.533	4.07
274.906	3.92
275.279	3.79
275.653	3.89
276.026	3.89
276.399	4.11
276.772	3.91
277.145	3.68
277.518	3.48
277.891	3.47
278.263	3.42
278.636	3.38
279.009	3.31
279.382	3.25
279.755	3.1
280.127	3.23
280.5	3.02
280.872	3.09
281.245	3.21
281.617	3.37
281.99	3.55
282.362	3.35
282.735	3.35
283.107	3.36
283.479	3.55
283.852	3.61
284.224	3.59
284.596	3.72
284.968	3.64
285.34	3.71
285.713	3.75
286.085	3.76
286.457	3.9
286.829	3.9
287.201	3.89
287.572	3.92
287.944	3.9
288.316	4.09
288.688	4.14
289.06	4.15
289.431	4.17
289.803	4.23
290.175	4.24
290.546	4.23
290.918	4.29
291.289	3.94
291.661	3.97
292.032	3.89
292.403	3.98
292.775	4.29
293.146	4.37
293.517	4.18
293.889	4.18
294.26	4.18
294.631	4.24
295.002	4.31
295.373	4.33
295.744	4.35
296.115	4.27
296.486	4.21
296.857	4.27
297.228	4.26
297.599	4.19
297.97	4.44
298.34	4.46
298.711	4.6
299.082	4.72
299.452	4.57
299.823	4.63
300.194	4.56
300.564	4.41
300.935	4.48
301.305	4.62
301.676	4.61
302.046	4.47
302.416	4.38
302.787	4.41
303.157	4.5
303.527	4.53
303.897	4.37
304.267	4.47
304.637	4.33
305.008	4.28
305.378	4.36
305.748	4.23
306.117	4.26
306.487	4.02
306.857	4.22
307.227	4.44
307.597	4.4
307.967	4.51
308.336	4.61
308.706	4.64
309.076	4.7
309.445	4.74
309.815	4.8
310.184	4.9
310.554	4.89
310.923	4.79
311.293	4.82
311.662	5.03
312.031	4.97
312.401	4.98
312.77	4.98
313.139	4.98
313.508	4.93
313.877	5.09
314.246	5.31
314.616	5.28
314.985	5.12
315.353	5.12
315.722	5.14
316.091	5.15
316.46	4.98
316.829	5.04
317.198	5.16
317.567	5.29
317.935	5.29
318.304	5.45
318.672	5.62
319.041	5.54
319.41	5.57
319.778	5.54
320.147	5.67
320.515	5.69
320.883	5.63
321.252	5.62
321.62	5.59
321.988	5.42
322.357	5.32
322.725	5.35
323.093	5.34
323.461	5.34
323.829	5.28
324.197	5.32
324.565	5.16
324.933	5.06
325.301	4.87
325.669	4.93
326.037	4.84
326.405	4.77
326.772	4.81
327.14	4.78
327.508	4.74
327.875	4.67
328.243	4.68
328.61	4.76
328.978	4.7
329.346	4.58
329.713	4.51
330.08	4.49
330.448	4.5
330.815	4.55
331.182	4.56
331.55	4.65
331.917	4.67
332.284	4.75
332.651	4.74
333.018	4.96
333.385	4.87
333.752	4.81
334.119	4.83
334.486	4.76
334.853	4.77
335.22	4.79
335.587	4.84
335.954	4.82
336.32	4.79
336.687	4.91
337.054	4.9
337.42	5.05
337.787	5.11
338.153	5.2
338.52	5.21
338.886	5.19
339.253	5.07
339.619	5.02
339.986	4.99
340.352	5.06
340.718	5.02
341.084	5.1
341.451	5.12
341.817	5.01
342.183	5.08
342.549	5.13
342.915	5.23
343.281	5.26
343.647	5.24
344.013	5.14
344.379	5.13
344.745	5.1
345.11	5.12
345.476	5.1
345.842	4.95
346.208	5.03
346.573	5.05
346.939	5.09
347.304	5.16
347.67	5.19
348.035	5.07
348.401	5.04
348.766	4.96
349.132	4.98
349.497	5.1
349.862	5.14
350.228	5.04
350.593	5.03
350.958	5
351.323	5.05
351.688	5.14
352.053	5.12
352.418	5.19
352.783	5.19
353.148	5.26
353.513	5.33
353.878	5.32
354.243	5.26
354.608	5.3
354.972	5.26
355.337	5.23
355.702	5.3
356.066	5.24
356.431	5.34
356.795	5.32
357.16	5.35
357.524	5.35
357.889	5.4
358.253	5.34
358.618	5.36
358.982	5.37
359.346	5.38
359.71	5.38
360.075	5.4
360.439	5.41
360.803	5.41
361.167	5.41
361.531	5.35
361.895	5.35
362.259	5.32
362.623	5.31
362.987	5.31
363.351	5.29
363.714	5.33
364.078	5.25
364.442	5.23
364.806	5.24
365.169	5.22
365.533	5.26
365.896	5.28
366.26	5.28
366.623	5.26
366.987	5.27
367.35	5.33
367.714	5.35
368.077	5.32
368.44	5.3
368.803	5.27
369.167	5.25
369.53	5.3
369.893	5.3
370.256	5.28
370.619	5.34
370.982	5.3
371.345	5.37
371.708	5.43
372.071	5.43
372.434	5.35
372.797	5.32
373.159	5.25
373.522	5.21
373.885	5.16
374.247	5.2
374.61	5.19
374.973	5.21
375.335	5.19
375.698	5.15
376.06	5.14
376.423	5.16
376.785	5.19
377.147	5.16
377.51	5.18
377.872	5.23
378.234	5.19
378.596	5.26
378.958	5.2
379.321	5.14
379.683	5.16
380.045	5.17
380.407	5.17
380.769	5.2
381.13	5.23
381.492	5.27
381.854	5.28
382.216	5.28
382.578	5.26
382.939	5.26
383.301	5.3
383.663	5.29
384.024	5.29
384.386	5.3
384.747	5.29
385.109	5.32
385.47	5.36
385.832	5.36
386.193	5.34
386.554	5.32
386.916	5.36
387.277	5.37
387.638	5.38
387.999	5.35
388.36	5.31
388.721	5.3
389.082	5.29
389.443	5.3
389.804	5.3
390.165	5.28
390.526	5.26
390.887	5.28
391.248	5.28
391.609	5.34
391.969	5.35
392.33	5.36
392.691	5.35
393.051	5.3
393.412	5.32
393.772	5.36
394.133	5.34
394.493	5.32
394.854	5.32
395.214	5.32
395.574	5.33
395.935	5.32
396.295	5.32
396.655	5.29
397.015	5.25
397.376	5.22
397.736	5.23
398.096	5.22
398.456	5.15
398.816	5.16
399.176	5.08
399.535	5.04
399.895	5.06
400.255	5.06
400.615	5.06
400.975	5.03
401.334	4.98
401.694	5
402.054	4.98
402.413	4.98
402.773	4.97
403.132	4.97
403.492	4.98
403.851	4.99
404.211	5
404.57	5.03
404.929	5.03
405.288	5.03
405.648	5.04
406.007	5.09
406.366	5.09
406.725	5.11
407.084	5.14
407.443	5.11
407.802	5.09
408.161	5.1
408.52	5.14
408.879	5.13
409.238	5.14
409.596	5.14
409.955	5.13
410.314	5.16
410.673	5.18
411.031	5.21
411.39	5.22
411.748	5.24
412.107	5.25
412.465	5.26
412.824	5.27
413.182	5.25
413.54	5.21
413.899	5.21
414.257	5.22
414.615	5.2
414.974	5.21
415.332	5.2
415.69	5.2
416.048	5.21
416.406	5.22
416.764	5.21
417.122	5.22
417.48	5.22
417.838	5.2
418.195	5.2
418.553	5.17
418.911	5.14
419.269	5.13
419.626	5.11
419.984	5.11
420.342	5.11
420.699	5.12
421.057	5.11
421.414	5.11
421.772	5.1
422.129	5.1
422.486	5.1
422.844	5.09
423.201	5.07
423.558	5.06
423.915	5.05
424.273	5.04
424.63	5.04
424.987	5.04
425.344	5.03
425.701	5.02
426.058	5.02
426.415	5.04
426.772	5.03
427.128	5.04
427.485	5.03
427.842	5.01
428.199	5.01
428.555	5.04
428.912	5.02
429.269	5.01
429.625	5.02
429.982	5.01
430.338	5.04
430.695	5.04
431.051	5.02
431.407	5.05
431.764	5.06
432.12	5.07
432.476	5.08
432.832	5.08
433.189	5.1
433.545	5.09
433.901	5.1
434.257	5.11
434.613	5.1
434.969	5.08
435.325	5.1
435.681	5.09
436.036	5.07
436.392	5.08
436.748	5.09
437.104	5.1
437.459	5.1
437.815	5.08
438.171	5.1
438.526	5.11
438.882	5.09
439.237	5.09
439.593	5.09
439.948	5.11
440.304	5.1
440.659	5.1
441.014	5.1
441.369	5.1
441.725	5.1
442.08	5.11
442.435	5.13
442.79	5.11
443.145	5.11
443.5	5.11
443.855	5.1
444.21	5.1
444.565	5.09
444.92	5.08
445.275	5.08
445.629	5.08
445.984	5.07
446.339	5.07
446.693	5.08
447.048	5.06
447.403	5.03
447.757	5.03
448.112	5.01
448.466	5
448.82	5
449.175	4.98
449.529	4.98
449.883	4.96
450.238	4.96
450.592	4.97
450.946	4.97
451.3	4.97
451.654	4.96
452.008	4.94
452.362	4.94
452.716	4.93
453.07	4.94
453.424	4.94
453.778	4.94
454.132	4.91
454.486	4.93
454.839	4.94
455.193	4.94
455.547	4.95
455.9	4.95
456.254	4.95
456.607	4.95
456.961	4.96
457.314	4.96
457.668	4.96
458.021	4.94
458.375	4.95
458.728	4.94
459.081	4.96
459.434	4.95
459.787	4.98
460.141	4.99
460.494	4.98
460.847	4.98
461.2	4.98
461.553	4.99
461.906	4.98
462.259	4.97
462.611	4.97
462.964	4.97
463.317	4.99
463.67	4.97
464.022	4.99
464.375	4.98
464.728	4.98
465.08	5.01
465.433	5.03
465.785	5.04
466.138	5.04
466.49	5.06
466.843	5.08
467.195	5.07
467.547	5.08
467.899	5.1
468.252	5.1
468.604	5.11
468.956	5.11
469.308	5.12
469.66	5.14
470.012	5.15
470.364	5.16
470.716	5.16
471.068	5.18
471.42	5.2
471.772	5.18
472.123	5.18
472.475	5.19
472.827	5.19
473.178	5.19
473.53	5.21
473.882	5.19
474.233	5.19
474.585	5.21
474.936	5.2
475.288	5.2
475.639	5.2
475.99	5.2
476.342	5.22
476.693	5.24
477.044	5.24
477.395	5.24
477.746	5.24
478.097	5.22
478.448	5.21
478.8	5.2
479.15	5.21
479.501	5.22
479.852	5.22
480.203	5.21
480.554	5.22
480.905	5.22
481.255	5.23
481.606	5.23
481.957	5.24
482.307	5.24
482.658	5.24
483.009	5.25
483.359	5.25
483.709	5.24
484.06	5.23
484.41	5.22
484.761	5.23
485.111	5.22
485.461	5.22
485.811	5.23
486.162	5.22
486.512	5.22
486.862	5.22
487.212	5.23
487.562	5.23
487.912	5.22
488.262	5.22
488.612	5.22
488.961	5.22
489.311	5.2
489.661	5.19
490.011	5.18
490.36	5.17
490.71	5.16
491.06	5.18
491.409	5.17
491.759	5.18
492.108	5.17
492.458	5.18
492.807	5.18
493.157	5.18
493.506	5.18
493.855	5.18
494.204	5.16
494.554	5.16
494.903	5.14
495.252	5.15
495.601	5.14
495.95	5.12
496.299	5.13
496.648	5.16
496.997	5.16
497.346	5.17
497.695	5.17
498.043	5.17
498.392	5.17
498.741	5.18
499.09	5.21
499.438	5.21
499.787	5.22
500.135	5.23
500.484	5.21
500.832	5.21
501.181	5.2
501.529	5.24
501.878	5.23
502.226	5.25
502.574	5.25
502.923	5.26
503.271	5.27
503.619	5.27
503.967	5.26
504.315	5.28
504.663	5.28
505.011	5.29
505.359	5.29
505.707	5.28
506.055	5.3
506.403	5.3
506.751	5.29
507.098	5.3
507.446	5.31
507.794	5.35
508.141	5.36
508.489	5.38
508.837	5.36
509.184	5.35
509.531	5.35
509.879	5.37
510.226	5.36
510.574	5.38
510.921	5.36
511.268	5.35
511.616	5.35
511.963	5.35
512.31	5.36
512.657	5.37
513.004	5.37
513.351	5.36
513.698	5.37
514.045	5.38
514.392	5.37
514.739	5.39
515.086	5.39
515.432	5.39
515.779	5.4
516.126	5.42
516.473	5.42
516.819	5.44
517.166	5.44
517.512	5.44
517.859	5.42
518.205	5.43
518.552	5.44
518.898	5.46
519.245	5.47
519.591	5.46
519.937	5.47
520.283	5.49
520.629	5.48
520.976	5.48
521.322	5.48
521.668	5.48
522.014	5.48
522.36	5.47
522.706	5.47
523.052	5.47
523.398	5.46
523.743	5.47
524.089	5.48
524.435	5.47
524.781	5.49
525.126	5.49
525.472	5.52
525.817	5.52
526.163	5.53
526.509	5.54
526.854	5.56
527.199	5.56
527.545	5.56
527.89	5.57
528.235	5.58
528.581	5.58
528.926	5.58
529.271	5.59
529.616	5.59
529.961	5.59
530.306	5.59
530.651	5.6
530.996	5.61
531.341	5.61
531.686	5.62
532.031	5.62
532.376	5.63
532.721	5.62
533.065	5.62
533.41	5.62
533.755	5.62
534.099	5.61
534.444	5.61
534.788	5.6
535.133	5.62
535.477	5.6
535.822	5.6
536.166	5.61
536.51	5.59
536.855	5.59
537.199	5.59
537.543	5.6
537.887	5.6
538.231	5.6
538.576	5.6
538.92	5.6
539.264	5.6
539.608	5.61
539.951	5.61
540.295	5.61
540.639	5.61
540.983	5.61
541.327	5.61
541.671	5.61
542.014	5.61
542.358	5.6
542.701	5.62
543.045	5.62
543.389	5.62
543.732	5.62
544.075	5.62
544.419	5.62
544.762	5.62
545.105	5.62
545.449	5.62
545.792	5.63
546.135	5.62
546.478	5.62
546.821	5.62
547.165	5.64
547.508	5.64
547.851	5.62
548.194	5.59
548.536	5.57
548.879	5.57
549.222	5.55
549.565	5.56
549.908	5.55
550.25	5.58
550.593	5.56
550.936	5.59
551.278	5.6
551.621	5.62
551.963	5.64
552.306	5.61
552.648	5.61
552.991	5.6
553.333	5.61
553.675	5.62
554.017	5.63
554.36	5.58
554.702	5.58
555.044	5.61
555.386	5.63
555.728	5.64
556.07	5.64
556.412	5.66
556.754	5.63
557.096	5.64
557.438	5.61
557.78	5.59
558.121	5.59
558.463	5.57
558.805	5.56
559.147	5.56
559.488	5.56
559.83	5.58
560.171	5.58
560.513	5.56
560.854	5.55
561.196	5.56
561.537	5.58
561.878	5.58
562.22	5.57
562.561	5.58
562.902	5.57
563.243	5.59
563.584	5.58
563.925	5.62
564.266	5.6
564.607	5.61
564.948	5.63
565.289	5.64
565.63	5.63
565.971	5.63
566.312	5.61
566.653	5.6
566.993	5.55
567.334	5.55
567.675	5.56
568.015	5.55
568.356	5.55
568.696	5.59
569.037	5.58
569.377	5.57
569.718	5.57
570.058	5.58
570.398	5.57
570.739	5.57
571.079	5.56
571.419	5.57
571.759	5.58
572.099	5.56
572.439	5.56
572.779	5.57
573.119	5.58
573.459	5.6
573.799	5.6
574.139	5.61
574.479	5.63
574.819	5.65
575.158	5.68
575.498	5.69
575.838	5.68
576.177	5.67
576.517	5.67
576.856	5.67
577.196	5.67
577.535	5.63
577.875	5.63
578.214	5.61
578.553	5.59
578.893	5.59
579.232	5.59
579.571	5.6
579.91	5.61
580.25	5.6
580.589	5.58
580.928	5.6
581.267	5.64
581.606	5.65
581.945	5.64
582.283	5.61
582.622	5.6
582.961	5.6
583.3	5.6
583.639	5.61
583.977	5.65
584.316	5.66
584.654	5.69
584.993	5.7
585.332	5.75
585.67	5.77
586.008	5.76
586.347	5.8
586.685	5.79
587.024	5.8
587.362	5.81
587.7	5.84
588.038	5.85
588.376	5.84
588.715	5.84
589.053	5.84
589.391	5.83
589.729	5.84
590.067	5.83
590.404	5.85
590.742	5.84
591.08	5.81
591.418	5.84
591.756	5.86
592.093	5.85
592.431	5.83
592.769	5.82
593.106	5.83
593.444	5.86
593.781	5.89
594.119	5.9
594.456	5.87
594.793	5.83
595.131	5.8
595.468	5.8
595.805	5.77
596.143	5.76
596.48	5.77
596.817	5.8
597.154	5.79
597.491	5.8
597.828	5.78
598.165	5.8
598.502	5.79
598.839	5.76
599.176	5.78
599.512	5.77
599.849	5.76
600.186	5.76
600.523	5.69
600.859	5.67
601.196	5.67
601.532	5.68
601.869	5.72
602.205	5.73
602.542	5.76
602.878	5.78
603.215	5.76
603.551	5.78
603.887	5.74
604.223	5.8
604.56	5.76
604.896	5.82
605.232	5.83
605.568	5.81
605.904	5.84
606.24	5.84
606.576	5.86
606.912	5.85
607.248	5.86
607.583	5.9
607.919	5.9
608.255	5.89
608.591	5.89
608.926	5.91
609.262	5.91
609.597	5.93
609.933	5.89
610.268	5.88
610.604	5.86
610.939	5.91
611.275	5.87
611.61	5.88
611.945	5.83
612.281	5.82
612.616	5.89
612.951	5.91
613.286	5.89
613.621	5.91
613.956	5.97
614.291	5.94
614.626	5.92
614.961	5.95
615.296	6.02
615.631	6
615.966	6.01
616.3	6.04
616.635	5.99
616.97	6.02
617.304	6.04
617.639	6.05
617.973	6.01
618.308	6.05
618.642	6.01
618.977	6.04
619.311	6.05
619.646	6.02
619.98	5.98
620.314	5.99
620.648	5.97
620.983	5.92
621.317	5.94
621.651	5.94
621.985	5.92
622.319	5.86
622.653	5.94
622.987	5.87
623.321	5.9
623.655	5.91
623.988	5.93
624.322	5.96
624.656	5.93
624.99	5.95
625.323	5.87
625.657	5.95
625.99	5.95
626.324	5.94
626.657	5.91
626.991	5.97
627.324	5.97
627.658	5.97
627.991	6
628.324	5.96
628.657	6.01
628.991	5.99
629.324	5.98
629.657	5.96
629.99	6
630.323	5.95
630.656	5.91
630.989	5.94
631.322	5.89
631.655	5.92
631.987	5.92
632.32	5.95
632.653	5.92
632.986	5.94
633.318	5.95
633.651	5.96
633.984	5.94
634.316	5.94
634.649	5.94
634.981	5.9
635.313	5.95
635.646	5.92
635.978	5.97
636.31	5.99
636.643	5.99
636.975	6
637.307	6
637.639	6.01
637.971	5.98
638.303	5.99
638.635	5.99
638.967	5.99
639.299	5.99
639.631	5.99
639.963	6
640.295	6.05
640.626	6.05
640.958	6.08
641.29	6.09
641.621	6.09
641.953	6.09
642.285	6.11
642.616	6.1
642.948	6.1
643.279	6.05
643.61	5.99
643.942	5.98
644.273	5.96
644.604	5.99
644.936	5.95
645.267	5.94
645.598	5.97
645.929	5.98
646.26	6.02
646.591	6.03
646.922	6.07
647.253	5.94
647.584	5.99
647.915	5.89
648.245	5.89
648.576	5.84
648.907	5.83
649.238	5.79
649.568	5.75
649.899	5.77
650.229	5.85
650.56	5.88
650.89	5.9
651.221	5.96
651.551	5.94
651.882	6.01
652.212	6.1
652.542	6.09
652.872	6.01
653.203	5.95
653.533	5.95
653.863	5.89
654.193	5.94
654.523	5.92
654.853	6.03
655.183	6.04
655.513	6.1
655.843	6.12
656.172	6.18
656.502	6.19
656.832	6.17
657.162	6.12
657.491	6.12
657.821	6.1
658.15	6.08
658.48	6.11
658.809	6.06
659.139	5.99
659.468	5.99
659.798	6.09
660.127	6.13
660.456	6.1
660.785	6.12
661.115	6.13
661.444	6.21
661.773	6.16
662.102	6.1
662.431	6.07
662.76	6.08
663.089	6.06
663.418	6.06
663.747	6.06
664.076	6.07
664.404	6.11
664.733	6.13
665.062	6.14
665.39	6.12
665.719	6.2
666.048	6.23
666.376	6.21
666.705	6.24
667.033	6.22
667.362	6.23
667.69	6.22
668.018	6.26
668.347	6.15
668.675	6.13
669.003	6.13
669.331	6.15
669.659	6.1
669.987	6.12
670.315	6.13
670.643	6.1
670.971	6.12
671.299	6.08
671.627	6.07
671.955	6.04
672.283	6.12
672.61	6.08
672.938	6.14
673.266	6.08
673.593	5.93
673.921	5.98
674.249	6.05
674.576	6.04
674.904	6.04
675.231	6.11
675.558	6.15
675.886	6.16
676.213	6.13
676.54	6.18
676.867	6.17
677.195	6.26
677.522	6.33
677.849	6.38
678.176	6.44
