Data from BU58119_Reflection_00007.txt Node
Date: Tue Nov 19 10:50:52 EST 2019
User: vgr7
Spectrometer: USB2G7710
Scans to average: 3
Trigger mode: 4
Integration Time (sec): 2.000000E-2
Electric dark correction enabled: true
Boxcar width: 10
XAxis mode: Wavelengths
Number of Pixels in Spectrum: 2048
>>>>>Begin Spectral Data<<<<<
177.721	237.38
178.105	95.15
178.488	-93.08
178.871	-495.45
179.254	-460
179.636	207.76
180.019	-136.05
180.402	11.11
180.785	-372.73
181.168	48.05
181.55	82.33
181.933	54.44
182.316	117.94
182.698	30.27
183.081	14.08
183.463	59.18
183.846	115.52
184.228	430.94
184.611	293.68
184.993	195.77
185.376	363.54
185.758	-862.62
186.14	-153.73
186.522	-19.31
186.904	36.71
187.287	-22.49
187.669	20
188.051	-1.22
188.433	17.09
188.815	27.07
189.197	30.5
189.579	29.25
189.961	9.92
190.342	25.74
190.724	27.96
191.106	26.13
191.488	19.75
191.869	24.53
192.251	16.86
192.633	24.45
193.014	30.36
193.396	33.94
193.777	35.02
194.159	29.63
194.54	29.75
194.922	26.13
195.303	30.98
195.684	26.34
196.065	24.45
196.447	-5.03
196.828	-15.03
197.209	-27.06
197.59	-17.44
197.971	-10.16
198.352	-15.93
198.733	-34.37
199.114	-33.15
199.495	-36.73
199.876	-62.74
200.257	-32.87
200.638	-29.87
201.018	519.35
201.399	96.59
201.78	207.81
202.16	150.75
202.541	438.98
202.922	294.63
203.302	-53.85
203.683	620
204.063	-257.89
204.444	654.46
204.824	14900
205.204	153.75
205.585	144.93
205.965	122.57
206.345	114.69
206.725	77.04
207.106	60.1
207.486	38.46
207.866	30.6
208.246	35.29
208.626	28.12
209.006	44.1
209.386	32.68
209.766	22.45
210.145	13.72
210.525	15.74
210.905	21.86
211.285	21.79
211.664	21.92
212.044	18.91
212.424	10.03
212.803	1.11
213.183	-9.76
213.562	1.53
213.942	-4.47
214.321	-11.37
214.701	-9.71
215.08	-12.86
215.459	-6.15
215.838	-15
216.218	-35.05
216.597	-27.71
216.976	-46.27
217.355	-39.41
217.734	-47.03
218.113	-32.87
218.492	-36.38
218.871	-36.67
219.25	-37.1
219.629	-32.7
220.008	-27.93
220.387	-32.38
220.766	-23.19
221.144	-16.89
221.523	-50.25
221.902	-47.45
222.28	-29.77
222.659	-7.75
223.037	-3.12
223.416	7.97
223.794	9.65
224.173	8.7
224.551	10.25
224.929	17.88
225.308	14.95
225.686	18.42
226.064	10.47
226.442	20.29
226.821	20.14
227.199	20.49
227.577	14.71
227.955	18.87
228.333	17.3
228.711	17.67
229.089	14.49
229.467	15.44
229.845	12.63
230.222	13.94
230.6	12.27
230.978	12.92
231.356	9.51
231.733	11.03
232.111	11.57
232.488	11.92
232.866	13.04
233.243	10.87
233.621	9.82
233.998	9.53
234.376	8.09
234.753	6.07
235.13	5.19
235.508	4.94
235.885	3.76
236.262	4.5
236.639	5.48
237.016	6.49
237.393	7.3
237.77	7.94
238.147	6.86
238.524	6.01
238.901	5.2
239.278	5.02
239.655	4.39
240.032	4.2
240.409	4.25
240.785	4.08
241.162	4.09
241.539	3.7
241.915	3.6
242.292	3.66
242.668	3.91
243.045	3.89
243.421	3.88
243.798	3.68
244.174	3.38
244.551	3.02
244.927	2.92
245.303	2.5
245.679	2.51
246.056	2.22
246.432	1.99
246.808	2.09
247.184	2.13
247.56	2.24
247.936	2.39
248.312	2.17
248.688	2.02
249.064	2.08
249.44	2.17
249.815	2.19
250.191	1.98
250.567	1.86
250.943	2.09
251.318	1.88
251.694	1.69
252.069	1.68
252.445	1.64
252.82	1.89
253.196	2.2
253.571	2.61
253.947	3.13
254.322	3.3
254.697	3.07
255.073	3.28
255.448	2.89
255.823	2.83
256.198	3.09
256.573	3.24
256.948	3.05
257.323	3.2
257.698	3.04
258.073	3.18
258.448	3.06
258.823	2.89
259.198	3.03
259.573	3.07
259.948	3.14
260.322	3.12
260.697	3.14
261.072	3.06
261.446	2.8
261.821	2.66
262.195	2.73
262.57	2.93
262.944	2.81
263.319	3.13
263.693	3.18
264.067	3.09
264.442	3.2
264.816	3.25
265.19	3.35
265.564	3.51
265.938	3.53
266.313	3.59
266.687	3.68
267.061	3.55
267.435	3.72
267.809	3.49
268.183	3.44
268.556	3.48
268.93	3.56
269.304	3.52
269.678	3.53
270.051	3.47
270.425	3.26
270.799	3.24
271.172	3.23
271.546	3.32
271.919	3.28
272.293	3.09
272.666	3.14
273.04	2.9
273.413	2.76
273.787	2.62
274.16	2.45
274.533	2.5
274.906	2.53
275.279	2.46
275.653	2.58
276.026	2.58
276.399	2.36
276.772	2.3
277.145	2.39
277.518	2.17
277.891	2.12
278.263	2.13
278.636	2.12
279.009	1.99
279.382	1.72
279.755	1.62
280.127	1.74
280.5	1.81
280.872	1.91
281.245	2.12
281.617	2.29
281.99	2.54
282.362	2.42
282.735	2.31
283.107	2.17
283.479	2.11
283.852	2.2
284.224	2.16
284.596	2.13
284.968	2.1
285.34	2.29
285.713	2.45
286.085	2.31
286.457	2.36
286.829	2.38
287.201	2.38
287.572	2.49
287.944	2.42
288.316	2.32
288.688	2.48
289.06	2.36
289.431	2.48
289.803	2.46
290.175	2.5
290.546	2.57
290.918	2.66
291.289	2.59
291.661	2.6
292.032	2.62
292.403	2.59
292.775	2.71
293.146	2.77
293.517	2.65
293.889	2.81
294.26	2.76
294.631	2.96
295.002	3.13
295.373	3.19
295.744	3.31
296.115	3.5
296.486	3.48
296.857	3.52
297.228	3.41
297.599	3.43
297.97	3.46
298.34	3.57
298.711	3.55
299.082	3.73
299.452	3.77
299.823	3.82
300.194	4.01
300.564	3.99
300.935	3.96
301.305	4.05
301.676	4.11
302.046	4.26
302.416	4.09
302.787	4.13
303.157	4.14
303.527	4.17
303.897	4.01
304.267	4.1
304.637	4.24
305.008	4.38
305.378	4.56
305.748	4.66
306.117	4.73
306.487	4.87
306.857	5.02
307.227	5.16
307.597	5.28
307.967	5.13
308.336	5.12
308.706	5.22
309.076	5.33
309.445	5.58
309.815	5.52
310.184	5.67
310.554	5.65
310.923	5.57
311.293	5.55
311.662	5.9
312.031	5.83
312.401	5.95
312.77	5.97
313.139	6.06
313.508	5.98
313.877	6.06
314.246	6.11
314.616	6.17
314.985	6.1
315.353	6.16
315.722	6.5
316.091	6.68
316.46	6.73
316.829	6.66
317.198	6.57
317.567	6.79
317.935	6.83
318.304	7
318.672	7.44
319.041	7.55
319.41	7.41
319.778	7.59
320.147	7.5
320.515	7.44
320.883	7.32
321.252	7.51
321.62	7.48
321.988	7.5
322.357	7.51
322.725	7.53
323.093	7.47
323.461	7.35
323.829	7.31
324.197	7.34
324.565	7.65
324.933	7.62
325.301	7.49
325.669	7.56
326.037	7.52
326.405	7.4
326.772	7.38
327.14	7.29
327.508	7.28
327.875	7.34
328.243	7.54
328.61	7.72
328.978	7.69
329.346	7.85
329.713	7.89
330.08	7.94
330.448	8.03
330.815	8.2
331.182	8.22
331.55	8.28
331.917	8.31
332.284	8.31
332.651	8.41
333.018	8.51
333.385	8.5
333.752	8.63
334.119	8.75
334.486	8.93
334.853	9.16
335.22	9.18
335.587	9.15
335.954	9.1
336.32	8.97
336.687	9.08
337.054	9.05
337.42	9.18
337.787	9.13
338.153	9.22
338.52	9.3
338.886	9.34
339.253	9.28
339.619	9.38
339.986	9.31
340.352	9.26
340.718	9.38
341.084	9.35
341.451	9.34
341.817	9.29
342.183	9.17
342.549	9.1
342.915	9.13
343.281	9.25
343.647	9.18
344.013	9.26
344.379	9.24
344.745	9.29
345.11	9.12
345.476	9.21
345.842	9.14
346.208	9.06
346.573	9.06
346.939	9.2
347.304	9.23
347.67	9.21
348.035	9.2
348.401	9.13
348.766	9.05
349.132	9.06
349.497	9.07
349.862	9.14
350.228	9.21
350.593	9.08
350.958	9
351.323	9.02
351.688	9.07
352.053	9.09
352.418	9.02
352.783	9.08
353.148	9.01
353.513	9.01
353.878	8.94
354.243	8.88
354.608	8.73
354.972	8.73
355.337	8.77
355.702	8.78
356.066	8.75
356.431	8.81
356.795	8.79
357.16	8.62
357.524	8.58
357.889	8.43
358.253	8.44
358.618	8.38
358.982	8.4
359.346	8.3
359.71	8.23
360.075	8.23
360.439	8.26
360.803	8.25
361.167	8.21
361.531	8.24
361.895	8.22
362.259	8.27
362.623	8.27
362.987	8.2
363.351	8.15
363.714	8.12
364.078	8.17
364.442	8.1
364.806	8.13
365.169	8.05
365.533	8.11
365.896	8.15
366.26	8.13
366.623	8.09
366.987	8.03
367.35	8.03
367.714	7.98
368.077	7.95
368.44	7.89
368.803	7.83
369.167	7.72
369.53	7.74
369.893	7.68
370.256	7.52
370.619	7.44
370.982	7.36
371.345	7.4
371.708	7.35
372.071	7.28
372.434	7.22
372.797	7.2
373.159	7.1
373.522	6.97
373.885	6.91
374.247	6.91
374.61	6.91
374.973	6.85
375.335	6.79
375.698	6.65
376.06	6.53
376.423	6.47
376.785	6.47
377.147	6.37
377.51	6.28
377.872	6.21
378.234	6.15
378.596	6.13
378.958	6.05
379.321	5.93
379.683	5.9
380.045	5.85
380.407	5.78
380.769	5.71
381.13	5.64
381.492	5.56
381.854	5.46
382.216	5.4
382.578	5.32
382.939	5.27
383.301	5.24
383.663	5.28
384.024	5.27
384.386	5.15
384.747	5.14
385.109	5.08
385.47	5.08
385.832	5.03
386.193	5
386.554	4.86
386.916	4.79
387.277	4.71
387.638	4.68
387.999	4.68
388.36	4.62
388.721	4.62
389.082	4.66
389.443	4.61
389.804	4.61
390.165	4.57
390.526	4.55
390.887	4.49
391.248	4.43
391.609	4.4
391.969	4.42
392.33	4.36
392.691	4.33
393.051	4.26
393.412	4.25
393.772	4.21
394.133	4.19
394.493	4.18
394.854	4.16
395.214	4.14
395.574	4.05
395.935	4.04
396.295	4.01
396.655	3.99
397.015	3.97
397.376	3.93
397.736	3.87
398.096	3.82
398.456	3.85
398.816	3.85
399.176	3.77
399.535	3.71
399.895	3.68
400.255	3.67
400.615	3.66
400.975	3.65
401.334	3.62
401.694	3.6
402.054	3.56
402.413	3.55
402.773	3.56
403.132	3.55
403.492	3.51
403.851	3.49
404.211	3.39
404.57	3.4
404.929	3.33
405.288	3.35
405.648	3.33
406.007	3.27
406.366	3.22
406.725	3.22
407.084	3.21
407.443	3.18
407.802	3.17
408.161	3.18
408.52	3.17
408.879	3.12
409.238	3.15
409.596	3.15
409.955	3.15
410.314	3.12
410.673	3.09
411.031	3.1
411.39	3.09
411.748	3.07
412.107	3.03
412.465	3.03
412.824	3
413.182	2.97
413.54	2.96
413.899	2.97
414.257	2.97
414.615	2.97
414.974	2.99
415.332	2.99
415.69	2.94
416.048	2.92
416.406	2.92
416.764	2.88
417.122	2.85
417.48	2.84
417.838	2.82
418.195	2.81
418.553	2.79
418.911	2.77
419.269	2.79
419.626	2.78
419.984	2.77
420.342	2.77
420.699	2.75
421.057	2.73
421.414	2.72
421.772	2.7
422.129	2.69
422.486	2.67
422.844	2.65
423.201	2.64
423.558	2.63
423.915	2.62
424.273	2.61
424.63	2.6
424.987	2.58
425.344	2.58
425.701	2.57
426.058	2.56
426.415	2.55
426.772	2.53
427.128	2.52
427.485	2.52
427.842	2.49
428.199	2.49
428.555	2.5
428.912	2.49
429.269	2.47
429.625	2.45
429.982	2.43
430.338	2.44
430.695	2.41
431.051	2.41
431.407	2.41
431.764	2.41
432.12	2.43
432.476	2.44
432.832	2.46
433.189	2.46
433.545	2.45
433.901	2.46
434.257	2.46
434.613	2.47
434.969	2.45
435.325	2.47
435.681	2.45
436.036	2.46
436.392	2.46
436.748	2.48
437.104	2.48
437.459	2.48
437.815	2.46
438.171	2.46
438.526	2.46
438.882	2.44
439.237	2.45
439.593	2.46
439.948	2.46
440.304	2.42
440.659	2.41
441.014	2.41
441.369	2.41
441.725	2.4
442.08	2.39
442.435	2.43
442.79	2.4
443.145	2.4
443.5	2.38
443.855	2.39
444.21	2.37
444.565	2.38
444.92	2.38
445.275	2.38
445.629	2.4
445.984	2.4
446.339	2.4
446.693	2.4
447.048	2.39
447.403	2.37
447.757	2.36
448.112	2.37
448.466	2.37
448.82	2.37
449.175	2.37
449.529	2.36
449.883	2.32
450.238	2.34
450.592	2.34
450.946	2.35
451.3	2.33
451.654	2.33
452.008	2.32
452.362	2.32
452.716	2.32
453.07	2.3
453.424	2.29
453.778	2.29
454.132	2.27
454.486	2.26
454.839	2.28
455.193	2.3
455.547	2.3
455.9	2.31
456.254	2.32
456.607	2.31
456.961	2.31
457.314	2.31
457.668	2.29
458.021	2.29
458.375	2.28
458.728	2.28
459.081	2.28
459.434	2.28
459.787	2.27
460.141	2.27
460.494	2.28
460.847	2.29
461.2	2.29
461.553	2.3
461.906	2.31
462.259	2.3
462.611	2.32
462.964	2.33
463.317	2.32
463.67	2.31
464.022	2.33
464.375	2.34
464.728	2.35
465.08	2.36
465.433	2.38
465.785	2.4
466.138	2.42
466.49	2.45
466.843	2.48
467.195	2.49
467.547	2.51
467.899	2.52
468.252	2.51
468.604	2.52
468.956	2.53
469.308	2.53
469.66	2.57
470.012	2.56
470.364	2.54
470.716	2.56
471.068	2.59
471.42	2.58
471.772	2.58
472.123	2.6
472.475	2.61
472.827	2.61
473.178	2.59
473.53	2.61
473.882	2.6
474.233	2.59
474.585	2.6
474.936	2.59
475.288	2.59
475.639	2.61
475.99	2.6
476.342	2.61
476.693	2.61
477.044	2.61
477.395	2.58
477.746	2.6
478.097	2.59
478.448	2.56
478.8	2.55
479.15	2.54
479.501	2.53
479.852	2.53
480.203	2.52
480.554	2.53
480.905	2.5
481.255	2.49
481.606	2.48
481.957	2.47
482.307	2.46
482.658	2.46
483.009	2.44
483.359	2.44
483.709	2.44
484.06	2.43
484.41	2.41
484.761	2.42
485.111	2.42
485.461	2.42
485.811	2.42
486.162	2.43
486.512	2.43
486.862	2.41
487.212	2.42
487.562	2.42
487.912	2.41
488.262	2.42
488.612	2.43
488.961	2.42
489.311	2.42
489.661	2.42
490.011	2.41
490.36	2.41
490.71	2.42
491.06	2.43
491.409	2.43
491.759	2.44
492.108	2.43
492.458	2.44
492.807	2.44
493.157	2.45
493.506	2.46
493.855	2.47
494.204	2.49
494.554	2.48
494.903	2.48
495.252	2.5
495.601	2.52
495.95	2.54
496.299	2.58
496.648	2.63
496.997	2.67
497.346	2.71
497.695	2.74
498.043	2.78
498.392	2.8
498.741	2.83
499.09	2.89
499.438	2.94
499.787	2.97
500.135	3
500.484	3.03
500.832	3.06
501.181	3.1
501.529	3.16
501.878	3.23
502.226	3.31
502.574	3.37
502.923	3.41
503.271	3.45
503.619	3.5
503.967	3.53
504.315	3.56
504.663	3.63
505.011	3.69
505.359	3.74
505.707	3.79
506.055	3.85
506.403	3.89
506.751	3.96
507.098	4.05
507.446	4.12
507.794	4.21
508.141	4.29
508.489	4.36
508.837	4.43
509.184	4.49
509.531	4.55
509.879	4.62
510.226	4.69
510.574	4.78
510.921	4.88
511.268	4.96
511.616	5.07
511.963	5.15
512.31	5.25
512.657	5.35
513.004	5.44
513.351	5.53
513.698	5.66
514.045	5.77
514.392	5.87
514.739	6
515.086	6.11
515.432	6.24
515.779	6.36
516.126	6.48
516.473	6.6
516.819	6.71
517.166	6.81
517.512	6.91
517.859	7.02
518.205	7.09
518.552	7.2
518.898	7.3
519.245	7.39
519.591	7.49
519.937	7.58
520.283	7.71
520.629	7.83
520.976	7.93
521.322	8.05
521.668	8.17
522.014	8.29
522.36	8.4
522.706	8.51
523.052	8.66
523.398	8.77
523.743	8.9
524.089	9.03
524.435	9.16
524.781	9.29
525.126	9.41
525.472	9.51
525.817	9.61
526.163	9.69
526.509	9.77
526.854	9.86
527.199	9.95
527.545	10.01
527.89	10.1
528.235	10.18
528.581	10.27
528.926	10.36
529.271	10.44
529.616	10.53
529.961	10.62
530.306	10.71
530.651	10.83
530.996	10.93
531.341	11.06
531.686	11.19
532.031	11.32
532.376	11.45
532.721	11.6
533.065	11.75
533.41	11.9
533.755	12.07
534.099	12.22
534.444	12.38
534.788	12.54
535.133	12.69
535.477	12.87
535.822	13.02
536.166	13.2
536.51	13.37
536.855	13.57
537.199	13.76
537.543	13.97
537.887	14.17
538.231	14.35
538.576	14.54
538.92	14.71
539.264	14.91
539.608	15.07
539.951	15.21
540.295	15.37
540.639	15.54
540.983	15.69
541.327	15.86
541.671	16.04
542.014	16.22
542.358	16.37
542.701	16.51
543.045	16.69
543.389	16.87
543.732	17.07
544.075	17.24
544.419	17.45
544.762	17.65
545.105	17.87
545.449	18.13
545.792	18.39
546.135	18.67
546.478	18.94
546.821	19.25
547.165	19.59
547.508	19.88
547.851	20.21
548.194	20.48
548.536	20.78
548.879	21.05
549.222	21.31
549.565	21.65
549.908	21.92
550.25	22.22
550.593	22.48
550.936	22.79
551.278	23.11
551.621	23.42
551.963	23.7
552.306	23.99
552.648	24.29
552.991	24.51
553.333	24.74
553.675	24.99
554.017	25.2
554.36	25.4
554.702	25.66
555.044	25.89
555.386	26.14
555.728	26.38
556.07	26.61
556.412	26.88
556.754	27.12
557.096	27.42
557.438	27.67
557.78	27.91
558.121	28.14
558.463	28.32
558.805	28.5
559.147	28.71
559.488	28.86
559.83	29.06
560.171	29.26
560.513	29.41
560.854	29.57
561.196	29.74
561.537	29.86
561.878	29.99
562.22	30.05
562.561	30.19
562.902	30.23
563.243	30.34
563.584	30.47
563.925	30.54
564.266	30.57
564.607	30.68
564.948	30.77
565.289	30.95
565.63	31.11
565.971	31.21
566.312	31.3
566.653	31.41
566.993	31.49
567.334	31.59
567.675	31.68
568.015	31.72
568.356	31.81
568.696	31.94
569.037	32
569.377	32.08
569.718	32.18
570.058	32.29
570.398	32.39
570.739	32.44
571.079	32.56
571.419	32.68
571.759	32.76
572.099	32.86
572.439	32.84
572.779	32.89
573.119	32.98
573.459	33.11
573.799	33.18
574.139	33.22
574.479	33.35
574.819	33.51
575.158	33.69
575.498	33.8
575.838	33.91
576.177	34.12
576.517	34.39
576.856	34.55
577.196	34.79
577.535	34.98
577.875	35.23
578.214	35.42
578.553	35.59
578.893	35.75
579.232	36
579.571	36.28
579.91	36.49
580.25	36.73
580.589	36.86
580.928	37.11
581.267	37.32
581.606	37.48
581.945	37.63
582.283	37.75
582.622	37.9
582.961	38.08
583.3	38.19
583.639	38.26
583.977	38.34
584.316	38.36
584.654	38.43
584.993	38.43
585.332	38.42
585.67	38.49
586.008	38.57
586.347	38.52
586.685	38.49
587.024	38.51
587.362	38.49
587.7	38.55
588.038	38.52
588.376	38.44
588.715	38.47
589.053	38.46
589.391	38.49
589.729	38.56
590.067	38.57
590.404	38.55
590.742	38.52
591.08	38.58
591.418	38.62
591.756	38.63
592.093	38.62
592.431	38.62
592.769	38.61
593.106	38.62
593.444	38.71
593.781	38.64
594.119	38.62
594.456	38.56
594.793	38.53
595.131	38.53
595.468	38.6
595.805	38.62
596.143	38.69
596.48	38.74
596.817	38.77
597.154	38.78
597.491	38.91
597.828	39
598.165	38.99
598.502	39.05
598.839	39.14
599.176	39.19
599.512	39.24
599.849	39.29
600.186	39.24
600.523	39.09
600.859	39.09
601.196	39.1
601.532	39.12
601.869	39.13
602.205	39.18
602.542	39.2
602.878	39.15
603.215	39.09
603.551	39.07
603.887	39.06
604.223	39.09
604.56	39.02
604.896	38.98
605.232	38.97
605.568	38.95
605.904	38.92
606.24	38.97
606.576	38.96
606.912	39.07
607.248	39.15
607.583	39.33
607.919	39.44
608.255	39.53
608.591	39.67
608.926	39.71
609.262	39.79
609.597	39.9
609.933	40.03
610.268	40.2
610.604	40.31
610.939	40.4
611.275	40.48
611.61	40.57
611.945	40.76
612.281	40.88
612.616	40.98
612.951	41.09
613.286	41.25
613.621	41.43
613.956	41.52
614.291	41.68
614.626	41.72
614.961	41.8
615.296	41.93
615.631	42.03
615.966	42.13
616.3	42.18
616.635	42.29
616.97	42.26
617.304	42.25
617.639	42.34
617.973	42.34
618.308	42.37
618.642	42.42
618.977	42.39
619.311	42.55
619.646	42.55
619.98	42.52
620.314	42.51
620.648	42.54
620.983	42.55
621.317	42.62
621.651	42.67
621.985	42.75
622.319	42.64
622.653	42.54
622.987	42.44
623.321	42.35
623.655	42.25
623.988	42.28
624.322	42.17
624.656	41.96
624.99	41.85
625.323	41.74
625.657	41.67
625.99	41.6
626.324	41.4
626.657	41.42
626.991	41.39
627.324	41.38
627.658	41.29
627.991	41.28
628.324	41.27
628.657	41.26
628.991	41.32
629.324	41.38
629.657	41.42
629.99	41.54
630.323	41.63
630.656	41.64
630.989	41.6
631.322	41.73
631.655	41.81
631.987	41.95
632.32	42.04
632.653	42.13
632.986	42.19
633.318	42.34
633.651	42.34
633.984	42.44
634.316	42.51
634.649	42.54
634.981	42.6
635.313	42.61
635.646	42.71
635.978	42.68
636.31	42.72
636.643	42.82
636.975	42.95
637.307	43.08
637.639	43.28
637.971	43.39
638.303	43.42
638.635	43.57
638.967	43.72
639.299	43.74
639.631	43.74
639.963	43.82
640.295	43.93
640.626	44.05
640.958	44.17
641.29	44.28
641.621	44.38
641.953	44.33
642.285	44.42
642.616	44.5
642.948	44.57
643.279	44.62
643.61	44.78
643.942	44.67
644.273	44.7
644.604	44.62
644.936	44.6
645.267	44.61
645.598	44.61
645.929	44.39
646.26	44.36
646.591	44.42
646.922	44.4
647.253	44.25
647.584	44.14
647.915	44.02
648.245	43.87
648.576	43.85
648.907	43.79
649.238	43.67
649.568	43.57
649.899	43.57
650.229	43.47
650.56	43.37
650.89	43.35
651.221	43.2
651.551	43.27
651.882	43.25
652.212	43.13
652.542	43.19
652.872	43.19
653.203	43.15
653.533	42.98
653.863	42.83
654.193	42.7
654.523	42.66
654.853	42.65
655.183	42.52
655.513	42.41
655.843	42.35
656.172	42.33
656.502	42.29
656.832	42.16
657.162	42.12
657.491	42.03
657.821	42.03
658.15	42.05
658.48	42.01
658.809	42.09
659.139	42.19
659.468	42.14
659.798	42.3
660.127	42.56
660.456	42.76
660.785	42.88
661.115	43.13
661.444	43.31
661.773	43.45
662.102	43.6
662.431	43.87
662.76	44.08
663.089	44.13
663.418	44.21
663.747	44.35
664.076	44.58
664.404	44.74
664.733	44.88
665.062	44.97
665.39	44.99
665.719	45.06
666.048	45.06
666.376	45.09
666.705	45.02
667.033	44.85
667.362	44.8
667.69	44.8
668.018	44.68
668.347	44.61
668.675	44.42
669.003	44.47
