Data from BU58137_Reflection_00011.txt Node
Date: Mon Nov 18 16:39:52 EST 2019
User: vgr7
Spectrometer: USB2G7710
Scans to average: 3
Trigger mode: 4
Integration Time (sec): 2.000000E-2
Electric dark correction enabled: true
Boxcar width: 10
XAxis mode: Wavelengths
Number of Pixels in Spectrum: 2048
>>>>>Begin Spectral Data<<<<<
177.721	63.24
178.105	-2.39
178.488	-33.58
178.871	-183.54
179.254	-46.53
179.636	452.04
180.019	-208.41
180.402	136.36
180.785	349.1
181.168	136.81
181.55	-333.16
181.933	152.53
182.316	134.06
182.698	185.29
183.081	159.07
183.463	126.65
183.846	207.96
184.228	102.27
184.611	137.87
184.993	304.27
185.376	162.56
185.758	301.19
186.14	192.71
186.522	230.09
186.904	872.46
187.287	225.21
187.669	-166.41
188.051	119.03
188.433	-264.76
188.815	-315.9
189.197	-188.38
189.579	-61.68
189.961	-53.92
190.342	-33.39
190.724	-40.37
191.106	-26.66
191.488	8.6
191.869	34.72
192.251	11.13
192.633	30.07
193.014	52.82
193.396	39.38
193.777	22.77
194.159	20.08
194.54	49.53
194.922	48.06
195.303	23.86
195.684	25.27
196.065	29.08
196.447	38.37
196.828	38.53
197.209	35.78
197.59	28.28
197.971	28.79
198.352	45.06
198.733	41.86
199.114	29.52
199.495	32.03
199.876	37.03
200.257	32.48
200.638	13.47
201.018	0.16
201.399	-2.63
201.78	17.76
202.16	5.76
202.541	-3.66
202.922	-19.92
203.302	-26.7
203.683	-38.31
204.063	-78.16
204.444	-98.24
204.824	-90.45
205.204	-85.35
205.585	-73.1
205.965	-80.35
206.345	-95.82
206.725	-105.87
207.106	-105.7
207.486	-129.05
207.866	-105.6
208.246	-74.67
208.626	-75.58
209.006	-52.32
209.386	-68.62
209.766	-100.46
210.145	-73.24
210.525	-70.68
210.905	-47.64
211.285	-48.5
211.664	-47.69
212.044	-39.9
212.424	-26.15
212.803	-42.91
213.183	-36.44
213.562	-45.13
213.942	-31.5
214.321	-29.65
214.701	-28.43
215.08	-29.62
215.459	-26.06
215.838	-21.49
216.218	-18.7
216.597	-2.23
216.976	-15.35
217.355	2.4
217.734	13.25
218.113	6.81
218.492	9.03
218.871	15.22
219.25	35.55
219.629	30.93
220.008	27.75
220.387	9.27
220.766	35.47
221.144	21.14
221.523	14.11
221.902	3.16
222.28	0.25
222.659	-3.45
223.037	17.88
223.416	23.28
223.794	-7.17
224.173	-12.01
224.551	-5.96
224.929	-1.45
225.308	-5.98
225.686	-2.58
226.064	-1.57
226.442	4.17
226.821	5.34
227.199	-0.21
227.577	-5.51
227.955	-8.79
228.333	-3.93
228.711	-0.53
229.089	2.19
229.467	6.2
229.845	8.24
230.222	7.84
230.6	8.21
230.978	7.63
231.356	7.27
231.733	7.83
232.111	6.57
232.488	7.33
232.866	7.99
233.243	6.62
233.621	6.74
233.998	8.15
234.376	6.02
234.753	7.63
235.13	9.02
235.508	10.73
235.885	11.79
236.262	9.49
236.639	7.61
237.016	6.25
237.393	6.67
237.77	5.25
238.147	5.47
238.524	6.31
238.901	6.7
239.278	7.03
239.655	7.44
240.032	6.95
240.409	6.04
240.785	5.46
241.162	5.89
241.539	5.7
241.915	5.13
242.292	4.83
242.668	4.09
243.045	3.98
243.421	3.54
243.798	3.54
244.174	3.74
244.551	3.77
244.927	3.8
245.303	3.58
245.679	3.61
246.056	3.58
246.432	3.37
246.808	2.94
247.184	2.62
247.56	2.14
247.936	2.1
248.312	2.22
248.688	2.3
249.064	2.29
249.44	1.9
249.815	1.82
250.191	1.95
250.567	2.07
250.943	1.88
251.318	2.41
251.694	2.42
252.069	2.38
252.445	2.3
252.82	2.28
253.196	2.31
253.571	2.54
253.947	2.53
254.322	2.5
254.697	2.82
255.073	2.89
255.448	3.09
255.823	3.09
256.198	3.06
256.573	3.17
256.948	3.06
257.323	3.47
257.698	3.6
258.073	3.39
258.448	3.13
258.823	3.18
259.198	2.74
259.573	2.63
259.948	2.55
260.322	2.68
260.697	2.48
261.072	2.25
261.446	1.98
261.821	1.91
262.195	1.97
262.57	1.87
262.944	1.91
263.319	2.03
263.693	2.1
264.067	2.13
264.442	2.1
264.816	1.89
265.19	1.73
265.564	1.57
265.938	1.75
266.313	1.74
266.687	1.92
267.061	2.12
267.435	2.17
267.809	2.15
268.183	1.96
268.556	1.9
268.93	2.07
269.304	2.27
269.678	2.23
270.051	2.15
270.425	2.3
270.799	2.31
271.172	2.34
271.546	2.25
271.919	2.06
272.293	1.97
272.666	2.19
273.04	2.08
273.413	2
273.787	2.03
274.16	2.02
274.533	1.84
274.906	1.73
275.279	1.7
275.653	1.65
276.026	1.74
276.399	1.9
276.772	2.05
277.145	1.95
277.518	2.06
277.891	1.96
278.263	1.76
278.636	1.74
279.009	1.6
279.382	1.76
279.755	1.8
280.127	1.77
280.5	1.78
280.872	1.95
281.245	2
281.617	2.06
281.99	2.35
282.362	2.4
282.735	2.46
283.107	2.6
283.479	2.68
283.852	2.61
284.224	2.53
284.596	2.45
284.968	2.61
285.34	2.74
285.713	2.84
286.085	2.84
286.457	2.87
286.829	2.85
287.201	2.83
287.572	2.89
287.944	2.92
288.316	2.78
288.688	2.75
289.06	2.73
289.431	2.69
289.803	2.54
290.175	2.46
290.546	2.57
290.918	2.44
291.289	2.43
291.661	2.56
292.032	2.82
292.403	2.87
292.775	2.75
293.146	2.57
293.517	2.58
293.889	2.67
294.26	2.67
294.631	2.94
295.002	3
295.373	3.1
295.744	3.18
296.115	3.27
296.486	3.2
296.857	3.33
297.228	3.41
297.599	3.36
297.97	3.52
298.34	3.39
298.711	3.52
299.082	3.64
299.452	3.71
299.823	3.65
300.194	3.78
300.564	3.84
300.935	4.01
301.305	4.02
301.676	4.15
302.046	4.15
302.416	4.26
302.787	4.16
303.157	4.16
303.527	4.15
303.897	4.48
304.267	4.78
304.637	4.94
305.008	5.07
305.378	5.3
305.748	5.34
306.117	5.56
306.487	5.63
306.857	5.72
307.227	5.69
307.597	5.76
307.967	5.72
308.336	5.78
308.706	5.63
309.076	5.71
309.445	5.64
309.815	5.77
310.184	5.67
310.554	5.69
310.923	5.71
311.293	5.7
311.662	5.68
312.031	5.67
312.401	5.69
312.77	5.63
313.139	5.67
313.508	5.64
313.877	5.51
314.246	5.53
314.616	5.48
314.985	5.45
315.353	5.43
315.722	5.53
316.091	5.67
316.46	5.76
316.829	5.82
317.198	6.04
317.567	6.18
317.935	6.16
318.304	6.35
318.672	6.48
319.041	6.72
319.41	6.66
319.778	6.72
320.147	6.65
320.515	6.69
320.883	6.7
321.252	6.95
321.62	7.24
321.988	7.21
322.357	7.28
322.725	7.4
323.093	7.54
323.461	7.6
323.829	7.55
324.197	7.88
324.565	7.85
324.933	7.83
325.301	7.75
325.669	7.88
326.037	7.86
326.405	7.88
326.772	7.91
327.14	8.09
327.508	8.17
327.875	8.21
328.243	8.3
328.61	8.45
328.978	8.36
329.346	8.39
329.713	8.3
330.08	8.42
330.448	8.45
330.815	8.36
331.182	8.3
331.55	8.35
331.917	8.14
332.284	8.26
332.651	8.26
333.018	8.33
333.385	8.44
333.752	8.55
334.119	8.58
334.486	8.64
334.853	8.59
335.22	8.68
335.587	8.78
335.954	8.93
336.32	8.91
336.687	9.01
337.054	9.11
337.42	9.3
337.787	9.33
338.153	9.37
338.52	9.54
338.886	9.61
339.253	9.6
339.619	9.7
339.986	9.79
340.352	9.92
340.718	9.92
341.084	9.89
341.451	9.97
341.817	10.01
342.183	10.07
342.549	10.08
342.915	9.99
343.281	9.98
343.647	9.92
344.013	9.9
344.379	9.87
344.745	9.8
345.11	9.73
345.476	9.76
345.842	9.85
346.208	9.82
346.573	9.87
346.939	9.96
347.304	9.91
347.67	9.83
348.035	9.74
348.401	9.79
348.766	9.78
349.132	9.83
349.497	9.86
349.862	9.83
350.228	9.79
350.593	9.81
350.958	9.89
351.323	9.85
351.688	9.89
352.053	9.91
352.418	9.88
352.783	10.01
353.148	9.94
353.513	9.83
353.878	9.83
354.243	9.83
354.608	9.8
354.972	9.83
355.337	9.87
355.702	9.96
356.066	9.95
356.431	9.95
356.795	9.86
357.16	9.8
357.524	9.69
357.889	9.67
358.253	9.66
358.618	9.55
358.982	9.47
359.346	9.37
359.71	9.3
360.075	9.29
360.439	9.18
360.803	9.18
361.167	9.13
361.531	9.07
361.895	9
362.259	8.95
362.623	8.95
362.987	8.87
363.351	8.79
363.714	8.79
364.078	8.74
364.442	8.68
364.806	8.58
365.169	8.55
365.533	8.47
365.896	8.43
366.26	8.45
366.623	8.45
366.987	8.45
367.35	8.45
367.714	8.42
368.077	8.39
368.44	8.32
368.803	8.25
369.167	8.23
369.53	8.14
369.893	8.17
370.256	8.09
370.619	8.12
370.982	8
371.345	7.83
371.708	7.78
372.071	7.72
372.434	7.72
372.797	7.67
373.159	7.64
373.522	7.56
373.885	7.47
374.247	7.41
374.61	7.36
374.973	7.24
375.335	7.16
375.698	7.09
376.06	6.95
376.423	6.92
376.785	6.84
377.147	6.83
377.51	6.65
377.872	6.6
378.234	6.48
378.596	6.52
378.958	6.46
379.321	6.35
379.683	6.29
380.045	6.21
380.407	6.1
380.769	6.05
381.13	5.98
381.492	5.9
381.854	5.83
382.216	5.82
382.578	5.81
382.939	5.72
383.301	5.65
383.663	5.65
384.024	5.54
384.386	5.52
384.747	5.48
385.109	5.5
385.47	5.41
385.832	5.41
386.193	5.34
386.554	5.32
386.916	5.29
387.277	5.21
387.638	5.21
387.999	5.19
388.36	5.16
388.721	5.15
389.082	5.09
389.443	5.04
389.804	4.91
390.165	4.83
390.526	4.81
390.887	4.75
391.248	4.76
391.609	4.73
391.969	4.65
392.33	4.55
392.691	4.52
393.051	4.47
393.412	4.4
393.772	4.32
394.133	4.27
394.493	4.24
394.854	4.22
395.214	4.15
395.574	4.12
395.935	4.08
396.295	4.03
396.655	3.98
397.015	3.96
397.376	3.96
397.736	3.93
398.096	3.86
398.456	3.84
398.816	3.8
399.176	3.73
399.535	3.72
399.895	3.71
400.255	3.64
400.615	3.62
400.975	3.56
401.334	3.54
401.694	3.53
402.054	3.5
402.413	3.45
402.773	3.41
403.132	3.36
403.492	3.28
403.851	3.26
404.211	3.25
404.57	3.23
404.929	3.22
405.288	3.19
405.648	3.2
406.007	3.18
406.366	3.14
406.725	3.16
407.084	3.14
407.443	3.1
407.802	3.11
408.161	3.07
408.52	3.04
408.879	3.02
409.238	3.03
409.596	3.03
409.955	3.03
410.314	3.06
410.673	3.05
411.031	3.05
411.39	3.02
411.748	3.01
412.107	2.97
412.465	2.95
412.824	2.96
413.182	2.94
413.54	2.94
413.899	2.92
414.257	2.9
414.615	2.89
414.974	2.9
415.332	2.87
415.69	2.87
416.048	2.87
416.406	2.84
416.764	2.81
417.122	2.8
417.48	2.77
417.838	2.77
418.195	2.77
418.553	2.75
418.911	2.74
419.269	2.75
419.626	2.75
419.984	2.74
420.342	2.72
420.699	2.7
421.057	2.7
421.414	2.68
421.772	2.66
422.129	2.66
422.486	2.65
422.844	2.65
423.201	2.65
423.558	2.64
423.915	2.62
424.273	2.63
424.63	2.62
424.987	2.63
425.344	2.59
425.701	2.6
426.058	2.6
426.415	2.61
426.772	2.58
427.128	2.58
427.485	2.57
427.842	2.57
428.199	2.58
428.555	2.57
428.912	2.57
429.269	2.59
429.625	2.59
429.982	2.57
430.338	2.56
430.695	2.56
431.051	2.54
431.407	2.55
431.764	2.52
432.12	2.51
432.476	2.48
432.832	2.5
433.189	2.48
433.545	2.47
433.901	2.46
434.257	2.45
434.613	2.45
434.969	2.45
435.325	2.45
435.681	2.43
436.036	2.43
436.392	2.43
436.748	2.41
437.104	2.4
437.459	2.4
437.815	2.42
438.171	2.42
438.526	2.43
438.882	2.45
439.237	2.46
439.593	2.47
439.948	2.47
440.304	2.48
440.659	2.49
441.014	2.49
441.369	2.48
441.725	2.47
442.08	2.46
442.435	2.46
442.79	2.44
443.145	2.46
443.5	2.46
443.855	2.44
444.21	2.44
444.565	2.44
444.92	2.43
445.275	2.41
445.629	2.39
445.984	2.39
446.339	2.37
446.693	2.35
447.048	2.33
447.403	2.33
447.757	2.31
448.112	2.29
448.466	2.29
448.82	2.28
449.175	2.29
449.529	2.28
449.883	2.26
450.238	2.25
450.592	2.24
450.946	2.22
451.3	2.24
451.654	2.22
452.008	2.23
452.362	2.23
452.716	2.22
453.07	2.24
453.424	2.24
453.778	2.26
454.132	2.25
454.486	2.28
454.839	2.27
455.193	2.27
455.547	2.27
455.9	2.28
456.254	2.29
456.607	2.28
456.961	2.28
457.314	2.29
457.668	2.3
458.021	2.28
458.375	2.3
458.728	2.3
459.081	2.33
459.434	2.32
459.787	2.33
460.141	2.34
460.494	2.34
460.847	2.34
461.2	2.32
461.553	2.33
461.906	2.33
462.259	2.34
462.611	2.35
462.964	2.38
463.317	2.37
463.67	2.37
464.022	2.37
464.375	2.36
464.728	2.38
465.08	2.38
465.433	2.39
465.785	2.38
466.138	2.38
466.49	2.36
466.843	2.38
467.195	2.38
467.547	2.38
467.899	2.37
468.252	2.37
468.604	2.38
468.956	2.39
469.308	2.37
469.66	2.37
470.012	2.39
470.364	2.4
470.716	2.4
471.068	2.43
471.42	2.45
471.772	2.47
472.123	2.47
472.475	2.49
472.827	2.5
473.178	2.52
473.53	2.52
473.882	2.51
474.233	2.5
474.585	2.48
474.936	2.46
475.288	2.48
475.639	2.48
475.99	2.47
476.342	2.48
476.693	2.49
477.044	2.5
477.395	2.47
477.746	2.46
478.097	2.45
478.448	2.43
478.8	2.43
479.15	2.41
479.501	2.41
479.852	2.4
480.203	2.42
480.554	2.41
480.905	2.4
481.255	2.41
481.606	2.43
481.957	2.43
482.307	2.43
482.658	2.43
483.009	2.42
483.359	2.43
483.709	2.44
484.06	2.44
484.41	2.44
484.761	2.44
485.111	2.44
485.461	2.45
485.811	2.45
486.162	2.44
486.512	2.45
486.862	2.45
487.212	2.45
487.562	2.45
487.912	2.46
488.262	2.46
488.612	2.47
488.961	2.47
489.311	2.48
489.661	2.49
490.011	2.49
490.36	2.5
490.71	2.5
491.06	2.5
491.409	2.5
491.759	2.49
492.108	2.5
492.458	2.51
492.807	2.5
493.157	2.51
493.506	2.53
493.855	2.53
494.204	2.54
494.554	2.56
494.903	2.56
495.252	2.56
495.601	2.59
495.95	2.62
496.299	2.63
496.648	2.64
496.997	2.65
497.346	2.69
497.695	2.7
498.043	2.75
498.392	2.78
498.741	2.82
499.09	2.86
499.438	2.91
499.787	2.94
500.135	2.98
500.484	3.01
500.832	3.05
501.181	3.1
501.529	3.14
501.878	3.2
502.226	3.25
502.574	3.3
502.923	3.34
503.271	3.38
503.619	3.41
503.967	3.47
504.315	3.5
504.663	3.56
505.011	3.61
505.359	3.66
505.707	3.69
506.055	3.73
506.403	3.79
506.751	3.83
507.098	3.88
507.446	3.96
507.794	4.02
508.141	4.06
508.489	4.12
508.837	4.19
509.184	4.24
509.531	4.31
509.879	4.37
510.226	4.44
510.574	4.49
510.921	4.57
511.268	4.64
511.616	4.75
511.963	4.81
512.31	4.91
512.657	5
513.004	5.09
513.351	5.18
513.698	5.28
514.045	5.38
514.392	5.47
514.739	5.55
515.086	5.67
515.432	5.76
515.779	5.85
516.126	5.93
516.473	6.01
516.819	6.1
517.166	6.18
517.512	6.27
517.859	6.35
518.205	6.41
518.552	6.48
518.898	6.53
519.245	6.6
519.591	6.67
519.937	6.73
520.283	6.84
520.629	6.92
520.976	7.01
521.322	7.11
521.668	7.25
522.014	7.37
522.36	7.49
522.706	7.6
523.052	7.74
523.398	7.9
523.743	8.07
524.089	8.23
524.435	8.39
524.781	8.52
525.126	8.66
525.472	8.79
525.817	8.91
526.163	9.02
526.509	9.14
526.854	9.24
527.199	9.34
527.545	9.41
527.89	9.52
528.235	9.63
528.581	9.75
528.926	9.83
529.271	9.93
529.616	10.04
529.961	10.17
530.306	10.29
530.651	10.39
530.996	10.5
531.341	10.61
531.686	10.74
532.031	10.89
532.376	11.04
532.721	11.2
533.065	11.38
533.41	11.54
533.755	11.71
534.099	11.89
534.444	12.08
534.788	12.27
535.133	12.43
535.477	12.61
535.822	12.8
536.166	13
536.51	13.21
536.855	13.42
537.199	13.65
537.543	13.88
537.887	14.13
538.231	14.36
538.576	14.6
538.92	14.86
539.264	15.08
539.608	15.3
539.951	15.49
540.295	15.66
540.639	15.84
540.983	16.02
541.327	16.21
541.671	16.36
542.014	16.55
542.358	16.73
542.701	16.89
543.045	17.05
543.389	17.23
543.732	17.41
544.075	17.6
544.419	17.8
544.762	18
545.105	18.2
545.449	18.43
545.792	18.66
546.135	18.84
546.478	19.08
546.821	19.32
547.165	19.62
547.508	19.91
547.851	20.19
548.194	20.43
548.536	20.69
548.879	20.98
549.222	21.19
549.565	21.43
549.908	21.68
550.25	21.94
550.593	22.24
550.936	22.46
551.278	22.72
551.621	22.96
551.963	23.22
552.306	23.43
552.648	23.69
552.991	23.97
553.333	24.22
553.675	24.44
554.017	24.65
554.36	24.8
554.702	24.96
555.044	25.17
555.386	25.42
555.728	25.58
556.07	25.8
556.412	26.03
556.754	26.24
557.096	26.43
557.438	26.57
557.78	26.78
558.121	27.02
558.463	27.18
558.805	27.39
559.147	27.51
559.488	27.78
559.83	27.86
560.171	27.97
560.513	28.21
560.854	28.33
561.196	28.48
561.537	28.68
561.878	28.86
562.22	29.01
562.561	29.14
562.902	29.29
563.243	29.43
563.584	29.57
563.925	29.7
564.266	29.86
564.607	30.01
564.948	30.11
565.289	30.23
565.63	30.38
565.971	30.48
566.312	30.62
566.653	30.68
566.993	30.84
567.334	30.95
567.675	31
568.015	31.12
568.356	31.19
568.696	31.33
569.037	31.46
569.377	31.53
569.718	31.62
570.058	31.74
570.398	31.82
570.739	31.95
571.079	32.05
571.419	32.17
571.759	32.29
572.099	32.35
572.439	32.43
572.779	32.53
573.119	32.57
573.459	32.68
573.799	32.79
574.139	32.9
574.479	33
574.819	33.12
575.158	33.25
575.498	33.38
575.838	33.44
576.177	33.53
576.517	33.67
576.856	33.84
577.196	33.94
577.535	34.08
577.875	34.19
578.214	34.28
578.553	34.38
578.893	34.45
579.232	34.55
579.571	34.68
579.91	34.8
580.25	34.96
580.589	35.01
580.928	35.11
581.267	35.16
581.606	35.28
581.945	35.29
582.283	35.29
582.622	35.38
582.961	35.39
583.3	35.47
583.639	35.56
583.977	35.54
584.316	35.5
584.654	35.51
584.993	35.54
585.332	35.67
585.67	35.7
586.008	35.8
586.347	35.86
586.685	35.9
587.024	35.86
587.362	35.94
587.7	35.99
588.038	36.02
588.376	36.16
588.715	36.19
589.053	36.27
589.391	36.39
589.729	36.43
590.067	36.48
590.404	36.48
590.742	36.47
591.08	36.59
591.418	36.75
591.756	36.82
592.093	36.86
592.431	36.85
592.769	36.88
593.106	36.93
593.444	36.94
593.781	36.95
594.119	37.04
594.456	36.95
594.793	36.95
595.131	36.96
595.468	36.95
595.805	37.02
596.143	37.03
596.48	36.99
596.817	37.02
597.154	37.04
597.491	37.11
597.828	37.13
598.165	37.13
598.502	37.1
598.839	37.19
599.176	37.17
599.512	37.23
599.849	37.33
600.186	37.33
600.523	37.36
600.859	37.4
601.196	37.44
601.532	37.54
601.869	37.59
602.205	37.64
602.542	37.62
602.878	37.57
603.215	37.6
603.551	37.71
603.887	37.69
604.223	37.72
604.56	37.69
604.896	37.72
605.232	37.8
605.568	37.8
605.904	37.78
606.24	37.84
606.576	37.83
606.912	37.8
607.248	37.85
607.583	37.89
607.919	37.86
608.255	37.84
608.591	37.9
608.926	37.94
609.262	38.02
609.597	38.08
609.933	38.12
610.268	38.17
610.604	38.13
610.939	38.2
611.275	38.26
611.61	38.38
611.945	38.38
612.281	38.34
612.616	38.45
612.951	38.46
613.286	38.44
613.621	38.47
613.956	38.47
614.291	38.55
614.626	38.61
614.961	38.77
615.296	38.85
615.631	38.87
615.966	38.9
616.3	38.81
616.635	38.82
616.97	38.89
617.304	38.84
617.639	38.87
617.973	38.86
618.308	38.85
618.642	38.83
618.977	38.85
619.311	38.85
619.646	38.86
619.98	38.82
620.314	38.92
620.648	39.01
620.983	39.06
621.317	39.06
621.651	39.07
621.985	39.03
622.319	38.93
622.653	38.91
622.987	38.9
623.321	39
623.655	39.06
623.988	38.94
624.322	38.94
624.656	38.95
624.99	38.95
625.323	38.9
625.657	38.86
625.99	38.89
626.324	38.93
626.657	38.87
626.991	38.88
627.324	38.9
627.658	38.84
627.991	38.9
628.324	38.77
628.657	38.77
628.991	38.76
629.324	38.91
629.657	38.92
629.99	38.96
630.323	39.02
630.656	39.04
630.989	39.16
631.322	39.22
631.655	39.23
631.987	39.28
632.32	39.35
632.653	39.4
632.986	39.42
633.318	39.48
633.651	39.51
633.984	39.61
634.316	39.57
634.649	39.59
634.981	39.57
635.313	39.66
635.646	39.66
635.978	39.73
636.31	39.7
636.643	39.72
636.975	39.75
637.307	39.72
637.639	39.66
637.971	39.73
638.303	39.75
638.635	39.78
638.967	39.73
639.299	39.72
639.631	39.79
639.963	39.76
640.295	39.69
640.626	39.68
640.958	39.6
641.29	39.58
641.621	39.52
641.953	39.44
642.285	39.44
642.616	39.48
642.948	39.53
643.279	39.5
643.61	39.52
643.942	39.58
644.273	39.57
644.604	39.53
644.936	39.37
645.267	39.33
645.598	39.38
645.929	39.48
646.26	39.51
646.591	39.51
646.922	39.54
647.253	39.64
647.584	39.7
647.915	39.73
648.245	39.73
648.576	39.77
648.907	39.77
649.238	39.81
649.568	39.8
649.899	39.67
650.229	39.81
650.56	39.78
650.89	39.72
651.221	39.67
651.551	39.72
651.882	39.83
652.212	39.85
652.542	39.85
652.872	39.78
653.203	39.7
653.533	39.63
653.863	39.63
654.193	39.48
654.523	39.47
654.853	39.44
655.183	39.41
655.513	39.47
655.843	39.46
656.172	39.38
656.502	39.4
656.832	39.44
657.162	39.35
657.491	39.42
657.821	39.4
658.15	39.33
658.48	39.26
658.809	39.25
659.139	39.27
659.468	39.24
659.798	39.25
660.127	39.42
660.456	39.5
660.785	39.5
661.115	39.51
661.444	39.55
661.773	39.68
662.102	39.78
662.431	39.79
662.76	39.82
663.089	39.93
663.418	39.9
663.747	39.87
664.076	39.83
664.404	39.71
664.733	39.78
665.062	39.88
665.39	39.97
665.719	40.02
666.048	40.05
666.376	40.18
666.705	40.18
667.033	40.18
667.362	40.13
667.69	40.17
668.018	40.25
668.347	40.23
668.675	40.13
669.003	40.17
