Data from BU58141_Reflection_00004.txt Node
Date: Mon Nov 18 16:46:41 EST 2019
User: vgr7
Spectrometer: USB2G7710
Scans to average: 3
Trigger mode: 4
Integration Time (sec): 2.000000E-2
Electric dark correction enabled: true
Boxcar width: 10
XAxis mode: Wavelengths
Number of Pixels in Spectrum: 2048
>>>>>Begin Spectral Data<<<<<
177.721	91.62
178.105	52.04
178.488	88.95
178.871	65.86
179.254	89.98
179.636	662.5
180.019	-80.6
180.402	55.56
180.785	200.98
181.168	-429.41
181.55	44.7
181.933	30.04
182.316	129.45
182.698	96.29
183.081	84.04
183.463	82.67
183.846	65.8
184.228	80.21
184.611	73.24
184.993	97.37
185.376	90.88
185.758	148.81
186.14	151.45
186.522	206.94
186.904	392.47
187.287	630.45
187.669	-855.02
188.051	-983.03
188.433	-382.95
188.815	-325.47
189.197	1207.3
189.579	-12140
189.961	-1391.71
190.342	-1619.75
190.724	-191.86
191.106	-116.61
191.488	-80.51
191.869	-90.62
192.251	-100.82
192.633	-91.06
193.014	-121.85
193.396	-142.03
193.777	-118.93
194.159	-85.21
194.54	-78.4
194.922	-78.69
195.303	-46.51
195.684	-61.47
196.065	-10.36
196.447	-19.1
196.828	-16.1
197.209	-8.08
197.59	-6.1
197.971	-29.95
198.352	-17.63
198.733	-18.48
199.114	-9.5
199.495	-7.03
199.876	0.99
200.257	14.3
200.638	20.94
201.018	18.41
201.399	14.09
201.78	5
202.16	-4.81
202.541	-5.37
202.922	-25.35
203.302	-38.33
203.683	-47.55
204.063	-78.58
204.444	-64.46
204.824	-66.28
205.204	-50.22
205.585	-68.85
205.965	-60.24
206.345	-97.28
206.725	-105.98
207.106	-139.23
207.486	-181.58
207.866	-200.89
208.246	-190.97
208.626	-190.8
209.006	-128.66
209.386	-156.03
209.766	-181.21
210.145	-142.47
210.525	-121.16
210.905	-109.32
211.285	-96.86
211.664	-71.47
212.044	-71.43
212.424	-69.23
212.803	-72.32
213.183	-74.88
213.562	-68.5
213.942	-67.12
214.321	-41.88
214.701	-38.41
215.08	-38.06
215.459	-28.42
215.838	-20.65
216.218	-22.29
216.597	-16.28
216.976	-19.86
217.355	-21.84
217.734	-22.53
218.113	-21.91
218.492	-18.74
218.871	-13.6
219.25	-23.2
219.629	-21.55
220.008	-22.71
220.387	-27.94
220.766	-36.64
221.144	-57.49
221.523	-55.75
221.902	-59.75
222.28	-72.47
222.659	-57.43
223.037	-46.39
223.416	-54.63
223.794	-67.04
224.173	-74.31
224.551	-64.1
224.929	-54.87
225.308	-46.16
225.686	-36.41
226.064	-31.77
226.442	-30.35
226.821	-20.26
227.199	-18.15
227.577	-18.61
227.955	-19.11
228.333	-15.19
228.711	-12.55
229.089	-4.43
229.467	-5.76
229.845	-7.21
230.222	-5.36
230.6	-9.05
230.978	-7.05
231.356	-4.93
231.733	-5.45
232.111	-1.67
232.488	-0.95
232.866	-2.16
233.243	-0.65
233.621	-1.89
233.998	0.23
234.376	0.24
234.753	-0.36
235.13	-0.65
235.508	-0.33
235.885	1.4
236.262	0.22
236.639	0.03
237.016	-1.39
237.393	1.13
237.77	3.14
238.147	2.75
238.524	4.2
238.901	4.45
239.278	4.67
239.655	5.51
240.032	5.59
240.409	4.55
240.785	4.5
241.162	4.46
241.539	4.52
241.915	4.11
242.292	3.85
242.668	3.98
243.045	4.72
243.421	4.17
243.798	4.11
244.174	4.17
244.551	4.15
244.927	4.24
245.303	4.08
245.679	4.02
246.056	3.76
246.432	3.67
246.808	3.61
247.184	3.51
247.56	3.45
247.936	3.32
248.312	3.58
248.688	3.41
249.064	3.28
249.44	3.25
249.815	3.38
250.191	3.46
250.567	3.36
250.943	3.23
251.318	3.4
251.694	3.29
252.069	3.24
252.445	3.5
252.82	3.4
253.196	3.26
253.571	3.09
253.947	3.49
254.322	3.45
254.697	3.25
255.073	2.82
255.448	2.61
255.823	2.57
256.198	2.35
256.573	2.57
256.948	2.55
257.323	2.65
257.698	2.64
258.073	2.81
258.448	2.81
258.823	2.81
259.198	2.78
259.573	2.83
259.948	2.86
260.322	2.68
260.697	2.61
261.072	2.52
261.446	2.57
261.821	2.43
262.195	2.47
262.57	2.48
262.944	2.67
263.319	2.72
263.693	2.73
264.067	2.84
264.442	2.82
264.816	2.8
265.19	2.72
265.564	2.57
265.938	2.28
266.313	2.17
266.687	1.98
267.061	2.23
267.435	2.24
267.809	2.14
268.183	2.23
268.556	2.24
268.93	2.29
269.304	2.32
269.678	2.35
270.051	2.31
270.425	2.35
270.799	2.45
271.172	2.54
271.546	2.53
271.919	2.37
272.293	2.33
272.666	2.47
273.04	2.38
273.413	2.44
273.787	2.59
274.16	2.46
274.533	2.41
274.906	2.3
275.279	2.34
275.653	2.49
276.026	2.63
276.399	2.65
276.772	2.84
277.145	2.77
277.518	2.81
277.891	2.83
278.263	2.71
278.636	2.53
279.009	2.5
279.382	2.72
279.755	2.89
280.127	3.08
280.5	3.02
280.872	3.07
281.245	3.06
281.617	2.98
281.99	3.19
282.362	3.43
282.735	3.23
283.107	3.16
283.479	3.2
283.852	3.12
284.224	3.17
284.596	3.01
284.968	3.01
285.34	3.04
285.713	3.06
286.085	3.25
286.457	3.45
286.829	3.42
287.201	3.25
287.572	3.15
287.944	3.12
288.316	3.02
288.688	3.05
289.06	3.01
289.431	3.13
289.803	3.11
290.175	2.96
290.546	3.17
290.918	3.21
291.289	3.13
291.661	3.25
292.032	3.17
292.403	3.28
292.775	3.33
293.146	3.25
293.517	3.24
293.889	3.11
294.26	3.04
294.631	3.04
295.002	3.07
295.373	3.08
295.744	3.09
296.115	3.09
296.486	3.03
296.857	2.99
297.228	2.92
297.599	2.86
297.97	2.84
298.34	2.77
298.711	2.9
299.082	2.81
299.452	2.81
299.823	2.92
300.194	2.88
300.564	2.78
300.935	2.79
301.305	2.66
301.676	2.69
302.046	2.69
302.416	2.76
302.787	2.84
303.157	2.88
303.527	2.7
303.897	2.81
304.267	2.91
304.637	2.98
305.008	3.06
305.378	3.11
305.748	3.32
306.117	3.21
306.487	3.03
306.857	3.07
307.227	2.98
307.597	2.88
307.967	2.99
308.336	3.01
308.706	2.98
309.076	3.09
309.445	3.04
309.815	2.82
310.184	2.72
310.554	2.71
310.923	2.69
311.293	2.78
311.662	2.68
312.031	2.48
312.401	2.47
312.77	2.53
313.139	2.5
313.508	2.38
313.877	2.42
314.246	2.41
314.616	2.37
314.985	2.34
315.353	2.25
315.722	2.11
316.091	2.11
316.46	2.08
316.829	2.06
317.198	2.09
317.567	2.23
317.935	2.14
318.304	2.12
318.672	2.13
319.041	2.11
319.41	2.14
319.778	2.32
320.147	2.43
320.515	2.25
320.883	2.27
321.252	2.28
321.62	2.2
321.988	2.24
322.357	2.2
322.725	2.15
323.093	2.21
323.461	2.25
323.829	2.34
324.197	2.48
324.565	2.53
324.933	2.58
325.301	2.57
325.669	2.7
326.037	2.6
326.405	2.68
326.772	2.76
327.14	2.74
327.508	2.7
327.875	2.59
328.243	2.66
328.61	2.66
328.978	2.64
329.346	2.73
329.713	2.55
330.08	2.66
330.448	2.67
330.815	2.6
331.182	2.59
331.55	2.5
331.917	2.58
332.284	2.67
332.651	2.57
333.018	2.53
333.385	2.56
333.752	2.69
334.119	2.75
334.486	2.69
334.853	2.58
335.22	2.61
335.587	2.63
335.954	2.57
336.32	2.53
336.687	2.59
337.054	2.72
337.42	2.77
337.787	2.8
338.153	2.85
338.52	3.01
338.886	2.96
339.253	2.96
339.619	2.9
339.986	2.83
340.352	2.94
340.718	3.04
341.084	2.84
341.451	2.94
341.817	2.9
342.183	2.88
342.549	2.95
342.915	3.11
343.281	3.21
343.647	3.19
344.013	3.26
344.379	3.26
344.745	3.14
345.11	3.22
345.476	3.12
345.842	3.07
346.208	3.04
346.573	3.11
346.939	3.17
347.304	3.06
347.67	2.97
348.035	2.98
348.401	2.97
348.766	3.14
349.132	3.03
349.497	2.91
349.862	3
350.228	3.11
350.593	3
350.958	2.93
351.323	2.91
351.688	2.89
352.053	2.81
352.418	2.94
352.783	2.97
353.148	2.92
353.513	2.93
353.878	2.89
354.243	2.95
354.608	2.97
354.972	3.08
355.337	3.17
355.702	3.14
356.066	3.16
356.431	3.07
356.795	3.1
357.16	3.12
357.524	3.1
357.889	3.02
358.253	2.96
358.618	3
358.982	3.05
359.346	3.04
359.71	3.08
360.075	3.02
360.439	3.03
360.803	3.08
361.167	3.09
361.531	3.06
361.895	2.98
362.259	2.97
362.623	2.94
362.987	2.91
363.351	2.93
363.714	2.93
364.078	2.97
364.442	2.88
364.806	2.87
365.169	2.85
365.533	2.9
365.896	2.99
366.26	2.96
366.623	2.94
366.987	2.93
367.35	2.91
367.714	2.91
368.077	2.83
368.44	2.86
368.803	2.85
369.167	2.84
369.53	2.82
369.893	2.77
370.256	2.79
370.619	2.81
370.982	2.71
371.345	2.6
371.708	2.56
372.071	2.53
372.434	2.53
372.797	2.52
373.159	2.51
373.522	2.43
373.885	2.47
374.247	2.47
374.61	2.5
374.973	2.52
375.335	2.5
375.698	2.54
376.06	2.46
376.423	2.48
376.785	2.5
377.147	2.55
377.51	2.62
377.872	2.64
378.234	2.59
378.596	2.63
378.958	2.72
379.321	2.76
379.683	2.86
380.045	2.89
380.407	2.92
380.769	2.88
381.13	2.89
381.492	2.83
381.854	2.86
382.216	2.83
382.578	2.81
382.939	2.78
383.301	2.73
383.663	2.75
384.024	2.72
384.386	2.73
384.747	2.76
385.109	2.71
385.47	2.67
385.832	2.71
386.193	2.75
386.554	2.74
386.916	2.77
387.277	2.77
387.638	2.73
387.999	2.75
388.36	2.78
388.721	2.78
389.082	2.82
389.443	2.77
389.804	2.79
390.165	2.77
390.526	2.78
390.887	2.83
391.248	2.88
391.609	2.88
391.969	2.87
392.33	2.81
392.691	2.84
393.051	2.87
393.412	2.85
393.772	2.79
394.133	2.8
394.493	2.74
394.854	2.72
395.214	2.71
395.574	2.73
395.935	2.71
396.295	2.75
396.655	2.72
397.015	2.73
397.376	2.71
397.736	2.73
398.096	2.74
398.456	2.72
398.816	2.69
399.176	2.68
399.535	2.67
399.895	2.69
400.255	2.67
400.615	2.67
400.975	2.67
401.334	2.65
401.694	2.66
402.054	2.67
402.413	2.68
402.773	2.67
403.132	2.62
403.492	2.59
403.851	2.54
404.211	2.54
404.57	2.54
404.929	2.55
405.288	2.54
405.648	2.53
406.007	2.55
406.366	2.58
406.725	2.6
407.084	2.62
407.443	2.61
407.802	2.64
408.161	2.63
408.52	2.63
408.879	2.62
409.238	2.62
409.596	2.62
409.955	2.62
410.314	2.67
410.673	2.65
411.031	2.67
411.39	2.7
411.748	2.7
412.107	2.7
412.465	2.69
412.824	2.71
413.182	2.74
413.54	2.74
413.899	2.72
414.257	2.74
414.615	2.73
414.974	2.75
415.332	2.75
415.69	2.74
416.048	2.74
416.406	2.79
416.764	2.78
417.122	2.8
417.48	2.78
417.838	2.77
418.195	2.78
418.553	2.78
418.911	2.77
419.269	2.8
419.626	2.81
419.984	2.8
420.342	2.8
420.699	2.8
421.057	2.8
421.414	2.8
421.772	2.8
422.129	2.8
422.486	2.8
422.844	2.81
423.201	2.8
423.558	2.79
423.915	2.77
424.273	2.77
424.63	2.77
424.987	2.77
425.344	2.76
425.701	2.76
426.058	2.76
426.415	2.77
426.772	2.74
427.128	2.73
427.485	2.74
427.842	2.73
428.199	2.72
428.555	2.71
428.912	2.71
429.269	2.71
429.625	2.72
429.982	2.7
430.338	2.7
430.695	2.71
431.051	2.72
431.407	2.76
431.764	2.76
432.12	2.77
432.476	2.76
432.832	2.76
433.189	2.76
433.545	2.75
433.901	2.75
434.257	2.75
434.613	2.76
434.969	2.76
435.325	2.76
435.681	2.76
436.036	2.76
436.392	2.76
436.748	2.74
437.104	2.73
437.459	2.74
437.815	2.75
438.171	2.75
438.526	2.76
438.882	2.74
439.237	2.75
439.593	2.73
439.948	2.73
440.304	2.73
440.659	2.74
441.014	2.75
441.369	2.75
441.725	2.74
442.08	2.75
442.435	2.74
442.79	2.74
443.145	2.74
443.5	2.74
443.855	2.74
444.21	2.74
444.565	2.74
444.92	2.74
445.275	2.73
445.629	2.73
445.984	2.72
446.339	2.72
446.693	2.71
447.048	2.7
447.403	2.71
447.757	2.71
448.112	2.69
448.466	2.69
448.82	2.7
449.175	2.71
449.529	2.7
449.883	2.71
450.238	2.71
450.592	2.73
450.946	2.73
451.3	2.73
451.654	2.76
452.008	2.76
452.362	2.73
452.716	2.74
453.07	2.74
453.424	2.73
453.778	2.73
454.132	2.72
454.486	2.74
454.839	2.73
455.193	2.72
455.547	2.73
455.9	2.73
456.254	2.73
456.607	2.75
456.961	2.74
457.314	2.73
457.668	2.72
458.021	2.71
458.375	2.72
458.728	2.72
459.081	2.72
459.434	2.7
459.787	2.72
460.141	2.71
460.494	2.71
460.847	2.73
461.2	2.73
461.553	2.74
461.906	2.76
462.259	2.76
462.611	2.78
462.964	2.8
463.317	2.8
463.67	2.82
464.022	2.8
464.375	2.81
464.728	2.81
465.08	2.81
465.433	2.81
465.785	2.81
466.138	2.8
466.49	2.79
466.843	2.8
467.195	2.81
467.547	2.8
467.899	2.8
468.252	2.78
468.604	2.78
468.956	2.76
469.308	2.76
469.66	2.75
470.012	2.74
470.364	2.72
470.716	2.71
471.068	2.71
471.42	2.72
471.772	2.73
472.123	2.75
472.475	2.75
472.827	2.77
473.178	2.77
473.53	2.79
473.882	2.8
474.233	2.83
474.585	2.82
474.936	2.84
475.288	2.85
475.639	2.85
475.99	2.84
476.342	2.87
476.693	2.85
477.044	2.85
477.395	2.87
477.746	2.86
478.097	2.86
478.448	2.85
478.8	2.85
479.15	2.83
479.501	2.84
479.852	2.84
480.203	2.83
480.554	2.83
480.905	2.83
481.255	2.83
481.606	2.82
481.957	2.81
482.307	2.8
482.658	2.81
483.009	2.81
483.359	2.82
483.709	2.82
484.06	2.83
484.41	2.84
484.761	2.83
485.111	2.84
485.461	2.84
485.811	2.85
486.162	2.84
486.512	2.85
486.862	2.85
487.212	2.85
487.562	2.85
487.912	2.85
488.262	2.84
488.612	2.85
488.961	2.84
489.311	2.85
489.661	2.85
490.011	2.85
490.36	2.83
490.71	2.84
491.06	2.84
491.409	2.83
491.759	2.84
492.108	2.84
492.458	2.84
492.807	2.82
493.157	2.82
493.506	2.84
493.855	2.82
494.204	2.8
494.554	2.81
494.903	2.81
495.252	2.81
495.601	2.8
495.95	2.79
496.299	2.81
496.648	2.8
496.997	2.81
497.346	2.83
497.695	2.86
498.043	2.84
498.392	2.84
498.741	2.84
499.09	2.84
499.438	2.85
499.787	2.85
500.135	2.88
500.484	2.86
500.832	2.85
501.181	2.86
501.529	2.87
501.878	2.88
502.226	2.89
502.574	2.89
502.923	2.9
503.271	2.9
503.619	2.89
503.967	2.91
504.315	2.88
504.663	2.89
505.011	2.89
505.359	2.87
505.707	2.89
506.055	2.9
506.403	2.89
506.751	2.9
507.098	2.91
507.446	2.9
507.794	2.91
508.141	2.92
508.489	2.93
508.837	2.94
509.184	2.94
509.531	2.96
509.879	2.98
510.226	3.01
510.574	2.99
510.921	2.99
511.268	2.98
511.616	3
511.963	2.98
512.31	2.96
512.657	2.99
513.004	2.99
513.351	2.99
513.698	3
514.045	2.98
514.392	2.98
514.739	2.98
515.086	2.98
515.432	2.98
515.779	2.97
516.126	2.97
516.473	2.97
516.819	2.97
517.166	2.95
517.512	2.94
517.859	2.98
518.205	2.97
518.552	2.99
518.898	2.98
519.245	2.98
519.591	3.02
519.937	3
520.283	2.99
520.629	2.98
520.976	2.98
521.322	3.01
521.668	3.01
522.014	3.03
522.36	3.05
522.706	3.06
523.052	3.08
523.398	3.08
523.743	3.09
524.089	3.08
524.435	3.09
524.781	3.1
525.126	3.1
525.472	3.1
525.817	3.11
526.163	3.13
526.509	3.13
526.854	3.13
527.199	3.15
527.545	3.16
527.89	3.16
528.235	3.17
528.581	3.17
528.926	3.16
529.271	3.17
529.616	3.16
529.961	3.15
530.306	3.15
530.651	3.14
530.996	3.14
531.341	3.14
531.686	3.14
532.031	3.15
532.376	3.15
532.721	3.16
533.065	3.15
533.41	3.14
533.755	3.15
534.099	3.15
534.444	3.15
534.788	3.14
535.133	3.14
535.477	3.14
535.822	3.13
536.166	3.13
536.51	3.14
536.855	3.13
537.199	3.14
537.543	3.14
537.887	3.15
538.231	3.14
538.576	3.16
538.92	3.14
539.264	3.12
539.608	3.13
539.951	3.12
540.295	3.12
540.639	3.13
540.983	3.11
541.327	3.11
541.671	3.11
542.014	3.12
542.358	3.13
542.701	3.13
543.045	3.14
543.389	3.13
543.732	3.13
544.075	3.15
544.419	3.15
544.762	3.13
545.105	3.14
545.449	3.16
545.792	3.14
546.135	3.16
546.478	3.14
546.821	3.12
547.165	3.14
547.508	3.15
547.851	3.15
548.194	3.16
548.536	3.16
548.879	3.16
549.222	3.14
549.565	3.15
549.908	3.15
550.25	3.16
550.593	3.19
550.936	3.16
551.278	3.16
551.621	3.17
551.963	3.18
552.306	3.19
552.648	3.16
552.991	3.18
553.333	3.19
553.675	3.21
554.017	3.23
554.36	3.21
554.702	3.2
555.044	3.18
555.386	3.2
555.728	3.21
556.07	3.23
556.412	3.23
556.754	3.2
557.096	3.2
557.438	3.19
557.78	3.17
558.121	3.2
558.463	3.2
558.805	3.21
559.147	3.19
559.488	3.15
559.83	3.2
560.171	3.19
560.513	3.17
560.854	3.14
561.196	3.14
561.537	3.15
561.878	3.16
562.22	3.18
562.561	3.16
562.902	3.14
563.243	3.12
563.584	3.11
563.925	3.13
564.266	3.12
564.607	3.12
564.948	3.14
565.289	3.13
565.63	3.15
565.971	3.13
566.312	3.15
566.653	3.18
566.993	3.14
567.334	3.13
567.675	3.15
568.015	3.19
568.356	3.19
568.696	3.23
569.037	3.24
569.377	3.24
569.718	3.24
570.058	3.25
570.398	3.25
570.739	3.28
571.079	3.28
571.419	3.28
571.759	3.26
572.099	3.25
572.439	3.26
572.779	3.23
573.119	3.25
573.459	3.27
573.799	3.27
574.139	3.26
574.479	3.26
574.819	3.24
575.158	3.24
575.498	3.24
575.838	3.21
576.177	3.18
576.517	3.18
576.856	3.22
577.196	3.21
577.535	3.22
577.875	3.24
578.214	3.26
578.553	3.27
578.893	3.28
579.232	3.27
579.571	3.26
579.91	3.28
580.25	3.24
580.589	3.24
580.928	3.27
581.267	3.28
581.606	3.28
581.945	3.28
582.283	3.28
582.622	3.25
582.961	3.24
583.3	3.26
583.639	3.28
583.977	3.24
584.316	3.28
584.654	3.28
584.993	3.22
585.332	3.22
585.67	3.22
586.008	3.24
586.347	3.21
586.685	3.22
587.024	3.23
587.362	3.23
587.7	3.15
588.038	3.13
588.376	3.15
588.715	3.15
589.053	3.18
589.391	3.18
589.729	3.24
590.067	3.21
590.404	3.22
590.742	3.21
591.08	3.22
591.418	3.2
591.756	3.21
592.093	3.22
592.431	3.18
592.769	3.2
593.106	3.2
593.444	3.22
593.781	3.21
594.119	3.21
594.456	3.26
594.793	3.27
595.131	3.28
595.468	3.26
595.805	3.28
596.143	3.28
596.48	3.27
596.817	3.25
597.154	3.32
597.491	3.31
597.828	3.31
598.165	3.3
598.502	3.28
598.839	3.26
599.176	3.27
599.512	3.29
599.849	3.29
600.186	3.28
600.523	3.29
600.859	3.32
601.196	3.33
601.532	3.3
601.869	3.3
602.205	3.29
602.542	3.31
602.878	3.3
603.215	3.29
603.551	3.29
603.887	3.28
604.223	3.25
604.56	3.27
604.896	3.29
605.232	3.29
605.568	3.3
605.904	3.32
606.24	3.33
606.576	3.32
606.912	3.32
607.248	3.32
607.583	3.33
607.919	3.29
608.255	3.25
608.591	3.3
608.926	3.32
609.262	3.35
609.597	3.38
609.933	3.37
610.268	3.38
610.604	3.37
610.939	3.39
611.275	3.38
611.61	3.37
611.945	3.36
612.281	3.36
612.616	3.35
612.951	3.35
613.286	3.34
613.621	3.33
613.956	3.26
614.291	3.3
614.626	3.28
614.961	3.3
615.296	3.33
615.631	3.31
615.966	3.33
616.3	3.24
616.635	3.22
616.97	3.23
617.304	3.21
617.639	3.23
617.973	3.2
618.308	3.24
618.642	3.27
618.977	3.25
619.311	3.24
619.646	3.29
619.98	3.28
620.314	3.31
620.648	3.3
620.983	3.35
621.317	3.35
621.651	3.38
621.985	3.42
622.319	3.44
622.653	3.44
622.987	3.43
623.321	3.46
623.655	3.48
623.988	3.49
624.322	3.48
624.656	3.53
624.99	3.54
625.323	3.5
625.657	3.49
625.99	3.5
626.324	3.52
626.657	3.54
626.991	3.53
627.324	3.51
627.658	3.56
627.991	3.58
628.324	3.55
628.657	3.54
628.991	3.54
629.324	3.54
629.657	3.56
629.99	3.56
630.323	3.55
630.656	3.59
630.989	3.59
631.322	3.63
631.655	3.59
631.987	3.57
632.32	3.58
632.653	3.6
632.986	3.62
633.318	3.59
633.651	3.54
633.984	3.54
634.316	3.52
634.649	3.51
634.981	3.48
635.313	3.51
635.646	3.46
635.978	3.44
636.31	3.39
636.643	3.36
636.975	3.34
637.307	3.34
637.639	3.26
637.971	3.28
638.303	3.28
638.635	3.21
638.967	3.24
639.299	3.29
639.631	3.25
639.963	3.21
640.295	3.22
640.626	3.23
640.958	3.27
641.29	3.33
641.621	3.25
641.953	3.29
642.285	3.25
642.616	3.32
642.948	3.32
643.279	3.38
643.61	3.38
643.942	3.38
644.273	3.39
644.604	3.4
644.936	3.37
645.267	3.31
645.598	3.4
645.929	3.44
646.26	3.4
646.591	3.38
646.922	3.37
647.253	3.37
647.584	3.37
647.915	3.31
648.245	3.23
648.576	3.32
648.907	3.26
649.238	3.3
649.568	3.34
649.899	3.29
650.229	3.23
650.56	3.25
650.89	3.26
651.221	3.32
651.551	3.3
651.882	3.32
652.212	3.38
652.542	3.38
652.872	3.36
653.203	3.39
653.533	3.46
653.863	3.44
654.193	3.45
654.523	3.43
654.853	3.45
655.183	3.49
655.513	3.49
655.843	3.52
656.172	3.52
656.502	3.47
656.832	3.6
657.162	3.66
657.491	3.64
657.821	3.67
658.15	3.56
658.48	3.62
658.809	3.6
659.139	3.61
659.468	3.55
659.798	3.56
660.127	3.61
660.456	3.6
660.785	3.68
661.115	3.63
661.444	3.67
661.773	3.63
662.102	3.65
662.431	3.71
662.76	3.7
663.089	3.71
663.418	3.73
663.747	3.62
664.076	3.64
664.404	3.63
664.733	3.67
665.062	3.78
665.39	3.74
665.719	3.77
666.048	3.77
666.376	3.76
666.705	3.73
667.033	3.71
667.362	3.75
667.69	3.68
668.018	3.77
668.347	3.84
668.675	3.89
669.003	3.88
669.331	3.86
669.659	3.88
669.987	3.82
670.315	3.79
670.643	3.75
670.971	3.78
671.299	3.88
671.627	3.87
671.955	3.8
672.283	3.78
672.61	3.78
672.938	3.81
673.266	3.89
673.593	3.97
673.921	3.96
674.249	3.92
674.576	4.02
674.904	4.01
675.231	3.88
675.558	3.9
675.886	3.93
676.213	3.87
676.54	3.88
