Data from BU58141_Reflection_00015.txt Node
Date: Mon Nov 18 16:47:06 EST 2019
User: vgr7
Spectrometer: USB2G7710
Scans to average: 3
Trigger mode: 4
Integration Time (sec): 2.000000E-2
Electric dark correction enabled: true
Boxcar width: 10
XAxis mode: Wavelengths
Number of Pixels in Spectrum: 2048
>>>>>Begin Spectral Data<<<<<
177.721	2.65
178.105	0.53
178.488	57.35
178.871	60.55
179.254	141.74
179.636	-2775
180.019	344.15
180.402	107.41
180.785	151.89
181.168	-4429.41
181.55	-623.5
181.933	203.14
182.316	285.28
182.698	133.97
183.081	97.78
183.463	120.22
183.846	134.56
184.228	131.15
184.611	127.1
184.993	124.13
185.376	137
185.758	177.28
186.14	137.64
186.522	180.84
186.904	429.39
187.287	726.72
187.669	-1377.51
188.051	-1484.84
188.433	-515.28
188.815	-500.58
189.197	1391.85
189.579	-14580
189.961	-1927.62
190.342	-2428.66
190.724	-321.89
191.106	-191.39
191.488	-153.7
191.869	-104.29
192.251	-121.27
192.633	-99.1
193.014	-147.2
193.396	-152.12
193.777	-182.92
194.159	-247.91
194.54	-194.27
194.922	-193.62
195.303	-139.07
195.684	-125.97
196.065	-101.98
196.447	-103.38
196.828	-103.44
197.209	-82.62
197.59	-71.62
197.971	-68.78
198.352	-59.98
198.733	-82.75
199.114	-83.69
199.495	-64.67
199.876	-55.97
200.257	-40.74
200.638	-57.07
201.018	-49.99
201.399	-45.16
201.78	-38.51
202.16	-40.21
202.541	-55.81
202.922	-92.16
203.302	-115.61
203.683	-125.75
204.063	-139.64
204.444	-122.05
204.824	-122.04
205.204	-98.81
205.585	-94.12
205.965	-76.93
206.345	-84.32
206.725	-79.84
207.106	-103.28
207.486	-142.08
207.866	-175.82
208.246	-163.2
208.626	-152.56
209.006	-125.41
209.386	-171.99
209.766	-212.31
210.145	-202.38
210.525	-164.61
210.905	-125.2
211.285	-117.69
211.664	-99.29
212.044	-105.06
212.424	-107.1
212.803	-88.91
213.183	-102.99
213.562	-106.65
213.942	-105.82
214.321	-96.46
214.701	-96.42
215.08	-88.88
215.459	-74.45
215.838	-69.28
216.218	-85.88
216.597	-72.11
216.976	-71.25
217.355	-66.48
217.734	-73.66
218.113	-59.98
218.492	-62.81
218.871	-65.66
219.25	-70.75
219.629	-72.89
220.008	-67.79
220.387	-69.27
220.766	-89.57
221.144	-94.96
221.523	-97.31
221.902	-116.91
222.28	-132.33
222.659	-111.67
223.037	-98.63
223.416	-116.21
223.794	-122.52
224.173	-97
224.551	-86.67
224.929	-84.7
225.308	-73.27
225.686	-64.22
226.064	-56.35
226.442	-54.64
226.821	-43.82
227.199	-37.04
227.577	-36.41
227.955	-38.49
228.333	-34.58
228.711	-23.25
229.089	-19.9
229.467	-20.74
229.845	-15.81
230.222	-15.97
230.6	-15.26
230.978	-15.65
231.356	-12.01
231.733	-10.56
232.111	-9.86
232.488	-8.62
232.866	-7.62
233.243	-8.16
233.621	-8.48
233.998	-6
234.376	-5.43
234.753	-6.67
235.13	-6.68
235.508	-5.64
235.885	-3.54
236.262	-4.33
236.639	-5.35
237.016	-4.23
237.393	-2.23
237.77	-1.6
238.147	-0.08
238.524	-0.35
238.901	0.89
239.278	1.43
239.655	2.25
240.032	2.53
240.409	2.02
240.785	2.55
241.162	3.02
241.539	3.29
241.915	2.74
242.292	2.77
242.668	3.32
243.045	3.37
243.421	3.72
243.798	3.58
244.174	3.69
244.551	3.72
244.927	3.84
245.303	4.08
245.679	4.32
246.056	4.34
246.432	4.42
246.808	4.54
247.184	4.37
247.56	4.23
247.936	4.39
248.312	4.48
248.688	4.61
249.064	4.61
249.44	4.46
249.815	4.59
250.191	4.66
250.567	4.43
250.943	4.61
251.318	4.69
251.694	4.9
252.069	5.16
252.445	5.23
252.82	5.06
253.196	5.03
253.571	4.8
253.947	4.91
254.322	5.28
254.697	4.93
255.073	5.07
255.448	4.89
255.823	4.88
256.198	5.09
256.573	4.82
256.948	5.02
257.323	5.29
257.698	5.24
258.073	5.3
258.448	5.41
258.823	5.37
259.198	5.33
259.573	5.35
259.948	5.17
260.322	5.29
260.697	5.09
261.072	4.92
261.446	5.08
261.821	4.83
262.195	4.73
262.57	4.93
262.944	4.91
263.319	4.99
263.693	4.92
264.067	4.79
264.442	4.9
264.816	4.58
265.19	4.39
265.564	4.45
265.938	4.24
266.313	4.28
266.687	4.27
267.061	4.33
267.435	4.31
267.809	4.29
268.183	4.22
268.556	4.37
268.93	4.47
269.304	4.3
269.678	4.51
270.051	4.48
270.425	4.34
270.799	4.25
271.172	4.18
271.546	4.25
271.919	4.32
272.293	4.21
272.666	4.41
273.04	4.57
273.413	4.6
273.787	4.81
274.16	4.74
274.533	4.63
274.906	4.49
275.279	4.54
275.653	4.47
276.026	4.34
276.399	4.35
276.772	4.44
277.145	4.39
277.518	4.36
277.891	4.47
278.263	4.42
278.636	4.44
279.009	4.64
279.382	4.73
279.755	4.63
280.127	4.98
280.5	4.94
280.872	4.9
281.245	4.84
281.617	4.74
281.99	4.74
282.362	4.81
282.735	4.82
283.107	4.8
283.479	4.9
283.852	5.02
284.224	5.06
284.596	5
284.968	5.09
285.34	5.11
285.713	5
286.085	4.97
286.457	5.08
286.829	4.98
287.201	4.94
287.572	5.01
287.944	4.91
288.316	5.01
288.688	5.08
289.06	5.05
289.431	5.18
289.803	5.27
290.175	5.39
290.546	5.57
290.918	5.69
291.289	5.81
291.661	5.83
292.032	6.02
292.403	6.2
292.775	6.36
293.146	6.38
293.517	6.5
293.889	6.57
294.26	6.68
294.631	6.88
295.002	6.88
295.373	6.94
295.744	7.15
296.115	7.18
296.486	7.16
296.857	7.33
297.228	7.45
297.599	7.46
297.97	7.51
298.34	7.41
298.711	7.38
299.082	7.34
299.452	7.6
299.823	7.55
300.194	7.58
300.564	7.53
300.935	7.73
301.305	7.85
301.676	7.98
302.046	8.07
302.416	8.08
302.787	8.23
303.157	8.36
303.527	8.32
303.897	8.38
304.267	8.58
304.637	8.78
305.008	8.82
305.378	9.19
305.748	9.28
306.117	9.52
306.487	9.73
306.857	9.78
307.227	9.79
307.597	10.06
307.967	10.2
308.336	10.48
308.706	10.66
309.076	10.92
309.445	11.15
309.815	11.22
310.184	11.34
310.554	11.47
310.923	11.62
311.293	11.75
311.662	11.91
312.031	11.94
312.401	11.99
312.77	12.25
313.139	12.28
313.508	12.42
313.877	12.54
314.246	12.68
314.616	12.8
314.985	12.73
315.353	12.92
315.722	13.09
316.091	13.22
316.46	13.23
316.829	13.28
317.198	13.47
317.567	13.7
317.935	13.95
318.304	14.04
318.672	14.24
319.041	14.51
319.41	14.51
319.778	14.73
320.147	14.92
320.515	14.95
320.883	14.9
321.252	15.15
321.62	15.33
321.988	15.48
322.357	15.88
322.725	16.2
323.093	16.29
323.461	16.37
323.829	16.36
324.197	16.52
324.565	16.47
324.933	16.48
325.301	16.54
325.669	16.57
326.037	16.7
326.405	16.89
326.772	16.99
327.14	17.22
327.508	17.37
327.875	17.43
328.243	17.51
328.61	17.64
328.978	17.77
329.346	17.99
329.713	17.94
330.08	17.9
330.448	17.95
330.815	17.77
331.182	17.84
331.55	17.84
331.917	17.99
332.284	18.18
332.651	18.25
333.018	18.21
333.385	18.29
333.752	18.41
334.119	18.35
334.486	18.28
334.853	18.28
335.22	18.24
335.587	18.23
335.954	18.37
336.32	18.43
336.687	18.38
337.054	18.25
337.42	18.4
337.787	18.56
338.153	18.57
338.52	18.7
338.886	18.75
339.253	18.82
339.619	18.83
339.986	18.95
340.352	19.06
340.718	19.3
341.084	19.37
341.451	19.46
341.817	19.59
342.183	19.77
342.549	19.81
342.915	19.9
343.281	19.89
343.647	19.87
344.013	19.87
344.379	19.81
344.745	19.83
345.11	19.88
345.476	19.83
345.842	19.9
346.208	19.93
346.573	19.97
346.939	20
347.304	19.9
347.67	19.88
348.035	19.91
348.401	19.79
348.766	19.63
349.132	19.65
349.497	19.56
349.862	19.63
350.228	19.61
350.593	19.62
350.958	19.76
351.323	19.81
351.688	19.88
352.053	19.95
352.418	19.94
352.783	19.96
353.148	20.01
353.513	20.02
353.878	20.12
354.243	20.13
354.608	20.17
354.972	20.22
355.337	20.17
355.702	20.16
356.066	20.25
356.431	20.31
356.795	20.32
357.16	20.25
357.524	20.07
357.889	20.09
358.253	20.06
358.618	20.01
358.982	19.9
359.346	19.82
359.71	19.71
360.075	19.73
360.439	19.67
360.803	19.61
361.167	19.5
361.531	19.41
361.895	19.33
362.259	19.29
362.623	19.29
362.987	19.25
363.351	19.16
363.714	19.15
364.078	19.11
364.442	19.01
364.806	18.94
365.169	18.92
365.533	18.9
365.896	18.84
366.26	18.77
366.623	18.67
366.987	18.66
367.35	18.72
367.714	18.64
368.077	18.55
368.44	18.48
368.803	18.42
369.167	18.4
369.53	18.25
369.893	18.14
370.256	18
370.619	17.88
370.982	17.77
371.345	17.59
371.708	17.54
372.071	17.42
372.434	17.34
372.797	17.21
373.159	17.05
373.522	16.93
373.885	16.79
374.247	16.74
374.61	16.61
374.973	16.43
375.335	16.29
375.698	16.19
376.06	16.05
376.423	15.97
376.785	15.76
377.147	15.72
377.51	15.64
377.872	15.53
378.234	15.45
378.596	15.34
378.958	15.15
379.321	14.97
379.683	14.86
380.045	14.72
380.407	14.63
380.769	14.49
381.13	14.32
381.492	14.23
381.854	14.1
382.216	13.9
382.578	13.81
382.939	13.69
383.301	13.56
383.663	13.4
384.024	13.23
384.386	13.18
384.747	13.05
385.109	12.89
385.47	12.76
385.832	12.66
386.193	12.58
386.554	12.52
386.916	12.42
387.277	12.34
387.638	12.27
387.999	12.14
388.36	12.02
388.721	11.98
389.082	11.88
389.443	11.74
389.804	11.71
390.165	11.57
390.526	11.5
390.887	11.42
391.248	11.4
391.609	11.37
391.969	11.26
392.33	11.21
392.691	11.15
393.051	11.07
393.412	10.97
393.772	10.85
394.133	10.78
394.493	10.7
394.854	10.58
395.214	10.5
395.574	10.39
395.935	10.33
396.295	10.26
396.655	10.12
397.015	10.07
397.376	10
397.736	9.92
398.096	9.81
398.456	9.75
398.816	9.64
399.176	9.53
399.535	9.47
399.895	9.36
400.255	9.26
400.615	9.17
400.975	9.08
401.334	9.02
401.694	8.91
402.054	8.83
402.413	8.75
402.773	8.64
403.132	8.59
403.492	8.52
403.851	8.42
404.211	8.39
404.57	8.3
404.929	8.23
405.288	8.15
405.648	8.05
406.007	7.95
406.366	7.88
406.725	7.85
407.084	7.77
407.443	7.72
407.802	7.7
408.161	7.65
408.52	7.59
408.879	7.53
409.238	7.52
409.596	7.49
409.955	7.47
410.314	7.47
410.673	7.4
411.031	7.36
411.39	7.32
411.748	7.24
412.107	7.22
412.465	7.18
412.824	7.14
413.182	7.14
413.54	7.11
413.899	7.07
414.257	7.02
414.615	6.99
414.974	6.95
415.332	6.9
415.69	6.83
416.048	6.79
416.406	6.76
416.764	6.71
417.122	6.68
417.48	6.64
417.838	6.62
418.195	6.6
418.553	6.56
418.911	6.53
419.269	6.51
419.626	6.49
419.984	6.45
420.342	6.43
420.699	6.39
421.057	6.37
421.414	6.34
421.772	6.32
422.129	6.29
422.486	6.25
422.844	6.24
423.201	6.23
423.558	6.22
423.915	6.17
424.273	6.15
424.63	6.1
424.987	6.07
425.344	6.04
425.701	6
426.058	5.98
426.415	5.94
426.772	5.9
427.128	5.85
427.485	5.83
427.842	5.78
428.199	5.74
428.555	5.7
428.912	5.66
429.269	5.6
429.625	5.59
429.982	5.54
430.338	5.51
430.695	5.49
431.051	5.43
431.407	5.42
431.764	5.39
432.12	5.36
432.476	5.33
432.832	5.28
433.189	5.28
433.545	5.25
433.901	5.25
434.257	5.25
434.613	5.24
434.969	5.24
435.325	5.24
435.681	5.25
436.036	5.23
436.392	5.24
436.748	5.22
437.104	5.2
437.459	5.2
437.815	5.19
438.171	5.18
438.526	5.2
438.882	5.2
439.237	5.2
439.593	5.22
439.948	5.23
440.304	5.23
440.659	5.24
441.014	5.24
441.369	5.22
441.725	5.21
442.08	5.2
442.435	5.18
442.79	5.17
443.145	5.16
443.5	5.18
443.855	5.17
444.21	5.17
444.565	5.19
444.92	5.19
445.275	5.17
445.629	5.16
445.984	5.14
446.339	5.12
446.693	5.1
447.048	5.1
447.403	5.07
447.757	5.05
448.112	5.03
448.466	5.02
448.82	5.03
449.175	5.02
449.529	5.02
449.883	5.03
450.238	5.03
450.592	5.02
450.946	4.97
451.3	4.96
451.654	4.95
452.008	4.9
452.362	4.87
452.716	4.85
453.07	4.85
453.424	4.84
453.778	4.83
454.132	4.82
454.486	4.81
454.839	4.82
455.193	4.82
455.547	4.79
455.9	4.78
456.254	4.78
456.607	4.75
456.961	4.74
457.314	4.73
457.668	4.72
458.021	4.71
458.375	4.71
458.728	4.69
459.081	4.69
459.434	4.69
459.787	4.7
460.141	4.69
460.494	4.68
460.847	4.67
461.2	4.65
461.553	4.67
461.906	4.68
462.259	4.66
462.611	4.68
462.964	4.68
463.317	4.68
463.67	4.68
464.022	4.69
464.375	4.69
464.728	4.68
465.08	4.68
465.433	4.68
465.785	4.71
466.138	4.73
466.49	4.75
466.843	4.78
467.195	4.79
467.547	4.82
467.899	4.85
468.252	4.89
468.604	4.95
468.956	4.94
469.308	4.93
469.66	4.96
470.012	4.97
470.364	5.02
470.716	5.04
471.068	5.06
471.42	5.09
471.772	5.12
472.123	5.17
472.475	5.22
472.827	5.25
473.178	5.27
473.53	5.28
473.882	5.28
474.233	5.3
474.585	5.3
474.936	5.32
475.288	5.33
475.639	5.33
475.99	5.34
476.342	5.36
476.693	5.38
477.044	5.44
477.395	5.46
477.746	5.47
478.097	5.49
478.448	5.49
478.8	5.5
479.15	5.49
479.501	5.49
479.852	5.48
480.203	5.51
480.554	5.52
480.905	5.53
481.255	5.54
481.606	5.55
481.957	5.54
482.307	5.55
482.658	5.55
483.009	5.54
483.359	5.55
483.709	5.55
484.06	5.54
484.41	5.52
484.761	5.52
485.111	5.51
485.461	5.5
485.811	5.5
486.162	5.49
486.512	5.49
486.862	5.48
487.212	5.47
487.562	5.45
487.912	5.44
488.262	5.42
488.612	5.41
488.961	5.4
489.311	5.4
489.661	5.39
490.011	5.38
490.36	5.38
490.71	5.36
491.06	5.35
491.409	5.35
491.759	5.35
492.108	5.34
492.458	5.35
492.807	5.33
493.157	5.34
493.506	5.35
493.855	5.36
494.204	5.35
494.554	5.37
494.903	5.39
495.252	5.38
495.601	5.41
495.95	5.43
496.299	5.43
496.648	5.45
496.997	5.46
497.346	5.48
497.695	5.52
498.043	5.56
498.392	5.58
498.741	5.65
499.09	5.69
499.438	5.75
499.787	5.78
500.135	5.87
500.484	5.91
500.832	5.98
501.181	6.02
501.529	6.08
501.878	6.17
502.226	6.25
502.574	6.32
502.923	6.4
503.271	6.46
503.619	6.57
503.967	6.66
504.315	6.76
504.663	6.86
505.011	6.94
505.359	7.04
505.707	7.14
506.055	7.24
506.403	7.36
506.751	7.47
507.098	7.59
507.446	7.71
507.794	7.86
508.141	7.99
508.489	8.14
508.837	8.27
509.184	8.4
509.531	8.54
509.879	8.71
510.226	8.88
510.574	9.05
510.921	9.21
511.268	9.37
511.616	9.56
511.963	9.74
512.31	9.96
512.657	10.17
513.004	10.42
513.351	10.64
513.698	10.88
514.045	11.14
514.392	11.45
514.739	11.69
515.086	11.99
515.432	12.26
515.779	12.54
516.126	12.86
516.473	13.17
516.819	13.47
517.166	13.74
517.512	14
517.859	14.28
518.205	14.56
518.552	14.84
518.898	15.1
519.245	15.4
519.591	15.65
519.937	15.95
520.283	16.25
520.629	16.59
520.976	16.94
521.322	17.3
521.668	17.65
522.014	18.07
522.36	18.47
522.706	18.89
523.052	19.33
523.398	19.79
523.743	20.25
524.089	20.68
524.435	21.11
524.781	21.52
525.126	21.94
525.472	22.31
525.817	22.65
526.163	22.96
526.509	23.22
526.854	23.51
527.199	23.74
527.545	23.97
527.89	24.2
528.235	24.41
528.581	24.63
528.926	24.86
529.271	25.09
529.616	25.31
529.961	25.54
530.306	25.78
530.651	26.01
530.996	26.23
531.341	26.48
531.686	26.75
532.031	27
532.376	27.25
532.721	27.5
533.065	27.75
533.41	28.03
533.755	28.36
534.099	28.63
534.444	28.94
534.788	29.22
535.133	29.49
535.477	29.77
535.822	30.08
536.166	30.37
536.51	30.65
536.855	30.99
537.199	31.3
537.543	31.63
537.887	31.94
538.231	32.32
538.576	32.65
538.92	32.94
539.264	33.25
539.608	33.54
539.951	33.79
540.295	34.06
540.639	34.27
540.983	34.47
541.327	34.68
541.671	34.89
542.014	35.12
542.358	35.33
542.701	35.54
543.045	35.74
543.389	35.94
543.732	36.15
544.075	36.36
544.419	36.59
544.762	36.76
545.105	36.98
545.449	37.18
545.792	37.42
546.135	37.67
546.478	37.93
546.821	38.19
547.165	38.48
547.508	38.75
547.851	39.05
548.194	39.34
548.536	39.65
548.879	39.95
549.222	40.2
549.565	40.5
549.908	40.76
550.25	41
550.593	41.34
550.936	41.59
551.278	41.83
551.621	42.13
551.963	42.49
552.306	42.75
552.648	43.02
552.991	43.31
553.333	43.56
553.675	43.74
554.017	43.95
554.36	44.15
554.702	44.37
555.044	44.57
555.386	44.8
555.728	44.99
556.07	45.15
556.412	45.38
556.754	45.55
557.096	45.82
557.438	46.06
557.78	46.2
558.121	46.45
558.463	46.67
558.805	46.8
559.147	46.95
559.488	47.15
559.83	47.34
560.171	47.58
560.513	47.81
560.854	48.05
561.196	48.27
561.537	48.45
561.878	48.67
562.22	48.84
562.561	48.99
562.902	49.14
563.243	49.34
563.584	49.48
563.925	49.73
564.266	49.86
564.607	50.03
564.948	50.23
565.289	50.46
565.63	50.56
565.971	50.68
566.312	50.81
566.653	50.95
566.993	51.1
567.334	51.18
567.675	51.24
568.015	51.42
568.356	51.5
568.696	51.7
569.037	51.74
569.377	51.91
569.718	52.06
570.058	52.24
570.398	52.39
570.739	52.54
571.079	52.58
571.419	52.71
571.759	52.8
572.099	52.87
572.439	52.9
572.779	52.95
573.119	53.06
573.459	53.18
573.799	53.33
574.139	53.38
574.479	53.42
574.819	53.5
575.158	53.54
575.498	53.58
575.838	53.61
576.177	53.66
576.517	53.65
576.856	53.78
577.196	53.86
577.535	53.89
577.875	53.96
578.214	54.1
578.553	54.13
578.893	54.15
579.232	54.25
579.571	54.32
579.91	54.49
580.25	54.54
580.589	54.66
580.928	54.69
581.267	54.75
581.606	54.92
581.945	55.05
582.283	55.14
582.622	55.27
582.961	55.38
583.3	55.61
583.639	55.75
583.977	55.69
584.316	55.62
584.654	55.69
584.993	55.73
585.332	55.81
585.67	55.91
586.008	56.05
586.347	56.1
586.685	56.09
587.024	56.14
587.362	56.23
587.7	56.27
588.038	56.32
588.376	56.38
588.715	56.4
589.053	56.45
589.391	56.51
589.729	56.53
590.067	56.56
590.404	56.52
590.742	56.57
591.08	56.7
591.418	56.87
591.756	56.95
592.093	57
592.431	56.93
592.769	57
593.106	57.05
593.444	57
593.781	57.04
594.119	57.06
594.456	57.17
594.793	57.21
595.131	57.21
595.468	57.24
595.805	57.29
596.143	57.32
596.48	57.36
596.817	57.42
597.154	57.42
597.491	57.51
597.828	57.54
598.165	57.51
598.502	57.54
598.839	57.53
599.176	57.55
599.512	57.61
599.849	57.74
600.186	57.73
600.523	57.78
600.859	57.85
601.196	57.92
601.532	57.92
601.869	57.89
602.205	57.93
602.542	57.97
602.878	57.95
603.215	57.93
603.551	57.94
603.887	57.98
604.223	58.05
604.56	58.03
604.896	58.11
605.232	58.15
605.568	58.12
605.904	58.2
606.24	58.22
606.576	58.31
606.912	58.21
607.248	58.2
607.583	58.25
607.919	58.31
608.255	58.39
608.591	58.47
608.926	58.51
609.262	58.55
609.597	58.55
609.933	58.63
610.268	58.68
610.604	58.79
610.939	58.71
611.275	58.68
611.61	58.75
611.945	58.71
612.281	58.73
612.616	58.74
612.951	58.71
613.286	58.7
613.621	58.66
613.956	58.72
614.291	58.71
614.626	58.76
614.961	58.75
615.296	58.81
615.631	58.76
615.966	58.82
616.3	58.84
616.635	58.94
616.97	58.92
617.304	59.03
617.639	58.99
617.973	59.12
618.308	59.15
618.642	59.23
618.977	59.27
619.311	59.29
619.646	59.3
619.98	59.35
620.314	59.44
620.648	59.5
620.983	59.47
621.317	59.54
621.651	59.64
621.985	59.67
622.319	59.53
622.653	59.5
622.987	59.45
623.321	59.45
623.655	59.38
623.988	59.46
624.322	59.37
624.656	59.38
624.99	59.34
625.323	59.37
625.657	59.33
625.99	59.28
626.324	59.37
626.657	59.46
626.991	59.46
627.324	59.44
627.658	59.36
627.991	59.35
628.324	59.39
628.657	59.35
628.991	59.4
629.324	59.4
629.657	59.47
629.99	59.57
630.323	59.66
630.656	59.78
630.989	59.72
631.322	59.79
631.655	59.79
631.987	59.83
632.32	59.84
632.653	59.83
632.986	59.89
633.318	59.82
633.651	59.83
633.984	59.84
634.316	59.89
634.649	59.91
634.981	59.88
635.313	59.88
635.646	59.98
635.978	59.91
636.31	59.91
636.643	59.93
636.975	59.92
637.307	59.87
637.639	59.82
637.971	59.92
638.303	59.85
638.635	59.79
638.967	59.84
639.299	59.94
639.631	59.91
639.963	59.86
640.295	59.86
640.626	59.83
640.958	59.85
641.29	59.87
641.621	59.99
641.953	60.06
642.285	60.09
642.616	60.03
642.948	60.14
643.279	60.21
643.61	60.17
643.942	60.16
644.273	60.09
644.604	60.02
644.936	59.93
645.267	60
645.598	60.07
645.929	59.96
646.26	59.9
646.591	59.91
646.922	59.95
647.253	59.97
647.584	59.97
647.915	59.95
648.245	59.97
648.576	59.96
648.907	59.95
649.238	59.97
649.568	59.96
649.899	59.83
650.229	59.81
650.56	59.83
650.89	59.85
651.221	59.89
651.551	59.94
651.882	59.98
652.212	59.97
652.542	59.98
652.872	60.17
653.203	60.18
653.533	60.28
653.863	60.26
654.193	60.33
654.523	60.25
654.853	60.31
655.183	60.33
655.513	60.33
655.843	60.46
656.172	60.48
656.502	60.58
656.832	60.6
657.162	60.67
657.491	60.71
657.821	60.7
658.15	60.75
658.48	60.78
658.809	60.75
659.139	60.68
