Data from BU58002_Reflection_00014.txt Node
Date: Tue Nov 19 10:58:01 EST 2019
User: vgr7
Spectrometer: USB2G7710
Scans to average: 3
Trigger mode: 4
Integration Time (sec): 2.000000E-2
Electric dark correction enabled: true
Boxcar width: 10
XAxis mode: Wavelengths
Number of Pixels in Spectrum: 2048
>>>>>Begin Spectral Data<<<<<
177.721	101.96
178.105	68.75
178.488	88.31
178.871	193.18
179.254	61.54
179.636	-23.99
180.019	-151.26
180.402	33.33
180.785	-287.5
181.168	-2385.29
181.55	-183.65
181.933	-27.07
182.316	-19.78
182.698	-21.5
183.081	-19.95
183.463	13.39
183.846	18.45
184.228	42.62
184.611	-180.9
184.993	-181.82
185.376	-142.08
185.758	-1175.86
186.14	223.08
186.522	299.15
186.904	-400
187.287	-557.89
187.669	-152.94
188.051	-68.2
188.433	194.34
188.815	-560.71
189.197	-248.92
189.579	-135.66
189.961	-69.95
190.342	-37.87
190.724	-45.67
191.106	-58.74
191.488	-57.82
191.869	-67.13
192.251	-89.58
192.633	-52.84
193.014	-64.35
193.396	-64.55
193.777	-58.19
194.159	-53.23
194.54	-57.44
194.922	-47.94
195.303	-66.01
195.684	-51.5
196.065	-65.81
196.447	-52.99
196.828	-54.15
197.209	-65.59
197.59	-66.08
197.971	-58.55
198.352	-62.88
198.733	-67.47
199.114	-53.1
199.495	-66.98
199.876	-82.02
200.257	-78.89
200.638	-97.1
201.018	-99.02
201.399	-89.36
201.78	-76.53
202.16	-91.48
202.541	-83.29
202.922	-89.76
203.302	-86.21
203.683	-101.52
204.063	-83.68
204.444	-81.74
204.824	-75.85
205.204	-64.84
205.585	-60.78
205.965	-75.42
206.345	-71.07
206.725	-51.76
207.106	-50.9
207.486	-31.28
207.866	-25.61
208.246	-7.2
208.626	-25.71
209.006	-23.42
209.386	-28.66
209.766	-36.56
210.145	-32.53
210.525	-41.15
210.905	-30.36
211.285	-21
211.664	5.57
212.044	-8.6
212.424	1.28
212.803	-11.43
213.183	-16.1
213.562	-9.56
213.942	-12.11
214.321	-22.11
214.701	-31.84
215.08	-31.44
215.459	-17.54
215.838	-19.78
216.218	-17.31
216.597	-9.66
216.976	-5.4
217.355	-13.62
217.734	-4.66
218.113	13.36
218.492	14.25
218.871	3.5
219.25	10.88
219.629	-26.33
220.008	1.97
220.387	-21.34
220.766	-0.45
221.144	-8.96
221.523	-18.99
221.902	-9.39
222.28	-5.79
222.659	-5.16
223.037	-5.62
223.416	-19.38
223.794	-17.48
224.173	-25.52
224.551	-21.11
224.929	-23.91
225.308	-17.63
225.686	-20.29
226.064	-22.3
226.442	-17.47
226.821	-14.45
227.199	-13.94
227.577	-9.57
227.955	-9.08
228.333	-6.47
228.711	-5.92
229.089	-2.42
229.467	-1.51
229.845	-3.7
230.222	-3.21
230.6	-4.94
230.978	-3.34
231.356	-2.82
231.733	-0.64
232.111	1.8
232.488	0.36
232.866	1.53
233.243	1.89
233.621	2.89
233.998	3.89
234.376	4.73
234.753	5.67
235.13	4.23
235.508	4.26
235.885	2.68
236.262	0.93
236.639	0.86
237.016	-0.58
237.393	-1
237.77	0.77
238.147	1.34
238.524	3.4
238.901	2.96
239.278	3.44
239.655	2.82
240.032	3.04
240.409	3.66
240.785	3.6
241.162	4.18
241.539	4.23
241.915	4.1
242.292	3.65
242.668	3.64
243.045	3.88
243.421	3.97
243.798	4.23
244.174	4.7
244.551	4.47
244.927	4.72
245.303	4.77
245.679	4.84
246.056	4.84
246.432	4.78
246.808	4.81
247.184	4.81
247.56	4.72
247.936	4.62
248.312	4.38
248.688	4.3
249.064	4.1
249.44	4.05
249.815	3.92
250.191	3.89
250.567	3.77
250.943	3.63
251.318	3.41
251.694	3.12
252.069	2.92
252.445	3.07
252.82	3.3
253.196	3.24
253.571	3.26
253.947	3.13
254.322	2.78
254.697	2.73
255.073	2.81
255.448	2.91
255.823	3
256.198	3.32
256.573	3.45
256.948	3.39
257.323	3.45
257.698	3.57
258.073	3.62
258.448	3.62
258.823	3.78
259.198	3.8
259.573	3.79
259.948	3.86
260.322	3.72
260.697	3.7
261.072	3.8
261.446	3.75
261.821	3.76
262.195	3.76
262.57	3.72
262.944	3.75
263.319	3.95
263.693	3.89
264.067	3.88
264.442	3.75
264.816	3.9
265.19	3.85
265.564	3.88
265.938	3.79
266.313	3.64
266.687	3.69
267.061	3.84
267.435	4
267.809	4.01
268.183	4.05
268.556	3.87
268.93	3.76
269.304	3.67
269.678	3.75
270.051	3.92
270.425	4.01
270.799	3.91
271.172	3.76
271.546	3.9
271.919	3.82
272.293	4.02
272.666	3.97
273.04	3.89
273.413	3.75
273.787	3.7
274.16	3.65
274.533	3.67
274.906	3.68
275.279	3.61
275.653	3.59
276.026	3.52
276.399	3.54
276.772	3.65
277.145	3.67
277.518	3.54
277.891	3.33
278.263	3.42
278.636	3.43
279.009	3.52
279.382	3.5
279.755	3.56
280.127	3.39
280.5	3.42
280.872	3.53
281.245	3.57
281.617	3.76
281.99	3.95
282.362	3.89
282.735	3.82
283.107	3.9
283.479	3.99
283.852	4.16
284.224	4.07
284.596	4.06
284.968	4.12
285.34	4.15
285.713	4.34
286.085	4.15
286.457	4.14
286.829	4.06
287.201	3.97
287.572	3.97
287.944	4.03
288.316	4.02
288.688	4.13
289.06	4.25
289.431	4.46
289.803	4.46
290.175	4.46
290.546	4.43
290.918	4.49
291.289	4.32
291.661	4.41
292.032	4.49
292.403	4.4
292.775	4.47
293.146	4.55
293.517	4.36
293.889	4.42
294.26	4.45
294.631	4.52
295.002	4.57
295.373	4.54
295.744	4.71
296.115	4.79
296.486	4.77
296.857	4.71
297.228	4.48
297.599	4.42
297.97	4.55
298.34	4.56
298.711	4.62
299.082	4.87
299.452	4.78
299.823	4.9
300.194	5.02
300.564	5.01
300.935	5.09
301.305	5.3
301.676	5.34
302.046	5.38
302.416	5.45
302.787	5.68
303.157	5.91
303.527	5.79
303.897	5.79
304.267	5.91
304.637	6.15
305.008	6.39
305.378	6.75
305.748	6.73
306.117	6.98
306.487	7.16
306.857	7.27
307.227	7.46
307.597	7.56
307.967	7.81
308.336	7.99
308.706	8.17
309.076	8.34
309.445	8.62
309.815	8.88
310.184	9.05
310.554	9.07
310.923	9.1
311.293	9.33
311.662	9.48
312.031	9.47
312.401	9.67
312.77	9.73
313.139	9.7
313.508	9.83
313.877	9.93
314.246	9.96
314.616	10.01
314.985	10.09
315.353	10.21
315.722	10.33
316.091	10.39
316.46	10.38
316.829	10.44
317.198	10.52
317.567	10.6
317.935	10.58
318.304	10.79
318.672	11
319.041	10.96
319.41	11.13
319.778	11.29
320.147	11.18
320.515	11.23
320.883	11.34
321.252	11.5
321.62	11.4
321.988	11.52
322.357	11.67
322.725	11.7
323.093	11.75
323.461	11.62
323.829	11.68
324.197	11.87
324.565	12.02
324.933	11.91
325.301	11.93
325.669	12.05
326.037	12.21
326.405	12.29
326.772	12.56
327.14	12.44
327.508	12.57
327.875	12.56
328.243	12.62
328.61	12.78
328.978	12.93
329.346	13.21
329.713	13.32
330.08	13.42
330.448	13.51
330.815	13.64
331.182	13.87
331.55	13.94
331.917	13.75
332.284	13.79
332.651	14.04
333.018	14.14
333.385	14.22
333.752	14.18
334.119	14.29
334.486	14.31
334.853	14.43
335.22	14.24
335.587	14.32
335.954	14.38
336.32	14.31
336.687	14.26
337.054	14.3
337.42	14.25
337.787	14.17
338.153	14.42
338.52	14.42
338.886	14.38
339.253	14.36
339.619	14.58
339.986	14.58
340.352	14.6
340.718	14.67
341.084	14.71
341.451	14.69
341.817	14.69
342.183	14.62
342.549	14.64
342.915	14.78
343.281	14.87
343.647	14.86
344.013	14.92
344.379	14.87
344.745	14.87
345.11	14.91
345.476	14.95
345.842	14.8
346.208	14.94
346.573	14.99
346.939	15
347.304	14.93
347.67	14.92
348.035	14.84
348.401	14.74
348.766	14.58
349.132	14.57
349.497	14.53
349.862	14.57
350.228	14.6
350.593	14.62
350.958	14.66
351.323	14.65
351.688	14.71
352.053	14.72
352.418	14.69
352.783	14.75
353.148	14.79
353.513	14.73
353.878	14.58
354.243	14.53
354.608	14.59
354.972	14.58
355.337	14.61
355.702	14.64
356.066	14.71
356.431	14.86
356.795	14.79
357.16	14.7
357.524	14.63
357.889	14.59
358.253	14.58
358.618	14.5
358.982	14.46
359.346	14.37
359.71	14.33
360.075	14.29
360.439	14.2
360.803	14.14
361.167	14.19
361.531	14.13
361.895	14.17
362.259	14.08
362.623	14.03
362.987	14
363.351	13.88
363.714	13.76
364.078	13.65
364.442	13.63
364.806	13.57
365.169	13.49
365.533	13.4
365.896	13.36
366.26	13.27
366.623	13.22
366.987	13.15
367.35	13.06
367.714	12.97
368.077	12.89
368.44	12.84
368.803	12.63
369.167	12.56
369.53	12.42
369.893	12.35
370.256	12.2
370.619	12.08
370.982	11.98
371.345	11.91
371.708	11.84
372.071	11.68
372.434	11.68
372.797	11.65
373.159	11.46
373.522	11.34
373.885	11.22
374.247	11.13
374.61	11.07
374.973	10.98
375.335	10.9
375.698	10.81
376.06	10.71
376.423	10.65
376.785	10.61
377.147	10.53
377.51	10.43
377.872	10.45
378.234	10.32
378.596	10.27
378.958	10.2
379.321	10.11
379.683	10.08
380.045	9.92
380.407	9.79
380.769	9.77
381.13	9.66
381.492	9.64
381.854	9.5
382.216	9.41
382.578	9.31
382.939	9.19
383.301	9.06
383.663	8.93
384.024	8.82
384.386	8.71
384.747	8.62
385.109	8.56
385.47	8.44
385.832	8.42
386.193	8.35
386.554	8.3
386.916	8.23
387.277	8.12
387.638	8.08
387.999	8.02
388.36	7.97
388.721	7.92
389.082	7.87
389.443	7.87
389.804	7.8
390.165	7.72
390.526	7.65
390.887	7.58
391.248	7.57
391.609	7.53
391.969	7.48
392.33	7.42
392.691	7.37
393.051	7.33
393.412	7.24
393.772	7.21
394.133	7.13
394.493	7.08
394.854	7.04
395.214	6.96
395.574	6.91
395.935	6.83
396.295	6.74
396.655	6.66
397.015	6.61
397.376	6.52
397.736	6.44
398.096	6.39
398.456	6.34
398.816	6.29
399.176	6.2
399.535	6.1
399.895	6.04
400.255	5.96
400.615	5.93
400.975	5.87
401.334	5.79
401.694	5.73
402.054	5.68
402.413	5.64
402.773	5.63
403.132	5.58
403.492	5.52
403.851	5.51
404.211	5.46
404.57	5.41
404.929	5.4
405.288	5.39
405.648	5.36
406.007	5.35
406.366	5.32
406.725	5.32
407.084	5.35
407.443	5.34
407.802	5.33
408.161	5.26
408.52	5.24
408.879	5.2
409.238	5.2
409.596	5.16
409.955	5.13
410.314	5.1
410.673	5.08
411.031	5.08
411.39	5.03
411.748	5.02
412.107	4.97
412.465	4.95
412.824	4.92
413.182	4.89
413.54	4.83
413.899	4.78
414.257	4.74
414.615	4.7
414.974	4.67
415.332	4.62
415.69	4.6
416.048	4.57
416.406	4.54
416.764	4.51
417.122	4.51
417.48	4.52
417.838	4.47
418.195	4.44
418.553	4.43
418.911	4.41
419.269	4.4
419.626	4.39
419.984	4.37
420.342	4.37
420.699	4.37
421.057	4.37
421.414	4.38
421.772	4.36
422.129	4.33
422.486	4.31
422.844	4.31
423.201	4.3
423.558	4.3
423.915	4.3
424.273	4.3
424.63	4.29
424.987	4.26
425.344	4.27
425.701	4.25
426.058	4.25
426.415	4.26
426.772	4.25
427.128	4.23
427.485	4.22
427.842	4.19
428.199	4.17
428.555	4.17
428.912	4.14
429.269	4.14
429.625	4.12
429.982	4.12
430.338	4.1
430.695	4.07
431.051	4.06
431.407	4.06
431.764	4.01
432.12	4.01
432.476	4
432.832	3.98
433.189	3.98
433.545	3.97
433.901	3.94
434.257	3.93
434.613	3.93
434.969	3.92
435.325	3.93
435.681	3.9
436.036	3.89
436.392	3.89
436.748	3.91
437.104	3.91
437.459	3.9
437.815	3.9
438.171	3.93
438.526	3.92
438.882	3.91
439.237	3.92
439.593	3.89
439.948	3.88
440.304	3.87
440.659	3.87
441.014	3.85
441.369	3.86
441.725	3.85
442.08	3.84
442.435	3.84
442.79	3.82
443.145	3.84
443.5	3.81
443.855	3.79
444.21	3.77
444.565	3.76
444.92	3.75
445.275	3.75
445.629	3.73
445.984	3.71
446.339	3.69
446.693	3.7
447.048	3.68
447.403	3.68
447.757	3.67
448.112	3.66
448.466	3.67
448.82	3.65
449.175	3.65
449.529	3.64
449.883	3.63
450.238	3.64
450.592	3.62
450.946	3.63
451.3	3.63
451.654	3.62
452.008	3.6
452.362	3.6
452.716	3.58
453.07	3.58
453.424	3.59
453.778	3.59
454.132	3.58
454.486	3.59
454.839	3.61
455.193	3.62
455.547	3.65
455.9	3.63
456.254	3.62
456.607	3.62
456.961	3.63
457.314	3.62
457.668	3.61
458.021	3.6
458.375	3.6
458.728	3.61
459.081	3.61
459.434	3.62
459.787	3.63
460.141	3.64
460.494	3.64
460.847	3.65
461.2	3.65
461.553	3.66
461.906	3.67
462.259	3.64
462.611	3.63
462.964	3.62
463.317	3.63
463.67	3.64
464.022	3.62
464.375	3.62
464.728	3.64
465.08	3.65
465.433	3.67
465.785	3.68
466.138	3.68
466.49	3.7
466.843	3.71
467.195	3.74
467.547	3.75
467.899	3.75
468.252	3.75
468.604	3.78
468.956	3.78
469.308	3.76
469.66	3.79
470.012	3.82
470.364	3.82
470.716	3.82
471.068	3.84
471.42	3.85
471.772	3.89
472.123	3.9
472.475	3.91
472.827	3.93
473.178	3.97
473.53	3.97
473.882	3.97
474.233	3.98
474.585	3.96
474.936	3.94
475.288	3.94
475.639	3.95
475.99	3.93
476.342	3.94
476.693	3.95
477.044	3.95
477.395	3.93
477.746	3.93
478.097	3.93
478.448	3.93
478.8	3.94
479.15	3.92
479.501	3.92
479.852	3.9
480.203	3.89
480.554	3.86
480.905	3.86
481.255	3.88
481.606	3.88
481.957	3.89
482.307	3.9
482.658	3.91
483.009	3.91
483.359	3.92
483.709	3.93
484.06	3.95
484.41	3.95
484.761	3.95
485.111	3.96
485.461	3.97
485.811	3.97
486.162	3.97
486.512	3.98
486.862	3.98
487.212	3.99
487.562	3.99
487.912	4.02
488.262	4.02
488.612	4.02
488.961	4.03
489.311	4.02
489.661	4.02
490.011	4.02
490.36	4.03
490.71	4.03
491.06	4.02
491.409	4.02
491.759	4.04
492.108	4.03
492.458	4.03
492.807	4.04
493.157	4.03
493.506	4.04
493.855	4.06
494.204	4.05
494.554	4.07
494.903	4.09
495.252	4.09
495.601	4.12
495.95	4.13
496.299	4.14
496.648	4.17
496.997	4.21
497.346	4.23
497.695	4.23
498.043	4.26
498.392	4.3
498.741	4.34
499.09	4.37
499.438	4.42
499.787	4.46
500.135	4.48
500.484	4.53
500.832	4.56
501.181	4.6
501.529	4.68
501.878	4.71
502.226	4.76
502.574	4.78
502.923	4.84
503.271	4.89
503.619	4.94
503.967	5
504.315	5.06
504.663	5.1
505.011	5.16
505.359	5.21
505.707	5.27
506.055	5.33
506.403	5.39
506.751	5.45
507.098	5.55
507.446	5.62
507.794	5.71
508.141	5.79
508.489	5.86
508.837	5.92
509.184	6
509.531	6.08
509.879	6.16
510.226	6.23
510.574	6.33
510.921	6.41
511.268	6.5
511.616	6.6
511.963	6.7
512.31	6.81
512.657	6.91
513.004	7.01
513.351	7.1
513.698	7.23
514.045	7.38
514.392	7.52
514.739	7.66
515.086	7.8
515.432	7.97
515.779	8.12
516.126	8.28
516.473	8.41
516.819	8.57
517.166	8.73
517.512	8.87
517.859	9.01
518.205	9.12
518.552	9.27
518.898	9.41
519.245	9.57
519.591	9.72
519.937	9.87
520.283	10.03
520.629	10.19
520.976	10.36
521.322	10.52
521.668	10.68
522.014	10.86
522.36	11.04
522.706	11.22
523.052	11.41
523.398	11.61
523.743	11.84
524.089	12.06
524.435	12.26
524.781	12.47
525.126	12.66
525.472	12.86
525.817	13
526.163	13.16
526.509	13.3
526.854	13.44
527.199	13.57
527.545	13.7
527.89	13.82
528.235	13.94
528.581	14.07
528.926	14.2
529.271	14.34
529.616	14.46
529.961	14.59
530.306	14.73
530.651	14.85
530.996	14.99
531.341	15.14
531.686	15.3
532.031	15.44
532.376	15.6
532.721	15.75
533.065	15.93
533.41	16.09
533.755	16.25
534.099	16.41
534.444	16.58
534.788	16.74
535.133	16.92
535.477	17.1
535.822	17.28
536.166	17.47
536.51	17.69
536.855	17.91
537.199	18.13
537.543	18.37
537.887	18.6
538.231	18.84
538.576	19.08
538.92	19.31
539.264	19.53
539.608	19.76
539.951	19.95
540.295	20.13
540.639	20.31
540.983	20.51
541.327	20.7
541.671	20.91
542.014	21.07
542.358	21.23
542.701	21.39
543.045	21.55
543.389	21.71
543.732	21.87
544.075	22.07
544.419	22.27
544.762	22.45
545.105	22.67
545.449	22.84
545.792	23.07
546.135	23.29
546.478	23.52
546.821	23.74
547.165	24.02
547.508	24.3
547.851	24.61
548.194	24.87
548.536	25.15
548.879	25.38
549.222	25.71
549.565	26.03
549.908	26.33
550.25	26.61
550.593	26.94
550.936	27.19
551.278	27.46
551.621	27.73
551.963	28.06
552.306	28.35
552.648	28.7
552.991	28.97
553.333	29.24
553.675	29.52
554.017	29.82
554.36	30.11
554.702	30.36
555.044	30.6
555.386	30.91
555.728	31.16
556.07	31.45
556.412	31.74
556.754	32
557.096	32.33
557.438	32.69
557.78	33
558.121	33.34
558.463	33.67
558.805	33.94
559.147	34.23
559.488	34.53
559.83	34.82
560.171	35.07
560.513	35.4
560.854	35.67
561.196	35.94
561.537	36.22
561.878	36.52
562.22	36.82
562.561	37.08
562.902	37.35
563.243	37.63
563.584	37.87
563.925	38.19
564.266	38.46
564.607	38.66
564.948	38.98
565.289	39.21
565.63	39.44
565.971	39.74
566.312	39.98
566.653	40.2
566.993	40.44
567.334	40.76
567.675	41.01
568.015	41.26
568.356	41.51
568.696	41.76
569.037	41.97
569.377	42.15
569.718	42.34
570.058	42.65
570.398	42.91
570.739	43.19
571.079	43.43
571.419	43.63
571.759	43.84
572.099	43.99
572.439	44.27
572.779	44.5
573.119	44.7
573.459	44.91
573.799	45.12
574.139	45.31
574.479	45.49
574.819	45.72
575.158	45.92
575.498	46.14
575.838	46.39
576.177	46.64
576.517	46.89
576.856	47.14
577.196	47.35
577.535	47.58
577.875	47.75
578.214	47.88
578.553	48.12
578.893	48.36
579.232	48.59
579.571	48.76
579.91	48.94
580.25	49.16
580.589	49.38
580.928	49.6
581.267	49.8
581.606	50.01
581.945	50.15
582.283	50.3
582.622	50.47
582.961	50.66
583.3	50.81
583.639	51.01
583.977	51.15
584.316	51.23
584.654	51.3
584.993	51.55
585.332	51.79
585.67	51.97
586.008	52.15
586.347	52.24
586.685	52.34
587.024	52.5
587.362	52.66
587.7	52.79
588.038	52.96
588.376	53.13
588.715	53.28
589.053	53.41
589.391	53.62
589.729	53.69
590.067	53.75
590.404	53.9
590.742	54.03
591.08	54.15
591.418	54.29
591.756	54.53
592.093	54.58
592.431	54.7
592.769	54.73
593.106	54.81
593.444	54.98
593.781	55.15
594.119	55.24
594.456	55.29
594.793	55.42
595.131	55.47
595.468	55.46
595.805	55.55
596.143	55.62
596.48	55.68
596.817	55.82
597.154	55.94
597.491	56.04
597.828	56.11
598.165	56.17
598.502	56.35
598.839	56.34
599.176	56.47
599.512	56.51
599.849	56.7
600.186	56.78
600.523	56.88
600.859	56.96
601.196	57.07
601.532	57.18
601.869	57.14
602.205	57.27
602.542	57.41
602.878	57.44
603.215	57.47
603.551	57.51
603.887	57.52
604.223	57.55
604.56	57.57
604.896	57.69
605.232	57.86
605.568	57.88
605.904	57.99
606.24	58.01
606.576	58.11
606.912	58.12
607.248	58.25
607.583	58.32
607.919	58.35
608.255	58.43
608.591	58.57
608.926	58.78
609.262	58.85
609.597	58.93
609.933	59.05
610.268	59.17
610.604	59.29
610.939	59.39
611.275	59.44
611.61	59.55
611.945	59.63
612.281	59.59
612.616	59.64
612.951	59.71
613.286	59.78
613.621	59.82
613.956	59.81
614.291	59.84
614.626	59.9
614.961	59.99
615.296	60.07
615.631	60.11
615.966	60.12
616.3	60.09
616.635	60.09
616.97	60.23
617.304	60.23
617.639	60.17
617.973	60.26
618.308	60.36
618.642	60.3
618.977	60.27
619.311	60.32
619.646	60.41
619.98	60.5
620.314	60.47
620.648	60.54
620.983	60.62
621.317	60.73
621.651	60.77
621.985	60.76
622.319	60.79
622.653	60.77
622.987	60.73
623.321	60.76
623.655	60.9
623.988	60.82
624.322	60.83
624.656	60.94
624.99	60.91
625.323	60.97
625.657	61.06
625.99	61.05
626.324	61.09
626.657	61.11
626.991	61.02
627.324	61.07
627.658	61.09
627.991	61.22
628.324	61.21
628.657	61.11
628.991	61.2
629.324	61.29
629.657	61.48
629.99	61.67
630.323	61.71
630.656	61.69
630.989	61.75
631.322	61.91
631.655	61.9
631.987	61.92
632.32	61.91
632.653	61.97
632.986	62.02
633.318	62.05
633.651	62.09
633.984	62.17
634.316	62.31
634.649	62.34
634.981	62.33
635.313	62.37
635.646	62.49
635.978	62.58
636.31	62.56
636.643	62.39
636.975	62.39
637.307	62.38
637.639	62.43
637.971	62.43
638.303	62.48
638.635	62.58
638.967	62.65
639.299	62.72
639.631	62.72
639.963	62.86
640.295	62.95
640.626	62.98
640.958	63.12
641.29	63.22
641.621	63.3
641.953	63.31
642.285	63.21
642.616	63.42
642.948	63.4
643.279	63.41
643.61	63.5
643.942	63.44
644.273	63.55
644.604	63.47
644.936	63.5
645.267	63.42
645.598	63.44
645.929	63.4
646.26	63.29
646.591	63.42
646.922	63.37
647.253	63.33
647.584	63.38
647.915	63.36
648.245	63.36
648.576	63.37
648.907	63.35
649.238	63.38
649.568	63.23
649.899	63.25
650.229	63.31
650.56	63.26
650.89	63.36
651.221	63.24
651.551	63.35
651.882	63.32
652.212	63.39
652.542	63.47
652.872	63.5
653.203	63.58
653.533	63.46
653.863	63.4
654.193	63.36
654.523	63.32
654.853	63.26
655.183	63.08
655.513	63.04
655.843	62.99
656.172	63.1
656.502	63.1
656.832	63
657.162	62.9
657.491	63.01
657.821	62.91
658.15	62.87
658.48	62.84
658.809	62.85
659.139	62.88
659.468	62.78
659.798	62.88
660.127	62.73
660.456	62.75
660.785	62.77
661.115	62.86
661.444	62.84
661.773	62.92
662.102	62.92
662.431	62.84
662.76	62.95
663.089	62.9
663.418	62.83
663.747	62.92
