Data from BU58131_Reflection_00015.txt Node
Date: Mon Nov 18 16:32:41 EST 2019
User: vgr7
Spectrometer: USB2G7710
Scans to average: 3
Trigger mode: 4
Integration Time (sec): 2.000000E-2
Electric dark correction enabled: true
Boxcar width: 10
XAxis mode: Wavelengths
Number of Pixels in Spectrum: 2048
>>>>>Begin Spectral Data<<<<<
177.721	371.57
178.105	70.15
178.488	-126.93
178.871	209.38
179.254	52.5
179.636	-91.96
180.019	437.02
180.402	142.86
180.785	-144.35
181.168	198.45
181.55	-9.2
181.933	53.42
182.316	35.35
182.698	26.47
183.081	16.64
183.463	-11
183.846	-2.96
184.228	-9.33
184.611	-28.93
184.993	-0.92
185.376	-11.37
185.758	-63.01
186.14	-64.98
186.522	-28.25
186.904	22.42
187.287	-7.56
187.669	-69.28
188.051	-145.69
188.433	-198.3
188.815	-225.91
189.197	-676.82
189.579	115.03
189.961	93.46
190.342	69.42
190.724	35.89
191.106	38.01
191.488	23.73
191.869	22.79
192.251	20.57
192.633	20.04
193.014	47.43
193.396	1.26
193.777	-17.88
194.159	-31.69
194.54	-5.18
194.922	73.88
195.303	66.48
195.684	74.66
196.065	19.11
196.447	45.49
196.828	57.64
197.209	68.03
197.59	53.7
197.971	45.54
198.352	70
198.733	84.24
199.114	86.42
199.495	138.69
199.876	113.07
200.257	125.07
200.638	114.69
201.018	115.77
201.399	118.45
201.78	138.9
202.16	173.25
202.541	161
202.922	113.04
203.302	123.74
203.683	104.58
204.063	134.45
204.444	146.83
204.824	219.77
205.204	189.78
205.585	305.15
205.965	193.95
206.345	217.5
206.725	481.05
207.106	412.32
207.486	605.15
207.866	7.92
208.246	-1508.7
208.626	-54.81
209.006	324.62
209.386	-428.77
209.766	-517.75
210.145	701.11
210.525	187.04
210.905	200.58
211.285	198.98
211.664	186.49
212.044	173.2
212.424	150.68
212.803	88.84
213.183	83.58
213.562	64.49
213.942	69
214.321	65.46
214.701	52.87
215.08	51.88
215.459	64.66
215.838	69.07
216.218	80.7
216.597	106.02
216.976	96.58
217.355	71.64
217.734	53.77
218.113	35.89
218.492	44.2
218.871	28.73
219.25	42.48
219.629	37.01
220.008	31.21
220.387	39.39
220.766	42.14
221.144	36.42
221.523	43.14
221.902	42.52
222.28	48.04
222.659	44.29
223.037	59.51
223.416	41.03
223.794	28.24
224.173	16.8
224.551	12.91
224.929	14.27
225.308	14.24
225.686	17.81
226.064	19.7
226.442	19.32
226.821	21.14
227.199	13.72
227.577	13.87
227.955	11.88
228.333	7.19
228.711	8.41
229.089	11.8
229.467	7.26
229.845	9.56
230.222	9.6
230.6	10.86
230.978	11.48
231.356	14.51
231.733	17.72
232.111	16.38
232.488	16.46
232.866	15.89
233.243	15.83
233.621	14.92
233.998	17.08
234.376	13.29
234.753	12.62
235.13	11.65
235.508	13.24
235.885	13.54
236.262	11.66
236.639	10.54
237.016	9.05
237.393	10.16
237.77	9.46
238.147	8.71
238.524	8.17
238.901	7.03
239.278	7.07
239.655	6.85
240.032	6.92
240.409	6.35
240.785	6.08
241.162	6.17
241.539	6.24
241.915	5.78
242.292	5.87
242.668	6.04
243.045	5.86
243.421	5.75
243.798	5.54
244.174	5.73
244.551	5.76
244.927	5.77
245.303	5.87
245.679	5.56
246.056	5.47
246.432	5.35
246.808	5.49
247.184	5.01
247.56	4.86
247.936	4.78
248.312	4.7
248.688	4.64
249.064	4.56
249.44	4.3
249.815	4.37
250.191	4.54
250.567	4.29
250.943	4.38
251.318	4.52
251.694	4.45
252.069	4.53
252.445	4.41
252.82	4.44
253.196	4.14
253.571	4.77
253.947	4.55
254.322	4.82
254.697	4.94
255.073	5.03
255.448	4.87
255.823	4.7
256.198	4.51
256.573	4.29
256.948	4.14
257.323	4.29
257.698	4.2
258.073	4.06
258.448	4.09
258.823	3.99
259.198	3.69
259.573	3.86
259.948	3.73
260.322	3.72
260.697	3.66
261.072	3.75
261.446	3.5
261.821	3.62
262.195	3.41
262.57	3.41
262.944	3.3
263.319	3.32
263.693	3.3
264.067	3.41
264.442	3.59
264.816	3.71
265.19	3.83
265.564	3.71
265.938	3.74
266.313	3.77
266.687	3.88
267.061	4.1
267.435	4.07
267.809	4.05
268.183	4.23
268.556	4.28
268.93	4.14
269.304	4.06
269.678	4.11
270.051	4.06
270.425	3.87
270.799	4.11
271.172	3.99
271.546	3.97
271.919	3.86
272.293	3.8
272.666	3.74
273.04	3.63
273.413	3.63
273.787	3.68
274.16	3.65
274.533	3.59
274.906	3.51
275.279	3.36
275.653	3.35
276.026	3.28
276.399	3.23
276.772	3.34
277.145	3.4
277.518	3.34
277.891	3.53
278.263	3.55
278.636	3.4
279.009	3.37
279.382	3.42
279.755	3.53
280.127	3.63
280.5	3.62
280.872	3.66
281.245	3.71
281.617	3.68
281.99	3.73
282.362	3.81
282.735	3.56
283.107	3.71
283.479	3.75
283.852	3.75
284.224	3.72
284.596	3.76
284.968	3.72
285.34	3.87
285.713	3.85
286.085	3.89
286.457	4.02
286.829	4.12
287.201	4.17
287.572	4.09
287.944	3.98
288.316	4.05
288.688	4
289.06	4.07
289.431	4.04
289.803	4.18
290.175	4.14
290.546	4.52
290.918	4.55
291.289	4.58
291.661	4.63
292.032	4.68
292.403	4.8
292.775	4.91
293.146	4.72
293.517	4.8
293.889	4.74
294.26	4.62
294.631	4.66
295.002	4.65
295.373	4.75
295.744	4.82
296.115	4.78
296.486	4.81
296.857	4.75
297.228	4.87
297.599	4.76
297.97	4.83
298.34	4.73
298.711	4.67
299.082	4.82
299.452	4.89
299.823	4.91
300.194	4.85
300.564	4.79
300.935	4.91
301.305	4.88
301.676	5.04
302.046	5.18
302.416	5.2
302.787	5.39
303.157	5.46
303.527	5.65
303.897	5.68
304.267	5.79
304.637	6.06
305.008	6.21
305.378	6.44
305.748	6.55
306.117	6.61
306.487	6.76
306.857	6.71
307.227	6.7
307.597	6.81
307.967	6.94
308.336	7.12
308.706	7.15
309.076	7.2
309.445	7.35
309.815	7.33
310.184	7.35
310.554	7.28
310.923	7.27
311.293	7.17
311.662	7.24
312.031	7.27
312.401	7.11
312.77	6.99
313.139	6.93
313.508	7.02
313.877	7.11
314.246	7.16
314.616	7.27
314.985	7.37
315.353	7.46
315.722	7.45
316.091	7.4
316.46	7.47
316.829	7.58
317.198	7.6
317.567	7.8
317.935	7.95
318.304	8.05
318.672	8.17
319.041	8.35
319.41	8.5
319.778	8.55
320.147	8.8
320.515	8.93
320.883	9.02
321.252	9.06
321.62	9.22
321.988	9.31
322.357	9.26
322.725	9.28
323.093	9.28
323.461	9.36
323.829	9.43
324.197	9.48
324.565	9.52
324.933	9.53
325.301	9.53
325.669	9.67
326.037	9.75
326.405	9.75
326.772	9.82
327.14	9.88
327.508	10
327.875	10.06
328.243	10.19
328.61	10.26
328.978	10.47
329.346	10.53
329.713	10.51
330.08	10.7
330.448	10.66
330.815	10.79
331.182	10.93
331.55	11.07
331.917	11.16
332.284	11.36
332.651	11.45
333.018	11.43
333.385	11.34
333.752	11.43
334.119	11.61
334.486	11.54
334.853	11.52
335.22	11.55
335.587	11.57
335.954	11.6
336.32	11.69
336.687	11.54
337.054	11.53
337.42	11.74
337.787	11.74
338.153	11.88
338.52	11.96
338.886	11.91
339.253	11.89
339.619	11.91
339.986	11.79
340.352	11.8
340.718	11.87
341.084	11.93
341.451	11.92
341.817	11.86
342.183	12.04
342.549	12.15
342.915	12.15
343.281	12.08
343.647	12.02
344.013	12.09
344.379	12.01
344.745	11.97
345.11	11.85
345.476	11.89
345.842	11.95
346.208	11.83
346.573	11.9
346.939	11.96
347.304	11.9
347.67	11.91
348.035	11.84
348.401	11.9
348.766	11.95
349.132	11.9
349.497	11.83
349.862	11.87
350.228	11.91
350.593	11.83
350.958	11.84
351.323	11.87
351.688	11.81
352.053	11.96
352.418	12.02
352.783	12.08
353.148	11.94
353.513	11.9
353.878	11.88
354.243	11.86
354.608	11.8
354.972	11.88
355.337	11.91
355.702	12.04
356.066	12.06
356.431	12.02
356.795	12.11
357.16	12.17
357.524	11.99
357.889	11.89
358.253	11.93
358.618	11.97
358.982	11.88
359.346	11.82
359.71	11.75
360.075	11.64
360.439	11.49
360.803	11.51
361.167	11.45
361.531	11.5
361.895	11.39
362.259	11.4
362.623	11.34
362.987	11.26
363.351	11.13
363.714	11.03
364.078	11
364.442	10.86
364.806	10.77
365.169	10.74
365.533	10.73
365.896	10.66
366.26	10.64
366.623	10.62
366.987	10.52
367.35	10.42
367.714	10.38
368.077	10.35
368.44	10.3
368.803	10.26
369.167	10.19
369.53	10.08
369.893	10.01
370.256	9.99
370.619	9.92
370.982	9.85
371.345	9.73
371.708	9.6
372.071	9.52
372.434	9.51
372.797	9.49
373.159	9.38
373.522	9.32
373.885	9.24
374.247	9.2
374.61	9.14
374.973	9.03
375.335	8.98
375.698	8.93
376.06	8.86
376.423	8.71
376.785	8.57
377.147	8.58
377.51	8.49
377.872	8.39
378.234	8.3
378.596	8.26
378.958	8.19
379.321	8.15
379.683	8.1
380.045	8.03
380.407	7.95
380.769	7.84
381.13	7.74
381.492	7.62
381.854	7.54
382.216	7.49
382.578	7.48
382.939	7.37
383.301	7.27
383.663	7.15
384.024	7.11
384.386	7.13
384.747	7.07
385.109	7.05
385.47	6.99
385.832	6.92
386.193	6.88
386.554	6.85
386.916	6.79
387.277	6.79
387.638	6.71
387.999	6.61
388.36	6.58
388.721	6.53
389.082	6.44
389.443	6.36
389.804	6.29
390.165	6.21
390.526	6.18
390.887	6.16
391.248	6.18
391.609	6.14
391.969	6.07
392.33	6.01
392.691	5.92
393.051	5.84
393.412	5.85
393.772	5.77
394.133	5.74
394.493	5.69
394.854	5.61
395.214	5.56
395.574	5.54
395.935	5.48
396.295	5.47
396.655	5.46
397.015	5.45
397.376	5.41
397.736	5.35
398.096	5.29
398.456	5.28
398.816	5.17
399.176	5.1
399.535	5
399.895	4.94
400.255	4.9
400.615	4.86
400.975	4.77
401.334	4.72
401.694	4.63
402.054	4.58
402.413	4.54
402.773	4.5
403.132	4.45
403.492	4.43
403.851	4.35
404.211	4.32
404.57	4.25
404.929	4.22
405.288	4.21
405.648	4.21
406.007	4.17
406.366	4.2
406.725	4.19
407.084	4.19
407.443	4.21
407.802	4.19
408.161	4.19
408.52	4.16
408.879	4.17
409.238	4.18
409.596	4.18
409.955	4.16
410.314	4.13
410.673	4.12
411.031	4.14
411.39	4.14
411.748	4.12
412.107	4.11
412.465	4.1
412.824	4.06
413.182	4.01
413.54	3.97
413.899	3.94
414.257	3.93
414.615	3.91
414.974	3.86
415.332	3.84
415.69	3.81
416.048	3.82
416.406	3.79
416.764	3.73
417.122	3.71
417.48	3.67
417.838	3.66
418.195	3.64
418.553	3.58
418.911	3.55
419.269	3.54
419.626	3.52
419.984	3.51
420.342	3.51
420.699	3.51
421.057	3.5
421.414	3.47
421.772	3.45
422.129	3.44
422.486	3.43
422.844	3.45
423.201	3.42
423.558	3.37
423.915	3.35
424.273	3.35
424.63	3.33
424.987	3.33
425.344	3.31
425.701	3.3
426.058	3.31
426.415	3.3
426.772	3.27
427.128	3.27
427.485	3.27
427.842	3.24
428.199	3.23
428.555	3.22
428.912	3.22
429.269	3.21
429.625	3.19
429.982	3.17
430.338	3.13
430.695	3.15
431.051	3.16
431.407	3.17
431.764	3.16
432.12	3.14
432.476	3.16
432.832	3.16
433.189	3.14
433.545	3.13
433.901	3.14
434.257	3.13
434.613	3.15
434.969	3.14
435.325	3.14
435.681	3.14
436.036	3.14
436.392	3.14
436.748	3.13
437.104	3.13
437.459	3.13
437.815	3.12
438.171	3.11
438.526	3.11
438.882	3.11
439.237	3.13
439.593	3.13
439.948	3.11
440.304	3.12
440.659	3.12
441.014	3.13
441.369	3.1
441.725	3.09
442.08	3.07
442.435	3.07
442.79	3.07
443.145	3.06
443.5	3.03
443.855	3.01
444.21	3.01
444.565	3.02
444.92	3.02
445.275	3.01
445.629	3.01
445.984	3
446.339	2.99
446.693	2.96
447.048	2.96
447.403	2.95
447.757	2.95
448.112	2.93
448.466	2.92
448.82	2.91
449.175	2.91
449.529	2.9
449.883	2.89
450.238	2.87
450.592	2.87
450.946	2.86
451.3	2.85
451.654	2.86
452.008	2.85
452.362	2.82
452.716	2.82
453.07	2.8
453.424	2.81
453.778	2.79
454.132	2.8
454.486	2.79
454.839	2.8
455.193	2.79
455.547	2.79
455.9	2.8
456.254	2.82
456.607	2.81
456.961	2.81
457.314	2.79
457.668	2.79
458.021	2.78
458.375	2.8
458.728	2.82
459.081	2.82
459.434	2.81
459.787	2.83
460.141	2.84
460.494	2.83
460.847	2.84
461.2	2.85
461.553	2.85
461.906	2.87
462.259	2.86
462.611	2.88
462.964	2.9
463.317	2.89
463.67	2.89
464.022	2.9
464.375	2.9
464.728	2.94
465.08	2.95
465.433	2.96
465.785	2.95
466.138	2.96
466.49	2.97
466.843	2.97
467.195	2.98
467.547	2.98
467.899	3
468.252	2.99
468.604	2.99
468.956	3.01
469.308	3
469.66	3
470.012	2.99
470.364	2.98
470.716	2.99
471.068	3.02
471.42	3.04
471.772	3.07
472.123	3.07
472.475	3.06
472.827	3.08
473.178	3.1
473.53	3.1
473.882	3.08
474.233	3.1
474.585	3.09
474.936	3.09
475.288	3.1
475.639	3.12
475.99	3.14
476.342	3.14
476.693	3.15
477.044	3.17
477.395	3.17
477.746	3.17
478.097	3.17
478.448	3.15
478.8	3.14
479.15	3.11
479.501	3.09
479.852	3.1
480.203	3.09
480.554	3.1
480.905	3.11
481.255	3.11
481.606	3.11
481.957	3.1
482.307	3.09
482.658	3.09
483.009	3.08
483.359	3.06
483.709	3.06
484.06	3.05
484.41	3.05
484.761	3.05
485.111	3.05
485.461	3.05
485.811	3.05
486.162	3.06
486.512	3.07
486.862	3.08
487.212	3.07
487.562	3.07
487.912	3.05
488.262	3.05
488.612	3.05
488.961	3.04
489.311	3.06
489.661	3.07
490.011	3.07
490.36	3.08
490.71	3.1
491.06	3.11
491.409	3.12
491.759	3.12
492.108	3.12
492.458	3.12
492.807	3.12
493.157	3.13
493.506	3.14
493.855	3.13
494.204	3.14
494.554	3.16
494.903	3.17
495.252	3.21
495.601	3.21
495.95	3.25
496.299	3.28
496.648	3.28
496.997	3.27
497.346	3.32
497.695	3.34
498.043	3.37
498.392	3.38
498.741	3.39
499.09	3.41
499.438	3.45
499.787	3.48
500.135	3.52
500.484	3.55
500.832	3.59
501.181	3.64
501.529	3.66
501.878	3.71
502.226	3.77
502.574	3.79
502.923	3.83
503.271	3.88
503.619	3.92
503.967	3.97
504.315	4.03
504.663	4.09
505.011	4.14
505.359	4.17
505.707	4.25
506.055	4.31
506.403	4.38
506.751	4.42
507.098	4.47
507.446	4.56
507.794	4.62
508.141	4.67
508.489	4.74
508.837	4.82
509.184	4.88
509.531	4.95
509.879	5.03
510.226	5.12
510.574	5.21
510.921	5.29
511.268	5.35
511.616	5.42
511.963	5.48
512.31	5.57
512.657	5.68
513.004	5.76
513.351	5.87
513.698	5.97
514.045	6.09
514.392	6.2
514.739	6.32
515.086	6.45
515.432	6.56
515.779	6.65
516.126	6.76
516.473	6.87
516.819	6.99
517.166	7.06
517.512	7.15
517.859	7.22
518.205	7.31
518.552	7.42
518.898	7.53
519.245	7.63
519.591	7.73
519.937	7.8
520.283	7.91
520.629	8.03
520.976	8.17
521.322	8.3
521.668	8.45
522.014	8.58
522.36	8.71
522.706	8.84
523.052	9.04
523.398	9.2
523.743	9.39
524.089	9.57
524.435	9.76
524.781	9.94
525.126	10.1
525.472	10.25
525.817	10.39
526.163	10.52
526.509	10.63
526.854	10.74
527.199	10.87
527.545	10.98
527.89	11.06
528.235	11.17
528.581	11.27
528.926	11.37
529.271	11.49
529.616	11.6
529.961	11.73
530.306	11.82
530.651	11.95
530.996	12.05
531.341	12.17
531.686	12.31
532.031	12.44
532.376	12.6
532.721	12.73
533.065	12.87
533.41	13.04
533.755	13.21
534.099	13.39
534.444	13.54
534.788	13.7
535.133	13.88
535.477	14.04
535.822	14.23
536.166	14.42
536.51	14.62
536.855	14.84
537.199	15.1
537.543	15.33
537.887	15.54
538.231	15.83
538.576	16.08
538.92	16.32
539.264	16.52
539.608	16.74
539.951	16.95
540.295	17.17
540.639	17.36
540.983	17.55
541.327	17.74
541.671	17.92
542.014	18.12
542.358	18.31
542.701	18.51
543.045	18.69
543.389	18.88
543.732	19.09
544.075	19.28
544.419	19.45
544.762	19.71
545.105	19.98
545.449	20.17
545.792	20.4
546.135	20.65
546.478	20.93
546.821	21.18
547.165	21.45
547.508	21.77
547.851	22.07
548.194	22.35
548.536	22.66
548.879	22.99
549.222	23.31
549.565	23.63
549.908	23.96
550.25	24.27
550.593	24.64
550.936	24.92
551.278	25.27
551.621	25.62
551.963	25.95
552.306	26.21
552.648	26.55
552.991	26.82
553.333	27.14
553.675	27.48
554.017	27.78
554.36	28.15
554.702	28.4
555.044	28.66
555.386	28.98
555.728	29.29
556.07	29.58
556.412	29.89
556.754	30.18
557.096	30.43
557.438	30.76
557.78	31.04
558.121	31.37
558.463	31.61
558.805	31.91
559.147	32.18
559.488	32.48
559.83	32.81
560.171	33.15
560.513	33.43
560.854	33.69
561.196	34.03
561.537	34.29
561.878	34.6
562.22	34.91
562.561	35.22
562.902	35.51
563.243	35.73
563.584	36
563.925	36.26
564.266	36.51
564.607	36.74
564.948	36.97
565.289	37.23
565.63	37.52
565.971	37.8
566.312	38.04
566.653	38.29
566.993	38.55
567.334	38.81
567.675	39.08
568.015	39.38
568.356	39.61
568.696	39.85
569.037	40.07
569.377	40.31
569.718	40.54
570.058	40.76
570.398	41
570.739	41.21
571.079	41.42
571.419	41.63
571.759	41.89
572.099	42.07
572.439	42.3
572.779	42.48
573.119	42.61
573.459	42.84
573.799	43.07
574.139	43.22
574.479	43.4
574.819	43.56
575.158	43.68
575.498	43.85
575.838	43.98
576.177	44.15
576.517	44.28
576.856	44.4
577.196	44.54
577.535	44.74
577.875	44.93
578.214	45.09
578.553	45.34
578.893	45.47
579.232	45.69
579.571	45.76
579.91	45.86
580.25	46.06
580.589	46.23
580.928	46.35
581.267	46.48
581.606	46.62
581.945	46.71
582.283	46.83
582.622	46.93
582.961	47.11
583.3	47.22
583.639	47.4
583.977	47.62
584.316	47.8
584.654	47.92
584.993	48.02
585.332	48.2
585.67	48.3
586.008	48.32
586.347	48.41
586.685	48.53
587.024	48.72
587.362	48.78
587.7	48.8
588.038	48.89
588.376	48.97
588.715	49
589.053	49.16
589.391	49.35
589.729	49.48
590.067	49.53
590.404	49.64
590.742	49.81
591.08	49.84
591.418	49.82
591.756	49.92
592.093	50
592.431	50.09
592.769	50.16
593.106	50.29
593.444	50.32
593.781	50.42
594.119	50.51
594.456	50.54
594.793	50.64
595.131	50.74
595.468	50.75
595.805	50.85
596.143	50.92
596.48	50.92
596.817	50.91
597.154	50.92
597.491	50.91
597.828	50.92
598.165	50.95
598.502	51.09
598.839	51.17
599.176	51.28
599.512	51.35
599.849	51.42
600.186	51.53
600.523	51.65
600.859	51.82
601.196	51.94
601.532	52.07
601.869	52.1
602.205	52.11
602.542	52.18
602.878	52.23
603.215	52.23
603.551	52.27
603.887	52.4
604.223	52.49
604.56	52.65
604.896	52.71
605.232	52.74
605.568	52.8
605.904	52.89
606.24	52.91
606.576	52.93
606.912	52.98
607.248	53.01
607.583	53.09
607.919	53.08
608.255	53.07
608.591	53.15
608.926	53.16
609.262	53.22
609.597	53.34
609.933	53.42
610.268	53.54
610.604	53.6
610.939	53.6
611.275	53.65
611.61	53.6
611.945	53.61
612.281	53.62
612.616	53.63
612.951	53.58
613.286	53.59
613.621	53.59
613.956	53.56
614.291	53.56
614.626	53.58
614.961	53.62
615.296	53.59
615.631	53.62
615.966	53.6
616.3	53.57
616.635	53.54
616.97	53.57
617.304	53.55
617.639	53.54
617.973	53.56
618.308	53.56
618.642	53.6
618.977	53.59
619.311	53.68
619.646	53.67
619.98	53.65
620.314	53.71
620.648	53.77
620.983	53.89
621.317	53.97
621.651	54.01
621.985	53.99
622.319	54.06
622.653	54.08
622.987	54.29
623.321	54.39
623.655	54.36
623.988	54.43
624.322	54.42
624.656	54.5
624.99	54.58
625.323	54.68
625.657	54.83
625.99	54.86
626.324	54.88
626.657	55
626.991	55.13
627.324	55.08
627.658	55.24
627.991	55.27
628.324	55.24
628.657	55.25
628.991	55.29
629.324	55.38
629.657	55.38
629.99	55.41
630.323	55.47
630.656	55.64
630.989	55.69
631.322	55.82
631.655	55.79
631.987	55.84
632.32	55.9
632.653	55.85
632.986	55.97
633.318	56.05
633.651	56.1
633.984	56.06
634.316	56.05
634.649	55.93
634.981	55.92
635.313	55.95
635.646	56.03
635.978	56.02
636.31	56.02
636.643	56.03
636.975	55.99
637.307	55.98
637.639	55.93
637.971	55.9
638.303	55.86
638.635	55.88
638.967	55.85
639.299	55.85
639.631	55.9
639.963	55.8
640.295	55.8
640.626	55.73
640.958	55.82
641.29	55.97
641.621	56
641.953	55.94
642.285	56.01
642.616	56.07
642.948	56.16
643.279	56.06
643.61	56.17
643.942	56.16
644.273	56.11
644.604	56.05
644.936	55.97
645.267	55.9
645.598	55.99
645.929	56.09
646.26	56.1
646.591	55.94
646.922	55.98
647.253	55.97
647.584	56.03
647.915	55.99
648.245	55.82
648.576	55.76
648.907	55.93
649.238	55.97
649.568	55.92
649.899	55.92
650.229	55.92
650.56	55.79
650.89	55.83
651.221	55.99
651.551	56
651.882	56.06
652.212	56.15
652.542	56.13
652.872	56
653.203	56.05
653.533	56.19
653.863	56.12
654.193	56.16
654.523	56.16
654.853	56.14
655.183	56.32
655.513	56.41
655.843	56.39
656.172	56.46
656.502	56.38
656.832	56.42
657.162	56.47
657.491	56.65
657.821	56.7
658.15	56.65
658.48	56.67
658.809	56.68
659.139	56.71
659.468	56.67
659.798	56.8
660.127	56.75
660.456	56.77
660.785	56.85
661.115	56.91
661.444	56.9
661.773	56.89
662.102	56.92
662.431	56.96
662.76	56.89
663.089	56.85
663.418	56.86
663.747	56.81
664.076	56.98
664.404	56.79
664.733	56.72
665.062	56.68
665.39	56.67
665.719	56.64
666.048	56.59
666.376	56.62
