Data from BU58130_Reflection_00004.txt Node
Date: Mon Nov 18 16:37:17 EST 2019
User: vgr7
Spectrometer: USB2G7710
Scans to average: 3
Trigger mode: 4
Integration Time (sec): 2.000000E-2
Electric dark correction enabled: true
Boxcar width: 10
XAxis mode: Wavelengths
Number of Pixels in Spectrum: 2048
>>>>>Begin Spectral Data<<<<<
177.721	1059.29
178.105	-404.07
178.488	-127.57
178.871	-163.75
179.254	-136.61
179.636	-704.6
180.019	-662.56
180.402	103.45
180.785	80.22
181.168	46.51
181.55	48.38
181.933	55.99
182.316	46.92
182.698	59.53
183.081	48.05
183.463	22.63
183.846	-5.9
184.228	-44.68
184.611	-54.47
184.993	-59.92
185.376	-71.72
185.758	-145.94
186.14	-130.33
186.522	-72.75
186.904	-250.21
187.287	-434.39
187.669	144.18
188.051	187.72
188.433	-491.4
188.815	87.86
189.197	48.26
189.579	91.25
189.961	70.14
190.342	67.27
190.724	69.92
191.106	122.32
191.488	140.37
191.869	311.05
192.251	305.25
192.633	1269.31
193.014	7174.07
193.396	-1961.73
193.777	-1189.86
194.159	-103.1
194.54	-213.84
194.922	306.54
195.303	643.38
195.684	337.52
196.065	177.42
196.447	126.51
196.828	70.57
197.209	79.62
197.59	21.99
197.971	28.35
198.352	22.73
198.733	28.2
199.114	22.92
199.495	34.42
199.876	22.33
200.257	17.34
200.638	11.6
201.018	7.59
201.399	0.45
201.78	14.96
202.16	5.3
202.541	-11.28
202.922	-35.07
203.302	-34.74
203.683	-40.39
204.063	-47.88
204.444	-56.95
204.824	-44.89
205.204	-31.49
205.585	-25.62
205.965	-33.63
206.345	-52.6
206.725	-63.48
207.106	-78.04
207.486	-149.16
207.866	-248.34
208.246	-222.78
208.626	-146.83
209.006	-80.08
209.386	-60.78
209.766	-81.74
210.145	-46.32
210.525	8.51
210.905	68.4
211.285	253.62
211.664	236.8
212.044	378.43
212.424	-3292.16
212.803	-387.53
213.183	-1140.44
213.562	245.74
213.942	120.15
214.321	88.34
214.701	52.7
215.08	78.65
215.459	45.82
215.838	65.43
216.218	46.75
216.597	43.01
216.976	22.08
217.355	44.3
217.734	50.02
218.113	45.43
218.492	39.58
218.871	21.27
219.25	31.41
219.629	21.79
220.008	17.54
220.387	11.43
220.766	16.95
221.144	-2
221.523	1.82
221.902	-5.41
222.28	-5.28
222.659	21.11
223.037	7.12
223.416	22.8
223.794	4.67
224.173	14.72
224.551	20.79
224.929	20.62
225.308	9.51
225.686	5.93
226.064	12.88
226.442	11.16
226.821	14.22
227.199	7.55
227.577	10.94
227.955	10
228.333	9.22
228.711	9.02
229.089	10.44
229.467	6.7
229.845	9.9
230.222	10.53
230.6	8.12
230.978	8.82
231.356	9.83
231.733	8.01
232.111	8.47
232.488	5.87
232.866	7.26
233.243	8.64
233.621	7.86
233.998	6.36
234.376	3.27
234.753	1.59
235.13	1.98
235.508	3.13
235.885	3.5
236.262	1.12
236.639	1.66
237.016	0.5
237.393	4.49
237.77	2.93
238.147	4.33
238.524	4.94
238.901	4.79
239.278	4.3
239.655	5.24
240.032	5.34
240.409	5.2
240.785	4.79
241.162	4.59
241.539	5.17
241.915	5.66
242.292	5.69
242.668	6.18
243.045	6.93
243.421	6.38
243.798	6.09
244.174	6.36
244.551	5.89
244.927	6.1
245.303	6.12
245.679	6.18
246.056	6.16
246.432	5.87
246.808	5.9
247.184	5.88
247.56	5.43
247.936	5.14
248.312	5.11
248.688	5.1
249.064	4.95
249.44	4.81
249.815	4.86
250.191	5.02
250.567	4.82
250.943	4.23
251.318	4.51
251.694	4.57
252.069	4.35
252.445	4.54
252.82	4.7
253.196	4.35
253.571	4.37
253.947	4.13
254.322	4.45
254.697	4.56
255.073	4.28
255.448	4.69
255.823	4.67
256.198	4.68
256.573	4.91
256.948	5.2
257.323	5.4
257.698	5.22
258.073	5.34
258.448	5.26
258.823	5.37
259.198	5.34
259.573	5.4
259.948	5.46
260.322	5.56
260.697	5.39
261.072	5.22
261.446	5.31
261.821	5.23
262.195	5.15
262.57	4.99
262.944	5.08
263.319	5.12
263.693	5.08
264.067	5.26
264.442	5.15
264.816	5.04
265.19	4.91
265.564	4.85
265.938	4.75
266.313	4.88
266.687	4.94
267.061	4.87
267.435	4.75
267.809	4.72
268.183	4.48
268.556	4.5
268.93	4.49
269.304	4.48
269.678	4.73
270.051	4.78
270.425	5.05
270.799	5.04
271.172	4.98
271.546	5.17
271.919	5.08
272.293	5.12
272.666	5.04
273.04	5.17
273.413	5.11
273.787	5.1
274.16	5.01
274.533	4.93
274.906	4.83
275.279	4.8
275.653	4.77
276.026	4.71
276.399	4.72
276.772	4.89
277.145	4.76
277.518	4.5
277.891	4.52
278.263	4.47
278.636	4.36
279.009	4.29
279.382	4.36
279.755	4.33
280.127	4.43
280.5	4.58
280.872	4.56
281.245	4.78
281.617	4.84
281.99	5.07
282.362	5.06
282.735	5.04
283.107	5.16
283.479	5.24
283.852	5.31
284.224	5.15
284.596	5.14
284.968	5.11
285.34	5.3
285.713	5.15
286.085	5.08
286.457	5.16
286.829	5.14
287.201	5.11
287.572	5.1
287.944	4.99
288.316	4.98
288.688	4.94
289.06	4.82
289.431	4.81
289.803	4.63
290.175	4.7
290.546	4.86
290.918	4.83
291.289	4.83
291.661	4.87
292.032	5.15
292.403	5.18
292.775	5.18
293.146	5.06
293.517	5.16
293.889	5.15
294.26	5.13
294.631	5.24
295.002	5.21
295.373	5.18
295.744	5.31
296.115	5.34
296.486	5.27
296.857	5.19
297.228	5.17
297.599	5.21
297.97	5.21
298.34	5.14
298.711	5.17
299.082	5.17
299.452	5.25
299.823	5.2
300.194	5.17
300.564	5.29
300.935	5.43
301.305	5.42
301.676	5.49
302.046	5.52
302.416	5.56
302.787	5.53
303.157	5.72
303.527	5.64
303.897	5.53
304.267	5.8
304.637	5.95
305.008	6.01
305.378	6.05
305.748	6.08
306.117	6.02
306.487	6.07
306.857	6.21
307.227	6.13
307.597	6.01
307.967	6.05
308.336	5.95
308.706	5.95
309.076	5.97
309.445	5.92
309.815	5.93
310.184	5.9
310.554	5.98
310.923	5.87
311.293	5.91
311.662	5.98
312.031	5.74
312.401	5.76
312.77	5.78
313.139	5.83
313.508	5.88
313.877	5.85
314.246	5.76
314.616	5.6
314.985	5.68
315.353	5.7
315.722	5.7
316.091	5.72
316.46	5.65
316.829	5.68
317.198	5.82
317.567	5.8
317.935	5.74
318.304	5.61
318.672	5.64
319.041	5.71
319.41	5.61
319.778	5.65
320.147	5.63
320.515	5.58
320.883	5.34
321.252	5.31
321.62	5.36
321.988	5.34
322.357	5.41
322.725	5.34
323.093	5.3
323.461	5.24
323.829	5.22
324.197	5.16
324.565	5.09
324.933	4.89
325.301	4.94
325.669	4.99
326.037	5.13
326.405	5.1
326.772	5.03
327.14	5.21
327.508	5.2
327.875	5.17
328.243	5.11
328.61	5.31
328.978	5.23
329.346	5.22
329.713	5.28
330.08	5.34
330.448	5.31
330.815	5.3
331.182	5.34
331.55	5.38
331.917	5.34
332.284	5.42
332.651	5.46
333.018	5.39
333.385	5.45
333.752	5.35
334.119	5.53
334.486	5.47
334.853	5.43
335.22	5.49
335.587	5.52
335.954	5.59
336.32	5.57
336.687	5.68
337.054	5.76
337.42	5.73
337.787	5.69
338.153	5.68
338.52	5.74
338.886	5.69
339.253	5.64
339.619	5.84
339.986	5.88
340.352	5.99
340.718	5.94
341.084	5.84
341.451	5.87
341.817	5.73
342.183	5.72
342.549	5.63
342.915	5.67
343.281	5.61
343.647	5.54
344.013	5.51
344.379	5.37
344.745	5.29
345.11	5.33
345.476	5.32
345.842	5.35
346.208	5.39
346.573	5.47
346.939	5.6
347.304	5.52
347.67	5.44
348.035	5.29
348.401	5.36
348.766	5.39
349.132	5.43
349.497	5.49
349.862	5.63
350.228	5.71
350.593	5.56
350.958	5.61
351.323	5.58
351.688	5.63
352.053	5.71
352.418	5.79
352.783	5.76
353.148	5.8
353.513	5.87
353.878	5.85
354.243	5.86
354.608	5.77
354.972	5.72
355.337	5.73
355.702	5.8
356.066	5.8
356.431	5.72
356.795	5.71
357.16	5.64
357.524	5.46
357.889	5.4
358.253	5.5
358.618	5.48
358.982	5.54
359.346	5.49
359.71	5.46
360.075	5.48
360.439	5.5
360.803	5.52
361.167	5.4
361.531	5.37
361.895	5.34
362.259	5.35
362.623	5.35
362.987	5.34
363.351	5.39
363.714	5.32
364.078	5.32
364.442	5.32
364.806	5.3
365.169	5.31
365.533	5.34
365.896	5.32
366.26	5.28
366.623	5.24
366.987	5.27
367.35	5.28
367.714	5.22
368.077	5.21
368.44	5.2
368.803	5.23
369.167	5.21
369.53	5.17
369.893	5.13
370.256	5.14
370.619	5.12
370.982	5.02
371.345	5.12
371.708	5.16
372.071	5.12
372.434	5.14
372.797	5.18
373.159	5.17
373.522	5.19
373.885	5.23
374.247	5.28
374.61	5.24
374.973	5.26
375.335	5.25
375.698	5.26
376.06	5.23
376.423	5.2
376.785	5.21
377.147	5.27
377.51	5.28
377.872	5.29
378.234	5.33
378.596	5.34
378.958	5.28
379.321	5.27
379.683	5.25
380.045	5.23
380.407	5.19
380.769	5.2
381.13	5.13
381.492	5.16
381.854	5.11
382.216	5.12
382.578	5.11
382.939	5.11
383.301	5.12
383.663	5.08
384.024	5.08
384.386	5.07
384.747	5.02
385.109	5.02
385.47	4.96
385.832	4.91
386.193	4.92
386.554	4.94
386.916	4.97
387.277	5
387.638	5.03
387.999	5.04
388.36	5.03
388.721	5.02
389.082	4.99
389.443	4.98
389.804	4.98
390.165	4.91
390.526	4.9
390.887	4.85
391.248	4.85
391.609	4.85
391.969	4.83
392.33	4.81
392.691	4.83
393.051	4.85
393.412	4.86
393.772	4.81
394.133	4.8
394.493	4.8
394.854	4.81
395.214	4.75
395.574	4.77
395.935	4.73
396.295	4.75
396.655	4.72
397.015	4.72
397.376	4.67
397.736	4.73
398.096	4.73
398.456	4.74
398.816	4.76
399.176	4.72
399.535	4.73
399.895	4.73
400.255	4.69
400.615	4.71
400.975	4.69
401.334	4.69
401.694	4.65
402.054	4.61
402.413	4.61
402.773	4.63
403.132	4.6
403.492	4.62
403.851	4.62
404.211	4.64
404.57	4.63
404.929	4.65
405.288	4.61
405.648	4.59
406.007	4.57
406.366	4.55
406.725	4.59
407.084	4.58
407.443	4.57
407.802	4.6
408.161	4.57
408.52	4.56
408.879	4.57
409.238	4.6
409.596	4.59
409.955	4.56
410.314	4.58
410.673	4.56
411.031	4.53
411.39	4.54
411.748	4.52
412.107	4.52
412.465	4.53
412.824	4.54
413.182	4.51
413.54	4.51
413.899	4.54
414.257	4.52
414.615	4.52
414.974	4.53
415.332	4.51
415.69	4.49
416.048	4.49
416.406	4.5
416.764	4.48
417.122	4.5
417.48	4.47
417.838	4.47
418.195	4.48
418.553	4.48
418.911	4.49
419.269	4.49
419.626	4.48
419.984	4.47
420.342	4.46
420.699	4.45
421.057	4.47
421.414	4.44
421.772	4.43
422.129	4.42
422.486	4.42
422.844	4.41
423.201	4.42
423.558	4.43
423.915	4.42
424.273	4.42
424.63	4.4
424.987	4.41
425.344	4.4
425.701	4.38
426.058	4.38
426.415	4.37
426.772	4.35
427.128	4.34
427.485	4.33
427.842	4.32
428.199	4.33
428.555	4.31
428.912	4.32
429.269	4.33
429.625	4.33
429.982	4.33
430.338	4.33
430.695	4.31
431.051	4.3
431.407	4.3
431.764	4.27
432.12	4.27
432.476	4.25
432.832	4.24
433.189	4.27
433.545	4.25
433.901	4.25
434.257	4.24
434.613	4.24
434.969	4.26
435.325	4.28
435.681	4.28
436.036	4.27
436.392	4.26
436.748	4.26
437.104	4.25
437.459	4.22
437.815	4.23
438.171	4.24
438.526	4.24
438.882	4.23
439.237	4.25
439.593	4.27
439.948	4.28
440.304	4.28
440.659	4.25
441.014	4.25
441.369	4.24
441.725	4.24
442.08	4.25
442.435	4.23
442.79	4.23
443.145	4.23
443.5	4.22
443.855	4.21
444.21	4.2
444.565	4.21
444.92	4.23
445.275	4.22
445.629	4.21
445.984	4.19
446.339	4.18
446.693	4.16
447.048	4.14
447.403	4.14
447.757	4.13
448.112	4.13
448.466	4.12
448.82	4.14
449.175	4.15
449.529	4.14
449.883	4.13
450.238	4.13
450.592	4.14
450.946	4.13
451.3	4.11
451.654	4.1
452.008	4.09
452.362	4.06
452.716	4.07
453.07	4.1
453.424	4.1
453.778	4.09
454.132	4.09
454.486	4.09
454.839	4.08
455.193	4.08
455.547	4.07
455.9	4.09
456.254	4.07
456.607	4.06
456.961	4.06
457.314	4.06
457.668	4.06
458.021	4.04
458.375	4.04
458.728	4.06
459.081	4.07
459.434	4.07
459.787	4.1
460.141	4.08
460.494	4.05
460.847	4.07
461.2	4.08
461.553	4.08
461.906	4.09
462.259	4.09
462.611	4.1
462.964	4.11
463.317	4.13
463.67	4.13
464.022	4.12
464.375	4.12
464.728	4.13
465.08	4.12
465.433	4.15
465.785	4.15
466.138	4.13
466.49	4.14
466.843	4.13
467.195	4.13
467.547	4.14
467.899	4.15
468.252	4.13
468.604	4.14
468.956	4.14
469.308	4.17
469.66	4.19
470.012	4.18
470.364	4.18
470.716	4.16
471.068	4.17
471.42	4.17
471.772	4.17
472.123	4.16
472.475	4.21
472.827	4.22
473.178	4.23
473.53	4.23
473.882	4.24
474.233	4.25
474.585	4.24
474.936	4.24
475.288	4.25
475.639	4.27
475.99	4.27
476.342	4.28
476.693	4.28
477.044	4.26
477.395	4.27
477.746	4.27
478.097	4.26
478.448	4.26
478.8	4.27
479.15	4.28
479.501	4.28
479.852	4.26
480.203	4.26
480.554	4.26
480.905	4.27
481.255	4.27
481.606	4.27
481.957	4.28
482.307	4.29
482.658	4.29
483.009	4.28
483.359	4.28
483.709	4.29
484.06	4.3
484.41	4.3
484.761	4.3
485.111	4.3
485.461	4.3
485.811	4.29
486.162	4.29
486.512	4.29
486.862	4.29
487.212	4.29
487.562	4.29
487.912	4.29
488.262	4.29
488.612	4.29
488.961	4.3
489.311	4.29
489.661	4.28
490.011	4.29
490.36	4.3
490.71	4.3
491.06	4.29
491.409	4.27
491.759	4.26
492.108	4.27
492.458	4.27
492.807	4.27
493.157	4.28
493.506	4.29
493.855	4.28
494.204	4.28
494.554	4.29
494.903	4.28
495.252	4.26
495.601	4.26
495.95	4.26
496.299	4.25
496.648	4.25
496.997	4.27
497.346	4.28
497.695	4.29
498.043	4.3
498.392	4.3
498.741	4.33
499.09	4.33
499.438	4.37
499.787	4.36
500.135	4.37
500.484	4.38
500.832	4.39
501.181	4.42
501.529	4.43
501.878	4.46
502.226	4.48
502.574	4.54
502.923	4.56
503.271	4.58
503.619	4.59
503.967	4.61
504.315	4.6
504.663	4.61
505.011	4.62
505.359	4.64
505.707	4.67
506.055	4.66
506.403	4.68
506.751	4.68
507.098	4.71
507.446	4.73
507.794	4.72
508.141	4.72
508.489	4.74
508.837	4.76
509.184	4.77
509.531	4.79
509.879	4.79
510.226	4.83
510.574	4.82
510.921	4.84
511.268	4.84
511.616	4.88
511.963	4.89
512.31	4.9
512.657	4.92
513.004	4.94
513.351	4.95
513.698	4.95
514.045	4.94
514.392	4.98
514.739	5
515.086	5.03
515.432	5.06
515.779	5.04
516.126	5.06
516.473	5.08
516.819	5.08
517.166	5.09
517.512	5.07
517.859	5.1
518.205	5.12
518.552	5.14
518.898	5.13
519.245	5.13
519.591	5.13
519.937	5.1
520.283	5.11
520.629	5.12
520.976	5.14
521.322	5.15
521.668	5.13
522.014	5.12
522.36	5.13
522.706	5.13
523.052	5.17
523.398	5.17
523.743	5.17
524.089	5.18
524.435	5.18
524.781	5.22
525.126	5.24
525.472	5.24
525.817	5.26
526.163	5.27
526.509	5.27
526.854	5.27
527.199	5.29
527.545	5.29
527.89	5.31
528.235	5.32
528.581	5.32
528.926	5.33
529.271	5.33
529.616	5.33
529.961	5.36
530.306	5.35
530.651	5.37
530.996	5.38
531.341	5.39
531.686	5.4
532.031	5.38
532.376	5.37
532.721	5.37
533.065	5.37
533.41	5.38
533.755	5.39
534.099	5.41
534.444	5.41
534.788	5.42
535.133	5.42
535.477	5.43
535.822	5.44
536.166	5.44
536.51	5.46
536.855	5.47
537.199	5.46
537.543	5.47
537.887	5.47
538.231	5.45
538.576	5.47
538.92	5.48
539.264	5.5
539.608	5.49
539.951	5.5
540.295	5.49
540.639	5.5
540.983	5.51
541.327	5.51
541.671	5.51
542.014	5.51
542.358	5.52
542.701	5.53
543.045	5.53
543.389	5.55
543.732	5.56
544.075	5.56
544.419	5.56
544.762	5.56
545.105	5.57
545.449	5.57
545.792	5.56
546.135	5.56
546.478	5.56
546.821	5.58
547.165	5.57
547.508	5.58
547.851	5.56
548.194	5.56
548.536	5.55
548.879	5.59
549.222	5.58
549.565	5.58
549.908	5.58
550.25	5.59
550.593	5.58
550.936	5.56
551.278	5.57
551.621	5.58
551.963	5.59
552.306	5.59
552.648	5.59
552.991	5.63
553.333	5.63
553.675	5.64
554.017	5.65
554.36	5.66
554.702	5.69
555.044	5.68
555.386	5.68
555.728	5.69
556.07	5.67
556.412	5.69
556.754	5.66
557.096	5.65
557.438	5.63
557.78	5.63
558.121	5.65
558.463	5.64
558.805	5.65
559.147	5.67
559.488	5.65
559.83	5.67
560.171	5.67
560.513	5.69
560.854	5.68
561.196	5.67
561.537	5.67
561.878	5.64
562.22	5.67
562.561	5.64
562.902	5.66
563.243	5.64
563.584	5.69
563.925	5.72
564.266	5.72
564.607	5.74
564.948	5.75
565.289	5.77
565.63	5.79
565.971	5.78
566.312	5.76
566.653	5.79
566.993	5.78
567.334	5.75
567.675	5.74
568.015	5.73
568.356	5.74
568.696	5.75
569.037	5.77
569.377	5.75
569.718	5.79
570.058	5.77
570.398	5.77
570.739	5.76
571.079	5.73
571.419	5.71
571.759	5.71
572.099	5.69
572.439	5.69
572.779	5.69
573.119	5.68
573.459	5.69
573.799	5.69
574.139	5.71
574.479	5.72
574.819	5.71
575.158	5.69
575.498	5.68
575.838	5.68
576.177	5.67
576.517	5.67
576.856	5.67
577.196	5.69
577.535	5.69
577.875	5.68
578.214	5.7
578.553	5.75
578.893	5.76
579.232	5.78
579.571	5.78
579.91	5.76
580.25	5.79
580.589	5.78
580.928	5.77
581.267	5.75
581.606	5.76
581.945	5.78
582.283	5.81
582.622	5.81
582.961	5.78
583.3	5.82
583.639	5.87
583.977	5.85
584.316	5.84
584.654	5.85
584.993	5.84
585.332	5.86
585.67	5.88
586.008	5.88
586.347	5.85
586.685	5.84
587.024	5.81
587.362	5.8
587.7	5.81
588.038	5.83
588.376	5.83
588.715	5.84
589.053	5.88
589.391	5.9
589.729	5.91
590.067	5.96
590.404	5.95
590.742	5.95
591.08	5.93
591.418	5.99
591.756	6
592.093	6.01
592.431	5.98
592.769	5.96
593.106	5.98
593.444	5.99
593.781	6
594.119	6.03
594.456	6.03
594.793	6.04
595.131	6.01
595.468	6.03
595.805	6.03
596.143	6
596.48	5.99
596.817	6
597.154	6
597.491	5.98
597.828	5.95
598.165	5.92
598.502	5.89
598.839	5.87
599.176	5.86
599.512	5.88
599.849	5.92
600.186	5.87
600.523	5.88
600.859	5.91
601.196	5.92
601.532	5.88
601.869	5.89
602.205	5.93
602.542	5.94
602.878	5.95
603.215	5.93
603.551	5.92
603.887	5.92
604.223	5.9
604.56	5.91
604.896	5.9
605.232	5.95
605.568	5.94
605.904	5.98
606.24	6.01
606.576	6.03
606.912	5.98
607.248	5.99
607.583	6.02
607.919	5.97
608.255	5.98
608.591	6.02
608.926	5.97
609.262	5.99
609.597	5.95
609.933	5.95
610.268	5.97
610.604	5.97
610.939	5.96
611.275	5.98
611.61	5.98
611.945	6.02
612.281	6.02
612.616	6.03
612.951	6.01
613.286	6
613.621	5.96
613.956	5.95
614.291	5.96
614.626	5.92
614.961	5.96
615.296	5.92
615.631	5.95
615.966	6
616.3	5.96
616.635	6
616.97	5.99
617.304	5.95
617.639	5.95
617.973	5.95
618.308	5.95
618.642	5.95
618.977	5.92
619.311	5.88
619.646	5.95
619.98	5.96
620.314	5.97
620.648	5.99
620.983	6.02
621.317	6.04
621.651	6.09
621.985	6.12
622.319	6.13
622.653	6.08
622.987	6.14
623.321	6.15
623.655	6.2
623.988	6.2
624.322	6.23
624.656	6.22
624.99	6.23
625.323	6.24
625.657	6.22
625.99	6.22
626.324	6.29
626.657	6.27
626.991	6.24
627.324	6.2
627.658	6.2
627.991	6.24
628.324	6.27
628.657	6.21
628.991	6.15
629.324	6.14
629.657	6.14
629.99	6.12
630.323	6.13
630.656	6.1
630.989	6.09
631.322	6.11
631.655	6.06
631.987	6.08
632.32	6.08
632.653	6.05
632.986	6.02
633.318	5.96
633.651	5.93
633.984	5.95
634.316	5.94
634.649	5.94
634.981	5.9
635.313	5.89
635.646	5.87
635.978	5.91
636.31	5.91
636.643	5.91
636.975	5.85
637.307	5.85
637.639	5.78
637.971	5.82
638.303	5.8
638.635	5.84
638.967	5.84
639.299	5.84
639.631	5.93
639.963	5.97
640.295	5.99
640.626	6.06
640.958	6.16
641.29	6.2
641.621	6.19
641.953	6.21
642.285	6.21
642.616	6.26
642.948	6.23
643.279	6.28
643.61	6.27
643.942	6.28
644.273	6.28
644.604	6.29
644.936	6.21
645.267	6.17
645.598	6.17
645.929	6.18
646.26	6.19
646.591	6.13
646.922	6.08
647.253	6.11
647.584	6.01
647.915	5.92
648.245	5.9
648.576	5.93
648.907	5.88
649.238	5.86
649.568	5.88
649.899	5.95
650.229	5.98
650.56	6
650.89	6.04
651.221	5.96
651.551	5.95
651.882	6
652.212	6
652.542	6.05
652.872	6.03
653.203	6
653.533	5.99
653.863	6.02
654.193	5.93
654.523	5.96
654.853	6.01
655.183	6.05
655.513	6.05
655.843	6.04
656.172	6.11
656.502	6.11
656.832	6.05
657.162	6.03
657.491	6
657.821	6.02
658.15	6.07
658.48	6.12
658.809	6.1
659.139	6.06
659.468	6.07
659.798	6.03
660.127	6.1
660.456	6.16
660.785	6.2
661.115	6.19
661.444	6.13
661.773	6.14
662.102	6.06
662.431	6.11
662.76	6.16
663.089	6.08
663.418	6.03
663.747	6.01
664.076	6
664.404	6.02
664.733	5.99
665.062	6.01
665.39	5.94
665.719	6
666.048	6.12
666.376	6.12
666.705	6.2
667.033	6.07
667.362	6.05
667.69	5.99
668.018	6.07
668.347	6.13
668.675	6.11
669.003	6.2
669.331	6.2
669.659	6.16
669.987	6.15
670.315	6.18
670.643	6.23
670.971	6.3
671.299	6.41
671.627	6.36
671.955	6.3
672.283	6.3
672.61	6.24
672.938	6.16
673.266	6.14
673.593	6.23
673.921	6.26
674.249	6.29
674.576	6.31
674.904	6.29
675.231	6.36
675.558	6.34
675.886	6.35
676.213	6.3
676.54	6.35
676.867	6.45
677.195	6.41
677.522	6.41
677.849	6.35
678.176	6.28
678.503	6.25
678.83	6.38
