Data from BU58002_Reflection_00006.txt Node
Date: Tue Nov 19 10:57:42 EST 2019
User: vgr7
Spectrometer: USB2G7710
Scans to average: 3
Trigger mode: 4
Integration Time (sec): 2.000000E-2
Electric dark correction enabled: true
Boxcar width: 10
XAxis mode: Wavelengths
Number of Pixels in Spectrum: 2048
>>>>>Begin Spectral Data<<<<<
177.721	-53.62
178.105	8.09
178.488	10.68
178.871	97.73
179.254	38.46
179.636	56.87
180.019	-8.04
180.402	75
180.785	-250
181.168	-223.53
181.55	18.27
181.933	68.23
182.316	67.97
182.698	55.61
183.081	73.05
183.463	131.5
183.846	192.27
184.228	374.59
184.611	442.7
184.993	363.64
185.376	149.77
185.758	1306.9
186.14	-250
186.522	-196.61
186.904	470
187.287	468.42
187.669	-258.82
188.051	-123.5
188.433	562.26
188.815	-1096.43
189.197	-270.5
189.579	-160.25
189.961	-69.95
190.342	-37.87
190.724	-43.98
191.106	-43.32
191.488	-36.3
191.869	-8.15
192.251	1.59
192.633	-3.71
193.014	-3.32
193.396	-3.03
193.777	9.85
194.159	8.8
194.54	1.41
194.922	7.72
195.303	0.49
195.684	14.35
196.065	7.17
196.447	4.38
196.828	-2.47
197.209	2.41
197.59	1.5
197.971	10.54
198.352	1.27
198.733	3.68
199.114	-8.7
199.495	1.33
199.876	-23.75
200.257	-34.29
200.638	-14.93
201.018	-9.54
201.399	-6.98
201.78	-13.34
202.16	-16.48
202.541	-1.51
202.922	12.62
203.302	16.51
203.683	-1.02
204.063	0.42
204.444	1.94
204.824	6.78
205.204	18.63
205.585	30.65
205.965	31.72
206.345	39.15
206.725	41.68
207.106	47.02
207.486	38.77
207.866	43.13
208.246	41.9
208.626	14.14
209.006	-0.59
209.386	-3.01
209.766	11.01
210.145	21.95
210.525	8.46
210.905	2.44
211.285	-3.77
211.664	12.89
212.044	19.03
212.424	27.28
212.803	26.81
213.183	20.76
213.562	19.12
213.942	27.65
214.321	35.62
214.701	33.38
215.08	44.62
215.459	45.31
215.838	43.97
216.218	56.52
216.597	59.08
216.976	57.84
217.355	60.9
217.734	60.41
218.113	54.07
218.492	52.08
218.871	36.5
219.25	43.25
219.629	35.66
220.008	21.11
220.387	-3.05
220.766	2.93
221.144	3.26
221.523	-1.83
221.902	8.03
222.28	1.65
222.659	10.11
223.037	2.04
223.416	-9.06
223.794	-1.29
224.173	-8.73
224.551	-0.54
224.929	2.96
225.308	-0.46
225.686	-2.81
226.064	-3.31
226.442	0.91
226.821	0.12
227.199	-2.03
227.577	2.71
227.955	4.38
228.333	6.55
228.711	6.3
229.089	4.91
229.467	5.67
229.845	-0.28
230.222	0.08
230.6	-1.95
230.978	-1.91
231.356	-0.33
231.733	-1.97
232.111	-1.66
232.488	-2.51
232.866	-0.84
233.243	2.09
233.621	4.65
233.998	3.89
234.376	3.78
234.753	4.93
235.13	4.23
235.508	2
235.885	1.84
236.262	2.87
236.639	1.78
237.016	3.15
237.393	3.68
237.77	5.41
238.147	5.61
238.524	6.37
238.901	6.91
239.278	7.07
239.655	7.1
240.032	7.38
240.409	7.32
240.785	6.37
241.162	5.81
241.539	4.96
241.915	5.84
242.292	6.06
242.668	5.77
243.045	5.83
243.421	5.99
243.798	6.24
244.174	5.92
244.551	6.27
244.927	5.9
245.303	5.51
245.679	5.57
246.056	5.35
246.432	5.24
246.808	5.1
247.184	5.05
247.56	5.07
247.936	5.39
248.312	5.43
248.688	5.45
249.064	5.42
249.44	5.46
249.815	5.12
250.191	5
250.567	5.03
250.943	4.88
251.318	4.8
251.694	4.94
252.069	4.83
252.445	4.58
252.82	4.62
253.196	4.7
253.571	4.71
253.947	5
254.322	4.87
254.697	4.69
255.073	4.72
255.448	4.69
255.823	4.28
256.198	4.01
256.573	4.24
256.948	4.38
257.323	4.47
257.698	4.48
258.073	4.54
258.448	4.56
258.823	4.47
259.198	4.59
259.573	4.26
259.948	4.44
260.322	4.46
260.697	4.59
261.072	4.59
261.446	4.49
261.821	4.46
262.195	4.41
262.57	4.46
262.944	4.49
263.319	4.44
263.693	4.39
264.067	4.62
264.442	4.43
264.816	4.28
265.19	4.18
265.564	4.22
265.938	4.22
266.313	4.16
266.687	4.37
267.061	4.22
267.435	4.45
267.809	4.49
268.183	4.41
268.556	4.35
268.93	4.35
269.304	4.29
269.678	4.26
270.051	4.42
270.425	4.35
270.799	4.07
271.172	4.15
271.546	4.28
271.919	4.18
272.293	4.2
272.666	4.39
273.04	4.36
273.413	4.4
273.787	4.27
274.16	4.14
274.533	4.13
274.906	4.25
275.279	4.13
275.653	4.07
276.026	4.04
276.399	4
276.772	4.05
277.145	4.03
277.518	3.87
277.891	3.73
278.263	3.94
278.636	4.28
279.009	4.44
279.382	4.37
279.755	4.5
280.127	4.56
280.5	4.42
280.872	4.46
281.245	4.39
281.617	4.48
281.99	4.61
282.362	4.69
282.735	4.56
283.107	4.59
283.479	4.5
283.852	4.54
284.224	4.54
284.596	4.46
284.968	4.53
285.34	4.59
285.713	4.76
286.085	4.59
286.457	4.51
286.829	4.3
287.201	4.26
287.572	4.22
287.944	4.27
288.316	4.29
288.688	4.51
289.06	4.51
289.431	4.51
289.803	4.55
290.175	4.48
290.546	4.47
290.918	4.53
291.289	4.53
291.661	4.7
292.032	4.73
292.403	4.78
292.775	4.92
293.146	4.97
293.517	4.9
293.889	5.03
294.26	5.15
294.631	5.24
295.002	5.33
295.373	5.39
295.744	5.4
296.115	5.44
296.486	5.32
296.857	5.38
297.228	5.4
297.599	5.35
297.97	5.33
298.34	5.37
298.711	5.37
299.082	5.43
299.452	5.35
299.823	5.32
300.194	5.38
300.564	5.18
300.935	5.25
301.305	5.22
301.676	5.1
302.046	5
302.416	5.12
302.787	5.24
303.157	5.15
303.527	5.13
303.897	5.2
304.267	5.16
304.637	5.21
305.008	5.18
305.378	5.3
305.748	5.52
306.117	5.69
306.487	5.72
306.857	5.81
307.227	5.84
307.597	5.89
307.967	5.86
308.336	6.05
308.706	6.06
309.076	6.15
309.445	6.31
309.815	6.27
310.184	6.11
310.554	6.03
310.923	5.99
311.293	6.11
311.662	6.02
312.031	5.97
312.401	5.89
312.77	5.94
313.139	5.79
313.508	5.62
313.877	5.54
314.246	5.43
314.616	5.49
314.985	5.42
315.353	5.54
315.722	5.6
316.091	5.56
316.46	5.34
316.829	5.38
317.198	5.26
317.567	5.33
317.935	5.34
318.304	5.45
318.672	5.66
319.041	5.53
319.41	5.51
319.778	5.57
320.147	5.71
320.515	5.65
320.883	5.81
321.252	5.99
321.62	5.96
321.988	6.22
322.357	6.21
322.725	6.21
323.093	6.11
323.461	5.92
323.829	5.81
324.197	6.02
324.565	6
324.933	5.97
325.301	5.87
325.669	5.95
326.037	5.8
326.405	5.71
326.772	5.77
327.14	5.73
327.508	5.76
327.875	5.72
328.243	5.71
328.61	5.71
328.978	5.61
329.346	5.63
329.713	5.54
330.08	5.45
330.448	5.46
330.815	5.4
331.182	5.58
331.55	5.58
331.917	5.52
332.284	5.57
332.651	5.58
333.018	5.59
333.385	5.56
333.752	5.5
334.119	5.33
334.486	5.29
334.853	5.43
335.22	5.4
335.587	5.25
335.954	5.26
336.32	5.19
336.687	5.23
337.054	5.19
337.42	5.14
337.787	4.99
338.153	5.04
338.52	5.1
338.886	5.17
339.253	5.1
339.619	5.08
339.986	4.93
340.352	5.03
340.718	5.03
341.084	5.01
341.451	5.18
341.817	5.29
342.183	5.2
342.549	5.23
342.915	5.22
343.281	5.32
343.647	5.4
344.013	5.43
344.379	5.45
344.745	5.42
345.11	5.27
345.476	5.42
345.842	5.33
346.208	5.38
346.573	5.3
346.939	5.43
347.304	5.53
347.67	5.53
348.035	5.41
348.401	5.48
348.766	5.47
349.132	5.34
349.497	5.43
349.862	5.53
350.228	5.45
350.593	5.34
350.958	5.34
351.323	5.34
351.688	5.42
352.053	5.3
352.418	5.4
352.783	5.51
353.148	5.5
353.513	5.51
353.878	5.43
354.243	5.38
354.608	5.43
354.972	5.38
355.337	5.34
355.702	5.42
356.066	5.38
356.431	5.39
356.795	5.42
357.16	5.39
357.524	5.35
357.889	5.4
358.253	5.44
358.618	5.42
358.982	5.38
359.346	5.37
359.71	5.42
360.075	5.39
360.439	5.41
360.803	5.42
361.167	5.46
361.531	5.43
361.895	5.39
362.259	5.41
362.623	5.44
362.987	5.5
363.351	5.49
363.714	5.53
364.078	5.6
364.442	5.52
364.806	5.52
365.169	5.54
365.533	5.49
365.896	5.51
366.26	5.53
366.623	5.51
366.987	5.49
367.35	5.54
367.714	5.56
368.077	5.57
368.44	5.57
368.803	5.52
369.167	5.56
369.53	5.6
369.893	5.56
370.256	5.46
370.619	5.42
370.982	5.35
371.345	5.36
371.708	5.28
372.071	5.36
372.434	5.34
372.797	5.34
373.159	5.34
373.522	5.33
373.885	5.36
374.247	5.37
374.61	5.39
374.973	5.35
375.335	5.35
375.698	5.31
376.06	5.26
376.423	5.26
376.785	5.28
377.147	5.28
377.51	5.22
377.872	5.24
378.234	5.25
378.596	5.3
378.958	5.31
379.321	5.33
379.683	5.37
380.045	5.34
380.407	5.31
380.769	5.29
381.13	5.34
381.492	5.31
381.854	5.28
382.216	5.25
382.578	5.23
382.939	5.23
383.301	5.2
383.663	5.18
384.024	5.17
384.386	5.13
384.747	5.12
385.109	5.1
385.47	5.11
385.832	5.08
386.193	5.05
386.554	4.94
386.916	4.94
387.277	4.88
387.638	4.87
387.999	4.88
388.36	4.94
388.721	4.94
389.082	4.95
389.443	4.99
389.804	5
390.165	4.99
390.526	4.98
390.887	4.99
391.248	5.01
391.609	5.04
391.969	5.03
392.33	5.02
392.691	5.04
393.051	5.02
393.412	5.04
393.772	5.07
394.133	5.1
394.493	5.09
394.854	5.09
395.214	5.09
395.574	5.09
395.935	5.05
396.295	5.02
396.655	4.99
397.015	4.95
397.376	4.9
397.736	4.91
398.096	4.89
398.456	4.93
398.816	4.94
399.176	4.91
399.535	4.92
399.895	4.91
400.255	4.96
400.615	4.97
400.975	4.95
401.334	4.9
401.694	4.93
402.054	4.91
402.413	4.94
402.773	4.95
403.132	4.95
403.492	4.93
403.851	4.95
404.211	4.99
404.57	5
404.929	5
405.288	5.03
405.648	5.03
406.007	4.97
406.366	4.93
406.725	4.91
407.084	4.91
407.443	4.93
407.802	4.89
408.161	4.89
408.52	4.88
408.879	4.91
409.238	4.92
409.596	4.92
409.955	4.89
410.314	4.86
410.673	4.87
411.031	4.87
411.39	4.86
411.748	4.83
412.107	4.82
412.465	4.85
412.824	4.81
413.182	4.81
413.54	4.82
413.899	4.84
414.257	4.84
414.615	4.82
414.974	4.82
415.332	4.8
415.69	4.79
416.048	4.81
416.406	4.79
416.764	4.78
417.122	4.78
417.48	4.79
417.838	4.78
418.195	4.76
418.553	4.76
418.911	4.75
419.269	4.74
419.626	4.73
419.984	4.72
420.342	4.71
420.699	4.71
421.057	4.7
421.414	4.69
421.772	4.69
422.129	4.68
422.486	4.68
422.844	4.69
423.201	4.69
423.558	4.69
423.915	4.68
424.273	4.67
424.63	4.67
424.987	4.65
425.344	4.65
425.701	4.64
426.058	4.64
426.415	4.62
426.772	4.63
427.128	4.64
427.485	4.63
427.842	4.62
428.199	4.62
428.555	4.63
428.912	4.63
429.269	4.62
429.625	4.63
429.982	4.61
430.338	4.6
430.695	4.58
431.051	4.56
431.407	4.57
431.764	4.58
432.12	4.58
432.476	4.59
432.832	4.59
433.189	4.6
433.545	4.59
433.901	4.61
434.257	4.61
434.613	4.6
434.969	4.61
435.325	4.61
435.681	4.6
436.036	4.58
436.392	4.57
436.748	4.57
437.104	4.57
437.459	4.55
437.815	4.56
438.171	4.58
438.526	4.58
438.882	4.57
439.237	4.56
439.593	4.55
439.948	4.55
440.304	4.55
440.659	4.56
441.014	4.56
441.369	4.55
441.725	4.55
442.08	4.55
442.435	4.54
442.79	4.55
443.145	4.55
443.5	4.56
443.855	4.58
444.21	4.59
444.565	4.6
444.92	4.63
445.275	4.62
445.629	4.59
445.984	4.59
446.339	4.59
446.693	4.61
447.048	4.6
447.403	4.6
447.757	4.59
448.112	4.58
448.466	4.57
448.82	4.57
449.175	4.56
449.529	4.55
449.883	4.56
450.238	4.54
450.592	4.53
450.946	4.51
451.3	4.5
451.654	4.48
452.008	4.46
452.362	4.45
452.716	4.46
453.07	4.48
453.424	4.48
453.778	4.47
454.132	4.45
454.486	4.48
454.839	4.48
455.193	4.49
455.547	4.48
455.9	4.49
456.254	4.49
456.607	4.49
456.961	4.5
457.314	4.52
457.668	4.53
458.021	4.54
458.375	4.53
458.728	4.54
459.081	4.54
459.434	4.52
459.787	4.51
460.141	4.51
460.494	4.52
460.847	4.51
461.2	4.51
461.553	4.51
461.906	4.5
462.259	4.51
462.611	4.53
462.964	4.53
463.317	4.54
463.67	4.56
464.022	4.57
464.375	4.55
464.728	4.55
465.08	4.54
465.433	4.54
465.785	4.55
466.138	4.56
466.49	4.58
466.843	4.61
467.195	4.62
467.547	4.62
467.899	4.62
468.252	4.63
468.604	4.64
468.956	4.65
469.308	4.64
469.66	4.63
470.012	4.62
470.364	4.64
470.716	4.61
471.068	4.61
471.42	4.6
471.772	4.59
472.123	4.6
472.475	4.61
472.827	4.64
473.178	4.63
473.53	4.63
473.882	4.62
474.233	4.61
474.585	4.62
474.936	4.62
475.288	4.6
475.639	4.6
475.99	4.6
476.342	4.62
476.693	4.65
477.044	4.65
477.395	4.65
477.746	4.67
478.097	4.67
478.448	4.67
478.8	4.68
479.15	4.69
479.501	4.67
479.852	4.68
480.203	4.67
480.554	4.69
480.905	4.69
481.255	4.7
481.606	4.69
481.957	4.7
482.307	4.7
482.658	4.7
483.009	4.71
483.359	4.71
483.709	4.71
484.06	4.71
484.41	4.7
484.761	4.7
485.111	4.69
485.461	4.69
485.811	4.7
486.162	4.7
486.512	4.7
486.862	4.71
487.212	4.71
487.562	4.69
487.912	4.7
488.262	4.69
488.612	4.68
488.961	4.68
489.311	4.68
489.661	4.67
490.011	4.67
490.36	4.66
490.71	4.65
491.06	4.64
491.409	4.64
491.759	4.65
492.108	4.63
492.458	4.62
492.807	4.61
493.157	4.62
493.506	4.62
493.855	4.61
494.204	4.61
494.554	4.61
494.903	4.62
495.252	4.6
495.601	4.62
495.95	4.63
496.299	4.65
496.648	4.66
496.997	4.68
497.346	4.68
497.695	4.67
498.043	4.7
498.392	4.72
498.741	4.73
499.09	4.73
499.438	4.76
499.787	4.78
500.135	4.79
500.484	4.8
500.832	4.8
501.181	4.81
501.529	4.81
501.878	4.81
502.226	4.84
502.574	4.85
502.923	4.84
503.271	4.82
503.619	4.84
503.967	4.83
504.315	4.83
504.663	4.85
505.011	4.89
505.359	4.85
505.707	4.85
506.055	4.85
506.403	4.84
506.751	4.85
507.098	4.88
507.446	4.88
507.794	4.89
508.141	4.89
508.489	4.9
508.837	4.9
509.184	4.93
509.531	4.93
509.879	4.95
510.226	4.96
510.574	5
510.921	5
511.268	5.01
511.616	5.01
511.963	5.02
512.31	5.02
512.657	5.04
513.004	5.04
513.351	5.04
513.698	5.06
514.045	5.08
514.392	5.05
514.739	5.08
515.086	5.07
515.432	5.1
515.779	5.1
516.126	5.14
516.473	5.14
516.819	5.15
517.166	5.17
517.512	5.17
517.859	5.17
518.205	5.15
518.552	5.16
518.898	5.17
519.245	5.18
519.591	5.19
519.937	5.21
520.283	5.23
520.629	5.25
520.976	5.24
521.322	5.25
521.668	5.28
522.014	5.27
522.36	5.28
522.706	5.26
523.052	5.3
523.398	5.28
523.743	5.3
524.089	5.3
524.435	5.31
524.781	5.33
525.126	5.33
525.472	5.35
525.817	5.35
526.163	5.34
526.509	5.34
526.854	5.35
527.199	5.34
527.545	5.35
527.89	5.34
528.235	5.35
528.581	5.34
528.926	5.35
529.271	5.35
529.616	5.37
529.961	5.37
530.306	5.37
530.651	5.37
530.996	5.37
531.341	5.39
531.686	5.38
532.031	5.37
532.376	5.4
532.721	5.39
533.065	5.39
533.41	5.41
533.755	5.42
534.099	5.41
534.444	5.41
534.788	5.41
535.133	5.42
535.477	5.41
535.822	5.42
536.166	5.42
536.51	5.41
536.855	5.4
537.199	5.41
537.543	5.41
537.887	5.42
538.231	5.4
538.576	5.38
538.92	5.39
539.264	5.39
539.608	5.38
539.951	5.37
540.295	5.38
540.639	5.38
540.983	5.38
541.327	5.38
541.671	5.39
542.014	5.41
542.358	5.42
542.701	5.43
543.045	5.43
543.389	5.43
543.732	5.45
544.075	5.45
544.419	5.46
544.762	5.46
545.105	5.46
545.449	5.48
545.792	5.49
546.135	5.49
546.478	5.5
546.821	5.51
547.165	5.53
547.508	5.53
547.851	5.53
548.194	5.51
548.536	5.51
548.879	5.49
549.222	5.47
549.565	5.45
549.908	5.46
550.25	5.45
550.593	5.44
550.936	5.43
551.278	5.44
551.621	5.45
551.963	5.48
552.306	5.46
552.648	5.45
552.991	5.48
553.333	5.48
553.675	5.5
554.017	5.47
554.36	5.44
554.702	5.46
555.044	5.46
555.386	5.47
555.728	5.48
556.07	5.51
556.412	5.53
556.754	5.52
557.096	5.52
557.438	5.54
557.78	5.53
558.121	5.53
558.463	5.51
558.805	5.49
559.147	5.45
559.488	5.47
559.83	5.48
560.171	5.45
560.513	5.44
560.854	5.43
561.196	5.46
561.537	5.5
561.878	5.48
562.22	5.49
562.561	5.49
562.902	5.5
563.243	5.53
563.584	5.54
563.925	5.54
564.266	5.53
564.607	5.54
564.948	5.56
565.289	5.58
565.63	5.58
565.971	5.6
566.312	5.6
566.653	5.59
566.993	5.59
567.334	5.61
567.675	5.63
568.015	5.61
568.356	5.61
568.696	5.58
569.037	5.57
569.377	5.57
569.718	5.59
570.058	5.58
570.398	5.57
570.739	5.55
571.079	5.57
571.419	5.55
571.759	5.53
572.099	5.53
572.439	5.53
572.779	5.54
573.119	5.53
573.459	5.53
573.799	5.51
574.139	5.51
574.479	5.51
574.819	5.51
575.158	5.51
575.498	5.5
575.838	5.5
576.177	5.53
576.517	5.55
576.856	5.53
577.196	5.53
577.535	5.54
577.875	5.55
578.214	5.55
578.553	5.54
578.893	5.57
579.232	5.58
579.571	5.58
579.91	5.56
580.25	5.57
580.589	5.6
580.928	5.62
581.267	5.59
581.606	5.58
581.945	5.56
582.283	5.58
582.622	5.57
582.961	5.6
583.3	5.65
583.639	5.63
583.977	5.62
584.316	5.64
584.654	5.64
584.993	5.65
585.332	5.68
585.67	5.71
586.008	5.71
586.347	5.72
586.685	5.67
587.024	5.71
587.362	5.69
587.7	5.66
588.038	5.71
588.376	5.69
588.715	5.71
589.053	5.7
589.391	5.68
589.729	5.69
590.067	5.68
590.404	5.64
590.742	5.61
591.08	5.63
591.418	5.6
591.756	5.58
592.093	5.57
592.431	5.57
592.769	5.55
593.106	5.53
593.444	5.56
593.781	5.61
594.119	5.56
594.456	5.57
594.793	5.59
595.131	5.56
595.468	5.61
595.805	5.59
596.143	5.6
596.48	5.6
596.817	5.59
597.154	5.63
597.491	5.63
597.828	5.67
598.165	5.66
598.502	5.69
598.839	5.68
599.176	5.69
599.512	5.65
599.849	5.66
600.186	5.67
600.523	5.63
600.859	5.65
601.196	5.65
601.532	5.63
601.869	5.66
602.205	5.63
602.542	5.64
602.878	5.62
603.215	5.62
603.551	5.6
603.887	5.63
604.223	5.57
604.56	5.57
604.896	5.56
605.232	5.58
605.568	5.57
605.904	5.6
606.24	5.59
606.576	5.62
606.912	5.62
607.248	5.64
607.583	5.63
607.919	5.64
608.255	5.64
608.591	5.66
608.926	5.6
609.262	5.61
609.597	5.62
609.933	5.64
610.268	5.64
610.604	5.66
610.939	5.67
611.275	5.71
611.61	5.71
611.945	5.69
612.281	5.71
612.616	5.73
612.951	5.71
613.286	5.7
613.621	5.68
613.956	5.68
614.291	5.64
614.626	5.69
614.961	5.65
615.296	5.66
615.631	5.66
615.966	5.67
616.3	5.67
616.635	5.68
616.97	5.69
617.304	5.68
617.639	5.71
617.973	5.7
618.308	5.75
618.642	5.74
618.977	5.74
619.311	5.7
619.646	5.69
619.98	5.68
620.314	5.71
620.648	5.73
620.983	5.68
621.317	5.72
621.651	5.71
621.985	5.76
622.319	5.74
622.653	5.74
622.987	5.72
623.321	5.77
623.655	5.82
623.988	5.86
624.322	5.87
624.656	5.9
624.99	5.89
625.323	5.88
625.657	5.9
625.99	5.95
626.324	5.94
626.657	5.9
626.991	5.92
627.324	5.9
627.658	5.87
627.991	5.93
628.324	5.87
628.657	5.88
628.991	5.85
629.324	5.83
629.657	5.83
629.99	5.85
630.323	5.81
630.656	5.71
630.989	5.7
631.322	5.68
631.655	5.67
631.987	5.65
632.32	5.59
632.653	5.57
632.986	5.51
633.318	5.53
633.651	5.62
633.984	5.65
634.316	5.69
634.649	5.72
634.981	5.76
635.313	5.79
635.646	5.79
635.978	5.83
636.31	5.86
636.643	5.86
636.975	5.86
637.307	5.89
637.639	5.96
637.971	5.91
638.303	5.92
638.635	5.92
638.967	5.94
639.299	5.94
639.631	5.94
639.963	5.98
640.295	6.06
640.626	5.99
640.958	5.95
641.29	5.95
641.621	5.95
641.953	5.87
642.285	5.92
642.616	5.91
642.948	5.84
643.279	5.86
643.61	5.91
643.942	5.95
644.273	5.94
644.604	5.92
644.936	5.97
645.267	5.97
645.598	6.02
645.929	5.99
646.26	5.98
646.591	6.02
646.922	6.02
647.253	5.94
647.584	5.95
647.915	5.97
648.245	5.95
648.576	5.98
648.907	5.98
649.238	5.96
649.568	5.98
649.899	6
650.229	6.04
650.56	6.01
650.89	5.99
651.221	6.03
651.551	6.06
651.882	6.03
652.212	6.02
652.542	6.05
652.872	6.11
653.203	6.17
653.533	6.15
653.863	6.15
654.193	6.06
654.523	5.98
654.853	5.96
655.183	5.97
655.513	5.94
655.843	5.93
656.172	6.04
656.502	6.01
656.832	6
657.162	5.94
657.491	5.99
657.821	5.96
658.15	5.97
658.48	5.99
658.809	5.99
659.139	6.05
659.468	5.93
659.798	5.94
660.127	5.91
660.456	5.93
660.785	5.93
661.115	6.02
661.444	6.08
661.773	6.08
662.102	6.08
662.431	6.06
662.76	6.08
663.089	6.01
663.418	6.03
663.747	6.08
664.076	6.08
664.404	6.02
664.733	5.97
665.062	5.89
665.39	5.85
665.719	5.91
666.048	5.88
666.376	5.9
666.705	5.8
667.033	5.78
667.362	5.75
667.69	5.74
668.018	5.77
668.347	5.76
668.675	5.82
669.003	5.82
669.331	5.85
669.659	5.87
669.987	5.86
670.315	5.83
670.643	5.77
670.971	5.88
671.299	5.88
671.627	5.99
671.955	6.03
672.283	6.07
672.61	6.05
672.938	5.92
673.266	5.94
673.593	6
673.921	6.08
674.249	6.07
674.576	6.07
674.904	6.07
675.231	6.08
675.558	6.05
675.886	6.13
676.213	6.11
676.54	6.15
676.867	6.09
677.195	6.13
677.522	6.15
677.849	6.13
678.176	6.17
678.503	6.2
678.83	6.18
679.157	6.16
679.484	6.15
679.81	6.23
680.137	6.35
680.464	6.34
