Data from BU58002_Reflection_00012.txt Node
Date: Tue Nov 19 10:57:57 EST 2019
User: vgr7
Spectrometer: USB2G7710
Scans to average: 3
Trigger mode: 4
Integration Time (sec): 2.000000E-2
Electric dark correction enabled: true
Boxcar width: 10
XAxis mode: Wavelengths
Number of Pixels in Spectrum: 2048
>>>>>Begin Spectral Data<<<<<
177.721	116.63
178.105	74.26
178.488	68.28
178.871	84.09
179.254	38.46
179.636	125.61
180.019	112.56
180.402	216.67
180.785	12.5
181.168	879.41
181.55	220.19
181.933	59.94
182.316	51.25
182.698	38.08
183.081	8.36
183.463	7.48
183.846	44.21
184.228	128.69
184.611	156.18
184.993	77.27
185.376	47.96
185.758	427.59
186.14	-169.23
186.522	-196.61
186.904	380
187.287	626.32
187.669	-205.88
188.051	-164.98
188.433	958.49
188.815	-2007.14
189.197	-443.17
189.579	-203.28
189.961	-99.46
190.342	-68.36
190.724	-62.54
191.106	-85.73
191.488	-94.4
191.869	-100.84
192.251	-63.53
192.633	-47.93
193.014	-53.1
193.396	-55.76
193.777	-39.93
194.159	-26.19
194.54	-30.28
194.922	-43.43
195.303	-43.84
195.684	-48.29
196.065	-42.77
196.447	-27.8
196.828	-15.72
197.209	-10.08
197.59	-18.37
197.971	-12.05
198.352	-12.37
198.733	-29.72
199.114	-26.73
199.495	-28.56
199.876	-30.41
200.257	-35.78
200.638	-35.88
201.018	-30.69
201.399	-13.84
201.78	-28.39
202.16	-38.64
202.541	-38.05
202.922	-27.71
203.302	-32.74
203.683	-34.52
204.063	-35.98
204.444	-34.83
204.824	-31.36
205.204	-21.84
205.585	-7.77
205.965	-10.82
206.345	-17.68
206.725	-0.79
207.106	7.28
207.486	0.44
207.866	2.62
208.246	-1.06
208.626	-12.9
209.006	-20.88
209.386	-32.33
209.766	-45.81
210.145	-41.81
210.525	-58.46
210.905	-60.64
211.285	-41.92
211.664	-37.28
212.044	-37.38
212.424	-24.72
212.803	-42.27
213.183	-49.15
213.562	-40.44
213.942	-46.49
214.321	-45.21
214.701	-53.93
215.08	-59.52
215.459	-42.05
215.838	-51.08
216.218	-51.76
216.597	-44.03
216.976	-47.13
217.355	-39.83
217.734	-51.84
218.113	-44.57
218.492	-44.39
218.871	-43
219.25	-56.66
219.629	-68.83
220.008	-78.07
220.387	-107.32
220.766	-74.94
221.144	-73.12
221.523	-103.09
221.902	-86.35
222.28	-57.85
222.659	-38.74
223.037	-39.12
223.416	-25.94
223.794	-26.74
224.173	-28.32
224.551	-31.7
224.929	-32.65
225.308	-36.4
225.686	-23.43
226.064	-27.05
226.442	-20.6
226.821	-19.68
227.199	-21.37
227.577	-17.63
227.955	-14
228.333	-13.29
228.711	-17.55
229.089	-15.91
229.467	-13.95
229.845	-13.96
230.222	-14.61
230.6	-15.12
230.978	-14.02
231.356	-17.53
231.733	-15.1
232.111	-12.46
232.488	-9.68
232.866	-8.15
233.243	-6.86
233.621	-7.89
233.998	-4.91
234.376	-4
234.753	-3.68
235.13	-1.21
235.508	-1.82
235.885	-0.85
236.262	-1.5
236.639	0.7
237.016	1.71
237.393	2.21
237.77	3.33
238.147	3.47
238.524	4.11
238.901	3.81
239.278	3.35
239.655	3.85
240.032	3.41
240.409	3.31
240.785	3.28
241.162	3.34
241.539	3.39
241.915	3.36
242.292	3.15
242.668	3.82
243.045	3.71
243.421	4.05
243.798	3.77
244.174	4.21
244.551	3.8
244.927	3.83
245.303	3.88
245.679	3.62
246.056	3.61
246.432	3.51
246.808	3.52
247.184	3.65
247.56	3.43
247.936	3.58
248.312	3.74
248.688	3.58
249.064	3.52
249.44	3.51
249.815	3.47
250.191	3.53
250.567	3.08
250.943	3.15
251.318	2.73
251.694	2.55
252.069	2.53
252.445	2.66
252.82	2.58
253.196	2.36
253.571	2.43
253.947	2.28
254.322	2.27
254.697	2.03
255.073	2.12
255.448	2.12
255.823	2.11
256.198	2.16
256.573	2.33
256.948	2.48
257.323	2.68
257.698	2.52
258.073	2.43
258.448	2.63
258.823	2.49
259.198	2.63
259.573	2.66
259.948	2.52
260.322	2.32
260.697	2.34
261.072	2.39
261.446	2.23
261.821	2.35
262.195	2.37
262.57	2.45
262.944	2.45
263.319	2.42
263.693	2.4
264.067	2.31
264.442	2.39
264.816	2.55
265.19	2.34
265.564	2.49
265.938	2.44
266.313	2.16
266.687	2.24
267.061	2.22
267.435	2.37
267.809	2.42
268.183	2.57
268.556	2.46
268.93	2.57
269.304	2.76
269.678	2.63
270.051	2.64
270.425	2.72
270.799	2.58
271.172	2.73
271.546	2.7
271.919	2.54
272.293	2.44
272.666	2.36
273.04	2.33
273.413	2.31
273.787	2.42
274.16	2.5
274.533	2.61
274.906	2.5
275.279	2.4
275.653	2.48
276.026	2.52
276.399	2.5
276.772	2.3
277.145	2.46
277.518	2.47
277.891	2.45
278.263	2.43
278.636	2.54
279.009	2.56
279.382	2.63
279.755	2.7
280.127	2.65
280.5	2.48
280.872	2.67
281.245	2.56
281.617	2.57
281.99	2.6
282.362	2.56
282.735	2.69
283.107	2.72
283.479	2.81
283.852	2.78
284.224	2.77
284.596	2.96
284.968	2.82
285.34	2.8
285.713	2.92
286.085	2.84
286.457	2.91
286.829	2.93
287.201	2.88
287.572	3
287.944	3.07
288.316	3.2
288.688	3.16
289.06	3.33
289.431	3.26
289.803	3.37
290.175	3.38
290.546	3.37
290.918	3.53
291.289	3.36
291.661	3.43
292.032	3.41
292.403	3.28
292.775	3.44
293.146	3.49
293.517	3.37
293.889	3.41
294.26	3.37
294.631	3.34
295.002	3.33
295.373	3.28
295.744	3.26
296.115	3.2
296.486	3.17
296.857	3.1
297.228	3.07
297.599	2.91
297.97	2.92
298.34	2.99
298.711	2.98
299.082	3.04
299.452	2.95
299.823	2.99
300.194	3.1
300.564	2.99
300.935	3
301.305	3.05
301.676	2.93
302.046	3
302.416	3.08
302.787	3.06
303.157	3.18
303.527	3.36
303.897	3.31
304.267	3.37
304.637	3.46
305.008	3.59
305.378	3.69
305.748	3.62
306.117	3.62
306.487	3.67
306.857	3.77
307.227	4
307.597	4.09
307.967	4.13
308.336	4.28
308.706	4.4
309.076	4.56
309.445	4.79
309.815	4.86
310.184	4.86
310.554	4.97
310.923	4.91
311.293	4.83
311.662	4.97
312.031	5.15
312.401	5.06
312.77	5.09
313.139	5.16
313.508	5.35
313.877	5.39
314.246	5.31
314.616	5.34
314.985	5.43
315.353	5.6
315.722	5.78
316.091	5.81
316.46	5.68
316.829	5.54
317.198	5.53
317.567	5.61
317.935	5.65
318.304	5.79
318.672	5.93
319.041	6.16
319.41	6.26
319.778	6.13
320.147	6.53
320.515	6.66
320.883	6.82
321.252	6.95
321.62	7.08
321.988	7.38
322.357	7.41
322.725	7.5
323.093	7.38
323.461	7.26
323.829	7.19
324.197	7.34
324.565	7.47
324.933	7.66
325.301	7.53
325.669	7.69
326.037	7.81
326.405	7.92
326.772	7.89
327.14	7.91
327.508	8.08
327.875	7.81
328.243	7.95
328.61	7.97
328.978	7.84
329.346	7.72
329.713	7.73
330.08	7.85
330.448	7.89
330.815	7.97
331.182	8.07
331.55	8.13
331.917	8.18
332.284	8.24
332.651	8.15
333.018	8.26
333.385	8.31
333.752	8.19
334.119	8.16
334.486	8.21
334.853	8.19
335.22	8.12
335.587	8.35
335.954	8.27
336.32	8.26
336.687	8.29
337.054	8.33
337.42	8.17
337.787	8.16
338.153	8.09
338.52	8.2
338.886	8.23
339.253	8.34
339.619	8.3
339.986	8.33
340.352	8.39
340.718	8.49
341.084	8.42
341.451	8.44
341.817	8.42
342.183	8.44
342.549	8.53
342.915	8.61
343.281	8.6
343.647	8.68
344.013	8.7
344.379	8.79
344.745	8.83
345.11	8.97
345.476	8.91
345.842	8.95
346.208	8.85
346.573	8.84
346.939	8.83
347.304	8.83
347.67	8.66
348.035	8.61
348.401	8.5
348.766	8.47
349.132	8.48
349.497	8.54
349.862	8.55
350.228	8.5
350.593	8.37
350.958	8.31
351.323	8.21
351.688	8.31
352.053	8.32
352.418	8.41
352.783	8.42
353.148	8.52
353.513	8.51
353.878	8.56
354.243	8.46
354.608	8.46
354.972	8.5
355.337	8.59
355.702	8.62
356.066	8.64
356.431	8.64
356.795	8.68
357.16	8.61
357.524	8.58
357.889	8.53
358.253	8.52
358.618	8.55
358.982	8.51
359.346	8.43
359.71	8.36
360.075	8.3
360.439	8.29
360.803	8.29
361.167	8.19
361.531	8.19
361.895	8.14
362.259	8.1
362.623	8.08
362.987	8.1
363.351	8.11
363.714	8.08
364.078	8.05
364.442	7.92
364.806	7.9
365.169	7.9
365.533	7.9
365.896	7.9
366.26	7.82
366.623	7.85
366.987	7.78
367.35	7.74
367.714	7.68
368.077	7.61
368.44	7.5
368.803	7.45
369.167	7.35
369.53	7.37
369.893	7.27
370.256	7.18
370.619	7.1
370.982	6.99
371.345	6.93
371.708	6.85
372.071	6.81
372.434	6.69
372.797	6.6
373.159	6.47
373.522	6.37
373.885	6.25
374.247	6.12
374.61	6.1
374.973	6.04
375.335	6.01
375.698	5.92
376.06	5.82
376.423	5.77
376.785	5.76
377.147	5.66
377.51	5.62
377.872	5.55
378.234	5.5
378.596	5.45
378.958	5.45
379.321	5.45
379.683	5.4
380.045	5.4
380.407	5.3
380.769	5.28
381.13	5.25
381.492	5.24
381.854	5.21
382.216	5.19
382.578	5.15
382.939	5.12
383.301	5.07
383.663	5.07
384.024	5.06
384.386	5
384.747	4.96
385.109	4.94
385.47	4.9
385.832	4.86
386.193	4.85
386.554	4.76
386.916	4.71
387.277	4.7
387.638	4.67
387.999	4.69
388.36	4.68
388.721	4.67
389.082	4.67
389.443	4.65
389.804	4.56
390.165	4.51
390.526	4.48
390.887	4.42
391.248	4.41
391.609	4.4
391.969	4.37
392.33	4.39
392.691	4.35
393.051	4.35
393.412	4.31
393.772	4.26
394.133	4.24
394.493	4.24
394.854	4.19
395.214	4.16
395.574	4.13
395.935	4.1
396.295	4.09
396.655	4.03
397.015	4.01
397.376	3.97
397.736	3.98
398.096	3.92
398.456	3.9
398.816	3.88
399.176	3.82
399.535	3.77
399.895	3.73
400.255	3.72
400.615	3.65
400.975	3.65
401.334	3.64
401.694	3.64
402.054	3.59
402.413	3.59
402.773	3.56
403.132	3.51
403.492	3.48
403.851	3.42
404.211	3.42
404.57	3.42
404.929	3.44
405.288	3.4
405.648	3.4
406.007	3.42
406.366	3.37
406.725	3.37
407.084	3.38
407.443	3.36
407.802	3.34
408.161	3.36
408.52	3.34
408.879	3.34
409.238	3.31
409.596	3.3
409.955	3.26
410.314	3.26
410.673	3.25
411.031	3.25
411.39	3.25
411.748	3.26
412.107	3.23
412.465	3.2
412.824	3.19
413.182	3.16
413.54	3.16
413.899	3.15
414.257	3.15
414.615	3.13
414.974	3.12
415.332	3.11
415.69	3.08
416.048	3.08
416.406	3.04
416.764	3.05
417.122	3.02
417.48	3.02
417.838	3.02
418.195	3.02
418.553	3
418.911	2.98
419.269	2.98
419.626	2.97
419.984	2.98
420.342	2.97
420.699	2.97
421.057	2.96
421.414	2.96
421.772	2.96
422.129	2.94
422.486	2.94
422.844	2.93
423.201	2.93
423.558	2.94
423.915	2.96
424.273	2.96
424.63	2.96
424.987	2.95
425.344	2.93
425.701	2.93
426.058	2.93
426.415	2.94
426.772	2.91
427.128	2.92
427.485	2.9
427.842	2.9
428.199	2.89
428.555	2.87
428.912	2.86
429.269	2.86
429.625	2.86
429.982	2.87
430.338	2.87
430.695	2.86
431.051	2.82
431.407	2.79
431.764	2.76
432.12	2.78
432.476	2.76
432.832	2.77
433.189	2.77
433.545	2.77
433.901	2.79
434.257	2.78
434.613	2.76
434.969	2.75
435.325	2.76
435.681	2.76
436.036	2.76
436.392	2.76
436.748	2.75
437.104	2.75
437.459	2.72
437.815	2.75
438.171	2.76
438.526	2.78
438.882	2.78
439.237	2.8
439.593	2.79
439.948	2.81
440.304	2.8
440.659	2.81
441.014	2.8
441.369	2.78
441.725	2.8
442.08	2.81
442.435	2.81
442.79	2.8
443.145	2.78
443.5	2.78
443.855	2.78
444.21	2.77
444.565	2.77
444.92	2.77
445.275	2.76
445.629	2.74
445.984	2.73
446.339	2.73
446.693	2.74
447.048	2.72
447.403	2.7
447.757	2.7
448.112	2.68
448.466	2.68
448.82	2.68
449.175	2.67
449.529	2.67
449.883	2.66
450.238	2.67
450.592	2.68
450.946	2.69
451.3	2.69
451.654	2.7
452.008	2.69
452.362	2.68
452.716	2.69
453.07	2.7
453.424	2.69
453.778	2.68
454.132	2.66
454.486	2.65
454.839	2.68
455.193	2.71
455.547	2.72
455.9	2.72
456.254	2.71
456.607	2.7
456.961	2.7
457.314	2.69
457.668	2.7
458.021	2.68
458.375	2.69
458.728	2.68
459.081	2.69
459.434	2.69
459.787	2.71
460.141	2.7
460.494	2.69
460.847	2.69
461.2	2.7
461.553	2.7
461.906	2.72
462.259	2.7
462.611	2.69
462.964	2.69
463.317	2.68
463.67	2.7
464.022	2.71
464.375	2.72
464.728	2.73
465.08	2.73
465.433	2.73
465.785	2.73
466.138	2.76
466.49	2.76
466.843	2.79
467.195	2.77
467.547	2.78
467.899	2.81
468.252	2.82
468.604	2.81
468.956	2.83
469.308	2.82
469.66	2.81
470.012	2.81
470.364	2.81
470.716	2.81
471.068	2.8
471.42	2.81
471.772	2.8
472.123	2.8
472.475	2.8
472.827	2.83
473.178	2.83
473.53	2.82
473.882	2.81
474.233	2.78
474.585	2.8
474.936	2.79
475.288	2.77
475.639	2.77
475.99	2.77
476.342	2.76
476.693	2.8
477.044	2.8
477.395	2.81
477.746	2.8
478.097	2.78
478.448	2.8
478.8	2.81
479.15	2.81
479.501	2.8
479.852	2.8
480.203	2.8
480.554	2.81
480.905	2.8
481.255	2.81
481.606	2.84
481.957	2.86
482.307	2.85
482.658	2.86
483.009	2.86
483.359	2.87
483.709	2.88
484.06	2.88
484.41	2.88
484.761	2.89
485.111	2.88
485.461	2.9
485.811	2.9
486.162	2.9
486.512	2.91
486.862	2.92
487.212	2.93
487.562	2.92
487.912	2.93
488.262	2.93
488.612	2.93
488.961	2.92
489.311	2.92
489.661	2.92
490.011	2.92
490.36	2.92
490.71	2.92
491.06	2.92
491.409	2.91
491.759	2.93
492.108	2.93
492.458	2.94
492.807	2.95
493.157	2.95
493.506	2.95
493.855	2.93
494.204	2.93
494.554	2.94
494.903	2.97
495.252	2.96
495.601	2.99
495.95	3.01
496.299	3.02
496.648	3.04
496.997	3.07
497.346	3.08
497.695	3.1
498.043	3.12
498.392	3.13
498.741	3.13
499.09	3.13
499.438	3.15
499.787	3.17
500.135	3.17
500.484	3.18
500.832	3.2
501.181	3.23
501.529	3.26
501.878	3.29
502.226	3.29
502.574	3.3
502.923	3.3
503.271	3.31
503.619	3.33
503.967	3.32
504.315	3.33
504.663	3.36
505.011	3.39
505.359	3.41
505.707	3.45
506.055	3.51
506.403	3.54
506.751	3.59
507.098	3.63
507.446	3.69
507.794	3.74
508.141	3.78
508.489	3.82
508.837	3.86
509.184	3.88
509.531	3.92
509.879	3.97
510.226	4.02
510.574	4.07
510.921	4.11
511.268	4.18
511.616	4.25
511.963	4.31
512.31	4.34
512.657	4.4
513.004	4.45
513.351	4.51
513.698	4.57
514.045	4.61
514.392	4.68
514.739	4.75
515.086	4.81
515.432	4.91
515.779	4.98
516.126	5.04
516.473	5.12
516.819	5.2
517.166	5.29
517.512	5.37
517.859	5.45
518.205	5.52
518.552	5.59
518.898	5.63
519.245	5.7
519.591	5.79
519.937	5.88
520.283	5.99
520.629	6.07
520.976	6.15
521.322	6.24
521.668	6.36
522.014	6.46
522.36	6.55
522.706	6.66
523.052	6.79
523.398	6.93
523.743	7.05
524.089	7.19
524.435	7.3
524.781	7.41
525.126	7.51
525.472	7.64
525.817	7.73
526.163	7.84
526.509	7.93
526.854	7.99
527.199	8.07
527.545	8.15
527.89	8.23
528.235	8.32
528.581	8.4
528.926	8.47
529.271	8.54
529.616	8.65
529.961	8.72
530.306	8.8
530.651	8.88
530.996	8.98
531.341	9.1
531.686	9.19
532.031	9.3
532.376	9.4
532.721	9.5
533.065	9.62
533.41	9.73
533.755	9.84
534.099	9.97
534.444	10.08
534.788	10.2
535.133	10.31
535.477	10.45
535.822	10.56
536.166	10.71
536.51	10.83
536.855	10.95
537.199	11.09
537.543	11.25
537.887	11.42
538.231	11.58
538.576	11.71
538.92	11.86
539.264	12.01
539.608	12.17
539.951	12.31
540.295	12.45
540.639	12.57
540.983	12.68
541.327	12.81
541.671	12.93
542.014	13.03
542.358	13.16
542.701	13.27
543.045	13.41
543.389	13.54
543.732	13.67
544.075	13.82
544.419	13.96
544.762	14.11
545.105	14.26
545.449	14.41
545.792	14.57
546.135	14.75
546.478	14.92
546.821	15.09
547.165	15.3
547.508	15.49
547.851	15.7
548.194	15.91
548.536	16.12
548.879	16.35
549.222	16.57
549.565	16.82
549.908	17.04
550.25	17.29
550.593	17.49
550.936	17.75
551.278	17.97
551.621	18.2
551.963	18.42
552.306	18.68
552.648	18.93
552.991	19.17
553.333	19.4
553.675	19.64
554.017	19.87
554.36	20.04
554.702	20.24
555.044	20.48
555.386	20.72
555.728	20.96
556.07	21.17
556.412	21.47
556.754	21.7
557.096	21.98
557.438	22.23
557.78	22.51
558.121	22.8
558.463	23.02
558.805	23.27
559.147	23.54
559.488	23.76
559.83	24.03
560.171	24.26
560.513	24.57
560.854	24.82
561.196	25.12
561.537	25.46
561.878	25.81
562.22	26.11
562.561	26.36
562.902	26.6
563.243	26.89
563.584	27.16
563.925	27.39
564.266	27.64
564.607	27.89
564.948	28.14
565.289	28.37
565.63	28.64
565.971	28.93
566.312	29.21
566.653	29.45
566.993	29.7
567.334	29.97
567.675	30.21
568.015	30.46
568.356	30.7
568.696	30.91
569.037	31.12
569.377	31.32
569.718	31.59
570.058	31.85
570.398	32.13
570.739	32.37
571.079	32.62
571.419	32.83
571.759	33.05
572.099	33.3
572.439	33.52
572.779	33.76
573.119	33.97
573.459	34.15
573.799	34.4
574.139	34.61
574.479	34.83
574.819	35.03
575.158	35.28
575.498	35.48
575.838	35.74
576.177	35.91
576.517	36.18
576.856	36.38
577.196	36.63
577.535	36.82
577.875	37
578.214	37.24
578.553	37.48
578.893	37.74
579.232	37.93
579.571	38.18
579.91	38.4
580.25	38.64
580.589	38.89
580.928	39.08
581.267	39.26
581.606	39.45
581.945	39.65
582.283	39.82
582.622	40.04
582.961	40.19
583.3	40.41
583.639	40.59
583.977	40.8
584.316	40.96
584.654	41.14
584.993	41.4
585.332	41.6
585.67	41.78
586.008	41.94
586.347	42.15
586.685	42.27
587.024	42.5
587.362	42.68
587.7	42.89
588.038	43.03
588.376	43.22
588.715	43.37
589.053	43.56
589.391	43.69
589.729	43.84
590.067	43.97
590.404	44.2
590.742	44.39
591.08	44.52
591.418	44.65
591.756	44.86
592.093	44.97
592.431	45.12
592.769	45.27
593.106	45.44
593.444	45.55
593.781	45.78
594.119	45.87
594.456	45.99
594.793	46.08
595.131	46.23
595.468	46.31
595.805	46.43
596.143	46.54
596.48	46.73
596.817	46.85
597.154	46.96
597.491	47.04
597.828	47.08
598.165	47.21
598.502	47.37
598.839	47.45
599.176	47.59
599.512	47.63
599.849	47.78
600.186	47.92
600.523	48.05
600.859	48.07
601.196	48.17
601.532	48.24
601.869	48.36
602.205	48.5
602.542	48.66
602.878	48.78
603.215	48.87
603.551	48.87
603.887	48.94
604.223	49
604.56	49.09
604.896	49.28
605.232	49.38
605.568	49.47
605.904	49.52
606.24	49.61
606.576	49.75
606.912	49.8
607.248	49.92
607.583	49.96
607.919	50.07
608.255	50.22
608.591	50.42
608.926	50.46
609.262	50.53
609.597	50.63
609.933	50.74
610.268	50.86
610.604	50.97
610.939	51.11
611.275	51.19
611.61	51.32
611.945	51.34
612.281	51.4
612.616	51.47
612.951	51.57
613.286	51.59
613.621	51.7
613.956	51.82
614.291	51.86
614.626	52.09
614.961	52.19
615.296	52.27
615.631	52.2
615.966	52.27
616.3	52.36
616.635	52.33
616.97	52.38
617.304	52.37
617.639	52.45
617.973	52.39
618.308	52.53
618.642	52.45
618.977	52.45
619.311	52.48
619.646	52.57
619.98	52.71
620.314	52.83
620.648	52.84
620.983	52.81
621.317	52.88
621.651	52.86
621.985	52.87
622.319	52.83
622.653	52.9
622.987	52.93
623.321	52.93
623.655	53.01
623.988	52.99
624.322	53.05
624.656	52.99
624.99	53.05
625.323	53.05
625.657	53.19
625.99	53.28
626.324	53.29
626.657	53.33
626.991	53.29
627.324	53.25
627.658	53.31
627.991	53.35
628.324	53.29
628.657	53.29
628.991	53.3
629.324	53.43
629.657	53.55
629.99	53.7
630.323	53.71
630.656	53.77
630.989	53.83
631.322	53.91
631.655	54.04
631.987	54.14
632.32	54.13
632.653	54.12
632.986	54.09
633.318	54.21
633.651	54.21
633.984	54.29
634.316	54.36
634.649	54.37
634.981	54.4
635.313	54.51
635.646	54.6
635.978	54.73
636.31	54.75
636.643	54.69
636.975	54.71
637.307	54.68
637.639	54.63
637.971	54.58
638.303	54.56
638.635	54.45
638.967	54.32
639.299	54.36
639.631	54.32
639.963	54.43
640.295	54.38
640.626	54.42
640.958	54.46
641.29	54.54
641.621	54.6
641.953	54.66
642.285	54.68
642.616	54.64
642.948	54.62
643.279	54.55
643.61	54.71
643.942	54.6
644.273	54.71
644.604	54.76
644.936	54.91
645.267	54.97
645.598	55.1
645.929	55.22
646.26	55.28
646.591	55.55
646.922	55.56
647.253	55.67
647.584	55.77
647.915	55.74
648.245	55.75
648.576	55.79
648.907	55.89
649.238	55.85
649.568	55.88
649.899	55.92
650.229	55.91
650.56	55.83
650.89	55.97
651.221	55.96
651.551	56
651.882	55.96
652.212	55.99
652.542	56.06
652.872	56.12
653.203	56.22
653.533	55.97
653.863	55.86
654.193	55.89
654.523	55.69
654.853	55.67
655.183	55.56
655.513	55.52
655.843	55.42
656.172	55.53
656.502	55.58
656.832	55.52
657.162	55.61
657.491	55.75
657.821	55.75
658.15	55.76
658.48	55.74
658.809	55.8
659.139	55.77
659.468	55.74
659.798	55.74
660.127	55.7
660.456	55.88
660.785	55.97
661.115	55.96
661.444	56
661.773	55.95
662.102	56.03
662.431	56.04
662.76	56.15
663.089	56.09
663.418	56.02
663.747	56.13
664.076	56.13
664.404	55.98
664.733	55.9
665.062	56.01
665.39	56.01
665.719	56.03
666.048	56.07
666.376	56.03
666.705	56.07
667.033	56
667.362	55.8
667.69	55.89
668.018	55.8
668.347	55.88
