Data from BU58131_Reflection_00008.txt Node
Date: Mon Nov 18 16:32:24 EST 2019
User: vgr7
Spectrometer: USB2G7710
Scans to average: 3
Trigger mode: 4
Integration Time (sec): 2.000000E-2
Electric dark correction enabled: true
Boxcar width: 10
XAxis mode: Wavelengths
Number of Pixels in Spectrum: 2048
>>>>>Begin Spectral Data<<<<<
177.721	-618.85
178.105	-616.42
178.488	-954.86
178.871	562.05
179.254	142.36
179.636	140.18
180.019	-645.86
180.402	142.86
180.785	7.6
181.168	216.58
181.55	71.63
181.933	82.14
182.316	64.51
182.698	86.6
183.081	110.09
183.463	153.81
183.846	135.27
184.228	154.45
184.611	166.97
184.993	307.67
185.376	181.36
185.758	165.86
186.14	244.73
186.522	366.72
186.904	325.41
187.287	242.32
187.669	350.21
188.051	391.02
188.433	614.68
188.815	581.72
189.197	1374.68
189.579	-291.91
189.961	-130.22
190.342	-124.46
190.724	-99.52
191.106	-157.65
191.488	-64.89
191.869	-58.48
192.251	-97.08
192.633	-81.85
193.014	-130.77
193.396	-138.8
193.777	-101
194.159	-99.24
194.54	-106.84
194.922	-87.78
195.303	-65.55
195.684	-93.34
196.065	-48.23
196.447	-39.99
196.828	-69.92
197.209	-52.63
197.59	-75.25
197.971	-96.34
198.352	-87.57
198.733	-76
199.114	-58
199.495	-70.69
199.876	-24.96
200.257	-7.58
200.638	-0.13
201.018	6.22
201.399	6.56
201.78	-9.34
202.16	-19.3
202.541	-52.71
202.922	-72.91
203.302	-82.56
203.683	-72.24
204.063	-91.13
204.444	-97.39
204.824	-93.48
205.204	-95.05
205.585	-134.59
205.965	-71.18
206.345	-145.98
206.725	-348.42
207.106	-579.08
207.486	-2467.01
207.866	466.17
208.246	11447.83
208.626	1292.47
209.006	-998.46
209.386	963.01
209.766	888.4
210.145	-789.2
210.525	-157.36
210.905	-144.07
211.285	-164.16
211.664	-146.6
212.044	-143.8
212.424	-112.87
212.803	-122.78
213.183	-117.46
213.562	-102.12
213.942	-105.08
214.321	-69.81
214.701	-73.5
215.08	-86.09
215.459	-93.35
215.838	-80.14
216.218	-76.95
216.597	-68.2
216.976	-61.33
217.355	-39.27
217.734	-49.96
218.113	-36.03
218.492	-39.37
218.871	-43.78
219.25	-41.45
219.629	-60.35
220.008	-56.16
220.387	-59.85
220.766	-39.31
221.144	-59.54
221.523	-55.26
221.902	-57.68
222.28	-62.02
222.659	-58.05
223.037	-41.12
223.416	-39.61
223.794	-49.84
224.173	-49.76
224.551	-47.49
224.929	-45.42
225.308	-44.74
225.686	-40.09
226.064	-32.72
226.442	-29.47
226.821	-25.8
227.199	-22.1
227.577	-21.48
227.955	-24.84
228.333	-26.12
228.711	-26.48
229.089	-19.58
229.467	-20.6
229.845	-17.52
230.222	-16.69
230.6	-16.49
230.978	-14.76
231.356	-11.09
231.733	-9.8
232.111	-10.26
232.488	-6.81
232.866	-5.33
233.243	-2.33
233.621	-3.22
233.998	-5.21
234.376	-6.45
234.753	-5.2
235.13	-4.15
235.508	-0.44
235.885	2.14
236.262	2.46
236.639	3.71
237.016	2.16
237.393	2.98
237.77	3.42
238.147	3.43
238.524	3.51
238.901	3.29
239.278	3.07
239.655	2.5
240.032	2.7
240.409	1.71
240.785	1.57
241.162	1.24
241.539	1.57
241.915	1.58
242.292	1.46
242.668	1.17
243.045	1.08
243.421	1.1
243.798	0.85
244.174	0.89
244.551	0.93
244.927	1.29
245.303	1.46
245.679	1.35
246.056	1.34
246.432	1.34
246.808	1.39
247.184	1.22
247.56	1.15
247.936	1.26
248.312	1.33
248.688	1.43
249.064	1.51
249.44	1.66
249.815	1.93
250.191	2.1
250.567	2.3
250.943	2.14
251.318	2.16
251.694	2.04
252.069	2.12
252.445	2.05
252.82	1.95
253.196	1.74
253.571	1.86
253.947	1.83
254.322	1.71
254.697	1.32
255.073	1.25
255.448	1.65
255.823	1.7
256.198	1.91
256.573	1.89
256.948	1.8
257.323	1.91
257.698	1.72
258.073	1.6
258.448	1.66
258.823	1.86
259.198	1.53
259.573	1.82
259.948	1.75
260.322	1.7
260.697	1.54
261.072	1.54
261.446	1.43
261.821	1.38
262.195	1.54
262.57	1.7
262.944	1.65
263.319	1.47
263.693	1.36
264.067	1.17
264.442	1.1
264.816	1.22
265.19	1.05
265.564	1.16
265.938	1.07
266.313	1.04
266.687	0.95
267.061	1.25
267.435	1.21
267.809	1.11
268.183	1.29
268.556	1.44
268.93	1.43
269.304	1.55
269.678	1.59
270.051	1.54
270.425	1.7
270.799	1.65
271.172	1.76
271.546	1.86
271.919	1.93
272.293	1.84
272.666	1.79
273.04	1.82
273.413	1.76
273.787	1.97
274.16	1.79
274.533	1.78
274.906	1.71
275.279	1.63
275.653	1.74
276.026	1.63
276.399	1.64
276.772	1.72
277.145	1.55
277.518	1.51
277.891	1.52
278.263	1.33
278.636	1.44
279.009	1.34
279.382	1.37
279.755	1.24
280.127	1.48
280.5	1.39
280.872	1.42
281.245	1.39
281.617	1.34
281.99	1.47
282.362	1.57
282.735	1.49
283.107	1.59
283.479	1.61
283.852	1.64
284.224	1.61
284.596	1.64
284.968	1.8
285.34	1.88
285.713	1.81
286.085	1.89
286.457	1.95
286.829	2.03
287.201	2.02
287.572	2.12
287.944	1.87
288.316	1.83
288.688	1.85
289.06	1.89
289.431	1.93
289.803	1.99
290.175	1.97
290.546	2.07
290.918	2.03
291.289	1.97
291.661	1.99
292.032	2.04
292.403	1.99
292.775	2.08
293.146	2.11
293.517	2.09
293.889	1.85
294.26	1.87
294.631	1.84
295.002	1.97
295.373	1.94
295.744	2.13
296.115	2.31
296.486	2.3
296.857	2.29
297.228	2.39
297.599	2.33
297.97	2.33
298.34	2.28
298.711	2.3
299.082	2.42
299.452	2.59
299.823	2.71
300.194	2.81
300.564	2.63
300.935	2.66
301.305	2.72
301.676	2.94
302.046	3.05
302.416	3.29
302.787	3.14
303.157	3.21
303.527	3.32
303.897	3.34
304.267	3.4
304.637	3.48
305.008	3.4
305.378	3.55
305.748	3.74
306.117	3.88
306.487	3.97
306.857	3.98
307.227	3.9
307.597	3.96
307.967	4.01
308.336	4.18
308.706	4.28
309.076	4.46
309.445	4.58
309.815	4.63
310.184	4.54
310.554	4.55
310.923	4.68
311.293	4.64
311.662	4.58
312.031	4.58
312.401	4.68
312.77	4.81
313.139	4.97
313.508	5
313.877	5.06
314.246	5.12
314.616	5.16
314.985	5.26
315.353	5.31
315.722	5.51
316.091	5.53
316.46	5.61
316.829	5.63
317.198	5.62
317.567	5.59
317.935	5.61
318.304	5.93
318.672	5.98
319.041	6.2
319.41	6.26
319.778	6.34
320.147	6.38
320.515	6.32
320.883	6.16
321.252	6.17
321.62	6.14
321.988	6.18
322.357	6.21
322.725	6.16
323.093	6.17
323.461	6
323.829	6.11
324.197	6.11
324.565	6.18
324.933	6.28
325.301	6.45
325.669	6.59
326.037	6.65
326.405	6.53
326.772	6.6
327.14	6.74
327.508	6.79
327.875	6.71
328.243	6.87
328.61	7
328.978	7.05
329.346	7.19
329.713	7.26
330.08	7.39
330.448	7.45
330.815	7.38
331.182	7.51
331.55	7.53
331.917	7.68
332.284	7.72
332.651	7.69
333.018	7.73
333.385	7.68
333.752	7.65
334.119	7.88
334.486	7.77
334.853	7.76
335.22	7.93
335.587	8.01
335.954	7.96
336.32	7.88
336.687	7.88
337.054	7.89
337.42	7.93
337.787	7.95
338.153	8.03
338.52	8.14
338.886	8.03
339.253	8.15
339.619	8.09
339.986	8.14
340.352	8.24
340.718	8.14
341.084	8.19
341.451	8.27
341.817	8.22
342.183	8.34
342.549	8.41
342.915	8.4
343.281	8.41
343.647	8.37
344.013	8.55
344.379	8.57
344.745	8.68
345.11	8.71
345.476	8.74
345.842	8.72
346.208	8.8
346.573	8.95
346.939	8.99
347.304	9.02
347.67	8.96
348.035	9
348.401	9.05
348.766	9.04
349.132	8.98
349.497	8.91
349.862	8.9
350.228	8.97
350.593	8.9
350.958	8.94
351.323	9.03
351.688	9.09
352.053	9.19
352.418	9.22
352.783	9.2
353.148	9.22
353.513	9.25
353.878	9.23
354.243	9.24
354.608	9.15
354.972	9.15
355.337	9.2
355.702	9.22
356.066	9.28
356.431	9.26
356.795	9.32
357.16	9.3
357.524	9.19
357.889	9.13
358.253	9.12
358.618	9.12
358.982	9.11
359.346	8.99
359.71	8.88
360.075	8.75
360.439	8.76
360.803	8.72
361.167	8.63
361.531	8.6
361.895	8.51
362.259	8.5
362.623	8.48
362.987	8.38
363.351	8.33
363.714	8.33
364.078	8.33
364.442	8.23
364.806	8.21
365.169	8.22
365.533	8.16
365.896	8.11
366.26	8.05
366.623	8.02
366.987	8.03
367.35	8
367.714	8
368.077	7.89
368.44	7.79
368.803	7.78
369.167	7.64
369.53	7.6
369.893	7.6
370.256	7.59
370.619	7.62
370.982	7.55
371.345	7.43
371.708	7.32
372.071	7.27
372.434	7.27
372.797	7.26
373.159	7.18
373.522	7.21
373.885	7.18
374.247	7.13
374.61	7.04
374.973	6.94
375.335	6.85
375.698	6.78
376.06	6.74
376.423	6.68
376.785	6.65
377.147	6.68
377.51	6.56
377.872	6.49
378.234	6.39
378.596	6.36
378.958	6.29
379.321	6.31
379.683	6.29
380.045	6.2
380.407	6.14
380.769	6.1
381.13	5.93
381.492	5.85
381.854	5.79
382.216	5.72
382.578	5.69
382.939	5.61
383.301	5.6
383.663	5.55
384.024	5.48
384.386	5.47
384.747	5.4
385.109	5.39
385.47	5.29
385.832	5.3
386.193	5.26
386.554	5.21
386.916	5.13
387.277	5.04
387.638	5
387.999	4.92
388.36	4.95
388.721	4.94
389.082	4.92
389.443	4.82
389.804	4.77
390.165	4.71
390.526	4.69
390.887	4.63
391.248	4.57
391.609	4.58
391.969	4.54
392.33	4.47
392.691	4.4
393.051	4.37
393.412	4.32
393.772	4.22
394.133	4.17
394.493	4.12
394.854	4.08
395.214	4.05
395.574	4
395.935	3.89
396.295	3.9
396.655	3.85
397.015	3.82
397.376	3.81
397.736	3.79
398.096	3.78
398.456	3.75
398.816	3.73
399.176	3.65
399.535	3.58
399.895	3.53
400.255	3.51
400.615	3.51
400.975	3.44
401.334	3.44
401.694	3.42
402.054	3.39
402.413	3.38
402.773	3.32
403.132	3.29
403.492	3.26
403.851	3.21
404.211	3.17
404.57	3.15
404.929	3.13
405.288	3.04
405.648	2.98
406.007	2.96
406.366	2.95
406.725	2.97
407.084	3
407.443	2.99
407.802	2.98
408.161	2.95
408.52	2.93
408.879	2.91
409.238	2.88
409.596	2.86
409.955	2.84
410.314	2.85
410.673	2.83
411.031	2.84
411.39	2.81
411.748	2.79
412.107	2.8
412.465	2.76
412.824	2.78
413.182	2.76
413.54	2.77
413.899	2.77
414.257	2.74
414.615	2.69
414.974	2.69
415.332	2.67
415.69	2.67
416.048	2.64
416.406	2.64
416.764	2.62
417.122	2.61
417.48	2.59
417.838	2.57
418.195	2.58
418.553	2.56
418.911	2.56
419.269	2.55
419.626	2.53
419.984	2.52
420.342	2.51
420.699	2.49
421.057	2.48
421.414	2.45
421.772	2.44
422.129	2.43
422.486	2.41
422.844	2.4
423.201	2.36
423.558	2.37
423.915	2.34
424.273	2.33
424.63	2.32
424.987	2.31
425.344	2.3
425.701	2.29
426.058	2.26
426.415	2.24
426.772	2.22
427.128	2.21
427.485	2.2
427.842	2.17
428.199	2.17
428.555	2.14
428.912	2.14
429.269	2.13
429.625	2.13
429.982	2.1
430.338	2.09
430.695	2.09
431.051	2.08
431.407	2.09
431.764	2.07
432.12	2.06
432.476	2.05
432.832	2.04
433.189	2.02
433.545	2.04
433.901	2.04
434.257	2.04
434.613	2.04
434.969	2.05
435.325	2.08
435.681	2.08
436.036	2.1
436.392	2.07
436.748	2.07
437.104	2.05
437.459	2.06
437.815	2.06
438.171	2.07
438.526	2.07
438.882	2.08
439.237	2.09
439.593	2.09
439.948	2.1
440.304	2.11
440.659	2.12
441.014	2.11
441.369	2.1
441.725	2.09
442.08	2.08
442.435	2.07
442.79	2.06
443.145	2.06
443.5	2.04
443.855	2.04
444.21	2.03
444.565	2.05
444.92	2.06
445.275	2.05
445.629	2.05
445.984	2.05
446.339	2.03
446.693	2.01
447.048	2.01
447.403	2.01
447.757	2
448.112	1.98
448.466	1.97
448.82	1.98
449.175	1.99
449.529	1.99
449.883	1.98
450.238	1.95
450.592	1.94
450.946	1.93
451.3	1.92
451.654	1.92
452.008	1.89
452.362	1.87
452.716	1.86
453.07	1.86
453.424	1.84
453.778	1.85
454.132	1.84
454.486	1.84
454.839	1.82
455.193	1.82
455.547	1.82
455.9	1.83
456.254	1.82
456.607	1.81
456.961	1.8
457.314	1.8
457.668	1.83
458.021	1.81
458.375	1.82
458.728	1.84
459.081	1.82
459.434	1.8
459.787	1.82
460.141	1.81
460.494	1.8
460.847	1.82
461.2	1.8
461.553	1.82
461.906	1.83
462.259	1.84
462.611	1.85
462.964	1.86
463.317	1.87
463.67	1.87
464.022	1.88
464.375	1.87
464.728	1.89
465.08	1.89
465.433	1.93
465.785	1.93
466.138	1.92
466.49	1.95
466.843	1.99
467.195	1.99
467.547	2.02
467.899	2.04
468.252	2.02
468.604	2.05
468.956	2.06
469.308	2.07
469.66	2.08
470.012	2.09
470.364	2.09
470.716	2.09
471.068	2.1
471.42	2.12
471.772	2.15
472.123	2.15
472.475	2.16
472.827	2.14
473.178	2.16
473.53	2.16
473.882	2.15
474.233	2.15
474.585	2.14
474.936	2.12
475.288	2.12
475.639	2.14
475.99	2.13
476.342	2.12
476.693	2.09
477.044	2.09
477.395	2.08
477.746	2.08
478.097	2.08
478.448	2.08
478.8	2.06
479.15	2.04
479.501	2.04
479.852	2.03
480.203	2.04
480.554	2.04
480.905	2.05
481.255	2.05
481.606	2.06
481.957	2.07
482.307	2.07
482.658	2.07
483.009	2.06
483.359	2.06
483.709	2.07
484.06	2.06
484.41	2.06
484.761	2.05
485.111	2.05
485.461	2.05
485.811	2.05
486.162	2.04
486.512	2.05
486.862	2.05
487.212	2.05
487.562	2.05
487.912	2.05
488.262	2.04
488.612	2.05
488.961	2.04
489.311	2.04
489.661	2.04
490.011	2.04
490.36	2.05
490.71	2.04
491.06	2.05
491.409	2.06
491.759	2.06
492.108	2.06
492.458	2.06
492.807	2.07
493.157	2.07
493.506	2.1
493.855	2.11
494.204	2.11
494.554	2.11
494.903	2.12
495.252	2.14
495.601	2.15
495.95	2.16
496.299	2.17
496.648	2.18
496.997	2.2
497.346	2.22
497.695	2.23
498.043	2.26
498.392	2.27
498.741	2.3
499.09	2.31
499.438	2.35
499.787	2.38
500.135	2.41
500.484	2.45
500.832	2.47
501.181	2.51
501.529	2.55
501.878	2.61
502.226	2.65
502.574	2.68
502.923	2.71
503.271	2.76
503.619	2.8
503.967	2.84
504.315	2.89
504.663	2.93
505.011	2.98
505.359	3.01
505.707	3.08
506.055	3.13
506.403	3.21
506.751	3.27
507.098	3.31
507.446	3.37
507.794	3.43
508.141	3.5
508.489	3.55
508.837	3.61
509.184	3.68
509.531	3.75
509.879	3.83
510.226	3.91
510.574	3.96
510.921	4.05
511.268	4.13
511.616	4.2
511.963	4.28
512.31	4.37
512.657	4.48
513.004	4.53
513.351	4.66
513.698	4.76
514.045	4.85
514.392	4.98
514.739	5.08
515.086	5.17
515.432	5.27
515.779	5.39
516.126	5.5
516.473	5.57
516.819	5.66
517.166	5.74
517.512	5.82
517.859	5.91
518.205	5.96
518.552	6.04
518.898	6.11
519.245	6.18
519.591	6.26
519.937	6.32
520.283	6.42
520.629	6.47
520.976	6.55
521.322	6.66
521.668	6.73
522.014	6.81
522.36	6.92
522.706	7.03
523.052	7.13
523.398	7.26
523.743	7.42
524.089	7.56
524.435	7.69
524.781	7.83
525.126	7.96
525.472	8.07
525.817	8.19
526.163	8.29
526.509	8.41
526.854	8.5
527.199	8.59
527.545	8.67
527.89	8.76
528.235	8.84
528.581	8.93
528.926	9
529.271	9.08
529.616	9.17
529.961	9.25
530.306	9.34
530.651	9.41
530.996	9.48
531.341	9.57
531.686	9.65
532.031	9.74
532.376	9.82
532.721	9.91
533.065	10
533.41	10.11
533.755	10.2
534.099	10.3
534.444	10.42
534.788	10.52
535.133	10.62
535.477	10.71
535.822	10.8
536.166	10.93
536.51	11.06
536.855	11.18
537.199	11.29
537.543	11.41
537.887	11.56
538.231	11.72
538.576	11.87
538.92	12.02
539.264	12.13
539.608	12.26
539.951	12.39
540.295	12.5
540.639	12.6
540.983	12.71
541.327	12.82
541.671	12.92
542.014	13
542.358	13.1
542.701	13.21
543.045	13.32
543.389	13.43
543.732	13.55
544.075	13.67
544.419	13.77
544.762	13.9
545.105	14
545.449	14.11
545.792	14.23
546.135	14.34
546.478	14.51
546.821	14.66
547.165	14.78
547.508	14.94
547.851	15.09
548.194	15.23
548.536	15.35
548.879	15.48
549.222	15.62
549.565	15.77
549.908	15.93
550.25	16.06
550.593	16.2
550.936	16.31
551.278	16.44
551.621	16.6
551.963	16.78
552.306	16.9
552.648	17.02
552.991	17.17
553.333	17.29
553.675	17.39
554.017	17.48
554.36	17.65
554.702	17.74
555.044	17.84
555.386	17.96
555.728	18.11
556.07	18.24
556.412	18.39
556.754	18.52
557.096	18.63
557.438	18.77
557.78	18.9
558.121	19.06
558.463	19.2
558.805	19.33
559.147	19.41
559.488	19.56
559.83	19.68
560.171	19.78
560.513	19.95
560.854	20.09
561.196	20.25
561.537	20.36
561.878	20.47
562.22	20.6
562.561	20.67
562.902	20.8
563.243	20.92
563.584	21.03
563.925	21.1
564.266	21.19
564.607	21.27
564.948	21.33
565.289	21.42
565.63	21.52
565.971	21.61
566.312	21.68
566.653	21.76
566.993	21.84
567.334	21.94
567.675	22.01
568.015	22.08
568.356	22.15
568.696	22.21
569.037	22.34
569.377	22.42
569.718	22.51
570.058	22.54
570.398	22.62
570.739	22.72
571.079	22.84
571.419	22.88
571.759	22.97
572.099	23.04
572.439	23.09
572.779	23.12
573.119	23.16
573.459	23.26
573.799	23.35
574.139	23.43
574.479	23.48
574.819	23.56
575.158	23.61
575.498	23.66
575.838	23.71
576.177	23.73
576.517	23.75
576.856	23.8
577.196	23.85
577.535	23.9
577.875	23.95
578.214	23.97
578.553	24.04
578.893	24.07
579.232	24.18
579.571	24.23
579.91	24.29
580.25	24.4
580.589	24.49
580.928	24.53
581.267	24.56
581.606	24.62
581.945	24.6
582.283	24.6
582.622	24.63
582.961	24.69
583.3	24.76
583.639	24.84
583.977	24.92
584.316	24.96
584.654	25.01
584.993	24.99
585.332	25.04
585.67	25.1
586.008	25.13
586.347	25.12
586.685	25.12
587.024	25.18
587.362	25.2
587.7	25.18
588.038	25.23
588.376	25.27
588.715	25.25
589.053	25.33
589.391	25.43
589.729	25.45
590.067	25.48
590.404	25.51
590.742	25.55
591.08	25.57
591.418	25.61
591.756	25.62
592.093	25.67
592.431	25.7
592.769	25.75
593.106	25.77
593.444	25.74
593.781	25.8
594.119	25.84
594.456	25.83
594.793	25.8
595.131	25.76
595.468	25.79
595.805	25.84
596.143	25.83
596.48	25.86
596.817	25.91
597.154	25.91
597.491	25.92
597.828	25.88
598.165	25.88
598.502	25.88
598.839	25.88
599.176	25.88
599.512	25.87
599.849	25.86
600.186	25.9
600.523	26.01
600.859	25.99
601.196	25.99
601.532	26.02
601.869	26.04
602.205	26.08
602.542	26.04
602.878	26.06
603.215	26.09
603.551	26.05
603.887	26.05
604.223	26.09
604.56	26.1
604.896	26.17
605.232	26.2
605.568	26.25
605.904	26.29
606.24	26.33
606.576	26.37
606.912	26.4
607.248	26.37
607.583	26.39
607.919	26.45
608.255	26.45
608.591	26.49
608.926	26.51
609.262	26.54
609.597	26.6
609.933	26.61
610.268	26.67
610.604	26.71
610.939	26.69
611.275	26.7
611.61	26.74
611.945	26.74
612.281	26.73
612.616	26.76
612.951	26.76
613.286	26.74
613.621	26.75
613.956	26.7
614.291	26.73
614.626	26.7
614.961	26.66
615.296	26.67
615.631	26.63
615.966	26.67
616.3	26.59
616.635	26.55
616.97	26.59
617.304	26.55
617.639	26.58
617.973	26.6
618.308	26.59
618.642	26.53
618.977	26.52
619.311	26.54
619.646	26.52
619.98	26.55
620.314	26.57
620.648	26.6
620.983	26.66
621.317	26.7
621.651	26.76
621.985	26.78
622.319	26.85
622.653	26.8
622.987	26.84
623.321	26.88
623.655	26.93
623.988	26.89
624.322	26.88
624.656	26.8
624.99	26.86
625.323	26.9
625.657	26.97
625.99	26.98
626.324	27
626.657	27.01
626.991	26.97
627.324	26.93
627.658	26.96
627.991	26.99
628.324	26.96
628.657	26.9
628.991	26.91
629.324	26.87
629.657	26.92
629.99	26.91
630.323	26.96
630.656	26.94
630.989	27.01
631.322	27.1
631.655	27.17
631.987	27.18
632.32	27.11
632.653	27.07
632.986	27.1
633.318	27.05
633.651	27.07
633.984	27.11
634.316	27.13
634.649	27.09
634.981	27.07
635.313	27.05
635.646	27.11
635.978	27.15
636.31	27.2
636.643	27.22
636.975	27.28
637.307	27.2
637.639	27.19
637.971	27.15
638.303	27.05
638.635	27.01
638.967	27
639.299	27.14
639.631	27.13
639.963	27.06
640.295	27.08
640.626	27.1
640.958	27.15
641.29	27.27
641.621	27.28
641.953	27.22
642.285	27.23
642.616	27.23
642.948	27.13
643.279	27.06
643.61	27.05
643.942	27.04
644.273	27.12
644.604	27.11
644.936	27.15
645.267	27.11
645.598	27.17
645.929	27.18
646.26	27.08
646.591	27.09
646.922	27.13
647.253	27.12
647.584	27.16
647.915	27.06
648.245	26.95
648.576	26.9
648.907	27.02
649.238	26.98
649.568	26.98
649.899	27.07
650.229	27.16
650.56	27.12
650.89	27.09
651.221	27.08
651.551	27.08
651.882	26.97
652.212	27.03
652.542	27.05
652.872	26.97
653.203	27.01
653.533	27.08
653.863	27.14
654.193	27.21
654.523	27.12
654.853	27.19
655.183	27.15
655.513	27.17
655.843	27.1
656.172	27.23
656.502	27.19
656.832	27.3
657.162	27.22
657.491	27.22
657.821	27.19
658.15	27.19
658.48	27.25
658.809	27.29
659.139	27.3
659.468	27.23
659.798	27.26
660.127	27.26
660.456	27.28
660.785	27.24
661.115	27.18
661.444	27.22
661.773	27.21
662.102	27.3
662.431	27.29
662.76	27.38
663.089	27.35
663.418	27.33
663.747	27.11
664.076	27.17
664.404	27.15
664.733	27.18
665.062	27.11
665.39	27.09
665.719	27.1
666.048	27.07
666.376	27.07
666.705	26.97
667.033	26.93
667.362	26.87
