Data from BU58140_Reflection_00010.txt Node
Date: Tue Nov 19 10:53:40 EST 2019
User: vgr7
Spectrometer: USB2G7710
Scans to average: 3
Trigger mode: 4
Integration Time (sec): 2.000000E-2
Electric dark correction enabled: true
Boxcar width: 10
XAxis mode: Wavelengths
Number of Pixels in Spectrum: 2048
>>>>>Begin Spectral Data<<<<<
177.721	-1.35
178.105	61.54
178.488	-28.98
178.871	-371.43
179.254	-416.67
179.636	291.49
180.019	734.62
180.402	133.33
180.785	81.25
181.168	-228.13
181.55	506.25
181.933	193.75
182.316	32.69
182.698	10.49
183.081	-25
183.463	0.39
183.846	79.51
184.228	57.03
184.611	234.62
184.993	-95
185.376	-89.76
185.758	-119.26
186.14	-381.25
186.522	-135.92
186.904	-44.23
187.287	-74.46
187.669	-56.58
188.051	-74.62
188.433	-107.11
188.815	-98.01
189.197	-94.08
189.579	-96.35
189.961	-78.43
190.342	-69.89
190.724	-110.08
191.106	-128.38
191.488	-117.74
191.869	-104.69
192.251	-89.48
192.633	-82.36
193.014	-95.47
193.396	-105.45
193.777	-80.76
194.159	-72.29
194.54	-74.57
194.922	-87.15
195.303	-73.48
195.684	-82.69
196.065	-63.44
196.447	-54.08
196.828	-59.03
197.209	-48.13
197.59	-50.37
197.971	-64.89
198.352	-61.53
198.733	-44.19
199.114	-42.93
199.495	-43.51
199.876	-45.83
200.257	-52.2
200.638	-57.99
201.018	-57.98
201.399	-51.66
201.78	-57.66
202.16	-53.65
202.541	-69.72
202.922	-65.45
203.302	-75.55
203.683	-75
204.063	-86.78
204.444	-81.39
204.824	-78.65
205.204	-80.82
205.585	-63.56
205.965	-76.85
206.345	-93.11
206.725	-100.11
207.106	-89.41
207.486	-94.55
207.866	-87.26
208.246	-74.87
208.626	-70.59
209.006	-69.24
209.386	-64.01
209.766	-62.5
210.145	-70.85
210.525	-60.25
210.905	-50.48
211.285	-41.79
211.664	-36.9
212.044	-26.14
212.424	-27
212.803	-25.89
213.183	-25
213.562	-19.91
213.942	-10.67
214.321	-4.68
214.701	-6.14
215.08	-2.68
215.459	7.68
215.838	-0.96
216.218	-6.66
216.597	-12.47
216.976	-16.36
217.355	-17.68
217.734	-20.59
218.113	-13.72
218.492	-13.99
218.871	-23.94
219.25	-18.51
219.629	-25
220.008	-40.78
220.387	-29.89
220.766	-24.45
221.144	-19.02
221.523	-35.92
221.902	-31.44
222.28	-19.91
222.659	-4.06
223.037	-4.84
223.416	-3.54
223.794	5
224.173	-0.22
224.551	6.51
224.929	9.97
225.308	9.28
225.686	10.48
226.064	7.88
226.442	7.95
226.821	6.65
227.199	2.41
227.577	4.42
227.955	6.52
228.333	1.21
228.711	-1.55
229.089	-5.02
229.467	-4.5
229.845	-4.96
230.222	-4.41
230.6	-7.8
230.978	-5.41
231.356	-5.53
231.733	-4.93
232.111	-3.68
232.488	-6.78
232.866	-7.69
233.243	-7.23
233.621	-6.99
233.998	-5.19
234.376	-4.24
234.753	-3.92
235.13	-3.23
235.508	-2.06
235.885	-2.77
236.262	-0.49
236.639	-0.65
237.016	0.86
237.393	1.79
237.77	2.18
238.147	2.06
238.524	2.97
238.901	1.87
239.278	1.16
239.655	1.89
240.032	2.59
240.409	3.26
240.785	3.6
241.162	3.45
241.539	3.48
241.915	2.98
242.292	2.95
242.668	3.04
243.045	3.41
243.421	3.4
243.798	4
244.174	4.12
244.551	4.31
244.927	4.15
245.303	4.01
245.679	4.02
246.056	4
246.432	4.01
246.808	4.35
247.184	4.6
247.56	4.1
247.936	4.07
248.312	4.11
248.688	4.1
249.064	4.04
249.44	3.92
249.815	4.13
250.191	4.07
250.567	4.22
250.943	4.54
251.318	4.41
251.694	4.35
252.069	4.19
252.445	3.91
252.82	4.23
253.196	4.54
253.571	4.62
253.947	4.65
254.322	4.8
254.697	4.43
255.073	4.5
255.448	4.92
255.823	4.88
256.198	4.85
256.573	4.82
256.948	5
257.323	5.21
257.698	5.09
258.073	5.07
258.448	5.07
258.823	4.41
259.198	4.4
259.573	4.14
259.948	4.1
260.322	4.16
260.697	4.19
261.072	4.18
261.446	4.01
261.821	4.02
262.195	3.83
262.57	3.94
262.944	4.01
263.319	3.97
263.693	4
264.067	3.97
264.442	3.92
264.816	3.92
265.19	3.61
265.564	3.57
265.938	3.66
266.313	3.47
266.687	3.77
267.061	3.73
267.435	3.86
267.809	3.9
268.183	3.89
268.556	3.63
268.93	3.66
269.304	3.73
269.678	3.78
270.051	3.94
270.425	3.95
270.799	3.7
271.172	3.77
271.546	3.91
271.919	3.86
272.293	3.92
272.666	3.74
273.04	3.96
273.413	3.87
273.787	3.85
274.16	3.95
274.533	4.03
274.906	4.09
275.279	3.86
275.653	3.79
276.026	3.93
276.399	3.84
276.772	3.77
277.145	3.78
277.518	3.64
277.891	3.58
278.263	3.67
278.636	3.7
279.009	3.52
279.382	3.49
279.755	3.53
280.127	3.5
280.5	3.64
280.872	3.49
281.245	3.73
281.617	3.67
281.99	3.67
282.362	3.68
282.735	3.53
283.107	3.71
283.479	3.66
283.852	3.65
284.224	3.71
284.596	3.76
284.968	3.7
285.34	3.77
285.713	3.87
286.085	3.72
286.457	3.72
286.829	3.82
287.201	3.65
287.572	3.71
287.944	3.82
288.316	3.92
288.688	4.04
289.06	3.94
289.431	4.05
289.803	4.15
290.175	4.09
290.546	4.29
290.918	4.31
291.289	4.43
291.661	4.44
292.032	4.46
292.403	4.49
292.775	4.74
293.146	4.73
293.517	4.65
293.889	4.75
294.26	4.92
294.631	4.94
295.002	5.07
295.373	5.11
295.744	5.14
296.115	5.08
296.486	5.02
296.857	5.09
297.228	4.95
297.599	4.92
297.97	4.97
298.34	4.89
298.711	4.95
299.082	4.82
299.452	4.88
299.823	5.03
300.194	5
300.564	4.97
300.935	5.11
301.305	5.09
301.676	5.05
302.046	4.99
302.416	5.01
302.787	4.97
303.157	5.07
303.527	5.1
303.897	5.13
304.267	5.25
304.637	5.25
305.008	5.37
305.378	5.58
305.748	5.62
306.117	5.83
306.487	5.88
306.857	6.13
307.227	6.24
307.597	6.29
307.967	6.43
308.336	6.49
308.706	6.45
309.076	6.61
309.445	6.74
309.815	6.78
310.184	6.67
310.554	6.71
310.923	6.71
311.293	6.68
311.662	6.85
312.031	6.86
312.401	6.9
312.77	7.13
313.139	7.04
313.508	7.23
313.877	7.25
314.246	7.29
314.616	7.43
314.985	7.38
315.353	7.49
315.722	7.63
316.091	7.79
316.46	8.01
316.829	8.29
317.198	8.39
317.567	8.57
317.935	8.82
318.304	9.15
318.672	9.31
319.041	9.62
319.41	9.61
319.778	9.69
320.147	9.85
320.515	9.96
320.883	9.98
321.252	9.91
321.62	9.99
321.988	10.15
322.357	10.2
322.725	10.24
323.093	10.26
323.461	10.21
323.829	10.11
324.197	10.03
324.565	9.91
324.933	9.96
325.301	9.95
325.669	9.9
326.037	9.92
326.405	9.87
326.772	9.8
327.14	9.8
327.508	9.85
327.875	9.91
328.243	9.85
328.61	9.84
328.978	9.91
329.346	9.96
329.713	10.07
330.08	10.15
330.448	10.24
330.815	10.33
331.182	10.25
331.55	10.32
331.917	10.31
332.284	10.23
332.651	10.18
333.018	10.25
333.385	10.48
333.752	10.5
334.119	10.42
334.486	10.39
334.853	10.41
335.22	10.44
335.587	10.34
335.954	10.35
336.32	10.44
336.687	10.43
337.054	10.31
337.42	10.27
337.787	10.23
338.153	10.2
338.52	10.2
338.886	10.34
339.253	10.34
339.619	10.48
339.986	10.61
340.352	10.6
340.718	10.59
341.084	10.48
341.451	10.5
341.817	10.59
342.183	10.53
342.549	10.56
342.915	10.63
343.281	10.73
343.647	10.68
344.013	10.72
344.379	10.72
344.745	10.82
345.11	10.82
345.476	10.79
345.842	10.83
346.208	10.83
346.573	10.87
346.939	10.97
347.304	10.97
347.67	10.91
348.035	10.87
348.401	10.96
348.766	11.03
349.132	10.98
349.497	11.1
349.862	11.21
350.228	11.22
350.593	11.13
350.958	11.22
351.323	11.19
351.688	11.15
352.053	11.16
352.418	11.2
352.783	11.24
353.148	11.17
353.513	11.18
353.878	11.16
354.243	11.07
354.608	11.07
354.972	10.96
355.337	10.93
355.702	10.97
356.066	10.86
356.431	10.88
356.795	10.89
357.16	10.78
357.524	10.67
357.889	10.68
358.253	10.65
358.618	10.6
358.982	10.58
359.346	10.52
359.71	10.5
360.075	10.41
360.439	10.31
360.803	10.36
361.167	10.24
361.531	10.13
361.895	10.04
362.259	9.96
362.623	9.96
362.987	9.92
363.351	9.88
363.714	9.87
364.078	9.75
364.442	9.73
364.806	9.68
365.169	9.63
365.533	9.54
365.896	9.54
366.26	9.4
366.623	9.43
366.987	9.39
367.35	9.3
367.714	9.26
368.077	9.23
368.44	9.13
368.803	9.08
369.167	9.05
369.53	9.09
369.893	9
370.256	8.81
370.619	8.74
370.982	8.61
371.345	8.55
371.708	8.42
372.071	8.19
372.434	8.08
372.797	8.05
373.159	7.99
373.522	7.86
373.885	7.86
374.247	7.71
374.61	7.62
374.973	7.54
375.335	7.43
375.698	7.31
376.06	7.24
376.423	7.22
376.785	7.15
377.147	7.06
377.51	7.03
377.872	7.08
378.234	7.05
378.596	7.07
378.958	7.02
379.321	7.11
379.683	7.14
380.045	7.09
380.407	7
380.769	6.9
381.13	6.86
381.492	6.81
381.854	6.73
382.216	6.74
382.578	6.73
382.939	6.67
383.301	6.64
383.663	6.58
384.024	6.53
384.386	6.49
384.747	6.46
385.109	6.4
385.47	6.31
385.832	6.27
386.193	6.19
386.554	6.1
386.916	6.02
387.277	5.96
387.638	5.95
387.999	5.94
388.36	5.94
388.721	5.91
389.082	5.88
389.443	5.87
389.804	5.82
390.165	5.77
390.526	5.73
390.887	5.65
391.248	5.63
391.609	5.57
391.969	5.55
392.33	5.49
392.691	5.45
393.051	5.42
393.412	5.4
393.772	5.35
394.133	5.29
394.493	5.2
394.854	5.19
395.214	5.13
395.574	5.1
395.935	5.08
396.295	5.04
396.655	4.99
397.015	4.94
397.376	4.85
397.736	4.82
398.096	4.8
398.456	4.79
398.816	4.74
399.176	4.69
399.535	4.64
399.895	4.62
400.255	4.56
400.615	4.54
400.975	4.48
401.334	4.47
401.694	4.45
402.054	4.46
402.413	4.45
402.773	4.41
403.132	4.39
403.492	4.33
403.851	4.28
404.211	4.25
404.57	4.23
404.929	4.25
405.288	4.21
405.648	4.17
406.007	4.17
406.366	4.14
406.725	4.13
407.084	4.13
407.443	4.1
407.802	4.09
408.161	4.09
408.52	4.08
408.879	4.05
409.238	4.04
409.596	4
409.955	3.95
410.314	3.94
410.673	3.9
411.031	3.89
411.39	3.89
411.748	3.88
412.107	3.84
412.465	3.82
412.824	3.83
413.182	3.83
413.54	3.82
413.899	3.86
414.257	3.87
414.615	3.85
414.974	3.83
415.332	3.82
415.69	3.78
416.048	3.78
416.406	3.78
416.764	3.8
417.122	3.8
417.48	3.81
417.838	3.77
418.195	3.77
418.553	3.76
418.911	3.74
419.269	3.71
419.626	3.7
419.984	3.68
420.342	3.65
420.699	3.62
421.057	3.6
421.414	3.57
421.772	3.54
422.129	3.53
422.486	3.52
422.844	3.5
423.201	3.49
423.558	3.48
423.915	3.47
424.273	3.45
424.63	3.44
424.987	3.42
425.344	3.43
425.701	3.4
426.058	3.39
426.415	3.38
426.772	3.38
427.128	3.39
427.485	3.39
427.842	3.38
428.199	3.41
428.555	3.4
428.912	3.39
429.269	3.39
429.625	3.38
429.982	3.38
430.338	3.38
430.695	3.36
431.051	3.35
431.407	3.33
431.764	3.32
432.12	3.32
432.476	3.31
432.832	3.29
433.189	3.3
433.545	3.3
433.901	3.3
434.257	3.3
434.613	3.27
434.969	3.27
435.325	3.29
435.681	3.27
436.036	3.27
436.392	3.28
436.748	3.28
437.104	3.27
437.459	3.25
437.815	3.26
438.171	3.26
438.526	3.27
438.882	3.27
439.237	3.28
439.593	3.27
439.948	3.27
440.304	3.28
440.659	3.27
441.014	3.26
441.369	3.27
441.725	3.28
442.08	3.31
442.435	3.3
442.79	3.27
443.145	3.27
443.5	3.26
443.855	3.24
444.21	3.24
444.565	3.24
444.92	3.26
445.275	3.25
445.629	3.26
445.984	3.25
446.339	3.25
446.693	3.22
447.048	3.2
447.403	3.2
447.757	3.21
448.112	3.22
448.466	3.22
448.82	3.22
449.175	3.2
449.529	3.17
449.883	3.16
450.238	3.18
450.592	3.19
450.946	3.18
451.3	3.19
451.654	3.19
452.008	3.18
452.362	3.19
452.716	3.19
453.07	3.16
453.424	3.16
453.778	3.15
454.132	3.17
454.486	3.19
454.839	3.17
455.193	3.17
455.547	3.14
455.9	3.13
456.254	3.11
456.607	3.1
456.961	3.11
457.314	3.11
457.668	3.1
458.021	3.08
458.375	3.11
458.728	3.11
459.081	3.12
459.434	3.13
459.787	3.14
460.141	3.14
460.494	3.14
460.847	3.15
461.2	3.16
461.553	3.18
461.906	3.19
462.259	3.2
462.611	3.2
462.964	3.23
463.317	3.24
463.67	3.24
464.022	3.25
464.375	3.28
464.728	3.27
465.08	3.29
465.433	3.31
465.785	3.32
466.138	3.33
466.49	3.33
466.843	3.33
467.195	3.3
467.547	3.3
467.899	3.32
468.252	3.31
468.604	3.34
468.956	3.33
469.308	3.33
469.66	3.36
470.012	3.37
470.364	3.37
470.716	3.39
471.068	3.4
471.42	3.4
471.772	3.41
472.123	3.43
472.475	3.43
472.827	3.43
473.178	3.4
473.53	3.42
473.882	3.43
474.233	3.42
474.585	3.44
474.936	3.46
475.288	3.47
475.639	3.49
475.99	3.46
476.342	3.46
476.693	3.46
477.044	3.45
477.395	3.43
477.746	3.42
478.097	3.42
478.448	3.42
478.8	3.42
479.15	3.41
479.501	3.41
479.852	3.39
480.203	3.38
480.554	3.39
480.905	3.39
481.255	3.39
481.606	3.39
481.957	3.39
482.307	3.39
482.658	3.37
483.009	3.36
483.359	3.35
483.709	3.36
484.06	3.36
484.41	3.35
484.761	3.35
485.111	3.36
485.461	3.35
485.811	3.35
486.162	3.34
486.512	3.34
486.862	3.33
487.212	3.34
487.562	3.34
487.912	3.33
488.262	3.34
488.612	3.33
488.961	3.32
489.311	3.32
489.661	3.32
490.011	3.32
490.36	3.32
490.71	3.33
491.06	3.32
491.409	3.32
491.759	3.34
492.108	3.35
492.458	3.36
492.807	3.38
493.157	3.39
493.506	3.41
493.855	3.42
494.204	3.44
494.554	3.46
494.903	3.49
495.252	3.51
495.601	3.52
495.95	3.53
496.299	3.56
496.648	3.6
496.997	3.63
497.346	3.66
497.695	3.7
498.043	3.72
498.392	3.76
498.741	3.78
499.09	3.8
499.438	3.84
499.787	3.86
500.135	3.89
500.484	3.92
500.832	3.97
501.181	4.02
501.529	4.08
501.878	4.13
502.226	4.17
502.574	4.23
502.923	4.3
503.271	4.36
503.619	4.43
503.967	4.48
504.315	4.54
504.663	4.61
505.011	4.68
505.359	4.72
505.707	4.81
506.055	4.93
506.403	5
506.751	5.09
507.098	5.18
507.446	5.26
507.794	5.34
508.141	5.43
508.489	5.52
508.837	5.59
509.184	5.7
509.531	5.78
509.879	5.87
510.226	5.97
510.574	6.11
510.921	6.21
511.268	6.32
511.616	6.44
511.963	6.57
512.31	6.72
512.657	6.88
513.004	6.99
513.351	7.08
513.698	7.25
514.045	7.39
514.392	7.54
514.739	7.72
515.086	7.91
515.432	8.07
515.779	8.24
516.126	8.42
516.473	8.58
516.819	8.76
517.166	8.91
517.512	9.07
517.859	9.2
518.205	9.31
518.552	9.48
518.898	9.62
519.245	9.76
519.591	9.89
519.937	10.04
520.283	10.2
520.629	10.37
520.976	10.55
521.322	10.75
521.668	10.96
522.014	11.16
522.36	11.35
522.706	11.56
523.052	11.79
523.398	12.04
523.743	12.29
524.089	12.54
524.435	12.78
524.781	13.01
525.126	13.23
525.472	13.44
525.817	13.63
526.163	13.8
526.509	13.95
526.854	14.13
527.199	14.28
527.545	14.44
527.89	14.59
528.235	14.74
528.581	14.88
528.926	15.06
529.271	15.2
529.616	15.37
529.961	15.53
530.306	15.69
530.651	15.86
530.996	16.03
531.341	16.23
531.686	16.42
532.031	16.61
532.376	16.81
532.721	17.02
533.065	17.21
533.41	17.44
533.755	17.71
534.099	17.91
534.444	18.15
534.788	18.36
535.133	18.6
535.477	18.82
535.822	19.1
536.166	19.33
536.51	19.61
536.855	19.91
537.199	20.22
537.543	20.55
537.887	20.86
538.231	21.16
538.576	21.48
538.92	21.77
539.264	22.11
539.608	22.39
539.951	22.66
540.295	22.98
540.639	23.23
540.983	23.47
541.327	23.75
541.671	23.98
542.014	24.21
542.358	24.44
542.701	24.69
543.045	24.91
543.389	25.13
543.732	25.36
544.075	25.59
544.419	25.81
544.762	26.07
545.105	26.32
545.449	26.6
545.792	26.88
546.135	27.18
546.478	27.48
546.821	27.82
547.165	28.14
547.508	28.43
547.851	28.79
548.194	29.09
548.536	29.39
548.879	29.76
549.222	30.08
549.565	30.41
549.908	30.7
550.25	31
550.593	31.35
550.936	31.71
551.278	32.01
551.621	32.36
551.963	32.67
552.306	32.99
552.648	33.28
552.991	33.57
553.333	33.87
553.675	34.12
554.017	34.39
554.36	34.61
554.702	34.85
555.044	35.09
555.386	35.37
555.728	35.62
556.07	35.87
556.412	36.21
556.754	36.49
557.096	36.77
557.438	37.05
557.78	37.33
558.121	37.6
558.463	37.9
558.805	38.17
559.147	38.48
559.488	38.75
559.83	38.99
560.171	39.22
560.513	39.46
560.854	39.66
561.196	39.94
561.537	40.21
561.878	40.49
562.22	40.67
562.561	40.93
562.902	41.13
563.243	41.34
563.584	41.54
563.925	41.78
564.266	41.95
564.607	42.14
564.948	42.31
565.289	42.5
565.63	42.67
565.971	42.81
566.312	42.95
566.653	43.14
566.993	43.32
567.334	43.55
567.675	43.78
568.015	43.98
568.356	44.11
568.696	44.34
569.037	44.49
569.377	44.69
569.718	44.86
570.058	45.03
570.398	45.2
570.739	45.38
571.079	45.58
571.419	45.82
571.759	46.01
572.099	46.19
572.439	46.36
572.779	46.5
573.119	46.7
573.459	46.85
573.799	46.95
574.139	47.1
574.479	47.19
574.819	47.3
575.158	47.43
575.498	47.58
575.838	47.72
576.177	47.87
576.517	47.99
576.856	48.1
577.196	48.24
577.535	48.39
577.875	48.48
578.214	48.62
578.553	48.73
578.893	48.86
579.232	48.92
579.571	48.97
579.91	49.16
580.25	49.26
580.589	49.36
580.928	49.57
581.267	49.71
581.606	49.8
581.945	49.91
582.283	50.08
582.622	50.18
582.961	50.27
583.3	50.31
583.639	50.46
583.977	50.65
584.316	50.86
584.654	51
584.993	51.11
585.332	51.19
585.67	51.3
586.008	51.41
586.347	51.58
586.685	51.7
587.024	51.76
587.362	51.91
587.7	52.03
588.038	52.08
588.376	52.23
588.715	52.41
589.053	52.57
589.391	52.64
589.729	52.79
590.067	52.91
590.404	53.04
590.742	53.13
591.08	53.16
591.418	53.12
591.756	53.12
592.093	53.24
592.431	53.35
592.769	53.46
593.106	53.53
593.444	53.62
593.781	53.73
594.119	53.84
594.456	53.82
594.793	53.94
595.131	53.96
595.468	53.92
595.805	53.98
596.143	53.96
596.48	54.01
596.817	54.08
597.154	54.13
597.491	54.2
597.828	54.29
598.165	54.37
598.502	54.47
598.839	54.6
599.176	54.63
599.512	54.64
599.849	54.68
600.186	54.79
600.523	54.85
600.859	54.85
601.196	54.93
601.532	55.11
601.869	55.14
602.205	55.24
602.542	55.38
602.878	55.4
603.215	55.47
603.551	55.52
603.887	55.54
604.223	55.55
604.56	55.53
604.896	55.55
605.232	55.55
605.568	55.6
605.904	55.7
606.24	55.78
606.576	55.8
606.912	55.86
607.248	55.87
607.583	56.02
607.919	56.1
608.255	56.08
608.591	56.05
608.926	56.12
609.262	56.15
609.597	56.16
609.933	56.16
610.268	56.19
610.604	56.24
610.939	56.29
611.275	56.39
611.61	56.51
611.945	56.51
612.281	56.61
612.616	56.6
612.951	56.56
613.286	56.57
613.621	56.63
613.956	56.65
614.291	56.62
614.626	56.51
614.961	56.57
615.296	56.68
615.631	56.68
615.966	56.74
616.3	56.84
616.635	56.91
616.97	56.96
617.304	57.02
617.639	57
617.973	57.03
618.308	56.97
618.642	56.95
618.977	56.92
619.311	56.89
619.646	57.06
619.98	57.11
620.314	57.16
620.648	57.22
620.983	57.25
621.317	57.35
621.651	57.38
621.985	57.41
622.319	57.4
622.653	57.48
622.987	57.46
623.321	57.51
623.655	57.63
623.988	57.75
624.322	57.78
624.656	57.78
624.99	57.8
625.323	57.86
625.657	57.87
625.99	57.93
626.324	57.97
626.657	57.95
626.991	58.04
627.324	58.1
627.658	58.03
627.991	58.03
628.324	58.01
628.657	58.04
628.991	58.08
629.324	58.13
629.657	58.09
629.99	58.06
630.323	58.06
630.656	58.02
630.989	57.98
631.322	57.95
631.655	58.01
631.987	58.01
632.32	58.01
632.653	58.02
632.986	58.06
633.318	58.15
633.651	58.09
633.984	57.98
634.316	57.95
634.649	58.05
634.981	58.09
635.313	58.09
635.646	58.13
635.978	58.21
636.31	58.15
636.643	58.2
636.975	58.19
637.307	58.2
637.639	58.14
637.971	58.19
638.303	58.25
638.635	58.2
638.967	58.25
639.299	58.27
639.631	58.34
639.963	58.35
640.295	58.31
640.626	58.44
640.958	58.53
641.29	58.61
641.621	58.59
641.953	58.59
642.285	58.69
642.616	58.65
642.948	58.58
643.279	58.7
643.61	58.76
643.942	58.88
644.273	58.85
644.604	58.81
644.936	58.86
645.267	58.86
645.598	59.01
645.929	59
646.26	58.99
646.591	59.09
646.922	59.06
647.253	59.07
647.584	58.94
647.915	58.9
648.245	58.89
648.576	58.94
648.907	58.92
649.238	58.96
649.568	59.03
649.899	59.05
650.229	59.01
650.56	59.01
650.89	58.98
651.221	59
651.551	59.11
651.882	59.04
652.212	59.05
652.542	58.97
652.872	58.98
653.203	58.98
653.533	58.89
653.863	59.02
654.193	59.01
654.523	59.05
654.853	59.17
655.183	59.15
655.513	59.23
655.843	59.41
656.172	59.45
656.502	59.44
656.832	59.43
657.162	59.52
657.491	59.56
657.821	59.69
658.15	59.82
658.48	59.78
658.809	59.83
659.139	60
659.468	59.98
659.798	60.07
660.127	60.13
660.456	60.17
660.785	60.17
661.115	60.27
661.444	60.34
661.773	60.33
662.102	60.32
662.431	60.31
662.76	60.32
663.089	60.32
663.418	60.3
663.747	60.29
664.076	60.25
664.404	60.23
664.733	60.14
665.062	59.97
665.39	59.97
665.719	59.93
