Data from BU58131_Reflection_00005.txt Node
Date: Mon Nov 18 16:32:12 EST 2019
User: vgr7
Spectrometer: USB2G7710
Scans to average: 3
Trigger mode: 4
Integration Time (sec): 2.000000E-2
Electric dark correction enabled: true
Boxcar width: 10
XAxis mode: Wavelengths
Number of Pixels in Spectrum: 2048
>>>>>Begin Spectral Data<<<<<
177.721	211.82
178.105	40.3
178.488	-376.31
178.871	238.39
179.254	108.99
179.636	117.86
180.019	-170.72
180.402	114.29
180.785	73.31
181.168	-6.22
181.55	-12.64
181.933	33.1
182.316	40.85
182.698	48.5
183.081	57.76
183.463	51.04
183.846	55.47
184.228	52.3
184.611	81.32
184.993	145.87
185.376	93.65
185.758	55.63
186.14	50.57
186.522	81.9
186.904	63.96
187.287	52.56
187.669	16.6
188.051	30.19
188.433	-19.01
188.815	-3.34
189.197	-50.21
189.579	-88.44
189.961	-39.8
190.342	-41.18
190.724	-33.61
191.106	-30.69
191.488	-18.02
191.869	-11.19
192.251	-24.09
192.633	19.3
193.014	26.4
193.396	13.44
193.777	7.2
194.159	-27.89
194.54	-42.43
194.922	-48.35
195.303	-45.95
195.684	-113.61
196.065	-31.61
196.447	-57.44
196.828	-74.68
197.209	-78.75
197.59	-38.04
197.971	-29.52
198.352	-15.29
198.733	-19.01
199.114	-25.54
199.495	-26.08
199.876	-17.06
200.257	-14.57
200.638	-25.23
201.018	-31.06
201.399	-16.42
201.78	-12.4
202.16	-20.97
202.541	-72.07
202.922	-92.26
203.302	-125.72
203.683	-84.22
204.063	-143.98
204.444	-160.23
204.824	-198.37
205.204	-171.83
205.585	-292.82
205.965	-211.82
206.345	-367.46
206.725	-1026.32
207.106	-1570.49
207.486	-5910.31
207.866	1245.61
208.246	24143.48
208.626	2238.08
209.006	-1490.77
209.386	1516.44
209.766	1905.46
210.145	-1348.75
210.525	-212.46
210.905	-158.17
211.285	-130.03
211.664	-123.73
212.044	-73.49
212.424	-53.81
212.803	-41.21
213.183	-30.16
213.562	-11.85
213.942	-16.92
214.321	5.66
214.701	0.38
215.08	4.59
215.459	-0.09
215.838	7.72
216.218	-4.65
216.597	-14.35
216.976	-1.03
217.355	3.39
217.734	5.42
218.113	-6.1
218.492	-24.84
218.871	-47.75
219.25	-42.43
219.629	-38.77
220.008	-55.64
220.387	-50.83
220.766	-43.28
221.144	-54.81
221.523	-58.97
221.902	-57.24
222.28	-79.93
222.659	-56.04
223.037	-36.44
223.416	-36.61
223.794	-35.01
224.173	-34.26
224.551	-16.18
224.929	-19.2
225.308	-19.54
225.686	-19.45
226.064	-17.54
226.442	-18.89
226.821	-8.51
227.199	-9.07
227.577	-9.8
227.955	-5.24
228.333	-11.04
228.711	-11.08
229.089	-6.32
229.467	-8.2
229.845	-7.18
230.222	-5.03
230.6	-7.25
230.978	-8.82
231.356	-6.27
231.733	-7.82
232.111	-7.54
232.488	-8.22
232.866	-7.29
233.243	-5.83
233.621	-6.72
233.998	-5.34
234.376	-3.09
234.753	-4.04
235.13	-5.51
235.508	-5.48
235.885	-6.83
236.262	-5.08
236.639	-4.84
237.016	-3.85
237.393	-0.58
237.77	1.39
238.147	2.13
238.524	2.94
238.901	4.22
239.278	4.74
239.655	5.92
240.032	6.05
240.409	5.87
240.785	5.76
241.162	5.98
241.539	6.44
241.915	6.27
242.292	5.43
242.668	5.23
243.045	5.24
243.421	4.81
243.798	5.19
244.174	4.84
244.551	4.86
244.927	4.71
245.303	4.36
245.679	4.42
246.056	4.42
246.432	4.42
246.808	4.22
247.184	3.98
247.56	3.73
247.936	3.8
248.312	3.95
248.688	3.81
249.064	3.72
249.44	3.57
249.815	3.5
250.191	3.73
250.567	3.82
250.943	3.91
251.318	4.12
251.694	3.91
252.069	3.96
252.445	4.21
252.82	4.01
253.196	4.16
253.571	3.89
253.947	3.88
254.322	3.94
254.697	3.76
255.073	3.63
255.448	3.62
255.823	3.63
256.198	3.41
256.573	3.28
256.948	3.37
257.323	3.48
257.698	3.58
258.073	3.46
258.448	3.42
258.823	3.45
259.198	3.41
259.573	3.43
259.948	3.57
260.322	3.48
260.697	3.52
261.072	3.4
261.446	3.45
261.821	3.33
262.195	3.37
262.57	3.39
262.944	3.32
263.319	3.31
263.693	3.16
264.067	3.13
264.442	3.31
264.816	3.28
265.19	3.23
265.564	3.15
265.938	3.01
266.313	3.16
266.687	3.19
267.061	3.16
267.435	3.18
267.809	3.17
268.183	3.13
268.556	3.02
268.93	3.01
269.304	2.94
269.678	3.11
270.051	2.86
270.425	3.07
270.799	3.27
271.172	3.32
271.546	3.45
271.919	3.56
272.293	3.53
272.666	3.52
273.04	3.53
273.413	3.46
273.787	3.66
274.16	3.56
274.533	3.55
274.906	3.43
275.279	3.34
275.653	3.29
276.026	3.31
276.399	3.44
276.772	3.55
277.145	3.51
277.518	3.52
277.891	3.66
278.263	3.53
278.636	3.52
279.009	3.41
279.382	3.45
279.755	3.3
280.127	3.3
280.5	3.26
280.872	3.4
281.245	3.51
281.617	3.56
281.99	3.62
282.362	3.57
282.735	3.71
283.107	3.74
283.479	3.73
283.852	3.72
284.224	3.76
284.596	3.79
284.968	3.85
285.34	3.86
285.713	3.75
286.085	3.74
286.457	3.65
286.829	3.81
287.201	3.78
287.572	3.87
287.944	3.93
288.316	3.92
288.688	3.85
289.06	3.81
289.431	3.77
289.803	3.79
290.175	3.8
290.546	3.79
290.918	3.88
291.289	3.94
291.661	3.96
292.032	4.01
292.403	3.96
292.775	4
293.146	3.97
293.517	4.05
293.889	4.05
294.26	4.05
294.631	3.96
295.002	3.87
295.373	3.88
295.744	3.83
296.115	3.87
296.486	3.74
296.857	3.67
297.228	3.66
297.599	3.54
297.97	3.57
298.34	3.55
298.711	3.54
299.082	3.55
299.452	3.6
299.823	3.56
300.194	3.54
300.564	3.49
300.935	3.39
301.305	3.33
301.676	3.37
302.046	3.47
302.416	3.53
302.787	3.66
303.157	3.66
303.527	3.64
303.897	3.61
304.267	3.91
304.637	4.05
305.008	4.1
305.378	4.23
305.748	4.25
306.117	4.19
306.487	4.17
306.857	4.24
307.227	4.24
307.597	4.18
307.967	4.25
308.336	4.17
308.706	4.26
309.076	4.29
309.445	4.25
309.815	4.12
310.184	4.05
310.554	4.07
310.923	4
311.293	3.9
311.662	3.92
312.031	3.78
312.401	3.79
312.77	3.74
313.139	3.72
313.508	3.7
313.877	3.84
314.246	3.86
314.616	3.67
314.985	3.63
315.353	3.69
315.722	3.6
316.091	3.65
316.46	3.65
316.829	3.59
317.198	3.64
317.567	3.6
317.935	3.37
318.304	3.33
318.672	3.39
319.041	3.61
319.41	3.57
319.778	3.53
320.147	3.5
320.515	3.46
320.883	3.3
321.252	3.41
321.62	3.43
321.988	3.49
322.357	3.62
322.725	3.61
323.093	3.55
323.461	3.63
323.829	3.72
324.197	3.7
324.565	3.78
324.933	3.89
325.301	4.01
325.669	4.22
326.037	4.19
326.405	4.1
326.772	4.16
327.14	4.24
327.508	4.29
327.875	4.23
328.243	4.28
328.61	4.36
328.978	4.32
329.346	4.32
329.713	4.22
330.08	4.21
330.448	4.14
330.815	4.16
331.182	4.12
331.55	4.04
331.917	4.12
332.284	4.2
332.651	4.06
333.018	4.2
333.385	4.18
333.752	4.2
334.119	4.45
334.486	4.36
334.853	4.38
335.22	4.37
335.587	4.44
335.954	4.46
336.32	4.46
336.687	4.52
337.054	4.45
337.42	4.5
337.787	4.51
338.153	4.57
338.52	4.52
338.886	4.52
339.253	4.46
339.619	4.39
339.986	4.43
340.352	4.44
340.718	4.34
341.084	4.3
341.451	4.37
341.817	4.21
342.183	4.22
342.549	4.26
342.915	4.14
343.281	4.2
343.647	4.19
344.013	4.25
344.379	4.21
344.745	4.18
345.11	4.18
345.476	4.15
345.842	4.15
346.208	4.26
346.573	4.34
346.939	4.45
347.304	4.49
347.67	4.41
348.035	4.47
348.401	4.51
348.766	4.49
349.132	4.5
349.497	4.6
349.862	4.66
350.228	4.73
350.593	4.78
350.958	4.7
351.323	4.74
351.688	4.73
352.053	4.69
352.418	4.77
352.783	4.74
353.148	4.77
353.513	4.78
353.878	4.66
354.243	4.69
354.608	4.69
354.972	4.65
355.337	4.7
355.702	4.74
356.066	4.77
356.431	4.82
356.795	4.83
357.16	4.75
357.524	4.67
357.889	4.56
358.253	4.61
358.618	4.65
358.982	4.57
359.346	4.57
359.71	4.56
360.075	4.56
360.439	4.59
360.803	4.67
361.167	4.6
361.531	4.71
361.895	4.65
362.259	4.66
362.623	4.71
362.987	4.73
363.351	4.68
363.714	4.61
364.078	4.59
364.442	4.49
364.806	4.55
365.169	4.54
365.533	4.59
365.896	4.63
366.26	4.59
366.623	4.6
366.987	4.56
367.35	4.57
367.714	4.54
368.077	4.5
368.44	4.39
368.803	4.37
369.167	4.3
369.53	4.33
369.893	4.32
370.256	4.3
370.619	4.27
370.982	4.25
371.345	4.25
371.708	4.27
372.071	4.24
372.434	4.19
372.797	4.18
373.159	4.09
373.522	4.07
373.885	4.12
374.247	4.18
374.61	4.2
374.973	4.19
375.335	4.19
375.698	4.2
376.06	4.18
376.423	4.18
376.785	4.2
377.147	4.19
377.51	4.14
377.872	4.14
378.234	4.13
378.596	4.1
378.958	4.08
379.321	4.1
379.683	4.15
380.045	4.12
380.407	4.11
380.769	4.14
381.13	4.11
381.492	4.05
381.854	4.03
382.216	3.98
382.578	3.96
382.939	3.88
383.301	3.84
383.663	3.85
384.024	3.85
384.386	3.85
384.747	3.83
385.109	3.83
385.47	3.81
385.832	3.83
386.193	3.82
386.554	3.83
386.916	3.84
387.277	3.81
387.638	3.8
387.999	3.8
388.36	3.78
388.721	3.77
389.082	3.79
389.443	3.77
389.804	3.81
390.165	3.78
390.526	3.86
390.887	3.86
391.248	3.86
391.609	3.88
391.969	3.87
392.33	3.86
392.691	3.86
393.051	3.81
393.412	3.77
393.772	3.74
394.133	3.73
394.493	3.7
394.854	3.7
395.214	3.72
395.574	3.73
395.935	3.7
396.295	3.71
396.655	3.69
397.015	3.69
397.376	3.67
397.736	3.67
398.096	3.62
398.456	3.62
398.816	3.63
399.176	3.58
399.535	3.59
399.895	3.58
400.255	3.53
400.615	3.54
400.975	3.52
401.334	3.51
401.694	3.49
402.054	3.46
402.413	3.43
402.773	3.38
403.132	3.36
403.492	3.38
403.851	3.34
404.211	3.34
404.57	3.31
404.929	3.34
405.288	3.32
405.648	3.29
406.007	3.28
406.366	3.28
406.725	3.33
407.084	3.29
407.443	3.3
407.802	3.35
408.161	3.37
408.52	3.38
408.879	3.38
409.238	3.37
409.596	3.39
409.955	3.42
410.314	3.42
410.673	3.4
411.031	3.38
411.39	3.4
411.748	3.38
412.107	3.4
412.465	3.37
412.824	3.39
413.182	3.38
413.54	3.37
413.899	3.37
414.257	3.35
414.615	3.31
414.974	3.3
415.332	3.27
415.69	3.24
416.048	3.23
416.406	3.24
416.764	3.24
417.122	3.24
417.48	3.23
417.838	3.21
418.195	3.23
418.553	3.22
418.911	3.2
419.269	3.21
419.626	3.2
419.984	3.19
420.342	3.18
420.699	3.19
421.057	3.18
421.414	3.16
421.772	3.14
422.129	3.16
422.486	3.15
422.844	3.16
423.201	3.15
423.558	3.15
423.915	3.14
424.273	3.15
424.63	3.13
424.987	3.14
425.344	3.15
425.701	3.14
426.058	3.14
426.415	3.15
426.772	3.15
427.128	3.14
427.485	3.14
427.842	3.15
428.199	3.15
428.555	3.15
428.912	3.16
429.269	3.19
429.625	3.18
429.982	3.15
430.338	3.12
430.695	3.11
431.051	3.1
431.407	3.1
431.764	3.07
432.12	3.05
432.476	3.03
432.832	3.02
433.189	3.02
433.545	3.03
433.901	3.02
434.257	3
434.613	3
434.969	3
435.325	2.99
435.681	3
436.036	3
436.392	3
436.748	2.99
437.104	2.99
437.459	2.99
437.815	3
438.171	3.01
438.526	3.02
438.882	3.02
439.237	3.05
439.593	3.06
439.948	3.06
440.304	3.07
440.659	3.06
441.014	3.06
441.369	3.06
441.725	3.06
442.08	3.07
442.435	3.06
442.79	3.07
443.145	3.06
443.5	3.06
443.855	3.05
444.21	3.03
444.565	3.04
444.92	3.05
445.275	3.06
445.629	3.06
445.984	3.05
446.339	3.05
446.693	3.02
447.048	3.03
447.403	3.01
447.757	3.01
448.112	2.99
448.466	2.98
448.82	2.99
449.175	2.98
449.529	2.97
449.883	2.97
450.238	2.95
450.592	2.95
450.946	2.93
451.3	2.93
451.654	2.94
452.008	2.93
452.362	2.91
452.716	2.91
453.07	2.9
453.424	2.89
453.778	2.88
454.132	2.88
454.486	2.87
454.839	2.88
455.193	2.87
455.547	2.86
455.9	2.87
456.254	2.87
456.607	2.86
456.961	2.87
457.314	2.86
457.668	2.87
458.021	2.87
458.375	2.87
458.728	2.87
459.081	2.88
459.434	2.88
459.787	2.88
460.141	2.88
460.494	2.88
460.847	2.9
461.2	2.89
461.553	2.92
461.906	2.92
462.259	2.92
462.611	2.94
462.964	2.95
463.317	2.95
463.67	2.97
464.022	2.98
464.375	2.96
464.728	2.98
465.08	2.98
465.433	3
465.785	3.01
466.138	3.01
466.49	3
466.843	3.01
467.195	3.02
467.547	3.02
467.899	3.01
468.252	3
468.604	3.01
468.956	2.99
469.308	3
469.66	3.01
470.012	2.98
470.364	2.99
470.716	2.97
471.068	2.96
471.42	2.98
471.772	3.01
472.123	3.02
472.475	3.03
472.827	3.03
473.178	3.04
473.53	3.05
473.882	3.04
474.233	3.02
474.585	3.01
474.936	3.01
475.288	3
475.639	3.02
475.99	3.03
476.342	3.04
476.693	3.02
477.044	3.04
477.395	3.07
477.746	3.07
478.097	3.07
478.448	3.05
478.8	3.07
479.15	3.04
479.501	3.05
479.852	3.07
480.203	3.08
480.554	3.08
480.905	3.08
481.255	3.09
481.606	3.1
481.957	3.12
482.307	3.12
482.658	3.12
483.009	3.11
483.359	3.11
483.709	3.12
484.06	3.12
484.41	3.12
484.761	3.12
485.111	3.12
485.461	3.13
485.811	3.13
486.162	3.13
486.512	3.14
486.862	3.14
487.212	3.12
487.562	3.12
487.912	3.12
488.262	3.12
488.612	3.13
488.961	3.12
489.311	3.11
489.661	3.11
490.011	3.11
490.36	3.11
490.71	3.11
491.06	3.12
491.409	3.12
491.759	3.13
492.108	3.12
492.458	3.12
492.807	3.11
493.157	3.13
493.506	3.13
493.855	3.11
494.204	3.11
494.554	3.13
494.903	3.14
495.252	3.14
495.601	3.14
495.95	3.14
496.299	3.16
496.648	3.16
496.997	3.17
497.346	3.18
497.695	3.21
498.043	3.21
498.392	3.21
498.741	3.24
499.09	3.23
499.438	3.26
499.787	3.27
500.135	3.29
500.484	3.28
500.832	3.29
501.181	3.33
501.529	3.33
501.878	3.32
502.226	3.34
502.574	3.36
502.923	3.36
503.271	3.38
503.619	3.38
503.967	3.38
504.315	3.39
504.663	3.43
505.011	3.42
505.359	3.43
505.707	3.44
506.055	3.44
506.403	3.5
506.751	3.52
507.098	3.51
507.446	3.54
507.794	3.55
508.141	3.54
508.489	3.54
508.837	3.56
509.184	3.57
509.531	3.57
509.879	3.6
510.226	3.63
510.574	3.64
510.921	3.66
511.268	3.7
511.616	3.69
511.963	3.72
512.31	3.74
512.657	3.79
513.004	3.8
513.351	3.81
513.698	3.79
514.045	3.79
514.392	3.83
514.739	3.86
515.086	3.88
515.432	3.91
515.779	3.93
516.126	3.94
516.473	3.98
516.819	4.01
517.166	4.03
517.512	4.03
517.859	4.04
518.205	4.06
518.552	4.06
518.898	4.1
519.245	4.09
519.591	4.08
519.937	4.06
520.283	4.07
520.629	4.08
520.976	4.12
521.322	4.14
521.668	4.16
522.014	4.16
522.36	4.18
522.706	4.21
523.052	4.23
523.398	4.26
523.743	4.27
524.089	4.28
524.435	4.28
524.781	4.29
525.126	4.32
525.472	4.35
525.817	4.38
526.163	4.38
526.509	4.41
526.854	4.43
527.199	4.46
527.545	4.48
527.89	4.49
528.235	4.48
528.581	4.5
528.926	4.5
529.271	4.51
529.616	4.52
529.961	4.52
530.306	4.53
530.651	4.54
530.996	4.55
531.341	4.55
531.686	4.56
532.031	4.58
532.376	4.58
532.721	4.58
533.065	4.58
533.41	4.59
533.755	4.6
534.099	4.62
534.444	4.63
534.788	4.65
535.133	4.64
535.477	4.66
535.822	4.66
536.166	4.67
536.51	4.68
536.855	4.68
537.199	4.71
537.543	4.71
537.887	4.72
538.231	4.74
538.576	4.75
538.92	4.78
539.264	4.79
539.608	4.82
539.951	4.83
540.295	4.85
540.639	4.87
540.983	4.88
541.327	4.89
541.671	4.9
542.014	4.89
542.358	4.91
542.701	4.93
543.045	4.95
543.389	4.95
543.732	4.98
544.075	5.01
544.419	5.01
544.762	5.05
545.105	5.06
545.449	5.09
545.792	5.11
546.135	5.12
546.478	5.12
546.821	5.12
547.165	5.13
547.508	5.14
547.851	5.14
548.194	5.14
548.536	5.13
548.879	5.12
549.222	5.14
549.565	5.16
549.908	5.18
550.25	5.2
550.593	5.21
550.936	5.21
551.278	5.19
551.621	5.2
551.963	5.2
552.306	5.2
552.648	5.19
552.991	5.22
553.333	5.27
553.675	5.3
554.017	5.32
554.36	5.32
554.702	5.35
555.044	5.36
555.386	5.39
555.728	5.42
556.07	5.5
556.412	5.5
556.754	5.52
557.096	5.5
557.438	5.5
557.78	5.5
558.121	5.52
558.463	5.54
558.805	5.57
559.147	5.61
559.488	5.61
559.83	5.61
560.171	5.58
560.513	5.59
560.854	5.59
561.196	5.59
561.537	5.61
561.878	5.59
562.22	5.61
562.561	5.6
562.902	5.6
563.243	5.55
563.584	5.56
563.925	5.54
564.266	5.55
564.607	5.58
564.948	5.62
565.289	5.61
565.63	5.66
565.971	5.61
566.312	5.58
566.653	5.6
566.993	5.61
567.334	5.62
567.675	5.61
568.015	5.6
568.356	5.6
568.696	5.62
569.037	5.63
569.377	5.67
569.718	5.68
570.058	5.7
570.398	5.71
570.739	5.73
571.079	5.76
571.419	5.76
571.759	5.77
572.099	5.75
572.439	5.75
572.779	5.73
573.119	5.76
573.459	5.81
573.799	5.82
574.139	5.83
574.479	5.81
574.819	5.81
575.158	5.82
575.498	5.81
575.838	5.81
576.177	5.8
576.517	5.78
576.856	5.8
577.196	5.78
577.535	5.77
577.875	5.77
578.214	5.78
578.553	5.8
578.893	5.78
579.232	5.78
579.571	5.8
579.91	5.83
580.25	5.84
580.589	5.81
580.928	5.83
581.267	5.86
581.606	5.89
581.945	5.93
582.283	5.89
582.622	5.9
582.961	5.91
583.3	5.92
583.639	5.93
583.977	5.94
584.316	5.94
584.654	5.93
584.993	5.9
585.332	5.89
585.67	5.89
586.008	5.91
586.347	5.92
586.685	5.9
587.024	5.9
587.362	5.87
587.7	5.88
588.038	5.86
588.376	5.83
588.715	5.84
589.053	5.85
589.391	5.9
589.729	5.92
590.067	5.9
590.404	5.89
590.742	5.89
591.08	5.86
591.418	5.87
591.756	5.93
592.093	5.96
592.431	5.94
592.769	5.95
593.106	5.96
593.444	5.93
593.781	5.91
594.119	5.92
594.456	5.95
594.793	5.96
595.131	5.97
595.468	5.97
595.805	5.98
596.143	5.98
596.48	5.98
596.817	5.99
597.154	5.98
597.491	6.01
597.828	6.02
598.165	6.03
598.502	6.04
598.839	6.02
599.176	6.02
599.512	6.03
599.849	6.03
600.186	6.02
600.523	6.08
600.859	6.12
601.196	6.11
601.532	6.06
601.869	6.08
602.205	6.06
602.542	6.1
602.878	6.12
603.215	6.1
603.551	6.08
603.887	6.09
604.223	6.1
604.56	6.1
604.896	6.1
605.232	6.11
605.568	6.16
605.904	6.16
606.24	6.16
606.576	6.17
606.912	6.15
607.248	6.13
607.583	6.11
607.919	6.09
608.255	6.08
608.591	6.11
608.926	6.14
609.262	6.17
609.597	6.15
609.933	6.14
610.268	6.17
610.604	6.21
610.939	6.19
611.275	6.19
611.61	6.18
611.945	6.19
612.281	6.2
612.616	6.15
612.951	6.16
613.286	6.16
613.621	6.17
613.956	6.13
614.291	6.13
614.626	6.15
614.961	6.17
615.296	6.13
615.631	6.15
615.966	6.1
616.3	6.09
616.635	6.04
616.97	6.03
617.304	5.98
617.639	6.02
617.973	6.02
618.308	6.04
618.642	6.08
618.977	5.98
619.311	6.02
619.646	6.02
619.98	5.99
620.314	6.04
620.648	6.03
620.983	6.05
621.317	6.06
621.651	6.09
621.985	6.07
622.319	6.11
622.653	6.1
622.987	6.15
623.321	6.12
623.655	6.16
623.988	6.15
624.322	6.17
624.656	6.14
624.99	6.16
625.323	6.19
625.657	6.17
625.99	6.22
626.324	6.23
626.657	6.2
626.991	6.23
627.324	6.16
627.658	6.21
627.991	6.23
628.324	6.25
628.657	6.2
628.991	6.26
629.324	6.3
629.657	6.36
629.99	6.31
630.323	6.29
630.656	6.29
630.989	6.35
631.322	6.36
631.655	6.35
631.987	6.32
632.32	6.32
632.653	6.28
632.986	6.25
633.318	6.23
633.651	6.28
633.984	6.3
634.316	6.32
634.649	6.28
634.981	6.27
635.313	6.26
635.646	6.29
635.978	6.27
636.31	6.15
636.643	6.1
636.975	6.15
637.307	6.18
637.639	6.17
637.971	6.1
638.303	6.07
638.635	6.07
638.967	6.12
639.299	6.12
639.631	6.17
639.963	6.16
640.295	6.12
640.626	6.13
640.958	6.15
641.29	6.17
641.621	6.18
641.953	6.18
642.285	6.16
642.616	6.18
642.948	6.18
643.279	6.25
643.61	6.26
643.942	6.24
644.273	6.21
644.604	6.19
644.936	6.18
645.267	6.23
645.598	6.23
645.929	6.23
646.26	6.24
646.591	6.24
646.922	6.25
647.253	6.32
647.584	6.31
647.915	6.24
648.245	6.15
648.576	6.1
648.907	6.12
649.238	6.13
649.568	6.1
649.899	6.06
650.229	6.08
650.56	6.05
650.89	6.03
651.221	6.06
651.551	6.04
651.882	6.03
652.212	6.05
652.542	6.07
652.872	6.01
653.203	5.99
653.533	6.04
653.863	6.02
654.193	6
654.523	6
654.853	5.98
655.183	6.11
655.513	6.07
655.843	6.07
656.172	6.1
656.502	6.13
656.832	6.14
657.162	6.2
657.491	6.23
657.821	6.27
658.15	6.23
658.48	6.27
658.809	6.3
659.139	6.22
659.468	6.2
659.798	6.25
660.127	6.25
660.456	6.22
660.785	6.28
661.115	6.24
661.444	6.22
661.773	6.27
662.102	6.25
662.431	6.34
662.76	6.29
663.089	6.26
663.418	6.22
663.747	6.25
664.076	6.18
664.404	6.21
664.733	6.17
665.062	6.18
665.39	6.14
665.719	6.12
666.048	6.22
666.376	6.24
666.705	6.21
667.033	6.17
667.362	6.15
667.69	6.1
668.018	6.2
668.347	6.23
668.675	6.24
669.003	6.23
669.331	6.28
669.659	6.28
669.987	6.25
670.315	6.27
670.643	6.26
670.971	6.35
671.299	6.34
671.627	6.33
671.955	6.43
672.283	6.47
672.61	6.51
672.938	6.42
673.266	6.41
673.593	6.46
673.921	6.49
674.249	6.5
674.576	6.55
674.904	6.52
675.231	6.55
675.558	6.49
675.886	6.49
676.213	6.43
676.54	6.57
676.867	6.6
677.195	6.57
677.522	6.49
