Data from BU58137_Reflection_00013.txt Node
Date: Mon Nov 18 16:40:01 EST 2019
User: vgr7
Spectrometer: USB2G7710
Scans to average: 3
Trigger mode: 4
Integration Time (sec): 2.000000E-2
Electric dark correction enabled: true
Boxcar width: 10
XAxis mode: Wavelengths
Number of Pixels in Spectrum: 2048
>>>>>Begin Spectral Data<<<<<
177.721	-7.62
178.105	86.35
178.488	105.24
178.871	414.02
179.254	290.23
179.636	-231.63
180.019	54.61
180.402	45.45
180.785	-232.13
181.168	271.78
181.55	-103.21
181.933	129.49
182.316	112.23
182.698	139.56
183.081	95.85
183.463	84.21
183.846	76.01
184.228	42.38
184.611	77.41
184.993	182.78
185.376	96.37
185.758	156.63
186.14	228.55
186.522	244.55
186.904	1261.68
187.287	343.74
187.669	-394.21
188.051	116.91
188.433	-143.18
188.815	-58.96
189.197	-14.78
189.579	-96.41
189.961	-74.62
190.342	-90.06
190.724	-143.74
191.106	-184.68
191.488	-84.16
191.869	-94.89
192.251	-39.57
192.633	-27.35
193.014	-72.39
193.396	-84.33
193.777	-97.88
194.159	-68.29
194.54	-58.39
194.922	-43.9
195.303	-47.51
195.684	-57.88
196.065	-38.17
196.447	-29.85
196.828	-39.72
197.209	-30.21
197.59	-25.09
197.971	-23.15
198.352	-19.68
198.733	-28.87
199.114	-35.63
199.495	-34.79
199.876	-28.01
200.257	-30.37
200.638	-19.19
201.018	-17.51
201.399	-6.59
201.78	-10.61
202.16	-13.6
202.541	-29.51
202.922	-69.49
203.302	-80.25
203.683	-59.07
204.063	-75.37
204.444	-85.82
204.824	-92.71
205.204	-112.36
205.585	-88.77
205.965	-84.68
206.345	-73.82
206.725	-63.67
207.106	-57.67
207.486	-79.84
207.866	-65.09
208.246	-55.08
208.626	-65.22
209.006	-39.21
209.386	-75.18
209.766	-48.11
210.145	-50.09
210.525	-32.67
210.905	-13.28
211.285	-10.24
211.664	-15.39
212.044	-30.98
212.424	-29.09
212.803	-27.92
213.183	-19.99
213.562	-21.04
213.942	-6.9
214.321	3.12
214.701	-9.77
215.08	-18.5
215.459	-15.62
215.838	-25.87
216.218	-19.93
216.597	-13.23
216.976	-29.81
217.355	-14.29
217.734	-39.36
218.113	-45.59
218.492	-54.83
218.871	-76.5
219.25	-50.81
219.629	-82.39
220.008	-42.91
220.387	-8.08
220.766	3.01
221.144	-9.59
221.523	-24.87
221.902	-46.48
222.28	-57.31
222.659	-21.45
223.037	-7.36
223.416	-11.26
223.794	-6.91
224.173	-11.76
224.551	-9.04
224.929	-9.69
225.308	-5.06
225.686	1.86
226.064	3.6
226.442	6.4
226.821	8.16
227.199	6.73
227.577	6.69
227.955	1.75
228.333	-3.15
228.711	-1.14
229.089	3.5
229.467	2.55
229.845	0.26
230.222	1.5
230.6	-0.78
230.978	-1.43
231.356	0.51
231.733	0.54
232.111	1.27
232.488	2.73
232.866	4.73
233.243	4.17
233.621	3.6
233.998	5.66
234.376	3.16
234.753	3.12
235.13	2.36
235.508	3.89
235.885	3.35
236.262	2.06
236.639	1.37
237.016	0.31
237.393	1.11
237.77	2.23
238.147	1.49
238.524	1.21
238.901	2.52
239.278	2.35
239.655	2.88
240.032	2.73
240.409	2.47
240.785	2.23
241.162	2.25
241.539	2.9
241.915	2.74
242.292	2.5
242.668	2.06
243.045	2.26
243.421	2.43
243.798	2.54
244.174	2.88
244.551	2.79
244.927	2.81
245.303	2.97
245.679	3.2
246.056	3.23
246.432	3.4
246.808	3.28
247.184	2.98
247.56	2.73
247.936	2.75
248.312	2.69
248.688	2.85
249.064	2.7
249.44	2.49
249.815	2.47
250.191	2.8
250.567	3.13
250.943	2.89
251.318	2.7
251.694	2.81
252.069	2.76
252.445	2.92
252.82	2.74
253.196	2.39
253.571	2.2
253.947	2.09
254.322	2.16
254.697	1.86
255.073	1.96
255.448	1.8
255.823	1.97
256.198	2.22
256.573	2.19
256.948	2.42
257.323	2.38
257.698	2.28
258.073	2.19
258.448	2.03
258.823	2.29
259.198	2.21
259.573	2.08
259.948	2.09
260.322	2.23
260.697	2.26
261.072	2.39
261.446	2.34
261.821	2.36
262.195	2.47
262.57	2.69
262.944	2.73
263.319	2.89
263.693	2.73
264.067	2.7
264.442	2.71
264.816	2.61
265.19	2.5
265.564	2.52
265.938	2.47
266.313	2.47
266.687	2.37
267.061	2.54
267.435	2.75
267.809	2.78
268.183	2.67
268.556	2.7
268.93	2.86
269.304	2.86
269.678	2.93
270.051	2.74
270.425	2.73
270.799	2.82
271.172	2.8
271.546	2.94
271.919	2.69
272.293	2.76
272.666	2.92
273.04	3.01
273.413	3.11
273.787	3.16
274.16	3.17
274.533	3.1
274.906	3.03
275.279	2.85
275.653	2.83
276.026	2.66
276.399	2.71
276.772	2.72
277.145	2.75
277.518	2.45
277.891	2.54
278.263	2.28
278.636	2.21
279.009	2.22
279.382	2.17
279.755	2.24
280.127	2.2
280.5	2.1
280.872	2.09
281.245	1.85
281.617	1.97
281.99	2.06
282.362	2.22
282.735	2.21
283.107	2.28
283.479	2.35
283.852	2.35
284.224	2.36
284.596	2.27
284.968	2.32
285.34	2.58
285.713	2.58
286.085	2.62
286.457	2.77
286.829	2.7
287.201	2.74
287.572	2.65
287.944	2.61
288.316	2.62
288.688	2.54
289.06	2.74
289.431	2.7
289.803	2.82
290.175	2.85
290.546	3.03
290.918	3.09
291.289	3.2
291.661	3.45
292.032	3.38
292.403	3.52
292.775	3.48
293.146	3.36
293.517	3.36
293.889	3.61
294.26	3.56
294.631	3.7
295.002	3.65
295.373	3.76
295.744	3.67
296.115	3.61
296.486	3.63
296.857	3.67
297.228	3.68
297.599	3.56
297.97	3.52
298.34	3.44
298.711	3.48
299.082	3.42
299.452	3.29
299.823	3.38
300.194	3.39
300.564	3.36
300.935	3.48
301.305	3.66
301.676	3.66
302.046	3.59
302.416	3.66
302.787	3.7
303.157	3.77
303.527	4.07
303.897	4.28
304.267	4.42
304.637	4.35
305.008	4.53
305.378	4.7
305.748	4.85
306.117	4.85
306.487	5.03
306.857	4.94
307.227	5.07
307.597	5.13
307.967	5.04
308.336	5.28
308.706	5.31
309.076	5.21
309.445	5.2
309.815	5.51
310.184	5.42
310.554	5.52
310.923	5.68
311.293	5.62
311.662	5.67
312.031	5.75
312.401	5.81
312.77	5.83
313.139	5.83
313.508	5.76
313.877	5.94
314.246	5.92
314.616	6.08
314.985	6.24
315.353	6.34
315.722	6.58
316.091	6.45
316.46	6.56
316.829	6.73
317.198	6.9
317.567	6.78
317.935	6.91
318.304	6.97
318.672	6.93
319.041	7.15
319.41	7.24
319.778	7.31
320.147	7.43
320.515	7.36
320.883	7.37
321.252	7.6
321.62	7.73
321.988	7.67
322.357	7.78
322.725	7.72
323.093	7.79
323.461	7.81
323.829	7.99
324.197	8.07
324.565	8.18
324.933	8.11
325.301	8.15
325.669	8.23
326.037	8.27
326.405	8.36
326.772	8.4
327.14	8.34
327.508	8.4
327.875	8.39
328.243	8.53
328.61	8.52
328.978	8.55
329.346	8.48
329.713	8.46
330.08	8.47
330.448	8.47
330.815	8.56
331.182	8.58
331.55	8.57
331.917	8.51
332.284	8.5
332.651	8.54
333.018	8.6
333.385	8.58
333.752	8.56
334.119	8.62
334.486	8.64
334.853	8.69
335.22	8.8
335.587	8.95
335.954	8.93
336.32	8.9
336.687	8.86
337.054	9.06
337.42	9.21
337.787	9.33
338.153	9.4
338.52	9.29
338.886	9.3
339.253	9.28
339.619	9.36
339.986	9.26
340.352	9.27
340.718	9.2
341.084	9.24
341.451	9.41
341.817	9.42
342.183	9.42
342.549	9.5
342.915	9.47
343.281	9.46
343.647	9.48
344.013	9.64
344.379	9.66
344.745	9.54
345.11	9.44
345.476	9.39
345.842	9.34
346.208	9.46
346.573	9.54
346.939	9.67
347.304	9.69
347.67	9.77
348.035	9.81
348.401	9.85
348.766	9.88
349.132	9.78
349.497	9.76
349.862	9.82
350.228	9.78
350.593	9.83
350.958	9.82
351.323	9.82
351.688	9.79
352.053	9.81
352.418	9.82
352.783	9.89
353.148	9.8
353.513	9.82
353.878	9.74
354.243	9.7
354.608	9.71
354.972	9.69
355.337	9.71
355.702	9.65
356.066	9.73
356.431	9.68
356.795	9.64
357.16	9.55
357.524	9.39
357.889	9.34
358.253	9.23
358.618	9.2
358.982	9.18
359.346	9.15
359.71	9.06
360.075	9.05
360.439	9.05
360.803	9.09
361.167	8.96
361.531	8.95
361.895	8.88
362.259	8.77
362.623	8.73
362.987	8.66
363.351	8.67
363.714	8.58
364.078	8.58
364.442	8.55
364.806	8.52
365.169	8.53
365.533	8.45
365.896	8.42
366.26	8.33
366.623	8.22
366.987	8.11
367.35	8.03
367.714	7.94
368.077	7.83
368.44	7.72
368.803	7.73
369.167	7.61
369.53	7.59
369.893	7.56
370.256	7.45
370.619	7.37
370.982	7.25
371.345	7.17
371.708	7.08
372.071	7.02
372.434	7.01
372.797	6.89
373.159	6.83
373.522	6.83
373.885	6.83
374.247	6.83
374.61	6.76
374.973	6.72
375.335	6.61
375.698	6.51
376.06	6.44
376.423	6.35
376.785	6.36
377.147	6.29
377.51	6.21
377.872	6.15
378.234	6.1
378.596	6.08
378.958	5.99
379.321	5.89
379.683	5.81
380.045	5.77
380.407	5.7
380.769	5.67
381.13	5.58
381.492	5.49
381.854	5.38
382.216	5.37
382.578	5.37
382.939	5.35
383.301	5.32
383.663	5.26
384.024	5.18
384.386	5.1
384.747	5.05
385.109	5.01
385.47	5
385.832	4.94
386.193	4.93
386.554	4.95
386.916	4.93
387.277	4.9
387.638	4.84
387.999	4.79
388.36	4.76
388.721	4.73
389.082	4.68
389.443	4.62
389.804	4.57
390.165	4.52
390.526	4.49
390.887	4.48
391.248	4.49
391.609	4.47
391.969	4.43
392.33	4.38
392.691	4.35
393.051	4.25
393.412	4.24
393.772	4.16
394.133	4.09
394.493	4.02
394.854	3.97
395.214	3.94
395.574	3.93
395.935	3.87
396.295	3.83
396.655	3.79
397.015	3.8
397.376	3.77
397.736	3.69
398.096	3.63
398.456	3.58
398.816	3.52
399.176	3.5
399.535	3.41
399.895	3.39
400.255	3.32
400.615	3.34
400.975	3.3
401.334	3.26
401.694	3.23
402.054	3.26
402.413	3.24
402.773	3.21
403.132	3.18
403.492	3.19
403.851	3.18
404.211	3.18
404.57	3.13
404.929	3.11
405.288	3.08
405.648	3.07
406.007	3.08
406.366	3.04
406.725	3.03
407.084	3.07
407.443	3.09
407.802	3.11
408.161	3.08
408.52	3.04
408.879	3.04
409.238	3.05
409.596	3.05
409.955	3.06
410.314	3.06
410.673	3.06
411.031	3.03
411.39	3.02
411.748	3.01
412.107	3.01
412.465	3
412.824	3.02
413.182	2.99
413.54	2.97
413.899	2.99
414.257	2.97
414.615	2.95
414.974	2.93
415.332	2.88
415.69	2.9
416.048	2.88
416.406	2.86
416.764	2.84
417.122	2.82
417.48	2.79
417.838	2.76
418.195	2.74
418.553	2.74
418.911	2.71
419.269	2.71
419.626	2.7
419.984	2.7
420.342	2.69
420.699	2.7
421.057	2.69
421.414	2.66
421.772	2.65
422.129	2.66
422.486	2.63
422.844	2.62
423.201	2.6
423.558	2.62
423.915	2.61
424.273	2.6
424.63	2.59
424.987	2.58
425.344	2.57
425.701	2.57
426.058	2.56
426.415	2.54
426.772	2.53
427.128	2.51
427.485	2.51
427.842	2.5
428.199	2.49
428.555	2.49
428.912	2.5
429.269	2.52
429.625	2.49
429.982	2.51
430.338	2.52
430.695	2.53
431.051	2.52
431.407	2.52
431.764	2.51
432.12	2.5
432.476	2.5
432.832	2.51
433.189	2.51
433.545	2.51
433.901	2.53
434.257	2.54
434.613	2.55
434.969	2.54
435.325	2.54
435.681	2.54
436.036	2.53
436.392	2.54
436.748	2.53
437.104	2.54
437.459	2.54
437.815	2.52
438.171	2.52
438.526	2.51
438.882	2.51
439.237	2.53
439.593	2.54
439.948	2.53
440.304	2.52
440.659	2.51
441.014	2.52
441.369	2.49
441.725	2.48
442.08	2.48
442.435	2.48
442.79	2.47
443.145	2.47
443.5	2.46
443.855	2.44
444.21	2.44
444.565	2.42
444.92	2.42
445.275	2.41
445.629	2.4
445.984	2.4
446.339	2.41
446.693	2.39
447.048	2.37
447.403	2.38
447.757	2.37
448.112	2.37
448.466	2.35
448.82	2.37
449.175	2.38
449.529	2.38
449.883	2.37
450.238	2.36
450.592	2.36
450.946	2.34
451.3	2.34
451.654	2.33
452.008	2.32
452.362	2.3
452.716	2.31
453.07	2.3
453.424	2.3
453.778	2.29
454.132	2.28
454.486	2.31
454.839	2.3
455.193	2.31
455.547	2.3
455.9	2.33
456.254	2.33
456.607	2.31
456.961	2.3
457.314	2.32
457.668	2.33
458.021	2.31
458.375	2.33
458.728	2.34
459.081	2.34
459.434	2.34
459.787	2.37
460.141	2.38
460.494	2.39
460.847	2.39
461.2	2.39
461.553	2.4
461.906	2.4
462.259	2.41
462.611	2.41
462.964	2.42
463.317	2.42
463.67	2.42
464.022	2.45
464.375	2.43
464.728	2.41
465.08	2.44
465.433	2.46
465.785	2.46
466.138	2.45
466.49	2.45
466.843	2.47
467.195	2.48
467.547	2.49
467.899	2.46
468.252	2.47
468.604	2.48
468.956	2.46
469.308	2.49
469.66	2.48
470.012	2.51
470.364	2.52
470.716	2.52
471.068	2.51
471.42	2.5
471.772	2.54
472.123	2.56
472.475	2.56
472.827	2.57
473.178	2.56
473.53	2.57
473.882	2.56
474.233	2.55
474.585	2.53
474.936	2.54
475.288	2.54
475.639	2.56
475.99	2.57
476.342	2.57
476.693	2.56
477.044	2.56
477.395	2.54
477.746	2.53
478.097	2.53
478.448	2.53
478.8	2.53
479.15	2.53
479.501	2.52
479.852	2.51
480.203	2.51
480.554	2.52
480.905	2.52
481.255	2.53
481.606	2.54
481.957	2.54
482.307	2.52
482.658	2.53
483.009	2.51
483.359	2.51
483.709	2.52
484.06	2.52
484.41	2.53
484.761	2.54
485.111	2.54
485.461	2.54
485.811	2.53
486.162	2.52
486.512	2.52
486.862	2.52
487.212	2.52
487.562	2.52
487.912	2.52
488.262	2.52
488.612	2.52
488.961	2.52
489.311	2.52
489.661	2.53
490.011	2.54
490.36	2.56
490.71	2.57
491.06	2.57
491.409	2.57
491.759	2.57
492.108	2.56
492.458	2.56
492.807	2.57
493.157	2.59
493.506	2.6
493.855	2.6
494.204	2.61
494.554	2.63
494.903	2.64
495.252	2.66
495.601	2.67
495.95	2.69
496.299	2.71
496.648	2.72
496.997	2.74
497.346	2.76
497.695	2.76
498.043	2.78
498.392	2.8
498.741	2.83
499.09	2.84
499.438	2.88
499.787	2.91
500.135	2.95
500.484	2.99
500.832	3.04
501.181	3.08
501.529	3.11
501.878	3.15
502.226	3.2
502.574	3.23
502.923	3.26
503.271	3.31
503.619	3.33
503.967	3.4
504.315	3.43
504.663	3.46
505.011	3.5
505.359	3.54
505.707	3.61
506.055	3.64
506.403	3.69
506.751	3.75
507.098	3.82
507.446	3.87
507.794	3.9
508.141	3.96
508.489	4.01
508.837	4.08
509.184	4.16
509.531	4.2
509.879	4.29
510.226	4.36
510.574	4.41
510.921	4.49
511.268	4.53
511.616	4.61
511.963	4.69
512.31	4.77
512.657	4.84
513.004	4.92
513.351	5.02
513.698	5.1
514.045	5.16
514.392	5.26
514.739	5.36
515.086	5.48
515.432	5.57
515.779	5.66
516.126	5.77
516.473	5.84
516.819	5.94
517.166	6
517.512	6.09
517.859	6.18
518.205	6.26
518.552	6.37
518.898	6.46
519.245	6.54
519.591	6.62
519.937	6.72
520.283	6.81
520.629	6.91
520.976	7.02
521.322	7.16
521.668	7.25
522.014	7.37
522.36	7.48
522.706	7.6
523.052	7.77
523.398	7.92
523.743	8.09
524.089	8.23
524.435	8.41
524.781	8.56
525.126	8.72
525.472	8.86
525.817	9
526.163	9.08
526.509	9.19
526.854	9.32
527.199	9.42
527.545	9.52
527.89	9.63
528.235	9.73
528.581	9.83
528.926	9.96
529.271	10.08
529.616	10.2
529.961	10.33
530.306	10.45
530.651	10.58
530.996	10.71
531.341	10.85
531.686	10.98
532.031	11.14
532.376	11.28
532.721	11.45
533.065	11.62
533.41	11.81
533.755	12
534.099	12.18
534.444	12.39
534.788	12.58
535.133	12.76
535.477	12.97
535.822	13.18
536.166	13.38
536.51	13.59
536.855	13.85
537.199	14.1
537.543	14.36
537.887	14.64
538.231	14.89
538.576	15.17
538.92	15.47
539.264	15.71
539.608	15.97
539.951	16.18
540.295	16.39
540.639	16.63
540.983	16.84
541.327	17.06
541.671	17.26
542.014	17.44
542.358	17.65
542.701	17.86
543.045	18.06
543.389	18.28
543.732	18.49
544.075	18.7
544.419	18.92
544.762	19.14
545.105	19.36
545.449	19.63
545.792	19.89
546.135	20.14
546.478	20.44
546.821	20.74
547.165	21.09
547.508	21.37
547.851	21.67
548.194	21.95
548.536	22.25
548.879	22.59
549.222	22.93
549.565	23.26
549.908	23.6
550.25	23.95
550.593	24.26
550.936	24.57
551.278	24.87
551.621	25.22
551.963	25.55
552.306	25.84
552.648	26.17
552.991	26.5
553.333	26.78
553.675	27.04
554.017	27.27
554.36	27.56
554.702	27.87
555.044	28.16
555.386	28.46
555.728	28.75
556.07	29.02
556.412	29.31
556.754	29.59
557.096	29.86
557.438	30.05
557.78	30.35
558.121	30.71
558.463	31.06
558.805	31.33
559.147	31.6
559.488	31.88
559.83	32.07
560.171	32.36
560.513	32.67
560.854	32.89
561.196	33.14
561.537	33.39
561.878	33.65
562.22	33.89
562.561	34.16
562.902	34.37
563.243	34.63
563.584	34.9
563.925	35.08
564.266	35.33
564.607	35.57
564.948	35.8
565.289	36.02
565.63	36.17
565.971	36.35
566.312	36.52
566.653	36.71
566.993	36.93
567.334	37.06
567.675	37.22
568.015	37.39
568.356	37.58
568.696	37.74
569.037	37.96
569.377	38.14
569.718	38.27
570.058	38.48
570.398	38.65
570.739	38.78
571.079	38.93
571.419	39.12
571.759	39.33
572.099	39.44
572.439	39.52
572.779	39.72
573.119	39.86
573.459	40.05
573.799	40.22
574.139	40.37
574.479	40.54
574.819	40.71
575.158	40.86
575.498	41.03
575.838	41.18
576.177	41.28
576.517	41.45
576.856	41.64
577.196	41.79
577.535	41.88
577.875	42.01
578.214	42.23
578.553	42.32
578.893	42.44
579.232	42.58
579.571	42.81
579.91	42.91
580.25	43.02
580.589	43.14
580.928	43.29
581.267	43.41
581.606	43.54
581.945	43.55
582.283	43.7
582.622	43.81
582.961	43.95
583.3	44.05
583.639	44.15
583.977	44.2
584.316	44.24
584.654	44.39
584.993	44.47
585.332	44.62
585.67	44.66
586.008	44.77
586.347	44.89
586.685	44.93
587.024	44.98
587.362	45.15
587.7	45.28
588.038	45.33
588.376	45.44
588.715	45.5
589.053	45.68
589.391	45.8
589.729	45.92
590.067	46.01
590.404	46.09
590.742	46.19
591.08	46.32
591.418	46.44
591.756	46.51
592.093	46.65
592.431	46.66
592.769	46.81
593.106	46.92
593.444	46.92
593.781	46.97
594.119	47.04
594.456	47.02
594.793	46.98
595.131	47.06
595.468	47.1
595.805	47.19
596.143	47.18
596.48	47.16
596.817	47.17
597.154	47.21
597.491	47.2
597.828	47.25
598.165	47.29
598.502	47.35
598.839	47.42
599.176	47.4
599.512	47.48
599.849	47.52
600.186	47.58
600.523	47.68
600.859	47.77
601.196	47.85
601.532	47.98
601.869	48
602.205	48.04
602.542	48.12
602.878	48.14
603.215	48.25
603.551	48.41
603.887	48.46
604.223	48.48
604.56	48.58
604.896	48.58
605.232	48.61
605.568	48.61
605.904	48.63
606.24	48.77
606.576	48.84
606.912	48.88
607.248	48.91
607.583	49.02
607.919	49.04
608.255	49.12
608.591	49.13
608.926	49.23
609.262	49.26
609.597	49.27
609.933	49.3
610.268	49.34
610.604	49.29
610.939	49.34
611.275	49.44
611.61	49.44
611.945	49.49
612.281	49.52
612.616	49.59
612.951	49.67
613.286	49.61
613.621	49.64
613.956	49.75
614.291	49.8
614.626	49.76
614.961	49.83
615.296	49.9
615.631	49.99
615.966	50.07
616.3	50.15
616.635	50.29
616.97	50.37
617.304	50.36
617.639	50.5
617.973	50.48
618.308	50.48
618.642	50.55
618.977	50.62
619.311	50.66
619.646	50.76
619.98	50.86
620.314	50.85
620.648	50.91
620.983	50.99
621.317	50.97
621.651	51.05
621.985	51.06
622.319	50.96
622.653	50.93
622.987	50.92
623.321	50.88
623.655	50.84
623.988	50.78
624.322	50.82
624.656	50.77
624.99	50.82
625.323	50.82
625.657	50.86
625.99	50.81
626.324	50.87
626.657	50.87
626.991	50.81
627.324	50.88
627.658	50.86
627.991	50.83
628.324	50.77
628.657	50.78
628.991	50.82
629.324	50.92
629.657	50.98
629.99	51.09
630.323	51.22
630.656	51.24
630.989	51.38
631.322	51.38
631.655	51.42
631.987	51.44
632.32	51.53
632.653	51.58
632.986	51.68
633.318	51.71
633.651	51.7
633.984	51.8
634.316	51.82
634.649	51.87
634.981	51.82
635.313	51.89
635.646	51.91
635.978	51.97
636.31	52
636.643	52.07
636.975	52.08
637.307	52.05
637.639	52.09
637.971	52.04
638.303	52.06
638.635	52.02
638.967	51.98
639.299	51.91
639.631	51.91
639.963	51.79
640.295	51.76
640.626	51.81
640.958	51.79
641.29	51.78
641.621	51.66
641.953	51.74
642.285	51.78
642.616	51.83
642.948	51.8
643.279	51.75
643.61	51.71
643.942	51.7
644.273	51.71
644.604	51.66
644.936	51.69
645.267	51.77
645.598	51.88
645.929	51.97
646.26	52.03
646.591	52.07
646.922	52.15
647.253	52.1
647.584	52.04
647.915	51.96
648.245	52
648.576	52.03
648.907	51.95
649.238	51.95
649.568	51.92
649.899	51.93
650.229	52.04
650.56	52.01
650.89	51.9
651.221	51.91
651.551	51.93
651.882	52
652.212	51.98
652.542	51.85
652.872	51.82
653.203	51.77
653.533	51.76
653.863	51.72
654.193	51.76
654.523	51.88
654.853	51.8
655.183	51.76
655.513	51.83
655.843	51.8
656.172	51.82
656.502	51.79
656.832	51.67
657.162	51.73
657.491	51.73
657.821	51.81
658.15	51.85
658.48	51.86
658.809	51.81
659.139	51.83
659.468	51.91
659.798	51.94
660.127	52.08
660.456	52.19
660.785	52.26
661.115	52.31
661.444	52.33
661.773	52.59
662.102	52.68
662.431	52.67
662.76	52.76
663.089	52.89
663.418	52.98
663.747	53.15
664.076	52.99
664.404	52.97
664.733	53
665.062	52.95
665.39	52.96
665.719	53.01
666.048	52.94
666.376	52.93
666.705	53.03
667.033	52.82
667.362	52.62
667.69	52.72
668.018	52.68
