Data from BU58127_Reflection_00015.txt Node
Date: Mon Nov 18 16:44:31 EST 2019
User: vgr7
Spectrometer: USB2G7710
Scans to average: 3
Trigger mode: 4
Integration Time (sec): 2.000000E-2
Electric dark correction enabled: true
Boxcar width: 10
XAxis mode: Wavelengths
Number of Pixels in Spectrum: 2048
>>>>>Begin Spectral Data<<<<<
177.721	-378.26
178.105	43.66
178.488	122.9
178.871	89.13
179.254	47.37
179.636	-587.5
180.019	-212.98
180.402	120
180.785	230.43
181.168	-900
181.55	1290.48
181.933	168.49
182.316	130.09
182.698	198.98
183.081	234.43
183.463	267.42
183.846	348.68
184.228	388.34
184.611	255.56
184.993	1039.39
185.376	220.88
185.758	-1976.92
186.14	276.47
186.522	217.85
186.904	139.58
187.287	164.64
187.669	-341.86
188.051	155.9
188.433	5544.44
188.815	-300.92
189.197	-477.98
189.579	-115.19
189.961	-88.71
190.342	-98.4
190.724	-121.53
191.106	-107.68
191.488	-143.35
191.869	-98.73
192.251	-100.74
192.633	-74.38
193.014	-109.13
193.396	-189.75
193.777	-244.51
194.159	-275.24
194.54	-143.17
194.922	-123.75
195.303	-108.81
195.684	-117.99
196.065	-63.21
196.447	-42.16
196.828	-47.14
197.209	-33.38
197.59	-30.89
197.971	-27.57
198.352	-15.68
198.733	-14.53
199.114	-7.63
199.495	-7.45
199.876	12.81
200.257	9.19
200.638	9.56
201.018	14.03
201.399	28.54
201.78	45.54
202.16	41.82
202.541	36.11
202.922	30.69
203.302	17.01
203.683	21.19
204.063	22.1
204.444	4.1
204.824	9.56
205.204	11.65
205.585	9.09
205.965	6.23
206.345	0.6
206.725	-2.24
207.106	-6.07
207.486	-8.4
207.866	-14.69
208.246	1.86
208.626	7.2
209.006	6.27
209.386	-1.78
209.766	-26.87
210.145	-14.22
210.525	-16.74
210.905	-12.48
211.285	-8.93
211.664	-10.52
212.044	-8.09
212.424	2.53
212.803	0.24
213.183	0.7
213.562	14.47
213.942	13.32
214.321	20.96
214.701	14.7
215.08	4.03
215.459	9.87
215.838	15.33
216.218	2.03
216.597	12.08
216.976	11.13
217.355	11.5
217.734	22.62
218.113	26.5
218.492	32.7
218.871	32.12
219.25	36.89
219.629	29.25
220.008	26.15
220.387	27.72
220.766	26.87
221.144	20.92
221.523	15.47
221.902	32.64
222.28	22.18
222.659	28.21
223.037	42.19
223.416	37.95
223.794	23.83
224.173	10
224.551	16.82
224.929	16.04
225.308	21.4
225.686	12.23
226.064	14.33
226.442	14.72
226.821	13.54
227.199	12.3
227.577	10.92
227.955	9.6
228.333	7.51
228.711	9.8
229.089	9.09
229.467	7.67
229.845	5.42
230.222	6.13
230.6	4.83
230.978	4.61
231.356	6.99
231.733	6.59
232.111	10.38
232.488	9.18
232.866	7.27
233.243	6.04
233.621	5.94
233.998	4.9
234.376	4.99
234.753	4.71
235.13	3.5
235.508	4.9
235.885	4.65
236.262	4.2
236.639	2.64
237.016	3.94
237.393	6.11
237.77	6.78
238.147	7.36
238.524	7.7
238.901	6.99
239.278	6.66
239.655	7.81
240.032	7.05
240.409	6.41
240.785	7.19
241.162	7.26
241.539	7.49
241.915	7.16
242.292	6.51
242.668	6.57
243.045	7.13
243.421	6.45
243.798	6.35
244.174	6.35
244.551	6.47
244.927	6.16
245.303	5.92
245.679	5.83
246.056	5.62
246.432	5.58
246.808	5.64
247.184	5.4
247.56	5.06
247.936	5.02
248.312	4.98
248.688	4.99
249.064	4.87
249.44	4.67
249.815	4.55
250.191	4.68
250.567	4.88
250.943	4.84
251.318	4.91
251.694	4.83
252.069	4.65
252.445	4.69
252.82	4.86
253.196	4.77
253.571	4.53
253.947	4.8
254.322	4.97
254.697	4.55
255.073	4.5
255.448	4.45
255.823	4.25
256.198	4.12
256.573	4.05
256.948	3.97
257.323	4.19
257.698	4.21
258.073	4.05
258.448	3.89
258.823	3.67
259.198	3.62
259.573	3.81
259.948	3.9
260.322	3.77
260.697	3.73
261.072	3.67
261.446	3.71
261.821	3.71
262.195	3.78
262.57	4.03
262.944	4.13
263.319	4.09
263.693	4.17
264.067	4.22
264.442	4.24
264.816	4.12
265.19	4.11
265.564	4.23
265.938	4.37
266.313	4.26
266.687	4.33
267.061	4.41
267.435	4.21
267.809	3.99
268.183	4.04
268.556	4.05
268.93	4.08
269.304	4.03
269.678	4
270.051	3.95
270.425	3.8
270.799	3.78
271.172	3.82
271.546	3.75
271.919	3.71
272.293	3.52
272.666	3.55
273.04	3.58
273.413	3.62
273.787	3.53
274.16	3.59
274.533	3.74
274.906	3.69
275.279	3.72
275.653	3.82
276.026	3.68
276.399	3.68
276.772	3.71
277.145	3.64
277.518	3.63
277.891	3.52
278.263	3.48
278.636	3.41
279.009	3.37
279.382	3.67
279.755	3.76
280.127	4.06
280.5	4.19
280.872	4.16
281.245	4.21
281.617	4.43
281.99	4.45
282.362	4.47
282.735	4.35
283.107	4.3
283.479	4.45
283.852	4.52
284.224	4.42
284.596	4.54
284.968	4.66
285.34	4.73
285.713	4.68
286.085	4.78
286.457	4.86
286.829	4.86
287.201	4.63
287.572	4.57
287.944	4.48
288.316	4.49
288.688	4.42
289.06	4.29
289.431	4.15
289.803	4.18
290.175	4.04
290.546	4.23
290.918	4.27
291.289	4.18
291.661	4.09
292.032	4.35
292.403	4.25
292.775	4.2
293.146	3.99
293.517	4.08
293.889	4.08
294.26	4.04
294.631	4.07
295.002	4.11
295.373	4.19
295.744	4.24
296.115	4.26
296.486	4.27
296.857	4.45
297.228	4.59
297.599	4.54
297.97	4.52
298.34	4.59
298.711	4.65
299.082	4.61
299.452	4.79
299.823	4.88
300.194	5.04
300.564	5.06
300.935	5.21
301.305	5.22
301.676	5.4
302.046	5.56
302.416	5.76
302.787	5.99
303.157	6.02
303.527	6.12
303.897	6.25
304.267	6.44
304.637	6.46
305.008	6.5
305.378	6.79
305.748	7.08
306.117	6.97
306.487	6.93
306.857	7.03
307.227	7.12
307.597	7.01
307.967	7.13
308.336	7.17
308.706	7.31
309.076	7.47
309.445	7.37
309.815	7.47
310.184	7.46
310.554	7.49
310.923	7.64
311.293	7.62
311.662	7.66
312.031	7.83
312.401	7.78
312.77	7.93
313.139	7.9
313.508	7.98
313.877	8.11
314.246	8.2
314.616	8.29
314.985	8.39
315.353	8.56
315.722	8.53
316.091	8.69
316.46	8.74
316.829	8.85
317.198	9.07
317.567	9.09
317.935	9.3
318.304	9.49
318.672	9.56
319.041	9.77
319.41	9.72
319.778	9.6
320.147	9.74
320.515	9.61
320.883	9.68
321.252	9.7
321.62	9.83
321.988	9.95
322.357	10.06
322.725	10.08
323.093	10.06
323.461	10.04
323.829	10.12
324.197	10.18
324.565	10.1
324.933	10.03
325.301	10.04
325.669	9.94
326.037	9.99
326.405	10.07
326.772	10.15
327.14	10.44
327.508	10.61
327.875	10.61
328.243	10.79
328.61	10.87
328.978	10.92
329.346	10.86
329.713	11.01
330.08	11.13
330.448	11.02
330.815	11.06
331.182	11.28
331.55	11.3
331.917	11.43
332.284	11.59
332.651	11.58
333.018	11.62
333.385	11.69
333.752	11.6
334.119	11.6
334.486	11.51
334.853	11.51
335.22	11.39
335.587	11.52
335.954	11.47
336.32	11.45
336.687	11.36
337.054	11.55
337.42	11.52
337.787	11.58
338.153	11.78
338.52	11.74
338.886	11.59
339.253	11.68
339.619	11.64
339.986	11.63
340.352	11.73
340.718	11.7
341.084	11.74
341.451	11.88
341.817	12.02
342.183	12.01
342.549	12
342.915	12.03
343.281	11.98
343.647	12.02
344.013	12.05
344.379	12.17
344.745	12.03
345.11	12.04
345.476	12.03
345.842	11.94
346.208	11.94
346.573	11.95
346.939	12
347.304	11.91
347.67	11.84
348.035	11.73
348.401	11.69
348.766	11.64
349.132	11.51
349.497	11.42
349.862	11.47
350.228	11.42
350.593	11.38
350.958	11.5
351.323	11.59
351.688	11.55
352.053	11.54
352.418	11.6
352.783	11.55
353.148	11.37
353.513	11.35
353.878	11.44
354.243	11.49
354.608	11.48
354.972	11.57
355.337	11.63
355.702	11.71
356.066	11.87
356.431	11.91
356.795	11.92
357.16	11.86
357.524	11.78
357.889	11.69
358.253	11.71
358.618	11.69
358.982	11.57
359.346	11.57
359.71	11.55
360.075	11.51
360.439	11.54
360.803	11.56
361.167	11.55
361.531	11.38
361.895	11.31
362.259	11.18
362.623	11.11
362.987	11.06
363.351	11.04
363.714	10.96
364.078	10.85
364.442	10.73
364.806	10.69
365.169	10.64
365.533	10.63
365.896	10.53
366.26	10.37
366.623	10.32
366.987	10.28
367.35	10.18
367.714	10.04
368.077	9.91
368.44	9.83
368.803	9.75
369.167	9.71
369.53	9.59
369.893	9.6
370.256	9.48
370.619	9.36
370.982	9.22
371.345	9.06
371.708	9.05
372.071	9.02
372.434	8.89
372.797	8.79
373.159	8.7
373.522	8.65
373.885	8.6
374.247	8.5
374.61	8.34
374.973	8.27
375.335	8.24
375.698	8.2
376.06	8.12
376.423	8
376.785	8
377.147	7.96
377.51	7.91
377.872	7.89
378.234	7.82
378.596	7.77
378.958	7.72
379.321	7.64
379.683	7.54
380.045	7.47
380.407	7.46
380.769	7.36
381.13	7.3
381.492	7.26
381.854	7.21
382.216	7.17
382.578	7.07
382.939	7
383.301	6.89
383.663	6.84
384.024	6.83
384.386	6.84
384.747	6.79
385.109	6.74
385.47	6.63
385.832	6.6
386.193	6.6
386.554	6.54
386.916	6.5
387.277	6.49
387.638	6.47
387.999	6.39
388.36	6.4
388.721	6.35
389.082	6.31
389.443	6.28
389.804	6.21
390.165	6.17
390.526	6.11
390.887	6.06
391.248	6.03
391.609	5.98
391.969	5.89
392.33	5.83
392.691	5.74
393.051	5.72
393.412	5.65
393.772	5.54
394.133	5.53
394.493	5.44
394.854	5.4
395.214	5.33
395.574	5.3
395.935	5.23
396.295	5.18
396.655	5.09
397.015	5.04
397.376	4.99
397.736	4.93
398.096	4.92
398.456	4.91
398.816	4.88
399.176	4.84
399.535	4.76
399.895	4.74
400.255	4.72
400.615	4.7
400.975	4.66
401.334	4.64
401.694	4.6
402.054	4.57
402.413	4.54
402.773	4.51
403.132	4.46
403.492	4.43
403.851	4.4
404.211	4.37
404.57	4.33
404.929	4.34
405.288	4.33
405.648	4.26
406.007	4.24
406.366	4.21
406.725	4.22
407.084	4.23
407.443	4.2
407.802	4.17
408.161	4.15
408.52	4.13
408.879	4.11
409.238	4.12
409.596	4.1
409.955	4.06
410.314	4.06
410.673	4.01
411.031	4.02
411.39	4.03
411.748	4.03
412.107	4.04
412.465	4.06
412.824	4.04
413.182	4.03
413.54	3.99
413.899	3.99
414.257	3.96
414.615	3.93
414.974	3.92
415.332	3.9
415.69	3.87
416.048	3.87
416.406	3.86
416.764	3.79
417.122	3.78
417.48	3.76
417.838	3.75
418.195	3.76
418.553	3.74
418.911	3.7
419.269	3.68
419.626	3.66
419.984	3.61
420.342	3.58
420.699	3.58
421.057	3.56
421.414	3.52
421.772	3.5
422.129	3.49
422.486	3.49
422.844	3.47
423.201	3.45
423.558	3.42
423.915	3.42
424.273	3.42
424.63	3.4
424.987	3.4
425.344	3.38
425.701	3.38
426.058	3.36
426.415	3.35
426.772	3.32
427.128	3.31
427.485	3.31
427.842	3.32
428.199	3.32
428.555	3.32
428.912	3.35
429.269	3.34
429.625	3.33
429.982	3.3
430.338	3.3
430.695	3.33
431.051	3.32
431.407	3.32
431.764	3.29
432.12	3.29
432.476	3.29
432.832	3.27
433.189	3.27
433.545	3.26
433.901	3.27
434.257	3.27
434.613	3.27
434.969	3.26
435.325	3.27
435.681	3.26
436.036	3.26
436.392	3.25
436.748	3.25
437.104	3.23
437.459	3.23
437.815	3.22
438.171	3.21
438.526	3.22
438.882	3.22
439.237	3.23
439.593	3.25
439.948	3.24
440.304	3.23
440.659	3.23
441.014	3.23
441.369	3.22
441.725	3.22
442.08	3.2
442.435	3.2
442.79	3.17
443.145	3.19
443.5	3.19
443.855	3.18
444.21	3.18
444.565	3.19
444.92	3.19
445.275	3.2
445.629	3.19
445.984	3.19
446.339	3.17
446.693	3.14
447.048	3.14
447.403	3.13
447.757	3.13
448.112	3.11
448.466	3.11
448.82	3.11
449.175	3.12
449.529	3.14
449.883	3.12
450.238	3.1
450.592	3.08
450.946	3.06
451.3	3.06
451.654	3.05
452.008	3.06
452.362	3.04
452.716	3.02
453.07	3.02
453.424	3.02
453.778	3
454.132	3.01
454.486	2.99
454.839	2.98
455.193	2.96
455.547	2.97
455.9	2.98
456.254	2.98
456.607	2.98
456.961	2.96
457.314	2.97
457.668	2.98
458.021	2.97
458.375	2.97
458.728	2.98
459.081	2.98
459.434	2.99
459.787	2.99
460.141	3
460.494	2.99
460.847	3
461.2	3
461.553	3.01
461.906	3.02
462.259	3.03
462.611	3.03
462.964	3.04
463.317	3.03
463.67	3.03
464.022	3.03
464.375	3.04
464.728	3.06
465.08	3.09
465.433	3.1
465.785	3.13
466.138	3.14
466.49	3.13
466.843	3.12
467.195	3.11
467.547	3.12
467.899	3.14
468.252	3.15
468.604	3.17
468.956	3.18
469.308	3.19
469.66	3.2
470.012	3.22
470.364	3.23
470.716	3.22
471.068	3.21
471.42	3.22
471.772	3.24
472.123	3.23
472.475	3.23
472.827	3.24
473.178	3.22
473.53	3.23
473.882	3.23
474.233	3.25
474.585	3.26
474.936	3.26
475.288	3.26
475.639	3.27
475.99	3.28
476.342	3.26
476.693	3.27
477.044	3.29
477.395	3.28
477.746	3.28
478.097	3.28
478.448	3.28
478.8	3.26
479.15	3.21
479.501	3.21
479.852	3.21
480.203	3.21
480.554	3.2
480.905	3.21
481.255	3.2
481.606	3.2
481.957	3.2
482.307	3.2
482.658	3.2
483.009	3.2
483.359	3.19
483.709	3.2
484.06	3.19
484.41	3.19
484.761	3.19
485.111	3.19
485.461	3.2
485.811	3.19
486.162	3.19
486.512	3.2
486.862	3.2
487.212	3.19
487.562	3.19
487.912	3.19
488.262	3.18
488.612	3.18
488.961	3.18
489.311	3.18
489.661	3.19
490.011	3.18
490.36	3.18
490.71	3.18
491.06	3.19
491.409	3.18
491.759	3.18
492.108	3.2
492.458	3.21
492.807	3.21
493.157	3.22
493.506	3.24
493.855	3.25
494.204	3.27
494.554	3.28
494.903	3.29
495.252	3.31
495.601	3.33
495.95	3.36
496.299	3.38
496.648	3.38
496.997	3.42
497.346	3.47
497.695	3.5
498.043	3.52
498.392	3.52
498.741	3.56
499.09	3.57
499.438	3.59
499.787	3.6
500.135	3.65
500.484	3.71
500.832	3.75
501.181	3.79
501.529	3.83
501.878	3.89
502.226	3.94
502.574	3.97
502.923	4.03
503.271	4.07
503.619	4.16
503.967	4.22
504.315	4.25
504.663	4.29
505.011	4.36
505.359	4.41
505.707	4.51
506.055	4.58
506.403	4.67
506.751	4.74
507.098	4.81
507.446	4.88
507.794	4.94
508.141	5.01
508.489	5.08
508.837	5.16
509.184	5.22
509.531	5.3
509.879	5.42
510.226	5.52
510.574	5.59
510.921	5.67
511.268	5.75
511.616	5.82
511.963	5.9
512.31	6
512.657	6.12
513.004	6.21
513.351	6.29
513.698	6.39
514.045	6.51
514.392	6.63
514.739	6.71
515.086	6.83
515.432	6.97
515.779	7.09
516.126	7.22
516.473	7.33
516.819	7.44
517.166	7.53
517.512	7.61
517.859	7.73
518.205	7.81
518.552	7.9
518.898	8.01
519.245	8.13
519.591	8.22
519.937	8.31
520.283	8.42
520.629	8.55
520.976	8.66
521.322	8.81
521.668	8.94
522.014	9.1
522.36	9.24
522.706	9.36
523.052	9.51
523.398	9.66
523.743	9.85
524.089	10.01
524.435	10.17
524.781	10.32
525.126	10.47
525.472	10.62
525.817	10.75
526.163	10.86
526.509	10.97
526.854	11.07
527.199	11.17
527.545	11.27
527.89	11.35
528.235	11.45
528.581	11.54
528.926	11.64
529.271	11.74
529.616	11.84
529.961	11.96
530.306	12.08
530.651	12.19
530.996	12.3
531.341	12.43
531.686	12.56
532.031	12.71
532.376	12.83
532.721	12.96
533.065	13.11
533.41	13.27
533.755	13.43
534.099	13.58
534.444	13.76
534.788	13.92
535.133	14.11
535.477	14.27
535.822	14.43
536.166	14.61
536.51	14.8
536.855	15.03
537.199	15.22
537.543	15.44
537.887	15.7
538.231	15.92
538.576	16.17
538.92	16.39
539.264	16.62
539.608	16.85
539.951	17.07
540.295	17.28
540.639	17.48
540.983	17.66
541.327	17.87
541.671	18.06
542.014	18.23
542.358	18.42
542.701	18.63
543.045	18.83
543.389	19.05
543.732	19.27
544.075	19.46
544.419	19.69
544.762	19.9
545.105	20.13
545.449	20.36
545.792	20.61
546.135	20.87
546.478	21.14
546.821	21.42
547.165	21.71
547.508	22
547.851	22.27
548.194	22.6
548.536	22.92
548.879	23.23
549.222	23.58
549.565	23.88
549.908	24.21
550.25	24.56
550.593	24.87
550.936	25.18
551.278	25.55
551.621	25.92
551.963	26.25
552.306	26.59
552.648	26.95
552.991	27.25
553.333	27.57
553.675	27.88
554.017	28.19
554.36	28.47
554.702	28.84
555.044	29.16
555.386	29.48
555.728	29.76
556.07	30.06
556.412	30.41
556.754	30.74
557.096	31.08
557.438	31.41
557.78	31.73
558.121	32.1
558.463	32.42
558.805	32.75
559.147	33.08
559.488	33.4
559.83	33.77
560.171	34.07
560.513	34.48
560.854	34.82
561.196	35.17
561.537	35.5
561.878	35.8
562.22	36.15
562.561	36.42
562.902	36.77
563.243	37.1
563.584	37.4
563.925	37.77
564.266	38.02
564.607	38.25
564.948	38.57
565.289	38.82
565.63	39.1
565.971	39.39
566.312	39.69
566.653	39.92
566.993	40.15
567.334	40.4
567.675	40.63
568.015	40.92
568.356	41.16
568.696	41.51
569.037	41.77
569.377	42.07
569.718	42.4
570.058	42.67
570.398	42.91
570.739	43.19
571.079	43.42
571.419	43.72
571.759	44.04
572.099	44.34
572.439	44.64
572.779	44.86
573.119	45.06
573.459	45.26
573.799	45.52
574.139	45.74
574.479	46.09
574.819	46.27
575.158	46.5
575.498	46.73
575.838	46.89
576.177	47.1
576.517	47.32
576.856	47.46
577.196	47.64
577.535	47.91
577.875	48.04
578.214	48.2
578.553	48.37
578.893	48.55
579.232	48.66
579.571	48.83
579.91	49.02
580.25	49.26
580.589	49.51
580.928	49.73
581.267	49.9
581.606	49.94
581.945	50.13
582.283	50.22
582.622	50.37
582.961	50.51
583.3	50.71
583.639	50.93
583.977	51.09
584.316	51.24
584.654	51.35
584.993	51.52
585.332	51.74
585.67	51.88
586.008	52.07
586.347	52.23
586.685	52.31
587.024	52.48
587.362	52.57
587.7	52.68
588.038	52.89
588.376	53.05
588.715	53.23
589.053	53.37
589.391	53.48
589.729	53.67
590.067	53.82
590.404	53.96
590.742	54
591.08	54.17
591.418	54.28
591.756	54.44
592.093	54.7
592.431	54.74
592.769	54.89
593.106	54.95
593.444	54.99
593.781	55.1
594.119	55.16
594.456	55.29
594.793	55.38
595.131	55.41
595.468	55.51
595.805	55.6
596.143	55.72
596.48	55.87
596.817	55.93
597.154	55.96
597.491	55.92
597.828	55.99
598.165	56.05
598.502	56.2
598.839	56.19
599.176	56.21
599.512	56.38
599.849	56.47
600.186	56.62
600.523	56.79
600.859	56.91
601.196	57.02
601.532	57.1
601.869	57.23
602.205	57.4
602.542	57.51
602.878	57.55
603.215	57.6
603.551	57.67
603.887	57.73
604.223	57.85
604.56	58
604.896	58.02
605.232	58.08
605.568	58.05
605.904	58.13
606.24	58.19
606.576	58.25
606.912	58.33
607.248	58.35
607.583	58.39
607.919	58.53
608.255	58.62
608.591	58.7
608.926	58.7
609.262	58.72
609.597	58.76
609.933	58.83
610.268	58.9
610.604	58.87
610.939	58.86
611.275	58.9
611.61	58.87
611.945	59
612.281	59.07
612.616	59.18
612.951	59.28
613.286	59.43
613.621	59.43
613.956	59.48
614.291	59.59
614.626	59.76
614.961	59.72
615.296	59.77
615.631	59.82
615.966	59.89
616.3	59.83
616.635	59.87
616.97	59.86
617.304	59.95
617.639	60.07
617.973	60.21
618.308	60.26
618.642	60.43
618.977	60.42
619.311	60.5
619.646	60.57
619.98	60.59
620.314	60.54
620.648	60.62
620.983	60.6
621.317	60.55
621.651	60.47
621.985	60.51
622.319	60.47
622.653	60.49
622.987	60.59
623.321	60.66
623.655	60.73
623.988	60.76
624.322	60.68
624.656	60.62
624.99	60.6
625.323	60.62
625.657	60.59
625.99	60.65
626.324	60.73
626.657	60.74
626.991	60.8
627.324	60.74
627.658	60.78
627.991	60.76
628.324	60.87
628.657	60.99
628.991	61.08
629.324	61.18
629.657	61.28
629.99	61.19
630.323	61.21
630.656	61.23
630.989	61.34
631.322	61.35
631.655	61.42
631.987	61.48
632.32	61.47
632.653	61.54
632.986	61.59
633.318	61.54
633.651	61.61
633.984	61.56
634.316	61.58
634.649	61.63
634.981	61.71
635.313	61.64
635.646	61.51
635.978	61.45
636.31	61.43
636.643	61.41
636.975	61.48
637.307	61.56
637.639	61.57
637.971	61.57
638.303	61.58
638.635	61.62
638.967	61.65
639.299	61.65
639.631	61.64
639.963	61.57
640.295	61.53
640.626	61.49
640.958	61.5
641.29	61.57
641.621	61.57
641.953	61.64
642.285	61.61
642.616	61.62
642.948	61.63
643.279	61.56
643.61	61.48
643.942	61.51
644.273	61.35
644.604	61.25
644.936	61.26
645.267	61.34
645.598	61.31
645.929	61.27
646.26	61.39
646.591	61.42
646.922	61.56
647.253	61.58
647.584	61.77
647.915	61.86
648.245	61.8
648.576	61.8
648.907	61.85
649.238	61.91
649.568	62.09
649.899	62.09
650.229	62.15
650.56	62.2
650.89	62.23
651.221	62.29
651.551	62.34
651.882	62.4
652.212	62.45
652.542	62.5
652.872	62.5
653.203	62.47
653.533	62.52
653.863	62.48
654.193	62.51
654.523	62.26
654.853	62.27
655.183	62.39
655.513	62.34
655.843	62.22
656.172	62.28
656.502	62.14
656.832	62.3
657.162	62.32
657.491	62.42
657.821	62.48
658.15	62.54
658.48	62.54
658.809	62.43
659.139	62.51
659.468	62.49
659.798	62.45
660.127	62.54
660.456	62.48
660.785	62.53
661.115	62.55
661.444	62.66
661.773	62.61
662.102	62.64
662.431	62.72
662.76	62.83
663.089	62.81
663.418	62.89
663.747	62.78
664.076	62.84
664.404	62.58
664.733	62.4
665.062	62.29
665.39	62.42
665.719	62.47
666.048	62.33
666.376	62.38
666.705	62.52
