Data from BU58129_Reflection_00013.txt Node
Date: Mon Nov 18 16:35:18 EST 2019
User: vgr7
Spectrometer: USB2G7710
Scans to average: 3
Trigger mode: 4
Integration Time (sec): 2.000000E-2
Electric dark correction enabled: true
Boxcar width: 10
XAxis mode: Wavelengths
Number of Pixels in Spectrum: 2048
>>>>>Begin Spectral Data<<<<<
177.721	164.12
178.105	245.3
178.488	-20.09
178.871	-344.44
179.254	810.14
179.636	70.45
180.019	269.59
180.402	65
180.785	-127.2
181.168	-1058.73
181.55	-379.85
181.933	-23.37
182.316	-33.96
182.698	-75.39
183.081	-75.98
183.463	-156.16
183.846	-209.88
184.228	-410.32
184.611	-2544.44
184.993	134.62
185.376	204.66
185.758	244.11
186.14	225.18
186.522	112.51
186.904	564.05
187.287	-271.07
187.669	264.08
188.051	-555.68
188.433	-583.5
188.815	-1526.26
189.197	-312.54
189.579	-584.85
189.961	-31.78
190.342	70.33
190.724	-11.11
191.106	104.33
191.488	-14.61
191.869	-77.15
192.251	-29.66
192.633	-7.36
193.014	-5.06
193.396	13.53
193.777	14.61
194.159	29.27
194.54	32.27
194.922	17.05
195.303	36.28
195.684	35.93
196.065	34.66
196.447	16.34
196.828	112.75
197.209	70.85
197.59	26.45
197.971	9.4
198.352	263.84
198.733	-255.81
199.114	929.46
199.495	60.09
199.876	38.48
200.257	110.57
200.638	73.7
201.018	53.11
201.399	49.31
201.78	76.31
202.16	107.44
202.541	245.41
202.922	256.46
203.302	-261.5
203.683	-114.44
204.063	-77.49
204.444	303.25
204.824	104.57
205.204	-1833.33
205.585	302.19
205.965	-154.9
206.345	106.8
206.725	598.04
207.106	275.38
207.486	307.87
207.866	537.62
208.246	1203.29
208.626	531.49
209.006	5722.22
209.386	974.51
209.766	342.05
210.145	410.02
210.525	-968.03
210.905	-2272.55
211.285	-260.92
211.664	-115.79
212.044	-175.82
212.424	-242.05
212.803	-512.4
213.183	-208.64
213.562	-154.9
213.942	-172.92
214.321	-262.6
214.701	-217.17
215.08	-60.89
215.459	-1.14
215.838	73.13
216.218	85.7
216.597	81.84
216.976	145.84
217.355	138.68
217.734	68.23
218.113	10.44
218.492	18.75
218.871	12.59
219.25	37.61
219.629	21.7
220.008	16.95
220.387	7.73
220.766	3.64
221.144	-15.72
221.523	-8.44
221.902	-4.86
222.28	-8.98
222.659	15.54
223.037	36.61
223.416	28.73
223.794	27.14
224.173	14.39
224.551	21.3
224.929	21.32
225.308	24.13
225.686	27.7
226.064	32.05
226.442	34.97
226.821	32.52
227.199	27.71
227.577	26.11
227.955	25.57
228.333	26.75
228.711	22.84
229.089	25.71
229.467	20.06
229.845	19.43
230.222	21.17
230.6	17.33
230.978	12.81
231.356	14.76
231.733	13.72
232.111	11.69
232.488	12.54
232.866	12.74
233.243	9.87
233.621	8.57
233.998	9.07
234.376	5.75
234.753	7.18
235.13	5.66
235.508	7.18
235.885	7.34
236.262	4.53
236.639	4.04
237.016	2.13
237.393	4.9
237.77	5.29
238.147	5.62
238.524	5.41
238.901	6.42
239.278	6.44
239.655	5.77
240.032	6.35
240.409	5.37
240.785	5.22
241.162	6.1
241.539	6.07
241.915	6.01
242.292	5.77
242.668	5.24
243.045	5.31
243.421	5.34
243.798	5.04
244.174	5.34
244.551	5.26
244.927	5.17
245.303	4.92
245.679	4.97
246.056	4.52
246.432	4.38
246.808	4.26
247.184	4.06
247.56	3.76
247.936	3.65
248.312	3.73
248.688	3.68
249.064	3.36
249.44	3.29
249.815	3.26
250.191	3.49
250.567	3.45
250.943	3.34
251.318	3.15
251.694	3.21
252.069	3.08
252.445	3.27
252.82	3.58
253.196	3.57
253.571	3.43
253.947	3.78
254.322	3.91
254.697	3.59
255.073	3.5
255.448	3.66
255.823	3.4
256.198	3.44
256.573	3.51
256.948	3.66
257.323	3.75
257.698	3.64
258.073	3.65
258.448	3.73
258.823	3.66
259.198	3.74
259.573	3.68
259.948	3.76
260.322	3.83
260.697	3.6
261.072	3.47
261.446	3.34
261.821	3.35
262.195	3.52
262.57	3.58
262.944	3.47
263.319	3.46
263.693	3.53
264.067	3.51
264.442	3.47
264.816	3.3
265.19	3.19
265.564	3.29
265.938	3.19
266.313	3.24
266.687	3.43
267.061	3.45
267.435	3.49
267.809	3.47
268.183	3.43
268.556	3.47
268.93	3.58
269.304	3.63
269.678	3.69
270.051	3.6
270.425	3.69
270.799	3.75
271.172	3.82
271.546	3.89
271.919	3.78
272.293	3.81
272.666	3.95
273.04	3.95
273.413	3.89
273.787	3.81
274.16	3.7
274.533	3.66
274.906	3.58
275.279	3.55
275.653	3.51
276.026	3.4
276.399	3.44
276.772	3.51
277.145	3.49
277.518	3.42
277.891	3.3
278.263	3.09
278.636	3.11
279.009	3.09
279.382	3.15
279.755	3.24
280.127	3.32
280.5	3.3
280.872	3.37
281.245	3.34
281.617	3.53
281.99	3.65
282.362	3.63
282.735	3.53
283.107	3.59
283.479	3.65
283.852	3.68
284.224	3.74
284.596	3.65
284.968	3.58
285.34	3.53
285.713	3.61
286.085	3.6
286.457	3.66
286.829	3.62
287.201	3.62
287.572	3.53
287.944	3.46
288.316	3.48
288.688	3.39
289.06	3.36
289.431	3.3
289.803	3.23
290.175	3.35
290.546	3.49
290.918	3.4
291.289	3.47
291.661	3.42
292.032	3.47
292.403	3.66
292.775	3.85
293.146	3.81
293.517	3.79
293.889	3.99
294.26	4.02
294.631	4.02
295.002	4.11
295.373	4.21
295.744	4.33
296.115	4.42
296.486	4.46
296.857	4.64
297.228	4.78
297.599	4.89
297.97	4.78
298.34	4.83
298.711	4.99
299.082	4.98
299.452	5.11
299.823	5.3
300.194	5.28
300.564	5.23
300.935	5.42
301.305	5.39
301.676	5.45
302.046	5.48
302.416	5.77
302.787	5.83
303.157	5.86
303.527	5.82
303.897	5.82
304.267	6.11
304.637	6.11
305.008	6.23
305.378	6.29
305.748	6.48
306.117	6.43
306.487	6.47
306.857	6.52
307.227	6.56
307.597	6.36
307.967	6.42
308.336	6.52
308.706	6.62
309.076	6.81
309.445	6.86
309.815	7.06
310.184	7.08
310.554	7.12
310.923	7.15
311.293	7.27
311.662	7.36
312.031	7.36
312.401	7.37
312.77	7.31
313.139	7.4
313.508	7.39
313.877	7.55
314.246	7.7
314.616	7.76
314.985	7.81
315.353	8.02
315.722	8.13
316.091	8.33
316.46	8.37
316.829	8.53
317.198	8.69
317.567	8.59
317.935	8.52
318.304	8.75
318.672	8.99
319.041	9.16
319.41	9.17
319.778	9.29
320.147	9.53
320.515	9.61
320.883	9.49
321.252	9.66
321.62	9.73
321.988	9.61
322.357	9.68
322.725	9.85
323.093	9.92
323.461	9.99
323.829	10
324.197	10.05
324.565	10.09
324.933	10.1
325.301	10.08
325.669	10.21
326.037	10.21
326.405	10.15
326.772	10.11
327.14	10.28
327.508	10.33
327.875	10.21
328.243	10.28
328.61	10.48
328.978	10.48
329.346	10.58
329.713	10.61
330.08	10.76
330.448	10.74
330.815	10.63
331.182	10.58
331.55	10.68
331.917	10.74
332.284	10.64
332.651	10.68
333.018	10.81
333.385	10.91
333.752	10.9
334.119	11.06
334.486	11.18
334.853	11.11
335.22	11.03
335.587	11.23
335.954	11.25
336.32	11.21
336.687	11.15
337.054	11.09
337.42	11.27
337.787	11.16
338.153	11.16
338.52	11.34
338.886	11.29
339.253	11.2
339.619	11.2
339.986	11.26
340.352	11.24
340.718	11.18
341.084	11.13
341.451	11.17
341.817	11.14
342.183	11.09
342.549	11.08
342.915	11.15
343.281	11.04
343.647	10.97
344.013	11.01
344.379	11
344.745	11.04
345.11	10.91
345.476	10.96
345.842	11
346.208	11.02
346.573	11.13
346.939	11.22
347.304	11.25
347.67	11.28
348.035	11.34
348.401	11.43
348.766	11.45
349.132	11.41
349.497	11.34
349.862	11.36
350.228	11.43
350.593	11.36
350.958	11.35
351.323	11.39
351.688	11.42
352.053	11.48
352.418	11.5
352.783	11.49
353.148	11.45
353.513	11.45
353.878	11.34
354.243	11.37
354.608	11.2
354.972	11.12
355.337	11.14
355.702	11.11
356.066	11.15
356.431	11
356.795	11.02
357.16	11.04
357.524	10.92
357.889	10.81
358.253	10.87
358.618	10.89
358.982	10.88
359.346	10.77
359.71	10.71
360.075	10.63
360.439	10.66
360.803	10.57
361.167	10.48
361.531	10.38
361.895	10.34
362.259	10.34
362.623	10.34
362.987	10.22
363.351	10.12
363.714	10
364.078	10.02
364.442	9.88
364.806	9.81
365.169	9.8
365.533	9.76
365.896	9.61
366.26	9.55
366.623	9.46
366.987	9.38
367.35	9.29
367.714	9.24
368.077	9.11
368.44	9.08
368.803	9.05
369.167	8.95
369.53	8.85
369.893	8.82
370.256	8.74
370.619	8.67
370.982	8.64
371.345	8.53
371.708	8.49
372.071	8.43
372.434	8.32
372.797	8.22
373.159	8.1
373.522	8.07
373.885	7.94
374.247	7.85
374.61	7.82
374.973	7.8
375.335	7.7
375.698	7.64
376.06	7.56
376.423	7.46
376.785	7.43
377.147	7.4
377.51	7.3
377.872	7.25
378.234	7.22
378.596	7.17
378.958	7.08
379.321	7.02
379.683	7.02
380.045	6.97
380.407	6.94
380.769	6.89
381.13	6.79
381.492	6.69
381.854	6.63
382.216	6.51
382.578	6.38
382.939	6.3
383.301	6.22
383.663	6.15
384.024	6.07
384.386	6.06
384.747	6
385.109	6
385.47	5.91
385.832	5.84
386.193	5.76
386.554	5.7
386.916	5.56
387.277	5.45
387.638	5.42
387.999	5.36
388.36	5.31
388.721	5.26
389.082	5.24
389.443	5.17
389.804	5.12
390.165	5.09
390.526	5.02
390.887	4.99
391.248	5.01
391.609	4.97
391.969	4.94
392.33	4.83
392.691	4.78
393.051	4.75
393.412	4.72
393.772	4.65
394.133	4.65
394.493	4.65
394.854	4.66
395.214	4.62
395.574	4.56
395.935	4.53
396.295	4.49
396.655	4.44
397.015	4.41
397.376	4.4
397.736	4.38
398.096	4.38
398.456	4.34
398.816	4.29
399.176	4.27
399.535	4.19
399.895	4.18
400.255	4.13
400.615	4.09
400.975	4.06
401.334	4.07
401.694	4.04
402.054	3.98
402.413	3.91
402.773	3.84
403.132	3.8
403.492	3.79
403.851	3.79
404.211	3.73
404.57	3.7
404.929	3.69
405.288	3.67
405.648	3.61
406.007	3.59
406.366	3.56
406.725	3.56
407.084	3.56
407.443	3.56
407.802	3.58
408.161	3.54
408.52	3.5
408.879	3.49
409.238	3.46
409.596	3.47
409.955	3.46
410.314	3.47
410.673	3.48
411.031	3.46
411.39	3.44
411.748	3.46
412.107	3.47
412.465	3.42
412.824	3.41
413.182	3.41
413.54	3.45
413.899	3.44
414.257	3.41
414.615	3.4
414.974	3.36
415.332	3.31
415.69	3.31
416.048	3.3
416.406	3.28
416.764	3.24
417.122	3.26
417.48	3.22
417.838	3.22
418.195	3.21
418.553	3.2
418.911	3.19
419.269	3.17
419.626	3.18
419.984	3.18
420.342	3.17
420.699	3.14
421.057	3.1
421.414	3.07
421.772	3.05
422.129	3.05
422.486	3.05
422.844	3.05
423.201	3.03
423.558	3.04
423.915	3.02
424.273	3.03
424.63	2.99
424.987	2.98
425.344	2.96
425.701	2.94
426.058	2.91
426.415	2.9
426.772	2.91
427.128	2.88
427.485	2.87
427.842	2.86
428.199	2.9
428.555	2.91
428.912	2.93
429.269	2.93
429.625	2.92
429.982	2.91
430.338	2.9
430.695	2.89
431.051	2.86
431.407	2.85
431.764	2.86
432.12	2.85
432.476	2.87
432.832	2.87
433.189	2.88
433.545	2.88
433.901	2.89
434.257	2.88
434.613	2.89
434.969	2.88
435.325	2.88
435.681	2.86
436.036	2.85
436.392	2.85
436.748	2.84
437.104	2.84
437.459	2.82
437.815	2.81
438.171	2.82
438.526	2.84
438.882	2.84
439.237	2.84
439.593	2.84
439.948	2.85
440.304	2.87
440.659	2.86
441.014	2.87
441.369	2.85
441.725	2.83
442.08	2.84
442.435	2.84
442.79	2.82
443.145	2.82
443.5	2.82
443.855	2.8
444.21	2.81
444.565	2.81
444.92	2.82
445.275	2.82
445.629	2.82
445.984	2.81
446.339	2.81
446.693	2.78
447.048	2.78
447.403	2.76
447.757	2.73
448.112	2.72
448.466	2.73
448.82	2.73
449.175	2.75
449.529	2.74
449.883	2.73
450.238	2.72
450.592	2.73
450.946	2.71
451.3	2.71
451.654	2.69
452.008	2.68
452.362	2.66
452.716	2.66
453.07	2.65
453.424	2.65
453.778	2.66
454.132	2.67
454.486	2.66
454.839	2.66
455.193	2.68
455.547	2.68
455.9	2.66
456.254	2.65
456.607	2.63
456.961	2.63
457.314	2.64
457.668	2.65
458.021	2.64
458.375	2.65
458.728	2.65
459.081	2.66
459.434	2.67
459.787	2.69
460.141	2.69
460.494	2.69
460.847	2.69
461.2	2.68
461.553	2.7
461.906	2.71
462.259	2.73
462.611	2.74
462.964	2.76
463.317	2.78
463.67	2.78
464.022	2.78
464.375	2.77
464.728	2.8
465.08	2.81
465.433	2.81
465.785	2.83
466.138	2.83
466.49	2.84
466.843	2.84
467.195	2.83
467.547	2.84
467.899	2.85
468.252	2.84
468.604	2.86
468.956	2.84
469.308	2.85
469.66	2.84
470.012	2.85
470.364	2.85
470.716	2.84
471.068	2.85
471.42	2.85
471.772	2.87
472.123	2.87
472.475	2.87
472.827	2.88
473.178	2.91
473.53	2.92
473.882	2.93
474.233	2.96
474.585	2.95
474.936	2.94
475.288	2.95
475.639	2.97
475.99	2.96
476.342	2.98
476.693	2.99
477.044	3.01
477.395	3
477.746	2.98
478.097	2.99
478.448	2.97
478.8	2.96
479.15	2.92
479.501	2.9
479.852	2.88
480.203	2.87
480.554	2.86
480.905	2.86
481.255	2.85
481.606	2.85
481.957	2.85
482.307	2.86
482.658	2.86
483.009	2.85
483.359	2.85
483.709	2.85
484.06	2.84
484.41	2.84
484.761	2.84
485.111	2.84
485.461	2.84
485.811	2.85
486.162	2.86
486.512	2.88
486.862	2.88
487.212	2.88
487.562	2.88
487.912	2.88
488.262	2.88
488.612	2.88
488.961	2.88
489.311	2.88
489.661	2.88
490.011	2.87
490.36	2.86
490.71	2.87
491.06	2.87
491.409	2.87
491.759	2.88
492.108	2.88
492.458	2.89
492.807	2.89
493.157	2.9
493.506	2.91
493.855	2.91
494.204	2.92
494.554	2.95
494.903	2.94
495.252	2.96
495.601	2.96
495.95	3
496.299	3.01
496.648	3.03
496.997	3.05
497.346	3.1
497.695	3.14
498.043	3.16
498.392	3.19
498.741	3.22
499.09	3.26
499.438	3.29
499.787	3.31
500.135	3.34
500.484	3.4
500.832	3.43
501.181	3.45
501.529	3.52
501.878	3.57
502.226	3.62
502.574	3.66
502.923	3.72
503.271	3.77
503.619	3.83
503.967	3.91
504.315	3.97
504.663	4.02
505.011	4.07
505.359	4.12
505.707	4.17
506.055	4.23
506.403	4.28
506.751	4.33
507.098	4.41
507.446	4.49
507.794	4.52
508.141	4.59
508.489	4.67
508.837	4.72
509.184	4.78
509.531	4.87
509.879	4.98
510.226	5.04
510.574	5.12
510.921	5.17
511.268	5.23
511.616	5.31
511.963	5.37
512.31	5.47
512.657	5.58
513.004	5.68
513.351	5.8
513.698	5.91
514.045	6.05
514.392	6.16
514.739	6.27
515.086	6.4
515.432	6.54
515.779	6.66
516.126	6.79
516.473	6.92
516.819	7.05
517.166	7.17
517.512	7.29
517.859	7.41
518.205	7.54
518.552	7.67
518.898	7.79
519.245	7.92
519.591	8.01
519.937	8.13
520.283	8.27
520.629	8.43
520.976	8.59
521.322	8.72
521.668	8.88
522.014	9.06
522.36	9.24
522.706	9.43
523.052	9.61
523.398	9.79
523.743	9.99
524.089	10.18
524.435	10.34
524.781	10.54
525.126	10.71
525.472	10.87
525.817	11.02
526.163	11.16
526.509	11.29
526.854	11.45
527.199	11.58
527.545	11.68
527.89	11.79
528.235	11.89
528.581	12.01
528.926	12.15
529.271	12.26
529.616	12.38
529.961	12.49
530.306	12.64
530.651	12.79
530.996	12.95
531.341	13.1
531.686	13.27
532.031	13.43
532.376	13.59
532.721	13.77
533.065	13.93
533.41	14.1
533.755	14.3
534.099	14.48
534.444	14.68
534.788	14.91
535.133	15.1
535.477	15.32
535.822	15.54
536.166	15.75
536.51	16.01
536.855	16.26
537.199	16.52
537.543	16.78
537.887	17.05
538.231	17.3
538.576	17.57
538.92	17.85
539.264	18.11
539.608	18.38
539.951	18.62
540.295	18.87
540.639	19.11
540.983	19.33
541.327	19.52
541.671	19.72
542.014	19.92
542.358	20.14
542.701	20.33
543.045	20.54
543.389	20.77
543.732	20.96
544.075	21.18
544.419	21.43
544.762	21.67
545.105	21.91
545.449	22.18
545.792	22.42
546.135	22.7
546.478	22.97
546.821	23.25
547.165	23.56
547.508	23.85
547.851	24.16
548.194	24.45
548.536	24.8
548.879	25.12
549.222	25.44
549.565	25.79
549.908	26.14
550.25	26.49
550.593	26.83
550.936	27.17
551.278	27.51
551.621	27.85
551.963	28.18
552.306	28.54
552.648	28.86
552.991	29.26
553.333	29.54
553.675	29.83
554.017	30.13
554.36	30.45
554.702	30.79
555.044	31.08
555.386	31.39
555.728	31.69
556.07	32.04
556.412	32.3
556.754	32.62
557.096	32.91
557.438	33.21
557.78	33.55
558.121	33.91
558.463	34.28
558.805	34.64
559.147	34.92
559.488	35.22
559.83	35.54
560.171	35.75
560.513	36.09
560.854	36.39
561.196	36.72
561.537	37.01
561.878	37.27
562.22	37.6
562.561	37.88
562.902	38.18
563.243	38.43
563.584	38.75
563.925	39.06
564.266	39.33
564.607	39.6
564.948	39.81
565.289	40.01
565.63	40.17
565.971	40.36
566.312	40.62
566.653	40.83
566.993	41.05
567.334	41.31
567.675	41.53
568.015	41.79
568.356	41.99
568.696	42.19
569.037	42.43
569.377	42.64
569.718	42.9
570.058	43.07
570.398	43.26
570.739	43.45
571.079	43.61
571.419	43.8
571.759	43.97
572.099	44.19
572.439	44.39
572.779	44.61
573.119	44.79
573.459	44.94
573.799	45.11
574.139	45.24
574.479	45.42
574.819	45.57
575.158	45.75
575.498	45.91
575.838	46.07
576.177	46.22
576.517	46.41
576.856	46.56
577.196	46.73
577.535	46.91
577.875	47.08
578.214	47.2
578.553	47.38
578.893	47.58
579.232	47.71
579.571	47.84
579.91	47.97
580.25	48.19
580.589	48.36
580.928	48.52
581.267	48.76
581.606	48.96
581.945	49.12
582.283	49.24
582.622	49.34
582.961	49.51
583.3	49.7
583.639	49.8
583.977	49.97
584.316	50.17
584.654	50.31
584.993	50.52
585.332	50.7
585.67	50.8
586.008	50.89
586.347	51
586.685	51.2
587.024	51.28
587.362	51.32
587.7	51.46
588.038	51.6
588.376	51.72
588.715	51.81
589.053	51.96
589.391	52.04
589.729	52.23
590.067	52.36
590.404	52.39
590.742	52.56
591.08	52.58
591.418	52.62
591.756	52.73
592.093	52.76
592.431	52.83
592.769	52.88
593.106	52.89
593.444	53.03
593.781	53.09
594.119	53.23
594.456	53.29
594.793	53.36
595.131	53.43
595.468	53.46
595.805	53.5
596.143	53.52
596.48	53.61
596.817	53.62
597.154	53.73
597.491	53.87
597.828	53.87
598.165	54
598.502	54.09
598.839	54.18
599.176	54.21
599.512	54.28
599.849	54.39
600.186	54.63
600.523	54.69
600.859	54.82
601.196	54.89
601.532	55.05
601.869	55.15
602.205	55.14
602.542	55.15
602.878	55.17
603.215	55.26
603.551	55.23
603.887	55.27
604.223	55.22
604.56	55.25
604.896	55.32
605.232	55.32
605.568	55.28
605.904	55.31
606.24	55.39
606.576	55.4
606.912	55.55
607.248	55.57
607.583	55.56
607.919	55.52
608.255	55.56
608.591	55.6
608.926	55.64
609.262	55.76
609.597	55.93
609.933	56.02
610.268	56.09
610.604	56.29
610.939	56.35
611.275	56.41
611.61	56.45
611.945	56.52
612.281	56.56
612.616	56.79
612.951	56.86
613.286	56.97
613.621	57.09
613.956	57.08
614.291	57.07
614.626	57.18
614.961	57.31
615.296	57.43
615.631	57.38
615.966	57.47
616.3	57.59
616.635	57.57
616.97	57.63
617.304	57.57
617.639	57.51
617.973	57.65
618.308	57.68
618.642	57.63
618.977	57.63
619.311	57.74
619.646	57.75
619.98	57.77
620.314	57.78
620.648	57.84
620.983	57.77
621.317	57.82
621.651	57.97
621.985	57.87
622.319	57.78
622.653	57.87
622.987	57.83
623.321	57.75
623.655	57.8
623.988	57.82
624.322	57.95
624.656	57.95
624.99	57.9
625.323	57.94
625.657	58
625.99	57.99
626.324	58.04
626.657	57.99
626.991	57.97
627.324	57.97
627.658	57.92
627.991	58.06
628.324	58.08
628.657	58.06
628.991	58.11
629.324	58.16
629.657	58.14
629.99	58.14
630.323	58.21
630.656	58.21
630.989	58.29
631.322	58.29
631.655	58.3
631.987	58.26
632.32	58.29
632.653	58.33
632.986	58.37
633.318	58.33
633.651	58.41
633.984	58.49
634.316	58.53
634.649	58.56
634.981	58.51
635.313	58.52
635.646	58.49
635.978	58.58
636.31	58.62
636.643	58.7
636.975	58.83
637.307	58.8
637.639	58.82
637.971	58.75
638.303	58.64
638.635	58.63
638.967	58.77
639.299	58.82
639.631	58.87
639.963	58.89
640.295	58.92
640.626	58.81
640.958	58.87
641.29	58.82
641.621	58.85
641.953	58.9
642.285	58.92
642.616	58.97
642.948	58.95
643.279	58.93
643.61	58.91
643.942	58.83
644.273	58.85
644.604	58.86
644.936	58.82
645.267	58.97
645.598	59.09
645.929	59.09
646.26	59.05
646.591	59
646.922	59.01
647.253	59.04
647.584	59.13
647.915	59.06
648.245	59.1
648.576	59.14
648.907	59.12
649.238	59.12
649.568	59.07
649.899	59.07
650.229	59.11
650.56	59.19
650.89	59.17
651.221	59.18
651.551	59.12
651.882	59.25
652.212	59.27
652.542	59.23
652.872	59.32
653.203	59.19
653.533	59.22
653.863	59.24
654.193	59.22
654.523	59.14
654.853	59.19
655.183	59.23
655.513	59.25
655.843	59.32
656.172	59.35
656.502	59.38
656.832	59.59
657.162	59.66
657.491	59.66
657.821	59.67
658.15	59.64
658.48	59.67
658.809	59.58
659.139	59.54
659.468	59.49
659.798	59.52
660.127	59.64
660.456	59.7
660.785	59.77
661.115	59.79
661.444	59.89
661.773	59.99
662.102	59.86
662.431	59.81
662.76	59.71
663.089	59.81
663.418	59.79
663.747	59.52
664.076	59.48
664.404	59.49
664.733	59.57
