Data from BU58130_Reflection_00015.txt Node
Date: Mon Nov 18 16:37:44 EST 2019
User: vgr7
Spectrometer: USB2G7710
Scans to average: 3
Trigger mode: 4
Integration Time (sec): 2.000000E-2
Electric dark correction enabled: true
Boxcar width: 10
XAxis mode: Wavelengths
Number of Pixels in Spectrum: 2048
>>>>>Begin Spectral Data<<<<<
177.721	626.72
178.105	-192.68
178.488	-44.48
178.871	-118.45
179.254	-8.81
179.636	-262.07
180.019	469.86
180.402	124.14
180.785	-17.22
181.168	3.72
181.55	13.39
181.933	43.79
182.316	47.77
182.698	44.07
183.081	51.72
183.463	32.75
183.846	38.17
184.228	36.9
184.611	85.37
184.993	128.9
185.376	78.35
185.758	36.33
186.14	87.12
186.522	194.89
186.904	264.56
187.287	687.3
187.669	-418.07
188.051	-3005.26
188.433	-1609.68
188.815	-138.1
189.197	-94.5
189.579	-79.8
189.961	-88.3
190.342	-130.46
190.724	-100.74
191.106	-119.4
191.488	-228.72
191.869	-462.13
192.251	-358.13
192.633	-1153.97
193.014	-8677.78
193.396	3174.07
193.777	4752.17
194.159	495.35
194.54	503.51
194.922	-519.63
195.303	-1338.36
195.684	-648.5
196.065	-225.18
196.447	-125.04
196.828	-185.42
197.209	-205.72
197.59	-153.38
197.971	-163.55
198.352	-90.67
198.733	-103.99
199.114	-106.74
199.495	-50.17
199.876	-41.87
200.257	-28.02
200.638	-25.99
201.018	-19.57
201.399	-22.14
201.78	-5.3
202.16	-8.45
202.541	-35.26
202.922	-43.41
203.302	-21.19
203.683	-4.34
204.063	-3
204.444	-5.31
204.824	8.79
205.204	28.06
205.585	10.36
205.965	33.33
206.345	56
206.725	50.32
207.106	12.24
207.486	-22.24
207.866	38.91
208.246	-8.18
208.626	-14.09
209.006	28.74
209.386	12.94
209.766	19.32
210.145	12.21
210.525	-7.4
210.905	29.66
211.285	126.09
211.664	-9.83
212.044	135.29
212.424	-1252.94
212.803	-138.1
213.183	-211.48
213.562	0.43
213.942	-19.17
214.321	-24.48
214.701	-32.96
215.08	-37.25
215.459	-51.78
215.838	-28.94
216.218	-22.68
216.597	-19.27
216.976	-14.26
217.355	-27.27
217.734	-29.71
218.113	-44.94
218.492	-29.97
218.871	-40.11
219.25	-37.43
219.629	-39.39
220.008	-57.13
220.387	-52.52
220.766	-58.04
221.144	-70.84
221.523	-96.68
221.902	-143.87
222.28	-134.21
222.659	-108.61
223.037	-76.28
223.416	-51.92
223.794	-57
224.173	-64.77
224.551	-54.15
224.929	-67.27
225.308	-44.97
225.686	-35.06
226.064	-20.71
226.442	-10.78
226.821	-5.53
227.199	-6.09
227.577	-5.34
227.955	-7.15
228.333	-7.99
228.711	-4.85
229.089	-0.41
229.467	0.61
229.845	2.27
230.222	4.64
230.6	3.26
230.978	3.15
231.356	3.05
231.733	3.24
232.111	6.98
232.488	8.23
232.866	10.57
233.243	10.47
233.621	8.63
233.998	7.07
234.376	4.4
234.753	4.65
235.13	5.72
235.508	5.63
235.885	5.9
236.262	4.13
236.639	3.21
237.016	2.86
237.393	3.9
237.77	4.25
238.147	5.3
238.524	5.31
238.901	5.39
239.278	5.84
239.655	6.26
240.032	6.51
240.409	5.38
240.785	5.14
241.162	6.02
241.539	6.18
241.915	5.6
242.292	5.24
242.668	5.45
243.045	4.98
243.421	4.97
243.798	5.06
244.174	5.31
244.551	5.46
244.927	5.13
245.303	5.33
245.679	5.71
246.056	5.46
246.432	5.19
246.808	5.3
247.184	5.14
247.56	4.79
247.936	4.26
248.312	4.51
248.688	4.62
249.064	4.34
249.44	4.29
249.815	4.41
250.191	4.48
250.567	4.18
250.943	4.32
251.318	4.36
251.694	4.56
252.069	4.71
252.445	4.73
252.82	5.14
253.196	4.96
253.571	4.59
253.947	4.63
254.322	5.13
254.697	5.03
255.073	4.77
255.448	4.6
255.823	4.87
256.198	4.89
256.573	4.72
256.948	4.75
257.323	4.87
257.698	4.91
258.073	4.92
258.448	4.85
258.823	4.84
259.198	4.76
259.573	4.56
259.948	4.42
260.322	4.29
260.697	4.14
261.072	4.04
261.446	4.1
261.821	4.08
262.195	4.12
262.57	4.02
262.944	4.21
263.319	4.26
263.693	4.31
264.067	4.36
264.442	4.57
264.816	4.42
265.19	4.17
265.564	4.18
265.938	4.16
266.313	4.18
266.687	4.28
267.061	4.51
267.435	4.52
267.809	4.4
268.183	4.33
268.556	4.28
268.93	4.36
269.304	4.24
269.678	4.23
270.051	4.04
270.425	4.03
270.799	4.07
271.172	4.26
271.546	4.13
271.919	3.95
272.293	3.98
272.666	4.05
273.04	4.2
273.413	4.18
273.787	4.33
274.16	4.33
274.533	4.25
274.906	4.04
275.279	3.96
275.653	4
276.026	3.95
276.399	4.04
276.772	4.23
277.145	4.26
277.518	4.16
277.891	4.32
278.263	4.25
278.636	4.18
279.009	4.07
279.382	4.03
279.755	4.06
280.127	4.1
280.5	4.14
280.872	4.14
281.245	4.01
281.617	4.05
281.99	4.08
282.362	4.05
282.735	4.06
283.107	4.18
283.479	4.22
283.852	4.29
284.224	4.25
284.596	4.24
284.968	4.34
285.34	4.46
285.713	4.41
286.085	4.54
286.457	4.57
286.829	4.6
287.201	4.66
287.572	4.64
287.944	4.55
288.316	4.55
288.688	4.6
289.06	4.63
289.431	4.63
289.803	4.8
290.175	4.83
290.546	5
290.918	5.04
291.289	5.14
291.661	5.33
292.032	5.46
292.403	5.37
292.775	5.52
293.146	5.46
293.517	5.54
293.889	5.58
294.26	5.56
294.631	5.59
295.002	5.73
295.373	5.73
295.744	5.69
296.115	5.77
296.486	5.63
296.857	5.75
297.228	5.8
297.599	5.73
297.97	5.84
298.34	5.72
298.711	5.86
299.082	5.78
299.452	5.76
299.823	5.96
300.194	5.91
300.564	5.76
300.935	5.83
301.305	5.93
301.676	5.94
302.046	6.04
302.416	6.17
302.787	6.2
303.157	6.42
303.527	6.49
303.897	6.61
304.267	6.95
304.637	7.08
305.008	7.15
305.378	7.27
305.748	7.26
306.117	7.45
306.487	7.53
306.857	7.66
307.227	7.78
307.597	7.54
307.967	7.87
308.336	8.04
308.706	8.14
309.076	8.11
309.445	8.24
309.815	8.3
310.184	8.36
310.554	8.44
310.923	8.41
311.293	8.48
311.662	8.49
312.031	8.53
312.401	8.45
312.77	8.59
313.139	8.74
313.508	8.8
313.877	8.77
314.246	8.8
314.616	8.82
314.985	8.81
315.353	9
315.722	9.1
316.091	9.1
316.46	9.12
316.829	9.25
317.198	9.29
317.567	9.32
317.935	9.39
318.304	9.47
318.672	9.56
319.041	9.68
319.41	9.81
319.778	9.73
320.147	9.99
320.515	9.85
320.883	9.78
321.252	9.92
321.62	10.08
321.988	10.08
322.357	10.22
322.725	10.32
323.093	10.32
323.461	10.34
323.829	10.38
324.197	10.64
324.565	10.75
324.933	10.93
325.301	11.13
325.669	11.22
326.037	11.24
326.405	11.35
326.772	11.49
327.14	11.51
327.508	11.63
327.875	11.6
328.243	11.72
328.61	11.84
328.978	11.89
329.346	11.94
329.713	12.02
330.08	12.04
330.448	11.98
330.815	12.12
331.182	12.08
331.55	12.12
331.917	12.14
332.284	12.1
332.651	11.99
333.018	11.99
333.385	11.99
333.752	11.97
334.119	12.02
334.486	11.86
334.853	11.85
335.22	11.88
335.587	11.85
335.954	11.85
336.32	11.81
336.687	11.93
337.054	11.86
337.42	11.95
337.787	12.05
338.153	12.28
338.52	12.24
338.886	12.15
339.253	12.09
339.619	12.13
339.986	12.15
340.352	12.16
340.718	12.13
341.084	12.2
341.451	12.25
341.817	12.21
342.183	12.34
342.549	12.4
342.915	12.44
343.281	12.55
343.647	12.61
344.013	12.55
344.379	12.42
344.745	12.53
345.11	12.45
345.476	12.43
345.842	12.36
346.208	12.35
346.573	12.58
346.939	12.75
347.304	12.7
347.67	12.67
348.035	12.69
348.401	12.64
348.766	12.64
349.132	12.64
349.497	12.74
349.862	12.74
350.228	12.71
350.593	12.66
350.958	12.54
351.323	12.56
351.688	12.57
352.053	12.67
352.418	12.63
352.783	12.57
353.148	12.6
353.513	12.58
353.878	12.56
354.243	12.48
354.608	12.4
354.972	12.42
355.337	12.41
355.702	12.36
356.066	12.41
356.431	12.27
356.795	12.29
357.16	12.18
357.524	12.1
357.889	11.99
358.253	11.98
358.618	12.02
358.982	11.95
359.346	11.86
359.71	11.75
360.075	11.68
360.439	11.68
360.803	11.58
361.167	11.5
361.531	11.45
361.895	11.33
362.259	11.25
362.623	11.14
362.987	11.04
363.351	10.97
363.714	10.92
364.078	10.9
364.442	10.76
364.806	10.71
365.169	10.69
365.533	10.7
365.896	10.62
366.26	10.52
366.623	10.47
366.987	10.49
367.35	10.48
367.714	10.41
368.077	10.3
368.44	10.3
368.803	10.23
369.167	10.12
369.53	10.06
369.893	10.05
370.256	9.95
370.619	9.94
370.982	9.93
371.345	9.81
371.708	9.76
372.071	9.63
372.434	9.55
372.797	9.47
373.159	9.28
373.522	9.19
373.885	9.09
374.247	9
374.61	8.86
374.973	8.72
375.335	8.67
375.698	8.61
376.06	8.48
376.423	8.43
376.785	8.39
377.147	8.34
377.51	8.22
377.872	8.19
378.234	8.09
378.596	7.99
378.958	7.87
379.321	7.8
379.683	7.77
380.045	7.64
380.407	7.54
380.769	7.56
381.13	7.53
381.492	7.45
381.854	7.39
382.216	7.38
382.578	7.32
382.939	7.25
383.301	7.15
383.663	7.07
384.024	7.01
384.386	6.99
384.747	6.9
385.109	6.82
385.47	6.77
385.832	6.73
386.193	6.67
386.554	6.67
386.916	6.61
387.277	6.6
387.638	6.64
387.999	6.54
388.36	6.47
388.721	6.43
389.082	6.43
389.443	6.36
389.804	6.25
390.165	6.21
390.526	6.16
390.887	6.11
391.248	6.11
391.609	6.08
391.969	6.02
392.33	5.99
392.691	5.99
393.051	5.91
393.412	5.88
393.772	5.83
394.133	5.8
394.493	5.74
394.854	5.7
395.214	5.65
395.574	5.67
395.935	5.61
396.295	5.57
396.655	5.51
397.015	5.48
397.376	5.49
397.736	5.44
398.096	5.41
398.456	5.4
398.816	5.37
399.176	5.27
399.535	5.19
399.895	5.17
400.255	5.11
400.615	5.11
400.975	5.05
401.334	4.99
401.694	4.92
402.054	4.91
402.413	4.87
402.773	4.78
403.132	4.75
403.492	4.76
403.851	4.73
404.211	4.69
404.57	4.63
404.929	4.6
405.288	4.56
405.648	4.54
406.007	4.54
406.366	4.51
406.725	4.54
407.084	4.53
407.443	4.48
407.802	4.47
408.161	4.44
408.52	4.4
408.879	4.41
409.238	4.42
409.596	4.38
409.955	4.33
410.314	4.37
410.673	4.36
411.031	4.31
411.39	4.28
411.748	4.25
412.107	4.29
412.465	4.25
412.824	4.24
413.182	4.23
413.54	4.21
413.899	4.21
414.257	4.19
414.615	4.21
414.974	4.2
415.332	4.17
415.69	4.13
416.048	4.13
416.406	4.11
416.764	4.09
417.122	4.09
417.48	4.06
417.838	4.03
418.195	4.02
418.553	4.01
418.911	3.99
419.269	3.99
419.626	3.97
419.984	3.95
420.342	3.94
420.699	3.92
421.057	3.9
421.414	3.87
421.772	3.85
422.129	3.84
422.486	3.83
422.844	3.81
423.201	3.79
423.558	3.79
423.915	3.76
424.273	3.75
424.63	3.72
424.987	3.73
425.344	3.72
425.701	3.7
426.058	3.68
426.415	3.69
426.772	3.68
427.128	3.64
427.485	3.65
427.842	3.66
428.199	3.66
428.555	3.65
428.912	3.66
429.269	3.67
429.625	3.66
429.982	3.65
430.338	3.66
430.695	3.66
431.051	3.64
431.407	3.67
431.764	3.67
432.12	3.68
432.476	3.67
432.832	3.66
433.189	3.66
433.545	3.64
433.901	3.63
434.257	3.61
434.613	3.62
434.969	3.63
435.325	3.61
435.681	3.59
436.036	3.59
436.392	3.58
436.748	3.58
437.104	3.54
437.459	3.52
437.815	3.51
438.171	3.52
438.526	3.53
438.882	3.52
439.237	3.54
439.593	3.55
439.948	3.54
440.304	3.53
440.659	3.53
441.014	3.53
441.369	3.51
441.725	3.51
442.08	3.52
442.435	3.49
442.79	3.49
443.145	3.5
443.5	3.48
443.855	3.47
444.21	3.45
444.565	3.47
444.92	3.48
445.275	3.47
445.629	3.48
445.984	3.47
446.339	3.44
446.693	3.41
447.048	3.4
447.403	3.4
447.757	3.41
448.112	3.38
448.466	3.37
448.82	3.38
449.175	3.39
449.529	3.38
449.883	3.39
450.238	3.39
450.592	3.39
450.946	3.39
451.3	3.38
451.654	3.39
452.008	3.38
452.362	3.36
452.716	3.37
453.07	3.38
453.424	3.38
453.778	3.39
454.132	3.41
454.486	3.41
454.839	3.4
455.193	3.38
455.547	3.38
455.9	3.4
456.254	3.4
456.607	3.38
456.961	3.37
457.314	3.37
457.668	3.34
458.021	3.33
458.375	3.34
458.728	3.34
459.081	3.34
459.434	3.34
459.787	3.34
460.141	3.34
460.494	3.33
460.847	3.34
461.2	3.35
461.553	3.35
461.906	3.34
462.259	3.36
462.611	3.38
462.964	3.39
463.317	3.39
463.67	3.39
464.022	3.41
464.375	3.43
464.728	3.44
465.08	3.46
465.433	3.48
465.785	3.49
466.138	3.49
466.49	3.5
466.843	3.48
467.195	3.51
467.547	3.5
467.899	3.48
468.252	3.47
468.604	3.49
468.956	3.51
469.308	3.51
469.66	3.51
470.012	3.53
470.364	3.56
470.716	3.59
471.068	3.6
471.42	3.6
471.772	3.61
472.123	3.62
472.475	3.63
472.827	3.63
473.178	3.65
473.53	3.65
473.882	3.67
474.233	3.7
474.585	3.68
474.936	3.7
475.288	3.74
475.639	3.75
475.99	3.74
476.342	3.72
476.693	3.74
477.044	3.73
477.395	3.71
477.746	3.69
478.097	3.67
478.448	3.66
478.8	3.67
479.15	3.64
479.501	3.63
479.852	3.64
480.203	3.63
480.554	3.63
480.905	3.64
481.255	3.64
481.606	3.65
481.957	3.65
482.307	3.65
482.658	3.65
483.009	3.65
483.359	3.65
483.709	3.65
484.06	3.64
484.41	3.63
484.761	3.63
485.111	3.63
485.461	3.63
485.811	3.63
486.162	3.62
486.512	3.63
486.862	3.63
487.212	3.62
487.562	3.63
487.912	3.62
488.262	3.62
488.612	3.61
488.961	3.6
489.311	3.6
489.661	3.6
490.011	3.6
490.36	3.59
490.71	3.59
491.06	3.58
491.409	3.59
491.759	3.61
492.108	3.62
492.458	3.62
492.807	3.64
493.157	3.66
493.506	3.69
493.855	3.71
494.204	3.71
494.554	3.72
494.903	3.74
495.252	3.75
495.601	3.77
495.95	3.79
496.299	3.8
496.648	3.82
496.997	3.85
497.346	3.88
497.695	3.92
498.043	3.96
498.392	3.98
498.741	4.02
499.09	4.03
499.438	4.06
499.787	4.1
500.135	4.14
500.484	4.16
500.832	4.17
501.181	4.19
501.529	4.24
501.878	4.27
502.226	4.29
502.574	4.35
502.923	4.37
503.271	4.41
503.619	4.49
503.967	4.53
504.315	4.58
504.663	4.61
505.011	4.66
505.359	4.72
505.707	4.79
506.055	4.83
506.403	4.89
506.751	4.92
507.098	4.98
507.446	5.02
507.794	5.08
508.141	5.15
508.489	5.22
508.837	5.31
509.184	5.38
509.531	5.46
509.879	5.53
510.226	5.61
510.574	5.68
510.921	5.73
511.268	5.79
511.616	5.85
511.963	5.91
512.31	5.99
512.657	6.09
513.004	6.17
513.351	6.26
513.698	6.37
514.045	6.5
514.392	6.58
514.739	6.69
515.086	6.78
515.432	6.87
515.779	6.96
516.126	7.05
516.473	7.14
516.819	7.21
517.166	7.28
517.512	7.38
517.859	7.46
518.205	7.54
518.552	7.64
518.898	7.73
519.245	7.82
519.591	7.87
519.937	7.92
520.283	7.99
520.629	8.08
520.976	8.15
521.322	8.24
521.668	8.36
522.014	8.46
522.36	8.6
522.706	8.72
523.052	8.85
523.398	8.98
523.743	9.14
524.089	9.28
524.435	9.42
524.781	9.53
525.126	9.66
525.472	9.75
525.817	9.85
526.163	9.94
526.509	10.04
526.854	10.15
527.199	10.24
527.545	10.32
527.89	10.4
528.235	10.49
528.581	10.57
528.926	10.65
529.271	10.73
529.616	10.81
529.961	10.9
530.306	10.99
530.651	11.07
530.996	11.16
531.341	11.27
531.686	11.37
532.031	11.47
532.376	11.6
532.721	11.72
533.065	11.84
533.41	11.98
533.755	12.09
534.099	12.23
534.444	12.37
534.788	12.52
535.133	12.66
535.477	12.8
535.822	12.97
536.166	13.14
536.51	13.33
536.855	13.51
537.199	13.69
537.543	13.91
537.887	14.12
538.231	14.31
538.576	14.54
538.92	14.76
539.264	14.95
539.608	15.14
539.951	15.32
540.295	15.51
540.639	15.69
540.983	15.88
541.327	16.06
541.671	16.26
542.014	16.43
542.358	16.59
542.701	16.76
543.045	16.92
543.389	17.1
543.732	17.27
544.075	17.44
544.419	17.63
544.762	17.82
545.105	18
545.449	18.24
545.792	18.44
546.135	18.66
546.478	18.94
546.821	19.21
547.165	19.48
547.508	19.78
547.851	20.06
548.194	20.31
548.536	20.59
548.879	20.86
549.222	21.14
549.565	21.45
549.908	21.75
550.25	22.09
550.593	22.4
550.936	22.71
551.278	23.09
551.621	23.42
551.963	23.77
552.306	24.11
552.648	24.41
552.991	24.77
553.333	25.11
553.675	25.39
554.017	25.71
554.36	25.99
554.702	26.29
555.044	26.58
555.386	26.95
555.728	27.23
556.07	27.55
556.412	27.88
556.754	28.14
557.096	28.52
557.438	28.86
557.78	29.18
558.121	29.54
558.463	29.83
558.805	30.15
559.147	30.46
559.488	30.79
559.83	31.15
560.171	31.36
560.513	31.69
560.854	32.03
561.196	32.38
561.537	32.68
561.878	33
562.22	33.32
562.561	33.59
562.902	33.9
563.243	34.22
563.584	34.51
563.925	34.85
564.266	35.1
564.607	35.4
564.948	35.7
565.289	35.96
565.63	36.24
565.971	36.55
566.312	36.82
566.653	37.11
566.993	37.35
567.334	37.7
567.675	37.98
568.015	38.18
568.356	38.41
568.696	38.72
569.037	38.95
569.377	39.2
569.718	39.44
570.058	39.74
570.398	39.97
570.739	40.2
571.079	40.44
571.419	40.71
571.759	40.97
572.099	41.17
572.439	41.39
572.779	41.62
573.119	41.87
573.459	42.09
573.799	42.26
574.139	42.49
574.479	42.67
574.819	42.86
575.158	43.16
575.498	43.38
575.838	43.58
576.177	43.78
576.517	44.02
576.856	44.28
577.196	44.46
577.535	44.58
577.875	44.87
578.214	45.06
578.553	45.31
578.893	45.47
579.232	45.7
579.571	45.9
579.91	46.09
580.25	46.19
580.589	46.31
580.928	46.55
581.267	46.75
581.606	46.9
581.945	47.06
582.283	47.17
582.622	47.29
582.961	47.41
583.3	47.61
583.639	47.76
583.977	47.87
584.316	47.98
584.654	48.2
584.993	48.28
585.332	48.44
585.67	48.49
586.008	48.62
586.347	48.7
586.685	48.89
587.024	49.05
587.362	49.2
587.7	49.4
588.038	49.46
588.376	49.55
588.715	49.68
589.053	49.74
589.391	49.84
589.729	49.97
590.067	50.15
590.404	50.22
590.742	50.31
591.08	50.42
591.418	50.59
591.756	50.79
592.093	50.91
592.431	51.02
592.769	51.19
593.106	51.32
593.444	51.49
593.781	51.58
594.119	51.64
594.456	51.77
594.793	51.84
595.131	51.9
595.468	51.99
595.805	52.13
596.143	52.28
596.48	52.4
596.817	52.48
597.154	52.48
597.491	52.5
597.828	52.53
598.165	52.59
598.502	52.61
598.839	52.64
599.176	52.72
599.512	52.87
599.849	52.89
600.186	52.93
600.523	53.01
600.859	53.2
601.196	53.32
601.532	53.44
601.869	53.5
602.205	53.62
602.542	53.71
602.878	53.81
603.215	53.85
603.551	53.82
603.887	53.92
604.223	54.02
604.56	54.15
604.896	54.24
605.232	54.33
605.568	54.41
605.904	54.46
606.24	54.5
606.576	54.45
606.912	54.54
607.248	54.61
607.583	54.65
607.919	54.59
608.255	54.58
608.591	54.62
608.926	54.64
609.262	54.75
609.597	54.8
609.933	54.77
610.268	54.88
610.604	54.99
610.939	54.99
611.275	54.98
611.61	54.99
611.945	55.05
612.281	55.02
612.616	55.06
612.951	55.04
613.286	55.11
613.621	55.26
613.956	55.24
614.291	55.31
614.626	55.27
614.961	55.3
615.296	55.28
615.631	55.25
615.966	55.33
616.3	55.29
616.635	55.25
616.97	55.29
617.304	55.32
617.639	55.38
617.973	55.44
618.308	55.54
618.642	55.61
618.977	55.63
619.311	55.63
619.646	55.72
619.98	55.81
620.314	55.82
620.648	55.93
620.983	56.09
621.317	56.05
621.651	56.2
621.985	56.19
622.319	56.36
622.653	56.44
622.987	56.54
623.321	56.65
623.655	56.81
623.988	56.9
624.322	56.86
624.656	56.86
624.99	56.87
625.323	56.9
625.657	56.88
625.99	56.88
626.324	57.03
626.657	57.04
626.991	57.04
627.324	57.06
627.658	56.9
627.991	56.92
628.324	56.98
628.657	56.94
628.991	56.99
629.324	57.03
629.657	57.01
629.99	56.96
630.323	56.9
630.656	56.86
630.989	56.86
631.322	56.88
631.655	56.83
631.987	56.87
632.32	56.83
632.653	56.82
632.986	56.95
633.318	56.95
633.651	56.92
633.984	57.02
634.316	57
634.649	57.14
634.981	56.95
635.313	56.87
635.646	56.94
635.978	56.96
636.31	56.98
636.643	56.96
636.975	56.94
637.307	57
637.639	56.95
637.971	56.85
638.303	56.93
638.635	56.94
638.967	56.96
639.299	57.07
639.631	57.11
639.963	57.08
640.295	57.03
640.626	57.15
640.958	57.14
641.29	57.21
641.621	57.2
641.953	57.44
642.285	57.6
642.616	57.56
642.948	57.58
643.279	57.51
643.61	57.59
643.942	57.66
644.273	57.61
644.604	57.69
644.936	57.82
645.267	57.68
645.598	57.76
645.929	57.73
646.26	57.64
646.591	57.73
646.922	57.82
647.253	57.87
647.584	57.89
647.915	57.84
648.245	57.94
648.576	58.12
648.907	58.06
649.238	58.07
649.568	58.18
649.899	58.23
650.229	58.29
650.56	58.33
650.89	58.33
651.221	58.34
651.551	58.38
651.882	58.39
652.212	58.51
652.542	58.48
652.872	58.5
653.203	58.65
653.533	58.79
653.863	58.69
654.193	58.66
654.523	58.66
654.853	58.63
655.183	58.47
655.513	58.33
655.843	58.28
656.172	58.19
656.502	58.23
656.832	58.26
657.162	58.32
657.491	58.25
657.821	58.37
658.15	58.43
658.48	58.43
658.809	58.4
659.139	58.39
659.468	58.46
659.798	58.5
660.127	58.38
660.456	58.24
660.785	58.29
661.115	58.3
661.444	58.29
661.773	58.36
662.102	58.44
662.431	58.52
662.76	58.63
663.089	58.68
663.418	58.67
663.747	58.55
664.076	58.48
664.404	58.49
