Data from BU58127_Reflection_00001.txt Node
Date: Mon Nov 18 16:44:02 EST 2019
User: vgr7
Spectrometer: USB2G7710
Scans to average: 3
Trigger mode: 4
Integration Time (sec): 2.000000E-2
Electric dark correction enabled: true
Boxcar width: 10
XAxis mode: Wavelengths
Number of Pixels in Spectrum: 2048
>>>>>Begin Spectral Data<<<<<
177.721	-339.61
178.105	-3.29
178.488	90.67
178.871	14.25
179.254	22.31
179.636	-240.28
180.019	12.64
180.402	125
180.785	-98.07
181.168	-159.26
181.55	-11.11
181.933	55.25
182.316	64.01
182.698	78.38
183.081	39.89
183.463	-46.3
183.846	66.49
184.228	73.42
184.611	178.52
184.993	938.38
185.376	404.03
185.758	-1874.36
186.14	189.32
186.522	139.28
186.904	62.18
187.287	113.94
187.669	-310.85
188.051	234.58
188.433	2729.63
188.815	-82.8
189.197	-245.57
189.579	-86.5
189.961	-72.25
190.342	-95.72
190.724	-89.79
191.106	-87.9
191.488	-140.63
191.869	-58.45
192.251	-101.96
192.633	-79.91
193.014	-99.83
193.396	-158.05
193.777	-219.68
194.159	-242.22
194.54	-138.84
194.922	-126.58
195.303	-124.2
195.684	-160.28
196.065	-123.32
196.447	-120.69
196.828	-160.23
197.209	-123.26
197.59	-134.6
197.971	-156.52
198.352	-125.46
198.733	-136.48
199.114	-103.31
199.495	-74.91
199.876	-86.21
200.257	-74.83
200.638	-67.27
201.018	-71.78
201.399	-55.58
201.78	-52.13
202.16	-54.68
202.541	-64.27
202.922	-67.62
203.302	-78.73
203.683	-79.61
204.063	-75.23
204.444	-63.64
204.824	-58.24
205.204	-47.24
205.585	-54.18
205.965	-46.16
206.345	-55.17
206.725	-59.43
207.106	-73.38
207.486	-90.93
207.866	-84.89
208.246	-87.09
208.626	-95.74
209.006	-88.68
209.386	-101.9
209.766	-110.93
210.145	-95.55
210.525	-81.39
210.905	-81.73
211.285	-79.63
211.664	-68.56
212.044	-53.83
212.424	-73.19
212.803	-70.99
213.183	-76.44
213.562	-56.41
213.942	-35.07
214.321	-26.23
214.701	-31.66
215.08	-47.74
215.459	-44.55
215.838	-48.12
216.218	-51.52
216.597	-39.86
216.976	-30.13
217.355	-26.6
217.734	-18.58
218.113	-22.09
218.492	-13.98
218.871	-14.53
219.25	1.32
219.629	-10.12
220.008	-13.09
220.387	-15.69
220.766	-12.91
221.144	-22.45
221.523	-28.36
221.902	-41.43
222.28	-40.24
222.659	-26.44
223.037	-21.92
223.416	-19.53
223.794	-23.67
224.173	-16.52
224.551	-17.3
224.929	-15.64
225.308	-9.76
225.686	-9.83
226.064	-7.57
226.442	-10.9
226.821	-7.63
227.199	-10.98
227.577	-13.14
227.955	-14.39
228.333	-12.1
228.711	-12.98
229.089	-8.75
229.467	-10.35
229.845	-9.97
230.222	-11.79
230.6	-10.73
230.978	-10.1
231.356	-9.33
231.733	-8.08
232.111	-8.43
232.488	-7.12
232.866	-7.12
233.243	-8.2
233.621	-9.13
233.998	-8.56
234.376	-9.61
234.753	-10.25
235.13	-9.64
235.508	-8.92
235.885	-8.52
236.262	-7.38
236.639	-6.39
237.016	-5.61
237.393	-3.57
237.77	-3.16
238.147	-1.65
238.524	-1.08
238.901	0.25
239.278	0.36
239.655	0.9
240.032	0.98
240.409	0.71
240.785	0.7
241.162	1.34
241.539	1.84
241.915	1.68
242.292	1.64
242.668	1.34
243.045	1.31
243.421	1.68
243.798	1.77
244.174	1.9
244.551	2.01
244.927	1.73
245.303	1.99
245.679	2.19
246.056	2.2
246.432	2.23
246.808	2.08
247.184	1.97
247.56	2.03
247.936	1.93
248.312	1.96
248.688	2.1
249.064	1.78
249.44	1.85
249.815	1.86
250.191	2.18
250.567	2.36
250.943	2.53
251.318	2.52
251.694	2.42
252.069	2.12
252.445	2.17
252.82	2.02
253.196	1.75
253.571	1.66
253.947	1.69
254.322	1.61
254.697	1.85
255.073	1.72
255.448	1.48
255.823	1.97
256.198	2.11
256.573	2.22
256.948	2.59
257.323	2.61
257.698	2.79
258.073	2.45
258.448	2.55
258.823	2.42
259.198	2.32
259.573	2.38
259.948	2.52
260.322	2.55
260.697	2.64
261.072	2.65
261.446	2.61
261.821	2.37
262.195	2.38
262.57	2.3
262.944	2.26
263.319	2.3
263.693	2.12
264.067	2.11
264.442	2.05
264.816	1.9
265.19	1.8
265.564	1.72
265.938	1.71
266.313	1.63
266.687	1.69
267.061	1.85
267.435	1.88
267.809	1.85
268.183	1.75
268.556	1.77
268.93	1.69
269.304	1.81
269.678	2.14
270.051	2.06
270.425	1.97
270.799	2.05
271.172	1.94
271.546	1.84
271.919	1.77
272.293	1.72
272.666	1.82
273.04	1.78
273.413	1.74
273.787	1.86
274.16	1.8
274.533	1.74
274.906	1.59
275.279	1.52
275.653	1.56
276.026	1.49
276.399	1.53
276.772	1.6
277.145	1.41
277.518	1.43
277.891	1.4
278.263	1.31
278.636	1.36
279.009	1.38
279.382	1.67
279.755	1.61
280.127	1.74
280.5	1.61
280.872	1.79
281.245	1.75
281.617	1.87
281.99	1.99
282.362	1.99
282.735	1.86
283.107	1.91
283.479	1.92
283.852	1.91
284.224	1.98
284.596	1.84
284.968	1.88
285.34	1.77
285.713	1.73
286.085	1.95
286.457	2.01
286.829	2.08
287.201	1.98
287.572	2.05
287.944	2.08
288.316	2.15
288.688	2.06
289.06	2.07
289.431	1.99
289.803	1.96
290.175	2.06
290.546	2.19
290.918	2.3
291.289	2.31
291.661	2.32
292.032	2.25
292.403	2.38
292.775	2.44
293.146	2.45
293.517	2.51
293.889	2.55
294.26	2.52
294.631	2.57
295.002	2.55
295.373	2.49
295.744	2.43
296.115	2.41
296.486	2.38
296.857	2.46
297.228	2.5
297.599	2.57
297.97	2.61
298.34	2.61
298.711	2.58
299.082	2.56
299.452	2.59
299.823	2.67
300.194	2.6
300.564	2.62
300.935	2.69
301.305	2.75
301.676	2.71
302.046	2.66
302.416	2.84
302.787	2.87
303.157	2.9
303.527	2.94
303.897	3.01
304.267	3.12
304.637	2.99
305.008	3.01
305.378	2.89
305.748	2.86
306.117	2.86
306.487	2.79
306.857	2.8
307.227	2.87
307.597	2.77
307.967	2.91
308.336	2.87
308.706	2.89
309.076	2.78
309.445	2.69
309.815	2.72
310.184	2.58
310.554	2.62
310.923	2.63
311.293	2.58
311.662	2.58
312.031	2.45
312.401	2.45
312.77	2.49
313.139	2.51
313.508	2.46
313.877	2.5
314.246	2.47
314.616	2.36
314.985	2.4
315.353	2.3
315.722	2.32
316.091	2.28
316.46	2.37
316.829	2.42
317.198	2.38
317.567	2.26
317.935	2.19
318.304	2.1
318.672	2.06
319.041	2.09
319.41	2.2
319.778	2.21
320.147	2.29
320.515	2.19
320.883	2.21
321.252	2.37
321.62	2.41
321.988	2.43
322.357	2.45
322.725	2.34
323.093	2.61
323.461	2.55
323.829	2.53
324.197	2.29
324.565	2.3
324.933	2.36
325.301	2.46
325.669	2.46
326.037	2.49
326.405	2.52
326.772	2.48
327.14	2.43
327.508	2.34
327.875	2.36
328.243	2.33
328.61	2.35
328.978	2.25
329.346	2.17
329.713	2.23
330.08	2.36
330.448	2.33
330.815	2.13
331.182	2.14
331.55	2.19
331.917	2.35
332.284	2.52
332.651	2.42
333.018	2.4
333.385	2.36
333.752	2.38
334.119	2.41
334.486	2.35
334.853	2.27
335.22	2.37
335.587	2.4
335.954	2.45
336.32	2.3
336.687	2.27
337.054	2.27
337.42	2.16
337.787	2.11
338.153	2.1
338.52	2.13
338.886	2.05
339.253	2.02
339.619	1.94
339.986	1.76
340.352	1.94
340.718	2.02
341.084	2.01
341.451	2.06
341.817	2.15
342.183	2.18
342.549	2.22
342.915	2.25
343.281	2.2
343.647	2.16
344.013	2.24
344.379	2.3
344.745	2.31
345.11	2.39
345.476	2.33
345.842	2.34
346.208	2.31
346.573	2.34
346.939	2.49
347.304	2.45
347.67	2.47
348.035	2.3
348.401	2.2
348.766	2.23
349.132	2.19
349.497	2.05
349.862	2.14
350.228	2.15
350.593	2.08
350.958	2.06
351.323	2.04
351.688	2.03
352.053	1.92
352.418	1.97
352.783	1.99
353.148	2.06
353.513	2.03
353.878	2.07
354.243	2.1
354.608	2
354.972	2.07
355.337	2.12
355.702	2.21
356.066	2.3
356.431	2.34
356.795	2.37
357.16	2.37
357.524	2.23
357.889	2.13
358.253	2.2
358.618	2.27
358.982	2.31
359.346	2.32
359.71	2.32
360.075	2.28
360.439	2.27
360.803	2.2
361.167	2.19
361.531	2.22
361.895	2.17
362.259	2.14
362.623	2.15
362.987	2.15
363.351	2.22
363.714	2.23
364.078	2.19
364.442	2.14
364.806	2.15
365.169	2.22
365.533	2.29
365.896	2.27
366.26	2.26
366.623	2.29
366.987	2.28
367.35	2.37
367.714	2.37
368.077	2.29
368.44	2.36
368.803	2.4
369.167	2.38
369.53	2.38
369.893	2.43
370.256	2.45
370.619	2.41
370.982	2.28
371.345	2.23
371.708	2.3
372.071	2.31
372.434	2.3
372.797	2.25
373.159	2.28
373.522	2.35
373.885	2.33
374.247	2.28
374.61	2.28
374.973	2.25
375.335	2.27
375.698	2.31
376.06	2.29
376.423	2.28
376.785	2.29
377.147	2.32
377.51	2.31
377.872	2.37
378.234	2.37
378.596	2.38
378.958	2.33
379.321	2.3
379.683	2.29
380.045	2.3
380.407	2.31
380.769	2.31
381.13	2.28
381.492	2.26
381.854	2.33
382.216	2.37
382.578	2.4
382.939	2.42
383.301	2.39
383.663	2.43
384.024	2.42
384.386	2.41
384.747	2.44
385.109	2.44
385.47	2.35
385.832	2.39
386.193	2.45
386.554	2.49
386.916	2.5
387.277	2.53
387.638	2.53
387.999	2.54
388.36	2.54
388.721	2.55
389.082	2.62
389.443	2.55
389.804	2.54
390.165	2.49
390.526	2.48
390.887	2.52
391.248	2.52
391.609	2.52
391.969	2.53
392.33	2.52
392.691	2.53
393.051	2.52
393.412	2.51
393.772	2.46
394.133	2.47
394.493	2.43
394.854	2.42
395.214	2.41
395.574	2.4
395.935	2.39
396.295	2.39
396.655	2.35
397.015	2.34
397.376	2.37
397.736	2.39
398.096	2.39
398.456	2.39
398.816	2.34
399.176	2.36
399.535	2.37
399.895	2.35
400.255	2.35
400.615	2.39
400.975	2.4
401.334	2.44
401.694	2.42
402.054	2.44
402.413	2.46
402.773	2.43
403.132	2.44
403.492	2.44
403.851	2.41
404.211	2.42
404.57	2.43
404.929	2.43
405.288	2.42
405.648	2.41
406.007	2.43
406.366	2.47
406.725	2.47
407.084	2.44
407.443	2.45
407.802	2.47
408.161	2.43
408.52	2.39
408.879	2.36
409.238	2.37
409.596	2.37
409.955	2.37
410.314	2.45
410.673	2.43
411.031	2.44
411.39	2.45
411.748	2.45
412.107	2.47
412.465	2.45
412.824	2.48
413.182	2.45
413.54	2.44
413.899	2.47
414.257	2.47
414.615	2.49
414.974	2.5
415.332	2.52
415.69	2.56
416.048	2.57
416.406	2.6
416.764	2.6
417.122	2.61
417.48	2.6
417.838	2.59
418.195	2.6
418.553	2.59
418.911	2.58
419.269	2.59
419.626	2.58
419.984	2.59
420.342	2.57
420.699	2.59
421.057	2.6
421.414	2.59
421.772	2.6
422.129	2.6
422.486	2.59
422.844	2.57
423.201	2.57
423.558	2.57
423.915	2.56
424.273	2.57
424.63	2.57
424.987	2.57
425.344	2.56
425.701	2.55
426.058	2.56
426.415	2.57
426.772	2.55
427.128	2.55
427.485	2.55
427.842	2.57
428.199	2.56
428.555	2.54
428.912	2.55
429.269	2.56
429.625	2.54
429.982	2.54
430.338	2.54
430.695	2.55
431.051	2.55
431.407	2.54
431.764	2.55
432.12	2.53
432.476	2.52
432.832	2.52
433.189	2.53
433.545	2.53
433.901	2.53
434.257	2.54
434.613	2.55
434.969	2.55
435.325	2.54
435.681	2.56
436.036	2.58
436.392	2.56
436.748	2.54
437.104	2.53
437.459	2.52
437.815	2.54
438.171	2.55
438.526	2.56
438.882	2.56
439.237	2.56
439.593	2.59
439.948	2.59
440.304	2.59
440.659	2.6
441.014	2.6
441.369	2.58
441.725	2.57
442.08	2.57
442.435	2.58
442.79	2.57
443.145	2.57
443.5	2.56
443.855	2.56
444.21	2.57
444.565	2.59
444.92	2.61
445.275	2.58
445.629	2.58
445.984	2.57
446.339	2.56
446.693	2.55
447.048	2.53
447.403	2.53
447.757	2.52
448.112	2.53
448.466	2.52
448.82	2.53
449.175	2.54
449.529	2.53
449.883	2.52
450.238	2.52
450.592	2.51
450.946	2.5
451.3	2.49
451.654	2.49
452.008	2.49
452.362	2.48
452.716	2.48
453.07	2.48
453.424	2.5
453.778	2.49
454.132	2.49
454.486	2.49
454.839	2.48
455.193	2.47
455.547	2.45
455.9	2.45
456.254	2.47
456.607	2.47
456.961	2.46
457.314	2.45
457.668	2.45
458.021	2.45
458.375	2.46
458.728	2.46
459.081	2.46
459.434	2.46
459.787	2.47
460.141	2.46
460.494	2.46
460.847	2.44
461.2	2.47
461.553	2.49
461.906	2.48
462.259	2.49
462.611	2.49
462.964	2.49
463.317	2.48
463.67	2.46
464.022	2.46
464.375	2.45
464.728	2.45
465.08	2.45
465.433	2.47
465.785	2.48
466.138	2.48
466.49	2.47
466.843	2.44
467.195	2.45
467.547	2.47
467.899	2.48
468.252	2.48
468.604	2.47
468.956	2.44
469.308	2.46
469.66	2.48
470.012	2.51
470.364	2.54
470.716	2.54
471.068	2.55
471.42	2.54
471.772	2.56
472.123	2.59
472.475	2.62
472.827	2.61
473.178	2.61
473.53	2.63
473.882	2.62
474.233	2.65
474.585	2.64
474.936	2.63
475.288	2.62
475.639	2.61
475.99	2.6
476.342	2.62
476.693	2.62
477.044	2.63
477.395	2.64
477.746	2.61
478.097	2.63
478.448	2.63
478.8	2.65
479.15	2.64
479.501	2.64
479.852	2.61
480.203	2.6
480.554	2.61
480.905	2.61
481.255	2.62
481.606	2.63
481.957	2.63
482.307	2.64
482.658	2.64
483.009	2.65
483.359	2.66
483.709	2.66
484.06	2.66
484.41	2.66
484.761	2.66
485.111	2.67
485.461	2.67
485.811	2.67
486.162	2.68
486.512	2.69
486.862	2.69
487.212	2.7
487.562	2.71
487.912	2.71
488.262	2.71
488.612	2.71
488.961	2.7
489.311	2.71
489.661	2.71
490.011	2.72
490.36	2.71
490.71	2.71
491.06	2.71
491.409	2.72
491.759	2.71
492.108	2.72
492.458	2.71
492.807	2.71
493.157	2.72
493.506	2.71
493.855	2.69
494.204	2.68
494.554	2.69
494.903	2.67
495.252	2.68
495.601	2.68
495.95	2.69
496.299	2.67
496.648	2.66
496.997	2.66
497.346	2.67
497.695	2.67
498.043	2.66
498.392	2.65
498.741	2.66
499.09	2.65
499.438	2.65
499.787	2.65
500.135	2.67
500.484	2.67
500.832	2.66
501.181	2.66
501.529	2.66
501.878	2.65
502.226	2.66
502.574	2.67
502.923	2.66
503.271	2.65
503.619	2.68
503.967	2.68
504.315	2.67
504.663	2.64
505.011	2.64
505.359	2.65
505.707	2.66
506.055	2.64
506.403	2.65
506.751	2.64
507.098	2.66
507.446	2.66
507.794	2.65
508.141	2.65
508.489	2.67
508.837	2.66
509.184	2.68
509.531	2.68
509.879	2.69
510.226	2.71
510.574	2.71
510.921	2.72
511.268	2.71
511.616	2.71
511.963	2.72
512.31	2.72
512.657	2.73
513.004	2.75
513.351	2.75
513.698	2.76
514.045	2.77
514.392	2.78
514.739	2.78
515.086	2.78
515.432	2.79
515.779	2.76
516.126	2.79
516.473	2.82
516.819	2.84
517.166	2.82
517.512	2.82
517.859	2.83
518.205	2.82
518.552	2.83
518.898	2.84
519.245	2.84
519.591	2.85
519.937	2.83
520.283	2.83
520.629	2.84
520.976	2.83
521.322	2.82
521.668	2.81
522.014	2.81
522.36	2.82
522.706	2.82
523.052	2.84
523.398	2.85
523.743	2.83
524.089	2.82
524.435	2.81
524.781	2.82
525.126	2.81
525.472	2.81
525.817	2.83
526.163	2.82
526.509	2.84
526.854	2.83
527.199	2.84
527.545	2.84
527.89	2.83
528.235	2.84
528.581	2.85
528.926	2.85
529.271	2.86
529.616	2.85
529.961	2.85
530.306	2.85
530.651	2.83
530.996	2.84
531.341	2.84
531.686	2.85
532.031	2.85
532.376	2.85
532.721	2.86
533.065	2.85
533.41	2.86
533.755	2.85
534.099	2.86
534.444	2.85
534.788	2.86
535.133	2.86
535.477	2.86
535.822	2.86
536.166	2.85
536.51	2.84
536.855	2.86
537.199	2.86
537.543	2.86
537.887	2.87
538.231	2.85
538.576	2.85
538.92	2.86
539.264	2.86
539.608	2.86
539.951	2.86
540.295	2.86
540.639	2.87
540.983	2.87
541.327	2.88
541.671	2.88
542.014	2.87
542.358	2.88
542.701	2.88
543.045	2.9
543.389	2.91
543.732	2.91
544.075	2.9
544.419	2.91
544.762	2.92
545.105	2.94
545.449	2.95
545.792	2.97
546.135	2.96
546.478	2.96
546.821	2.96
547.165	2.94
547.508	2.93
547.851	2.92
548.194	2.9
548.536	2.89
548.879	2.9
549.222	2.91
549.565	2.9
549.908	2.91
550.25	2.89
550.593	2.9
550.936	2.89
551.278	2.87
551.621	2.86
551.963	2.85
552.306	2.82
552.648	2.8
552.991	2.81
553.333	2.8
553.675	2.8
554.017	2.81
554.36	2.84
554.702	2.89
555.044	2.87
555.386	2.91
555.728	2.92
556.07	2.92
556.412	2.89
556.754	2.86
557.096	2.83
557.438	2.84
557.78	2.84
558.121	2.86
558.463	2.93
558.805	2.93
559.147	2.9
559.488	2.91
559.83	2.89
560.171	2.88
560.513	2.9
560.854	2.89
561.196	2.88
561.537	2.88
561.878	2.83
562.22	2.82
562.561	2.82
562.902	2.83
563.243	2.84
563.584	2.87
563.925	2.91
564.266	2.95
564.607	2.94
564.948	2.95
565.289	2.95
565.63	2.89
565.971	2.88
566.312	2.88
566.653	2.88
566.993	2.91
567.334	2.92
567.675	2.89
568.015	2.89
568.356	2.89
568.696	2.92
569.037	2.93
569.377	2.97
569.718	2.97
570.058	2.95
570.398	2.97
570.739	2.96
571.079	2.95
571.419	2.94
571.759	2.95
572.099	2.93
572.439	2.93
572.779	2.94
573.119	2.96
573.459	2.96
573.799	2.97
574.139	2.96
574.479	2.95
574.819	2.95
575.158	2.96
575.498	2.95
575.838	2.94
576.177	2.92
576.517	2.88
576.856	2.86
577.196	2.87
577.535	2.83
577.875	2.85
578.214	2.84
578.553	2.82
578.893	2.81
579.232	2.81
579.571	2.79
579.91	2.8
580.25	2.79
580.589	2.82
580.928	2.82
581.267	2.84
581.606	2.82
581.945	2.83
582.283	2.84
582.622	2.86
582.961	2.82
583.3	2.87
583.639	2.89
583.977	2.93
584.316	2.93
584.654	2.91
584.993	2.89
585.332	2.9
585.67	2.93
586.008	2.91
586.347	2.9
586.685	2.92
587.024	2.92
587.362	2.94
587.7	2.94
588.038	2.93
588.376	2.88
588.715	2.87
589.053	2.91
589.391	2.93
589.729	2.93
590.067	2.94
590.404	2.92
590.742	2.94
591.08	2.89
591.418	2.91
591.756	2.95
592.093	2.92
592.431	2.94
592.769	2.91
593.106	2.92
593.444	2.88
593.781	2.89
594.119	2.9
594.456	2.89
594.793	2.88
595.131	2.88
595.468	2.93
595.805	2.95
596.143	2.95
596.48	2.94
596.817	2.93
597.154	2.96
597.491	2.96
597.828	2.97
598.165	2.98
598.502	2.97
598.839	2.94
599.176	2.96
599.512	2.97
599.849	3
600.186	2.98
600.523	3.03
600.859	3.07
601.196	3.06
601.532	3.03
601.869	3.01
602.205	3
602.542	2.97
602.878	2.97
603.215	2.98
603.551	2.99
603.887	3
604.223	3
604.56	3.02
604.896	3
605.232	3
605.568	3
605.904	2.99
606.24	3.01
606.576	2.98
606.912	2.97
607.248	2.99
607.583	3.04
607.919	2.98
608.255	2.99
608.591	3.02
608.926	3.07
609.262	3.12
609.597	3.14
609.933	3.15
610.268	3.14
610.604	3.14
610.939	3.12
611.275	3.11
611.61	3.1
611.945	3.07
612.281	3.07
612.616	3.08
612.951	3.14
613.286	3.17
613.621	3.18
613.956	3.17
614.291	3.15
614.626	3.09
614.961	3.11
615.296	3.09
615.631	3.08
615.966	3.07
616.3	3.01
616.635	3.03
616.97	2.99
617.304	2.99
617.639	2.96
617.973	2.94
618.308	2.92
618.642	2.94
618.977	2.93
619.311	2.9
619.646	2.87
619.98	2.81
620.314	2.8
620.648	2.8
620.983	2.85
621.317	2.84
621.651	2.85
621.985	2.86
622.319	2.85
622.653	2.87
622.987	2.85
623.321	2.86
623.655	2.84
623.988	2.92
624.322	2.89
624.656	2.95
624.99	3
625.323	3.04
625.657	3.02
625.99	3.07
626.324	3.1
626.657	3.16
626.991	3.18
627.324	3.18
627.658	3.2
627.991	3.17
628.324	3.2
628.657	3.22
628.991	3.23
629.324	3.26
629.657	3.27
629.99	3.31
630.323	3.3
630.656	3.33
630.989	3.34
631.322	3.37
631.655	3.31
631.987	3.34
632.32	3.27
632.653	3.32
632.986	3.33
633.318	3.31
633.651	3.26
633.984	3.25
634.316	3.22
634.649	3.18
634.981	3.13
635.313	3.17
635.646	3.13
635.978	3.16
636.31	3.13
636.643	3.14
636.975	3.08
637.307	3.1
637.639	3.05
637.971	3
638.303	3
638.635	2.98
638.967	2.95
639.299	3.03
639.631	2.96
639.963	2.86
640.295	2.89
640.626	2.88
640.958	2.87
641.29	2.85
641.621	2.86
641.953	2.92
642.285	2.82
642.616	2.92
642.948	2.9
643.279	2.89
643.61	2.84
643.942	2.89
644.273	2.85
644.604	2.85
644.936	2.77
645.267	2.75
645.598	2.78
645.929	2.87
646.26	2.88
646.591	2.86
646.922	2.89
647.253	2.88
647.584	2.87
647.915	2.85
648.245	2.9
648.576	2.93
648.907	2.93
649.238	2.92
649.568	2.82
649.899	2.83
650.229	2.91
650.56	2.94
650.89	2.98
651.221	2.99
651.551	3.04
651.882	3.12
652.212	3.14
652.542	3.17
652.872	3.03
653.203	3.01
653.533	3.04
653.863	3.1
654.193	3.04
654.523	3.06
654.853	3.12
655.183	3.11
655.513	3.05
655.843	3.06
656.172	3.14
656.502	3.17
656.832	3.11
657.162	3.13
657.491	3.11
657.821	3.08
658.15	3.07
658.48	3.06
658.809	3.08
659.139	3.03
659.468	2.95
659.798	3.02
660.127	3.04
660.456	3.07
660.785	3.1
661.115	3.19
661.444	3.18
661.773	3.18
662.102	3.2
662.431	3.25
662.76	3.22
663.089	3.18
663.418	3.17
663.747	3.19
664.076	3.12
664.404	3.1
664.733	3.13
665.062	3.2
665.39	3.2
665.719	3.14
666.048	3.21
666.376	3.24
666.705	3.15
667.033	3.05
667.362	3.02
667.69	2.87
668.018	2.81
668.347	2.77
668.675	2.76
669.003	2.74
669.331	2.78
669.659	2.86
669.987	2.83
670.315	2.88
670.643	2.81
670.971	2.88
671.299	2.89
671.627	2.83
671.955	2.73
672.283	2.72
672.61	2.72
672.938	2.73
673.266	2.8
673.593	2.94
673.921	2.93
674.249	2.93
674.576	3.06
674.904	3.13
675.231	3.22
675.558	3.26
675.886	3.22
