Data from BU58140_Reflection_00003.txt Node
Date: Tue Nov 19 10:53:25 EST 2019
User: vgr7
Spectrometer: USB2G7710
Scans to average: 3
Trigger mode: 4
Integration Time (sec): 2.000000E-2
Electric dark correction enabled: true
Boxcar width: 10
XAxis mode: Wavelengths
Number of Pixels in Spectrum: 2048
>>>>>Begin Spectral Data<<<<<
177.721	651.8
178.105	-258.97
178.488	-69.32
178.871	-147.62
179.254	-94.44
179.636	415.6
180.019	785.9
180.402	766.67
180.785	97.92
181.168	-561.46
181.55	1547.92
181.933	707.64
182.316	248.5
182.698	131.89
183.081	84.29
183.463	96.74
183.846	175.14
184.228	226.3
184.611	1337.18
184.993	-291.67
185.376	-190.16
185.758	-167.08
186.14	-539.58
186.522	-373
186.904	-208.33
187.287	-206.35
187.669	-116.23
188.051	-119.01
188.433	-140.6
188.815	-130.46
189.197	-115.28
189.579	-95.64
189.961	-77.76
190.342	-62.27
190.724	-86.63
191.106	-90.16
191.488	-68.76
191.869	-41.05
192.251	-25.6
192.633	-40.8
193.014	-54.64
193.396	-53.74
193.777	-40.59
194.159	-27.81
194.54	-13.75
194.922	-23.12
195.303	-22.98
195.684	-27.47
196.065	-30.71
196.447	-21.49
196.828	-30.16
197.209	-13.78
197.59	-7.88
197.971	-0.67
198.352	-10.92
198.733	-8.74
199.114	-2.96
199.495	3.48
199.876	-10.94
200.257	-14.19
200.638	-3.2
201.018	-4.46
201.399	-0.59
201.78	-1.34
202.16	-6.42
202.541	-16.56
202.922	-16.04
203.302	-20.89
203.683	-24.66
204.063	-22.03
204.444	-19.72
204.824	-15.8
205.204	-23.86
205.585	-25.15
205.965	-33.43
206.345	-28.19
206.725	-36.73
207.106	-28.98
207.486	-39.77
207.866	-33.43
208.246	-23.58
208.626	-30.16
209.006	-34.45
209.386	-32.69
209.766	-41.52
210.145	-47.2
210.525	-41.94
210.905	-37.37
211.285	-32.04
211.664	-19.18
212.044	-26.65
212.424	-32.35
212.803	-32.71
213.183	-35.23
213.562	-31.64
213.942	-33.3
214.321	-40.69
214.701	-41.01
215.08	-47.98
215.459	-36.89
215.838	-44.41
216.218	-63.84
216.597	-55.83
216.976	-54.64
217.355	-61.22
217.734	-46.66
218.113	-27.8
218.492	-29.32
218.871	-40.6
219.25	-43.04
219.629	-58.4
220.008	-51.47
220.387	-54.53
220.766	-58.37
221.144	-58.5
221.523	-58.48
221.902	-51.47
222.28	-41.74
222.659	-31.98
223.037	-37.66
223.416	-39.5
223.794	-35.51
224.173	-35.22
224.551	-36.67
224.929	-38
225.308	-32.38
225.686	-32.58
226.064	-40.31
226.442	-32.91
226.821	-24.85
227.199	-24.12
227.577	-21.01
227.955	-15.48
228.333	-16.93
228.711	-13.99
229.089	-13.04
229.467	-14.39
229.845	-17.91
230.222	-14.48
230.6	-12.7
230.978	-9.04
231.356	-10.44
231.733	-9.41
232.111	-9.64
232.488	-9.03
232.866	-6.41
233.243	-6.36
233.621	-6.93
233.998	-3.81
234.376	-4.92
234.753	-5.14
235.13	-4.22
235.508	-4.35
235.885	-5.01
236.262	-4.39
236.639	-4.99
237.016	-5.01
237.393	-2.87
237.77	-0.37
238.147	0.05
238.524	0.26
238.901	-0.18
239.278	-0.15
239.655	0.46
240.032	1.48
240.409	2.02
240.785	2.26
241.162	2.54
241.539	2.95
241.915	2.32
242.292	2.67
242.668	2.96
243.045	3.22
243.421	3.38
243.798	3.18
244.174	3.45
244.551	3.51
244.927	3.76
245.303	3.72
245.679	3.75
246.056	3.64
246.432	3.49
246.808	3.72
247.184	4.22
247.56	3.92
247.936	3.99
248.312	3.98
248.688	3.91
249.064	3.89
249.44	3.73
249.815	3.66
250.191	3.59
250.567	3.34
250.943	3.31
251.318	3.22
251.694	3.21
252.069	3.18
252.445	3.33
252.82	3.26
253.196	3.2
253.571	3.06
253.947	3.1
254.322	3.02
254.697	2.94
255.073	2.45
255.448	2.75
255.823	2.63
256.198	2.87
256.573	2.9
256.948	2.81
257.323	3.12
257.698	3.22
258.073	3.52
258.448	3.62
258.823	3.43
259.198	3.59
259.573	3.63
259.948	3.63
260.322	3.61
260.697	3.79
261.072	3.92
261.446	3.96
261.821	3.83
262.195	3.97
262.57	4.08
262.944	4.22
263.319	4.16
263.693	4.21
264.067	4.16
264.442	4.18
264.816	4.19
265.19	4.04
265.564	4.04
265.938	3.63
266.313	3.65
266.687	3.74
267.061	3.51
267.435	3.61
267.809	3.65
268.183	3.68
268.556	3.38
268.93	3.18
269.304	3.17
269.678	3.39
270.051	3.14
270.425	3
270.799	3.07
271.172	3.15
271.546	3.24
271.919	3.3
272.293	3.38
272.666	3.47
273.04	3.51
273.413	3.51
273.787	3.59
274.16	3.63
274.533	3.75
274.906	3.71
275.279	3.63
275.653	3.41
276.026	3.42
276.399	3.53
276.772	3.53
277.145	3.61
277.518	3.52
277.891	3.7
278.263	3.87
278.636	3.83
279.009	3.8
279.382	3.75
279.755	3.6
280.127	3.61
280.5	3.75
280.872	3.77
281.245	3.86
281.617	3.77
281.99	3.91
282.362	3.99
282.735	4.08
283.107	4.07
283.479	4.23
283.852	4.19
284.224	4.32
284.596	4.21
284.968	4.07
285.34	4.13
285.713	4.16
286.085	3.94
286.457	3.86
286.829	3.92
287.201	3.97
287.572	4.14
287.944	4.16
288.316	4.03
288.688	4.09
289.06	3.99
289.431	4.05
289.803	4.01
290.175	3.94
290.546	3.89
290.918	3.96
291.289	3.91
291.661	3.82
292.032	3.68
292.403	3.79
292.775	3.95
293.146	3.97
293.517	3.87
293.889	3.95
294.26	3.99
294.631	3.98
295.002	3.92
295.373	3.81
295.744	3.76
296.115	3.79
296.486	3.6
296.857	3.67
297.228	3.64
297.599	3.54
297.97	3.53
298.34	3.62
298.711	3.65
299.082	3.67
299.452	3.73
299.823	3.77
300.194	3.82
300.564	3.67
300.935	3.67
301.305	3.62
301.676	3.55
302.046	3.48
302.416	3.44
302.787	3.52
303.157	3.56
303.527	3.53
303.897	3.47
304.267	3.62
304.637	3.69
305.008	3.78
305.378	3.9
305.748	3.78
306.117	3.64
306.487	3.73
306.857	3.87
307.227	3.89
307.597	3.98
307.967	4.05
308.336	4.18
308.706	4.14
309.076	4.32
309.445	4.42
309.815	4.6
310.184	4.62
310.554	4.48
310.923	4.27
311.293	4.29
311.662	4.32
312.031	4.34
312.401	4.27
312.77	4.19
313.139	4.09
313.508	4.19
313.877	4.3
314.246	4.12
314.616	4.07
314.985	4.02
315.353	3.97
315.722	4
316.091	3.94
316.46	3.97
316.829	3.89
317.198	3.9
317.567	3.8
317.935	3.88
318.304	4.17
318.672	4.43
319.041	4.45
319.41	4.47
319.778	4.49
320.147	4.52
320.515	4.49
320.883	4.58
321.252	4.74
321.62	4.74
321.988	4.86
322.357	4.8
322.725	4.91
323.093	4.84
323.461	4.77
323.829	4.79
324.197	4.72
324.565	4.77
324.933	4.77
325.301	4.67
325.669	4.53
326.037	4.37
326.405	4.3
326.772	4.32
327.14	4.25
327.508	4.3
327.875	4.36
328.243	4.45
328.61	4.43
328.978	4.24
329.346	4.27
329.713	4.19
330.08	4.19
330.448	4.12
330.815	4.12
331.182	4.16
331.55	4.15
331.917	4.32
332.284	4.26
332.651	4.18
333.018	4.23
333.385	4.29
333.752	4.33
334.119	4.46
334.486	4.37
334.853	4.43
335.22	4.32
335.587	4.24
335.954	4.13
336.32	4.1
336.687	4.24
337.054	4.27
337.42	4.35
337.787	4.35
338.153	4.28
338.52	4.3
338.886	4.3
339.253	4.23
339.619	4.1
339.986	4.05
340.352	4.16
340.718	4.19
341.084	4.16
341.451	4.19
341.817	4.09
342.183	4.09
342.549	4.11
342.915	4.13
343.281	4.21
343.647	4.3
344.013	4.33
344.379	4.27
344.745	4.25
345.11	4.18
345.476	4.18
345.842	4.26
346.208	4.27
346.573	4.25
346.939	4.3
347.304	4.28
347.67	4.37
348.035	4.23
348.401	4.27
348.766	4.26
349.132	4.28
349.497	4.33
349.862	4.36
350.228	4.35
350.593	4.37
350.958	4.32
351.323	4.26
351.688	4.25
352.053	4.19
352.418	4.14
352.783	4.2
353.148	4.27
353.513	4.27
353.878	4.28
354.243	4.3
354.608	4.34
354.972	4.37
355.337	4.38
355.702	4.5
356.066	4.46
356.431	4.56
356.795	4.58
357.16	4.58
357.524	4.58
357.889	4.57
358.253	4.55
358.618	4.6
358.982	4.64
359.346	4.66
359.71	4.74
360.075	4.83
360.439	4.79
360.803	4.71
361.167	4.7
361.531	4.77
361.895	4.72
362.259	4.71
362.623	4.71
362.987	4.71
363.351	4.65
363.714	4.67
364.078	4.66
364.442	4.6
364.806	4.6
365.169	4.59
365.533	4.59
365.896	4.61
366.26	4.56
366.623	4.55
366.987	4.51
367.35	4.48
367.714	4.42
368.077	4.37
368.44	4.46
368.803	4.48
369.167	4.43
369.53	4.46
369.893	4.51
370.256	4.52
370.619	4.51
370.982	4.5
371.345	4.51
371.708	4.51
372.071	4.47
372.434	4.46
372.797	4.47
373.159	4.4
373.522	4.37
373.885	4.37
374.247	4.36
374.61	4.34
374.973	4.31
375.335	4.3
375.698	4.28
376.06	4.25
376.423	4.24
376.785	4.24
377.147	4.26
377.51	4.2
377.872	4.18
378.234	4.18
378.596	4.2
378.958	4.17
379.321	4.08
379.683	4.13
380.045	4.07
380.407	4.05
380.769	4.09
381.13	4.09
381.492	4.11
381.854	4.11
382.216	4.15
382.578	4.15
382.939	4.15
383.301	4.17
383.663	4.12
384.024	4.13
384.386	4.11
384.747	4.06
385.109	4.05
385.47	4.09
385.832	4.06
386.193	4.04
386.554	4.02
386.916	4.05
387.277	4.03
387.638	4.07
387.999	4.09
388.36	4.11
388.721	4.1
389.082	4.13
389.443	4.11
389.804	4.1
390.165	4.15
390.526	4.15
390.887	4.18
391.248	4.2
391.609	4.23
391.969	4.23
392.33	4.22
392.691	4.23
393.051	4.2
393.412	4.21
393.772	4.22
394.133	4.21
394.493	4.21
394.854	4.24
395.214	4.25
395.574	4.24
395.935	4.21
396.295	4.24
396.655	4.18
397.015	4.19
397.376	4.17
397.736	4.14
398.096	4.12
398.456	4.1
398.816	4.09
399.176	4.02
399.535	4
399.895	4.05
400.255	4.02
400.615	4.01
400.975	4.02
401.334	3.98
401.694	3.99
402.054	4
402.413	3.95
402.773	3.92
403.132	3.92
403.492	3.93
403.851	3.91
404.211	3.91
404.57	3.91
404.929	3.9
405.288	3.86
405.648	3.84
406.007	3.84
406.366	3.82
406.725	3.85
407.084	3.83
407.443	3.8
407.802	3.8
408.161	3.79
408.52	3.78
408.879	3.82
409.238	3.83
409.596	3.83
409.955	3.82
410.314	3.84
410.673	3.81
411.031	3.82
411.39	3.83
411.748	3.88
412.107	3.87
412.465	3.87
412.824	3.9
413.182	3.93
413.54	3.93
413.899	3.93
414.257	3.93
414.615	3.97
414.974	3.99
415.332	4.02
415.69	4.04
416.048	4.05
416.406	4.04
416.764	4.03
417.122	4.01
417.48	4.01
417.838	4.01
418.195	4.02
418.553	4
418.911	3.99
419.269	3.98
419.626	4
419.984	3.99
420.342	3.99
420.699	3.99
421.057	3.98
421.414	3.99
421.772	3.99
422.129	3.96
422.486	3.94
422.844	3.93
423.201	3.92
423.558	3.91
423.915	3.91
424.273	3.9
424.63	3.91
424.987	3.91
425.344	3.91
425.701	3.92
426.058	3.93
426.415	3.92
426.772	3.9
427.128	3.89
427.485	3.9
427.842	3.88
428.199	3.87
428.555	3.86
428.912	3.85
429.269	3.83
429.625	3.86
429.982	3.86
430.338	3.87
430.695	3.86
431.051	3.86
431.407	3.85
431.764	3.84
432.12	3.86
432.476	3.89
432.832	3.88
433.189	3.86
433.545	3.85
433.901	3.86
434.257	3.87
434.613	3.87
434.969	3.83
435.325	3.84
435.681	3.85
436.036	3.85
436.392	3.84
436.748	3.86
437.104	3.85
437.459	3.85
437.815	3.86
438.171	3.87
438.526	3.89
438.882	3.89
439.237	3.91
439.593	3.91
439.948	3.88
440.304	3.87
440.659	3.88
441.014	3.86
441.369	3.88
441.725	3.9
442.08	3.88
442.435	3.92
442.79	3.92
443.145	3.92
443.5	3.93
443.855	3.92
444.21	3.92
444.565	3.93
444.92	3.94
445.275	3.92
445.629	3.91
445.984	3.89
446.339	3.88
446.693	3.87
447.048	3.85
447.403	3.85
447.757	3.85
448.112	3.85
448.466	3.86
448.82	3.84
449.175	3.8
449.529	3.81
449.883	3.78
450.238	3.78
450.592	3.76
450.946	3.75
451.3	3.77
451.654	3.75
452.008	3.72
452.362	3.7
452.716	3.7
453.07	3.71
453.424	3.71
453.778	3.7
454.132	3.67
454.486	3.69
454.839	3.69
455.193	3.69
455.547	3.69
455.9	3.69
456.254	3.7
456.607	3.72
456.961	3.71
457.314	3.71
457.668	3.72
458.021	3.73
458.375	3.72
458.728	3.69
459.081	3.71
459.434	3.73
459.787	3.74
460.141	3.75
460.494	3.75
460.847	3.75
461.2	3.76
461.553	3.79
461.906	3.8
462.259	3.79
462.611	3.78
462.964	3.79
463.317	3.78
463.67	3.78
464.022	3.78
464.375	3.78
464.728	3.8
465.08	3.79
465.433	3.8
465.785	3.82
466.138	3.85
466.49	3.85
466.843	3.85
467.195	3.84
467.547	3.83
467.899	3.86
468.252	3.85
468.604	3.85
468.956	3.85
469.308	3.84
469.66	3.86
470.012	3.88
470.364	3.89
470.716	3.93
471.068	3.94
471.42	3.97
471.772	4
472.123	3.99
472.475	4.01
472.827	4.03
473.178	4.02
473.53	4
473.882	3.99
474.233	3.98
474.585	3.98
474.936	4
475.288	3.99
475.639	4.01
475.99	4.01
476.342	4.02
476.693	4.01
477.044	3.99
477.395	4
477.746	3.97
478.097	3.95
478.448	3.94
478.8	3.93
479.15	3.91
479.501	3.91
479.852	3.9
480.203	3.9
480.554	3.92
480.905	3.94
481.255	3.95
481.606	3.97
481.957	3.99
482.307	3.98
482.658	3.98
483.009	3.98
483.359	3.98
483.709	3.98
484.06	3.97
484.41	3.98
484.761	3.98
485.111	3.99
485.461	3.99
485.811	3.99
486.162	3.99
486.512	3.99
486.862	3.99
487.212	3.99
487.562	3.98
487.912	3.98
488.262	3.97
488.612	3.96
488.961	3.95
489.311	3.94
489.661	3.95
490.011	3.93
490.36	3.91
490.71	3.9
491.06	3.9
491.409	3.91
491.759	3.9
492.108	3.89
492.458	3.89
492.807	3.88
493.157	3.89
493.506	3.88
493.855	3.89
494.204	3.89
494.554	3.9
494.903	3.91
495.252	3.92
495.601	3.93
495.95	3.95
496.299	3.96
496.648	3.95
496.997	3.95
497.346	3.98
497.695	3.99
498.043	4.01
498.392	4.01
498.741	4.01
499.09	4.03
499.438	4.05
499.787	4.06
500.135	4.06
500.484	4.06
500.832	4.08
501.181	4.09
501.529	4.11
501.878	4.1
502.226	4.12
502.574	4.11
502.923	4.11
503.271	4.1
503.619	4.12
503.967	4.12
504.315	4.13
504.663	4.13
505.011	4.15
505.359	4.15
505.707	4.17
506.055	4.19
506.403	4.19
506.751	4.19
507.098	4.2
507.446	4.21
507.794	4.23
508.141	4.24
508.489	4.24
508.837	4.26
509.184	4.28
509.531	4.28
509.879	4.3
510.226	4.3
510.574	4.32
510.921	4.31
511.268	4.33
511.616	4.35
511.963	4.36
512.31	4.37
512.657	4.39
513.004	4.38
513.351	4.41
513.698	4.41
514.045	4.42
514.392	4.43
514.739	4.46
515.086	4.48
515.432	4.49
515.779	4.48
516.126	4.51
516.473	4.48
516.819	4.49
517.166	4.51
517.512	4.52
517.859	4.52
518.205	4.54
518.552	4.55
518.898	4.54
519.245	4.55
519.591	4.55
519.937	4.56
520.283	4.56
520.629	4.56
520.976	4.56
521.322	4.56
521.668	4.56
522.014	4.54
522.36	4.55
522.706	4.54
523.052	4.59
523.398	4.57
523.743	4.6
524.089	4.63
524.435	4.62
524.781	4.65
525.126	4.67
525.472	4.68
525.817	4.69
526.163	4.69
526.509	4.7
526.854	4.71
527.199	4.73
527.545	4.75
527.89	4.75
528.235	4.76
528.581	4.77
528.926	4.79
529.271	4.8
529.616	4.8
529.961	4.8
530.306	4.79
530.651	4.8
530.996	4.81
531.341	4.81
531.686	4.81
532.031	4.8
532.376	4.8
532.721	4.8
533.065	4.8
533.41	4.81
533.755	4.82
534.099	4.81
534.444	4.79
534.788	4.77
535.133	4.79
535.477	4.78
535.822	4.77
536.166	4.77
536.51	4.77
536.855	4.77
537.199	4.78
537.543	4.81
537.887	4.82
538.231	4.83
538.576	4.83
538.92	4.84
539.264	4.87
539.608	4.86
539.951	4.86
540.295	4.87
540.639	4.87
540.983	4.86
541.327	4.87
541.671	4.89
542.014	4.91
542.358	4.9
542.701	4.91
543.045	4.92
543.389	4.92
543.732	4.92
544.075	4.93
544.419	4.92
544.762	4.91
545.105	4.89
545.449	4.88
545.792	4.88
546.135	4.87
546.478	4.86
546.821	4.88
547.165	4.89
547.508	4.88
547.851	4.88
548.194	4.87
548.536	4.88
548.879	4.88
549.222	4.88
549.565	4.86
549.908	4.84
550.25	4.83
550.593	4.8
550.936	4.81
551.278	4.81
551.621	4.82
551.963	4.8
552.306	4.81
552.648	4.79
552.991	4.77
553.333	4.78
553.675	4.79
554.017	4.77
554.36	4.76
554.702	4.76
555.044	4.77
555.386	4.81
555.728	4.8
556.07	4.81
556.412	4.78
556.754	4.8
557.096	4.83
557.438	4.85
557.78	4.89
558.121	4.92
558.463	4.9
558.805	4.89
559.147	4.89
559.488	4.9
559.83	4.9
560.171	4.92
560.513	4.91
560.854	4.9
561.196	4.9
561.537	4.88
561.878	4.87
562.22	4.85
562.561	4.83
562.902	4.85
563.243	4.86
563.584	4.89
563.925	4.9
564.266	4.89
564.607	4.87
564.948	4.86
565.289	4.86
565.63	4.87
565.971	4.87
566.312	4.86
566.653	4.84
566.993	4.85
567.334	4.86
567.675	4.88
568.015	4.89
568.356	4.87
568.696	4.89
569.037	4.89
569.377	4.91
569.718	4.93
570.058	4.92
570.398	4.88
570.739	4.9
571.079	4.89
571.419	4.9
571.759	4.9
572.099	4.89
572.439	4.88
572.779	4.87
573.119	4.88
573.459	4.9
573.799	4.92
574.139	4.92
574.479	4.91
574.819	4.91
575.158	4.88
575.498	4.9
575.838	4.92
576.177	4.9
576.517	4.87
576.856	4.84
577.196	4.84
577.535	4.84
577.875	4.8
578.214	4.82
578.553	4.79
578.893	4.79
579.232	4.78
579.571	4.77
579.91	4.76
580.25	4.77
580.589	4.79
580.928	4.77
581.267	4.74
581.606	4.72
581.945	4.74
582.283	4.77
582.622	4.8
582.961	4.81
583.3	4.85
583.639	4.9
583.977	4.91
584.316	4.92
584.654	4.95
584.993	4.96
585.332	4.92
585.67	4.94
586.008	4.96
586.347	4.98
586.685	4.98
587.024	5
587.362	4.99
587.7	4.99
588.038	5.05
588.376	5.1
588.715	5.12
589.053	5.08
589.391	5.09
589.729	5.03
590.067	4.99
590.404	5.01
590.742	5.02
591.08	5.01
591.418	4.98
591.756	5
592.093	5.02
592.431	5.07
592.769	5.09
593.106	5.07
593.444	5.08
593.781	5.11
594.119	5.1
594.456	5.1
594.793	5.07
595.131	5.02
595.468	5.02
595.805	5.03
596.143	5.05
596.48	5.01
596.817	5.05
597.154	5.03
597.491	5.02
597.828	4.99
598.165	4.99
598.502	5
598.839	4.98
599.176	5
599.512	4.94
599.849	4.92
600.186	4.94
600.523	4.95
600.859	4.94
601.196	4.91
601.532	4.9
601.869	4.91
602.205	4.92
602.542	4.95
602.878	4.94
603.215	4.96
603.551	4.98
603.887	4.95
604.223	5
604.56	5.02
604.896	5.01
605.232	5.02
605.568	5.02
605.904	5.04
606.24	5.03
606.576	5.07
606.912	5.06
607.248	5.08
607.583	5.08
607.919	5.09
608.255	5.13
608.591	5.15
608.926	5.16
609.262	5.14
609.597	5.1
609.933	5.11
610.268	5.08
610.604	5.07
610.939	5.12
611.275	5.1
611.61	5.08
611.945	5.09
612.281	5.1
612.616	5.1
612.951	5.08
613.286	5.08
613.621	5.04
613.956	5.08
614.291	5.03
614.626	5.02
614.961	5.01
615.296	5.01
615.631	5
615.966	5.01
616.3	5.07
616.635	5.15
616.97	5.1
617.304	5.14
617.639	5.16
617.973	5.09
618.308	5.13
618.642	5.09
618.977	5.1
619.311	5.12
619.646	5.13
619.98	5.14
620.314	5.15
620.648	5.17
620.983	5.15
621.317	5.19
621.651	5.19
621.985	5.16
622.319	5.2
622.653	5.19
622.987	5.16
623.321	5.15
623.655	5.09
623.988	5.13
624.322	5.11
624.656	5.12
624.99	5.14
625.323	5.06
625.657	5.12
625.99	5.17
626.324	5.13
626.657	5.13
626.991	5.16
627.324	5.17
627.658	5.15
627.991	5.15
628.324	5.11
628.657	5.1
628.991	5.07
629.324	5.04
629.657	5.02
629.99	5.05
630.323	5.03
630.656	5.03
630.989	5
631.322	5
631.655	4.99
631.987	5.01
632.32	5.09
632.653	5.05
632.986	5.04
633.318	5.1
633.651	5.12
633.984	5.07
634.316	5.06
634.649	5.06
634.981	5.06
635.313	5.1
635.646	5.1
635.978	5.18
636.31	5.15
636.643	5.22
636.975	5.26
637.307	5.29
637.639	5.3
637.971	5.29
638.303	5.22
638.635	5.16
638.967	5.16
639.299	5.12
639.631	5.1
639.963	5.02
640.295	4.96
640.626	4.97
640.958	4.96
641.29	4.97
641.621	4.98
641.953	4.96
642.285	4.97
642.616	4.99
642.948	4.99
643.279	5
643.61	4.96
643.942	4.89
644.273	4.82
644.604	4.82
644.936	4.83
645.267	4.88
645.598	4.92
645.929	4.9
646.26	4.9
646.591	4.93
646.922	5
647.253	5.01
647.584	4.97
647.915	4.99
648.245	4.99
648.576	4.99
648.907	5.01
649.238	4.95
649.568	4.97
649.899	4.95
650.229	5
650.56	4.99
650.89	5.04
651.221	5.11
651.551	5.14
651.882	5.22
652.212	5.22
652.542	5.24
652.872	5.22
653.203	5.26
653.533	5.28
653.863	5.31
654.193	5.27
654.523	5.26
654.853	5.25
655.183	5.23
655.513	5.23
655.843	5.25
656.172	5.34
656.502	5.27
656.832	5.24
657.162	5.2
657.491	5.19
657.821	5.19
658.15	5.2
658.48	5.2
658.809	5.16
659.139	5.14
659.468	5.17
659.798	5.28
660.127	5.21
660.456	5.16
660.785	5.13
661.115	5.11
661.444	5.12
661.773	5.21
662.102	5.23
662.431	5.22
662.76	5.18
663.089	5.22
663.418	5.26
663.747	5.31
664.076	5.28
664.404	5.32
664.733	5.28
665.062	5.23
665.39	5.2
665.719	5.16
666.048	5.18
666.376	5.13
666.705	5.03
667.033	5.13
667.362	5.12
667.69	5.07
668.018	5.2
668.347	5.15
668.675	5.09
669.003	4.99
669.331	5.05
669.659	5.06
669.987	4.97
670.315	5.01
670.643	4.97
670.971	4.98
671.299	4.94
671.627	4.97
671.955	4.88
672.283	4.85
672.61	4.88
672.938	4.9
673.266	4.88
673.593	4.96
673.921	4.9
674.249	4.93
674.576	5.02
674.904	4.97
675.231	5.08
675.558	5.09
675.886	5.21
676.213	5.2
676.54	5.26
676.867	5.27
677.195	5.28
677.522	5.29
677.849	5.38
