Data from BU58129_Reflection_00011.txt Node
Date: Mon Nov 18 16:35:13 EST 2019
User: vgr7
Spectrometer: USB2G7710
Scans to average: 3
Trigger mode: 4
Integration Time (sec): 2.000000E-2
Electric dark correction enabled: true
Boxcar width: 10
XAxis mode: Wavelengths
Number of Pixels in Spectrum: 2048
>>>>>Begin Spectral Data<<<<<
177.721	-86.49
178.105	-258.97
178.488	-118.86
178.871	266.67
179.254	317.39
179.636	0.71
180.019	82.46
180.402	155
180.785	-193.53
181.168	-733.33
181.55	-42.86
181.933	47.13
182.316	45.79
182.698	102.75
183.081	83.78
183.463	71.06
183.846	94.97
184.228	250.44
184.611	1500
184.993	25.82
185.376	28.76
185.758	37.29
186.14	19.83
186.522	7.85
186.904	41.18
187.287	232.08
187.669	-8.81
188.051	132.97
188.433	211.11
188.815	312.12
189.197	169.31
189.579	45.45
189.961	495.35
190.342	262.3
190.724	364.37
191.106	320.78
191.488	139.37
191.869	110.85
192.251	90.1
192.633	56.71
193.014	66.39
193.396	100.96
193.777	113.93
194.159	101.02
194.54	105.68
194.922	95.36
195.303	106.04
195.684	119.44
196.065	116.61
196.447	103.86
196.828	324.04
197.209	286.31
197.59	395.77
197.971	464.1
198.352	-1137.29
198.733	875.28
199.114	-1969.77
199.495	-181.55
199.876	-350.64
200.257	-242.94
200.638	-195.41
201.018	-244.89
201.399	-198.75
201.78	-166.12
202.16	-263.08
202.541	-913.42
202.922	-3389.8
203.302	2621.13
203.683	1201.91
204.063	2606.49
204.444	5002.44
204.824	2689.04
205.204	37500
205.585	3001.64
205.965	1900
206.345	4038.78
206.725	2323.53
207.106	667.94
207.486	856.46
207.866	1111.17
208.246	2790.14
208.626	1136.81
209.006	10966.67
209.386	2041.18
209.766	685.06
210.145	1044.06
210.525	-2369.39
210.905	-5017.65
211.285	-555.17
211.664	-277.41
212.044	-374.51
212.424	-533.99
212.803	-2109.3
213.183	-476.72
213.562	-411.31
213.942	-362.78
214.321	-412.2
214.701	-633.33
215.08	-340
215.459	-266.75
215.838	-255.12
216.218	-325.74
216.597	-144.29
216.976	-177.39
217.355	-174.07
217.734	-137.44
218.113	-120.99
218.492	-103.33
218.871	-120.89
219.25	-89.25
219.629	-86.58
220.008	-61.88
220.387	-64.45
220.766	-60.37
221.144	-88
221.523	-88.48
221.902	-88.76
222.28	-58.68
222.659	-26.29
223.037	-7.8
223.416	-12.98
223.794	-7.17
224.173	-10.07
224.551	-10.72
224.929	-17.74
225.308	-13.59
225.686	-6.33
226.064	1.23
226.442	-3.69
226.821	-4.43
227.199	-8.04
227.577	-11.88
227.955	-14.94
228.333	-15.27
228.711	-12.4
229.089	-4.89
229.467	-7.41
229.845	-5.04
230.222	-6.72
230.6	-7.44
230.978	-6.61
231.356	-5.9
231.733	-7.63
232.111	-6.13
232.488	-5.11
232.866	-3.02
233.243	-2.39
233.621	-4.77
233.998	-6.71
234.376	-6.56
234.753	-5.5
235.13	-6.12
235.508	-3.04
235.885	-2.12
236.262	-1.13
236.639	-1.57
237.016	-1.23
237.393	1.06
237.77	1.98
238.147	2.3
238.524	2.59
238.901	2.74
239.278	3.38
239.655	5.09
240.032	5.1
240.409	4.4
240.785	3.67
241.162	3.08
241.539	3.13
241.915	3.39
242.292	3.51
242.668	3.79
243.045	4.01
243.421	4.13
243.798	3.95
244.174	3.72
244.551	3.95
244.927	3.46
245.303	3.38
245.679	3.43
246.056	3.41
246.432	3.34
246.808	3.33
247.184	3.29
247.56	2.95
247.936	2.79
248.312	3.05
248.688	3.33
249.064	3.43
249.44	3.69
249.815	3.91
250.191	3.92
250.567	4.04
250.943	3.94
251.318	3.71
251.694	3.74
252.069	3.82
252.445	3.8
252.82	4.16
253.196	4.25
253.571	4
253.947	4.14
254.322	4.18
254.697	3.95
255.073	3.63
255.448	3.65
255.823	3.74
256.198	3.69
256.573	3.75
256.948	4.01
257.323	4.12
257.698	4.03
258.073	3.99
258.448	3.91
258.823	4.11
259.198	4.11
259.573	4.24
259.948	4.29
260.322	4.22
260.697	4.16
261.072	4.18
261.446	4.19
261.821	4.23
262.195	4.25
262.57	4.42
262.944	4.45
263.319	4.42
263.693	4.27
264.067	4.34
264.442	4.41
264.816	4.25
265.19	4.13
265.564	4.09
265.938	4.06
266.313	3.85
266.687	3.79
267.061	3.87
267.435	3.77
267.809	3.9
268.183	3.84
268.556	3.75
268.93	3.79
269.304	3.99
269.678	3.84
270.051	3.89
270.425	3.85
270.799	4.03
271.172	4.21
271.546	4.18
271.919	4.13
272.293	4.08
272.666	4.13
273.04	4.12
273.413	4.02
273.787	4.02
274.16	4.03
274.533	3.94
274.906	3.91
275.279	3.88
275.653	3.82
276.026	4.02
276.399	4.08
276.772	4.11
277.145	3.89
277.518	4.01
277.891	4.03
278.263	3.96
278.636	3.92
279.009	3.73
279.382	3.97
279.755	3.73
280.127	3.76
280.5	3.8
280.872	3.83
281.245	4.03
281.617	4.23
281.99	4.3
282.362	4.38
282.735	4.4
283.107	4.47
283.479	4.35
283.852	4.29
284.224	4.41
284.596	4.43
284.968	4.6
285.34	4.68
285.713	4.64
286.085	4.66
286.457	4.74
286.829	4.68
287.201	4.81
287.572	4.9
287.944	4.9
288.316	4.93
288.688	4.83
289.06	4.83
289.431	4.76
289.803	4.82
290.175	4.91
290.546	4.96
290.918	4.97
291.289	5.18
291.661	5.25
292.032	5.26
292.403	5.23
292.775	5.26
293.146	5.3
293.517	5.38
293.889	5.55
294.26	5.53
294.631	5.71
295.002	5.61
295.373	5.73
295.744	5.78
296.115	5.81
296.486	5.77
296.857	5.77
297.228	5.91
297.599	5.87
297.97	5.89
298.34	6.01
298.711	6.12
299.082	6.11
299.452	6.19
299.823	6.26
300.194	6.39
300.564	6.28
300.935	6.29
301.305	6.33
301.676	6.35
302.046	6.46
302.416	6.68
302.787	6.72
303.157	6.98
303.527	7.03
303.897	7.15
304.267	7.51
304.637	7.62
305.008	7.6
305.378	7.96
305.748	8.04
306.117	8
306.487	8.13
306.857	8.23
307.227	8.4
307.597	8.54
307.967	8.55
308.336	8.75
308.706	8.86
309.076	8.87
309.445	9.05
309.815	9.02
310.184	9.06
310.554	9.33
310.923	9.2
311.293	9.3
311.662	9.39
312.031	9.4
312.401	9.52
312.77	9.68
313.139	9.67
313.508	9.66
313.877	9.85
314.246	9.95
314.616	9.95
314.985	9.84
315.353	9.79
315.722	9.99
316.091	10.11
316.46	10.12
316.829	10.4
317.198	10.44
317.567	10.55
317.935	10.55
318.304	10.44
318.672	10.51
319.041	10.64
319.41	10.72
319.778	10.78
320.147	10.94
320.515	11
320.883	11.02
321.252	11.14
321.62	11.23
321.988	11.33
322.357	11.56
322.725	11.69
323.093	11.92
323.461	12.03
323.829	12.22
324.197	12.41
324.565	12.49
324.933	12.57
325.301	12.67
325.669	12.72
326.037	12.87
326.405	12.97
326.772	13.03
327.14	13.02
327.508	13.18
327.875	13.11
328.243	13.21
328.61	13.39
328.978	13.54
329.346	13.59
329.713	13.62
330.08	13.7
330.448	13.84
330.815	13.91
331.182	13.8
331.55	13.66
331.917	13.66
332.284	13.74
332.651	13.84
333.018	13.91
333.385	14.05
333.752	14.05
334.119	14.27
334.486	14.26
334.853	14.45
335.22	14.32
335.587	14.35
335.954	14.29
336.32	14.3
336.687	14.33
337.054	14.3
337.42	14.38
337.787	14.46
338.153	14.48
338.52	14.5
338.886	14.62
339.253	14.74
339.619	14.84
339.986	14.92
340.352	14.84
340.718	15.02
341.084	14.98
341.451	15.06
341.817	15.02
342.183	15.02
342.549	14.96
342.915	15.13
343.281	15.19
343.647	15.17
344.013	15.17
344.379	15.09
344.745	15.21
345.11	15.11
345.476	15.16
345.842	15.21
346.208	15.29
346.573	15.25
346.939	15.43
347.304	15.33
347.67	15.14
348.035	15.19
348.401	15.11
348.766	15.1
349.132	15.19
349.497	15.25
349.862	15.36
350.228	15.39
350.593	15.47
350.958	15.46
351.323	15.53
351.688	15.56
352.053	15.64
352.418	15.58
352.783	15.66
353.148	15.51
353.513	15.49
353.878	15.41
354.243	15.48
354.608	15.39
354.972	15.43
355.337	15.53
355.702	15.56
356.066	15.58
356.431	15.57
356.795	15.55
357.16	15.47
357.524	15.42
357.889	15.43
358.253	15.29
358.618	15.27
358.982	15.3
359.346	15.21
359.71	15.2
360.075	15.13
360.439	15.1
360.803	15.15
361.167	15.07
361.531	15.01
361.895	14.93
362.259	14.86
362.623	14.82
362.987	14.82
363.351	14.8
363.714	14.75
364.078	14.74
364.442	14.61
364.806	14.49
365.169	14.42
365.533	14.38
365.896	14.34
366.26	14.3
366.623	14.17
366.987	14.16
367.35	14.04
367.714	13.96
368.077	13.83
368.44	13.7
368.803	13.61
369.167	13.51
369.53	13.4
369.893	13.34
370.256	13.31
370.619	13.2
370.982	13.07
371.345	12.92
371.708	12.79
372.071	12.73
372.434	12.66
372.797	12.53
373.159	12.39
373.522	12.27
373.885	12.21
374.247	12.09
374.61	12.02
374.973	11.95
375.335	11.85
375.698	11.79
376.06	11.67
376.423	11.59
376.785	11.59
377.147	11.56
377.51	11.45
377.872	11.35
378.234	11.22
378.596	11.15
378.958	11.02
379.321	10.94
379.683	10.84
380.045	10.78
380.407	10.72
380.769	10.57
381.13	10.43
381.492	10.32
381.854	10.28
382.216	10.19
382.578	10.07
382.939	10.01
383.301	9.9
383.663	9.84
384.024	9.74
384.386	9.64
384.747	9.56
385.109	9.48
385.47	9.33
385.832	9.3
386.193	9.2
386.554	9.19
386.916	9.11
387.277	9.01
387.638	8.94
387.999	8.84
388.36	8.84
388.721	8.83
389.082	8.74
389.443	8.64
389.804	8.53
390.165	8.44
390.526	8.36
390.887	8.28
391.248	8.21
391.609	8.15
391.969	8.08
392.33	8.03
392.691	7.98
393.051	7.94
393.412	7.83
393.772	7.76
394.133	7.67
394.493	7.59
394.854	7.51
395.214	7.43
395.574	7.37
395.935	7.24
396.295	7.17
396.655	7.13
397.015	7.06
397.376	6.99
397.736	6.96
398.096	6.92
398.456	6.87
398.816	6.79
399.176	6.72
399.535	6.65
399.895	6.57
400.255	6.52
400.615	6.46
400.975	6.46
401.334	6.41
401.694	6.34
402.054	6.3
402.413	6.31
402.773	6.24
403.132	6.2
403.492	6.22
403.851	6.19
404.211	6.15
404.57	6.1
404.929	6.07
405.288	6.01
405.648	5.94
406.007	5.92
406.366	5.88
406.725	5.86
407.084	5.86
407.443	5.82
407.802	5.79
408.161	5.76
408.52	5.7
408.879	5.66
409.238	5.64
409.596	5.62
409.955	5.58
410.314	5.57
410.673	5.53
411.031	5.48
411.39	5.46
411.748	5.43
412.107	5.44
412.465	5.41
412.824	5.39
413.182	5.4
413.54	5.39
413.899	5.36
414.257	5.35
414.615	5.31
414.974	5.29
415.332	5.24
415.69	5.22
416.048	5.19
416.406	5.19
416.764	5.15
417.122	5.14
417.48	5.1
417.838	5.08
418.195	5.06
418.553	5.04
418.911	5.01
419.269	4.99
419.626	4.96
419.984	4.95
420.342	4.94
420.699	4.91
421.057	4.88
421.414	4.86
421.772	4.82
422.129	4.78
422.486	4.75
422.844	4.75
423.201	4.72
423.558	4.71
423.915	4.69
424.273	4.67
424.63	4.64
424.987	4.62
425.344	4.6
425.701	4.58
426.058	4.56
426.415	4.55
426.772	4.52
427.128	4.52
427.485	4.47
427.842	4.45
428.199	4.42
428.555	4.4
428.912	4.4
429.269	4.41
429.625	4.4
429.982	4.39
430.338	4.38
430.695	4.37
431.051	4.35
431.407	4.35
431.764	4.35
432.12	4.34
432.476	4.34
432.832	4.31
433.189	4.32
433.545	4.31
433.901	4.31
434.257	4.3
434.613	4.32
434.969	4.31
435.325	4.3
435.681	4.33
436.036	4.33
436.392	4.32
436.748	4.3
437.104	4.32
437.459	4.31
437.815	4.3
438.171	4.31
438.526	4.32
438.882	4.31
439.237	4.33
439.593	4.33
439.948	4.33
440.304	4.34
440.659	4.32
441.014	4.33
441.369	4.32
441.725	4.29
442.08	4.27
442.435	4.28
442.79	4.27
443.145	4.24
443.5	4.22
443.855	4.2
444.21	4.2
444.565	4.2
444.92	4.2
445.275	4.2
445.629	4.18
445.984	4.16
446.339	4.15
446.693	4.12
447.048	4.11
447.403	4.11
447.757	4.1
448.112	4.1
448.466	4.07
448.82	4.08
449.175	4.09
449.529	4.08
449.883	4.06
450.238	4.06
450.592	4.06
450.946	4.07
451.3	4.07
451.654	4.05
452.008	4.02
452.362	4.01
452.716	3.99
453.07	3.99
453.424	3.98
453.778	3.96
454.132	3.97
454.486	3.94
454.839	3.92
455.193	3.92
455.547	3.91
455.9	3.92
456.254	3.91
456.607	3.89
456.961	3.89
457.314	3.89
457.668	3.89
458.021	3.89
458.375	3.89
458.728	3.9
459.081	3.9
459.434	3.9
459.787	3.91
460.141	3.91
460.494	3.91
460.847	3.92
461.2	3.94
461.553	3.94
461.906	3.99
462.259	4
462.611	4.02
462.964	4.05
463.317	4.07
463.67	4.08
464.022	4.11
464.375	4.12
464.728	4.15
465.08	4.17
465.433	4.18
465.785	4.19
466.138	4.2
466.49	4.23
466.843	4.24
467.195	4.26
467.547	4.27
467.899	4.31
468.252	4.31
468.604	4.33
468.956	4.35
469.308	4.35
469.66	4.38
470.012	4.39
470.364	4.38
470.716	4.39
471.068	4.38
471.42	4.4
471.772	4.43
472.123	4.42
472.475	4.42
472.827	4.43
473.178	4.47
473.53	4.49
473.882	4.52
474.233	4.54
474.585	4.53
474.936	4.53
475.288	4.52
475.639	4.53
475.99	4.53
476.342	4.53
476.693	4.5
477.044	4.49
477.395	4.49
477.746	4.47
478.097	4.46
478.448	4.47
478.8	4.46
479.15	4.43
479.501	4.43
479.852	4.44
480.203	4.44
480.554	4.43
480.905	4.41
481.255	4.39
481.606	4.38
481.957	4.38
482.307	4.39
482.658	4.39
483.009	4.38
483.359	4.38
483.709	4.38
484.06	4.39
484.41	4.39
484.761	4.39
485.111	4.39
485.461	4.38
485.811	4.36
486.162	4.36
486.512	4.36
486.862	4.36
487.212	4.35
487.562	4.35
487.912	4.34
488.262	4.33
488.612	4.34
488.961	4.33
489.311	4.33
489.661	4.33
490.011	4.33
490.36	4.33
490.71	4.34
491.06	4.34
491.409	4.34
491.759	4.34
492.108	4.35
492.458	4.36
492.807	4.37
493.157	4.4
493.506	4.42
493.855	4.44
494.204	4.46
494.554	4.48
494.903	4.51
495.252	4.54
495.601	4.61
495.95	4.63
496.299	4.68
496.648	4.72
496.997	4.74
497.346	4.78
497.695	4.83
498.043	4.86
498.392	4.9
498.741	4.96
499.09	5.02
499.438	5.09
499.787	5.15
500.135	5.23
500.484	5.29
500.832	5.38
501.181	5.44
501.529	5.53
501.878	5.6
502.226	5.68
502.574	5.76
502.923	5.81
503.271	5.9
503.619	6.01
503.967	6.1
504.315	6.2
504.663	6.32
505.011	6.47
505.359	6.58
505.707	6.7
506.055	6.81
506.403	6.92
506.751	7.03
507.098	7.15
507.446	7.31
507.794	7.44
508.141	7.56
508.489	7.7
508.837	7.82
509.184	7.97
509.531	8.11
509.879	8.28
510.226	8.43
510.574	8.58
510.921	8.73
511.268	8.88
511.616	9.03
511.963	9.19
512.31	9.35
512.657	9.52
513.004	9.67
513.351	9.86
513.698	10.05
514.045	10.25
514.392	10.45
514.739	10.63
515.086	10.84
515.432	11.03
515.779	11.23
516.126	11.42
516.473	11.63
516.819	11.85
517.166	12.03
517.512	12.2
517.859	12.39
518.205	12.57
518.552	12.73
518.898	12.92
519.245	13.07
519.591	13.21
519.937	13.39
520.283	13.6
520.629	13.81
520.976	14.02
521.322	14.23
521.668	14.44
522.014	14.66
522.36	14.93
522.706	15.18
523.052	15.45
523.398	15.75
523.743	16.01
524.089	16.27
524.435	16.53
524.781	16.8
525.126	17.04
525.472	17.26
525.817	17.46
526.163	17.68
526.509	17.88
526.854	18.07
527.199	18.23
527.545	18.38
527.89	18.54
528.235	18.7
528.581	18.86
528.926	19.02
529.271	19.18
529.616	19.34
529.961	19.52
530.306	19.68
530.651	19.85
530.996	20.06
531.341	20.26
531.686	20.45
532.031	20.66
532.376	20.88
532.721	21.1
533.065	21.33
533.41	21.54
533.755	21.77
534.099	22
534.444	22.25
534.788	22.49
535.133	22.71
535.477	22.96
535.822	23.23
536.166	23.51
536.51	23.83
536.855	24.13
537.199	24.4
537.543	24.72
537.887	25.04
538.231	25.37
538.576	25.71
538.92	26.06
539.264	26.36
539.608	26.65
539.951	26.91
540.295	27.15
540.639	27.4
540.983	27.64
541.327	27.89
541.671	28.12
542.014	28.37
542.358	28.64
542.701	28.84
543.045	29.09
543.389	29.3
543.732	29.52
544.075	29.75
544.419	30.04
544.762	30.3
545.105	30.56
545.449	30.83
545.792	31.09
546.135	31.36
546.478	31.66
546.821	31.98
547.165	32.32
547.508	32.72
547.851	33.03
548.194	33.39
548.536	33.73
548.879	34.1
549.222	34.42
549.565	34.76
549.908	35.14
550.25	35.47
550.593	35.89
550.936	36.28
551.278	36.62
551.621	36.95
551.963	37.33
552.306	37.71
552.648	37.98
552.991	38.31
553.333	38.62
553.675	38.96
554.017	39.23
554.36	39.53
554.702	39.83
555.044	40.16
555.386	40.45
555.728	40.74
556.07	41.05
556.412	41.36
556.754	41.65
557.096	41.96
557.438	42.26
557.78	42.58
558.121	42.92
558.463	43.24
558.805	43.5
559.147	43.73
559.488	44.02
559.83	44.35
560.171	44.62
560.513	44.93
560.854	45.22
561.196	45.56
561.537	45.82
561.878	46.13
562.22	46.45
562.561	46.71
562.902	47
563.243	47.22
563.584	47.53
563.925	47.74
564.266	47.98
564.607	48.23
564.948	48.36
565.289	48.59
565.63	48.85
565.971	49.11
566.312	49.33
566.653	49.52
566.993	49.76
567.334	49.98
567.675	50.23
568.015	50.46
568.356	50.63
568.696	50.9
569.037	51.05
569.377	51.25
569.718	51.49
570.058	51.65
570.398	51.86
570.739	52.02
571.079	52.27
571.419	52.5
571.759	52.69
572.099	52.94
572.439	53.09
572.779	53.28
573.119	53.47
573.459	53.69
573.799	53.88
574.139	53.95
574.479	54.1
574.819	54.21
575.158	54.34
575.498	54.51
575.838	54.63
576.177	54.77
576.517	54.9
576.856	55.02
577.196	55.19
577.535	55.33
577.875	55.49
578.214	55.58
578.553	55.68
578.893	55.85
579.232	56.04
579.571	56.19
579.91	56.35
580.25	56.47
580.589	56.58
580.928	56.7
581.267	56.97
581.606	57.15
581.945	57.25
582.283	57.37
582.622	57.43
582.961	57.63
583.3	57.86
583.639	57.99
583.977	58.1
584.316	58.22
584.654	58.44
584.993	58.58
585.332	58.73
585.67	58.93
586.008	58.97
586.347	59.02
586.685	59.13
587.024	59.15
587.362	59.22
587.7	59.36
588.038	59.49
588.376	59.53
588.715	59.59
589.053	59.8
589.391	59.93
589.729	60.13
590.067	60.25
590.404	60.33
590.742	60.48
591.08	60.59
591.418	60.74
591.756	60.83
592.093	60.94
592.431	60.96
592.769	60.9
593.106	61.01
593.444	61.02
593.781	61.12
594.119	61.28
594.456	61.37
594.793	61.4
595.131	61.52
595.468	61.61
595.805	61.69
596.143	61.68
596.48	61.74
596.817	61.67
597.154	61.69
597.491	61.74
597.828	61.76
598.165	61.81
598.502	61.84
598.839	61.88
599.176	61.83
599.512	61.94
599.849	62.04
600.186	62.14
600.523	62.24
600.859	62.3
601.196	62.26
601.532	62.27
601.869	62.37
602.205	62.35
602.542	62.35
602.878	62.44
603.215	62.56
603.551	62.57
603.887	62.61
604.223	62.66
604.56	62.7
604.896	62.72
605.232	62.76
605.568	62.75
605.904	62.79
606.24	62.91
606.576	62.98
606.912	63.07
607.248	63.07
607.583	63.08
607.919	63.13
608.255	63.23
608.591	63.34
608.926	63.31
609.262	63.39
609.597	63.53
609.933	63.52
610.268	63.56
610.604	63.68
610.939	63.74
611.275	63.79
611.61	63.79
611.945	63.83
612.281	63.89
612.616	64.04
612.951	64.07
613.286	64.15
613.621	64.22
613.956	64.25
614.291	64.36
614.626	64.5
614.961	64.6
615.296	64.63
615.631	64.65
615.966	64.86
616.3	64.93
616.635	64.89
616.97	64.9
617.304	64.9
617.639	64.94
617.973	65.11
618.308	65.1
618.642	65.24
618.977	65.27
619.311	65.29
619.646	65.33
619.98	65.44
620.314	65.4
620.648	65.46
620.983	65.48
621.317	65.45
621.651	65.45
621.985	65.43
622.319	65.44
622.653	65.49
622.987	65.44
623.321	65.38
623.655	65.4
623.988	65.51
624.322	65.53
624.656	65.46
624.99	65.44
625.323	65.45
625.657	65.34
625.99	65.44
626.324	65.6
626.657	65.6
626.991	65.59
627.324	65.66
627.658	65.62
627.991	65.73
628.324	65.77
628.657	65.83
628.991	65.84
629.324	65.91
629.657	65.91
629.99	65.95
630.323	65.99
630.656	66
630.989	66.04
631.322	66.03
631.655	66.04
631.987	66.06
632.32	66.03
632.653	66.2
632.986	66.08
633.318	66
633.651	66.01
633.984	66
634.316	65.96
634.649	66
634.981	66
635.313	65.98
635.646	65.98
635.978	66
636.31	65.99
636.643	65.98
636.975	65.94
637.307	66
637.639	66.12
637.971	66.04
638.303	66.07
638.635	66.15
638.967	66.19
639.299	66.33
639.631	66.36
639.963	66.39
640.295	66.37
640.626	66.27
640.958	66.34
641.29	66.28
641.621	66.29
641.953	66.31
642.285	66.39
642.616	66.49
642.948	66.54
643.279	66.59
643.61	66.74
643.942	66.81
644.273	66.83
644.604	66.82
644.936	66.85
645.267	66.93
645.598	67.06
645.929	67.03
646.26	67.08
646.591	67.01
646.922	67.01
647.253	67.07
647.584	67.22
647.915	67.23
648.245	67.32
648.576	67.27
648.907	67.23
649.238	67.2
649.568	67.14
649.899	67.1
650.229	67.14
650.56	67.07
650.89	67.11
651.221	67.1
651.551	67.1
651.882	67.05
652.212	67.05
652.542	67.05
652.872	67.23
653.203	67.04
653.533	67.07
653.863	67.17
654.193	67.15
654.523	67.15
654.853	67.06
655.183	66.99
655.513	67.08
655.843	67.01
656.172	67.04
656.502	67.06
656.832	67.15
657.162	67.18
657.491	67.14
657.821	67.16
658.15	67.17
658.48	67.21
658.809	67.22
659.139	67.24
659.468	67.2
659.798	67.15
660.127	67.3
660.456	67.29
660.785	67.31
661.115	67.27
661.444	67.36
661.773	67.47
