Data from BU58129_Reflection_00008.txt Node
Date: Mon Nov 18 16:35:07 EST 2019
User: vgr7
Spectrometer: USB2G7710
Scans to average: 3
Trigger mode: 4
Integration Time (sec): 2.000000E-2
Electric dark correction enabled: true
Boxcar width: 10
XAxis mode: Wavelengths
Number of Pixels in Spectrum: 2048
>>>>>Begin Spectral Data<<<<<
177.721	-1.32
178.105	-156.41
178.488	-293.94
178.871	-1525
179.254	1100
179.636	-27.66
180.019	-584.21
180.402	215
180.785	264.18
181.168	1171.43
181.55	374.73
181.933	152.87
182.316	161.68
182.698	229.48
183.081	137.84
183.463	276.85
183.846	426.63
184.228	799.12
184.611	5633.33
184.993	-223.44
185.376	-177.04
185.758	-239.93
186.14	-402.11
186.522	-415.36
186.904	-1958.82
187.287	2307.55
187.669	-547.67
188.051	1407.69
188.433	1160.61
188.815	3100
189.197	1040.59
189.579	1754.55
189.961	2169.77
190.342	492.67
190.724	1031.03
191.106	1541.56
191.488	286.35
191.869	223.64
192.251	152.33
192.633	132.73
193.014	128.16
193.396	135.68
193.777	158.95
194.159	133.5
194.54	135.19
194.922	212.83
195.303	234.81
195.684	240.39
196.065	222.92
196.447	273.75
196.828	389.62
197.209	195.06
197.59	386.38
197.971	464.1
198.352	-1747.46
198.733	1324.72
199.114	-2388.37
199.495	-298.06
199.876	-316.31
200.257	-156.48
200.638	-81.65
201.018	-52.22
201.399	-27.01
201.78	5.79
202.16	-31.85
202.541	-269.13
202.922	-1226.53
203.302	930.99
203.683	361.15
204.063	1229.87
204.444	2075.61
204.824	1100
205.204	19100
205.585	1329.51
205.965	888.24
206.345	1712.24
206.725	1052.94
207.106	347.39
207.486	421.03
207.866	697.77
208.246	1973.24
208.626	731.9
209.006	7366.67
209.386	1547.06
209.766	469.29
210.145	806.29
210.525	-2083.67
210.905	-4429.41
211.285	-431.03
211.664	-183.75
212.044	-178.43
212.424	-350.98
212.803	-1179.07
213.183	-191.01
213.562	68.33
213.942	90.29
214.321	212.2
214.701	215.15
215.08	92
215.459	118.47
215.838	58.61
216.218	136.3
216.597	91.21
216.976	130.3
217.355	151.85
217.734	53.21
218.113	60.25
218.492	75.03
218.871	72.8
219.25	70.01
219.629	71.81
220.008	43.74
220.387	43.82
220.766	33.61
221.144	15.8
221.523	-33.25
221.902	-70.01
222.28	-62.94
222.659	-42.18
223.037	-25.33
223.416	-42.86
223.794	-51.05
224.173	-54.1
224.551	-52.9
224.929	-49.81
225.308	-43.88
225.686	-27.06
226.064	-21.38
226.442	-29.53
226.821	-31.16
227.199	-30.87
227.577	-29.87
227.955	-24.28
228.333	-20.15
228.711	-14.93
229.089	-8.2
229.467	-9.92
229.845	-10.68
230.222	-9.58
230.6	-10.77
230.978	-11.51
231.356	-8.53
231.733	-5.8
232.111	-3.25
232.488	-4.45
232.866	-3.65
233.243	-1.99
233.621	-2.43
233.998	-1.22
234.376	-2.11
234.753	-0.49
235.13	0.1
235.508	2.47
235.885	2.67
236.262	-0.35
236.639	-1.42
237.016	-1.81
237.393	1.33
237.77	3.27
238.147	3.36
238.524	4.61
238.901	4.91
239.278	5.7
239.655	6.19
240.032	6.33
240.409	6.23
240.785	6.08
241.162	5.97
241.539	5.27
241.915	5.06
242.292	4.89
242.668	4.67
243.045	4.44
243.421	4.1
243.798	3.82
244.174	4.25
244.551	4.09
244.927	3.7
245.303	3.2
245.679	3.18
246.056	3.11
246.432	2.7
246.808	2.73
247.184	2.33
247.56	2.06
247.936	1.9
248.312	1.73
248.688	1.62
249.064	1.35
249.44	1.78
249.815	1.88
250.191	2.34
250.567	2.06
250.943	2.12
251.318	2.24
251.694	2.27
252.069	2.1
252.445	2.36
252.82	2.36
253.196	2.43
253.571	2.41
253.947	2.24
254.322	2.64
254.697	2.3
255.073	2.22
255.448	2.25
255.823	2.4
256.198	2.74
256.573	2.52
256.948	2.77
257.323	2.75
257.698	2.64
258.073	2.44
258.448	2.52
258.823	2.28
259.198	2.12
259.573	2.12
259.948	2
260.322	1.93
260.697	1.99
261.072	1.98
261.446	1.86
261.821	1.88
262.195	1.9
262.57	2.01
262.944	2.17
263.319	2.09
263.693	1.98
264.067	1.88
264.442	2.04
264.816	2.07
265.19	1.95
265.564	1.71
265.938	1.51
266.313	1.59
266.687	1.75
267.061	2.07
267.435	2.13
267.809	2.3
268.183	2.27
268.556	2.21
268.93	2.3
269.304	2.4
269.678	2.7
270.051	2.5
270.425	2.52
270.799	2.36
271.172	2.66
271.546	2.58
271.919	2.56
272.293	2.6
272.666	2.75
273.04	2.71
273.413	2.86
273.787	2.98
274.16	3.06
274.533	2.96
274.906	2.68
275.279	2.66
275.653	2.66
276.026	2.58
276.399	2.75
276.772	2.78
277.145	2.72
277.518	2.65
277.891	2.81
278.263	2.81
278.636	2.71
279.009	2.54
279.382	2.74
279.755	2.71
280.127	2.89
280.5	2.74
280.872	2.81
281.245	2.83
281.617	3.02
281.99	3.02
282.362	3.17
282.735	3.27
283.107	3.19
283.479	3.18
283.852	3.18
284.224	3.07
284.596	3.02
284.968	3.1
285.34	3.07
285.713	2.95
286.085	2.93
286.457	3.04
286.829	3.04
287.201	2.9
287.572	2.85
287.944	2.7
288.316	2.62
288.688	2.54
289.06	2.46
289.431	2.36
289.803	2.33
290.175	2.3
290.546	2.45
290.918	2.54
291.289	2.68
291.661	2.83
292.032	2.9
292.403	2.92
292.775	2.92
293.146	2.81
293.517	2.97
293.889	3.01
294.26	3.1
294.631	3.08
295.002	3.22
295.373	3.32
295.744	3.15
296.115	3.11
296.486	3.13
296.857	3.23
297.228	3.37
297.599	3.45
297.97	3.46
298.34	3.36
298.711	3.44
299.082	3.28
299.452	3.31
299.823	3.38
300.194	3.38
300.564	3.37
300.935	3.59
301.305	3.67
301.676	3.89
302.046	3.91
302.416	4.03
302.787	3.96
303.157	4.08
303.527	4.35
303.897	4.55
304.267	4.68
304.637	4.65
305.008	4.59
305.378	4.61
305.748	4.67
306.117	4.79
306.487	4.81
306.857	4.92
307.227	5.04
307.597	5.04
307.967	5.19
308.336	5.21
308.706	5.21
309.076	5.3
309.445	5.07
309.815	5.13
310.184	5.12
310.554	5.23
310.923	5.12
311.293	5.24
311.662	5.19
312.031	5.2
312.401	5.32
312.77	5.32
313.139	5.29
313.508	5.38
313.877	5.42
314.246	5.47
314.616	5.41
314.985	5.37
315.353	5.56
315.722	5.55
316.091	5.68
316.46	5.55
316.829	5.5
317.198	5.67
317.567	5.62
317.935	5.74
318.304	5.78
318.672	6.06
319.041	6.05
319.41	6.31
319.778	6.33
320.147	6.32
320.515	6.37
320.883	6.38
321.252	6.49
321.62	6.47
321.988	6.59
322.357	6.69
322.725	6.74
323.093	6.75
323.461	6.76
323.829	6.78
324.197	6.99
324.565	7.12
324.933	7.12
325.301	7.27
325.669	7.31
326.037	7.3
326.405	7.24
326.772	7.43
327.14	7.34
327.508	7.31
327.875	7.42
328.243	7.55
328.61	7.62
328.978	7.61
329.346	7.62
329.713	7.56
330.08	7.69
330.448	7.55
330.815	7.51
331.182	7.68
331.55	7.72
331.917	7.71
332.284	7.71
332.651	7.76
333.018	7.75
333.385	7.84
333.752	7.96
334.119	8.16
334.486	8
334.853	8.07
335.22	8.13
335.587	8.21
335.954	8.18
336.32	8.23
336.687	8.21
337.054	8.31
337.42	8.31
337.787	8.34
338.153	8.48
338.52	8.56
338.886	8.47
339.253	8.5
339.619	8.59
339.986	8.65
340.352	8.69
340.718	8.73
341.084	8.66
341.451	8.74
341.817	8.6
342.183	8.51
342.549	8.44
342.915	8.52
343.281	8.56
343.647	8.67
344.013	8.78
344.379	8.87
344.745	8.88
345.11	8.87
345.476	8.89
345.842	8.95
346.208	8.98
346.573	9.11
346.939	9.17
347.304	9.15
347.67	9.04
348.035	9.12
348.401	9.19
348.766	9.2
349.132	9.29
349.497	9.33
349.862	9.44
350.228	9.53
350.593	9.46
350.958	9.44
351.323	9.39
351.688	9.31
352.053	9.32
352.418	9.36
352.783	9.38
353.148	9.37
353.513	9.31
353.878	9.29
354.243	9.24
354.608	9.27
354.972	9.28
355.337	9.33
355.702	9.33
356.066	9.34
356.431	9.4
356.795	9.33
357.16	9.25
357.524	9.14
357.889	9.13
358.253	9.15
358.618	9.14
358.982	9.08
359.346	9.03
359.71	8.93
360.075	8.87
360.439	8.91
360.803	8.89
361.167	8.86
361.531	8.76
361.895	8.72
362.259	8.66
362.623	8.62
362.987	8.63
363.351	8.56
363.714	8.49
364.078	8.38
364.442	8.3
364.806	8.31
365.169	8.34
365.533	8.29
365.896	8.23
366.26	8.16
366.623	8.07
366.987	8.05
367.35	8.06
367.714	8.01
368.077	7.91
368.44	7.85
368.803	7.86
369.167	7.86
369.53	7.78
369.893	7.75
370.256	7.72
370.619	7.63
370.982	7.57
371.345	7.48
371.708	7.48
372.071	7.5
372.434	7.45
372.797	7.41
373.159	7.36
373.522	7.34
373.885	7.28
374.247	7.33
374.61	7.22
374.973	7.08
375.335	7.03
375.698	7.02
376.06	6.87
376.423	6.76
376.785	6.72
377.147	6.71
377.51	6.58
377.872	6.53
378.234	6.42
378.596	6.42
378.958	6.39
379.321	6.31
379.683	6.2
380.045	6.13
380.407	6.03
380.769	5.97
381.13	5.87
381.492	5.83
381.854	5.77
382.216	5.79
382.578	5.77
382.939	5.64
383.301	5.55
383.663	5.53
384.024	5.45
384.386	5.46
384.747	5.42
385.109	5.39
385.47	5.31
385.832	5.27
386.193	5.16
386.554	5.11
386.916	5.05
387.277	5.02
387.638	4.95
387.999	4.9
388.36	4.84
388.721	4.8
389.082	4.73
389.443	4.69
389.804	4.61
390.165	4.55
390.526	4.57
390.887	4.54
391.248	4.53
391.609	4.53
391.969	4.45
392.33	4.42
392.691	4.38
393.051	4.35
393.412	4.35
393.772	4.29
394.133	4.24
394.493	4.22
394.854	4.16
395.214	4.16
395.574	4.16
395.935	4.14
396.295	4.14
396.655	4.12
397.015	4.09
397.376	4.05
397.736	4.03
398.096	4.02
398.456	3.98
398.816	3.96
399.176	3.92
399.535	3.89
399.895	3.81
400.255	3.81
400.615	3.75
400.975	3.71
401.334	3.72
401.694	3.72
402.054	3.68
402.413	3.67
402.773	3.62
403.132	3.59
403.492	3.56
403.851	3.54
404.211	3.5
404.57	3.47
404.929	3.46
405.288	3.41
405.648	3.34
406.007	3.3
406.366	3.28
406.725	3.26
407.084	3.25
407.443	3.26
407.802	3.26
408.161	3.27
408.52	3.25
408.879	3.23
409.238	3.21
409.596	3.22
409.955	3.21
410.314	3.21
410.673	3.17
411.031	3.16
411.39	3.16
411.748	3.15
412.107	3.15
412.465	3.14
412.824	3.13
413.182	3.12
413.54	3.13
413.899	3.13
414.257	3.12
414.615	3.07
414.974	3.05
415.332	3.01
415.69	3
416.048	2.98
416.406	2.97
416.764	2.95
417.122	2.94
417.48	2.9
417.838	2.9
418.195	2.91
418.553	2.88
418.911	2.87
419.269	2.87
419.626	2.85
419.984	2.84
420.342	2.84
420.699	2.83
421.057	2.83
421.414	2.8
421.772	2.79
422.129	2.79
422.486	2.77
422.844	2.77
423.201	2.76
423.558	2.76
423.915	2.75
424.273	2.75
424.63	2.72
424.987	2.74
425.344	2.73
425.701	2.71
426.058	2.71
426.415	2.68
426.772	2.66
427.128	2.65
427.485	2.62
427.842	2.61
428.199	2.61
428.555	2.59
428.912	2.59
429.269	2.58
429.625	2.56
429.982	2.57
430.338	2.55
430.695	2.56
431.051	2.55
431.407	2.54
431.764	2.55
432.12	2.54
432.476	2.52
432.832	2.52
433.189	2.53
433.545	2.52
433.901	2.54
434.257	2.54
434.613	2.56
434.969	2.57
435.325	2.58
435.681	2.56
436.036	2.56
436.392	2.56
436.748	2.57
437.104	2.57
437.459	2.55
437.815	2.57
438.171	2.56
438.526	2.58
438.882	2.56
439.237	2.56
439.593	2.58
439.948	2.58
440.304	2.57
440.659	2.56
441.014	2.56
441.369	2.54
441.725	2.54
442.08	2.54
442.435	2.54
442.79	2.54
443.145	2.54
443.5	2.54
443.855	2.54
444.21	2.54
444.565	2.55
444.92	2.55
445.275	2.53
445.629	2.52
445.984	2.5
446.339	2.51
446.693	2.48
447.048	2.47
447.403	2.46
447.757	2.46
448.112	2.45
448.466	2.44
448.82	2.45
449.175	2.46
449.529	2.45
449.883	2.44
450.238	2.42
450.592	2.42
450.946	2.41
451.3	2.41
451.654	2.4
452.008	2.39
452.362	2.37
452.716	2.36
453.07	2.38
453.424	2.36
453.778	2.37
454.132	2.37
454.486	2.35
454.839	2.37
455.193	2.36
455.547	2.37
455.9	2.38
456.254	2.38
456.607	2.37
456.961	2.37
457.314	2.37
457.668	2.38
458.021	2.38
458.375	2.38
458.728	2.37
459.081	2.36
459.434	2.36
459.787	2.38
460.141	2.39
460.494	2.38
460.847	2.4
461.2	2.38
461.553	2.4
461.906	2.42
462.259	2.42
462.611	2.44
462.964	2.45
463.317	2.44
463.67	2.46
464.022	2.46
464.375	2.46
464.728	2.46
465.08	2.47
465.433	2.47
465.785	2.46
466.138	2.48
466.49	2.51
466.843	2.53
467.195	2.54
467.547	2.53
467.899	2.54
468.252	2.56
468.604	2.57
468.956	2.55
469.308	2.54
469.66	2.54
470.012	2.55
470.364	2.54
470.716	2.55
471.068	2.54
471.42	2.54
471.772	2.57
472.123	2.6
472.475	2.61
472.827	2.63
473.178	2.64
473.53	2.62
473.882	2.61
474.233	2.6
474.585	2.6
474.936	2.61
475.288	2.6
475.639	2.61
475.99	2.63
476.342	2.65
476.693	2.64
477.044	2.65
477.395	2.65
477.746	2.66
478.097	2.65
478.448	2.63
478.8	2.64
479.15	2.6
479.501	2.6
479.852	2.59
480.203	2.59
480.554	2.59
480.905	2.6
481.255	2.59
481.606	2.59
481.957	2.59
482.307	2.59
482.658	2.59
483.009	2.58
483.359	2.58
483.709	2.58
484.06	2.58
484.41	2.57
484.761	2.57
485.111	2.57
485.461	2.57
485.811	2.58
486.162	2.57
486.512	2.58
486.862	2.57
487.212	2.57
487.562	2.57
487.912	2.58
488.262	2.58
488.612	2.58
488.961	2.59
489.311	2.58
489.661	2.59
490.011	2.59
490.36	2.59
490.71	2.59
491.06	2.59
491.409	2.6
491.759	2.61
492.108	2.62
492.458	2.62
492.807	2.63
493.157	2.64
493.506	2.67
493.855	2.67
494.204	2.69
494.554	2.7
494.903	2.7
495.252	2.71
495.601	2.73
495.95	2.77
496.299	2.77
496.648	2.8
496.997	2.8
497.346	2.84
497.695	2.87
498.043	2.88
498.392	2.91
498.741	2.94
499.09	2.97
499.438	3
499.787	3.03
500.135	3.08
500.484	3.1
500.832	3.12
501.181	3.18
501.529	3.23
501.878	3.29
502.226	3.34
502.574	3.38
502.923	3.41
503.271	3.44
503.619	3.5
503.967	3.54
504.315	3.6
504.663	3.65
505.011	3.71
505.359	3.76
505.707	3.83
506.055	3.87
506.403	3.94
506.751	4.01
507.098	4.08
507.446	4.14
507.794	4.21
508.141	4.3
508.489	4.37
508.837	4.43
509.184	4.49
509.531	4.57
509.879	4.65
510.226	4.76
510.574	4.85
510.921	4.93
511.268	5.01
511.616	5.12
511.963	5.21
512.31	5.3
512.657	5.4
513.004	5.5
513.351	5.62
513.698	5.72
514.045	5.84
514.392	5.97
514.739	6.09
515.086	6.24
515.432	6.35
515.779	6.47
516.126	6.59
516.473	6.72
516.819	6.83
517.166	6.94
517.512	7.04
517.859	7.14
518.205	7.25
518.552	7.37
518.898	7.47
519.245	7.59
519.591	7.71
519.937	7.81
520.283	7.94
520.629	8.07
520.976	8.2
521.322	8.33
521.668	8.47
522.014	8.62
522.36	8.76
522.706	8.93
523.052	9.1
523.398	9.29
523.743	9.45
524.089	9.63
524.435	9.81
524.781	9.99
525.126	10.17
525.472	10.33
525.817	10.48
526.163	10.61
526.509	10.72
526.854	10.86
527.199	10.97
527.545	11.07
527.89	11.17
528.235	11.29
528.581	11.41
528.926	11.52
529.271	11.64
529.616	11.75
529.961	11.87
530.306	12
530.651	12.13
530.996	12.28
531.341	12.43
531.686	12.56
532.031	12.7
532.376	12.85
532.721	13
533.065	13.15
533.41	13.31
533.755	13.5
534.099	13.67
534.444	13.86
534.788	14.05
535.133	14.24
535.477	14.41
535.822	14.6
536.166	14.79
536.51	15.01
536.855	15.24
537.199	15.47
537.543	15.73
537.887	15.95
538.231	16.21
538.576	16.5
538.92	16.77
539.264	17.02
539.608	17.26
539.951	17.45
540.295	17.68
540.639	17.9
540.983	18.11
541.327	18.28
541.671	18.46
542.014	18.67
542.358	18.86
542.701	19.05
543.045	19.24
543.389	19.45
543.732	19.64
544.075	19.84
544.419	20.05
544.762	20.25
545.105	20.46
545.449	20.7
545.792	20.89
546.135	21.13
546.478	21.38
546.821	21.65
547.165	21.95
547.508	22.24
547.851	22.53
548.194	22.76
548.536	23.05
548.879	23.37
549.222	23.63
549.565	23.92
549.908	24.24
550.25	24.56
550.593	24.85
550.936	25.1
551.278	25.41
551.621	25.73
551.963	26.04
552.306	26.37
552.648	26.62
552.991	26.95
553.333	27.2
553.675	27.44
554.017	27.71
554.36	27.96
554.702	28.26
555.044	28.49
555.386	28.77
555.728	29.01
556.07	29.26
556.412	29.51
556.754	29.74
557.096	29.95
557.438	30.19
557.78	30.5
558.121	30.78
558.463	31.09
558.805	31.3
559.147	31.54
559.488	31.81
559.83	32.09
560.171	32.32
560.513	32.59
560.854	32.85
561.196	33.13
561.537	33.41
561.878	33.61
562.22	33.87
562.561	34.1
562.902	34.42
563.243	34.63
563.584	34.91
563.925	35.16
564.266	35.41
564.607	35.65
564.948	35.82
565.289	36.07
565.63	36.24
565.971	36.47
566.312	36.65
566.653	36.81
566.993	36.99
567.334	37.17
567.675	37.39
568.015	37.6
568.356	37.76
568.696	37.97
569.037	38.2
569.377	38.43
569.718	38.6
570.058	38.7
570.398	38.83
570.739	39.02
571.079	39.21
571.419	39.37
571.759	39.54
572.099	39.66
572.439	39.8
572.779	39.96
573.119	40.11
573.459	40.22
573.799	40.44
574.139	40.53
574.479	40.67
574.819	40.8
575.158	40.88
575.498	41.01
575.838	41.08
576.177	41.16
576.517	41.3
576.856	41.43
577.196	41.57
577.535	41.75
577.875	41.85
578.214	41.93
578.553	42.06
578.893	42.17
579.232	42.35
579.571	42.48
579.91	42.57
580.25	42.68
580.589	42.86
580.928	42.89
581.267	43.09
581.606	43.28
581.945	43.35
582.283	43.49
582.622	43.58
582.961	43.7
583.3	43.85
583.639	43.93
583.977	44.06
584.316	44.2
584.654	44.27
584.993	44.42
585.332	44.5
585.67	44.58
586.008	44.69
586.347	44.71
586.685	44.84
587.024	44.91
587.362	44.98
587.7	45.06
588.038	45.16
588.376	45.3
588.715	45.3
589.053	45.47
589.391	45.55
589.729	45.69
590.067	45.74
590.404	45.88
590.742	45.92
591.08	45.93
591.418	46
591.756	46.13
592.093	46.21
592.431	46.32
592.769	46.32
593.106	46.37
593.444	46.5
593.781	46.62
594.119	46.71
594.456	46.83
594.793	46.89
595.131	47.01
595.468	46.99
595.805	47.08
596.143	47.06
596.48	47.18
596.817	47.18
597.154	47.3
597.491	47.23
597.828	47.32
598.165	47.46
598.502	47.56
598.839	47.6
599.176	47.6
599.512	47.64
599.849	47.8
600.186	47.92
600.523	47.92
600.859	47.99
601.196	48.09
601.532	48.13
601.869	48.22
602.205	48.2
602.542	48.3
602.878	48.36
603.215	48.43
603.551	48.41
603.887	48.45
604.223	48.43
604.56	48.52
604.896	48.53
605.232	48.47
605.568	48.4
605.904	48.47
606.24	48.49
606.576	48.54
606.912	48.56
607.248	48.6
607.583	48.65
607.919	48.65
608.255	48.64
608.591	48.67
608.926	48.66
609.262	48.73
609.597	48.71
609.933	48.72
610.268	48.74
610.604	48.83
610.939	48.89
611.275	48.96
611.61	48.99
611.945	49.07
612.281	49.16
612.616	49.29
612.951	49.3
613.286	49.4
613.621	49.44
613.956	49.48
614.291	49.46
614.626	49.54
614.961	49.6
615.296	49.69
615.631	49.68
615.966	49.77
616.3	49.74
616.635	49.84
616.97	49.86
617.304	49.81
617.639	49.83
617.973	49.87
618.308	49.89
618.642	49.94
618.977	49.95
619.311	50.06
619.646	50.09
619.98	50.11
620.314	50.06
620.648	50.2
620.983	50.17
621.317	50.18
621.651	50.19
621.985	50.21
622.319	50.14
622.653	50.25
622.987	50.22
623.321	50.27
623.655	50.3
623.988	50.34
624.322	50.4
624.656	50.36
624.99	50.3
625.323	50.33
625.657	50.31
625.99	50.29
626.324	50.28
626.657	50.29
626.991	50.35
627.324	50.37
627.658	50.31
627.991	50.45
628.324	50.44
628.657	50.49
628.991	50.43
629.324	50.43
629.657	50.38
629.99	50.39
630.323	50.45
630.656	50.43
630.989	50.45
631.322	50.49
631.655	50.5
631.987	50.55
632.32	50.58
632.653	50.64
632.986	50.6
633.318	50.6
633.651	50.66
633.984	50.58
634.316	50.73
634.649	50.7
634.981	50.65
635.313	50.68
635.646	50.61
635.978	50.7
636.31	50.78
636.643	50.8
636.975	50.84
637.307	50.87
637.639	50.92
637.971	50.84
638.303	50.85
638.635	50.92
638.967	50.97
639.299	51.03
639.631	51.03
639.963	51.12
640.295	51.15
640.626	51.09
640.958	51.15
641.29	50.98
641.621	50.99
641.953	50.99
642.285	51.08
642.616	51.16
642.948	51.1
643.279	50.98
643.61	51.01
643.942	51.03
644.273	50.99
644.604	51.03
644.936	51.19
645.267	51.28
645.598	51.3
645.929	51.33
646.26	51.22
646.591	51.2
646.922	51.25
647.253	51.28
647.584	51.36
647.915	51.44
648.245	51.45
648.576	51.44
648.907	51.52
649.238	51.42
649.568	51.39
649.899	51.38
650.229	51.5
650.56	51.61
650.89	51.66
651.221	51.62
651.551	51.5
651.882	51.49
652.212	51.46
652.542	51.47
652.872	51.49
653.203	51.43
653.533	51.39
653.863	51.41
654.193	51.39
654.523	51.33
654.853	51.31
655.183	51.31
655.513	51.36
655.843	51.27
656.172	51.28
656.502	51.33
656.832	51.5
657.162	51.6
657.491	51.52
657.821	51.51
658.15	51.51
658.48	51.65
658.809	51.59
659.139	51.6
659.468	51.56
659.798	51.59
660.127	51.63
660.456	51.7
660.785	51.66
661.115	51.63
661.444	51.71
661.773	51.71
662.102	51.8
662.431	51.83
662.76	51.88
663.089	51.97
663.418	51.91
663.747	51.73
664.076	51.57
664.404	51.59
664.733	51.5
665.062	51.53
665.39	51.36
665.719	51.33
666.048	51.35
666.376	51.35
