Data from BU58127_Reflection_00008.txt Node
Date: Mon Nov 18 16:44:16 EST 2019
User: vgr7
Spectrometer: USB2G7710
Scans to average: 3
Trigger mode: 4
Integration Time (sec): 2.000000E-2
Electric dark correction enabled: true
Boxcar width: 10
XAxis mode: Wavelengths
Number of Pixels in Spectrum: 2048
>>>>>Begin Spectral Data<<<<<
177.721	418.84
178.105	114.08
178.488	105.09
178.871	63.77
179.254	160.15
179.636	308.33
180.019	125.45
180.402	60
180.785	-305.8
181.168	211.11
181.55	-757.14
181.933	1.37
182.316	29.2
182.698	72.7
183.081	40.98
183.463	-8.6
183.846	25.93
184.228	-34.97
184.611	-6.67
184.993	-21.21
185.376	-207.69
185.758	253.85
186.14	8.5
186.522	52.86
186.904	20.84
187.287	31.56
187.669	-132.56
188.051	37.89
188.433	-3011.11
188.815	146.08
189.197	-28.44
189.579	-11.39
189.961	-37.57
190.342	-16.23
190.724	0.62
191.106	-39.62
191.488	-96.32
191.869	-68.52
192.251	-132.04
192.633	-104.03
193.014	-123.07
193.396	-155.57
193.777	-145.81
194.159	-151.43
194.54	-63.85
194.922	-56.95
195.303	-82.58
195.684	-79.93
196.065	-51.49
196.447	-54.35
196.828	-63.07
197.209	-29.78
197.59	-46.6
197.971	-56.38
198.352	-46.2
198.733	-38.36
199.114	-27.85
199.495	-8.02
199.876	1.38
200.257	10.84
200.638	16.28
201.018	17.55
201.399	11.29
201.78	-1.2
202.16	-9.02
202.541	-17.88
202.922	-20.9
203.302	-17.72
203.683	-8.58
204.063	-23.49
204.444	-22.34
204.824	-28.77
205.204	-26.83
205.585	-24.64
205.965	-17.07
206.345	-20.59
206.725	-34.66
207.106	-44.07
207.486	-70.62
207.866	-71.7
208.246	-50.1
208.626	-48.48
209.006	-34.32
209.386	-30.96
209.766	-29.24
210.145	-11.89
210.525	3.64
210.905	-6.95
211.285	-14.12
211.664	-32.62
212.044	-15.21
212.424	-21.26
212.803	-19.4
213.183	-21.97
213.562	-13.51
213.942	-15.57
214.321	-18.21
214.701	-19
215.08	-20.15
215.459	-20.65
215.838	-21.76
216.218	-44.75
216.597	-35.81
216.976	-38.25
217.355	-44.95
217.734	-42.77
218.113	-49.47
218.492	-65.87
218.871	-62.35
219.25	-48.34
219.629	-33.7
220.008	-41.03
220.387	-29.25
220.766	-20.23
221.144	-26.35
221.523	-34.45
221.902	-38.17
222.28	-47.45
222.659	-36.8
223.037	-14.53
223.416	-10.93
223.794	-5.16
224.173	-8.92
224.551	-9.9
224.929	-13.61
225.308	-5.61
225.686	-3.6
226.064	-3.61
226.442	-0.41
226.821	4.31
227.199	3.47
227.577	-0.28
227.955	-3.21
228.333	-4.98
228.711	-3
229.089	-1.11
229.467	-0.73
229.845	-2.36
230.222	-0.37
230.6	-1.68
230.978	-5.5
231.356	-3
231.733	-4.52
232.111	-3.05
232.488	-4.52
232.866	-5.19
233.243	-5.55
233.621	-6.76
233.998	-3.52
234.376	-4.14
234.753	-5.55
235.13	-5.31
235.508	-3.85
235.885	-3.67
236.262	-3.24
236.639	-5.33
237.016	-5.49
237.393	-5.47
237.77	-4.04
238.147	-2.54
238.524	-2.99
238.901	-1.4
239.278	-1.69
239.655	-0.97
240.032	-1.64
240.409	-0.59
240.785	0.02
241.162	0.19
241.539	0.7
241.915	0.05
242.292	-0.49
242.668	-0.02
243.045	0.23
243.421	0.27
243.798	0.61
244.174	0.51
244.551	0.82
244.927	0.92
245.303	1.15
245.679	1.19
246.056	0.97
246.432	1.04
246.808	1
247.184	0.89
247.56	0.66
247.936	1.01
248.312	0.78
248.688	1
249.064	0.82
249.44	0.87
249.815	0.89
250.191	1.01
250.567	0.87
250.943	0.79
251.318	0.97
251.694	0.73
252.069	0.78
252.445	0.68
252.82	0.87
253.196	0.79
253.571	0.74
253.947	0.98
254.322	1.43
254.697	1.31
255.073	1.48
255.448	1.69
255.823	1.39
256.198	1.54
256.573	1.26
256.948	1.54
257.323	1.63
257.698	1.43
258.073	1.59
258.448	1.58
258.823	1.71
259.198	1.59
259.573	1.62
259.948	1.63
260.322	1.83
260.697	1.57
261.072	1.6
261.446	1.86
261.821	1.63
262.195	1.66
262.57	1.68
262.944	1.55
263.319	1.46
263.693	1.63
264.067	1.58
264.442	1.6
264.816	1.54
265.19	1.48
265.564	1.65
265.938	1.39
266.313	1.18
266.687	1.09
267.061	1.06
267.435	1.24
267.809	1.16
268.183	1.06
268.556	1.27
268.93	1.36
269.304	0.93
269.678	1.16
270.051	1.11
270.425	1.06
270.799	1.2
271.172	1.19
271.546	1.09
271.919	0.94
272.293	0.96
272.666	0.93
273.04	0.89
273.413	0.87
273.787	0.9
274.16	1.11
274.533	1.12
274.906	1.11
275.279	1.07
275.653	1.02
276.026	0.84
276.399	0.86
276.772	0.76
277.145	0.92
277.518	0.83
277.891	0.74
278.263	0.65
278.636	0.65
279.009	0.72
279.382	0.88
279.755	1
280.127	1.07
280.5	1.16
280.872	1.22
281.245	1.19
281.617	1.55
281.99	1.56
282.362	1.52
282.735	1.4
283.107	1.37
283.479	1.5
283.852	1.65
284.224	1.59
284.596	1.57
284.968	1.58
285.34	1.76
285.713	1.81
286.085	1.96
286.457	2.02
286.829	2.05
287.201	1.98
287.572	1.97
287.944	2
288.316	1.97
288.688	1.94
289.06	1.97
289.431	1.82
289.803	1.93
290.175	1.94
290.546	2.14
290.918	2.11
291.289	2.12
291.661	2.2
292.032	2.2
292.403	2.13
292.775	2.2
293.146	2.06
293.517	2
293.889	2.07
294.26	2.04
294.631	2.05
295.002	2.12
295.373	2.18
295.744	2.14
296.115	2.14
296.486	2.1
296.857	2.1
297.228	2.22
297.599	2.15
297.97	2.21
298.34	2.12
298.711	2.23
299.082	2.25
299.452	2.16
299.823	2.4
300.194	2.52
300.564	2.58
300.935	2.66
301.305	2.86
301.676	2.9
302.046	3.01
302.416	3.15
302.787	3.13
303.157	3.22
303.527	3.31
303.897	3.5
304.267	3.84
304.637	4.03
305.008	4.07
305.378	4.16
305.748	4.22
306.117	4.31
306.487	4.36
306.857	4.34
307.227	4.48
307.597	4.28
307.967	4.32
308.336	4.29
308.706	4.33
309.076	4.32
309.445	4.27
309.815	4.39
310.184	4.35
310.554	4.52
310.923	4.51
311.293	4.5
311.662	4.44
312.031	4.32
312.401	4.28
312.77	4.32
313.139	4.41
313.508	4.39
313.877	4.43
314.246	4.48
314.616	4.4
314.985	4.36
315.353	4.38
315.722	4.59
316.091	4.64
316.46	4.63
316.829	4.7
317.198	4.81
317.567	4.76
317.935	4.72
318.304	4.75
318.672	4.82
319.041	4.94
319.41	5.01
319.778	4.94
320.147	4.93
320.515	4.84
320.883	4.84
321.252	5.06
321.62	5.17
321.988	5.31
322.357	5.51
322.725	5.62
323.093	5.79
323.461	5.75
323.829	5.8
324.197	5.92
324.565	5.83
324.933	5.79
325.301	5.79
325.669	5.91
326.037	5.93
326.405	6.09
326.772	6.14
327.14	6.16
327.508	6.46
327.875	6.51
328.243	6.64
328.61	6.58
328.978	6.53
329.346	6.68
329.713	6.66
330.08	6.79
330.448	6.69
330.815	6.46
331.182	6.51
331.55	6.59
331.917	6.57
332.284	6.79
332.651	6.85
333.018	6.82
333.385	6.82
333.752	6.79
334.119	6.71
334.486	6.66
334.853	6.73
335.22	6.57
335.587	6.66
335.954	6.64
336.32	6.78
336.687	6.81
337.054	6.67
337.42	6.64
337.787	6.59
338.153	6.71
338.52	6.89
338.886	6.75
339.253	6.72
339.619	6.68
339.986	6.64
340.352	6.66
340.718	6.76
341.084	6.77
341.451	6.88
341.817	6.98
342.183	6.99
342.549	6.95
342.915	7.1
343.281	7.11
343.647	7.12
344.013	7.11
344.379	7.1
344.745	7.2
345.11	7.24
345.476	7.26
345.842	7.2
346.208	7.25
346.573	7.38
346.939	7.49
347.304	7.48
347.67	7.45
348.035	7.46
348.401	7.52
348.766	7.5
349.132	7.38
349.497	7.22
349.862	7.32
350.228	7.34
350.593	7.2
350.958	7.15
351.323	7.16
351.688	7.11
352.053	7.16
352.418	7.12
352.783	7.08
353.148	7.14
353.513	7.23
353.878	7.21
354.243	7.23
354.608	7.22
354.972	7.28
355.337	7.26
355.702	7.31
356.066	7.29
356.431	7.28
356.795	7.4
357.16	7.44
357.524	7.36
357.889	7.26
358.253	7.24
358.618	7.3
358.982	7.24
359.346	7.22
359.71	7.21
360.075	7.19
360.439	7.25
360.803	7.15
361.167	7.13
361.531	7.09
361.895	7.01
362.259	6.96
362.623	6.92
362.987	6.85
363.351	6.81
363.714	6.77
364.078	6.77
364.442	6.63
364.806	6.59
365.169	6.53
365.533	6.51
365.896	6.5
366.26	6.43
366.623	6.4
366.987	6.38
367.35	6.36
367.714	6.32
368.077	6.17
368.44	6.16
368.803	6.09
369.167	6.06
369.53	5.96
369.893	5.92
370.256	5.9
370.619	5.84
370.982	5.75
371.345	5.61
371.708	5.56
372.071	5.53
372.434	5.46
372.797	5.46
373.159	5.46
373.522	5.4
373.885	5.39
374.247	5.42
374.61	5.34
374.973	5.22
375.335	5.12
375.698	5.09
376.06	5.06
376.423	4.95
376.785	4.93
377.147	4.92
377.51	4.8
377.872	4.77
378.234	4.73
378.596	4.69
378.958	4.68
379.321	4.64
379.683	4.6
380.045	4.61
380.407	4.54
380.769	4.5
381.13	4.47
381.492	4.39
381.854	4.35
382.216	4.33
382.578	4.32
382.939	4.27
383.301	4.25
383.663	4.15
384.024	4.15
384.386	4.15
384.747	4.18
385.109	4.2
385.47	4.11
385.832	4.09
386.193	4.09
386.554	4.05
386.916	4
387.277	3.94
387.638	3.89
387.999	3.85
388.36	3.82
388.721	3.76
389.082	3.73
389.443	3.64
389.804	3.59
390.165	3.56
390.526	3.51
390.887	3.47
391.248	3.53
391.609	3.49
391.969	3.4
392.33	3.34
392.691	3.33
393.051	3.31
393.412	3.3
393.772	3.25
394.133	3.23
394.493	3.2
394.854	3.17
395.214	3.17
395.574	3.16
395.935	3.12
396.295	3.11
396.655	3.07
397.015	3.05
397.376	3.04
397.736	3.03
398.096	3.09
398.456	3.05
398.816	3
399.176	2.96
399.535	2.92
399.895	2.9
400.255	2.86
400.615	2.85
400.975	2.8
401.334	2.75
401.694	2.71
402.054	2.72
402.413	2.73
402.773	2.68
403.132	2.64
403.492	2.64
403.851	2.64
404.211	2.65
404.57	2.64
404.929	2.62
405.288	2.57
405.648	2.52
406.007	2.54
406.366	2.5
406.725	2.5
407.084	2.52
407.443	2.47
407.802	2.47
408.161	2.42
408.52	2.41
408.879	2.42
409.238	2.44
409.596	2.43
409.955	2.4
410.314	2.41
410.673	2.42
411.031	2.39
411.39	2.4
411.748	2.36
412.107	2.33
412.465	2.31
412.824	2.3
413.182	2.3
413.54	2.3
413.899	2.33
414.257	2.33
414.615	2.31
414.974	2.35
415.332	2.33
415.69	2.35
416.048	2.34
416.406	2.34
416.764	2.32
417.122	2.31
417.48	2.29
417.838	2.28
418.195	2.27
418.553	2.25
418.911	2.22
419.269	2.22
419.626	2.24
419.984	2.23
420.342	2.24
420.699	2.23
421.057	2.22
421.414	2.22
421.772	2.2
422.129	2.19
422.486	2.17
422.844	2.16
423.201	2.13
423.558	2.11
423.915	2.1
424.273	2.08
424.63	2.06
424.987	2.06
425.344	2.05
425.701	2.06
426.058	2.06
426.415	2.06
426.772	2.05
427.128	2.01
427.485	2.03
427.842	2
428.199	2
428.555	1.99
428.912	1.96
429.269	1.98
429.625	1.96
429.982	1.96
430.338	1.97
430.695	2.01
431.051	2.02
431.407	2.02
431.764	2.03
432.12	2.04
432.476	2.01
432.832	2.01
433.189	2
433.545	1.99
433.901	1.98
434.257	1.98
434.613	1.99
434.969	1.98
435.325	1.99
435.681	1.98
436.036	1.96
436.392	1.96
436.748	1.93
437.104	1.94
437.459	1.94
437.815	1.92
438.171	1.9
438.526	1.91
438.882	1.92
439.237	1.92
439.593	1.92
439.948	1.93
440.304	1.93
440.659	1.93
441.014	1.94
441.369	1.93
441.725	1.92
442.08	1.93
442.435	1.92
442.79	1.91
443.145	1.91
443.5	1.9
443.855	1.89
444.21	1.9
444.565	1.9
444.92	1.91
445.275	1.9
445.629	1.91
445.984	1.91
446.339	1.89
446.693	1.9
447.048	1.88
447.403	1.87
447.757	1.85
448.112	1.84
448.466	1.83
448.82	1.82
449.175	1.83
449.529	1.81
449.883	1.8
450.238	1.79
450.592	1.8
450.946	1.79
451.3	1.79
451.654	1.79
452.008	1.78
452.362	1.75
452.716	1.74
453.07	1.74
453.424	1.73
453.778	1.75
454.132	1.72
454.486	1.72
454.839	1.71
455.193	1.71
455.547	1.71
455.9	1.72
456.254	1.7
456.607	1.7
456.961	1.71
457.314	1.72
457.668	1.72
458.021	1.71
458.375	1.71
458.728	1.71
459.081	1.7
459.434	1.71
459.787	1.73
460.141	1.75
460.494	1.75
460.847	1.75
461.2	1.73
461.553	1.74
461.906	1.77
462.259	1.81
462.611	1.82
462.964	1.84
463.317	1.85
463.67	1.85
464.022	1.85
464.375	1.85
464.728	1.86
465.08	1.85
465.433	1.86
465.785	1.86
466.138	1.89
466.49	1.89
466.843	1.89
467.195	1.89
467.547	1.88
467.899	1.88
468.252	1.88
468.604	1.89
468.956	1.88
469.308	1.87
469.66	1.84
470.012	1.86
470.364	1.85
470.716	1.85
471.068	1.86
471.42	1.88
471.772	1.89
472.123	1.91
472.475	1.94
472.827	1.95
473.178	1.98
473.53	1.94
473.882	1.94
474.233	1.96
474.585	1.95
474.936	1.96
475.288	1.96
475.639	1.97
475.99	1.96
476.342	1.95
476.693	1.95
477.044	1.98
477.395	1.96
477.746	1.96
478.097	1.94
478.448	1.96
478.8	1.95
479.15	1.92
479.501	1.91
479.852	1.89
480.203	1.89
480.554	1.88
480.905	1.9
481.255	1.9
481.606	1.9
481.957	1.91
482.307	1.91
482.658	1.91
483.009	1.9
483.359	1.9
483.709	1.9
484.06	1.9
484.41	1.9
484.761	1.91
485.111	1.91
485.461	1.92
485.811	1.91
486.162	1.9
486.512	1.91
486.862	1.91
487.212	1.92
487.562	1.92
487.912	1.93
488.262	1.93
488.612	1.93
488.961	1.93
489.311	1.93
489.661	1.92
490.011	1.92
490.36	1.92
490.71	1.93
491.06	1.93
491.409	1.94
491.759	1.94
492.108	1.94
492.458	1.94
492.807	1.95
493.157	1.96
493.506	1.97
493.855	1.99
494.204	2
494.554	2.02
494.903	2.01
495.252	2
495.601	2.01
495.95	2.02
496.299	2.03
496.648	2.05
496.997	2.07
497.346	2.08
497.695	2.11
498.043	2.12
498.392	2.15
498.741	2.16
499.09	2.17
499.438	2.19
499.787	2.22
500.135	2.25
500.484	2.28
500.832	2.33
501.181	2.34
501.529	2.36
501.878	2.4
502.226	2.43
502.574	2.47
502.923	2.48
503.271	2.52
503.619	2.57
503.967	2.62
504.315	2.65
504.663	2.69
505.011	2.72
505.359	2.76
505.707	2.78
506.055	2.83
506.403	2.86
506.751	2.91
507.098	2.94
507.446	2.97
507.794	2.99
508.141	3.04
508.489	3.07
508.837	3.12
509.184	3.17
509.531	3.22
509.879	3.27
510.226	3.35
510.574	3.39
510.921	3.44
511.268	3.47
511.616	3.54
511.963	3.58
512.31	3.65
512.657	3.72
513.004	3.78
513.351	3.86
513.698	3.94
514.045	3.98
514.392	4.08
514.739	4.17
515.086	4.28
515.432	4.32
515.779	4.41
516.126	4.48
516.473	4.55
516.819	4.61
517.166	4.67
517.512	4.71
517.859	4.78
518.205	4.84
518.552	4.92
518.898	4.98
519.245	5.06
519.591	5.12
519.937	5.18
520.283	5.27
520.629	5.34
520.976	5.41
521.322	5.51
521.668	5.58
522.014	5.65
522.36	5.72
522.706	5.8
523.052	5.89
523.398	6.01
523.743	6.13
524.089	6.24
524.435	6.35
524.781	6.47
525.126	6.56
525.472	6.68
525.817	6.76
526.163	6.82
526.509	6.89
526.854	6.94
527.199	7.01
527.545	7.07
527.89	7.13
528.235	7.19
528.581	7.25
528.926	7.32
529.271	7.39
529.616	7.44
529.961	7.52
530.306	7.6
530.651	7.68
530.996	7.77
531.341	7.85
531.686	7.94
532.031	8.02
532.376	8.11
532.721	8.19
533.065	8.28
533.41	8.39
533.755	8.48
534.099	8.59
534.444	8.71
534.788	8.79
535.133	8.89
535.477	9
535.822	9.1
536.166	9.22
536.51	9.33
536.855	9.5
537.199	9.62
537.543	9.76
537.887	9.87
538.231	9.98
538.576	10.13
538.92	10.28
539.264	10.39
539.608	10.51
539.951	10.62
540.295	10.73
540.639	10.85
540.983	10.98
541.327	11.1
541.671	11.22
542.014	11.34
542.358	11.46
542.701	11.57
543.045	11.69
543.389	11.81
543.732	11.95
544.075	12.06
544.419	12.2
544.762	12.32
545.105	12.48
545.449	12.63
545.792	12.76
546.135	12.92
546.478	13.11
546.821	13.31
547.165	13.48
547.508	13.66
547.851	13.84
548.194	14.02
548.536	14.22
548.879	14.39
549.222	14.58
549.565	14.79
549.908	15.03
550.25	15.24
550.593	15.44
550.936	15.61
551.278	15.83
551.621	16.02
551.963	16.25
552.306	16.42
552.648	16.62
552.991	16.85
553.333	17.02
553.675	17.22
554.017	17.39
554.36	17.56
554.702	17.78
555.044	17.98
555.386	18.17
555.728	18.33
556.07	18.53
556.412	18.72
556.754	18.9
557.096	19.08
557.438	19.27
557.78	19.47
558.121	19.71
558.463	19.89
558.805	20.07
559.147	20.28
559.488	20.5
559.83	20.68
560.171	20.86
560.513	21.09
560.854	21.24
561.196	21.44
561.537	21.66
561.878	21.85
562.22	22.06
562.561	22.23
562.902	22.43
563.243	22.6
563.584	22.83
563.925	23.02
564.266	23.18
564.607	23.34
564.948	23.53
565.289	23.69
565.63	23.86
565.971	24
566.312	24.17
566.653	24.34
566.993	24.52
567.334	24.64
567.675	24.77
568.015	24.92
568.356	25.04
568.696	25.2
569.037	25.35
569.377	25.47
569.718	25.65
570.058	25.76
570.398	25.93
570.739	26.03
571.079	26.15
571.419	26.26
571.759	26.38
572.099	26.51
572.439	26.63
572.779	26.75
573.119	26.89
573.459	27
573.799	27.12
574.139	27.26
574.479	27.42
574.819	27.52
575.158	27.61
575.498	27.73
575.838	27.82
576.177	27.91
576.517	28.01
576.856	28.09
577.196	28.19
577.535	28.3
577.875	28.41
578.214	28.53
578.553	28.66
578.893	28.75
579.232	28.82
579.571	28.93
579.91	29.01
580.25	29.11
580.589	29.2
580.928	29.27
581.267	29.33
581.606	29.36
581.945	29.44
582.283	29.55
582.622	29.67
582.961	29.75
583.3	29.86
583.639	29.96
583.977	30.07
584.316	30.17
584.654	30.2
584.993	30.28
585.332	30.35
585.67	30.41
586.008	30.55
586.347	30.59
586.685	30.68
587.024	30.76
587.362	30.85
587.7	30.88
588.038	31
588.376	31.02
588.715	31.11
589.053	31.2
589.391	31.29
589.729	31.32
590.067	31.43
590.404	31.51
590.742	31.54
591.08	31.61
591.418	31.7
591.756	31.81
592.093	31.89
592.431	31.95
592.769	32.03
593.106	32.1
593.444	32.13
593.781	32.14
594.119	32.2
594.456	32.23
594.793	32.3
595.131	32.29
595.468	32.39
595.805	32.45
596.143	32.52
596.48	32.57
596.817	32.65
597.154	32.66
597.491	32.67
597.828	32.75
598.165	32.74
598.502	32.78
598.839	32.75
599.176	32.73
599.512	32.81
599.849	32.86
600.186	32.87
600.523	32.95
600.859	33.06
601.196	33.12
601.532	33.14
601.869	33.17
602.205	33.22
602.542	33.28
602.878	33.33
603.215	33.33
603.551	33.35
603.887	33.36
604.223	33.38
604.56	33.43
604.896	33.43
605.232	33.47
605.568	33.47
605.904	33.52
606.24	33.6
606.576	33.62
606.912	33.59
607.248	33.63
607.583	33.68
607.919	33.7
608.255	33.68
608.591	33.78
608.926	33.85
609.262	33.93
609.597	33.91
609.933	33.91
610.268	33.93
610.604	33.95
610.939	33.96
611.275	34.03
611.61	34.05
611.945	34.12
612.281	34.17
612.616	34.22
612.951	34.22
613.286	34.21
613.621	34.23
613.956	34.25
614.291	34.31
614.626	34.42
614.961	34.38
615.296	34.42
615.631	34.37
615.966	34.33
616.3	34.3
616.635	34.37
616.97	34.36
617.304	34.44
617.639	34.51
617.973	34.56
618.308	34.52
618.642	34.51
618.977	34.49
619.311	34.49
619.646	34.5
619.98	34.52
620.314	34.63
620.648	34.61
620.983	34.71
621.317	34.71
621.651	34.57
621.985	34.65
622.319	34.68
622.653	34.73
622.987	34.8
623.321	34.8
623.655	34.82
623.988	34.85
624.322	34.79
624.656	34.7
624.99	34.66
625.323	34.73
625.657	34.74
625.99	34.78
626.324	34.78
626.657	34.79
626.991	34.86
627.324	34.77
627.658	34.84
627.991	34.83
628.324	34.85
628.657	34.88
628.991	34.89
629.324	34.88
629.657	34.88
629.99	34.92
630.323	34.9
630.656	34.91
630.989	34.91
631.322	34.9
631.655	34.98
631.987	34.95
632.32	34.94
632.653	34.91
632.986	34.9
633.318	34.97
633.651	35
633.984	34.98
634.316	35
634.649	34.97
634.981	35
635.313	34.95
635.646	34.95
635.978	34.96
636.31	34.93
636.643	34.98
636.975	34.93
637.307	34.97
637.639	34.86
637.971	34.89
638.303	34.88
638.635	34.98
638.967	35.07
639.299	35.05
639.631	35.13
639.963	35.08
640.295	35
640.626	35.01
640.958	35.08
641.29	35.1
641.621	35.11
641.953	35.11
642.285	35.07
642.616	35.12
642.948	35
643.279	34.99
643.61	34.96
643.942	34.92
644.273	34.93
644.604	35.02
644.936	34.99
645.267	35.05
645.598	34.91
645.929	34.89
646.26	34.86
646.591	34.83
646.922	34.85
647.253	34.83
647.584	34.8
647.915	34.72
648.245	34.81
648.576	34.83
648.907	34.77
649.238	34.76
649.568	34.84
649.899	34.91
650.229	34.96
650.56	35.03
650.89	35.13
651.221	35.1
651.551	35.1
651.882	35.18
652.212	35.2
652.542	35.25
652.872	35.12
653.203	35.2
653.533	35.25
653.863	35.28
654.193	35.32
654.523	35.37
654.853	35.41
655.183	35.31
655.513	35.29
655.843	35.37
656.172	35.46
656.502	35.38
656.832	35.38
657.162	35.47
657.491	35.42
657.821	35.36
658.15	35.36
658.48	35.37
658.809	35.3
659.139	35.29
659.468	35.26
659.798	35.44
660.127	35.47
660.456	35.47
660.785	35.48
661.115	35.57
661.444	35.54
661.773	35.5
662.102	35.52
662.431	35.56
662.76	35.48
663.089	35.53
663.418	35.53
663.747	35.53
664.076	35.54
664.404	35.52
664.733	35.46
665.062	35.43
665.39	35.46
665.719	35.46
666.048	35.5
666.376	35.47
666.705	35.44
667.033	35.29
667.362	35.29
667.69	35.24
668.018	35.12
668.347	35.12
668.675	35.19
669.003	35.19
669.331	35.21
