Data from BU58137_Reflection_00012.txt Node
Date: Mon Nov 18 16:39:56 EST 2019
User: vgr7
Spectrometer: USB2G7710
Scans to average: 3
Trigger mode: 4
Integration Time (sec): 2.000000E-2
Electric dark correction enabled: true
Boxcar width: 10
XAxis mode: Wavelengths
Number of Pixels in Spectrum: 2048
>>>>>Begin Spectral Data<<<<<
177.721	164.46
178.105	164.85
178.488	137.19
178.871	362.2
179.254	195.12
179.636	-165.31
180.019	109.35
180.402	90.91
180.785	-120.22
181.168	287.12
181.55	-386.63
181.933	178.34
182.316	179.48
182.698	301.48
183.081	387.05
183.463	373.45
183.846	375.9
184.228	264.52
184.611	224.25
184.993	405.74
185.376	220.58
185.758	396.57
186.14	360.82
186.522	424.57
186.904	2117.96
187.287	682.64
187.669	-1548.65
188.051	863.21
188.433	-974.44
188.815	-711.46
189.197	-521.23
189.579	-418.56
189.961	-219.53
190.342	-183.35
190.724	-253.65
191.106	-226.9
191.488	-193.16
191.869	-201.8
192.251	-153.46
192.633	-173.45
193.014	-225.57
193.396	-202.12
193.777	-212.47
194.159	-166.81
194.54	-129.38
194.922	-101.23
195.303	-63.33
195.684	-55.61
196.065	-28.3
196.447	-44.81
196.828	-46.88
197.209	-32.64
197.59	-45.13
197.971	-62.4
198.352	-84.42
198.733	-75.43
199.114	-47.01
199.495	-32.78
199.876	-37.08
200.257	-49.37
200.638	-30.39
201.018	-22.79
201.399	-37.07
201.78	-24.67
202.16	-26.92
202.541	-43.08
202.922	-82.6
203.302	-89.89
203.683	-66.89
204.063	-110.84
204.444	-75.81
204.824	-92.26
205.204	-109.15
205.585	-95.26
205.965	-100.79
206.345	-88.6
206.725	-89.72
207.106	-122.92
207.486	-124.3
207.866	-108.65
208.246	-75.74
208.626	-66.62
209.006	-44.7
209.386	-62.91
209.766	-72.11
210.145	-78.83
210.525	-70.23
210.905	-37.97
211.285	-35.09
211.664	-53.93
212.044	-41.97
212.424	-30.99
212.803	-35.7
213.183	-34.89
213.562	-32.79
213.942	-22.25
214.321	-14.77
214.701	-27.99
215.08	-22.9
215.459	-25.58
215.838	-36.45
216.218	-40.33
216.597	-64.48
216.976	-67.17
217.355	-47.95
217.734	-48.99
218.113	-41.51
218.492	-33.07
218.871	-76
219.25	-89.83
219.629	-92.78
220.008	-104.11
220.387	-156.32
220.766	-116.27
221.144	-129.17
221.523	-109.38
221.902	-125.27
222.28	-149.2
222.659	-107.2
223.037	-90.01
223.416	-107.49
223.794	-97.39
224.173	-99.9
224.551	-56.67
224.929	-45.26
225.308	-38.8
225.686	-37.61
226.064	-33
226.442	-30.35
226.821	-21.87
227.199	-20.23
227.577	-18.69
227.955	-13.91
228.333	-11.04
228.711	-8.78
229.089	-4.03
229.467	-5.71
229.845	-5.34
230.222	-1.52
230.6	-3.58
230.978	-2.87
231.356	0.08
231.733	-1.58
232.111	-0.34
232.488	-0.45
232.866	-1.44
233.243	1.15
233.621	1.78
233.998	2.62
234.376	0.66
234.753	0.79
235.13	2.39
235.508	4.08
235.885	1.3
236.262	0.11
236.639	0.52
237.016	1.55
237.393	2.13
237.77	2.7
238.147	2.43
238.524	3.4
238.901	3.56
239.278	4.16
239.655	5.07
240.032	5.2
240.409	4.97
240.785	4.94
241.162	4.17
241.539	3.92
241.915	4.09
242.292	4.52
242.668	4.41
243.045	4.31
243.421	4.25
243.798	4.34
244.174	4.3
244.551	4.05
244.927	3.61
245.303	3.97
245.679	3.88
246.056	3.91
246.432	3.69
246.808	3.64
247.184	3.37
247.56	3.04
247.936	3.01
248.312	3.38
248.688	3.24
249.064	3.31
249.44	3.34
249.815	3.31
250.191	3.61
250.567	3.74
250.943	3.6
251.318	3.63
251.694	3.73
252.069	3.78
252.445	3.92
252.82	4.26
253.196	3.92
253.571	3.83
253.947	3.77
254.322	4.02
254.697	3.8
255.073	3.81
255.448	3.76
255.823	3.87
256.198	3.34
256.573	3.49
256.948	3.56
257.323	3.65
257.698	3.73
258.073	3.55
258.448	3.55
258.823	3.61
259.198	3.42
259.573	3.52
259.948	3.44
260.322	3.59
260.697	3.48
261.072	3.43
261.446	3.53
261.821	3.43
262.195	3.54
262.57	3.43
262.944	3.47
263.319	3.59
263.693	3.49
264.067	3.52
264.442	3.53
264.816	3.48
265.19	3.29
265.564	3.02
265.938	2.8
266.313	2.65
266.687	2.67
267.061	3.03
267.435	2.83
267.809	2.97
268.183	2.96
268.556	2.9
268.93	3.02
269.304	2.93
269.678	3.25
270.051	3.02
270.425	3.21
270.799	3.01
271.172	2.82
271.546	2.82
271.919	2.81
272.293	2.77
272.666	2.83
273.04	3.08
273.413	3.19
273.787	3.12
274.16	3.23
274.533	3.1
274.906	2.82
275.279	2.75
275.653	2.77
276.026	2.54
276.399	2.57
276.772	2.58
277.145	2.53
277.518	2.42
277.891	2.53
278.263	2.64
278.636	2.85
279.009	2.97
279.382	3.11
279.755	3.14
280.127	3.16
280.5	3.24
280.872	3.13
281.245	3.19
281.617	3.37
281.99	3.31
282.362	3.42
282.735	3.45
283.107	3.64
283.479	3.66
283.852	3.64
284.224	3.71
284.596	3.67
284.968	3.89
285.34	3.74
285.713	3.67
286.085	3.64
286.457	3.63
286.829	3.82
287.201	3.79
287.572	3.76
287.944	3.68
288.316	3.51
288.688	3.41
289.06	3.48
289.431	3.56
289.803	3.53
290.175	3.39
290.546	3.52
290.918	3.45
291.289	3.46
291.661	3.6
292.032	3.52
292.403	3.62
292.775	3.53
293.146	3.64
293.517	3.7
293.889	3.82
294.26	3.84
294.631	3.82
295.002	3.78
295.373	3.82
295.744	3.98
296.115	4.07
296.486	4.08
296.857	4.08
297.228	4.11
297.599	4.15
297.97	4.3
298.34	4.28
298.711	4.33
299.082	4.36
299.452	4.44
299.823	4.52
300.194	4.43
300.564	4.46
300.935	4.55
301.305	4.55
301.676	4.57
302.046	4.69
302.416	4.8
302.787	4.86
303.157	4.94
303.527	4.9
303.897	5.09
304.267	5.39
304.637	5.38
305.008	5.33
305.378	5.48
305.748	5.58
306.117	5.65
306.487	5.74
306.857	5.68
307.227	5.83
307.597	5.85
307.967	6.05
308.336	6.13
308.706	6.17
309.076	6.28
309.445	6.24
309.815	6.24
310.184	6.31
310.554	6.34
310.923	6.46
311.293	6.6
311.662	6.58
312.031	6.52
312.401	6.69
312.77	6.97
313.139	7.04
313.508	7.25
313.877	7.35
314.246	7.5
314.616	7.65
314.985	7.64
315.353	7.82
315.722	8.07
316.091	8.12
316.46	8.12
316.829	8.21
317.198	8.33
317.567	8.47
317.935	8.3
318.304	8.58
318.672	8.6
319.041	8.66
319.41	8.72
319.778	8.98
320.147	9.16
320.515	8.91
320.883	8.85
321.252	8.8
321.62	8.71
321.988	8.83
322.357	8.88
322.725	8.92
323.093	9.1
323.461	9.09
323.829	9.2
324.197	9.32
324.565	9.5
324.933	9.54
325.301	9.68
325.669	9.87
326.037	9.85
326.405	9.98
326.772	10.14
327.14	10.27
327.508	10.17
327.875	10.01
328.243	10.36
328.61	10.54
328.978	10.57
329.346	10.9
329.713	10.88
330.08	11.16
330.448	11.23
330.815	11.12
331.182	11.21
331.55	11.26
331.917	11.3
332.284	11.4
332.651	11.56
333.018	11.55
333.385	11.64
333.752	11.68
334.119	11.77
334.486	11.74
334.853	11.78
335.22	11.79
335.587	11.87
335.954	11.84
336.32	11.75
336.687	11.74
337.054	11.79
337.42	11.91
337.787	11.89
338.153	11.89
338.52	12.04
338.886	11.92
339.253	12.05
339.619	12.17
339.986	12.08
340.352	12.13
340.718	12.14
341.084	12.19
341.451	12.27
341.817	12.29
342.183	12.3
342.549	12.4
342.915	12.64
343.281	12.6
343.647	12.58
344.013	12.77
344.379	12.77
344.745	12.74
345.11	12.72
345.476	12.68
345.842	12.78
346.208	12.8
346.573	12.82
346.939	12.84
347.304	12.8
347.67	12.87
348.035	12.86
348.401	12.92
348.766	12.91
349.132	12.95
349.497	12.92
349.862	12.96
350.228	12.9
350.593	12.82
350.958	12.95
351.323	12.93
351.688	12.9
352.053	12.97
352.418	12.89
352.783	12.91
353.148	12.93
353.513	12.82
353.878	12.78
354.243	12.82
354.608	12.82
354.972	12.85
355.337	12.85
355.702	12.87
356.066	12.87
356.431	12.85
356.795	12.82
357.16	12.76
357.524	12.6
357.889	12.58
358.253	12.58
358.618	12.53
358.982	12.43
359.346	12.27
359.71	12.25
360.075	12.26
360.439	12.13
360.803	12.11
361.167	12.12
361.531	12.1
361.895	11.99
362.259	11.87
362.623	11.79
362.987	11.73
363.351	11.69
363.714	11.62
364.078	11.51
364.442	11.39
364.806	11.33
365.169	11.37
365.533	11.33
365.896	11.17
366.26	11.13
366.623	11.1
366.987	11.06
367.35	10.91
367.714	10.83
368.077	10.74
368.44	10.57
368.803	10.48
369.167	10.33
369.53	10.29
369.893	10.34
370.256	10.29
370.619	10.11
370.982	9.93
371.345	9.79
371.708	9.7
372.071	9.63
372.434	9.5
372.797	9.38
373.159	9.28
373.522	9.22
373.885	9.12
374.247	9.13
374.61	9.03
374.973	9
375.335	8.85
375.698	8.86
376.06	8.81
376.423	8.77
376.785	8.73
377.147	8.68
377.51	8.47
377.872	8.37
378.234	8.32
378.596	8.26
378.958	8.26
379.321	8.23
379.683	8.17
380.045	8.16
380.407	8.13
380.769	8.03
381.13	7.97
381.492	7.83
381.854	7.73
382.216	7.74
382.578	7.72
382.939	7.64
383.301	7.55
383.663	7.49
384.024	7.36
384.386	7.31
384.747	7.28
385.109	7.27
385.47	7.23
385.832	7.19
386.193	7.14
386.554	7.08
386.916	6.98
387.277	6.93
387.638	6.9
387.999	6.79
388.36	6.74
388.721	6.7
389.082	6.7
389.443	6.63
389.804	6.56
390.165	6.49
390.526	6.47
390.887	6.41
391.248	6.4
391.609	6.39
391.969	6.3
392.33	6.21
392.691	6.12
393.051	6.02
393.412	5.97
393.772	5.9
394.133	5.83
394.493	5.83
394.854	5.77
395.214	5.73
395.574	5.72
395.935	5.66
396.295	5.65
396.655	5.57
397.015	5.53
397.376	5.49
397.736	5.42
398.096	5.38
398.456	5.34
398.816	5.26
399.176	5.14
399.535	5.09
399.895	5.03
400.255	5.02
400.615	5.02
400.975	4.96
401.334	4.95
401.694	4.93
402.054	4.83
402.413	4.81
402.773	4.73
403.132	4.68
403.492	4.67
403.851	4.58
404.211	4.59
404.57	4.57
404.929	4.53
405.288	4.49
405.648	4.45
406.007	4.4
406.366	4.39
406.725	4.41
407.084	4.42
407.443	4.43
407.802	4.4
408.161	4.36
408.52	4.34
408.879	4.32
409.238	4.31
409.596	4.35
409.955	4.33
410.314	4.34
410.673	4.31
411.031	4.3
411.39	4.27
411.748	4.22
412.107	4.21
412.465	4.19
412.824	4.21
413.182	4.2
413.54	4.18
413.899	4.2
414.257	4.19
414.615	4.17
414.974	4.12
415.332	4.08
415.69	4.03
416.048	4
416.406	3.96
416.764	3.92
417.122	3.9
417.48	3.88
417.838	3.85
418.195	3.85
418.553	3.84
418.911	3.82
419.269	3.81
419.626	3.79
419.984	3.78
420.342	3.75
420.699	3.75
421.057	3.74
421.414	3.7
421.772	3.68
422.129	3.66
422.486	3.65
422.844	3.64
423.201	3.63
423.558	3.61
423.915	3.62
424.273	3.62
424.63	3.6
424.987	3.59
425.344	3.57
425.701	3.54
426.058	3.51
426.415	3.49
426.772	3.47
427.128	3.46
427.485	3.43
427.842	3.42
428.199	3.38
428.555	3.37
428.912	3.37
429.269	3.38
429.625	3.37
429.982	3.35
430.338	3.35
430.695	3.37
431.051	3.37
431.407	3.37
431.764	3.35
432.12	3.35
432.476	3.35
432.832	3.35
433.189	3.37
433.545	3.37
433.901	3.38
434.257	3.37
434.613	3.36
434.969	3.36
435.325	3.34
435.681	3.34
436.036	3.33
436.392	3.32
436.748	3.3
437.104	3.29
437.459	3.3
437.815	3.3
438.171	3.31
438.526	3.32
438.882	3.32
439.237	3.34
439.593	3.35
439.948	3.34
440.304	3.32
440.659	3.33
441.014	3.33
441.369	3.32
441.725	3.32
442.08	3.33
442.435	3.34
442.79	3.35
443.145	3.36
443.5	3.36
443.855	3.37
444.21	3.36
444.565	3.38
444.92	3.37
445.275	3.35
445.629	3.33
445.984	3.32
446.339	3.29
446.693	3.27
447.048	3.25
447.403	3.25
447.757	3.25
448.112	3.24
448.466	3.23
448.82	3.24
449.175	3.24
449.529	3.22
449.883	3.21
450.238	3.21
450.592	3.21
450.946	3.19
451.3	3.17
451.654	3.18
452.008	3.16
452.362	3.14
452.716	3.14
453.07	3.16
453.424	3.14
453.778	3.16
454.132	3.14
454.486	3.14
454.839	3.13
455.193	3.13
455.547	3.1
455.9	3.1
456.254	3.1
456.607	3.1
456.961	3.11
457.314	3.1
457.668	3.09
458.021	3.08
458.375	3.09
458.728	3.09
459.081	3.1
459.434	3.1
459.787	3.1
460.141	3.11
460.494	3.1
460.847	3.12
461.2	3.12
461.553	3.14
461.906	3.16
462.259	3.16
462.611	3.16
462.964	3.18
463.317	3.2
463.67	3.2
464.022	3.21
464.375	3.21
464.728	3.22
465.08	3.23
465.433	3.24
465.785	3.24
466.138	3.24
466.49	3.24
466.843	3.25
467.195	3.28
467.547	3.3
467.899	3.31
468.252	3.32
468.604	3.32
468.956	3.33
469.308	3.35
469.66	3.37
470.012	3.38
470.364	3.39
470.716	3.4
471.068	3.4
471.42	3.42
471.772	3.44
472.123	3.45
472.475	3.42
472.827	3.43
473.178	3.45
473.53	3.46
473.882	3.46
474.233	3.47
474.585	3.47
474.936	3.47
475.288	3.46
475.639	3.48
475.99	3.49
476.342	3.49
476.693	3.43
477.044	3.44
477.395	3.43
477.746	3.43
478.097	3.42
478.448	3.41
478.8	3.4
479.15	3.4
479.501	3.38
479.852	3.39
480.203	3.4
480.554	3.4
480.905	3.41
481.255	3.41
481.606	3.41
481.957	3.4
482.307	3.4
482.658	3.39
483.009	3.37
483.359	3.37
483.709	3.36
484.06	3.36
484.41	3.36
484.761	3.37
485.111	3.36
485.461	3.37
485.811	3.38
486.162	3.37
486.512	3.39
486.862	3.4
487.212	3.39
487.562	3.4
487.912	3.41
488.262	3.4
488.612	3.4
488.961	3.4
489.311	3.4
489.661	3.4
490.011	3.42
490.36	3.43
490.71	3.43
491.06	3.45
491.409	3.46
491.759	3.47
492.108	3.47
492.458	3.48
492.807	3.47
493.157	3.49
493.506	3.51
493.855	3.51
494.204	3.52
494.554	3.53
494.903	3.54
495.252	3.55
495.601	3.58
495.95	3.61
496.299	3.64
496.648	3.66
496.997	3.71
497.346	3.73
497.695	3.76
498.043	3.79
498.392	3.81
498.741	3.85
499.09	3.89
499.438	3.94
499.787	3.97
500.135	4.04
500.484	4.09
500.832	4.13
501.181	4.17
501.529	4.23
501.878	4.29
502.226	4.33
502.574	4.38
502.923	4.42
503.271	4.47
503.619	4.54
503.967	4.6
504.315	4.65
504.663	4.69
505.011	4.76
505.359	4.84
505.707	4.91
506.055	4.96
506.403	5.03
506.751	5.1
507.098	5.19
507.446	5.26
507.794	5.33
508.141	5.39
508.489	5.49
508.837	5.55
509.184	5.63
509.531	5.72
509.879	5.8
510.226	5.88
510.574	5.97
510.921	6.04
511.268	6.1
511.616	6.19
511.963	6.29
512.31	6.39
512.657	6.47
513.004	6.57
513.351	6.68
513.698	6.8
514.045	6.88
514.392	6.99
514.739	7.1
515.086	7.22
515.432	7.32
515.779	7.42
516.126	7.56
516.473	7.69
516.819	7.8
517.166	7.91
517.512	8.02
517.859	8.12
518.205	8.22
518.552	8.34
518.898	8.46
519.245	8.57
519.591	8.64
519.937	8.73
520.283	8.87
520.629	9
520.976	9.12
521.322	9.28
521.668	9.39
522.014	9.53
522.36	9.69
522.706	9.86
523.052	10.02
523.398	10.2
523.743	10.37
524.089	10.57
524.435	10.76
524.781	10.95
525.126	11.11
525.472	11.27
525.817	11.43
526.163	11.55
526.509	11.68
526.854	11.82
527.199	11.97
527.545	12.09
527.89	12.2
528.235	12.33
528.581	12.46
528.926	12.61
529.271	12.75
529.616	12.88
529.961	13.03
530.306	13.18
530.651	13.31
530.996	13.47
531.341	13.63
531.686	13.77
532.031	13.96
532.376	14.13
532.721	14.33
533.065	14.53
533.41	14.75
533.755	14.98
534.099	15.19
534.444	15.4
534.788	15.62
535.133	15.83
535.477	16.04
535.822	16.28
536.166	16.51
536.51	16.78
536.855	17.05
537.199	17.33
537.543	17.63
537.887	17.95
538.231	18.26
538.576	18.57
538.92	18.9
539.264	19.18
539.608	19.46
539.951	19.69
540.295	19.94
540.639	20.19
540.983	20.4
541.327	20.66
541.671	20.87
542.014	21.12
542.358	21.35
542.701	21.61
543.045	21.82
543.389	22.05
543.732	22.29
544.075	22.53
544.419	22.75
544.762	23.01
545.105	23.25
545.449	23.53
545.792	23.81
546.135	24.08
546.478	24.39
546.821	24.72
547.165	25.07
547.508	25.37
547.851	25.68
548.194	25.99
548.536	26.27
548.879	26.6
549.222	26.91
549.565	27.24
549.908	27.57
550.25	27.92
550.593	28.25
550.936	28.53
551.278	28.86
551.621	29.25
551.963	29.55
552.306	29.91
552.648	30.23
552.991	30.57
553.333	30.88
553.675	31.14
554.017	31.43
554.36	31.7
554.702	32.02
555.044	32.3
555.386	32.64
555.728	32.92
556.07	33.27
556.412	33.51
556.754	33.79
557.096	34.09
557.438	34.35
557.78	34.66
558.121	35.01
558.463	35.28
558.805	35.52
559.147	35.79
559.488	35.99
559.83	36.18
560.171	36.44
560.513	36.74
560.854	36.98
561.196	37.27
561.537	37.55
561.878	37.79
562.22	38.04
562.561	38.23
562.902	38.41
563.243	38.63
563.584	38.91
563.925	39.11
564.266	39.3
564.607	39.46
564.948	39.73
565.289	39.87
565.63	40.06
565.971	40.3
566.312	40.46
566.653	40.64
566.993	40.83
567.334	40.95
567.675	41.1
568.015	41.25
568.356	41.31
568.696	41.47
569.037	41.63
569.377	41.76
569.718	41.89
570.058	42.14
570.398	42.3
570.739	42.44
571.079	42.58
571.419	42.73
571.759	42.86
572.099	42.93
572.439	43.04
572.779	43.16
573.119	43.24
573.459	43.41
573.799	43.56
574.139	43.73
574.479	43.92
574.819	43.98
575.158	44.14
575.498	44.3
575.838	44.42
576.177	44.55
576.517	44.68
576.856	44.85
577.196	44.94
577.535	45.04
577.875	45.1
578.214	45.25
578.553	45.38
578.893	45.56
579.232	45.68
579.571	45.9
579.91	46.05
580.25	46.15
580.589	46.26
580.928	46.34
581.267	46.35
581.606	46.39
581.945	46.51
582.283	46.54
582.622	46.77
582.961	46.78
583.3	46.89
583.639	47.05
583.977	47.16
584.316	47.27
584.654	47.33
584.993	47.44
585.332	47.57
585.67	47.6
586.008	47.7
586.347	47.82
586.685	47.85
587.024	47.88
587.362	48.06
587.7	48.19
588.038	48.27
588.376	48.43
588.715	48.44
589.053	48.5
589.391	48.6
589.729	48.56
590.067	48.66
590.404	48.7
590.742	48.73
591.08	48.68
591.418	48.76
591.756	48.76
592.093	48.86
592.431	48.85
592.769	48.9
593.106	48.95
593.444	48.89
593.781	48.93
594.119	48.93
594.456	48.93
594.793	48.89
595.131	48.94
595.468	48.95
595.805	49.06
596.143	49.13
596.48	49.12
596.817	49.1
597.154	49.16
597.491	49.21
597.828	49.22
598.165	49.33
598.502	49.37
598.839	49.49
599.176	49.51
599.512	49.54
599.849	49.64
600.186	49.64
600.523	49.77
600.859	49.79
601.196	49.94
601.532	49.94
601.869	49.97
602.205	50.01
602.542	50.07
602.878	50.06
603.215	50.09
603.551	50.23
603.887	50.28
604.223	50.31
604.56	50.29
604.896	50.37
605.232	50.37
605.568	50.38
605.904	50.43
606.24	50.49
606.576	50.57
606.912	50.59
607.248	50.69
607.583	50.69
607.919	50.74
608.255	50.77
608.591	50.8
608.926	50.91
609.262	50.96
609.597	50.98
609.933	51.05
610.268	51.1
610.604	51.05
610.939	51.13
611.275	51.19
611.61	51.26
611.945	51.26
612.281	51.31
612.616	51.4
612.951	51.39
613.286	51.39
613.621	51.35
613.956	51.36
614.291	51.33
614.626	51.3
614.961	51.36
615.296	51.34
615.631	51.38
615.966	51.27
616.3	51.29
616.635	51.4
616.97	51.3
617.304	51.37
617.639	51.46
617.973	51.43
618.308	51.49
618.642	51.53
618.977	51.54
619.311	51.56
619.646	51.55
619.98	51.58
620.314	51.63
620.648	51.73
620.983	51.78
621.317	51.83
621.651	51.96
621.985	52.01
622.319	52.02
622.653	52.06
622.987	52.12
623.321	52.03
623.655	51.95
623.988	52.08
624.322	52.06
624.656	52.01
624.99	52.05
625.323	51.95
625.657	51.85
625.99	51.86
626.324	51.93
626.657	51.92
626.991	51.94
627.324	51.98
627.658	51.94
627.991	51.95
628.324	51.97
628.657	51.97
628.991	51.94
629.324	52.01
629.657	51.99
629.99	52.06
630.323	52.18
630.656	52.26
630.989	52.26
631.322	52.27
631.655	52.32
631.987	52.35
632.32	52.45
632.653	52.56
632.986	52.65
633.318	52.55
633.651	52.64
633.984	52.65
634.316	52.64
634.649	52.66
634.981	52.69
635.313	52.63
635.646	52.65
635.978	52.74
636.31	52.7
636.643	52.74
636.975	52.86
637.307	52.85
637.639	52.78
637.971	52.85
638.303	52.95
638.635	52.95
638.967	52.95
639.299	52.93
639.631	52.98
639.963	52.76
640.295	52.81
640.626	52.81
640.958	52.84
641.29	52.75
641.621	52.72
641.953	52.8
642.285	52.87
642.616	52.93
642.948	52.8
643.279	52.77
643.61	52.66
643.942	52.6
644.273	52.65
644.604	52.64
644.936	52.59
645.267	52.49
645.598	52.58
645.929	52.61
646.26	52.57
646.591	52.54
646.922	52.57
647.253	52.59
647.584	52.45
647.915	52.38
648.245	52.44
648.576	52.39
648.907	52.29
649.238	52.23
649.568	52.13
649.899	52.05
650.229	52.2
650.56	52.31
650.89	52.22
651.221	52.17
651.551	52.25
651.882	52.28
652.212	52.38
652.542	52.31
652.872	52.28
653.203	52.31
653.533	52.33
653.863	52.52
654.193	52.48
654.523	52.63
654.853	52.64
655.183	52.66
655.513	52.75
655.843	52.7
656.172	52.78
656.502	52.85
656.832	52.99
657.162	52.92
657.491	52.97
657.821	53.04
658.15	53.06
658.48	53.02
658.809	52.98
659.139	52.87
659.468	52.85
659.798	52.87
660.127	52.91
660.456	52.94
660.785	52.91
661.115	53.01
661.444	52.94
661.773	53.08
662.102	53.07
662.431	53.15
662.76	53.19
663.089	53.18
663.418	53.3
