Data from BU58137_Reflection_00008.txt Node
Date: Mon Nov 18 16:39:46 EST 2019
User: vgr7
Spectrometer: USB2G7710
Scans to average: 3
Trigger mode: 4
Integration Time (sec): 2.000000E-2
Electric dark correction enabled: true
Boxcar width: 10
XAxis mode: Wavelengths
Number of Pixels in Spectrum: 2048
>>>>>Begin Spectral Data<<<<<
177.721	3.04
178.105	41.98
178.488	-15.24
178.871	-85.98
179.254	64.01
179.636	94.9
180.019	113.35
180.402	163.64
180.785	-715.88
181.168	572.39
181.55	-595.19
181.933	192.17
182.316	192.58
182.698	231.03
183.081	197.41
183.463	115.79
183.846	97.82
184.228	148.52
184.611	198.34
184.993	393.72
185.376	261.38
185.758	526.23
186.14	490.61
186.522	412.75
186.904	2064.07
187.287	777.8
187.669	-1606.56
188.051	1047.15
188.433	-1145.66
188.815	-694.82
189.197	-542.75
189.579	-450.9
189.961	-330.24
190.342	-327.2
190.724	-380.96
191.106	-440.41
191.488	-292.69
191.869	-454.4
192.251	-329.23
192.633	-287.72
193.014	-304.19
193.396	-256.83
193.777	-259.41
194.159	-226.43
194.54	-236.48
194.922	-199.35
195.303	-121.56
195.684	-143.93
196.065	-84.07
196.447	-94.27
196.828	-102.42
197.209	-79.65
197.59	-93.67
197.971	-84.25
198.352	-75.91
198.733	-77.7
199.114	-66.63
199.495	-73.21
199.876	-61.18
200.257	-43.23
200.638	-26.82
201.018	-28.99
201.399	-21.01
201.78	-32.54
202.16	-45.77
202.541	-56.13
202.922	-100.83
203.302	-134.79
203.683	-103.29
204.063	-155.08
204.444	-151.5
204.824	-171.95
205.204	-165.45
205.585	-135.38
205.965	-153.83
206.345	-169.74
206.725	-185.5
207.106	-195.46
207.486	-204.72
207.866	-179.01
208.246	-177.97
208.626	-190.11
209.006	-161.26
209.386	-205.85
209.766	-178.85
210.145	-142.18
210.525	-112.73
210.905	-73.72
211.285	-73.71
211.664	-86.68
212.044	-93.58
212.424	-73.04
212.803	-77.26
213.183	-78.44
213.562	-77.58
213.942	-67.19
214.321	-60
214.701	-61.58
215.08	-53.17
215.459	-45.25
215.838	-49.6
216.218	-26.32
216.597	-13.76
216.976	-0.9
217.355	10.61
217.734	-3.55
218.113	-4.8
218.492	-8.46
218.871	-23.95
219.25	-9.6
219.629	-42.66
220.008	-24.75
220.387	-32.87
220.766	-42.35
221.144	-59.2
221.523	-58.68
221.902	-82.58
222.28	-94.49
222.659	-51.36
223.037	-49.35
223.416	-59.24
223.794	-68.45
224.173	-76.28
224.551	-48.52
224.929	-55.25
225.308	-37.62
225.686	-25.73
226.064	-23.19
226.442	-21.01
226.821	-13.43
227.199	-16.59
227.577	-13.02
227.955	-17.47
228.333	-18.46
228.711	-11.63
229.089	-6.72
229.467	-9.26
229.845	-8.16
230.222	-7.49
230.6	-12.23
230.978	-9.88
231.356	-8.24
231.733	-7.51
232.111	-6.18
232.488	-5.99
232.866	-4.64
233.243	-5.62
233.621	-6.13
233.998	-4.32
234.376	-5.57
234.753	-6.93
235.13	-4.75
235.508	-3.04
235.885	-0.69
236.262	-1.48
236.639	-2.33
237.016	-3.26
237.393	-1.28
237.77	-0.06
238.147	-0.18
238.524	0.33
238.901	0.69
239.278	1.07
239.655	1.7
240.032	2.23
240.409	1.68
240.785	2.15
241.162	1.95
241.539	1.3
241.915	1.47
242.292	1.59
242.668	1.74
243.045	1.65
243.421	1.63
243.798	1.63
244.174	1.75
244.551	1.69
244.927	1.67
245.303	1.66
245.679	1.73
246.056	1.88
246.432	1.81
246.808	1.6
247.184	1.43
247.56	1.45
247.936	1.28
248.312	1.3
248.688	1.18
249.064	1.18
249.44	1.31
249.815	1.19
250.191	1.16
250.567	1.09
250.943	1.01
251.318	0.73
251.694	0.74
252.069	0.62
252.445	0.68
252.82	0.84
253.196	0.48
253.571	0.5
253.947	0.53
254.322	0.49
254.697	0.5
255.073	0.58
255.448	0.5
255.823	0.38
256.198	0.47
256.573	0.63
256.948	0.7
257.323	0.77
257.698	0.71
258.073	0.81
258.448	0.88
258.823	1
259.198	1.01
259.573	1.06
259.948	1.3
260.322	1.26
260.697	1.16
261.072	1.24
261.446	1.26
261.821	1.15
262.195	1.33
262.57	1.26
262.944	1.31
263.319	1.19
263.693	1.3
264.067	1.26
264.442	1.27
264.816	1.21
265.19	1.26
265.564	1.44
265.938	1.32
266.313	1.28
266.687	1.3
267.061	1.5
267.435	1.4
267.809	1.3
268.183	1.3
268.556	1.31
268.93	1.5
269.304	1.34
269.678	1.49
270.051	1.48
270.425	1.69
270.799	1.52
271.172	1.6
271.546	1.51
271.919	1.5
272.293	1.51
272.666	1.73
273.04	1.76
273.413	1.68
273.787	1.71
274.16	1.62
274.533	1.66
274.906	1.53
275.279	1.58
275.653	1.54
276.026	1.66
276.399	1.65
276.772	1.6
277.145	1.51
277.518	1.38
277.891	1.31
278.263	1.09
278.636	1.11
279.009	1.14
279.382	1.42
279.755	1.36
280.127	1.45
280.5	1.4
280.872	1.28
281.245	1.21
281.617	1.39
281.99	1.53
282.362	1.66
282.735	1.69
283.107	1.54
283.479	1.53
283.852	1.53
284.224	1.48
284.596	1.47
284.968	1.55
285.34	1.65
285.713	1.58
286.085	1.79
286.457	1.9
286.829	1.87
287.201	1.71
287.572	1.71
287.944	1.5
288.316	1.47
288.688	1.54
289.06	1.54
289.431	1.51
289.803	1.6
290.175	1.52
290.546	1.63
290.918	1.86
291.289	1.89
291.661	1.9
292.032	1.96
292.403	1.94
292.775	2.04
293.146	2.01
293.517	2.2
293.889	2.11
294.26	2.21
294.631	2.22
295.002	2.18
295.373	2.28
295.744	2.37
296.115	2.37
296.486	2.2
296.857	2.27
297.228	2.37
297.599	2.29
297.97	2.25
298.34	2.31
298.711	2.22
299.082	2.18
299.452	2.19
299.823	2.44
300.194	2.49
300.564	2.47
300.935	2.57
301.305	2.45
301.676	2.52
302.046	2.57
302.416	2.72
302.787	2.88
303.157	2.91
303.527	2.95
303.897	2.89
304.267	3.14
304.637	3.3
305.008	3.34
305.378	3.6
305.748	3.63
306.117	3.62
306.487	3.66
306.857	3.76
307.227	3.9
307.597	3.79
307.967	3.8
308.336	4.01
308.706	4.09
309.076	4.21
309.445	4.16
309.815	4.1
310.184	4.07
310.554	4.14
310.923	4.13
311.293	4.14
311.662	4.25
312.031	4.34
312.401	4.33
312.77	4.28
313.139	4.23
313.508	4.3
313.877	4.28
314.246	4.35
314.616	4.43
314.985	4.37
315.353	4.31
315.722	4.35
316.091	4.37
316.46	4.22
316.829	4.24
317.198	4.39
317.567	4.42
317.935	4.48
318.304	4.53
318.672	4.62
319.041	4.87
319.41	4.85
319.778	4.75
320.147	4.93
320.515	4.95
320.883	5.02
321.252	5.19
321.62	5.37
321.988	5.38
322.357	5.5
322.725	5.62
323.093	5.79
323.461	5.95
323.829	6.07
324.197	6.28
324.565	6.34
324.933	6.4
325.301	6.41
325.669	6.51
326.037	6.56
326.405	6.68
326.772	6.71
327.14	6.84
327.508	6.98
327.875	6.92
328.243	7.16
328.61	7
328.978	6.9
329.346	6.95
329.713	7.03
330.08	7.05
330.448	6.98
330.815	6.91
331.182	6.96
331.55	6.85
331.917	6.79
332.284	6.94
332.651	6.98
333.018	7.08
333.385	7.06
333.752	7.23
334.119	7.28
334.486	7.23
334.853	7.32
335.22	7.27
335.587	7.37
335.954	7.28
336.32	7.48
336.687	7.61
337.054	7.53
337.42	7.65
337.787	7.59
338.153	7.72
338.52	7.87
338.886	7.84
339.253	7.81
339.619	7.82
339.986	7.81
340.352	7.87
340.718	7.85
341.084	7.91
341.451	7.93
341.817	7.98
342.183	7.93
342.549	7.86
342.915	8.09
343.281	8.09
343.647	8.07
344.013	8.09
344.379	8.17
344.745	8.27
345.11	8.18
345.476	8.27
345.842	8.25
346.208	8.23
346.573	8.32
346.939	8.41
347.304	8.51
347.67	8.48
348.035	8.42
348.401	8.45
348.766	8.52
349.132	8.5
349.497	8.41
349.862	8.6
350.228	8.67
350.593	8.53
350.958	8.57
351.323	8.72
351.688	8.67
352.053	8.56
352.418	8.53
352.783	8.54
353.148	8.49
353.513	8.53
353.878	8.56
354.243	8.49
354.608	8.46
354.972	8.48
355.337	8.43
355.702	8.49
356.066	8.51
356.431	8.38
356.795	8.27
357.16	8.28
357.524	8.2
357.889	8.1
358.253	8.06
358.618	8.02
358.982	7.91
359.346	7.82
359.71	7.88
360.075	7.87
360.439	7.89
360.803	7.83
361.167	7.75
361.531	7.7
361.895	7.62
362.259	7.57
362.623	7.49
362.987	7.5
363.351	7.45
363.714	7.42
364.078	7.41
364.442	7.41
364.806	7.35
365.169	7.28
365.533	7.26
365.896	7.21
366.26	7.14
366.623	7.13
366.987	7.19
367.35	7.12
367.714	7.05
368.077	7.02
368.44	6.99
368.803	6.95
369.167	6.88
369.53	6.87
369.893	6.82
370.256	6.86
370.619	6.75
370.982	6.66
371.345	6.58
371.708	6.54
372.071	6.51
372.434	6.43
372.797	6.39
373.159	6.36
373.522	6.34
373.885	6.28
374.247	6.15
374.61	6.02
374.973	5.9
375.335	5.8
375.698	5.74
376.06	5.71
376.423	5.65
376.785	5.58
377.147	5.52
377.51	5.41
377.872	5.34
378.234	5.3
378.596	5.24
378.958	5.13
379.321	5.07
379.683	5.02
380.045	4.97
380.407	4.9
380.769	4.82
381.13	4.76
381.492	4.71
381.854	4.74
382.216	4.71
382.578	4.7
382.939	4.67
383.301	4.6
383.663	4.52
384.024	4.42
384.386	4.43
384.747	4.39
385.109	4.39
385.47	4.3
385.832	4.24
386.193	4.25
386.554	4.23
386.916	4.21
387.277	4.17
387.638	4.16
387.999	4.12
388.36	4.12
388.721	4.05
389.082	4
389.443	3.92
389.804	3.86
390.165	3.85
390.526	3.8
390.887	3.74
391.248	3.73
391.609	3.76
391.969	3.72
392.33	3.67
392.691	3.64
393.051	3.62
393.412	3.61
393.772	3.57
394.133	3.56
394.493	3.51
394.854	3.45
395.214	3.38
395.574	3.39
395.935	3.36
396.295	3.38
396.655	3.34
397.015	3.31
397.376	3.28
397.736	3.22
398.096	3.18
398.456	3.17
398.816	3.12
399.176	3.05
399.535	3.02
399.895	2.97
400.255	2.95
400.615	2.93
400.975	2.89
401.334	2.84
401.694	2.8
402.054	2.75
402.413	2.74
402.773	2.75
403.132	2.7
403.492	2.65
403.851	2.62
404.211	2.62
404.57	2.6
404.929	2.58
405.288	2.57
405.648	2.58
406.007	2.58
406.366	2.57
406.725	2.59
407.084	2.56
407.443	2.58
407.802	2.56
408.161	2.54
408.52	2.53
408.879	2.55
409.238	2.56
409.596	2.55
409.955	2.57
410.314	2.57
410.673	2.55
411.031	2.56
411.39	2.53
411.748	2.51
412.107	2.49
412.465	2.51
412.824	2.49
413.182	2.47
413.54	2.46
413.899	2.46
414.257	2.47
414.615	2.48
414.974	2.46
415.332	2.45
415.69	2.44
416.048	2.4
416.406	2.4
416.764	2.39
417.122	2.39
417.48	2.36
417.838	2.33
418.195	2.32
418.553	2.3
418.911	2.31
419.269	2.3
419.626	2.3
419.984	2.31
420.342	2.3
420.699	2.29
421.057	2.28
421.414	2.26
421.772	2.24
422.129	2.24
422.486	2.23
422.844	2.22
423.201	2.2
423.558	2.21
423.915	2.19
424.273	2.18
424.63	2.18
424.987	2.17
425.344	2.16
425.701	2.16
426.058	2.16
426.415	2.14
426.772	2.13
427.128	2.11
427.485	2.1
427.842	2.08
428.199	2.09
428.555	2.08
428.912	2.08
429.269	2.09
429.625	2.07
429.982	2.07
430.338	2.05
430.695	2.07
431.051	2.06
431.407	2.06
431.764	2.04
432.12	2.03
432.476	2.04
432.832	2.03
433.189	2.03
433.545	2.03
433.901	2.06
434.257	2.04
434.613	2.07
434.969	2.05
435.325	2.06
435.681	2.04
436.036	2.05
436.392	2.07
436.748	2.07
437.104	2.07
437.459	2.07
437.815	2.1
438.171	2.1
438.526	2.1
438.882	2.09
439.237	2.12
439.593	2.13
439.948	2.12
440.304	2.12
440.659	2.12
441.014	2.13
441.369	2.11
441.725	2.11
442.08	2.1
442.435	2.1
442.79	2.11
443.145	2.11
443.5	2.09
443.855	2.07
444.21	2.07
444.565	2.07
444.92	2.06
445.275	2.04
445.629	2.04
445.984	2.03
446.339	2.04
446.693	2.01
447.048	2.01
447.403	2
447.757	1.99
448.112	1.99
448.466	1.99
448.82	1.98
449.175	1.99
449.529	1.97
449.883	1.96
450.238	1.94
450.592	1.94
450.946	1.94
451.3	1.93
451.654	1.91
452.008	1.92
452.362	1.9
452.716	1.9
453.07	1.89
453.424	1.87
453.778	1.87
454.132	1.88
454.486	1.87
454.839	1.87
455.193	1.88
455.547	1.88
455.9	1.87
456.254	1.88
456.607	1.89
456.961	1.9
457.314	1.9
457.668	1.9
458.021	1.87
458.375	1.89
458.728	1.9
459.081	1.91
459.434	1.89
459.787	1.91
460.141	1.91
460.494	1.92
460.847	1.92
461.2	1.91
461.553	1.92
461.906	1.92
462.259	1.94
462.611	1.93
462.964	1.94
463.317	1.94
463.67	1.93
464.022	1.93
464.375	1.92
464.728	1.92
465.08	1.93
465.433	1.95
465.785	1.96
466.138	1.97
466.49	1.99
466.843	2
467.195	2
467.547	2.04
467.899	2.02
468.252	2.04
468.604	2.06
468.956	2.05
469.308	2.06
469.66	2.04
470.012	2.07
470.364	2.08
470.716	2.07
471.068	2.08
471.42	2.07
471.772	2.09
472.123	2.11
472.475	2.11
472.827	2.14
473.178	2.12
473.53	2.1
473.882	2.08
474.233	2.09
474.585	2.07
474.936	2.06
475.288	2.09
475.639	2.09
475.99	2.08
476.342	2.08
476.693	2.09
477.044	2.13
477.395	2.12
477.746	2.11
478.097	2.1
478.448	2.1
478.8	2.09
479.15	2.09
479.501	2.07
479.852	2.08
480.203	2.07
480.554	2.08
480.905	2.1
481.255	2.11
481.606	2.11
481.957	2.12
482.307	2.12
482.658	2.11
483.009	2.1
483.359	2.1
483.709	2.1
484.06	2.11
484.41	2.11
484.761	2.1
485.111	2.11
485.461	2.11
485.811	2.12
486.162	2.13
486.512	2.14
486.862	2.15
487.212	2.14
487.562	2.15
487.912	2.15
488.262	2.14
488.612	2.14
488.961	2.14
489.311	2.15
489.661	2.14
490.011	2.14
490.36	2.14
490.71	2.14
491.06	2.16
491.409	2.15
491.759	2.14
492.108	2.15
492.458	2.16
492.807	2.15
493.157	2.15
493.506	2.15
493.855	2.14
494.204	2.14
494.554	2.16
494.903	2.16
495.252	2.18
495.601	2.21
495.95	2.24
496.299	2.25
496.648	2.27
496.997	2.29
497.346	2.33
497.695	2.35
498.043	2.37
498.392	2.37
498.741	2.4
499.09	2.41
499.438	2.43
499.787	2.47
500.135	2.53
500.484	2.55
500.832	2.58
501.181	2.62
501.529	2.63
501.878	2.67
502.226	2.7
502.574	2.72
502.923	2.73
503.271	2.75
503.619	2.78
503.967	2.8
504.315	2.84
504.663	2.86
505.011	2.9
505.359	2.94
505.707	2.99
506.055	3.03
506.403	3.07
506.751	3.11
507.098	3.13
507.446	3.18
507.794	3.22
508.141	3.26
508.489	3.3
508.837	3.37
509.184	3.4
509.531	3.46
509.879	3.52
510.226	3.6
510.574	3.66
510.921	3.71
511.268	3.77
511.616	3.83
511.963	3.91
512.31	3.97
512.657	4.04
513.004	4.11
513.351	4.2
513.698	4.26
514.045	4.34
514.392	4.41
514.739	4.49
515.086	4.55
515.432	4.64
515.779	4.72
516.126	4.8
516.473	4.89
516.819	4.96
517.166	5.01
517.512	5.06
517.859	5.13
518.205	5.21
518.552	5.28
518.898	5.33
519.245	5.39
519.591	5.47
519.937	5.52
520.283	5.6
520.629	5.7
520.976	5.79
521.322	5.89
521.668	5.98
522.014	6.08
522.36	6.19
522.706	6.3
523.052	6.42
523.398	6.56
523.743	6.69
524.089	6.82
524.435	6.96
524.781	7.1
525.126	7.22
525.472	7.35
525.817	7.46
526.163	7.58
526.509	7.67
526.854	7.76
527.199	7.86
527.545	7.95
527.89	8.04
528.235	8.12
528.581	8.21
528.926	8.3
529.271	8.4
529.616	8.5
529.961	8.61
530.306	8.72
530.651	8.83
530.996	8.95
531.341	9.09
531.686	9.23
532.031	9.35
532.376	9.49
532.721	9.63
533.065	9.78
533.41	9.91
533.755	10.07
534.099	10.22
534.444	10.38
534.788	10.53
535.133	10.68
535.477	10.85
535.822	11.03
536.166	11.23
536.51	11.43
536.855	11.65
537.199	11.87
537.543	12.1
537.887	12.33
538.231	12.55
538.576	12.79
538.92	13
539.264	13.24
539.608	13.45
539.951	13.64
540.295	13.84
540.639	14.04
540.983	14.23
541.327	14.42
541.671	14.62
542.014	14.81
542.358	15
542.701	15.21
543.045	15.4
543.389	15.6
543.732	15.8
544.075	15.99
544.419	16.2
544.762	16.39
545.105	16.6
545.449	16.85
545.792	17.06
546.135	17.29
546.478	17.55
546.821	17.83
547.165	18.11
547.508	18.38
547.851	18.65
548.194	18.92
548.536	19.2
548.879	19.45
549.222	19.74
549.565	20.04
549.908	20.33
550.25	20.64
550.593	20.9
550.936	21.16
551.278	21.42
551.621	21.7
551.963	22
552.306	22.27
552.648	22.51
552.991	22.82
553.333	23.14
553.675	23.38
554.017	23.61
554.36	23.87
554.702	24.09
555.044	24.35
555.386	24.61
555.728	24.85
556.07	25.16
556.412	25.35
556.754	25.58
557.096	25.8
557.438	26
557.78	26.24
558.121	26.54
558.463	26.82
558.805	27.06
559.147	27.3
559.488	27.49
559.83	27.69
560.171	27.89
560.513	28.07
560.854	28.3
561.196	28.52
561.537	28.77
561.878	28.98
562.22	29.19
562.561	29.38
562.902	29.56
563.243	29.81
563.584	30.05
563.925	30.22
564.266	30.39
564.607	30.62
564.948	30.82
565.289	31.01
565.63	31.17
565.971	31.34
566.312	31.52
566.653	31.73
566.993	31.93
567.334	32.1
567.675	32.27
568.015	32.44
568.356	32.52
568.696	32.66
569.037	32.84
569.377	33
569.718	33.15
570.058	33.34
570.398	33.42
570.739	33.6
571.079	33.72
571.419	33.9
571.759	33.96
572.099	34.09
572.439	34.17
572.779	34.3
573.119	34.41
573.459	34.49
573.799	34.58
574.139	34.72
574.479	34.83
574.819	34.91
575.158	34.98
575.498	35.15
575.838	35.24
576.177	35.36
576.517	35.5
576.856	35.64
577.196	35.73
577.535	35.85
577.875	35.96
578.214	36.12
578.553	36.23
578.893	36.36
579.232	36.46
579.571	36.56
579.91	36.66
580.25	36.76
580.589	36.9
580.928	37.08
581.267	37.11
581.606	37.23
581.945	37.32
582.283	37.42
582.622	37.54
582.961	37.6
583.3	37.65
583.639	37.77
583.977	37.85
584.316	37.9
584.654	37.9
584.993	37.93
585.332	38
585.67	38.06
586.008	38.17
586.347	38.2
586.685	38.27
587.024	38.25
587.362	38.31
587.7	38.4
588.038	38.37
588.376	38.46
588.715	38.46
589.053	38.64
589.391	38.7
589.729	38.72
590.067	38.77
590.404	38.83
590.742	38.84
591.08	38.83
591.418	38.93
591.756	39.1
592.093	39.19
592.431	39.23
592.769	39.28
593.106	39.31
593.444	39.3
593.781	39.33
594.119	39.43
594.456	39.5
594.793	39.53
595.131	39.58
595.468	39.59
595.805	39.75
596.143	39.72
596.48	39.75
596.817	39.82
597.154	39.9
597.491	39.96
597.828	39.98
598.165	40.08
598.502	40.2
598.839	40.22
599.176	40.22
599.512	40.27
599.849	40.29
600.186	40.33
600.523	40.51
600.859	40.61
601.196	40.68
601.532	40.71
601.869	40.68
602.205	40.74
602.542	40.76
602.878	40.69
603.215	40.74
603.551	40.85
603.887	40.82
604.223	40.81
604.56	40.81
604.896	40.89
605.232	40.95
605.568	40.85
605.904	40.86
606.24	40.89
606.576	40.92
606.912	41.01
607.248	41.04
607.583	41.03
607.919	41
608.255	41.01
608.591	41.07
608.926	41.13
609.262	41.16
609.597	41.21
609.933	41.29
610.268	41.32
610.604	41.29
610.939	41.39
611.275	41.5
611.61	41.54
611.945	41.48
612.281	41.42
612.616	41.5
612.951	41.51
613.286	41.6
613.621	41.65
613.956	41.61
614.291	41.72
614.626	41.74
614.961	41.8
615.296	41.82
615.631	41.79
615.966	41.81
616.3	41.81
616.635	41.92
616.97	41.92
617.304	41.9
617.639	41.9
617.973	41.95
618.308	41.91
618.642	41.98
618.977	42.08
619.311	42.18
619.646	42.22
619.98	42.3
620.314	42.3
620.648	42.29
620.983	42.37
621.317	42.36
621.651	42.3
621.985	42.33
622.319	42.29
622.653	42.32
622.987	42.39
623.321	42.35
623.655	42.3
623.988	42.34
624.322	42.35
624.656	42.37
624.99	42.37
625.323	42.35
625.657	42.33
625.99	42.34
626.324	42.35
626.657	42.28
626.991	42.23
627.324	42.3
627.658	42.34
627.991	42.42
628.324	42.33
628.657	42.39
628.991	42.36
629.324	42.42
629.657	42.44
629.99	42.43
630.323	42.54
630.656	42.67
630.989	42.71
631.322	42.72
631.655	42.71
631.987	42.68
632.32	42.69
632.653	42.68
632.986	42.64
633.318	42.57
633.651	42.57
633.984	42.6
634.316	42.51
634.649	42.49
634.981	42.39
635.313	42.49
635.646	42.65
635.978	42.71
636.31	42.76
636.643	42.76
636.975	42.82
637.307	42.78
637.639	42.7
637.971	42.65
638.303	42.71
638.635	42.7
638.967	42.7
639.299	42.69
639.631	42.75
639.963	42.8
640.295	42.92
640.626	42.86
640.958	42.95
641.29	42.96
641.621	42.91
641.953	42.85
642.285	42.87
642.616	42.77
642.948	42.73
643.279	42.69
643.61	42.66
643.942	42.58
644.273	42.68
644.604	42.61
644.936	42.6
645.267	42.58
645.598	42.58
645.929	42.71
646.26	42.81
646.591	42.71
646.922	42.7
647.253	42.68
647.584	42.77
647.915	42.71
648.245	42.74
648.576	42.8
648.907	42.9
649.238	42.9
649.568	42.82
649.899	42.84
650.229	42.9
650.56	42.94
650.89	43.01
651.221	42.94
651.551	43.03
651.882	43.05
652.212	43.06
652.542	43.13
652.872	43.09
653.203	42.99
653.533	43.05
653.863	43.14
654.193	43.11
654.523	43.21
654.853	43.15
655.183	43.12
655.513	43.15
655.843	43.04
656.172	43.01
656.502	43.13
656.832	43.15
657.162	43.13
657.491	43.18
657.821	43.2
658.15	43.26
658.48	43.26
658.809	43.32
659.139	43.31
659.468	43.3
659.798	43.2
660.127	43.28
660.456	43.28
660.785	43.19
661.115	43.28
661.444	43.25
661.773	43.36
662.102	43.4
662.431	43.41
662.76	43.51
663.089	43.51
663.418	43.42
663.747	43.42
664.076	43.44
664.404	43.34
664.733	43.28
665.062	43.19
665.39	43.14
665.719	43.01
666.048	42.99
666.376	43.02
666.705	43.02
667.033	43.01
667.362	42.97
667.69	43.02
