Data from BU58130_Reflection_00009.txt Node
Date: Mon Nov 18 16:37:29 EST 2019
User: vgr7
Spectrometer: USB2G7710
Scans to average: 3
Trigger mode: 4
Integration Time (sec): 2.000000E-2
Electric dark correction enabled: true
Boxcar width: 10
XAxis mode: Wavelengths
Number of Pixels in Spectrum: 2048
>>>>>Begin Spectral Data<<<<<
177.721	183.97
178.105	-119.51
178.488	-55.81
178.871	-6.8
179.254	11.92
179.636	65.52
180.019	524.66
180.402	141.38
180.785	-37.48
181.168	-60.47
181.55	-60.1
181.933	38.56
182.316	60.51
182.698	38.61
183.081	18.62
183.463	15.4
183.846	8.32
184.228	10.13
184.611	85.37
184.993	47.98
185.376	95.67
185.758	43.82
186.14	-7.3
186.522	5.11
186.904	87.34
187.287	115.87
187.669	-225.3
188.051	-1321.05
188.433	-319.35
188.815	-59.66
189.197	-66.99
189.579	-79.8
189.961	-84.64
190.342	-106.41
190.724	-93.37
191.106	-137.88
191.488	-221.8
191.869	-391.12
192.251	-308.87
192.633	-1058.73
193.014	-8011.11
193.396	2507.41
193.777	4404.35
194.159	569.77
194.54	667.25
194.922	-666.87
195.303	-1721.92
195.684	-636.53
196.065	-278.97
196.447	-175.8
196.828	-222.38
197.209	-213.61
197.59	-223.02
197.971	-159.81
198.352	-55.01
198.733	-61.2
199.114	-42.42
199.495	-15.25
199.876	-5.76
200.257	14.95
200.638	39.21
201.018	53.06
201.399	53.51
201.78	55.48
202.16	47.44
202.541	30.41
202.922	18.19
203.302	28.85
203.683	15.46
204.063	40.79
204.444	31.24
204.824	31.8
205.204	37.55
205.585	45.17
205.965	54.67
206.345	48.87
206.725	40.13
207.106	-0.76
207.486	-42.28
207.866	-83.28
208.246	-124.27
208.626	-139.37
209.006	-178.16
209.386	-250.59
209.766	-244.74
210.145	-159.1
210.525	-136.28
210.905	-153.82
211.285	-447.83
211.664	-183.24
212.044	-523.53
212.424	1570.59
212.803	270.07
213.183	870.49
213.562	-207.36
213.942	-102.07
214.321	-86.01
214.701	-88.83
215.08	-100
215.459	-73.3
215.838	-57.8
216.218	-66.81
216.597	-45.95
216.976	-39.66
217.355	-48.05
217.734	-51.79
218.113	-44.94
218.492	-35.28
218.871	-32.11
219.25	-29.84
219.629	-48.05
220.008	-45.85
220.387	-41.48
220.766	-33.2
221.144	-49.58
221.523	-68.98
221.902	-113.54
222.28	-103.11
222.659	-80.54
223.037	-63.28
223.416	-62.73
223.794	-53.09
224.173	-51.59
224.551	-54.15
224.929	-34.97
225.308	-20.33
225.686	-19.86
226.064	-25.94
226.442	-21.95
226.821	-19.28
227.199	-21
227.577	-19.74
227.955	-21.33
228.333	-22.79
228.711	-23.17
229.089	-13.75
229.467	-13.25
229.845	-10.07
230.222	-8.67
230.6	-9.9
230.978	-7.21
231.356	-3.13
231.733	-4.89
232.111	-1.91
232.488	-0.17
232.866	-1.26
233.243	-2.21
233.621	-2.3
233.998	-1.56
234.376	-1.96
234.753	-4.12
235.13	-3.03
235.508	-0.94
235.885	-1.46
236.262	-2.17
236.639	-0.95
237.016	-2.28
237.393	0.09
237.77	0.67
238.147	1.04
238.524	2.07
238.901	2.11
239.278	1.38
239.655	2.36
240.032	2.64
240.409	2.01
240.785	1.98
241.162	2.08
241.539	2.1
241.915	1.99
242.292	1.73
242.668	2.64
243.045	2.84
243.421	2.2
243.798	2.18
244.174	2.13
244.551	2.39
244.927	2.25
245.303	1.96
245.679	2.26
246.056	2.3
246.432	2.18
246.808	2.05
247.184	2.06
247.56	1.79
247.936	1.48
248.312	1.49
248.688	1.38
249.064	1.62
249.44	1.62
249.815	1.59
250.191	1.69
250.567	1.63
250.943	1.39
251.318	1.61
251.694	1.87
252.069	2.06
252.445	2.17
252.82	2.1
253.196	2.18
253.571	1.63
253.947	1.69
254.322	1.7
254.697	1.53
255.073	1.29
255.448	1.37
255.823	1.68
256.198	1.71
256.573	2.01
256.948	2.11
257.323	2.26
257.698	2.29
258.073	2.27
258.448	2.36
258.823	2.38
259.198	2.36
259.573	2.23
259.948	2.19
260.322	2.12
260.697	2.15
261.072	2.08
261.446	2.31
261.821	2.16
262.195	2.24
262.57	2.3
262.944	2.38
263.319	2.36
263.693	2.22
264.067	2.12
264.442	2.08
264.816	1.79
265.19	1.68
265.564	1.63
265.938	1.52
266.313	1.18
266.687	1.16
267.061	1.21
267.435	1.26
267.809	1.2
268.183	1.11
268.556	1.12
268.93	1.23
269.304	1.17
269.678	1.47
270.051	1.34
270.425	1.31
270.799	1.41
271.172	1.48
271.546	1.38
271.919	1.4
272.293	1.24
272.666	1.32
273.04	1.55
273.413	1.55
273.787	1.67
274.16	1.9
274.533	1.89
274.906	1.84
275.279	1.8
275.653	1.88
276.026	1.87
276.399	1.97
276.772	1.99
277.145	2.07
277.518	1.9
277.891	2.06
278.263	1.91
278.636	1.86
279.009	1.74
279.382	2.03
279.755	2.07
280.127	2.24
280.5	2.26
280.872	2.22
281.245	2.16
281.617	2.27
281.99	2.18
282.362	2.21
282.735	1.96
283.107	1.97
283.479	2.1
283.852	2.11
284.224	1.98
284.596	1.96
284.968	1.93
285.34	2.05
285.713	1.89
286.085	2.05
286.457	2.12
286.829	2.23
287.201	2.06
287.572	2.03
287.944	1.97
288.316	1.87
288.688	1.74
289.06	1.71
289.431	1.56
289.803	1.68
290.175	1.77
290.546	2.09
290.918	2.1
291.289	2.07
291.661	2.13
292.032	2.28
292.403	2.25
292.775	2.25
293.146	2.11
293.517	2.19
293.889	2.18
294.26	2.15
294.631	2.13
295.002	2.23
295.373	2.37
295.744	2.42
296.115	2.59
296.486	2.52
296.857	2.61
297.228	2.75
297.599	2.61
297.97	2.56
298.34	2.49
298.711	2.5
299.082	2.47
299.452	2.58
299.823	2.65
300.194	2.7
300.564	2.56
300.935	2.67
301.305	2.84
301.676	2.97
302.046	3.06
302.416	3.19
302.787	3.13
303.157	3.09
303.527	3.04
303.897	3.03
304.267	3.2
304.637	3.26
305.008	3.21
305.378	3.54
305.748	3.66
306.117	3.65
306.487	3.84
306.857	3.94
307.227	3.82
307.597	3.81
307.967	3.85
308.336	4.11
308.706	4.1
309.076	4.02
309.445	4.04
309.815	4.06
310.184	4.06
310.554	4.33
310.923	4.39
311.293	4.52
311.662	4.51
312.031	4.54
312.401	4.65
312.77	4.79
313.139	4.78
313.508	4.87
313.877	4.91
314.246	4.89
314.616	4.94
314.985	4.98
315.353	4.95
315.722	5.09
316.091	4.99
316.46	5.04
316.829	5.19
317.198	5.33
317.567	5.32
317.935	5.26
318.304	5.22
318.672	5.37
319.041	5.46
319.41	5.52
319.778	5.51
320.147	5.55
320.515	5.49
320.883	5.48
321.252	5.42
321.62	5.56
321.988	5.54
322.357	5.47
322.725	5.51
323.093	5.58
323.461	5.5
323.829	5.7
324.197	5.77
324.565	5.61
324.933	5.61
325.301	5.82
325.669	5.93
326.037	5.95
326.405	5.96
326.772	5.89
327.14	6.08
327.508	6.14
327.875	5.99
328.243	6.13
328.61	6.02
328.978	6
329.346	6.01
329.713	5.91
330.08	5.99
330.448	6.04
330.815	5.94
331.182	6.05
331.55	5.91
331.917	5.88
332.284	6.11
332.651	6.09
333.018	6.06
333.385	6.1
333.752	6.1
334.119	6.15
334.486	6.19
334.853	6.07
335.22	6.05
335.587	6.16
335.954	6.11
336.32	6.17
336.687	6.26
337.054	6.22
337.42	6.45
337.787	6.42
338.153	6.54
338.52	6.68
338.886	6.59
339.253	6.72
339.619	6.73
339.986	6.67
340.352	6.7
340.718	6.61
341.084	6.69
341.451	6.8
341.817	6.8
342.183	6.81
342.549	6.86
342.915	7.01
343.281	7.02
343.647	6.96
344.013	7
344.379	6.96
344.745	6.98
345.11	6.89
345.476	6.91
345.842	6.86
346.208	6.85
346.573	7.01
346.939	7.05
347.304	7.01
347.67	7.03
348.035	7
348.401	7.05
348.766	7.03
349.132	6.98
349.497	6.96
349.862	7.01
350.228	6.99
350.593	6.82
350.958	6.83
351.323	6.86
351.688	6.86
352.053	6.92
352.418	6.92
352.783	6.98
353.148	6.88
353.513	6.84
353.878	6.84
354.243	6.84
354.608	6.81
354.972	6.84
355.337	6.76
355.702	6.75
356.066	6.73
356.431	6.67
356.795	6.65
357.16	6.65
357.524	6.61
357.889	6.55
358.253	6.56
358.618	6.52
358.982	6.48
359.346	6.44
359.71	6.43
360.075	6.38
360.439	6.34
360.803	6.38
361.167	6.34
361.531	6.24
361.895	6.13
362.259	6.06
362.623	6.02
362.987	5.96
363.351	5.94
363.714	5.96
364.078	5.89
364.442	5.77
364.806	5.72
365.169	5.62
365.533	5.62
365.896	5.61
366.26	5.52
366.623	5.44
366.987	5.45
367.35	5.43
367.714	5.39
368.077	5.28
368.44	5.19
368.803	5.19
369.167	5.16
369.53	5.12
369.893	5.11
370.256	5.14
370.619	5.2
370.982	5.17
371.345	4.99
371.708	4.93
372.071	4.9
372.434	4.8
372.797	4.77
373.159	4.71
373.522	4.72
373.885	4.76
374.247	4.76
374.61	4.66
374.973	4.48
375.335	4.41
375.698	4.43
376.06	4.42
376.423	4.37
376.785	4.36
377.147	4.36
377.51	4.25
377.872	4.17
378.234	4.13
378.596	4.07
378.958	4.03
379.321	4.01
379.683	4.05
380.045	4.01
380.407	4
380.769	3.95
381.13	3.86
381.492	3.79
381.854	3.8
382.216	3.79
382.578	3.81
382.939	3.8
383.301	3.78
383.663	3.73
384.024	3.68
384.386	3.68
384.747	3.68
385.109	3.7
385.47	3.64
385.832	3.58
386.193	3.58
386.554	3.6
386.916	3.57
387.277	3.51
387.638	3.51
387.999	3.5
388.36	3.54
388.721	3.49
389.082	3.46
389.443	3.38
389.804	3.33
390.165	3.27
390.526	3.24
390.887	3.18
391.248	3.19
391.609	3.17
391.969	3.14
392.33	3.09
392.691	3.04
393.051	3.04
393.412	3.05
393.772	2.97
394.133	2.92
394.493	2.93
394.854	2.9
395.214	2.84
395.574	2.81
395.935	2.75
396.295	2.78
396.655	2.75
397.015	2.78
397.376	2.76
397.736	2.74
398.096	2.74
398.456	2.75
398.816	2.73
399.176	2.69
399.535	2.67
399.895	2.64
400.255	2.62
400.615	2.59
400.975	2.58
401.334	2.58
401.694	2.6
402.054	2.55
402.413	2.56
402.773	2.56
403.132	2.57
403.492	2.55
403.851	2.54
404.211	2.52
404.57	2.49
404.929	2.47
405.288	2.48
405.648	2.43
406.007	2.42
406.366	2.41
406.725	2.42
407.084	2.4
407.443	2.42
407.802	2.41
408.161	2.42
408.52	2.41
408.879	2.4
409.238	2.37
409.596	2.4
409.955	2.39
410.314	2.39
410.673	2.34
411.031	2.36
411.39	2.35
411.748	2.36
412.107	2.37
412.465	2.34
412.824	2.34
413.182	2.33
413.54	2.33
413.899	2.31
414.257	2.3
414.615	2.29
414.974	2.26
415.332	2.26
415.69	2.22
416.048	2.2
416.406	2.21
416.764	2.19
417.122	2.17
417.48	2.14
417.838	2.14
418.195	2.15
418.553	2.12
418.911	2.11
419.269	2.09
419.626	2.08
419.984	2.09
420.342	2.08
420.699	2.09
421.057	2.07
421.414	2.08
421.772	2.07
422.129	2.07
422.486	2.08
422.844	2.09
423.201	2.08
423.558	2.09
423.915	2.08
424.273	2.09
424.63	2.08
424.987	2.09
425.344	2.08
425.701	2.08
426.058	2.06
426.415	2.06
426.772	2.06
427.128	2.05
427.485	2.06
427.842	2.06
428.199	2.06
428.555	2.05
428.912	2.04
429.269	2.04
429.625	2.03
429.982	2.02
430.338	2.01
430.695	2.01
431.051	1.99
431.407	2
431.764	2
432.12	2.01
432.476	1.99
432.832	1.97
433.189	1.97
433.545	1.99
433.901	1.98
434.257	1.99
434.613	2
434.969	1.99
435.325	1.99
435.681	2.01
436.036	2
436.392	2.01
436.748	2
437.104	2
437.459	1.99
437.815	1.97
438.171	1.98
438.526	1.99
438.882	1.98
439.237	1.97
439.593	1.99
439.948	1.98
440.304	1.99
440.659	1.99
441.014	1.98
441.369	1.99
441.725	1.98
442.08	1.98
442.435	1.97
442.79	1.97
443.145	1.95
443.5	1.95
443.855	1.95
444.21	1.93
444.565	1.93
444.92	1.95
445.275	1.95
445.629	1.95
445.984	1.95
446.339	1.95
446.693	1.95
447.048	1.93
447.403	1.94
447.757	1.95
448.112	1.95
448.466	1.96
448.82	1.95
449.175	1.96
449.529	1.94
449.883	1.93
450.238	1.92
450.592	1.93
450.946	1.92
451.3	1.91
451.654	1.91
452.008	1.92
452.362	1.9
452.716	1.89
453.07	1.88
453.424	1.88
453.778	1.87
454.132	1.86
454.486	1.87
454.839	1.86
455.193	1.83
455.547	1.82
455.9	1.83
456.254	1.84
456.607	1.83
456.961	1.83
457.314	1.84
457.668	1.84
458.021	1.83
458.375	1.84
458.728	1.86
459.081	1.85
459.434	1.85
459.787	1.86
460.141	1.88
460.494	1.87
460.847	1.87
461.2	1.86
461.553	1.89
461.906	1.89
462.259	1.9
462.611	1.91
462.964	1.93
463.317	1.93
463.67	1.93
464.022	1.94
464.375	1.94
464.728	1.95
465.08	1.94
465.433	1.97
465.785	1.98
466.138	1.98
466.49	2.01
466.843	2.02
467.195	2.03
467.547	2.03
467.899	2.02
468.252	2.01
468.604	2.04
468.956	2.01
469.308	2.03
469.66	2.02
470.012	2.05
470.364	2.04
470.716	2.04
471.068	2.03
471.42	2.02
471.772	2.04
472.123	2.06
472.475	2.07
472.827	2.06
473.178	2.04
473.53	2.03
473.882	2.02
474.233	2.02
474.585	2
474.936	1.99
475.288	2
475.639	2.02
475.99	2
476.342	2.01
476.693	2
477.044	2
477.395	1.98
477.746	1.97
478.097	1.97
478.448	1.97
478.8	1.99
479.15	1.96
479.501	1.96
479.852	1.96
480.203	1.95
480.554	1.97
480.905	1.98
481.255	2
481.606	2
481.957	2.01
482.307	2.02
482.658	2.02
483.009	2.02
483.359	2.02
483.709	2.03
484.06	2.03
484.41	2.03
484.761	2.03
485.111	2.03
485.461	2.03
485.811	2.03
486.162	2.02
486.512	2.04
486.862	2.04
487.212	2.04
487.562	2.05
487.912	2.04
488.262	2.03
488.612	2.03
488.961	2.02
489.311	2.02
489.661	2.02
490.011	2.02
490.36	2.02
490.71	2.02
491.06	2.02
491.409	2.02
491.759	2.01
492.108	2.02
492.458	2.01
492.807	2.01
493.157	2.02
493.506	2.04
493.855	2.04
494.204	2.03
494.554	2.04
494.903	2.03
495.252	2.05
495.601	2.05
495.95	2.06
496.299	2.07
496.648	2.06
496.997	2.08
497.346	2.1
497.695	2.1
498.043	2.12
498.392	2.11
498.741	2.13
499.09	2.14
499.438	2.16
499.787	2.18
500.135	2.2
500.484	2.23
500.832	2.23
501.181	2.25
501.529	2.28
501.878	2.29
502.226	2.31
502.574	2.32
502.923	2.33
503.271	2.34
503.619	2.37
503.967	2.4
504.315	2.41
504.663	2.44
505.011	2.46
505.359	2.47
505.707	2.51
506.055	2.54
506.403	2.57
506.751	2.58
507.098	2.61
507.446	2.64
507.794	2.67
508.141	2.7
508.489	2.73
508.837	2.77
509.184	2.83
509.531	2.89
509.879	2.94
510.226	3.01
510.574	3.07
510.921	3.09
511.268	3.12
511.616	3.15
511.963	3.19
512.31	3.23
512.657	3.29
513.004	3.33
513.351	3.4
513.698	3.46
514.045	3.52
514.392	3.56
514.739	3.62
515.086	3.67
515.432	3.72
515.779	3.76
516.126	3.81
516.473	3.84
516.819	3.89
517.166	3.93
517.512	3.95
517.859	3.98
518.205	4.04
518.552	4.09
518.898	4.14
519.245	4.17
519.591	4.19
519.937	4.23
520.283	4.3
520.629	4.34
520.976	4.36
521.322	4.42
521.668	4.48
522.014	4.53
522.36	4.59
522.706	4.65
523.052	4.73
523.398	4.82
523.743	4.91
524.089	4.97
524.435	5.03
524.781	5.11
525.126	5.18
525.472	5.24
525.817	5.3
526.163	5.37
526.509	5.42
526.854	5.49
527.199	5.54
527.545	5.57
527.89	5.62
528.235	5.68
528.581	5.72
528.926	5.76
529.271	5.81
529.616	5.86
529.961	5.91
530.306	5.97
530.651	6.01
530.996	6.07
531.341	6.14
531.686	6.22
532.031	6.28
532.376	6.35
532.721	6.43
533.065	6.5
533.41	6.56
533.755	6.67
534.099	6.75
534.444	6.84
534.788	6.93
535.133	7.02
535.477	7.11
535.822	7.22
536.166	7.33
536.51	7.45
536.855	7.58
537.199	7.7
537.543	7.83
537.887	7.97
538.231	8.1
538.576	8.24
538.92	8.39
539.264	8.54
539.608	8.69
539.951	8.82
540.295	8.97
540.639	9.13
540.983	9.21
541.327	9.33
541.671	9.47
542.014	9.59
542.358	9.72
542.701	9.84
543.045	9.97
543.389	10.09
543.732	10.24
544.075	10.37
544.419	10.53
544.762	10.69
545.105	10.85
545.449	11.01
545.792	11.19
546.135	11.35
546.478	11.54
546.821	11.73
547.165	11.93
547.508	12.13
547.851	12.33
548.194	12.56
548.536	12.8
548.879	13.01
549.222	13.24
549.565	13.48
549.908	13.73
550.25	13.97
550.593	14.22
550.936	14.47
551.278	14.72
551.621	14.95
551.963	15.2
552.306	15.45
552.648	15.71
552.991	15.97
553.333	16.23
553.675	16.47
554.017	16.7
554.36	16.97
554.702	17.2
555.044	17.41
555.386	17.68
555.728	17.92
556.07	18.22
556.412	18.47
556.754	18.69
557.096	18.97
557.438	19.22
557.78	19.49
558.121	19.77
558.463	20.05
558.805	20.34
559.147	20.63
559.488	20.92
559.83	21.21
560.171	21.43
560.513	21.71
560.854	22
561.196	22.29
561.537	22.57
561.878	22.83
562.22	23.12
562.561	23.34
562.902	23.57
563.243	23.82
563.584	24.08
563.925	24.38
564.266	24.58
564.607	24.84
564.948	25.11
565.289	25.31
565.63	25.5
565.971	25.72
566.312	25.97
566.653	26.16
566.993	26.34
567.334	26.56
567.675	26.77
568.015	26.96
568.356	27.13
568.696	27.35
569.037	27.54
569.377	27.72
569.718	27.93
570.058	28.19
570.398	28.36
570.739	28.55
571.079	28.75
571.419	28.91
571.759	29.1
572.099	29.26
572.439	29.49
572.779	29.65
573.119	29.84
573.459	29.95
573.799	30.11
574.139	30.27
574.479	30.48
574.819	30.66
575.158	30.85
575.498	31.03
575.838	31.17
576.177	31.34
576.517	31.48
576.856	31.7
577.196	31.81
577.535	31.97
577.875	32.12
578.214	32.25
578.553	32.47
578.893	32.62
579.232	32.79
579.571	32.91
579.91	33.09
580.25	33.19
580.589	33.36
580.928	33.54
581.267	33.73
581.606	33.85
581.945	34
582.283	34.12
582.622	34.28
582.961	34.42
583.3	34.58
583.639	34.72
583.977	34.79
584.316	34.89
584.654	35.03
584.993	35.21
585.332	35.25
585.67	35.38
586.008	35.46
586.347	35.55
586.685	35.66
587.024	35.81
587.362	35.84
587.7	35.97
588.038	36.03
588.376	36.12
588.715	36.21
589.053	36.29
589.391	36.42
589.729	36.5
590.067	36.57
590.404	36.6
590.742	36.7
591.08	36.73
591.418	36.88
591.756	36.94
592.093	37
592.431	37.19
592.769	37.29
593.106	37.42
593.444	37.5
593.781	37.6
594.119	37.68
594.456	37.87
594.793	37.92
595.131	37.97
595.468	38.01
595.805	38.1
596.143	38.14
596.48	38.15
596.817	38.2
597.154	38.26
597.491	38.37
597.828	38.4
598.165	38.5
598.502	38.57
598.839	38.68
599.176	38.82
599.512	38.83
599.849	38.85
600.186	38.88
600.523	38.98
600.859	39.1
601.196	39.2
601.532	39.2
601.869	39.28
602.205	39.4
602.542	39.46
602.878	39.51
603.215	39.61
603.551	39.64
603.887	39.67
604.223	39.7
604.56	39.75
604.896	39.9
605.232	40
605.568	40.08
605.904	40.09
606.24	40.1
606.576	40.13
606.912	40.12
607.248	40.17
607.583	40.26
607.919	40.24
608.255	40.25
608.591	40.36
608.926	40.28
609.262	40.33
609.597	40.42
609.933	40.5
610.268	40.46
610.604	40.49
610.939	40.58
611.275	40.64
611.61	40.62
611.945	40.6
612.281	40.54
612.616	40.55
612.951	40.59
613.286	40.62
613.621	40.7
613.956	40.79
614.291	40.87
614.626	40.83
614.961	40.93
615.296	40.97
615.631	41.01
615.966	41.15
616.3	41.14
616.635	41.06
616.97	40.99
617.304	41.05
617.639	41.11
617.973	41.06
618.308	41.11
618.642	41.16
618.977	41.15
619.311	41.2
619.646	41.2
619.98	41.19
620.314	41.19
620.648	41.25
620.983	41.27
621.317	41.26
621.651	41.24
621.985	41.23
622.319	41.23
622.653	41.24
622.987	41.27
623.321	41.45
623.655	41.59
623.988	41.71
624.322	41.75
624.656	41.77
624.99	41.82
625.323	41.79
625.657	41.84
625.99	41.92
626.324	41.93
626.657	41.94
626.991	41.99
627.324	41.98
627.658	41.93
627.991	41.98
628.324	42.07
628.657	42.11
628.991	42.11
629.324	42.11
629.657	42.11
629.99	42.18
630.323	42.1
630.656	42.15
630.989	42.1
631.322	42.12
631.655	42.12
631.987	42.1
632.32	42.14
632.653	42.12
632.986	42.09
633.318	42.18
633.651	42.26
633.984	42.32
634.316	42.41
634.649	42.55
634.981	42.53
635.313	42.42
635.646	42.49
635.978	42.59
636.31	42.69
636.643	42.67
636.975	42.66
637.307	42.62
637.639	42.58
637.971	42.57
638.303	42.65
638.635	42.61
638.967	42.68
639.299	42.72
639.631	42.77
639.963	42.76
640.295	42.78
640.626	42.71
640.958	42.66
641.29	42.62
641.621	42.58
641.953	42.61
642.285	42.65
642.616	42.67
642.948	42.6
643.279	42.43
643.61	42.4
643.942	42.37
644.273	42.46
644.604	42.44
644.936	42.51
645.267	42.4
645.598	42.47
645.929	42.48
646.26	42.5
646.591	42.59
646.922	42.62
647.253	42.61
647.584	42.58
647.915	42.57
648.245	42.65
648.576	42.6
648.907	42.63
649.238	42.6
649.568	42.56
649.899	42.6
650.229	42.75
650.56	42.84
650.89	42.91
651.221	42.79
651.551	42.8
651.882	42.73
652.212	42.78
652.542	42.79
652.872	42.78
653.203	42.89
653.533	42.81
653.863	42.87
654.193	42.92
654.523	42.96
654.853	43.05
655.183	42.89
655.513	42.84
655.843	42.82
656.172	42.92
656.502	43.03
656.832	42.91
657.162	43.02
657.491	42.99
657.821	43.04
658.15	43.18
658.48	43.16
658.809	43.19
659.139	43.2
659.468	43.19
659.798	43.24
660.127	43.13
660.456	43.16
660.785	43.07
661.115	43.03
661.444	43.04
661.773	43.05
662.102	43.14
662.431	43.31
662.76	43.34
663.089	43.34
663.418	43.37
663.747	43.38
664.076	43.29
664.404	43.29
664.733	43.18
665.062	43.17
665.39	43.16
665.719	43.27
666.048	43.23
666.376	43.29
666.705	43.25
667.033	43.28
667.362	43.41
667.69	43.46
668.018	43.46
668.347	43.57
