Data from BU58137_Reflection_00009.txt Node
Date: Mon Nov 18 16:39:48 EST 2019
User: vgr7
Spectrometer: USB2G7710
Scans to average: 3
Trigger mode: 4
Integration Time (sec): 2.000000E-2
Electric dark correction enabled: true
Boxcar width: 10
XAxis mode: Wavelengths
Number of Pixels in Spectrum: 2048
>>>>>Begin Spectral Data<<<<<
177.721	231.06
178.105	192.15
178.488	235.15
178.871	420.12
179.254	300.51
179.636	-466.33
180.019	332.31
180.402	218.18
180.785	-138.27
181.168	302.45
181.55	-541.71
181.933	182.95
182.316	251.97
182.698	426.33
183.081	417.1
183.463	384.3
183.846	368.27
184.228	259.21
184.611	295.35
184.993	588.65
185.376	410.06
185.758	842.18
186.14	656.24
186.522	785.94
186.904	3333.53
187.287	1041.57
187.669	-2193.44
188.051	1292.39
188.433	-1403.72
188.815	-1031.24
189.197	-769.44
189.579	-604.19
189.961	-445.45
190.342	-454.49
190.724	-494.12
191.106	-522.44
191.488	-302.17
191.869	-433.59
192.251	-314.75
192.633	-261.57
193.014	-273.91
193.396	-263.73
193.777	-251.34
194.159	-217.12
194.54	-195.45
194.922	-165.49
195.303	-113.2
195.684	-129.05
196.065	-85.91
196.447	-84.12
196.828	-94.03
197.209	-73.47
197.59	-73.87
197.971	-73.44
198.352	-70.23
198.733	-81.22
199.114	-83.1
199.495	-85.83
199.876	-78.8
200.257	-59.6
200.638	-47.32
201.018	-50.1
201.399	-29.86
201.78	-12.99
202.16	-23.65
202.541	-33.61
202.922	-55.42
203.302	-77.59
203.683	-66.62
204.063	-98.49
204.444	-109.05
204.824	-129.63
205.204	-136.16
205.585	-117.81
205.965	-126.33
206.345	-116.37
206.725	-117.98
207.106	-118.62
207.486	-152.46
207.866	-128.45
208.246	-131.82
208.626	-143.63
209.006	-101.67
209.386	-143.08
209.766	-165.55
210.145	-132
210.525	-103.73
210.905	-77.17
211.285	-76.25
211.664	-87.12
212.044	-87.77
212.424	-64.04
212.803	-61.7
213.183	-68.38
213.562	-80.37
213.942	-74.22
214.321	-85.73
214.701	-92.32
215.08	-94.05
215.459	-82.17
215.838	-101.19
216.218	-84.32
216.597	-65.82
216.976	-63.62
217.355	-51.06
217.734	-43.76
218.113	-52.49
218.492	-73.39
218.871	-132.03
219.25	-110.43
219.629	-143.79
220.008	-132.14
220.387	-209.37
220.766	-151.08
221.144	-139.91
221.523	-117.32
221.902	-106.18
222.28	-116.66
222.659	-108.73
223.037	-94.53
223.416	-83.5
223.794	-79.92
224.173	-85.93
224.551	-73.88
224.929	-81.88
225.308	-64.67
225.686	-58.37
226.064	-51.25
226.442	-45.21
226.821	-34.57
227.199	-34.33
227.577	-27.24
227.955	-23.21
228.333	-16.41
228.711	-15.08
229.089	-10.3
229.467	-13.67
229.845	-16.89
230.222	-13.7
230.6	-12.31
230.978	-13.89
231.356	-13.01
231.733	-10.17
232.111	-9.12
232.488	-7.66
232.866	-8.39
233.243	-7.78
233.621	-8.42
233.998	-8.16
234.376	-7.62
234.753	-7.54
235.13	-5.69
235.508	-5.11
235.885	-4.42
236.262	-7
236.639	-6.75
237.016	-7.64
237.393	-6.16
237.77	-4.15
238.147	-3.08
238.524	-2.83
238.901	-1.57
239.278	-0.83
239.655	-0.14
240.032	-0.66
240.409	-0.89
240.785	0.03
241.162	-0.03
241.539	0.38
241.915	0.31
242.292	0.27
242.668	0.64
243.045	0.63
243.421	0.65
243.798	0.31
244.174	0.55
244.551	0.63
244.927	0.66
245.303	1.04
245.679	1.05
246.056	0.96
246.432	1.08
246.808	1.09
247.184	0.88
247.56	0.43
247.936	0.39
248.312	0.58
248.688	0.69
249.064	0.74
249.44	0.74
249.815	1.07
250.191	1.47
250.567	1.45
250.943	1.18
251.318	1.16
251.694	1.52
252.069	1.73
252.445	1.77
252.82	1.84
253.196	1.69
253.571	1.58
253.947	1.57
254.322	1.61
254.697	1.61
255.073	1.23
255.448	1.21
255.823	1.77
256.198	1.6
256.573	1.54
256.948	1.39
257.323	1.54
257.698	1.2
258.073	1.13
258.448	1.13
258.823	1.41
259.198	1.29
259.573	1.19
259.948	1.11
260.322	1.08
260.697	1.14
261.072	1.26
261.446	1.3
261.821	1.16
262.195	1.08
262.57	1.07
262.944	1.22
263.319	1.48
263.693	1.4
264.067	1.51
264.442	1.53
264.816	1.66
265.19	1.53
265.564	1.67
265.938	1.47
266.313	1.22
266.687	1.24
267.061	1.4
267.435	1.39
267.809	1.31
268.183	1.31
268.556	1.15
268.93	1.01
269.304	0.92
269.678	1.23
270.051	1.41
270.425	1.56
270.799	1.66
271.172	1.6
271.546	1.47
271.919	1.42
272.293	1.39
272.666	1.43
273.04	1.47
273.413	1.38
273.787	1.37
274.16	1.53
274.533	1.39
274.906	1.32
275.279	1.29
275.653	1.32
276.026	1.07
276.399	0.97
276.772	1.04
277.145	0.96
277.518	0.89
277.891	0.93
278.263	0.87
278.636	0.57
279.009	0.47
279.382	0.62
279.755	0.62
280.127	0.63
280.5	0.5
280.872	0.63
281.245	0.58
281.617	0.64
281.99	0.77
282.362	0.88
282.735	0.91
283.107	0.9
283.479	0.96
283.852	1.14
284.224	1.25
284.596	1.18
284.968	1.4
285.34	1.31
285.713	1.39
286.085	1.23
286.457	1.4
286.829	1.44
287.201	1.32
287.572	1.27
287.944	1.21
288.316	1.29
288.688	1.25
289.06	1.38
289.431	1.45
289.803	1.27
290.175	1.27
290.546	1.42
290.918	1.52
291.289	1.55
291.661	1.7
292.032	1.74
292.403	1.86
292.775	1.81
293.146	1.81
293.517	1.65
293.889	1.86
294.26	1.95
294.631	2
295.002	2.05
295.373	2.04
295.744	2.02
296.115	2.15
296.486	2.11
296.857	2.13
297.228	2.08
297.599	2.22
297.97	2.22
298.34	2.13
298.711	2.23
299.082	2.26
299.452	2.32
299.823	2.43
300.194	2.36
300.564	2.31
300.935	2.44
301.305	2.6
301.676	2.66
302.046	2.69
302.416	2.82
302.787	2.98
303.157	3.16
303.527	3.28
303.897	3.39
304.267	3.5
304.637	3.55
305.008	3.63
305.378	3.68
305.748	3.78
306.117	3.67
306.487	3.79
306.857	3.93
307.227	3.82
307.597	3.9
307.967	3.9
308.336	4.07
308.706	4.12
309.076	4.11
309.445	4.03
309.815	4.07
310.184	3.97
310.554	4.03
310.923	4.11
311.293	4.16
311.662	4.13
312.031	4.22
312.401	4.2
312.77	4.32
313.139	4.43
313.508	4.38
313.877	4.62
314.246	4.54
314.616	4.56
314.985	4.6
315.353	4.55
315.722	4.65
316.091	4.74
316.46	4.66
316.829	4.65
317.198	4.84
317.567	4.83
317.935	5.03
318.304	5.01
318.672	4.94
319.041	5.05
319.41	5.08
319.778	5.03
320.147	5.05
320.515	5.04
320.883	5.1
321.252	5.31
321.62	5.32
321.988	5.32
322.357	5.43
322.725	5.48
323.093	5.64
323.461	5.86
323.829	5.9
324.197	5.98
324.565	6.03
324.933	5.97
325.301	6.19
325.669	6.21
326.037	6.35
326.405	6.56
326.772	6.67
327.14	6.65
327.508	6.6
327.875	6.63
328.243	6.75
328.61	6.74
328.978	6.74
329.346	6.8
329.713	6.83
330.08	6.83
330.448	6.96
330.815	6.9
331.182	6.92
331.55	6.94
331.917	6.93
332.284	7.03
332.651	7.16
333.018	7.28
333.385	7.43
333.752	7.4
334.119	7.33
334.486	7.32
334.853	7.32
335.22	7.48
335.587	7.66
335.954	7.56
336.32	7.52
336.687	7.47
337.054	7.54
337.42	7.63
337.787	7.53
338.153	7.45
338.52	7.6
338.886	7.53
339.253	7.46
339.619	7.59
339.986	7.69
340.352	7.68
340.718	7.54
341.084	7.46
341.451	7.44
341.817	7.5
342.183	7.49
342.549	7.56
342.915	7.64
343.281	7.64
343.647	7.72
344.013	7.75
344.379	7.76
344.745	7.77
345.11	7.71
345.476	7.9
345.842	7.94
346.208	7.81
346.573	7.87
346.939	8.06
347.304	8.05
347.67	8.07
348.035	7.96
348.401	7.93
348.766	7.96
349.132	8
349.497	8.03
349.862	8.04
350.228	8.06
350.593	8.04
350.958	8.06
351.323	8.07
351.688	8.08
352.053	8.12
352.418	8.18
352.783	8.24
353.148	8.21
353.513	8.23
353.878	8.23
354.243	8.2
354.608	8.19
354.972	8.19
355.337	8.14
355.702	8.29
356.066	8.27
356.431	8.24
356.795	8.27
357.16	8.14
357.524	8.08
357.889	7.97
358.253	7.9
358.618	7.87
358.982	7.78
359.346	7.79
359.71	7.79
360.075	7.68
360.439	7.7
360.803	7.57
361.167	7.49
361.531	7.47
361.895	7.41
362.259	7.32
362.623	7.31
362.987	7.19
363.351	7.12
363.714	7.11
364.078	6.99
364.442	6.85
364.806	6.83
365.169	6.76
365.533	6.82
365.896	6.81
366.26	6.71
366.623	6.68
366.987	6.56
367.35	6.49
367.714	6.55
368.077	6.44
368.44	6.45
368.803	6.39
369.167	6.36
369.53	6.32
369.893	6.3
370.256	6.27
370.619	6.26
370.982	6.2
371.345	6.18
371.708	6.2
372.071	6.21
372.434	6.17
372.797	6.17
373.159	6.01
373.522	5.94
373.885	5.87
374.247	5.82
374.61	5.89
374.973	5.82
375.335	5.71
375.698	5.68
376.06	5.57
376.423	5.53
376.785	5.51
377.147	5.48
377.51	5.41
377.872	5.35
378.234	5.32
378.596	5.27
378.958	5.15
379.321	5.12
379.683	5.08
380.045	5.02
380.407	4.96
380.769	4.97
381.13	4.92
381.492	4.92
381.854	4.88
382.216	4.78
382.578	4.78
382.939	4.71
383.301	4.66
383.663	4.64
384.024	4.64
384.386	4.64
384.747	4.62
385.109	4.56
385.47	4.5
385.832	4.42
386.193	4.38
386.554	4.36
386.916	4.3
387.277	4.23
387.638	4.21
387.999	4.14
388.36	4.09
388.721	4.07
389.082	4.03
389.443	4.01
389.804	3.96
390.165	3.86
390.526	3.82
390.887	3.77
391.248	3.81
391.609	3.76
391.969	3.75
392.33	3.68
392.691	3.66
393.051	3.64
393.412	3.63
393.772	3.58
394.133	3.58
394.493	3.56
394.854	3.53
395.214	3.5
395.574	3.49
395.935	3.47
396.295	3.44
396.655	3.39
397.015	3.34
397.376	3.31
397.736	3.27
398.096	3.27
398.456	3.24
398.816	3.14
399.176	3.1
399.535	3.01
399.895	2.95
400.255	2.96
400.615	2.93
400.975	2.91
401.334	2.87
401.694	2.84
402.054	2.78
402.413	2.77
402.773	2.72
403.132	2.7
403.492	2.67
403.851	2.67
404.211	2.66
404.57	2.63
404.929	2.64
405.288	2.63
405.648	2.58
406.007	2.55
406.366	2.56
406.725	2.55
407.084	2.56
407.443	2.55
407.802	2.52
408.161	2.48
408.52	2.45
408.879	2.47
409.238	2.48
409.596	2.48
409.955	2.46
410.314	2.46
410.673	2.47
411.031	2.44
411.39	2.44
411.748	2.44
412.107	2.44
412.465	2.41
412.824	2.43
413.182	2.43
413.54	2.44
413.899	2.44
414.257	2.43
414.615	2.36
414.974	2.38
415.332	2.35
415.69	2.35
416.048	2.33
416.406	2.3
416.764	2.26
417.122	2.26
417.48	2.25
417.838	2.26
418.195	2.25
418.553	2.24
418.911	2.21
419.269	2.19
419.626	2.19
419.984	2.18
420.342	2.17
420.699	2.16
421.057	2.16
421.414	2.14
421.772	2.15
422.129	2.16
422.486	2.15
422.844	2.15
423.201	2.14
423.558	2.14
423.915	2.14
424.273	2.15
424.63	2.13
424.987	2.13
425.344	2.1
425.701	2.09
426.058	2.09
426.415	2.09
426.772	2.07
427.128	2.06
427.485	2.06
427.842	2.05
428.199	2.06
428.555	2.04
428.912	2.05
429.269	2.02
429.625	2
429.982	1.99
430.338	2
430.695	2
431.051	1.98
431.407	1.98
431.764	1.98
432.12	1.98
432.476	1.99
432.832	1.99
433.189	1.99
433.545	1.99
433.901	1.98
434.257	1.98
434.613	1.98
434.969	1.98
435.325	1.99
435.681	2
436.036	1.99
436.392	1.99
436.748	2.01
437.104	2
437.459	1.99
437.815	1.99
438.171	2
438.526	2.02
438.882	2.02
439.237	2.02
439.593	2.02
439.948	2.02
440.304	2.01
440.659	2.01
441.014	2.02
441.369	2.01
441.725	2
442.08	2
442.435	1.99
442.79	1.97
443.145	1.96
443.5	1.96
443.855	1.94
444.21	1.93
444.565	1.94
444.92	1.94
445.275	1.93
445.629	1.93
445.984	1.91
446.339	1.91
446.693	1.91
447.048	1.92
447.403	1.91
447.757	1.92
448.112	1.9
448.466	1.91
448.82	1.91
449.175	1.92
449.529	1.93
449.883	1.93
450.238	1.94
450.592	1.95
450.946	1.94
451.3	1.94
451.654	1.93
452.008	1.93
452.362	1.94
452.716	1.95
453.07	1.95
453.424	1.96
453.778	1.96
454.132	1.94
454.486	1.92
454.839	1.91
455.193	1.91
455.547	1.91
455.9	1.89
456.254	1.91
456.607	1.91
456.961	1.9
457.314	1.89
457.668	1.89
458.021	1.88
458.375	1.88
458.728	1.88
459.081	1.87
459.434	1.87
459.787	1.88
460.141	1.86
460.494	1.86
460.847	1.86
461.2	1.86
461.553	1.88
461.906	1.88
462.259	1.89
462.611	1.91
462.964	1.94
463.317	1.95
463.67	1.96
464.022	1.95
464.375	1.96
464.728	1.98
465.08	1.98
465.433	1.98
465.785	1.98
466.138	1.99
466.49	2.01
466.843	2.02
467.195	2.01
467.547	2.03
467.899	2.02
468.252	2.04
468.604	2.03
468.956	2.01
469.308	2.03
469.66	2.02
470.012	1.99
470.364	2
470.716	2
471.068	1.99
471.42	2.01
471.772	2.04
472.123	2.04
472.475	2.06
472.827	2.07
473.178	2.09
473.53	2.11
473.882	2.1
474.233	2.1
474.585	2.09
474.936	2.09
475.288	2.1
475.639	2.1
475.99	2.1
476.342	2.12
476.693	2.1
477.044	2.12
477.395	2.13
477.746	2.13
478.097	2.12
478.448	2.11
478.8	2.09
479.15	2.06
479.501	2.05
479.852	2.03
480.203	2.01
480.554	2.02
480.905	2.03
481.255	2.03
481.606	2.03
481.957	2.04
482.307	2.04
482.658	2.04
483.009	2.03
483.359	2.03
483.709	2.03
484.06	2.03
484.41	2.04
484.761	2.04
485.111	2.04
485.461	2.04
485.811	2.03
486.162	2.04
486.512	2.05
486.862	2.05
487.212	2.05
487.562	2.07
487.912	2.07
488.262	2.06
488.612	2.05
488.961	2.06
489.311	2.06
489.661	2.05
490.011	2.05
490.36	2.06
490.71	2.06
491.06	2.07
491.409	2.07
491.759	2.07
492.108	2.07
492.458	2.07
492.807	2.07
493.157	2.08
493.506	2.09
493.855	2.1
494.204	2.11
494.554	2.11
494.903	2.1
495.252	2.12
495.601	2.14
495.95	2.18
496.299	2.19
496.648	2.22
496.997	2.25
497.346	2.27
497.695	2.29
498.043	2.31
498.392	2.32
498.741	2.36
499.09	2.37
499.438	2.4
499.787	2.42
500.135	2.46
500.484	2.5
500.832	2.53
501.181	2.55
501.529	2.58
501.878	2.63
502.226	2.68
502.574	2.69
502.923	2.72
503.271	2.73
503.619	2.76
503.967	2.79
504.315	2.81
504.663	2.84
505.011	2.9
505.359	2.94
505.707	2.97
506.055	3.01
506.403	3.07
506.751	3.12
507.098	3.15
507.446	3.21
507.794	3.25
508.141	3.28
508.489	3.34
508.837	3.38
509.184	3.44
509.531	3.48
509.879	3.55
510.226	3.61
510.574	3.68
510.921	3.72
511.268	3.78
511.616	3.85
511.963	3.91
512.31	3.95
512.657	4.02
513.004	4.08
513.351	4.15
513.698	4.2
514.045	4.26
514.392	4.33
514.739	4.4
515.086	4.47
515.432	4.54
515.779	4.61
516.126	4.7
516.473	4.77
516.819	4.84
517.166	4.9
517.512	4.97
517.859	5.01
518.205	5.09
518.552	5.15
518.898	5.21
519.245	5.28
519.591	5.36
519.937	5.4
520.283	5.49
520.629	5.57
520.976	5.67
521.322	5.76
521.668	5.85
522.014	5.93
522.36	6.03
522.706	6.15
523.052	6.28
523.398	6.39
523.743	6.55
524.089	6.69
524.435	6.81
524.781	6.94
525.126	7.09
525.472	7.2
525.817	7.32
526.163	7.4
526.509	7.48
526.854	7.57
527.199	7.69
527.545	7.77
527.89	7.86
528.235	7.94
528.581	8.04
528.926	8.13
529.271	8.24
529.616	8.34
529.961	8.43
530.306	8.54
530.651	8.65
530.996	8.75
531.341	8.87
531.686	8.99
532.031	9.11
532.376	9.25
532.721	9.4
533.065	9.53
533.41	9.71
533.755	9.88
534.099	10.05
534.444	10.2
534.788	10.37
535.133	10.53
535.477	10.69
535.822	10.84
536.166	11.04
536.51	11.23
536.855	11.44
537.199	11.64
537.543	11.86
537.887	12.11
538.231	12.32
538.576	12.54
538.92	12.8
539.264	13.02
539.608	13.22
539.951	13.4
540.295	13.59
540.639	13.77
540.983	13.94
541.327	14.11
541.671	14.27
542.014	14.45
542.358	14.62
542.701	14.83
543.045	15.02
543.389	15.22
543.732	15.41
544.075	15.62
544.419	15.83
544.762	16.01
545.105	16.21
545.449	16.45
545.792	16.69
546.135	16.91
546.478	17.17
546.821	17.42
547.165	17.71
547.508	17.97
547.851	18.19
548.194	18.46
548.536	18.71
548.879	19.01
549.222	19.26
549.565	19.52
549.908	19.79
550.25	20.08
550.593	20.32
550.936	20.58
551.278	20.86
551.621	21.12
551.963	21.38
552.306	21.63
552.648	21.91
552.991	22.17
553.333	22.43
553.675	22.65
554.017	22.9
554.36	23.08
554.702	23.31
555.044	23.57
555.386	23.85
555.728	24.09
556.07	24.33
556.412	24.54
556.754	24.81
557.096	25.02
557.438	25.21
557.78	25.41
558.121	25.68
558.463	25.89
558.805	26.14
559.147	26.4
559.488	26.6
559.83	26.81
560.171	26.96
560.513	27.15
560.854	27.27
561.196	27.51
561.537	27.75
561.878	28
562.22	28.21
562.561	28.34
562.902	28.58
563.243	28.72
563.584	28.97
563.925	29.16
564.266	29.36
564.607	29.54
564.948	29.78
565.289	29.92
565.63	30.09
565.971	30.25
566.312	30.37
566.653	30.51
566.993	30.64
567.334	30.85
567.675	31.01
568.015	31.17
568.356	31.25
568.696	31.41
569.037	31.53
569.377	31.7
569.718	31.91
570.058	32.02
570.398	32.17
570.739	32.28
571.079	32.34
571.419	32.48
571.759	32.62
572.099	32.71
572.439	32.82
572.779	32.96
573.119	33.06
573.459	33.21
573.799	33.29
574.139	33.43
574.479	33.5
574.819	33.6
575.158	33.75
575.498	33.9
575.838	33.96
576.177	34.05
576.517	34.17
576.856	34.21
577.196	34.31
577.535	34.41
577.875	34.51
578.214	34.67
578.553	34.77
578.893	34.85
579.232	34.92
579.571	35.08
579.91	35.13
580.25	35.17
580.589	35.29
580.928	35.36
581.267	35.36
581.606	35.47
581.945	35.57
582.283	35.63
582.622	35.76
582.961	35.85
583.3	35.93
583.639	36.01
583.977	36.11
584.316	36.16
584.654	36.31
584.993	36.42
585.332	36.53
585.67	36.6
586.008	36.71
586.347	36.78
586.685	36.75
587.024	36.77
587.362	36.91
587.7	36.98
588.038	37.11
588.376	37.24
588.715	37.26
589.053	37.3
589.391	37.39
589.729	37.36
590.067	37.4
590.404	37.46
590.742	37.51
591.08	37.55
591.418	37.63
591.756	37.63
592.093	37.65
592.431	37.65
592.769	37.67
593.106	37.68
593.444	37.71
593.781	37.85
594.119	37.91
594.456	37.91
594.793	37.84
595.131	37.84
595.468	37.89
595.805	37.93
596.143	37.96
596.48	37.97
596.817	38
597.154	38.06
597.491	38.11
597.828	38.1
598.165	38.15
598.502	38.18
598.839	38.19
599.176	38.2
599.512	38.26
599.849	38.39
600.186	38.43
600.523	38.51
600.859	38.54
601.196	38.63
601.532	38.7
601.869	38.73
602.205	38.82
602.542	38.85
602.878	38.91
603.215	38.98
603.551	39.1
603.887	39.19
604.223	39.25
604.56	39.26
604.896	39.33
605.232	39.36
605.568	39.33
605.904	39.42
606.24	39.52
606.576	39.54
606.912	39.52
607.248	39.64
607.583	39.67
607.919	39.61
608.255	39.65
608.591	39.7
608.926	39.77
609.262	39.81
609.597	39.83
609.933	39.9
610.268	39.92
610.604	39.9
610.939	39.92
611.275	39.91
611.61	39.91
611.945	39.91
612.281	39.93
612.616	40.06
612.951	40.12
613.286	40.11
613.621	40.1
613.956	40.12
614.291	40.03
614.626	40.05
614.961	40.22
615.296	40.18
615.631	40.23
615.966	40.24
616.3	40.25
616.635	40.33
616.97	40.27
617.304	40.26
617.639	40.31
617.973	40.34
618.308	40.36
618.642	40.42
618.977	40.34
619.311	40.34
619.646	40.33
619.98	40.25
620.314	40.29
620.648	40.33
620.983	40.35
621.317	40.39
621.651	40.37
621.985	40.29
622.319	40.29
622.653	40.31
622.987	40.32
623.321	40.3
623.655	40.23
623.988	40.26
624.322	40.25
624.656	40.18
624.99	40.15
625.323	40.12
625.657	40.14
625.99	40.22
626.324	40.18
626.657	40.24
626.991	40.2
627.324	40.23
627.658	40.28
627.991	40.32
628.324	40.38
628.657	40.42
628.991	40.46
629.324	40.52
629.657	40.53
629.99	40.57
630.323	40.61
630.656	40.65
630.989	40.67
631.322	40.65
631.655	40.73
631.987	40.74
632.32	40.75
632.653	40.73
632.986	40.8
633.318	40.83
633.651	40.78
633.984	40.87
634.316	40.82
634.649	40.84
634.981	40.83
635.313	40.73
635.646	40.71
635.978	40.71
636.31	40.67
636.643	40.68
636.975	40.7
637.307	40.69
637.639	40.69
637.971	40.7
638.303	40.79
638.635	40.73
638.967	40.68
639.299	40.76
639.631	40.78
639.963	40.67
640.295	40.7
640.626	40.67
640.958	40.69
641.29	40.76
641.621	40.73
641.953	40.69
642.285	40.8
642.616	40.89
642.948	40.93
643.279	40.91
643.61	40.8
643.942	40.75
644.273	40.79
644.604	40.81
644.936	40.76
645.267	40.71
645.598	40.76
645.929	40.78
646.26	40.76
646.591	40.79
646.922	40.84
647.253	40.8
647.584	40.78
647.915	40.76
648.245	40.65
648.576	40.56
648.907	40.61
649.238	40.52
649.568	40.53
649.899	40.47
650.229	40.67
650.56	40.73
650.89	40.75
651.221	40.71
651.551	40.7
651.882	40.64
652.212	40.76
652.542	40.64
652.872	40.62
653.203	40.64
653.533	40.64
653.863	40.72
654.193	40.82
654.523	40.91
654.853	40.86
655.183	40.9
655.513	40.96
655.843	40.96
656.172	40.99
656.502	41.11
656.832	41.05
657.162	40.94
657.491	40.97
657.821	41.01
658.15	41.03
658.48	41.02
658.809	41.12
659.139	41.05
659.468	41.13
659.798	41.14
660.127	41.15
660.456	41.11
660.785	41.11
661.115	41.17
661.444	41.19
661.773	41.29
662.102	41.38
662.431	41.4
662.76	41.47
663.089	41.44
663.418	41.24
663.747	41.26
664.076	41.31
664.404	41.19
664.733	41.15
665.062	41.12
665.39	41.13
665.719	41.13
