Data from BU58141_Reflection_00002.txt Node
Date: Mon Nov 18 16:46:37 EST 2019
User: vgr7
Spectrometer: USB2G7710
Scans to average: 3
Trigger mode: 4
Integration Time (sec): 2.000000E-2
Electric dark correction enabled: true
Boxcar width: 10
XAxis mode: Wavelengths
Number of Pixels in Spectrum: 2048
>>>>>Begin Spectral Data<<<<<
177.721	36.19
178.105	53.82
178.488	13.16
178.871	-28.22
179.254	-58.6
179.636	5662.5
180.019	163.55
180.402	177.78
180.785	0.42
181.168	-1517.65
181.55	-319.35
181.933	192.38
182.316	366.26
182.698	156.21
183.081	79.16
183.463	63.27
183.846	68.29
184.228	67.39
184.611	75.64
184.993	76.74
185.376	82.26
185.758	124.99
186.14	100.48
186.522	85.36
186.904	145.79
187.287	172.69
187.669	-7.27
188.051	-250.18
188.433	-65.08
188.815	20.41
189.197	-127.47
189.579	2220
189.961	492.27
190.342	705.1
190.724	104.68
191.106	37.6
191.488	29.5
191.869	10.97
192.251	25.99
192.633	35.99
193.014	-0.12
193.396	-21.42
193.777	-2.06
194.159	-4.82
194.54	5.12
194.922	1.81
195.303	0.35
195.684	-33.7
196.065	-14.96
196.447	5.96
196.828	-21.2
197.209	-9.66
197.59	-10.41
197.971	0.29
198.352	-1.17
198.733	3.08
199.114	13.01
199.495	14.94
199.876	32.18
200.257	31.25
200.638	28.37
201.018	35.25
201.399	25.72
201.78	34.36
202.16	25.65
202.541	15.25
202.922	22.36
203.302	22.71
203.683	41.7
204.063	26.05
204.444	16.54
204.824	22.47
205.204	38.9
205.585	32.52
205.965	17.75
206.345	12.42
206.725	24.09
207.106	16.34
207.486	-8.33
207.866	-20.27
208.246	-24.76
208.626	-2.61
209.006	3.99
209.386	-7.24
209.766	-25.69
210.145	-10.95
210.525	2.61
210.905	4.45
211.285	-3
211.664	-15.08
212.044	1.14
212.424	8.85
212.803	10.62
213.183	-7.04
213.562	9.9
213.942	31.72
214.321	41.44
214.701	32.59
215.08	26.17
215.459	26.45
215.838	29.62
216.218	21.68
216.597	23.31
216.976	26.07
217.355	36.99
217.734	37.1
218.113	39.39
218.492	37.97
218.871	25.41
219.25	31.61
219.629	31.3
220.008	27.26
220.387	20.99
220.766	21.63
221.144	12.8
221.523	13.78
221.902	10.44
222.28	12.9
222.659	11.69
223.037	13.07
223.416	30.16
223.794	18.73
224.173	16.6
224.551	13.76
224.929	13.2
225.308	8.43
225.686	5.71
226.064	1.95
226.442	1.46
226.821	7.45
227.199	4.53
227.577	4.96
227.955	2.15
228.333	3.7
228.711	4.2
229.089	9.67
229.467	7.91
229.845	5
230.222	3.81
230.6	0.94
230.978	2.73
231.356	1.84
231.733	2.46
232.111	2.69
232.488	1.5
232.866	1.21
233.243	3.85
233.621	2.52
233.998	2.45
234.376	1.3
234.753	2.67
235.13	2.92
235.508	3.61
235.885	2.79
236.262	1.44
236.639	2.69
237.016	1.54
237.393	2.14
237.77	2.89
238.147	3.92
238.524	4.58
238.901	4.52
239.278	4.9
239.655	6.09
240.032	6.2
240.409	6.67
240.785	6.68
241.162	6.05
241.539	5.9
241.915	6.56
242.292	6.42
242.668	6.11
243.045	6.29
243.421	6.12
243.798	6.29
244.174	5.8
244.551	5.58
244.927	5.47
245.303	5.7
245.679	5.51
246.056	5.41
246.432	5.18
246.808	5.17
247.184	4.88
247.56	4.46
247.936	4.48
248.312	4.41
248.688	4.37
249.064	4.23
249.44	4.13
249.815	3.88
250.191	4.05
250.567	3.8
250.943	3.63
251.318	3.56
251.694	3.47
252.069	3.7
252.445	3.54
252.82	3.5
253.196	3.25
253.571	2.88
253.947	2.48
254.322	2.79
254.697	2.71
255.073	3.02
255.448	2.93
255.823	3.06
256.198	2.89
256.573	2.96
256.948	3.06
257.323	3.43
257.698	3.52
258.073	3.7
258.448	3.93
258.823	4.05
259.198	3.99
259.573	4
259.948	4.01
260.322	4.06
260.697	4.07
261.072	3.84
261.446	4.07
261.821	3.98
262.195	4.01
262.57	4.02
262.944	3.88
263.319	3.88
263.693	3.91
264.067	4.06
264.442	4.08
264.816	3.92
265.19	3.8
265.564	3.65
265.938	3.37
266.313	3.18
266.687	2.99
267.061	3.02
267.435	3.04
267.809	3.08
268.183	3
268.556	2.96
268.93	3.3
269.304	3.43
269.678	3.62
270.051	3.62
270.425	3.6
270.799	3.63
271.172	3.91
271.546	3.82
271.919	3.72
272.293	3.77
272.666	3.91
273.04	3.98
273.413	4.01
273.787	4.1
274.16	4.08
274.533	3.98
274.906	3.82
275.279	3.83
275.653	3.83
276.026	3.81
276.399	3.85
276.772	3.63
277.145	3.39
277.518	3.43
277.891	3.44
278.263	3.43
278.636	3.54
279.009	3.38
279.382	3.57
279.755	3.57
280.127	3.74
280.5	3.81
280.872	3.89
281.245	3.98
281.617	4
281.99	4.07
282.362	4.27
282.735	4.33
283.107	4.27
283.479	4.31
283.852	4.41
284.224	4.34
284.596	4.46
284.968	4.54
285.34	4.52
285.713	4.47
286.085	4.51
286.457	4.49
286.829	4.52
287.201	4.38
287.572	4.28
287.944	4.15
288.316	4.05
288.688	4.06
289.06	4.04
289.431	4.09
289.803	4.15
290.175	4.24
290.546	4.45
290.918	4.48
291.289	4.54
291.661	4.57
292.032	4.78
292.403	4.73
292.775	4.77
293.146	4.8
293.517	4.8
293.889	4.84
294.26	4.8
294.631	4.83
295.002	4.85
295.373	5
295.744	4.9
296.115	5.04
296.486	4.82
296.857	4.9
297.228	4.87
297.599	4.76
297.97	4.68
298.34	4.65
298.711	4.65
299.082	4.64
299.452	4.67
299.823	4.68
300.194	4.74
300.564	4.76
300.935	4.85
301.305	4.88
301.676	4.94
302.046	4.98
302.416	4.95
302.787	4.94
303.157	4.81
303.527	4.92
303.897	4.89
304.267	5.18
304.637	5.04
305.008	5.09
305.378	5.29
305.748	5.33
306.117	5.25
306.487	5.36
306.857	5.31
307.227	5.24
307.597	5.19
307.967	5.05
308.336	4.98
308.706	4.89
309.076	5.01
309.445	4.99
309.815	4.96
310.184	4.95
310.554	5.03
310.923	5.11
311.293	5.2
311.662	5.13
312.031	5.02
312.401	5.05
312.77	5.16
313.139	5.11
313.508	4.96
313.877	4.84
314.246	4.85
314.616	4.79
314.985	4.79
315.353	4.61
315.722	4.78
316.091	4.8
316.46	4.76
316.829	4.66
317.198	4.49
317.567	4.56
317.935	4.53
318.304	4.5
318.672	4.44
319.041	4.45
319.41	4.65
319.778	4.48
320.147	4.54
320.515	4.3
320.883	4.16
321.252	4.28
321.62	4.41
321.988	4.5
322.357	4.54
322.725	4.55
323.093	4.79
323.461	4.67
323.829	4.7
324.197	4.82
324.565	4.81
324.933	4.85
325.301	4.94
325.669	5.05
326.037	5.05
326.405	5.17
326.772	5.13
327.14	5
327.508	5.12
327.875	5
328.243	5.14
328.61	5.29
328.978	5.22
329.346	5.18
329.713	4.95
330.08	4.93
330.448	4.97
330.815	4.85
331.182	4.87
331.55	4.82
331.917	4.74
332.284	4.68
332.651	4.6
333.018	4.48
333.385	4.5
333.752	4.46
334.119	4.34
334.486	4.26
334.853	4.25
335.22	4.24
335.587	4.38
335.954	4.19
336.32	4.01
336.687	4.14
337.054	4.28
337.42	4.34
337.787	4.44
338.153	4.36
338.52	4.35
338.886	4.27
339.253	4.28
339.619	4.28
339.986	4.33
340.352	4.44
340.718	4.41
341.084	4.34
341.451	4.55
341.817	4.64
342.183	4.62
342.549	4.62
342.915	4.68
343.281	4.63
343.647	4.73
344.013	4.92
344.379	4.84
344.745	4.83
345.11	4.75
345.476	4.65
345.842	4.66
346.208	4.7
346.573	4.85
346.939	4.86
347.304	4.82
347.67	4.74
348.035	4.64
348.401	4.67
348.766	4.68
349.132	4.59
349.497	4.58
349.862	4.6
350.228	4.57
350.593	4.44
350.958	4.35
351.323	4.33
351.688	4.22
352.053	4.26
352.418	4.21
352.783	4.34
353.148	4.28
353.513	4.34
353.878	4.43
354.243	4.37
354.608	4.39
354.972	4.34
355.337	4.41
355.702	4.54
356.066	4.56
356.431	4.47
356.795	4.42
357.16	4.32
357.524	4.29
357.889	4.31
358.253	4.42
358.618	4.5
358.982	4.48
359.346	4.42
359.71	4.39
360.075	4.37
360.439	4.35
360.803	4.4
361.167	4.35
361.531	4.3
361.895	4.28
362.259	4.24
362.623	4.26
362.987	4.26
363.351	4.21
363.714	4.21
364.078	4.25
364.442	4.2
364.806	4.26
365.169	4.31
365.533	4.35
365.896	4.33
366.26	4.33
366.623	4.33
366.987	4.51
367.35	4.55
367.714	4.55
368.077	4.5
368.44	4.53
368.803	4.5
369.167	4.44
369.53	4.41
369.893	4.48
370.256	4.52
370.619	4.46
370.982	4.49
371.345	4.41
371.708	4.4
372.071	4.39
372.434	4.43
372.797	4.43
373.159	4.38
373.522	4.35
373.885	4.34
374.247	4.41
374.61	4.31
374.973	4.32
375.335	4.33
375.698	4.35
376.06	4.32
376.423	4.33
376.785	4.38
377.147	4.45
377.51	4.45
377.872	4.45
378.234	4.46
378.596	4.47
378.958	4.51
379.321	4.51
379.683	4.53
380.045	4.54
380.407	4.49
380.769	4.52
381.13	4.52
381.492	4.49
381.854	4.43
382.216	4.41
382.578	4.37
382.939	4.34
383.301	4.29
383.663	4.29
384.024	4.33
384.386	4.32
384.747	4.29
385.109	4.21
385.47	4.21
385.832	4.23
386.193	4.2
386.554	4.2
386.916	4.17
387.277	4.17
387.638	4.14
387.999	4.18
388.36	4.17
388.721	4.18
389.082	4.18
389.443	4.17
389.804	4.19
390.165	4.16
390.526	4.2
390.887	4.21
391.248	4.24
391.609	4.23
391.969	4.21
392.33	4.21
392.691	4.25
393.051	4.22
393.412	4.26
393.772	4.25
394.133	4.24
394.493	4.22
394.854	4.25
395.214	4.22
395.574	4.2
395.935	4.18
396.295	4.17
396.655	4.15
397.015	4.15
397.376	4.14
397.736	4.18
398.096	4.14
398.456	4.15
398.816	4.16
399.176	4.14
399.535	4.16
399.895	4.14
400.255	4.15
400.615	4.17
400.975	4.16
401.334	4.17
401.694	4.15
402.054	4.18
402.413	4.18
402.773	4.16
403.132	4.17
403.492	4.15
403.851	4.15
404.211	4.17
404.57	4.17
404.929	4.19
405.288	4.21
405.648	4.21
406.007	4.23
406.366	4.2
406.725	4.22
407.084	4.2
407.443	4.18
407.802	4.18
408.161	4.16
408.52	4.11
408.879	4.1
409.238	4.12
409.596	4.1
409.955	4.1
410.314	4.12
410.673	4.12
411.031	4.18
411.39	4.2
411.748	4.22
412.107	4.22
412.465	4.21
412.824	4.16
413.182	4.16
413.54	4.12
413.899	4.15
414.257	4.16
414.615	4.15
414.974	4.16
415.332	4.13
415.69	4.12
416.048	4.15
416.406	4.13
416.764	4.12
417.122	4.15
417.48	4.12
417.838	4.14
418.195	4.13
418.553	4.11
418.911	4.12
419.269	4.12
419.626	4.13
419.984	4.12
420.342	4.13
420.699	4.12
421.057	4.14
421.414	4.12
421.772	4.11
422.129	4.12
422.486	4.13
422.844	4.14
423.201	4.16
423.558	4.16
423.915	4.16
424.273	4.19
424.63	4.17
424.987	4.18
425.344	4.18
425.701	4.19
426.058	4.19
426.415	4.2
426.772	4.18
427.128	4.18
427.485	4.19
427.842	4.17
428.199	4.19
428.555	4.18
428.912	4.22
429.269	4.23
429.625	4.23
429.982	4.24
430.338	4.25
430.695	4.25
431.051	4.24
431.407	4.25
431.764	4.25
432.12	4.26
432.476	4.27
432.832	4.27
433.189	4.25
433.545	4.24
433.901	4.25
434.257	4.25
434.613	4.26
434.969	4.25
435.325	4.28
435.681	4.27
436.036	4.28
436.392	4.24
436.748	4.22
437.104	4.22
437.459	4.21
437.815	4.21
438.171	4.19
438.526	4.2
438.882	4.21
439.237	4.2
439.593	4.2
439.948	4.21
440.304	4.21
440.659	4.21
441.014	4.21
441.369	4.18
441.725	4.18
442.08	4.19
442.435	4.18
442.79	4.17
443.145	4.17
443.5	4.16
443.855	4.18
444.21	4.21
444.565	4.21
444.92	4.21
445.275	4.2
445.629	4.22
445.984	4.2
446.339	4.2
446.693	4.19
447.048	4.19
447.403	4.17
447.757	4.17
448.112	4.18
448.466	4.18
448.82	4.19
449.175	4.2
449.529	4.2
449.883	4.2
450.238	4.2
450.592	4.21
450.946	4.23
451.3	4.24
451.654	4.21
452.008	4.21
452.362	4.2
452.716	4.23
453.07	4.22
453.424	4.23
453.778	4.25
454.132	4.24
454.486	4.23
454.839	4.24
455.193	4.22
455.547	4.21
455.9	4.22
456.254	4.22
456.607	4.22
456.961	4.22
457.314	4.25
457.668	4.23
458.021	4.2
458.375	4.2
458.728	4.18
459.081	4.18
459.434	4.18
459.787	4.19
460.141	4.17
460.494	4.17
460.847	4.18
461.2	4.16
461.553	4.16
461.906	4.17
462.259	4.17
462.611	4.2
462.964	4.21
463.317	4.19
463.67	4.2
464.022	4.2
464.375	4.19
464.728	4.2
465.08	4.22
465.433	4.24
465.785	4.24
466.138	4.25
466.49	4.27
466.843	4.26
467.195	4.25
467.547	4.26
467.899	4.28
468.252	4.27
468.604	4.27
468.956	4.28
469.308	4.28
469.66	4.25
470.012	4.23
470.364	4.23
470.716	4.25
471.068	4.26
471.42	4.26
471.772	4.28
472.123	4.27
472.475	4.27
472.827	4.28
473.178	4.3
473.53	4.27
473.882	4.28
474.233	4.31
474.585	4.31
474.936	4.31
475.288	4.31
475.639	4.31
475.99	4.31
476.342	4.31
476.693	4.31
477.044	4.33
477.395	4.33
477.746	4.34
478.097	4.34
478.448	4.32
478.8	4.31
479.15	4.29
479.501	4.29
479.852	4.3
480.203	4.31
480.554	4.32
480.905	4.32
481.255	4.33
481.606	4.32
481.957	4.31
482.307	4.3
482.658	4.3
483.009	4.3
483.359	4.31
483.709	4.32
484.06	4.33
484.41	4.35
484.761	4.36
485.111	4.35
485.461	4.35
485.811	4.36
486.162	4.36
486.512	4.37
486.862	4.37
487.212	4.37
487.562	4.37
487.912	4.37
488.262	4.37
488.612	4.37
488.961	4.36
489.311	4.37
489.661	4.39
490.011	4.39
490.36	4.39
490.71	4.39
491.06	4.4
491.409	4.38
491.759	4.36
492.108	4.34
492.458	4.34
492.807	4.33
493.157	4.33
493.506	4.33
493.855	4.34
494.204	4.35
494.554	4.34
494.903	4.33
495.252	4.31
495.601	4.32
495.95	4.32
496.299	4.31
496.648	4.31
496.997	4.29
497.346	4.3
497.695	4.3
498.043	4.28
498.392	4.27
498.741	4.28
499.09	4.29
499.438	4.31
499.787	4.32
500.135	4.32
500.484	4.34
500.832	4.36
501.181	4.34
501.529	4.32
501.878	4.32
502.226	4.33
502.574	4.32
502.923	4.32
503.271	4.31
503.619	4.33
503.967	4.32
504.315	4.31
504.663	4.3
505.011	4.3
505.359	4.3
505.707	4.34
506.055	4.33
506.403	4.34
506.751	4.35
507.098	4.36
507.446	4.38
507.794	4.37
508.141	4.36
508.489	4.37
508.837	4.37
509.184	4.39
509.531	4.4
509.879	4.42
510.226	4.44
510.574	4.43
510.921	4.43
511.268	4.46
511.616	4.51
511.963	4.53
512.31	4.54
512.657	4.57
513.004	4.56
513.351	4.57
513.698	4.57
514.045	4.57
514.392	4.59
514.739	4.58
515.086	4.59
515.432	4.59
515.779	4.57
516.126	4.59
516.473	4.58
516.819	4.59
517.166	4.57
517.512	4.57
517.859	4.58
518.205	4.58
518.552	4.57
518.898	4.54
519.245	4.53
519.591	4.53
519.937	4.5
520.283	4.5
520.629	4.51
520.976	4.53
521.322	4.52
521.668	4.52
522.014	4.53
522.36	4.54
522.706	4.55
523.052	4.57
523.398	4.57
523.743	4.57
524.089	4.59
524.435	4.6
524.781	4.62
525.126	4.64
525.472	4.63
525.817	4.64
526.163	4.66
526.509	4.67
526.854	4.68
527.199	4.69
527.545	4.7
527.89	4.7
528.235	4.7
528.581	4.7
528.926	4.69
529.271	4.69
529.616	4.7
529.961	4.7
530.306	4.7
530.651	4.69
530.996	4.7
531.341	4.69
531.686	4.69
532.031	4.68
532.376	4.67
532.721	4.69
533.065	4.69
533.41	4.69
533.755	4.69
534.099	4.7
534.444	4.7
534.788	4.7
535.133	4.7
535.477	4.69
535.822	4.7
536.166	4.7
536.51	4.69
536.855	4.69
537.199	4.7
537.543	4.69
537.887	4.71
538.231	4.7
538.576	4.71
538.92	4.73
539.264	4.72
539.608	4.74
539.951	4.73
540.295	4.73
540.639	4.71
540.983	4.72
541.327	4.71
541.671	4.71
542.014	4.71
542.358	4.71
542.701	4.72
543.045	4.72
543.389	4.73
543.732	4.72
544.075	4.72
544.419	4.72
544.762	4.73
545.105	4.73
545.449	4.73
545.792	4.73
546.135	4.72
546.478	4.74
546.821	4.74
547.165	4.75
547.508	4.76
547.851	4.78
548.194	4.77
548.536	4.77
548.879	4.75
549.222	4.75
549.565	4.75
549.908	4.75
550.25	4.74
550.593	4.73
550.936	4.75
551.278	4.75
551.621	4.77
551.963	4.77
552.306	4.78
552.648	4.77
552.991	4.79
553.333	4.78
553.675	4.79
554.017	4.78
554.36	4.76
554.702	4.77
555.044	4.76
555.386	4.79
555.728	4.79
556.07	4.83
556.412	4.84
556.754	4.82
557.096	4.79
557.438	4.8
557.78	4.84
558.121	4.86
558.463	4.88
558.805	4.86
559.147	4.85
559.488	4.87
559.83	4.9
560.171	4.87
560.513	4.89
560.854	4.88
561.196	4.89
561.537	4.91
561.878	4.88
562.22	4.89
562.561	4.85
562.902	4.86
563.243	4.84
563.584	4.85
563.925	4.88
564.266	4.91
564.607	4.9
564.948	4.88
565.289	4.87
565.63	4.84
565.971	4.82
566.312	4.84
566.653	4.81
566.993	4.8
567.334	4.81
567.675	4.79
568.015	4.8
568.356	4.8
568.696	4.81
569.037	4.82
569.377	4.81
569.718	4.82
570.058	4.82
570.398	4.81
570.739	4.8
571.079	4.8
571.419	4.81
571.759	4.83
572.099	4.81
572.439	4.8
572.779	4.79
573.119	4.82
573.459	4.83
573.799	4.84
574.139	4.84
574.479	4.85
574.819	4.85
575.158	4.86
575.498	4.84
575.838	4.82
576.177	4.83
576.517	4.86
576.856	4.86
577.196	4.88
577.535	4.86
577.875	4.88
578.214	4.88
578.553	4.9
578.893	4.89
579.232	4.89
579.571	4.89
579.91	4.9
580.25	4.92
580.589	4.93
580.928	4.96
581.267	4.97
581.606	4.98
581.945	4.99
582.283	4.98
582.622	5.01
582.961	5.06
583.3	5.05
583.639	5.09
583.977	5.12
584.316	5.06
584.654	5.07
584.993	5.03
585.332	5.05
585.67	5.05
586.008	5.04
586.347	5.08
586.685	5.07
587.024	5.11
587.362	5.1
587.7	5.08
588.038	5.05
588.376	5.04
588.715	5.03
589.053	5.05
589.391	5.08
589.729	5.08
590.067	5.03
590.404	5.03
590.742	4.97
591.08	4.95
591.418	5.02
591.756	5.03
592.093	5.04
592.431	5.04
592.769	5.03
593.106	5.04
593.444	5.01
593.781	5
594.119	5.02
594.456	4.99
594.793	4.99
595.131	4.96
595.468	4.96
595.805	4.95
596.143	4.94
596.48	4.91
596.817	4.91
597.154	4.96
597.491	4.95
597.828	4.99
598.165	5
598.502	4.95
598.839	4.97
599.176	4.96
599.512	4.95
599.849	4.94
600.186	4.93
600.523	4.96
600.859	5.01
601.196	4.97
601.532	5
601.869	4.99
602.205	5.02
602.542	5.01
602.878	5.01
603.215	5
603.551	4.99
603.887	4.99
604.223	4.98
604.56	4.99
604.896	4.95
605.232	4.94
605.568	4.93
605.904	4.94
606.24	4.99
606.576	4.98
606.912	4.99
607.248	5.01
607.583	5
607.919	4.97
608.255	4.98
608.591	4.99
608.926	4.99
609.262	4.99
609.597	5
609.933	5.05
610.268	5.07
610.604	5.11
610.939	5.13
611.275	5.12
611.61	5.14
611.945	5.15
612.281	5.15
612.616	5.19
612.951	5.19
613.286	5.16
613.621	5.18
613.956	5.14
614.291	5.12
614.626	5.18
614.961	5.17
615.296	5.22
615.631	5.24
615.966	5.28
616.3	5.28
616.635	5.28
616.97	5.23
617.304	5.22
617.639	5.21
617.973	5.14
618.308	5.08
618.642	5.08
618.977	5.07
619.311	5.12
619.646	5.13
619.98	5.16
620.314	5.19
620.648	5.24
620.983	5.28
621.317	5.23
621.651	5.19
621.985	5.26
622.319	5.18
622.653	5.12
622.987	5.09
623.321	5.14
623.655	5.14
623.988	5.16
624.322	5.11
624.656	5.12
624.99	5.15
625.323	5.2
625.657	5.24
625.99	5.26
626.324	5.2
626.657	5.17
626.991	5.2
627.324	5.19
627.658	5.18
627.991	5.2
628.324	5.23
628.657	5.26
628.991	5.23
629.324	5.26
629.657	5.31
629.99	5.34
630.323	5.3
630.656	5.36
630.989	5.36
631.322	5.43
631.655	5.41
631.987	5.45
632.32	5.51
632.653	5.42
632.986	5.44
633.318	5.5
633.651	5.54
633.984	5.52
634.316	5.53
634.649	5.5
634.981	5.47
635.313	5.56
635.646	5.61
635.978	5.63
636.31	5.64
636.643	5.6
636.975	5.62
637.307	5.64
637.639	5.56
637.971	5.6
638.303	5.57
638.635	5.59
638.967	5.54
639.299	5.5
639.631	5.52
639.963	5.45
640.295	5.41
640.626	5.45
640.958	5.51
641.29	5.53
641.621	5.47
641.953	5.5
642.285	5.47
642.616	5.42
642.948	5.39
643.279	5.36
643.61	5.45
643.942	5.41
644.273	5.37
644.604	5.36
644.936	5.31
645.267	5.29
645.598	5.31
645.929	5.37
646.26	5.35
646.591	5.42
646.922	5.47
647.253	5.49
647.584	5.4
647.915	5.31
648.245	5.25
648.576	5.3
648.907	5.25
649.238	5.2
649.568	5.17
649.899	5.19
650.229	5.22
650.56	5.08
650.89	5.13
651.221	5.12
651.551	5.15
651.882	5.13
652.212	5.16
652.542	5.12
652.872	5.08
653.203	5.1
653.533	5.1
653.863	5.09
654.193	5.1
654.523	5.12
654.853	5.2
655.183	5.25
655.513	5.28
655.843	5.32
656.172	5.36
656.502	5.37
656.832	5.35
657.162	5.42
657.491	5.47
657.821	5.45
658.15	5.42
658.48	5.4
658.809	5.48
659.139	5.47
659.468	5.47
659.798	5.51
660.127	5.52
660.456	5.53
660.785	5.58
661.115	5.58
661.444	5.65
661.773	5.55
662.102	5.54
662.431	5.56
662.76	5.55
663.089	5.51
663.418	5.52
663.747	5.49
664.076	5.5
664.404	5.54
664.733	5.61
665.062	5.68
665.39	5.76
665.719	5.66
666.048	5.66
666.376	5.75
666.705	5.72
667.033	5.73
667.362	5.79
667.69	5.77
668.018	5.83
668.347	5.79
668.675	5.84
669.003	5.87
669.331	5.91
669.659	5.83
669.987	5.83
670.315	5.76
670.643	5.82
670.971	5.77
671.299	5.78
671.627	5.74
671.955	5.71
672.283	5.7
672.61	5.73
672.938	5.8
673.266	5.76
673.593	5.78
673.921	5.68
674.249	5.62
674.576	5.56
674.904	5.46
675.231	5.35
675.558	5.32
675.886	5.3
676.213	5.29
676.54	5.31
676.867	5.34
677.195	5.44
677.522	5.41
677.849	5.48
678.176	5.46
678.503	5.43
678.83	5.47
679.157	5.38
679.484	5.39
679.81	5.4
680.137	5.36
680.464	5.29
680.791	5.42
681.117	5.4
