Data from BU58127_Reflection_00005.txt Node
Date: Mon Nov 18 16:44:09 EST 2019
User: vgr7
Spectrometer: USB2G7710
Scans to average: 3
Trigger mode: 4
Integration Time (sec): 2.000000E-2
Electric dark correction enabled: true
Boxcar width: 10
XAxis mode: Wavelengths
Number of Pixels in Spectrum: 2048
>>>>>Begin Spectral Data<<<<<
177.721	211.11
178.105	109.39
178.488	116.12
178.871	83.09
179.254	202.76
179.636	51.39
180.019	-28.07
180.402	215
180.785	-300.97
181.168	62.96
181.55	179.37
181.933	93.61
182.316	78.17
182.698	139.82
183.081	118.58
183.463	179.94
183.846	108.82
184.228	196.11
184.611	160.74
184.993	1120.2
185.376	601.83
185.758	-6951.28
186.14	777.56
186.522	374.97
186.904	310.2
187.287	478.96
187.669	-2589.92
188.051	781.16
188.433	14062.96
188.815	-608.14
189.197	-1474.92
189.579	-385.23
189.961	-280.36
190.342	-348.23
190.724	-338.23
191.106	-307.8
191.488	-336.95
191.869	-255.59
192.251	-334.01
192.633	-219.89
193.014	-213.9
193.396	-247.2
193.777	-253.2
194.159	-219.37
194.54	-164.85
194.922	-141.43
195.303	-145.19
195.684	-130.3
196.065	-81.85
196.447	-89.82
196.828	-92.75
197.209	-55.49
197.59	-64.3
197.971	-56.1
198.352	-41.71
198.733	-61.16
199.114	-52.42
199.495	-49.9
199.876	-62.16
200.257	-44.01
200.638	-43.5
201.018	-48.65
201.399	-45.72
201.78	-38.63
202.16	-46.43
202.541	-48.42
202.922	-49.9
203.302	-61.08
203.683	-72.6
204.063	-77.53
204.444	-56.39
204.824	-62.32
205.204	-66.76
205.585	-70.19
205.965	-71.09
206.345	-71.46
206.725	-76.39
207.106	-92.66
207.486	-102.48
207.866	-107.69
208.246	-105.05
208.626	-100.2
209.006	-99.02
209.386	-100.47
209.766	-109.35
210.145	-103.32
210.525	-88.8
210.905	-91.56
211.285	-80.79
211.664	-87.32
212.044	-88.78
212.424	-111.56
212.803	-110.26
213.183	-117.1
213.562	-105.97
213.942	-84.4
214.321	-78.47
214.701	-70.37
215.08	-75.58
215.459	-67.26
215.838	-62.12
216.218	-55.05
216.597	-52.73
216.976	-38.03
217.355	-41.93
217.734	-56.97
218.113	-51.74
218.492	-58.85
218.871	-67.72
219.25	-66.34
219.629	-55.8
220.008	-50.84
220.387	-39.62
220.766	-38.93
221.144	-40.23
221.523	-55.05
221.902	-77.13
222.28	-77.69
222.659	-79.57
223.037	-69.46
223.416	-71.15
223.794	-72.81
224.173	-61.32
224.551	-54.94
224.929	-57.08
225.308	-46.18
225.686	-42.06
226.064	-37.9
226.442	-32.04
226.821	-23.51
227.199	-23.54
227.577	-27.95
227.955	-27.03
228.333	-28.51
228.711	-25.29
229.089	-20.87
229.467	-21.73
229.845	-18.41
230.222	-17.65
230.6	-16.62
230.978	-12.89
231.356	-14.6
231.733	-12.31
232.111	-11.97
232.488	-13.01
232.866	-11.24
233.243	-11.45
233.621	-9.88
233.998	-9.64
234.376	-9.08
234.753	-8.33
235.13	-7.2
235.508	-5.69
235.885	-5.16
236.262	-5.46
236.639	-4.84
237.016	-5.61
237.393	-3.57
237.77	-2.31
238.147	-1.43
238.524	-0.88
238.901	-0.21
239.278	0.6
239.655	1.34
240.032	1.46
240.409	1.55
240.785	1.79
241.162	1.79
241.539	2.59
241.915	3.3
242.292	2.67
242.668	2.74
243.045	2.91
243.421	2.64
243.798	2.62
244.174	3.01
244.551	3.19
244.927	3.33
245.303	3.72
245.679	3.58
246.056	3.62
246.432	3.78
246.808	3.53
247.184	3.66
247.56	3.55
247.936	3.42
248.312	3.31
248.688	3.25
249.064	3.55
249.44	3.28
249.815	3.05
250.191	3.35
250.567	3.24
250.943	3.16
251.318	3.4
251.694	3.38
252.069	3.23
252.445	3.12
252.82	3.07
253.196	2.77
253.571	2.88
253.947	2.57
254.322	2.56
254.697	2.46
255.073	2.61
255.448	2.6
255.823	2.67
256.198	2.8
256.573	2.7
256.948	2.83
257.323	3.11
257.698	3.1
258.073	3.11
258.448	3.1
258.823	3.05
259.198	3
259.573	3.09
259.948	3.13
260.322	3.1
260.697	3.09
261.072	2.86
261.446	2.85
261.821	2.92
262.195	2.84
262.57	2.95
262.944	2.81
263.319	2.68
263.693	2.71
264.067	2.65
264.442	2.75
264.816	2.58
265.19	2.23
265.564	2.09
265.938	1.9
266.313	1.93
266.687	1.87
267.061	1.96
267.435	2.02
267.809	2.17
268.183	2.4
268.556	2.53
268.93	2.76
269.304	2.88
269.678	3.12
270.051	3.03
270.425	3.24
270.799	3.34
271.172	3.39
271.546	3.18
271.919	3.07
272.293	3.03
272.666	3.07
273.04	3.21
273.413	3.33
273.787	3.34
274.16	3.22
274.533	3.25
274.906	3.08
275.279	3.15
275.653	3.02
276.026	2.8
276.399	2.74
276.772	2.84
277.145	2.77
277.518	2.61
277.891	2.89
278.263	2.54
278.636	2.48
279.009	2.46
279.382	2.86
279.755	3.04
280.127	3.24
280.5	3.17
280.872	3.27
281.245	3.32
281.617	3.43
281.99	3.53
282.362	3.63
282.735	3.74
283.107	3.56
283.479	3.72
283.852	3.8
284.224	3.82
284.596	3.68
284.968	3.56
285.34	3.58
285.713	3.46
286.085	3.59
286.457	3.59
286.829	3.69
287.201	3.62
287.572	3.48
287.944	3.22
288.316	3.19
288.688	3.02
289.06	3.01
289.431	2.96
289.803	2.95
290.175	2.91
290.546	2.94
290.918	3.01
291.289	2.93
291.661	2.87
292.032	2.91
292.403	2.82
292.775	2.92
293.146	2.83
293.517	2.88
293.889	2.96
294.26	2.99
294.631	2.87
295.002	2.78
295.373	2.85
295.744	2.92
296.115	2.94
296.486	2.92
296.857	2.88
297.228	2.92
297.599	2.88
297.97	2.95
298.34	2.98
298.711	3.03
299.082	3.01
299.452	3.04
299.823	3.09
300.194	3.17
300.564	3.03
300.935	3.1
301.305	3.08
301.676	2.99
302.046	3.01
302.416	3.17
302.787	3.11
303.157	3.04
303.527	3.06
303.897	3.16
304.267	3.37
304.637	3.28
305.008	3.25
305.378	3.34
305.748	3.31
306.117	3.3
306.487	3.29
306.857	3.29
307.227	3.29
307.597	3.26
307.967	3.35
308.336	3.45
308.706	3.51
309.076	3.47
309.445	3.43
309.815	3.42
310.184	3.34
310.554	3.4
310.923	3.44
311.293	3.46
311.662	3.39
312.031	3.31
312.401	3.36
312.77	3.45
313.139	3.46
313.508	3.45
313.877	3.32
314.246	3.29
314.616	3.27
314.985	3.29
315.353	3.21
315.722	3.24
316.091	3.22
316.46	3.02
316.829	3.05
317.198	2.96
317.567	2.85
317.935	2.76
318.304	2.66
318.672	2.7
319.041	2.74
319.41	2.59
319.778	2.77
320.147	2.87
320.515	2.72
320.883	2.59
321.252	2.61
321.62	2.7
321.988	2.78
322.357	2.76
322.725	2.67
323.093	2.63
323.461	2.67
323.829	2.68
324.197	2.72
324.565	2.76
324.933	2.77
325.301	2.78
325.669	2.77
326.037	2.81
326.405	2.76
326.772	2.63
327.14	2.86
327.508	2.62
327.875	2.53
328.243	2.5
328.61	2.62
328.978	2.59
329.346	2.62
329.713	2.42
330.08	2.49
330.448	2.56
330.815	2.58
331.182	2.32
331.55	2.32
331.917	2.4
332.284	2.45
332.651	2.5
333.018	2.62
333.385	2.81
333.752	2.83
334.119	2.92
334.486	2.92
334.853	2.71
335.22	2.74
335.587	2.88
335.954	2.87
336.32	2.75
336.687	2.79
337.054	2.78
337.42	2.88
337.787	2.82
338.153	2.81
338.52	2.83
338.886	2.86
339.253	2.88
339.619	2.83
339.986	2.67
340.352	2.7
340.718	2.65
341.084	2.62
341.451	2.71
341.817	2.71
342.183	2.75
342.549	2.94
342.915	2.96
343.281	2.9
343.647	2.88
344.013	2.94
344.379	2.8
344.745	2.82
345.11	2.91
345.476	2.98
345.842	2.94
346.208	2.99
346.573	3.11
346.939	3.11
347.304	3.14
347.67	3.15
348.035	3.19
348.401	3.17
348.766	3.14
349.132	3.08
349.497	3.08
349.862	3.11
350.228	3.05
350.593	2.98
350.958	2.99
351.323	3.01
351.688	2.95
352.053	3.1
352.418	3.12
352.783	3.07
353.148	2.97
353.513	3.11
353.878	3.04
354.243	3.05
354.608	3.03
354.972	3.05
355.337	3.11
355.702	3.13
356.066	3.1
356.431	3.06
356.795	3.03
357.16	3.09
357.524	3.1
357.889	3.05
358.253	3.19
358.618	3.21
358.982	3.18
359.346	3.22
359.71	3.19
360.075	3.15
360.439	3.18
360.803	3.2
361.167	3.13
361.531	3.15
361.895	3.09
362.259	3.13
362.623	3.14
362.987	3.12
363.351	3.08
363.714	3.15
364.078	3.13
364.442	3.13
364.806	3.11
365.169	3.12
365.533	3.12
365.896	3.03
366.26	2.96
366.623	3
366.987	2.95
367.35	2.94
367.714	2.92
368.077	2.88
368.44	2.87
368.803	2.82
369.167	2.8
369.53	2.83
369.893	2.82
370.256	2.83
370.619	2.82
370.982	2.78
371.345	2.72
371.708	2.78
372.071	2.74
372.434	2.68
372.797	2.68
373.159	2.75
373.522	2.87
373.885	2.86
374.247	2.88
374.61	2.99
374.973	2.96
375.335	2.97
375.698	2.93
376.06	2.91
376.423	2.94
376.785	3.02
377.147	3.07
377.51	3.06
377.872	3.04
378.234	3.05
378.596	3.15
378.958	3.17
379.321	3.18
379.683	3.27
380.045	3.32
380.407	3.29
380.769	3.23
381.13	3.16
381.492	3.2
381.854	3.24
382.216	3.24
382.578	3.32
382.939	3.36
383.301	3.39
383.663	3.41
384.024	3.4
384.386	3.38
384.747	3.38
385.109	3.38
385.47	3.38
385.832	3.4
386.193	3.39
386.554	3.4
386.916	3.36
387.277	3.34
387.638	3.34
387.999	3.33
388.36	3.37
388.721	3.38
389.082	3.41
389.443	3.32
389.804	3.29
390.165	3.24
390.526	3.22
390.887	3.22
391.248	3.24
391.609	3.27
391.969	3.24
392.33	3.19
392.691	3.21
393.051	3.22
393.412	3.21
393.772	3.16
394.133	3.15
394.493	3.16
394.854	3.17
395.214	3.16
395.574	3.18
395.935	3.18
396.295	3.2
396.655	3.12
397.015	3.18
397.376	3.19
397.736	3.19
398.096	3.18
398.456	3.15
398.816	3.16
399.176	3.12
399.535	3.12
399.895	3.11
400.255	3.11
400.615	3.09
400.975	3.09
401.334	3.09
401.694	3.11
402.054	3.1
402.413	3.09
402.773	3.08
403.132	3.08
403.492	3.06
403.851	3.02
404.211	3.07
404.57	3.06
404.929	3.04
405.288	3.06
405.648	3.06
406.007	3.12
406.366	3.11
406.725	3.14
407.084	3.15
407.443	3.17
407.802	3.19
408.161	3.21
408.52	3.21
408.879	3.2
409.238	3.21
409.596	3.24
409.955	3.26
410.314	3.31
410.673	3.29
411.031	3.31
411.39	3.34
411.748	3.34
412.107	3.34
412.465	3.35
412.824	3.33
413.182	3.35
413.54	3.36
413.899	3.38
414.257	3.35
414.615	3.35
414.974	3.35
415.332	3.32
415.69	3.3
416.048	3.31
416.406	3.33
416.764	3.31
417.122	3.3
417.48	3.28
417.838	3.28
418.195	3.29
418.553	3.3
418.911	3.29
419.269	3.3
419.626	3.31
419.984	3.31
420.342	3.33
420.699	3.32
421.057	3.3
421.414	3.29
421.772	3.3
422.129	3.31
422.486	3.32
422.844	3.34
423.201	3.33
423.558	3.33
423.915	3.34
424.273	3.35
424.63	3.34
424.987	3.34
425.344	3.34
425.701	3.35
426.058	3.33
426.415	3.33
426.772	3.31
427.128	3.31
427.485	3.3
427.842	3.28
428.199	3.31
428.555	3.31
428.912	3.33
429.269	3.34
429.625	3.33
429.982	3.32
430.338	3.31
430.695	3.32
431.051	3.3
431.407	3.3
431.764	3.3
432.12	3.3
432.476	3.29
432.832	3.27
433.189	3.28
433.545	3.27
433.901	3.29
434.257	3.29
434.613	3.29
434.969	3.3
435.325	3.3
435.681	3.27
436.036	3.27
436.392	3.28
436.748	3.27
437.104	3.25
437.459	3.26
437.815	3.25
438.171	3.25
438.526	3.28
438.882	3.27
439.237	3.27
439.593	3.29
439.948	3.3
440.304	3.3
440.659	3.3
441.014	3.32
441.369	3.31
441.725	3.32
442.08	3.31
442.435	3.3
442.79	3.32
443.145	3.32
443.5	3.31
443.855	3.3
444.21	3.31
444.565	3.32
444.92	3.33
445.275	3.34
445.629	3.34
445.984	3.33
446.339	3.33
446.693	3.31
447.048	3.3
447.403	3.28
447.757	3.27
448.112	3.26
448.466	3.25
448.82	3.25
449.175	3.23
449.529	3.24
449.883	3.24
450.238	3.23
450.592	3.24
450.946	3.23
451.3	3.22
451.654	3.21
452.008	3.22
452.362	3.19
452.716	3.18
453.07	3.17
453.424	3.17
453.778	3.17
454.132	3.17
454.486	3.17
454.839	3.18
455.193	3.2
455.547	3.2
455.9	3.22
456.254	3.22
456.607	3.24
456.961	3.22
457.314	3.22
457.668	3.24
458.021	3.22
458.375	3.23
458.728	3.24
459.081	3.23
459.434	3.2
459.787	3.23
460.141	3.22
460.494	3.23
460.847	3.22
461.2	3.22
461.553	3.23
461.906	3.24
462.259	3.24
462.611	3.24
462.964	3.24
463.317	3.24
463.67	3.23
464.022	3.22
464.375	3.23
464.728	3.22
465.08	3.22
465.433	3.24
465.785	3.23
466.138	3.21
466.49	3.23
466.843	3.26
467.195	3.25
467.547	3.26
467.899	3.26
468.252	3.28
468.604	3.27
468.956	3.27
469.308	3.27
469.66	3.27
470.012	3.26
470.364	3.26
470.716	3.25
471.068	3.26
471.42	3.29
471.772	3.3
472.123	3.31
472.475	3.32
472.827	3.32
473.178	3.31
473.53	3.33
473.882	3.31
474.233	3.3
474.585	3.29
474.936	3.29
475.288	3.3
475.639	3.3
475.99	3.32
476.342	3.32
476.693	3.33
477.044	3.34
477.395	3.35
477.746	3.33
478.097	3.34
478.448	3.36
478.8	3.35
479.15	3.34
479.501	3.35
479.852	3.34
480.203	3.35
480.554	3.38
480.905	3.38
481.255	3.39
481.606	3.39
481.957	3.39
482.307	3.4
482.658	3.4
483.009	3.39
483.359	3.39
483.709	3.39
484.06	3.39
484.41	3.38
484.761	3.39
485.111	3.39
485.461	3.4
485.811	3.38
486.162	3.38
486.512	3.39
486.862	3.39
487.212	3.39
487.562	3.39
487.912	3.38
488.262	3.37
488.612	3.37
488.961	3.38
489.311	3.37
489.661	3.36
490.011	3.34
490.36	3.35
490.71	3.35
491.06	3.35
491.409	3.34
491.759	3.35
492.108	3.35
492.458	3.36
492.807	3.35
493.157	3.36
493.506	3.36
493.855	3.34
494.204	3.33
494.554	3.31
494.903	3.3
495.252	3.3
495.601	3.3
495.95	3.29
496.299	3.29
496.648	3.3
496.997	3.29
497.346	3.3
497.695	3.3
498.043	3.31
498.392	3.29
498.741	3.29
499.09	3.27
499.438	3.29
499.787	3.29
500.135	3.28
500.484	3.27
500.832	3.28
501.181	3.28
501.529	3.27
501.878	3.3
502.226	3.32
502.574	3.31
502.923	3.3
503.271	3.3
503.619	3.29
503.967	3.29
504.315	3.31
504.663	3.3
505.011	3.31
505.359	3.29
505.707	3.31
506.055	3.31
506.403	3.33
506.751	3.33
507.098	3.31
507.446	3.31
507.794	3.31
508.141	3.3
508.489	3.32
508.837	3.33
509.184	3.32
509.531	3.31
509.879	3.32
510.226	3.34
510.574	3.35
510.921	3.36
511.268	3.36
511.616	3.35
511.963	3.38
512.31	3.38
512.657	3.39
513.004	3.4
513.351	3.4
513.698	3.4
514.045	3.38
514.392	3.4
514.739	3.41
515.086	3.42
515.432	3.42
515.779	3.41
516.126	3.42
516.473	3.42
516.819	3.44
517.166	3.44
517.512	3.44
517.859	3.46
518.205	3.46
518.552	3.46
518.898	3.45
519.245	3.44
519.591	3.46
519.937	3.45
520.283	3.46
520.629	3.45
520.976	3.45
521.322	3.47
521.668	3.47
522.014	3.48
522.36	3.47
522.706	3.49
523.052	3.49
523.398	3.5
523.743	3.52
524.089	3.52
524.435	3.52
524.781	3.53
525.126	3.52
525.472	3.53
525.817	3.53
526.163	3.54
526.509	3.55
526.854	3.55
527.199	3.56
527.545	3.55
527.89	3.56
528.235	3.56
528.581	3.56
528.926	3.57
529.271	3.56
529.616	3.56
529.961	3.56
530.306	3.56
530.651	3.55
530.996	3.55
531.341	3.54
531.686	3.54
532.031	3.54
532.376	3.53
532.721	3.52
533.065	3.53
533.41	3.52
533.755	3.51
534.099	3.5
534.444	3.49
534.788	3.5
535.133	3.5
535.477	3.5
535.822	3.49
536.166	3.49
536.51	3.49
536.855	3.49
537.199	3.49
537.543	3.49
537.887	3.49
538.231	3.49
538.576	3.52
538.92	3.52
539.264	3.51
539.608	3.51
539.951	3.52
540.295	3.51
540.639	3.52
540.983	3.52
541.327	3.54
541.671	3.55
542.014	3.52
542.358	3.52
542.701	3.52
543.045	3.53
543.389	3.52
543.732	3.53
544.075	3.53
544.419	3.52
544.762	3.53
545.105	3.51
545.449	3.51
545.792	3.5
546.135	3.51
546.478	3.53
546.821	3.54
547.165	3.53
547.508	3.54
547.851	3.54
548.194	3.53
548.536	3.53
548.879	3.52
549.222	3.53
549.565	3.52
549.908	3.51
550.25	3.53
550.593	3.52
550.936	3.5
551.278	3.49
551.621	3.5
551.963	3.48
552.306	3.49
552.648	3.48
552.991	3.48
553.333	3.46
553.675	3.43
554.017	3.42
554.36	3.4
554.702	3.41
555.044	3.4
555.386	3.41
555.728	3.39
556.07	3.41
556.412	3.38
556.754	3.38
557.096	3.38
557.438	3.38
557.78	3.39
558.121	3.41
558.463	3.45
558.805	3.46
559.147	3.47
559.488	3.49
559.83	3.51
560.171	3.51
560.513	3.56
560.854	3.55
561.196	3.55
561.537	3.58
561.878	3.56
562.22	3.57
562.561	3.55
562.902	3.56
563.243	3.54
563.584	3.58
563.925	3.6
564.266	3.61
564.607	3.6
564.948	3.61
565.289	3.58
565.63	3.57
565.971	3.55
566.312	3.53
566.653	3.52
566.993	3.53
567.334	3.52
567.675	3.49
568.015	3.51
568.356	3.53
568.696	3.57
569.037	3.58
569.377	3.58
569.718	3.6
570.058	3.61
570.398	3.61
570.739	3.58
571.079	3.57
571.419	3.57
571.759	3.57
572.099	3.58
572.439	3.57
572.779	3.56
573.119	3.56
573.459	3.58
573.799	3.6
574.139	3.59
574.479	3.58
574.819	3.6
575.158	3.59
575.498	3.59
575.838	3.54
576.177	3.53
576.517	3.53
576.856	3.52
577.196	3.52
577.535	3.52
577.875	3.57
578.214	3.54
578.553	3.54
578.893	3.53
579.232	3.52
579.571	3.55
579.91	3.56
580.25	3.59
580.589	3.59
580.928	3.55
581.267	3.53
581.606	3.52
581.945	3.5
582.283	3.51
582.622	3.47
582.961	3.5
583.3	3.47
583.639	3.45
583.977	3.49
584.316	3.47
584.654	3.48
584.993	3.49
585.332	3.52
585.67	3.51
586.008	3.51
586.347	3.49
586.685	3.48
587.024	3.45
587.362	3.45
587.7	3.45
588.038	3.5
588.376	3.51
588.715	3.54
589.053	3.57
589.391	3.58
589.729	3.62
590.067	3.59
590.404	3.6
590.742	3.64
591.08	3.6
591.418	3.61
591.756	3.62
592.093	3.61
592.431	3.59
592.769	3.65
593.106	3.63
593.444	3.66
593.781	3.65
594.119	3.65
594.456	3.64
594.793	3.67
595.131	3.6
595.468	3.6
595.805	3.6
596.143	3.59
596.48	3.55
596.817	3.53
597.154	3.56
597.491	3.57
597.828	3.55
598.165	3.56
598.502	3.56
598.839	3.55
599.176	3.52
599.512	3.51
599.849	3.49
600.186	3.5
600.523	3.52
600.859	3.55
601.196	3.58
601.532	3.55
601.869	3.51
602.205	3.56
602.542	3.55
602.878	3.54
603.215	3.53
603.551	3.55
603.887	3.55
604.223	3.56
604.56	3.57
604.896	3.56
605.232	3.55
605.568	3.53
605.904	3.5
606.24	3.52
606.576	3.54
606.912	3.53
607.248	3.53
607.583	3.53
607.919	3.55
608.255	3.56
608.591	3.59
608.926	3.63
609.262	3.6
609.597	3.61
609.933	3.61
610.268	3.63
610.604	3.65
610.939	3.64
611.275	3.61
611.61	3.61
611.945	3.63
612.281	3.63
612.616	3.67
612.951	3.69
613.286	3.72
613.621	3.7
613.956	3.65
614.291	3.69
614.626	3.71
614.961	3.61
615.296	3.58
615.631	3.61
615.966	3.6
616.3	3.64
616.635	3.66
616.97	3.66
617.304	3.67
617.639	3.62
617.973	3.66
618.308	3.68
618.642	3.68
618.977	3.7
619.311	3.66
619.646	3.66
619.98	3.6
620.314	3.57
620.648	3.62
620.983	3.64
621.317	3.59
621.651	3.56
621.985	3.61
622.319	3.62
622.653	3.54
622.987	3.53
623.321	3.52
623.655	3.5
623.988	3.52
624.322	3.49
624.656	3.54
624.99	3.53
625.323	3.57
625.657	3.55
625.99	3.58
626.324	3.64
626.657	3.61
626.991	3.68
627.324	3.66
627.658	3.64
627.991	3.69
628.324	3.72
628.657	3.71
628.991	3.69
629.324	3.7
629.657	3.76
629.99	3.79
630.323	3.79
630.656	3.77
630.989	3.81
631.322	3.83
631.655	3.79
631.987	3.76
632.32	3.72
632.653	3.72
632.986	3.67
633.318	3.66
633.651	3.68
633.984	3.64
634.316	3.68
634.649	3.67
634.981	3.65
635.313	3.59
635.646	3.6
635.978	3.6
636.31	3.54
636.643	3.56
636.975	3.51
637.307	3.49
637.639	3.49
637.971	3.47
638.303	3.42
638.635	3.46
638.967	3.53
639.299	3.56
639.631	3.51
639.963	3.48
640.295	3.44
640.626	3.48
640.958	3.53
641.29	3.5
641.621	3.5
641.953	3.52
642.285	3.58
642.616	3.58
642.948	3.57
643.279	3.63
643.61	3.64
643.942	3.63
644.273	3.59
644.604	3.6
644.936	3.53
645.267	3.55
645.598	3.55
645.929	3.52
646.26	3.54
646.591	3.61
646.922	3.54
647.253	3.59
647.584	3.56
647.915	3.45
648.245	3.39
648.576	3.46
648.907	3.43
649.238	3.38
649.568	3.37
649.899	3.37
650.229	3.39
650.56	3.29
650.89	3.32
651.221	3.42
651.551	3.39
651.882	3.43
652.212	3.48
652.542	3.47
652.872	3.44
653.203	3.41
653.533	3.4
653.863	3.48
654.193	3.53
654.523	3.49
654.853	3.58
655.183	3.63
655.513	3.57
655.843	3.55
656.172	3.62
656.502	3.67
656.832	3.72
657.162	3.71
657.491	3.75
657.821	3.75
658.15	3.69
658.48	3.7
658.809	3.69
659.139	3.63
659.468	3.64
659.798	3.68
660.127	3.72
660.456	3.77
660.785	3.8
661.115	3.78
661.444	3.8
661.773	3.74
662.102	3.76
662.431	3.8
662.76	3.8
663.089	3.72
663.418	3.76
663.747	3.71
664.076	3.71
664.404	3.71
664.733	3.77
665.062	3.81
665.39	3.77
665.719	3.69
666.048	3.72
666.376	3.71
666.705	3.63
667.033	3.57
667.362	3.48
667.69	3.51
668.018	3.49
668.347	3.54
668.675	3.6
669.003	3.64
669.331	3.6
669.659	3.66
669.987	3.69
670.315	3.61
670.643	3.62
670.971	3.61
671.299	3.66
671.627	3.61
671.955	3.59
672.283	3.57
672.61	3.6
672.938	3.64
673.266	3.65
673.593	3.78
673.921	3.76
674.249	3.76
674.576	3.7
674.904	3.63
675.231	3.53
675.558	3.55
