Data from BU58138_Reflection_00015.txt Node
Date: Mon Nov 18 16:42:33 EST 2019
User: vgr7
Spectrometer: USB2G7710
Scans to average: 3
Trigger mode: 4
Integration Time (sec): 2.000000E-2
Electric dark correction enabled: true
Boxcar width: 10
XAxis mode: Wavelengths
Number of Pixels in Spectrum: 2048
>>>>>Begin Spectral Data<<<<<
177.721	15766.67
178.105	258.73
178.488	26.76
178.871	-420.83
179.254	53.77
179.636	-8.23
180.019	-66.89
180.402	140.74
180.785	-2.7
181.168	-15.1
181.55	32.68
181.933	60.71
182.316	88.97
182.698	97.76
183.081	60.51
183.463	61.39
183.846	40.25
184.228	47.69
184.611	75.87
184.993	92.99
185.376	96.38
185.758	73.9
186.14	94.93
186.522	109.79
186.904	142.74
187.287	871.69
187.669	-677.78
188.051	741.03
188.433	136.38
188.815	4894.87
189.197	-691.25
189.579	-209.94
189.961	-159.73
190.342	-147.37
190.724	-46.11
191.106	-44.33
191.488	-41.64
191.869	-47.71
192.251	-50.41
192.633	-16.83
193.014	-11.41
193.396	-18.39
193.777	-18.03
194.159	-2.91
194.54	11.91
194.922	27.04
195.303	23.43
195.684	5.38
196.065	3.82
196.447	16.96
196.828	29.61
197.209	34.4
197.59	19.29
197.971	20.06
198.352	39.02
198.733	61.2
199.114	60.15
199.495	66.64
199.876	76.9
200.257	70.21
200.638	52.96
201.018	51.26
201.399	51.9
201.78	47.39
202.16	33.24
202.541	29.75
202.922	13.39
203.302	25.47
203.683	36.2
204.063	27.36
204.444	5.26
204.824	3.81
205.204	4.63
205.585	32.96
205.965	17.62
206.345	2.14
206.725	-17.15
207.106	-33.28
207.486	-59.08
207.866	-63.47
208.246	-42.35
208.626	-35.64
209.006	-28.56
209.386	-36.68
209.766	-26.78
210.145	-13.27
210.525	-9.23
210.905	3.32
211.285	-0.73
211.664	-6.16
212.044	-0.34
212.424	-2.05
212.803	-7.83
213.183	-5.31
213.562	-4
213.942	6.35
214.321	7.86
214.701	7.37
215.08	10.25
215.459	11.32
215.838	14.86
216.218	0.91
216.597	10.7
216.976	1.19
217.355	3.81
217.734	1.61
218.113	6.32
218.492	6.13
218.871	-7.59
219.25	0.24
219.629	4.21
220.008	5.01
220.387	-6.49
220.766	4.89
221.144	-7.16
221.523	-14.27
221.902	-40.88
222.28	-43.71
222.659	-12.06
223.037	-6.04
223.416	-1.3
223.794	0.15
224.173	26.75
224.551	13.83
224.929	12.6
225.308	18.43
225.686	19.29
226.064	10.99
226.442	7.95
226.821	12.9
227.199	10.88
227.577	7.49
227.955	6.09
228.333	10.82
228.711	9.58
229.089	12.31
229.467	7.81
229.845	5.46
230.222	4.18
230.6	2.03
230.978	1.51
231.356	4.07
231.733	0.84
232.111	-1.44
232.488	-1.16
232.866	3.18
233.243	2.65
233.621	3.25
233.998	5.06
234.376	3.24
234.753	0.8
235.13	1.3
235.508	3.12
235.885	2.5
236.262	1.45
236.639	2.47
237.016	1.42
237.393	2.86
237.77	4.3
238.147	5.01
238.524	5.53
238.901	5.11
239.278	4.23
239.655	5.17
240.032	5.91
240.409	6.29
240.785	5.25
241.162	4.99
241.539	5.36
241.915	4.94
242.292	5.21
242.668	5.56
243.045	5.14
243.421	5.18
243.798	5.15
244.174	4.94
244.551	4.85
244.927	4.67
245.303	4.89
245.679	4.77
246.056	4.67
246.432	4.48
246.808	4.6
247.184	4.42
247.56	4.47
247.936	4.11
248.312	4.09
248.688	4.28
249.064	4.25
249.44	3.9
249.815	3.84
250.191	3.96
250.567	3.89
250.943	4.1
251.318	4.21
251.694	4.15
252.069	4.04
252.445	3.78
252.82	3.71
253.196	3.66
253.571	3.74
253.947	3.7
254.322	3.95
254.697	3.99
255.073	4.05
255.448	3.98
255.823	3.94
256.198	3.67
256.573	3.36
256.948	3.62
257.323	3.88
257.698	3.9
258.073	3.84
258.448	3.69
258.823	3.54
259.198	3.31
259.573	3.44
259.948	3.62
260.322	3.66
260.697	3.69
261.072	3.66
261.446	3.57
261.821	3.53
262.195	3.54
262.57	3.41
262.944	3.55
263.319	3.46
263.693	3.59
264.067	3.77
264.442	3.75
264.816	3.59
265.19	3.24
265.564	3.16
265.938	3.07
266.313	3.2
266.687	3.3
267.061	3.38
267.435	3.28
267.809	3.25
268.183	3.28
268.556	3.4
268.93	3.47
269.304	3.54
269.678	3.69
270.051	3.42
270.425	3.51
270.799	3.51
271.172	3.56
271.546	3.49
271.919	3.33
272.293	3.39
272.666	3.41
273.04	3.58
273.413	3.62
273.787	3.7
274.16	3.59
274.533	3.78
274.906	3.8
275.279	3.9
275.653	3.9
276.026	3.98
276.399	3.88
276.772	3.79
277.145	3.68
277.518	3.68
277.891	3.93
278.263	3.98
278.636	3.83
279.009	3.78
279.382	3.92
279.755	3.94
280.127	3.97
280.5	3.98
280.872	3.87
281.245	3.8
281.617	3.81
281.99	3.91
282.362	3.69
282.735	3.57
283.107	3.41
283.479	3.38
283.852	3.31
284.224	3.29
284.596	3.28
284.968	3.39
285.34	3.31
285.713	3.19
286.085	3.2
286.457	3.41
286.829	3.38
287.201	3.3
287.572	3.24
287.944	3.3
288.316	3.35
288.688	3.42
289.06	3.47
289.431	3.4
289.803	3.43
290.175	3.54
290.546	3.67
290.918	3.74
291.289	3.81
291.661	3.99
292.032	4.13
292.403	4.14
292.775	4.23
293.146	4.31
293.517	4.21
293.889	4.2
294.26	4.09
294.631	4.03
295.002	4.03
295.373	4.01
295.744	3.87
296.115	3.81
296.486	3.72
296.857	3.71
297.228	3.79
297.599	3.82
297.97	3.76
298.34	3.75
298.711	3.75
299.082	3.72
299.452	3.65
299.823	3.71
300.194	3.67
300.564	3.52
300.935	3.53
301.305	3.67
301.676	3.66
302.046	3.69
302.416	3.87
302.787	3.93
303.157	4.01
303.527	4.19
303.897	4.21
304.267	4.4
304.637	4.37
305.008	4.42
305.378	4.36
305.748	4.31
306.117	4.36
306.487	4.34
306.857	4.31
307.227	4.31
307.597	4.1
307.967	4.13
308.336	4.2
308.706	4.18
309.076	4.22
309.445	4.22
309.815	4.21
310.184	4.12
310.554	4.12
310.923	4.11
311.293	4.04
311.662	3.92
312.031	3.82
312.401	4
312.77	4.07
313.139	4.13
313.508	4.22
313.877	4.18
314.246	4.26
314.616	4.41
314.985	4.46
315.353	4.5
315.722	4.61
316.091	4.52
316.46	4.48
316.829	4.5
317.198	4.47
317.567	4.42
317.935	4.47
318.304	4.67
318.672	4.72
319.041	4.75
319.41	4.88
319.778	5.11
320.147	5.12
320.515	5.05
320.883	4.98
321.252	4.99
321.62	4.88
321.988	4.87
322.357	4.79
322.725	4.78
323.093	4.84
323.461	4.9
323.829	5.13
324.197	5.34
324.565	5.41
324.933	5.51
325.301	5.53
325.669	5.6
326.037	5.5
326.405	5.56
326.772	5.73
327.14	5.88
327.508	5.74
327.875	5.63
328.243	5.79
328.61	5.79
328.978	5.91
329.346	6.23
329.713	6.19
330.08	6.12
330.448	6.06
330.815	5.98
331.182	5.92
331.55	5.82
331.917	5.7
332.284	5.77
332.651	5.66
333.018	5.73
333.385	5.68
333.752	5.6
334.119	5.64
334.486	5.47
334.853	5.34
335.22	5.44
335.587	5.57
335.954	5.39
336.32	5.41
336.687	5.42
337.054	5.13
337.42	5.05
337.787	5.16
338.153	5.11
338.52	5.29
338.886	5.23
339.253	5.28
339.619	5.4
339.986	5.2
340.352	5.32
340.718	5.27
341.084	5.33
341.451	5.47
341.817	5.43
342.183	5.48
342.549	5.41
342.915	5.38
343.281	5.32
343.647	5.4
344.013	5.39
344.379	5.32
344.745	5.39
345.11	5.49
345.476	5.47
345.842	5.5
346.208	5.48
346.573	5.6
346.939	5.68
347.304	5.59
347.67	5.64
348.035	5.62
348.401	5.52
348.766	5.47
349.132	5.36
349.497	5.31
349.862	5.32
350.228	5.51
350.593	5.45
350.958	5.45
351.323	5.41
351.688	5.51
352.053	5.57
352.418	5.63
352.783	5.67
353.148	5.65
353.513	5.62
353.878	5.55
354.243	5.48
354.608	5.38
354.972	5.45
355.337	5.46
355.702	5.49
356.066	5.67
356.431	5.68
356.795	5.73
357.16	5.66
357.524	5.61
357.889	5.5
358.253	5.54
358.618	5.57
358.982	5.51
359.346	5.42
359.71	5.41
360.075	5.42
360.439	5.36
360.803	5.36
361.167	5.36
361.531	5.32
361.895	5.36
362.259	5.32
362.623	5.29
362.987	5.24
363.351	5.17
363.714	5.1
364.078	5.04
364.442	4.98
364.806	5
365.169	4.97
365.533	4.98
365.896	4.95
366.26	4.89
366.623	4.88
366.987	4.84
367.35	4.78
367.714	4.7
368.077	4.69
368.44	4.68
368.803	4.64
369.167	4.62
369.53	4.52
369.893	4.51
370.256	4.41
370.619	4.44
370.982	4.41
371.345	4.33
371.708	4.43
372.071	4.43
372.434	4.38
372.797	4.43
373.159	4.37
373.522	4.33
373.885	4.32
374.247	4.36
374.61	4.36
374.973	4.3
375.335	4.27
375.698	4.28
376.06	4.21
376.423	4.26
376.785	4.31
377.147	4.32
377.51	4.3
377.872	4.38
378.234	4.32
378.596	4.33
378.958	4.34
379.321	4.25
379.683	4.19
380.045	4.23
380.407	4.17
380.769	4.19
381.13	4.12
381.492	4.1
381.854	4.07
382.216	4.07
382.578	4.09
382.939	4.07
383.301	4
383.663	3.97
384.024	3.89
384.386	3.88
384.747	3.85
385.109	3.85
385.47	3.75
385.832	3.75
386.193	3.76
386.554	3.78
386.916	3.76
387.277	3.81
387.638	3.78
387.999	3.78
388.36	3.73
388.721	3.73
389.082	3.73
389.443	3.65
389.804	3.58
390.165	3.54
390.526	3.53
390.887	3.53
391.248	3.58
391.609	3.61
391.969	3.58
392.33	3.53
392.691	3.5
393.051	3.51
393.412	3.47
393.772	3.42
394.133	3.38
394.493	3.37
394.854	3.31
395.214	3.27
395.574	3.26
395.935	3.27
396.295	3.3
396.655	3.27
397.015	3.29
397.376	3.33
397.736	3.34
398.096	3.35
398.456	3.35
398.816	3.34
399.176	3.32
399.535	3.27
399.895	3.28
400.255	3.27
400.615	3.27
400.975	3.27
401.334	3.26
401.694	3.24
402.054	3.24
402.413	3.24
402.773	3.22
403.132	3.18
403.492	3.19
403.851	3.2
404.211	3.2
404.57	3.21
404.929	3.2
405.288	3.18
405.648	3.17
406.007	3.15
406.366	3.12
406.725	3.13
407.084	3.16
407.443	3.16
407.802	3.17
408.161	3.15
408.52	3.13
408.879	3.14
409.238	3.16
409.596	3.14
409.955	3.12
410.314	3.14
410.673	3.16
411.031	3.15
411.39	3.14
411.748	3.13
412.107	3.12
412.465	3.1
412.824	3.09
413.182	3.07
413.54	3.09
413.899	3.08
414.257	3.05
414.615	3.06
414.974	3.08
415.332	3.06
415.69	3.06
416.048	3.06
416.406	3.07
416.764	3.05
417.122	3.06
417.48	3.05
417.838	3.06
418.195	3.05
418.553	3.03
418.911	3.02
419.269	3.04
419.626	3.03
419.984	3.03
420.342	3.03
420.699	3.03
421.057	3.02
421.414	3
421.772	3
422.129	2.99
422.486	2.98
422.844	2.99
423.201	2.99
423.558	2.99
423.915	2.99
424.273	2.99
424.63	2.98
424.987	2.99
425.344	2.99
425.701	2.99
426.058	3
426.415	3
426.772	2.98
427.128	2.97
427.485	2.95
427.842	2.94
428.199	2.96
428.555	2.97
428.912	2.99
429.269	3
429.625	2.97
429.982	2.94
430.338	2.93
430.695	2.96
431.051	2.94
431.407	2.91
431.764	2.9
432.12	2.89
432.476	2.89
432.832	2.88
433.189	2.89
433.545	2.89
433.901	2.88
434.257	2.88
434.613	2.9
434.969	2.89
435.325	2.9
435.681	2.89
436.036	2.88
436.392	2.87
436.748	2.88
437.104	2.88
437.459	2.9
437.815	2.9
438.171	2.91
438.526	2.93
438.882	2.94
439.237	2.95
439.593	2.97
439.948	2.97
440.304	2.99
440.659	2.98
441.014	2.98
441.369	2.98
441.725	2.98
442.08	2.98
442.435	2.99
442.79	2.98
443.145	2.98
443.5	2.97
443.855	2.96
444.21	2.94
444.565	2.95
444.92	2.97
445.275	2.96
445.629	2.94
445.984	2.92
446.339	2.91
446.693	2.91
447.048	2.9
447.403	2.88
447.757	2.87
448.112	2.86
448.466	2.86
448.82	2.85
449.175	2.85
449.529	2.83
449.883	2.81
450.238	2.81
450.592	2.81
450.946	2.82
451.3	2.82
451.654	2.84
452.008	2.85
452.362	2.83
452.716	2.82
453.07	2.83
453.424	2.83
453.778	2.82
454.132	2.81
454.486	2.81
454.839	2.81
455.193	2.8
455.547	2.8
455.9	2.83
456.254	2.85
456.607	2.83
456.961	2.85
457.314	2.86
457.668	2.85
458.021	2.84
458.375	2.85
458.728	2.86
459.081	2.84
459.434	2.83
459.787	2.85
460.141	2.87
460.494	2.87
460.847	2.87
461.2	2.87
461.553	2.89
461.906	2.9
462.259	2.91
462.611	2.93
462.964	2.94
463.317	2.93
463.67	2.92
464.022	2.94
464.375	2.94
464.728	2.95
465.08	2.98
465.433	3.01
465.785	3.01
466.138	3.02
466.49	3.02
466.843	3.03
467.195	3.03
467.547	3.02
467.899	3.02
468.252	3.03
468.604	3.07
468.956	3.05
469.308	3.04
469.66	3.04
470.012	3.04
470.364	3.03
470.716	3.02
471.068	3.02
471.42	3.03
471.772	3.03
472.123	3.03
472.475	3.04
472.827	3.02
473.178	3.02
473.53	3
473.882	3.02
474.233	3.03
474.585	3.01
474.936	3.02
475.288	3.02
475.639	3.02
475.99	3
476.342	3.01
476.693	3.04
477.044	3.05
477.395	3.04
477.746	3.04
478.097	3.02
478.448	3.01
478.8	3
479.15	2.96
479.501	2.95
479.852	2.95
480.203	2.95
480.554	2.95
480.905	2.94
481.255	2.93
481.606	2.94
481.957	2.94
482.307	2.93
482.658	2.94
483.009	2.93
483.359	2.94
483.709	2.94
484.06	2.94
484.41	2.94
484.761	2.94
485.111	2.95
485.461	2.96
485.811	2.97
486.162	2.97
486.512	2.99
486.862	3
487.212	3
487.562	3
487.912	3
488.262	3.01
488.612	3.02
488.961	3.02
489.311	3.03
489.661	3.05
490.011	3.04
490.36	3.04
490.71	3.04
491.06	3.05
491.409	3.05
491.759	3.05
492.108	3.03
492.458	3.04
492.807	3.04
493.157	3.03
493.506	3.03
493.855	3.02
494.204	3.02
494.554	3.02
494.903	3.03
495.252	3.02
495.601	3.04
495.95	3.02
496.299	3.02
496.648	2.99
496.997	3
497.346	3
497.695	3.01
498.043	3.01
498.392	3
498.741	3.02
499.09	3.03
499.438	3.07
499.787	3.07
500.135	3.08
500.484	3.11
500.832	3.13
501.181	3.13
501.529	3.14
501.878	3.18
502.226	3.19
502.574	3.19
502.923	3.23
503.271	3.26
503.619	3.3
503.967	3.34
504.315	3.33
504.663	3.36
505.011	3.38
505.359	3.4
505.707	3.43
506.055	3.44
506.403	3.45
506.751	3.47
507.098	3.5
507.446	3.52
507.794	3.53
508.141	3.57
508.489	3.59
508.837	3.63
509.184	3.65
509.531	3.69
509.879	3.75
510.226	3.77
510.574	3.78
510.921	3.8
511.268	3.83
511.616	3.87
511.963	3.92
512.31	3.94
512.657	3.99
513.004	4.02
513.351	4.08
513.698	4.13
514.045	4.17
514.392	4.22
514.739	4.26
515.086	4.3
515.432	4.33
515.779	4.38
516.126	4.42
516.473	4.47
516.819	4.52
517.166	4.56
517.512	4.59
517.859	4.65
518.205	4.73
518.552	4.76
518.898	4.79
519.245	4.83
519.591	4.89
519.937	4.93
520.283	4.96
520.629	5.03
520.976	5.09
521.322	5.16
521.668	5.21
522.014	5.28
522.36	5.38
522.706	5.48
523.052	5.57
523.398	5.66
523.743	5.75
524.089	5.85
524.435	5.92
524.781	6.01
525.126	6.1
525.472	6.16
525.817	6.24
526.163	6.33
526.509	6.41
526.854	6.47
527.199	6.54
527.545	6.61
527.89	6.66
528.235	6.72
528.581	6.78
528.926	6.86
529.271	6.94
529.616	6.98
529.961	7.05
530.306	7.12
530.651	7.19
530.996	7.28
531.341	7.34
531.686	7.43
532.031	7.52
532.376	7.61
532.721	7.7
533.065	7.8
533.41	7.89
533.755	7.97
534.099	8.09
534.444	8.21
534.788	8.33
535.133	8.44
535.477	8.54
535.822	8.67
536.166	8.81
536.51	8.95
536.855	9.11
537.199	9.25
537.543	9.41
537.887	9.58
538.231	9.73
538.576	9.9
538.92	10.07
539.264	10.21
539.608	10.34
539.951	10.49
540.295	10.62
540.639	10.77
540.983	10.93
541.327	11.05
541.671	11.17
542.014	11.32
542.358	11.47
542.701	11.61
543.045	11.75
543.389	11.88
543.732	12.02
544.075	12.19
544.419	12.35
544.762	12.52
545.105	12.66
545.449	12.85
545.792	13.03
546.135	13.23
546.478	13.46
546.821	13.68
547.165	13.92
547.508	14.17
547.851	14.38
548.194	14.58
548.536	14.82
548.879	15.1
549.222	15.33
549.565	15.55
549.908	15.8
550.25	16.04
550.593	16.28
550.936	16.56
551.278	16.79
551.621	17.05
551.963	17.3
552.306	17.59
552.648	17.82
552.991	18.1
553.333	18.36
553.675	18.6
554.017	18.84
554.36	19.08
554.702	19.35
555.044	19.56
555.386	19.84
555.728	20.11
556.07	20.36
556.412	20.59
556.754	20.85
557.096	21.13
557.438	21.39
557.78	21.7
558.121	21.94
558.463	22.22
558.805	22.51
559.147	22.8
559.488	23.09
559.83	23.36
560.171	23.56
560.513	23.84
560.854	24.11
561.196	24.36
561.537	24.66
561.878	24.94
562.22	25.22
562.561	25.47
562.902	25.69
563.243	25.92
563.584	26.22
563.925	26.47
564.266	26.64
564.607	26.89
564.948	27.13
565.289	27.39
565.63	27.63
565.971	27.88
566.312	28.12
566.653	28.38
566.993	28.65
567.334	28.88
567.675	29.09
568.015	29.27
568.356	29.52
568.696	29.72
569.037	29.91
569.377	30.18
569.718	30.45
570.058	30.66
570.398	30.87
570.739	31.06
571.079	31.31
571.419	31.53
571.759	31.74
572.099	31.96
572.439	32.18
572.779	32.34
573.119	32.54
573.459	32.77
573.799	32.92
574.139	33.1
574.479	33.28
574.819	33.44
575.158	33.7
575.498	33.91
575.838	34.11
576.177	34.32
576.517	34.49
576.856	34.67
577.196	34.9
577.535	35.1
577.875	35.39
578.214	35.58
578.553	35.84
578.893	36.08
579.232	36.28
579.571	36.4
579.91	36.7
580.25	36.82
580.589	36.94
580.928	37.1
581.267	37.29
581.606	37.56
581.945	37.77
582.283	37.94
582.622	38.15
582.961	38.34
583.3	38.47
583.639	38.64
583.977	38.82
584.316	38.97
584.654	39.16
584.993	39.25
585.332	39.45
585.67	39.57
586.008	39.76
586.347	39.9
586.685	40.1
587.024	40.21
587.362	40.41
587.7	40.59
588.038	40.73
588.376	40.84
588.715	40.96
589.053	41.15
589.391	41.23
589.729	41.3
590.067	41.38
590.404	41.51
590.742	41.56
591.08	41.67
591.418	41.88
591.756	41.94
592.093	42.02
592.431	42.12
592.769	42.27
593.106	42.38
593.444	42.51
593.781	42.61
594.119	42.72
594.456	42.84
594.793	42.95
595.131	43.08
595.468	43.23
595.805	43.29
596.143	43.32
596.48	43.41
596.817	43.55
597.154	43.64
597.491	43.76
597.828	43.91
598.165	43.98
598.502	43.99
598.839	44.14
599.176	44.28
599.512	44.36
599.849	44.49
600.186	44.55
600.523	44.67
600.859	44.76
601.196	44.86
601.532	44.92
601.869	45.04
602.205	45.1
602.542	45.16
602.878	45.23
603.215	45.36
603.551	45.49
603.887	45.56
604.223	45.66
604.56	45.8
604.896	45.87
605.232	46.03
605.568	46.15
605.904	46.22
606.24	46.32
606.576	46.38
606.912	46.32
607.248	46.41
607.583	46.46
607.919	46.53
608.255	46.59
608.591	46.69
608.926	46.67
609.262	46.79
609.597	46.89
609.933	47.04
610.268	47.14
610.604	47.22
610.939	47.29
611.275	47.35
611.61	47.37
611.945	47.44
612.281	47.44
612.616	47.47
612.951	47.57
613.286	47.6
613.621	47.65
613.956	47.86
614.291	47.93
614.626	47.95
614.961	48.07
615.296	48.15
615.631	48.32
615.966	48.45
616.3	48.56
616.635	48.52
616.97	48.57
617.304	48.61
617.639	48.67
617.973	48.71
618.308	48.66
618.642	48.68
618.977	48.72
619.311	48.76
619.646	48.79
619.98	48.78
620.314	48.88
620.648	49.04
620.983	49.1
621.317	49.13
621.651	49.19
621.985	49.21
622.319	49.27
622.653	49.28
622.987	49.29
623.321	49.31
623.655	49.41
623.988	49.42
624.322	49.45
624.656	49.48
624.99	49.58
625.323	49.69
625.657	49.74
625.99	49.84
626.324	49.76
626.657	49.78
626.991	49.87
627.324	49.92
627.658	49.92
627.991	49.89
628.324	49.99
628.657	50.03
628.991	50.04
629.324	50.01
629.657	50.05
629.99	50.07
630.323	50.04
630.656	50.09
630.989	50.11
631.322	50.14
631.655	50.2
631.987	50.23
632.32	50.28
632.653	50.28
632.986	50.36
633.318	50.45
633.651	50.52
633.984	50.45
634.316	50.38
634.649	50.37
634.981	50.45
635.313	50.42
635.646	50.49
635.978	50.57
636.31	50.64
636.643	50.58
636.975	50.75
637.307	50.82
637.639	50.8
637.971	50.83
638.303	50.87
638.635	50.75
638.967	50.71
639.299	50.81
639.631	50.85
639.963	50.74
640.295	50.87
640.626	50.98
640.958	51.05
641.29	51.1
641.621	51.19
641.953	51.19
642.285	51.19
642.616	51.14
642.948	51.02
643.279	51.15
643.61	51.17
643.942	51.06
644.273	51.05
644.604	51.15
644.936	51.21
645.267	51.22
645.598	51.37
645.929	51.37
646.26	51.36
646.591	51.43
646.922	51.4
647.253	51.35
647.584	51.32
647.915	51.41
648.245	51.44
648.576	51.45
648.907	51.55
649.238	51.68
649.568	51.79
649.899	51.91
650.229	51.79
650.56	51.87
650.89	51.87
651.221	52
651.551	52.01
651.882	51.96
652.212	51.96
652.542	51.93
652.872	51.99
653.203	51.91
653.533	51.97
653.863	52.07
654.193	52.11
654.523	52.13
654.853	52.14
655.183	52.27
655.513	52.32
655.843	52.39
656.172	52.29
656.502	52.33
656.832	52.38
657.162	52.5
657.491	52.55
657.821	52.57
658.15	52.59
658.48	52.55
658.809	52.61
659.139	52.64
659.468	52.63
659.798	52.57
660.127	52.63
660.456	52.57
660.785	52.62
661.115	52.72
661.444	52.73
661.773	52.66
662.102	52.62
662.431	52.59
662.76	52.54
663.089	52.6
663.418	52.57
663.747	52.55
664.076	52.46
664.404	52.38
664.733	52.37
665.062	52.37
665.39	52.39
665.719	52.38
666.048	52.36
666.376	52.44
666.705	52.67
667.033	52.76
667.362	52.81
667.69	52.75
668.018	52.7
668.347	52.63
668.675	52.77
669.003	52.8
669.331	52.8
669.659	52.8
669.987	52.79
670.315	52.65
670.643	52.69
670.971	52.85
