Data from BU58140_Reflection_00015.txt Node
Date: Tue Nov 19 10:53:53 EST 2019
User: vgr7
Spectrometer: USB2G7710
Scans to average: 3
Trigger mode: 4
Integration Time (sec): 2.000000E-2
Electric dark correction enabled: true
Boxcar width: 10
XAxis mode: Wavelengths
Number of Pixels in Spectrum: 2048
>>>>>Begin Spectral Data<<<<<
177.721	201.35
178.105	23.08
178.488	-28.98
178.871	-500
179.254	-216.67
179.636	163.83
180.019	-73.08
180.402	133.33
180.785	-68.75
181.168	-228.13
181.55	1006.25
181.933	443.75
182.316	173.72
182.698	84.57
183.081	24.18
183.463	66.8
183.846	235.25
184.228	228.91
184.611	965.38
184.993	-245
185.376	-222.29
185.758	-152.05
186.14	-481.25
186.522	-234.51
186.904	-117.31
187.287	-153.6
187.669	-119.74
188.051	-144.97
188.433	-156.13
188.815	-135.62
189.197	-153.29
189.579	-126.39
189.961	-128.83
190.342	-105.11
190.724	-134.79
191.106	-149.06
191.488	-126.7
191.869	-83.66
192.251	-70.75
192.633	-69.1
193.014	-90.44
193.396	-60.89
193.777	-50.18
194.159	-54.69
194.54	-53.02
194.922	-56.07
195.303	-59.85
195.684	-59.02
196.065	-47.93
196.447	-42.95
196.828	-52.85
197.209	-34.07
197.59	-40.47
197.971	-41.25
198.352	-42.12
198.733	-43.09
199.114	-37.58
199.495	-37.42
199.876	-58.03
200.257	-61.61
200.638	-74.19
201.018	-70.25
201.399	-75.47
201.78	-76.33
202.16	-82.81
202.541	-80.5
202.922	-83.19
203.302	-73.54
203.683	-78.06
204.063	-89.08
204.444	-77.23
204.824	-76.56
205.204	-79.77
205.585	-60.02
205.965	-55.81
206.345	-59.19
206.725	-53.89
207.106	-47.42
207.486	-47.03
207.866	-29.86
208.246	-26.57
208.626	-22.6
209.006	-17.51
209.386	-22.06
209.766	-24.57
210.145	-25.87
210.525	-29.1
210.905	-19.98
211.285	-17.3
211.664	-6.75
212.044	-10.9
212.424	-15.79
212.803	-22.33
213.183	-26.75
213.562	-29.17
213.942	-38.89
214.321	-43.88
214.701	-43.36
215.08	-31.45
215.459	-17.27
215.838	-26.6
216.218	-36
216.597	-29.53
216.976	-29.57
217.355	-34.57
217.734	-29.41
218.113	-22.36
218.492	-13.01
218.871	-10.11
219.25	-7.68
219.629	-16.56
220.008	0.3
220.387	11.41
220.766	28.65
221.144	36.79
221.523	36.14
221.902	53.33
222.28	48.23
222.659	46.52
223.037	35.06
223.416	17.72
223.794	17.31
224.173	20.34
224.551	21.22
224.929	19.34
225.308	17.17
225.686	13.25
226.064	12.77
226.442	9.49
226.821	7.57
227.199	3.68
227.577	4.02
227.955	4.94
228.333	3.03
228.711	2.74
229.089	1.53
229.467	0.21
229.845	-1.08
230.222	0.13
230.6	-1.76
230.978	-0.22
231.356	2.78
231.733	2.34
232.111	2.79
232.488	1.88
232.866	3.41
233.243	3.98
233.621	4.63
233.998	5.38
234.376	4.28
234.753	5.02
235.13	6.03
235.508	6.31
235.885	6.24
236.262	7.26
236.639	7.23
237.016	5.93
237.393	5.84
237.77	5.84
238.147	6.16
238.524	6.41
238.901	5.66
239.278	4.48
239.655	4.41
240.032	4.29
240.409	4.38
240.785	3.6
241.162	3.85
241.539	4.03
241.915	4.07
242.292	4.68
242.668	4.55
243.045	4.48
243.421	4.16
243.798	4.24
244.174	3.96
244.551	4.07
244.927	4.2
245.303	4.17
245.679	4.15
246.056	3.92
246.432	4.15
246.808	4.21
247.184	4.37
247.56	4.63
247.936	4.69
248.312	4.74
248.688	4.98
249.064	4.78
249.44	4.74
249.815	4.84
250.191	4.45
250.567	4.4
250.943	4.54
251.318	4.69
251.694	4.25
252.069	4.41
252.445	4.14
252.82	4.36
253.196	4.41
253.571	4.42
253.947	4.29
254.322	4.23
254.697	4.19
255.073	4.24
255.448	3.92
255.823	3.69
256.198	3.67
256.573	3.58
256.948	3.76
257.323	3.71
257.698	3.43
258.073	3.55
258.448	3.6
258.823	3.44
259.198	3.46
259.573	3.51
259.948	3.56
260.322	3.42
260.697	3.44
261.072	3.43
261.446	3.54
261.821	3.61
262.195	3.52
262.57	3.61
262.944	3.59
263.319	3.71
263.693	3.79
264.067	3.74
264.442	3.66
264.816	3.56
265.19	3.35
265.564	3.38
265.938	3.22
266.313	3.25
266.687	3.14
267.061	3.18
267.435	3.28
267.809	3.25
268.183	3.5
268.556	3.42
268.93	3.5
269.304	3.28
269.678	3.3
270.051	3.32
270.425	3.23
270.799	3.18
271.172	3.01
271.546	3.1
271.919	3.22
272.293	3.24
272.666	3.37
273.04	3.43
273.413	3.52
273.787	3.67
274.16	3.54
274.533	3.54
274.906	3.58
275.279	3.66
275.653	3.49
276.026	3.39
276.399	3.37
276.772	3.37
277.145	3.26
277.518	3.18
277.891	3.27
278.263	3.37
278.636	3.43
279.009	3.59
279.382	3.38
279.755	3.28
280.127	3.2
280.5	3.12
280.872	3.31
281.245	3.2
281.617	3.13
281.99	3.24
282.362	3.29
282.735	3.15
283.107	3.06
283.479	3.13
283.852	3.31
284.224	3.42
284.596	3.35
284.968	3.42
285.34	3.54
285.713	3.39
286.085	3.21
286.457	3.15
286.829	3.14
287.201	3.23
287.572	3.23
287.944	3.33
288.316	3.39
288.688	3.48
289.06	3.59
289.431	3.63
289.803	3.78
290.175	3.83
290.546	3.91
290.918	3.88
291.289	3.85
291.661	3.81
292.032	3.83
292.403	3.87
292.775	3.91
293.146	3.88
293.517	4.08
293.889	4.17
294.26	4.22
294.631	4.29
295.002	4.44
295.373	4.44
295.744	4.46
296.115	4.43
296.486	4.33
296.857	4.34
297.228	4.32
297.599	4.18
297.97	4.23
298.34	4.28
298.711	4.38
299.082	4.37
299.452	4.34
299.823	4.36
300.194	4.43
300.564	4.41
300.935	4.35
301.305	4.31
301.676	4.29
302.046	4.3
302.416	4.29
302.787	4.17
303.157	4.21
303.527	4.26
303.897	4.33
304.267	4.47
304.637	4.55
305.008	4.67
305.378	4.75
305.748	4.69
306.117	4.5
306.487	4.49
306.857	4.58
307.227	4.75
307.597	4.85
307.967	4.85
308.336	4.9
308.706	5
309.076	5.11
309.445	5.27
309.815	5.34
310.184	5.33
310.554	5.46
310.923	5.5
311.293	5.66
311.662	5.8
312.031	5.77
312.401	5.82
312.77	5.91
313.139	5.99
313.508	6.09
313.877	6.36
314.246	6.47
314.616	6.64
314.985	6.79
315.353	6.79
315.722	6.97
316.091	7.11
316.46	7.24
316.829	7.3
317.198	7.41
317.567	7.43
317.935	7.49
318.304	7.61
318.672	7.8
319.041	7.73
319.41	7.71
319.778	7.93
320.147	8.02
320.515	8.12
320.883	8.14
321.252	8.25
321.62	8.14
321.988	8.29
322.357	8.23
322.725	8.07
323.093	7.95
323.461	7.86
323.829	7.95
324.197	7.82
324.565	7.81
324.933	7.82
325.301	7.98
325.669	8.05
326.037	7.97
326.405	7.95
326.772	8.09
327.14	7.96
327.508	7.95
327.875	7.95
328.243	7.96
328.61	7.99
328.978	8.07
329.346	8.05
329.713	8
330.08	7.99
330.448	8.11
330.815	8.2
331.182	8.2
331.55	8.08
331.917	8.19
332.284	8.31
332.651	8.25
333.018	8.24
333.385	8.31
333.752	8.3
334.119	8.37
334.486	8.24
334.853	8.35
335.22	8.22
335.587	8.2
335.954	8.12
336.32	8.17
336.687	8.06
337.054	8.3
337.42	8.34
337.787	8.48
338.153	8.46
338.52	8.54
338.886	8.62
339.253	8.69
339.619	8.8
339.986	8.75
340.352	8.81
340.718	8.9
341.084	8.85
341.451	8.94
341.817	8.99
342.183	9
342.549	9.02
342.915	9.1
343.281	9.14
343.647	9.25
344.013	9.26
344.379	9.19
344.745	9.3
345.11	9.28
345.476	9.21
345.842	9.23
346.208	9.26
346.573	9.26
346.939	9.34
347.304	9.28
347.67	9.22
348.035	9.18
348.401	9.11
348.766	9.18
349.132	9.16
349.497	9.11
349.862	9.1
350.228	9.21
350.593	9.25
350.958	9.33
351.323	9.21
351.688	9.23
352.053	9.32
352.418	9.15
352.783	9.13
353.148	9.14
353.513	9.21
353.878	9.12
354.243	9.11
354.608	9.12
354.972	9.14
355.337	9.18
355.702	9.23
356.066	9.17
356.431	9.14
356.795	9.12
357.16	9.08
357.524	9.17
357.889	8.98
358.253	8.94
358.618	8.86
358.982	8.89
359.346	8.8
359.71	8.85
360.075	8.84
360.439	8.92
360.803	8.91
361.167	8.84
361.531	8.87
361.895	8.85
362.259	8.8
362.623	8.7
362.987	8.67
363.351	8.61
363.714	8.62
364.078	8.59
364.442	8.54
364.806	8.52
365.169	8.46
365.533	8.5
365.896	8.45
366.26	8.39
366.623	8.36
366.987	8.34
367.35	8.28
367.714	8.16
368.077	8.02
368.44	7.94
368.803	7.85
369.167	7.67
369.53	7.69
369.893	7.62
370.256	7.58
370.619	7.46
370.982	7.39
371.345	7.36
371.708	7.27
372.071	7.23
372.434	7.18
372.797	7.1
373.159	7.01
373.522	6.89
373.885	6.88
374.247	6.75
374.61	6.68
374.973	6.55
375.335	6.59
375.698	6.58
376.06	6.55
376.423	6.45
376.785	6.49
377.147	6.33
377.51	6.24
377.872	6.25
378.234	6.25
378.596	6.21
378.958	6.16
379.321	6.14
379.683	6.07
380.045	5.97
380.407	5.89
380.769	5.82
381.13	5.76
381.492	5.71
381.854	5.79
382.216	5.81
382.578	5.81
382.939	5.69
383.301	5.6
383.663	5.59
384.024	5.61
384.386	5.57
384.747	5.54
385.109	5.53
385.47	5.51
385.832	5.5
386.193	5.45
386.554	5.36
386.916	5.29
387.277	5.28
387.638	5.29
387.999	5.27
388.36	5.27
388.721	5.28
389.082	5.21
389.443	5.09
389.804	5.08
390.165	5.07
390.526	5.05
390.887	5.03
391.248	4.96
391.609	4.92
391.969	4.89
392.33	4.83
392.691	4.83
393.051	4.78
393.412	4.75
393.772	4.75
394.133	4.74
394.493	4.69
394.854	4.64
395.214	4.6
395.574	4.53
395.935	4.51
396.295	4.48
396.655	4.46
397.015	4.42
397.376	4.34
397.736	4.27
398.096	4.24
398.456	4.2
398.816	4.19
399.176	4.15
399.535	4.08
399.895	4.06
400.255	4.04
400.615	3.98
400.975	3.91
401.334	3.87
401.694	3.85
402.054	3.85
402.413	3.8
402.773	3.82
403.132	3.84
403.492	3.83
403.851	3.8
404.211	3.79
404.57	3.77
404.929	3.74
405.288	3.72
405.648	3.72
406.007	3.7
406.366	3.67
406.725	3.63
407.084	3.65
407.443	3.66
407.802	3.64
408.161	3.66
408.52	3.66
408.879	3.64
409.238	3.6
409.596	3.6
409.955	3.61
410.314	3.59
410.673	3.57
411.031	3.54
411.39	3.54
411.748	3.53
412.107	3.53
412.465	3.53
412.824	3.54
413.182	3.53
413.54	3.54
413.899	3.52
414.257	3.55
414.615	3.53
414.974	3.53
415.332	3.51
415.69	3.5
416.048	3.5
416.406	3.49
416.764	3.5
417.122	3.49
417.48	3.48
417.838	3.44
418.195	3.43
418.553	3.43
418.911	3.39
419.269	3.38
419.626	3.38
419.984	3.37
420.342	3.35
420.699	3.33
421.057	3.32
421.414	3.32
421.772	3.31
422.129	3.28
422.486	3.28
422.844	3.26
423.201	3.27
423.558	3.26
423.915	3.25
424.273	3.24
424.63	3.22
424.987	3.22
425.344	3.21
425.701	3.2
426.058	3.2
426.415	3.19
426.772	3.17
427.128	3.17
427.485	3.16
427.842	3.15
428.199	3.14
428.555	3.14
428.912	3.13
429.269	3.13
429.625	3.16
429.982	3.15
430.338	3.14
430.695	3.09
431.051	3.1
431.407	3.08
431.764	3.08
432.12	3.1
432.476	3.1
432.832	3.1
433.189	3.09
433.545	3.08
433.901	3.09
434.257	3.1
434.613	3.09
434.969	3.08
435.325	3.11
435.681	3.11
436.036	3.09
436.392	3.09
436.748	3.09
437.104	3.07
437.459	3.06
437.815	3.08
438.171	3.12
438.526	3.11
438.882	3.11
439.237	3.11
439.593	3.11
439.948	3.1
440.304	3.12
440.659	3.13
441.014	3.14
441.369	3.14
441.725	3.14
442.08	3.13
442.435	3.13
442.79	3.1
443.145	3.1
443.5	3.1
443.855	3.09
444.21	3.09
444.565	3.09
444.92	3.09
445.275	3.07
445.629	3.06
445.984	3.06
446.339	3.08
446.693	3.08
447.048	3.06
447.403	3.06
447.757	3.05
448.112	3.05
448.466	3.04
448.82	3.01
449.175	3
449.529	3.01
449.883	2.99
450.238	3
450.592	2.99
450.946	3
451.3	3.02
451.654	3
452.008	3
452.362	3
452.716	2.98
453.07	2.97
453.424	2.96
453.778	2.93
454.132	2.91
454.486	2.92
454.839	2.91
455.193	2.91
455.547	2.9
455.9	2.92
456.254	2.92
456.607	2.93
456.961	2.93
457.314	2.94
457.668	2.94
458.021	2.93
458.375	2.9
458.728	2.9
459.081	2.92
459.434	2.91
459.787	2.92
460.141	2.93
460.494	2.94
460.847	2.93
461.2	2.93
461.553	2.94
461.906	2.96
462.259	2.95
462.611	2.94
462.964	2.95
463.317	2.93
463.67	2.96
464.022	2.96
464.375	2.97
464.728	2.98
465.08	2.97
465.433	2.99
465.785	3.03
466.138	3.04
466.49	3.04
466.843	3.05
467.195	3.05
467.547	3.07
467.899	3.08
468.252	3.1
468.604	3.11
468.956	3.1
469.308	3.1
469.66	3.13
470.012	3.14
470.364	3.13
470.716	3.15
471.068	3.14
471.42	3.15
471.772	3.16
472.123	3.16
472.475	3.18
472.827	3.17
473.178	3.15
473.53	3.17
473.882	3.15
474.233	3.16
474.585	3.15
474.936	3.15
475.288	3.14
475.639	3.15
475.99	3.14
476.342	3.16
476.693	3.15
477.044	3.14
477.395	3.13
477.746	3.13
478.097	3.12
478.448	3.13
478.8	3.12
479.15	3.11
479.501	3.1
479.852	3.1
480.203	3.11
480.554	3.13
480.905	3.12
481.255	3.13
481.606	3.13
481.957	3.14
482.307	3.14
482.658	3.14
483.009	3.14
483.359	3.15
483.709	3.15
484.06	3.15
484.41	3.15
484.761	3.16
485.111	3.17
485.461	3.18
485.811	3.17
486.162	3.17
486.512	3.17
486.862	3.18
487.212	3.18
487.562	3.18
487.912	3.17
488.262	3.16
488.612	3.15
488.961	3.16
489.311	3.15
489.661	3.15
490.011	3.15
490.36	3.15
490.71	3.14
491.06	3.13
491.409	3.12
491.759	3.12
492.108	3.11
492.458	3.1
492.807	3.09
493.157	3.1
493.506	3.12
493.855	3.13
494.204	3.14
494.554	3.15
494.903	3.16
495.252	3.18
495.601	3.22
495.95	3.25
496.299	3.25
496.648	3.29
496.997	3.29
497.346	3.31
497.695	3.34
498.043	3.38
498.392	3.4
498.741	3.45
499.09	3.49
499.438	3.54
499.787	3.56
500.135	3.6
500.484	3.63
500.832	3.67
501.181	3.69
501.529	3.72
501.878	3.76
502.226	3.79
502.574	3.81
502.923	3.86
503.271	3.9
503.619	3.95
503.967	3.97
504.315	4.02
504.663	4.08
505.011	4.13
505.359	4.17
505.707	4.24
506.055	4.3
506.403	4.36
506.751	4.41
507.098	4.49
507.446	4.56
507.794	4.64
508.141	4.69
508.489	4.77
508.837	4.85
509.184	4.92
509.531	4.99
509.879	5.07
510.226	5.14
510.574	5.25
510.921	5.35
511.268	5.47
511.616	5.59
511.963	5.68
512.31	5.78
512.657	5.9
513.004	5.98
513.351	6.07
513.698	6.18
514.045	6.33
514.392	6.47
514.739	6.61
515.086	6.75
515.432	6.89
515.779	7.02
516.126	7.19
516.473	7.31
516.819	7.49
517.166	7.63
517.512	7.76
517.859	7.87
518.205	7.98
518.552	8.08
518.898	8.19
519.245	8.31
519.591	8.45
519.937	8.57
520.283	8.72
520.629	8.87
520.976	9.03
521.322	9.18
521.668	9.33
522.014	9.5
522.36	9.69
522.706	9.89
523.052	10.09
523.398	10.28
523.743	10.5
524.089	10.73
524.435	10.94
524.781	11.16
525.126	11.36
525.472	11.56
525.817	11.72
526.163	11.87
526.509	12.01
526.854	12.15
527.199	12.29
527.545	12.42
527.89	12.56
528.235	12.69
528.581	12.84
528.926	12.96
529.271	13.11
529.616	13.23
529.961	13.37
530.306	13.51
530.651	13.65
530.996	13.82
531.341	13.97
531.686	14.14
532.031	14.3
532.376	14.47
532.721	14.65
533.065	14.83
533.41	15.02
533.755	15.25
534.099	15.47
534.444	15.69
534.788	15.9
535.133	16.12
535.477	16.34
535.822	16.57
536.166	16.83
536.51	17.1
536.855	17.37
537.199	17.68
537.543	17.99
537.887	18.3
538.231	18.6
538.576	18.9
538.92	19.2
539.264	19.48
539.608	19.75
539.951	19.99
540.295	20.25
540.639	20.51
540.983	20.71
541.327	20.95
541.671	21.17
542.014	21.38
542.358	21.61
542.701	21.84
543.045	22.04
543.389	22.27
543.732	22.48
544.075	22.72
544.419	22.94
544.762	23.17
545.105	23.4
545.449	23.63
545.792	23.9
546.135	24.17
546.478	24.46
546.821	24.77
547.165	25.09
547.508	25.42
547.851	25.74
548.194	26.07
548.536	26.37
548.879	26.69
549.222	27.04
549.565	27.37
549.908	27.66
550.25	27.98
550.593	28.29
550.936	28.62
551.278	28.92
551.621	29.26
551.963	29.6
552.306	29.95
552.648	30.3
552.991	30.59
553.333	30.89
553.675	31.22
554.017	31.51
554.36	31.77
554.702	32.02
555.044	32.3
555.386	32.56
555.728	32.8
556.07	33.08
556.412	33.36
556.754	33.63
557.096	33.89
557.438	34.25
557.78	34.52
558.121	34.79
558.463	35.12
558.805	35.4
559.147	35.7
559.488	35.98
559.83	36.23
560.171	36.48
560.513	36.74
560.854	36.96
561.196	37.25
561.537	37.52
561.878	37.81
562.22	38.07
562.561	38.33
562.902	38.61
563.243	38.83
563.584	39.09
563.925	39.34
564.266	39.57
564.607	39.77
564.948	39.97
565.289	40.2
565.63	40.34
565.971	40.52
566.312	40.67
566.653	40.83
566.993	41.04
567.334	41.25
567.675	41.42
568.015	41.65
568.356	41.78
568.696	41.95
569.037	42.11
569.377	42.28
569.718	42.45
570.058	42.64
570.398	42.84
570.739	42.96
571.079	43.14
571.419	43.33
571.759	43.48
572.099	43.67
572.439	43.81
572.779	44.02
573.119	44.16
573.459	44.34
573.799	44.47
574.139	44.6
574.479	44.76
574.819	44.96
575.158	45.13
575.498	45.38
575.838	45.56
576.177	45.75
576.517	45.9
576.856	46.08
577.196	46.24
577.535	46.4
577.875	46.58
578.214	46.75
578.553	46.88
578.893	47.02
579.232	47.17
579.571	47.33
579.91	47.54
580.25	47.73
580.589	47.84
580.928	48.05
581.267	48.25
581.606	48.35
581.945	48.45
582.283	48.63
582.622	48.63
582.961	48.79
583.3	48.84
583.639	48.94
583.977	49.08
584.316	49.21
584.654	49.34
584.993	49.42
585.332	49.53
585.67	49.66
586.008	49.83
586.347	49.95
586.685	50.02
587.024	50.08
587.362	50.14
587.7	50.22
588.038	50.34
588.376	50.37
588.715	50.52
589.053	50.66
589.391	50.66
589.729	50.77
590.067	50.94
590.404	51.05
590.742	51.18
591.08	51.25
591.418	51.32
591.756	51.35
592.093	51.48
592.431	51.57
592.769	51.6
593.106	51.65
593.444	51.81
593.781	51.94
594.119	51.96
594.456	52.05
594.793	52.18
595.131	52.24
595.468	52.37
595.805	52.46
596.143	52.51
596.48	52.61
596.817	52.64
597.154	52.64
597.491	52.65
597.828	52.67
598.165	52.74
598.502	52.79
598.839	52.85
599.176	52.91
599.512	52.95
599.849	53.12
600.186	53.26
600.523	53.26
600.859	53.3
601.196	53.41
601.532	53.49
601.869	53.51
602.205	53.53
602.542	53.64
602.878	53.71
603.215	53.67
603.551	53.72
603.887	53.83
604.223	53.85
604.56	53.94
604.896	54
605.232	53.98
605.568	54.06
605.904	54.16
606.24	54.21
606.576	54.25
606.912	54.25
607.248	54.22
607.583	54.27
607.919	54.35
608.255	54.42
608.591	54.46
608.926	54.62
609.262	54.67
609.597	54.68
609.933	54.63
610.268	54.77
610.604	54.78
610.939	54.89
611.275	54.97
611.61	55.03
611.945	55.09
612.281	55.3
612.616	55.38
612.951	55.4
613.286	55.36
613.621	55.43
613.956	55.51
614.291	55.51
614.626	55.56
614.961	55.59
615.296	55.62
615.631	55.66
615.966	55.57
616.3	55.62
616.635	55.59
616.97	55.67
617.304	55.79
617.639	55.91
617.973	55.94
618.308	55.95
618.642	56.02
618.977	56.05
619.311	55.98
619.646	56.09
619.98	56.11
620.314	56.25
620.648	56.25
620.983	56.34
621.317	56.45
621.651	56.58
621.985	56.65
622.319	56.7
622.653	56.75
622.987	56.79
623.321	56.93
623.655	57.07
623.988	57.14
624.322	57.08
624.656	57.06
624.99	56.98
625.323	56.97
625.657	56.87
625.99	56.89
626.324	56.86
626.657	56.89
626.991	56.98
627.324	56.98
627.658	57.02
627.991	56.96
628.324	56.88
628.657	56.87
628.991	56.89
629.324	56.93
629.657	56.88
629.99	56.94
630.323	56.89
630.656	56.88
630.989	56.85
631.322	56.91
631.655	56.88
631.987	56.92
632.32	57.02
632.653	57.15
632.986	57.28
633.318	57.44
633.651	57.38
633.984	57.31
634.316	57.4
634.649	57.44
634.981	57.44
635.313	57.54
635.646	57.46
635.978	57.48
636.31	57.48
636.643	57.63
636.975	57.59
637.307	57.61
637.639	57.66
637.971	57.67
638.303	57.65
638.635	57.7
638.967	57.72
639.299	57.7
639.631	57.67
639.963	57.6
640.295	57.56
640.626	57.64
640.958	57.75
641.29	57.8
641.621	57.84
641.953	57.94
642.285	58.02
642.616	58.07
642.948	57.97
643.279	58.06
643.61	57.94
643.942	58.04
644.273	58.17
644.604	58.1
644.936	58.24
645.267	58.17
645.598	58.14
645.929	58.16
646.26	58.22
646.591	58.3
646.922	58.35
647.253	58.41
647.584	58.37
647.915	58.42
648.245	58.37
648.576	58.41
648.907	58.41
649.238	58.4
649.568	58.45
649.899	58.5
650.229	58.47
650.56	58.57
650.89	58.55
651.221	58.45
651.551	58.53
651.882	58.48
652.212	58.51
652.542	58.61
652.872	58.56
653.203	58.5
653.533	58.53
653.863	58.55
654.193	58.57
654.523	58.63
654.853	58.57
655.183	58.53
655.513	58.48
655.843	58.6
656.172	58.64
656.502	58.73
656.832	58.75
657.162	58.71
657.491	58.79
657.821	58.87
658.15	58.9
658.48	58.83
658.809	58.89
659.139	59
659.468	58.87
659.798	59.01
660.127	59.03
660.456	59.05
660.785	59.04
661.115	59.03
661.444	59.02
661.773	58.99
662.102	59.01
662.431	59.05
662.76	58.93
663.089	59
663.418	58.99
663.747	59.07
664.076	59.14
664.404	59.03
664.733	59.01
665.062	59.06
665.39	59.21
665.719	59.07
666.048	59.02
666.376	59.1
666.705	59.04
667.033	59.01
667.362	58.93
667.69	58.88
