Data from BU58131_Reflection_00010.txt Node
Date: Mon Nov 18 16:32:29 EST 2019
User: vgr7
Spectrometer: USB2G7710
Scans to average: 3
Trigger mode: 4
Integration Time (sec): 2.000000E-2
Electric dark correction enabled: true
Boxcar width: 10
XAxis mode: Wavelengths
Number of Pixels in Spectrum: 2048
>>>>>Begin Spectral Data<<<<<
177.721	802.88
178.105	249.25
178.488	-59.6
178.871	-91.96
179.254	-5.26
179.636	-252.68
180.019	188.4
180.402	257.14
180.785	-310.68
181.168	245.08
181.55	75.92
181.933	73.38
182.316	79.09
182.698	97.02
183.081	105.23
183.463	74.79
183.846	51.55
184.228	42.59
184.611	68.11
184.993	76.65
185.376	21.52
185.758	25.27
186.14	54.73
186.522	96.85
186.904	104.89
187.287	106.58
187.669	156.15
188.051	216.05
188.433	390.57
188.815	236.72
189.197	649.36
189.579	-138.15
189.961	-79.65
190.342	-45.74
190.724	-27.02
191.106	-76.25
191.488	-82.36
191.869	-44.81
192.251	-88.92
192.633	-54.7
193.014	-80.41
193.396	-65.29
193.777	-55.5
194.159	-48.77
194.54	-48.97
194.922	4.39
195.303	30.89
195.684	50.76
196.065	44.03
196.447	41.56
196.828	13.37
197.209	20.76
197.59	18.65
197.971	46.91
198.352	47.24
198.733	32.95
199.114	37.73
199.495	74.51
199.876	20.95
200.257	38.43
200.638	32.18
201.018	22
201.399	-0.39
201.78	7.5
202.16	-6.32
202.541	-39.67
202.922	-64.91
203.302	-95.08
203.683	-95.14
204.063	-101.98
204.444	-146.59
204.824	-165.06
205.204	-168.73
205.585	-238.55
205.965	-150.14
206.345	-266.86
206.725	-624.21
207.106	-1074.79
207.486	-4064.95
207.866	759.53
208.246	18708.7
208.626	1941
209.006	-1346.15
209.386	1190.41
209.766	1335.49
210.145	-1168.7
210.525	-246.9
210.905	-216.46
211.285	-224.91
211.664	-175.91
212.044	-184.73
212.424	-133.58
212.803	-115.47
213.183	-100.24
213.562	-71.92
213.942	-89.02
214.321	-53.85
214.701	-45.73
215.08	-29.07
215.459	-27.12
215.838	-15.93
216.218	-4.92
216.597	-10.86
216.976	-5.07
217.355	12.17
217.734	-7.49
218.113	-10.34
218.492	-17.31
218.871	-36.08
219.25	-21.95
219.629	-42.03
220.008	-30.79
220.387	-18.97
220.766	-7.77
221.144	-23.85
221.523	-48.06
221.902	-49.41
222.28	-57.15
222.659	-41.16
223.037	-38.08
223.416	-47.12
223.794	-50.93
224.173	-49.53
224.551	-30.73
224.929	-29.72
225.308	-23.12
225.686	-16.55
226.064	-13.39
226.442	-12.1
226.821	-6.26
227.199	-7.1
227.577	-8.49
227.955	-6.96
228.333	-6.38
228.711	-11.52
229.089	-6.37
229.467	-2.46
229.845	-0.84
230.222	-2.7
230.6	-4.15
230.978	-4.87
231.356	-2.57
231.733	-3.57
232.111	-2.94
232.488	-3.38
232.866	-3.47
233.243	-4.28
233.621	-3.39
233.998	-0.98
234.376	-1.84
234.753	0.67
235.13	-1.27
235.508	2.06
235.885	0.26
236.262	-0.81
236.639	0.76
237.016	1.89
237.393	2.87
237.77	3.2
238.147	3.89
238.524	3.73
238.901	4.47
239.278	4.65
239.655	5.68
240.032	5.82
240.409	6.12
240.785	5.75
241.162	5.62
241.539	5.14
241.915	4.79
242.292	4.99
242.668	4.3
243.045	4.67
243.421	4.21
243.798	4.08
244.174	4.07
244.551	3.84
244.927	3.7
245.303	3.46
245.679	3.49
246.056	3.4
246.432	3.26
246.808	3.45
247.184	3.24
247.56	3.04
247.936	2.81
248.312	2.65
248.688	2.88
249.064	2.75
249.44	2.95
249.815	3.02
250.191	3.14
250.567	3.38
250.943	3.48
251.318	3.39
251.694	3.51
252.069	3.64
252.445	3.98
252.82	4.11
253.196	4.29
253.571	4.08
253.947	4.22
254.322	4.23
254.697	4.21
255.073	4.13
255.448	4.17
255.823	4.13
256.198	4.09
256.573	3.85
256.948	3.92
257.323	3.75
257.698	3.85
258.073	3.71
258.448	3.38
258.823	3.09
259.198	3.2
259.573	3.21
259.948	3.09
260.322	3
260.697	2.97
261.072	2.92
261.446	3.01
261.821	2.87
262.195	3.01
262.57	2.81
262.944	2.84
263.319	2.68
263.693	2.78
264.067	2.81
264.442	2.73
264.816	2.69
265.19	2.59
265.564	2.54
265.938	2.49
266.313	2.58
266.687	2.9
267.061	2.84
267.435	2.95
267.809	3.13
268.183	3.13
268.556	2.88
268.93	2.88
269.304	2.8
269.678	2.98
270.051	2.93
270.425	2.92
270.799	2.88
271.172	2.99
271.546	3.04
271.919	2.91
272.293	2.93
272.666	3.04
273.04	3.15
273.413	3.16
273.787	3.25
274.16	3.17
274.533	3.08
274.906	3.02
275.279	2.94
275.653	2.66
276.026	2.74
276.399	2.77
276.772	2.92
277.145	2.97
277.518	2.94
277.891	2.88
278.263	2.93
278.636	2.96
279.009	2.88
279.382	2.84
279.755	2.85
280.127	3.13
280.5	3.24
280.872	3.1
281.245	2.94
281.617	2.86
281.99	3.05
282.362	3.08
282.735	3.05
283.107	3.07
283.479	3.2
283.852	3.14
284.224	3.17
284.596	3.03
284.968	3.05
285.34	3.07
285.713	3.11
286.085	3.16
286.457	3.37
286.829	3.47
287.201	3.48
287.572	3.51
287.944	3.43
288.316	3.35
288.688	3.5
289.06	3.51
289.431	3.5
289.803	3.51
290.175	3.58
290.546	3.68
290.918	3.69
291.289	3.81
291.661	3.88
292.032	3.88
292.403	4
292.775	4.06
293.146	3.97
293.517	3.98
293.889	4.02
294.26	3.93
294.631	3.87
295.002	3.79
295.373	3.89
295.744	3.9
296.115	3.9
296.486	3.77
296.857	3.83
297.228	3.94
297.599	4.01
297.97	4.01
298.34	4.12
298.711	4.15
299.082	4.03
299.452	3.99
299.823	4.14
300.194	4.12
300.564	4.14
300.935	4.32
301.305	4.34
301.676	4.41
302.046	4.4
302.416	4.46
302.787	4.57
303.157	4.6
303.527	4.61
303.897	4.68
304.267	4.84
304.637	4.87
305.008	4.99
305.378	5.02
305.748	4.99
306.117	4.92
306.487	5.03
306.857	5.15
307.227	5.22
307.597	5.17
307.967	5.21
308.336	5.22
308.706	5.12
309.076	5.15
309.445	5.08
309.815	5.09
310.184	5.2
310.554	5.36
310.923	5.37
311.293	5.38
311.662	5.51
312.031	5.54
312.401	5.61
312.77	5.6
313.139	5.67
313.508	5.78
313.877	5.89
314.246	5.95
314.616	5.87
314.985	5.84
315.353	5.97
315.722	5.94
316.091	5.98
316.46	6.05
316.829	6.16
317.198	6.29
317.567	6.44
317.935	6.37
318.304	6.32
318.672	6.3
319.041	6.48
319.41	6.47
319.778	6.53
320.147	6.56
320.515	6.67
320.883	6.54
321.252	6.53
321.62	6.51
321.988	6.54
322.357	6.7
322.725	6.87
323.093	6.86
323.461	6.85
323.829	6.88
324.197	7.08
324.565	7.09
324.933	7.03
325.301	7.06
325.669	7.15
326.037	7.01
326.405	7.14
326.772	7.21
327.14	7.22
327.508	7.25
327.875	7.23
328.243	7.25
328.61	7.34
328.978	7.3
329.346	7.47
329.713	7.39
330.08	7.53
330.448	7.42
330.815	7.42
331.182	7.53
331.55	7.57
331.917	7.54
332.284	7.62
332.651	7.7
333.018	7.75
333.385	7.79
333.752	8.01
334.119	8
334.486	7.94
334.853	7.85
335.22	7.74
335.587	7.94
335.954	8
336.32	8.02
336.687	8.08
337.054	7.96
337.42	7.91
337.787	7.8
338.153	7.82
338.52	7.82
338.886	7.84
339.253	7.8
339.619	7.77
339.986	7.79
340.352	8.01
340.718	7.97
341.084	8.01
341.451	8.13
341.817	8.14
342.183	8.06
342.549	8.16
342.915	8.22
343.281	8.11
343.647	8.06
344.013	8.09
344.379	8.1
344.745	8.14
345.11	8.26
345.476	8.41
345.842	8.47
346.208	8.5
346.573	8.51
346.939	8.61
347.304	8.66
347.67	8.63
348.035	8.52
348.401	8.57
348.766	8.65
349.132	8.55
349.497	8.54
349.862	8.63
350.228	8.68
350.593	8.67
350.958	8.75
351.323	8.83
351.688	8.83
352.053	8.95
352.418	8.92
352.783	8.95
353.148	8.85
353.513	8.89
353.878	8.93
354.243	9
354.608	9.05
354.972	8.97
355.337	8.98
355.702	9.01
356.066	8.98
356.431	8.78
356.795	8.75
357.16	8.7
357.524	8.68
357.889	8.61
358.253	8.64
358.618	8.62
358.982	8.51
359.346	8.45
359.71	8.36
360.075	8.34
360.439	8.32
360.803	8.33
361.167	8.24
361.531	8.18
361.895	8.11
362.259	8.05
362.623	8.03
362.987	7.94
363.351	7.85
363.714	7.86
364.078	7.84
364.442	7.8
364.806	7.83
365.169	7.78
365.533	7.83
365.896	7.75
366.26	7.74
366.623	7.72
366.987	7.7
367.35	7.65
367.714	7.64
368.077	7.56
368.44	7.5
368.803	7.47
369.167	7.44
369.53	7.37
369.893	7.31
370.256	7.34
370.619	7.36
370.982	7.28
371.345	7.16
371.708	7.21
372.071	7.2
372.434	7.08
372.797	7.02
373.159	6.89
373.522	6.86
373.885	6.74
374.247	6.72
374.61	6.65
374.973	6.57
375.335	6.51
375.698	6.48
376.06	6.38
376.423	6.37
376.785	6.33
377.147	6.3
377.51	6.23
377.872	6.16
378.234	6.09
378.596	6.08
378.958	6.06
379.321	5.99
379.683	5.96
380.045	5.94
380.407	5.85
380.769	5.8
381.13	5.77
381.492	5.73
381.854	5.71
382.216	5.66
382.578	5.69
382.939	5.57
383.301	5.51
383.663	5.46
384.024	5.42
384.386	5.39
384.747	5.38
385.109	5.35
385.47	5.25
385.832	5.2
386.193	5.19
386.554	5.15
386.916	5.06
387.277	5.02
387.638	5.01
387.999	5.01
388.36	4.99
388.721	4.93
389.082	4.9
389.443	4.78
389.804	4.76
390.165	4.68
390.526	4.7
390.887	4.66
391.248	4.69
391.609	4.65
391.969	4.59
392.33	4.52
392.691	4.5
393.051	4.48
393.412	4.45
393.772	4.33
394.133	4.29
394.493	4.27
394.854	4.21
395.214	4.18
395.574	4.16
395.935	4.11
396.295	4.12
396.655	4.05
397.015	4.06
397.376	4.04
397.736	4.03
398.096	4.02
398.456	4.03
398.816	4.01
399.176	3.93
399.535	3.87
399.895	3.86
400.255	3.81
400.615	3.77
400.975	3.74
401.334	3.78
401.694	3.77
402.054	3.72
402.413	3.66
402.773	3.6
403.132	3.57
403.492	3.51
403.851	3.48
404.211	3.48
404.57	3.44
404.929	3.45
405.288	3.42
405.648	3.36
406.007	3.31
406.366	3.25
406.725	3.27
407.084	3.3
407.443	3.27
407.802	3.27
408.161	3.25
408.52	3.2
408.879	3.18
409.238	3.16
409.596	3.18
409.955	3.22
410.314	3.23
410.673	3.19
411.031	3.21
411.39	3.16
411.748	3.16
412.107	3.16
412.465	3.09
412.824	3.08
413.182	3.05
413.54	3.04
413.899	3.05
414.257	3.02
414.615	2.99
414.974	3
415.332	2.98
415.69	3.02
416.048	3.02
416.406	3.01
416.764	3.01
417.122	3.02
417.48	2.99
417.838	2.99
418.195	2.99
418.553	2.97
418.911	2.97
419.269	2.99
419.626	2.98
419.984	2.98
420.342	2.98
420.699	2.98
421.057	2.98
421.414	2.96
421.772	2.96
422.129	2.96
422.486	2.94
422.844	2.94
423.201	2.91
423.558	2.92
423.915	2.92
424.273	2.92
424.63	2.89
424.987	2.9
425.344	2.88
425.701	2.88
426.058	2.88
426.415	2.88
426.772	2.85
427.128	2.83
427.485	2.83
427.842	2.81
428.199	2.82
428.555	2.8
428.912	2.81
429.269	2.81
429.625	2.8
429.982	2.79
430.338	2.79
430.695	2.77
431.051	2.75
431.407	2.75
431.764	2.73
432.12	2.73
432.476	2.71
432.832	2.72
433.189	2.71
433.545	2.71
433.901	2.7
434.257	2.71
434.613	2.73
434.969	2.72
435.325	2.71
435.681	2.71
436.036	2.72
436.392	2.71
436.748	2.7
437.104	2.69
437.459	2.67
437.815	2.66
438.171	2.67
438.526	2.67
438.882	2.68
439.237	2.68
439.593	2.68
439.948	2.68
440.304	2.66
440.659	2.67
441.014	2.68
441.369	2.68
441.725	2.66
442.08	2.65
442.435	2.67
442.79	2.68
443.145	2.69
443.5	2.7
443.855	2.7
444.21	2.7
444.565	2.7
444.92	2.73
445.275	2.72
445.629	2.72
445.984	2.73
446.339	2.71
446.693	2.7
447.048	2.71
447.403	2.69
447.757	2.69
448.112	2.67
448.466	2.66
448.82	2.66
449.175	2.66
449.529	2.66
449.883	2.64
450.238	2.62
450.592	2.59
450.946	2.56
451.3	2.55
451.654	2.54
452.008	2.53
452.362	2.5
452.716	2.51
453.07	2.51
453.424	2.49
453.778	2.49
454.132	2.49
454.486	2.48
454.839	2.5
455.193	2.5
455.547	2.5
455.9	2.51
456.254	2.51
456.607	2.52
456.961	2.51
457.314	2.52
457.668	2.53
458.021	2.54
458.375	2.54
458.728	2.54
459.081	2.56
459.434	2.55
459.787	2.56
460.141	2.54
460.494	2.54
460.847	2.57
461.2	2.56
461.553	2.57
461.906	2.58
462.259	2.57
462.611	2.58
462.964	2.59
463.317	2.61
463.67	2.6
464.022	2.59
464.375	2.59
464.728	2.58
465.08	2.6
465.433	2.61
465.785	2.63
466.138	2.62
466.49	2.61
466.843	2.61
467.195	2.6
467.547	2.63
467.899	2.61
468.252	2.6
468.604	2.63
468.956	2.61
469.308	2.6
469.66	2.61
470.012	2.62
470.364	2.63
470.716	2.61
471.068	2.62
471.42	2.62
471.772	2.64
472.123	2.65
472.475	2.62
472.827	2.63
473.178	2.64
473.53	2.66
473.882	2.67
474.233	2.68
474.585	2.67
474.936	2.66
475.288	2.7
475.639	2.72
475.99	2.7
476.342	2.73
476.693	2.73
477.044	2.75
477.395	2.75
477.746	2.75
478.097	2.74
478.448	2.75
478.8	2.76
479.15	2.74
479.501	2.75
479.852	2.76
480.203	2.75
480.554	2.75
480.905	2.77
481.255	2.76
481.606	2.76
481.957	2.77
482.307	2.78
482.658	2.76
483.009	2.76
483.359	2.76
483.709	2.76
484.06	2.77
484.41	2.76
484.761	2.76
485.111	2.75
485.461	2.75
485.811	2.74
486.162	2.73
486.512	2.74
486.862	2.74
487.212	2.73
487.562	2.73
487.912	2.72
488.262	2.71
488.612	2.71
488.961	2.71
489.311	2.71
489.661	2.71
490.011	2.71
490.36	2.7
490.71	2.71
491.06	2.7
491.409	2.69
491.759	2.68
492.108	2.69
492.458	2.69
492.807	2.68
493.157	2.69
493.506	2.71
493.855	2.69
494.204	2.71
494.554	2.72
494.903	2.73
495.252	2.74
495.601	2.76
495.95	2.79
496.299	2.81
496.648	2.81
496.997	2.83
497.346	2.85
497.695	2.87
498.043	2.89
498.392	2.9
498.741	2.94
499.09	2.98
499.438	2.99
499.787	3.01
500.135	3.06
500.484	3.09
500.832	3.11
501.181	3.12
501.529	3.12
501.878	3.14
502.226	3.17
502.574	3.19
502.923	3.2
503.271	3.21
503.619	3.25
503.967	3.28
504.315	3.31
504.663	3.33
505.011	3.37
505.359	3.4
505.707	3.45
506.055	3.48
506.403	3.52
506.751	3.56
507.098	3.62
507.446	3.67
507.794	3.71
508.141	3.75
508.489	3.78
508.837	3.83
509.184	3.87
509.531	3.93
509.879	3.98
510.226	4.05
510.574	4.08
510.921	4.11
511.268	4.15
511.616	4.2
511.963	4.26
512.31	4.29
512.657	4.35
513.004	4.39
513.351	4.44
513.698	4.49
514.045	4.54
514.392	4.59
514.739	4.65
515.086	4.72
515.432	4.78
515.779	4.86
516.126	4.95
516.473	5.03
516.819	5.07
517.166	5.14
517.512	5.18
517.859	5.26
518.205	5.32
518.552	5.36
518.898	5.42
519.245	5.47
519.591	5.53
519.937	5.58
520.283	5.64
520.629	5.73
520.976	5.81
521.322	5.89
521.668	5.97
522.014	6.03
522.36	6.11
522.706	6.2
523.052	6.31
523.398	6.41
523.743	6.52
524.089	6.64
524.435	6.74
524.781	6.84
525.126	6.96
525.472	7.07
525.817	7.17
526.163	7.25
526.509	7.32
526.854	7.4
527.199	7.48
527.545	7.55
527.89	7.6
528.235	7.67
528.581	7.76
528.926	7.83
529.271	7.92
529.616	7.99
529.961	8.07
530.306	8.14
530.651	8.22
530.996	8.3
531.341	8.38
531.686	8.47
532.031	8.58
532.376	8.67
532.721	8.75
533.065	8.86
533.41	8.99
533.755	9.11
534.099	9.23
534.444	9.37
534.788	9.5
535.133	9.62
535.477	9.76
535.822	9.89
536.166	10.04
536.51	10.21
536.855	10.4
537.199	10.57
537.543	10.76
537.887	10.96
538.231	11.16
538.576	11.36
538.92	11.55
539.264	11.72
539.608	11.89
539.951	12.06
540.295	12.22
540.639	12.39
540.983	12.55
541.327	12.7
541.671	12.86
542.014	13.03
542.358	13.2
542.701	13.34
543.045	13.51
543.389	13.68
543.732	13.85
544.075	14.02
544.419	14.19
544.762	14.37
545.105	14.55
545.449	14.76
545.792	15
546.135	15.22
546.478	15.47
546.821	15.76
547.165	16.02
547.508	16.29
547.851	16.56
548.194	16.86
548.536	17.14
548.879	17.44
549.222	17.69
549.565	18
549.908	18.3
550.25	18.61
550.593	18.91
550.936	19.22
551.278	19.56
551.621	19.91
551.963	20.27
552.306	20.61
552.648	20.92
552.991	21.2
553.333	21.56
553.675	21.85
554.017	22.13
554.36	22.51
554.702	22.79
555.044	23.06
555.386	23.39
555.728	23.74
556.07	24.08
556.412	24.42
556.754	24.73
557.096	25.06
557.438	25.41
557.78	25.74
558.121	26.05
558.463	26.33
558.805	26.71
559.147	27.03
559.488	27.32
559.83	27.68
560.171	28.04
560.513	28.34
560.854	28.7
561.196	29.04
561.537	29.36
561.878	29.76
562.22	30.13
562.561	30.45
562.902	30.81
563.243	31.08
563.584	31.45
563.925	31.76
564.266	32.13
564.607	32.41
564.948	32.73
565.289	33.1
565.63	33.48
565.971	33.74
566.312	34.04
566.653	34.38
566.993	34.66
567.334	34.95
567.675	35.3
568.015	35.61
568.356	35.93
568.696	36.22
569.037	36.47
569.377	36.75
569.718	36.98
570.058	37.24
570.398	37.6
570.739	37.87
571.079	38.15
571.419	38.37
571.759	38.7
572.099	38.94
572.439	39.17
572.779	39.42
573.119	39.68
573.459	39.97
573.799	40.23
574.139	40.44
574.479	40.65
574.819	40.85
575.158	41.05
575.498	41.27
575.838	41.48
576.177	41.68
576.517	41.95
576.856	42.26
577.196	42.47
577.535	42.65
577.875	42.87
578.214	43.13
578.553	43.38
578.893	43.58
579.232	43.88
579.571	44.06
579.91	44.23
580.25	44.47
580.589	44.66
580.928	44.9
581.267	45.11
581.606	45.32
581.945	45.5
582.283	45.69
582.622	45.87
582.961	46.07
583.3	46.34
583.639	46.47
583.977	46.61
584.316	46.83
584.654	47.08
584.993	47.28
585.332	47.44
585.67	47.68
586.008	47.78
586.347	47.86
586.685	48.07
587.024	48.18
587.362	48.29
587.7	48.35
588.038	48.51
588.376	48.64
588.715	48.81
589.053	49
589.391	49.26
589.729	49.42
590.067	49.54
590.404	49.66
590.742	49.87
591.08	50.04
591.418	50.12
591.756	50.2
592.093	50.31
592.431	50.55
592.769	50.59
593.106	50.8
593.444	50.9
593.781	51.05
594.119	51.22
594.456	51.38
594.793	51.54
595.131	51.64
595.468	51.77
595.805	51.89
596.143	51.99
596.48	52.01
596.817	52.08
597.154	52.15
597.491	52.25
597.828	52.28
598.165	52.32
598.502	52.51
598.839	52.61
599.176	52.72
599.512	52.74
599.849	52.89
600.186	52.9
600.523	53.1
600.859	53.23
601.196	53.39
601.532	53.5
601.869	53.55
602.205	53.63
602.542	53.7
602.878	53.81
603.215	53.85
603.551	53.95
603.887	54.04
604.223	54.17
604.56	54.26
604.896	54.37
605.232	54.47
605.568	54.47
605.904	54.52
606.24	54.59
606.576	54.64
606.912	54.69
607.248	54.84
607.583	54.95
607.919	55.02
608.255	55.08
608.591	55.2
608.926	55.28
609.262	55.39
609.597	55.5
609.933	55.54
610.268	55.68
610.604	55.76
610.939	55.82
611.275	55.89
611.61	55.98
611.945	56.05
612.281	56.16
612.616	56.28
612.951	56.39
613.286	56.47
613.621	56.51
613.956	56.68
614.291	56.71
614.626	56.77
614.961	56.77
615.296	56.78
615.631	56.77
615.966	56.87
616.3	56.82
616.635	56.89
616.97	56.93
617.304	56.94
617.639	56.99
617.973	57.07
618.308	57.05
618.642	57.12
618.977	57.12
619.311	57.17
619.646	57.25
619.98	57.24
620.314	57.33
620.648	57.44
620.983	57.47
621.317	57.47
621.651	57.43
621.985	57.52
622.319	57.56
622.653	57.66
622.987	57.82
623.321	57.87
623.655	57.84
623.988	57.9
624.322	57.93
624.656	58.03
624.99	58.03
625.323	58.11
625.657	58.02
625.99	58.14
626.324	58.15
626.657	58.2
626.991	58.2
627.324	58.19
627.658	58.27
627.991	58.34
628.324	58.43
628.657	58.37
628.991	58.38
629.324	58.46
629.657	58.42
629.99	58.37
630.323	58.44
630.656	58.48
630.989	58.48
631.322	58.55
631.655	58.54
631.987	58.58
632.32	58.67
632.653	58.79
632.986	58.77
633.318	58.82
633.651	58.83
633.984	58.99
634.316	59.01
634.649	58.99
634.981	59
635.313	59.09
635.646	59.33
635.978	59.38
636.31	59.31
636.643	59.29
636.975	59.4
637.307	59.42
637.639	59.44
637.971	59.53
638.303	59.51
638.635	59.52
638.967	59.58
639.299	59.57
639.631	59.52
639.963	59.53
640.295	59.54
640.626	59.7
640.958	59.68
641.29	59.8
641.621	59.81
641.953	59.75
642.285	59.73
642.616	59.64
642.948	59.61
643.279	59.63
643.61	59.81
643.942	59.73
644.273	59.79
644.604	59.84
644.936	59.84
645.267	59.87
645.598	59.95
645.929	59.93
646.26	59.94
646.591	59.93
646.922	59.93
647.253	59.98
647.584	59.85
647.915	59.85
648.245	59.79
648.576	59.71
648.907	59.72
649.238	59.63
649.568	59.64
649.899	59.79
650.229	59.91
650.56	59.86
650.89	59.99
651.221	59.99
651.551	59.98
651.882	59.92
652.212	59.87
652.542	59.91
652.872	59.96
653.203	60.06
653.533	60.24
653.863	60.32
654.193	60.39
654.523	60.45
654.853	60.48
655.183	60.56
655.513	60.77
655.843	60.86
656.172	60.92
656.502	60.91
656.832	60.98
657.162	60.9
657.491	60.89
657.821	60.87
658.15	60.91
658.48	60.97
658.809	61.06
659.139	61.1
659.468	61
659.798	60.96
660.127	60.87
660.456	60.92
660.785	60.84
661.115	60.81
661.444	60.8
661.773	60.79
662.102	60.84
662.431	60.8
662.76	60.71
663.089	60.77
663.418	60.87
663.747	60.76
664.076	60.97
664.404	61
664.733	60.93
665.062	60.83
665.39	60.8
665.719	60.83
666.048	60.88
666.376	60.86
666.705	60.89
667.033	60.91
667.362	60.88
667.69	60.96
668.018	61.03
