Data from BU58129_Reflection_00015.txt Node
Date: Mon Nov 18 16:35:23 EST 2019
User: vgr7
Spectrometer: USB2G7710
Scans to average: 3
Trigger mode: 4
Integration Time (sec): 2.000000E-2
Electric dark correction enabled: true
Boxcar width: 10
XAxis mode: Wavelengths
Number of Pixels in Spectrum: 2048
>>>>>Begin Spectral Data<<<<<
177.721	-37.05
178.105	-139.32
178.488	-43.66
178.871	-261.11
179.254	71.01
179.636	105.91
180.019	287.13
180.402	145
180.785	76.78
181.168	274.6
181.55	-17.22
181.933	103.07
182.316	83.8
182.698	103.67
183.081	66.37
183.463	130.01
183.846	177.05
184.228	501.18
184.611	4055.56
184.993	-153.21
185.376	-172.65
185.758	-234.43
186.14	-310.69
186.522	-225.37
186.904	-1220.26
187.287	1445.91
187.669	-290.33
188.051	642.12
188.433	557.91
188.815	988.89
189.197	370.63
189.579	1069.7
189.961	1526.36
190.342	389.7
190.724	919.92
191.106	714.72
191.488	166.49
191.869	115.91
192.251	73.6
192.633	84.51
193.014	99.39
193.396	97.43
193.777	103.57
194.159	70.9
194.54	65.19
194.922	77.33
195.303	106.71
195.684	98.56
196.065	111.07
196.447	190.09
196.828	391.44
197.209	264.77
197.59	341
197.971	363.25
198.352	-871.75
198.733	452.06
199.114	-1140.31
199.495	-150.27
199.876	-257.65
200.257	-145.92
200.638	-1.53
201.018	16.51
201.399	22.48
201.78	44.9
202.16	-8.18
202.541	-110.29
202.922	-784.35
203.302	259.62
203.683	261.36
204.063	844.59
204.444	1742.28
204.824	967.58
205.204	12766.67
205.585	744.81
205.965	303.92
206.345	780.27
206.725	586.27
207.106	202.21
207.486	193.48
207.866	219.18
208.246	682.16
208.626	365.85
209.006	2855.56
209.386	750.98
209.766	263.21
210.145	417.02
210.525	-1559.86
210.905	-2449.02
211.285	-295.4
211.664	-102.02
212.044	-116.99
212.424	-26.36
212.803	22.48
213.183	-2.29
213.562	-14.63
213.942	-1.4
214.321	93.5
214.701	19.19
215.08	-15.56
215.459	1.5
215.838	-7.48
216.218	-16.61
216.597	-14.82
216.976	-19.66
217.355	-16.87
217.734	-47.89
218.113	-54.74
218.492	-20.49
218.871	-38.56
219.25	-35.82
219.629	-41.39
220.008	-41.6
220.387	-46.41
220.766	-48.45
221.144	-74.55
221.523	-120.09
221.902	-180.23
222.28	-169.79
222.659	-110.75
223.037	-129.04
223.416	-149.61
223.794	-125.6
224.173	-95.69
224.551	-67.15
224.929	-65.47
225.308	-42.24
225.686	-24.12
226.064	-10.19
226.442	-9.47
226.821	-9.53
227.199	-12.38
227.577	-9.65
227.955	-6.93
228.333	-9.24
228.711	-10.29
229.089	-3.29
229.467	-0.54
229.845	5.02
230.222	7.27
230.6	6.1
230.978	5.98
231.356	7.22
231.733	4
232.111	4.92
232.488	2.98
232.866	3.43
233.243	1.57
233.621	-2.07
233.998	-3.15
234.376	-4.55
234.753	-4.61
235.13	-4.19
235.508	-2.72
235.885	-2.81
236.262	-3.02
236.639	-2.8
237.016	-2.84
237.393	-1.83
237.77	-1.19
238.147	-0.79
238.524	-0.31
238.901	1.08
239.278	2.17
239.655	3.19
240.032	2.51
240.409	2.31
240.785	2.31
241.162	2.79
241.539	3.33
241.915	3.19
242.292	3.46
242.668	3.19
243.045	3.22
243.421	2.9
243.798	2.97
244.174	3.34
244.551	3.57
244.927	3.32
245.303	3.73
245.679	4.01
246.056	3.81
246.432	3.63
246.808	3.6
247.184	3.2
247.56	3.01
247.936	3.23
248.312	3.46
248.688	3.52
249.064	3.6
249.44	3.66
249.815	3.61
250.191	3.65
250.567	3.82
250.943	3.93
251.318	4.08
251.694	4.12
252.069	4.24
252.445	4.38
252.82	4.61
253.196	4.43
253.571	4.11
253.947	4.36
254.322	4.64
254.697	4.35
255.073	4.52
255.448	4.57
255.823	4.67
256.198	4.33
256.573	4.41
256.948	3.96
257.323	4.02
257.698	3.99
258.073	4.16
258.448	3.97
258.823	4.06
259.198	4.04
259.573	3.91
259.948	3.86
260.322	3.75
260.697	3.58
261.072	3.6
261.446	3.69
261.821	3.47
262.195	3.51
262.57	3.55
262.944	3.33
263.319	3.42
263.693	3.41
264.067	3.55
264.442	3.49
264.816	3.79
265.19	3.56
265.564	3.63
265.938	3.38
266.313	3.56
266.687	3.7
267.061	3.76
267.435	3.82
267.809	3.64
268.183	3.54
268.556	3.53
268.93	3.64
269.304	3.53
269.678	3.73
270.051	3.5
270.425	3.53
270.799	3.77
271.172	3.68
271.546	3.48
271.919	3.29
272.293	3.27
272.666	3.24
273.04	3.38
273.413	3.37
273.787	3.53
274.16	3.42
274.533	3.27
274.906	3.31
275.279	3.26
275.653	3.4
276.026	3.44
276.399	3.61
276.772	3.62
277.145	3.52
277.518	3.58
277.891	3.76
278.263	3.81
278.636	3.72
279.009	3.73
279.382	3.88
279.755	3.94
280.127	4.13
280.5	4.1
280.872	4.03
281.245	4.03
281.617	4.16
281.99	4.28
282.362	4.41
282.735	4.28
283.107	4.28
283.479	4.23
283.852	4.36
284.224	4.19
284.596	4.06
284.968	4.09
285.34	4.11
285.713	4.18
286.085	4.15
286.457	4.24
286.829	4.26
287.201	4.33
287.572	4.3
287.944	4.23
288.316	4.35
288.688	4.41
289.06	4.41
289.431	4.17
289.803	4.22
290.175	4.11
290.546	4.22
290.918	4.26
291.289	4.25
291.661	4.23
292.032	4.38
292.403	4.44
292.775	4.52
293.146	4.51
293.517	4.42
293.889	4.51
294.26	4.46
294.631	4.46
295.002	4.48
295.373	4.61
295.744	4.53
296.115	4.46
296.486	4.38
296.857	4.5
297.228	4.62
297.599	4.67
297.97	4.76
298.34	4.74
298.711	4.85
299.082	4.87
299.452	4.99
299.823	5.06
300.194	5.08
300.564	5.11
300.935	5.18
301.305	5.26
301.676	5.44
302.046	5.58
302.416	5.74
302.787	5.68
303.157	5.74
303.527	5.87
303.897	6.03
304.267	6.33
304.637	6.33
305.008	6.45
305.378	6.46
305.748	6.55
306.117	6.51
306.487	6.54
306.857	6.67
307.227	6.61
307.597	6.59
307.967	6.76
308.336	6.85
308.706	6.92
309.076	7.09
309.445	6.95
309.815	6.99
310.184	7.07
310.554	7.19
310.923	7.21
311.293	7.24
311.662	7.14
312.031	7.06
312.401	7.12
312.77	7.15
313.139	7.29
313.508	7.34
313.877	7.49
314.246	7.59
314.616	7.64
314.985	7.71
315.353	7.82
315.722	7.94
316.091	8.01
316.46	8.08
316.829	8.01
317.198	8.13
317.567	8.17
317.935	8.22
318.304	8.2
318.672	8.31
319.041	8.6
319.41	8.73
319.778	8.7
320.147	8.72
320.515	8.8
320.883	8.67
321.252	8.75
321.62	8.74
321.988	8.78
322.357	8.82
322.725	8.99
323.093	9.13
323.461	9.19
323.829	9.32
324.197	9.3
324.565	9.38
324.933	9.56
325.301	9.56
325.669	9.6
326.037	9.77
326.405	9.85
326.772	9.93
327.14	10.16
327.508	10.3
327.875	10.33
328.243	10.55
328.61	10.65
328.978	10.73
329.346	11.01
329.713	11.05
330.08	11.19
330.448	11.19
330.815	11.22
331.182	11.22
331.55	11.29
331.917	11.44
332.284	11.52
332.651	11.55
333.018	11.73
333.385	11.78
333.752	11.89
334.119	11.94
334.486	11.89
334.853	11.73
335.22	11.77
335.587	11.77
335.954	11.67
336.32	11.76
336.687	11.74
337.054	11.66
337.42	11.8
337.787	11.86
338.153	11.88
338.52	11.93
338.886	12
339.253	11.94
339.619	11.9
339.986	11.94
340.352	11.83
340.718	11.82
341.084	11.73
341.451	11.72
341.817	11.72
342.183	11.61
342.549	11.66
342.915	11.68
343.281	11.78
343.647	11.7
344.013	11.71
344.379	11.78
344.745	11.87
345.11	11.76
345.476	11.71
345.842	11.74
346.208	11.65
346.573	11.66
346.939	11.77
347.304	11.77
347.67	11.71
348.035	11.77
348.401	11.78
348.766	11.86
349.132	11.82
349.497	11.85
349.862	11.94
350.228	11.93
350.593	11.95
350.958	11.98
351.323	12.11
351.688	12.12
352.053	12.12
352.418	12.04
352.783	12.11
353.148	12.05
353.513	12.11
353.878	12.14
354.243	12.13
354.608	12.06
354.972	12.1
355.337	12.17
355.702	12.22
356.066	12.27
356.431	12.2
356.795	12.15
357.16	12.08
357.524	11.95
357.889	11.92
358.253	11.95
358.618	11.92
358.982	11.83
359.346	11.78
359.71	11.7
360.075	11.63
360.439	11.62
360.803	11.65
361.167	11.55
361.531	11.55
361.895	11.42
362.259	11.37
362.623	11.26
362.987	11.21
363.351	11.2
363.714	11.06
364.078	11.02
364.442	10.99
364.806	10.95
365.169	10.93
365.533	10.88
365.896	10.76
366.26	10.7
366.623	10.67
366.987	10.58
367.35	10.5
367.714	10.45
368.077	10.34
368.44	10.26
368.803	10.2
369.167	10.05
369.53	9.98
369.893	9.94
370.256	9.93
370.619	9.89
370.982	9.71
371.345	9.65
371.708	9.66
372.071	9.56
372.434	9.44
372.797	9.39
373.159	9.29
373.522	9.31
373.885	9.26
374.247	9.17
374.61	9.14
374.973	9.03
375.335	8.96
375.698	8.92
376.06	8.84
376.423	8.76
376.785	8.79
377.147	8.84
377.51	8.76
377.872	8.68
378.234	8.6
378.596	8.53
378.958	8.48
379.321	8.34
379.683	8.3
380.045	8.26
380.407	8.12
380.769	8.04
381.13	7.91
381.492	7.83
381.854	7.78
382.216	7.67
382.578	7.64
382.939	7.56
383.301	7.53
383.663	7.46
384.024	7.41
384.386	7.3
384.747	7.17
385.109	7.07
385.47	7
385.832	6.92
386.193	6.92
386.554	6.77
386.916	6.73
387.277	6.7
387.638	6.67
387.999	6.65
388.36	6.63
388.721	6.66
389.082	6.56
389.443	6.49
389.804	6.43
390.165	6.39
390.526	6.36
390.887	6.25
391.248	6.21
391.609	6.18
391.969	6.14
392.33	6.11
392.691	6.11
393.051	6.06
393.412	6.02
393.772	5.92
394.133	5.94
394.493	5.9
394.854	5.86
395.214	5.82
395.574	5.76
395.935	5.71
396.295	5.62
396.655	5.58
397.015	5.54
397.376	5.52
397.736	5.42
398.096	5.36
398.456	5.35
398.816	5.29
399.176	5.24
399.535	5.16
399.895	5.11
400.255	5.06
400.615	5.02
400.975	4.99
401.334	4.95
401.694	4.92
402.054	4.86
402.413	4.81
402.773	4.72
403.132	4.69
403.492	4.66
403.851	4.63
404.211	4.58
404.57	4.55
404.929	4.52
405.288	4.52
405.648	4.49
406.007	4.44
406.366	4.42
406.725	4.42
407.084	4.43
407.443	4.38
407.802	4.34
408.161	4.31
408.52	4.28
408.879	4.25
409.238	4.24
409.596	4.24
409.955	4.2
410.314	4.22
410.673	4.18
411.031	4.18
411.39	4.15
411.748	4.19
412.107	4.16
412.465	4.14
412.824	4.14
413.182	4.1
413.54	4.08
413.899	4.06
414.257	4.04
414.615	4.01
414.974	4.02
415.332	4.02
415.69	4.01
416.048	3.97
416.406	3.96
416.764	3.9
417.122	3.89
417.48	3.86
417.838	3.84
418.195	3.84
418.553	3.81
418.911	3.81
419.269	3.79
419.626	3.79
419.984	3.77
420.342	3.76
420.699	3.75
421.057	3.74
421.414	3.72
421.772	3.68
422.129	3.67
422.486	3.66
422.844	3.64
423.201	3.62
423.558	3.62
423.915	3.62
424.273	3.64
424.63	3.61
424.987	3.62
425.344	3.62
425.701	3.61
426.058	3.59
426.415	3.58
426.772	3.55
427.128	3.52
427.485	3.49
427.842	3.44
428.199	3.43
428.555	3.42
428.912	3.43
429.269	3.44
429.625	3.42
429.982	3.42
430.338	3.41
430.695	3.41
431.051	3.41
431.407	3.38
431.764	3.36
432.12	3.35
432.476	3.35
432.832	3.33
433.189	3.36
433.545	3.36
433.901	3.34
434.257	3.35
434.613	3.36
434.969	3.39
435.325	3.41
435.681	3.42
436.036	3.41
436.392	3.39
436.748	3.4
437.104	3.38
437.459	3.38
437.815	3.37
438.171	3.38
438.526	3.38
438.882	3.41
439.237	3.41
439.593	3.41
439.948	3.39
440.304	3.4
440.659	3.39
441.014	3.41
441.369	3.39
441.725	3.39
442.08	3.4
442.435	3.38
442.79	3.4
443.145	3.39
443.5	3.38
443.855	3.37
444.21	3.35
444.565	3.36
444.92	3.36
445.275	3.35
445.629	3.33
445.984	3.32
446.339	3.3
446.693	3.29
447.048	3.27
447.403	3.26
447.757	3.24
448.112	3.22
448.466	3.2
448.82	3.2
449.175	3.18
449.529	3.17
449.883	3.16
450.238	3.13
450.592	3.13
450.946	3.11
451.3	3.1
451.654	3.1
452.008	3.13
452.362	3.11
452.716	3.11
453.07	3.11
453.424	3.1
453.778	3.11
454.132	3.1
454.486	3.11
454.839	3.11
455.193	3.1
455.547	3.08
455.9	3.07
456.254	3.08
456.607	3.07
456.961	3.06
457.314	3.06
457.668	3.07
458.021	3.06
458.375	3.06
458.728	3.07
459.081	3.07
459.434	3.04
459.787	3.04
460.141	3.05
460.494	3.05
460.847	3.06
461.2	3.03
461.553	3.03
461.906	3.03
462.259	3.05
462.611	3.08
462.964	3.11
463.317	3.12
463.67	3.15
464.022	3.17
464.375	3.17
464.728	3.19
465.08	3.19
465.433	3.21
465.785	3.23
466.138	3.22
466.49	3.25
466.843	3.27
467.195	3.28
467.547	3.29
467.899	3.32
468.252	3.31
468.604	3.35
468.956	3.38
469.308	3.42
469.66	3.42
470.012	3.41
470.364	3.43
470.716	3.41
471.068	3.4
471.42	3.4
471.772	3.45
472.123	3.45
472.475	3.47
472.827	3.48
473.178	3.49
473.53	3.5
473.882	3.5
474.233	3.52
474.585	3.52
474.936	3.51
475.288	3.51
475.639	3.52
475.99	3.52
476.342	3.51
476.693	3.49
477.044	3.5
477.395	3.48
477.746	3.46
478.097	3.48
478.448	3.48
478.8	3.47
479.15	3.42
479.501	3.44
479.852	3.44
480.203	3.43
480.554	3.44
480.905	3.44
481.255	3.43
481.606	3.42
481.957	3.4
482.307	3.4
482.658	3.39
483.009	3.39
483.359	3.38
483.709	3.39
484.06	3.39
484.41	3.38
484.761	3.39
485.111	3.39
485.461	3.38
485.811	3.38
486.162	3.39
486.512	3.4
486.862	3.39
487.212	3.39
487.562	3.39
487.912	3.38
488.262	3.37
488.612	3.37
488.961	3.37
489.311	3.38
489.661	3.39
490.011	3.4
490.36	3.4
490.71	3.39
491.06	3.39
491.409	3.4
491.759	3.41
492.108	3.41
492.458	3.42
492.807	3.43
493.157	3.44
493.506	3.45
493.855	3.46
494.204	3.49
494.554	3.5
494.903	3.5
495.252	3.52
495.601	3.54
495.95	3.57
496.299	3.59
496.648	3.61
496.997	3.63
497.346	3.65
497.695	3.69
498.043	3.73
498.392	3.75
498.741	3.77
499.09	3.79
499.438	3.85
499.787	3.9
500.135	3.95
500.484	3.99
500.832	4.04
501.181	4.07
501.529	4.13
501.878	4.18
502.226	4.25
502.574	4.31
502.923	4.38
503.271	4.43
503.619	4.51
503.967	4.57
504.315	4.66
504.663	4.72
505.011	4.82
505.359	4.88
505.707	4.94
506.055	5.03
506.403	5.13
506.751	5.2
507.098	5.29
507.446	5.37
507.794	5.44
508.141	5.54
508.489	5.63
508.837	5.74
509.184	5.84
509.531	5.96
509.879	6.08
510.226	6.19
510.574	6.29
510.921	6.38
511.268	6.47
511.616	6.57
511.963	6.7
512.31	6.78
512.657	6.93
513.004	7.09
513.351	7.2
513.698	7.34
514.045	7.48
514.392	7.6
514.739	7.74
515.086	7.89
515.432	8.01
515.779	8.13
516.126	8.23
516.473	8.37
516.819	8.48
517.166	8.6
517.512	8.71
517.859	8.84
518.205	8.96
518.552	9.08
518.898	9.21
519.245	9.33
519.591	9.48
519.937	9.59
520.283	9.7
520.629	9.85
520.976	9.99
521.322	10.16
521.668	10.31
522.014	10.5
522.36	10.69
522.706	10.9
523.052	11.11
523.398	11.33
523.743	11.53
524.089	11.75
524.435	11.95
524.781	12.16
525.126	12.34
525.472	12.52
525.817	12.7
526.163	12.83
526.509	12.98
526.854	13.09
527.199	13.23
527.545	13.36
527.89	13.48
528.235	13.6
528.581	13.71
528.926	13.83
529.271	13.95
529.616	14.08
529.961	14.22
530.306	14.34
530.651	14.48
530.996	14.64
531.341	14.78
531.686	14.92
532.031	15.06
532.376	15.23
532.721	15.39
533.065	15.57
533.41	15.77
533.755	15.96
534.099	16.16
534.444	16.33
534.788	16.51
535.133	16.71
535.477	16.92
535.822	17.13
536.166	17.35
536.51	17.58
536.855	17.8
537.199	18.03
537.543	18.3
537.887	18.58
538.231	18.81
538.576	19.07
538.92	19.34
539.264	19.62
539.608	19.84
539.951	20.06
540.295	20.27
540.639	20.47
540.983	20.67
541.327	20.88
541.671	21.07
542.014	21.31
542.358	21.53
542.701	21.69
543.045	21.88
543.389	22.08
543.732	22.29
544.075	22.5
544.419	22.72
544.762	22.94
545.105	23.15
545.449	23.43
545.792	23.67
546.135	23.95
546.478	24.21
546.821	24.49
547.165	24.81
547.508	25.1
547.851	25.39
548.194	25.68
548.536	25.97
548.879	26.29
549.222	26.6
549.565	26.87
549.908	27.23
550.25	27.57
550.593	27.89
550.936	28.18
551.278	28.52
551.621	28.85
551.963	29.2
552.306	29.56
552.648	29.82
552.991	30.19
553.333	30.46
553.675	30.76
554.017	31.05
554.36	31.29
554.702	31.61
555.044	31.89
555.386	32.18
555.728	32.45
556.07	32.77
556.412	33.03
556.754	33.3
557.096	33.62
557.438	33.87
557.78	34.22
558.121	34.59
558.463	34.88
558.805	35.15
559.147	35.39
559.488	35.63
559.83	35.95
560.171	36.2
560.513	36.54
560.854	36.78
561.196	37.13
561.537	37.48
561.878	37.74
562.22	38.05
562.561	38.28
562.902	38.6
563.243	38.82
563.584	39.05
563.925	39.31
564.266	39.5
564.607	39.77
564.948	39.95
565.289	40.14
565.63	40.37
565.971	40.63
566.312	40.91
566.653	41.16
566.993	41.42
567.334	41.59
567.675	41.84
568.015	42.13
568.356	42.35
568.696	42.52
569.037	42.75
569.377	42.96
569.718	43.18
570.058	43.34
570.398	43.55
570.739	43.75
571.079	43.95
571.419	44.21
571.759	44.38
572.099	44.62
572.439	44.8
572.779	44.94
573.119	45.11
573.459	45.22
573.799	45.35
574.139	45.39
574.479	45.57
574.819	45.7
575.158	45.81
575.498	45.95
575.838	46.11
576.177	46.25
576.517	46.4
576.856	46.55
577.196	46.66
577.535	46.8
577.875	46.95
578.214	47.1
578.553	47.19
578.893	47.38
579.232	47.48
579.571	47.6
579.91	47.77
580.25	47.94
580.589	48.13
580.928	48.25
581.267	48.53
581.606	48.71
581.945	48.79
582.283	48.87
582.622	48.93
582.961	49.07
583.3	49.18
583.639	49.34
583.977	49.5
584.316	49.75
584.654	49.93
584.993	50.19
585.332	50.38
585.67	50.57
586.008	50.62
586.347	50.69
586.685	50.85
587.024	50.97
587.362	51.01
587.7	51.1
588.038	51.23
588.376	51.33
588.715	51.41
589.053	51.63
589.391	51.72
589.729	51.85
590.067	51.93
590.404	52.05
590.742	52.14
591.08	52.16
591.418	52.24
591.756	52.27
592.093	52.32
592.431	52.29
592.769	52.27
593.106	52.39
593.444	52.57
593.781	52.62
594.119	52.8
594.456	52.87
594.793	52.94
595.131	53.04
595.468	53.1
595.805	53.15
596.143	53.13
596.48	53.26
596.817	53.29
597.154	53.4
597.491	53.45
597.828	53.51
598.165	53.63
598.502	53.65
598.839	53.76
599.176	53.78
599.512	53.93
599.849	54.07
600.186	54.19
600.523	54.23
600.859	54.34
601.196	54.36
601.532	54.51
601.869	54.53
602.205	54.55
602.542	54.62
602.878	54.68
603.215	54.82
603.551	54.83
603.887	54.89
604.223	54.87
604.56	54.92
604.896	54.94
605.232	54.99
605.568	55.03
605.904	55.08
606.24	55.13
606.576	55.11
606.912	55.22
607.248	55.24
607.583	55.24
607.919	55.28
608.255	55.29
608.591	55.34
608.926	55.45
609.262	55.47
609.597	55.5
609.933	55.6
610.268	55.62
610.604	55.78
610.939	55.78
611.275	55.9
611.61	55.94
611.945	56.04
612.281	56.1
612.616	56.16
612.951	56.22
613.286	56.31
613.621	56.45
613.956	56.45
614.291	56.49
614.626	56.52
614.961	56.59
615.296	56.6
615.631	56.59
615.966	56.62
616.3	56.74
616.635	56.73
616.97	56.71
617.304	56.64
617.639	56.58
617.973	56.68
618.308	56.59
618.642	56.64
618.977	56.62
619.311	56.68
619.646	56.8
619.98	56.82
620.314	56.83
620.648	56.89
620.983	56.86
621.317	56.93
621.651	57.03
621.985	57.02
622.319	57.09
622.653	57.11
622.987	57.13
623.321	57.14
623.655	57.22
623.988	57.26
624.322	57.39
624.656	57.37
624.99	57.42
625.323	57.51
625.657	57.55
625.99	57.68
626.324	57.78
626.657	57.74
626.991	57.8
627.324	57.76
627.658	57.7
627.991	57.77
628.324	57.72
628.657	57.81
628.991	57.84
629.324	57.87
629.657	57.78
629.99	57.82
630.323	57.82
630.656	57.89
630.989	57.88
631.322	57.84
631.655	57.83
631.987	57.84
632.32	57.95
632.653	57.91
632.986	57.72
633.318	57.59
633.651	57.61
633.984	57.55
634.316	57.65
634.649	57.66
634.981	57.63
635.313	57.73
635.646	57.68
635.978	57.75
636.31	57.86
636.643	57.96
636.975	57.9
637.307	57.95
637.639	57.89
637.971	57.79
638.303	57.8
638.635	57.92
638.967	57.99
639.299	57.95
639.631	57.92
639.963	57.91
640.295	58.05
640.626	58.04
640.958	58.11
641.29	58.01
641.621	58.1
641.953	58.28
642.285	58.19
642.616	58.26
642.948	58.23
643.279	58.2
643.61	58.26
643.942	58.45
644.273	58.37
644.604	58.41
644.936	58.56
645.267	58.58
645.598	58.69
645.929	58.62
646.26	58.63
646.591	58.68
646.922	58.82
647.253	58.71
647.584	58.8
647.915	58.86
648.245	59
648.576	58.97
648.907	58.93
649.238	58.93
649.568	58.95
649.899	58.99
650.229	58.95
650.56	59.05
650.89	59.08
651.221	59.2
651.551	59.15
651.882	59.21
652.212	59.25
652.542	59.21
652.872	59.27
653.203	59.16
653.533	59.26
653.863	59.3
654.193	59.35
654.523	59.35
654.853	59.24
655.183	59.19
655.513	59.31
655.843	59.28
656.172	59.35
656.502	59.24
656.832	59.26
657.162	59.25
657.491	59.23
657.821	59.09
658.15	59.1
658.48	59.12
658.809	59.07
659.139	59.06
659.468	59.04
659.798	59.07
660.127	59.11
660.456	59.13
660.785	59.18
661.115	59.16
661.444	59.21
661.773	59.29
662.102	59.22
662.431	59.1
662.76	59
663.089	58.98
663.418	59.11
663.747	59.06
