Data from BU58127_Reflection_00007.txt Node
Date: Mon Nov 18 16:44:14 EST 2019
User: vgr7
Spectrometer: USB2G7710
Scans to average: 3
Trigger mode: 4
Integration Time (sec): 2.000000E-2
Electric dark correction enabled: true
Boxcar width: 10
XAxis mode: Wavelengths
Number of Pixels in Spectrum: 2048
>>>>>Begin Spectral Data<<<<<
177.721	399.52
178.105	24.88
178.488	-23.83
178.871	46.86
179.254	105.01
179.636	-52.78
180.019	-10.26
180.402	90
180.785	-489.37
181.168	-1992.59
181.55	1369.84
181.933	162.1
182.316	115.34
182.698	231.97
183.081	193.99
183.463	193.51
183.846	198.77
184.228	459.92
184.611	369.63
184.993	2302.02
185.376	964.47
185.758	-5489.74
186.14	431.15
186.522	230.19
186.904	191.47
187.287	300.25
187.669	-1264.34
188.051	389.86
188.433	6396.3
188.815	-253.3
189.197	-474.92
189.579	-134.6
189.961	-109.29
190.342	-129.79
190.724	-71.15
191.106	-40.78
191.488	-40.42
191.869	-50.5
192.251	-30.14
192.633	-0.43
193.014	-17.45
193.396	-22.83
193.777	-20.42
194.159	-15.56
194.54	39.32
194.922	27.18
195.303	19.55
195.684	-13.8
196.065	9.23
196.447	6.85
196.828	7.53
197.209	8.68
197.59	11.24
197.971	5.62
198.352	14.36
198.733	13.4
199.114	10.85
199.495	1.84
199.876	5.79
200.257	11.58
200.638	10.77
201.018	17.21
201.399	21.8
201.78	14.86
202.16	14.49
202.541	-6.32
202.922	-16.03
203.302	-23.99
203.683	-14.81
204.063	-28.49
204.444	-23.73
204.824	-19.91
205.204	-13.1
205.585	-21.59
205.965	-6.59
206.345	-16.6
206.725	-22.03
207.106	-37.64
207.486	-47.96
207.866	-54.71
208.246	-55.66
208.626	-56.4
209.006	-62.85
209.386	-67.02
209.766	-77.04
210.145	-90.11
210.525	-64.71
210.905	-52.84
211.285	-27.19
211.664	-23.69
212.044	-13.05
212.424	-15.63
212.803	-19.93
213.183	-8.42
213.562	-10.84
213.942	-11.82
214.321	0.57
214.701	-6.57
215.08	-3.05
215.459	7.26
215.838	11.36
216.218	0.56
216.597	-14.84
216.976	-9.72
217.355	7.55
217.734	13.22
218.113	23
218.492	31.57
218.871	35.15
219.25	24.09
219.629	11.61
220.008	8.57
220.387	3.94
220.766	1
221.144	-11.68
221.523	2.78
221.902	8.65
222.28	10.67
222.659	13.7
223.037	14.28
223.416	18.36
223.794	12.2
224.173	24.81
224.551	35.01
224.929	34.74
225.308	23.32
225.686	20.96
226.064	19.97
226.442	18.17
226.821	17.9
227.199	12.76
227.577	17.44
227.955	14.57
228.333	16.11
228.711	18.27
229.089	18.6
229.467	18.24
229.845	16.55
230.222	15.34
230.6	12.97
230.978	11.39
231.356	11.86
231.733	13.4
232.111	11.04
232.488	10.43
232.866	10.44
233.243	11.25
233.621	11.72
233.998	12.35
234.376	13.18
234.753	12.63
235.13	13.64
235.508	12.07
235.885	13.24
236.262	11.59
236.639	11.32
237.016	10.54
237.393	9.48
237.77	8.51
238.147	8.36
238.524	8.81
238.901	9.28
239.278	8.62
239.655	8.56
240.032	8.23
240.409	8.03
240.785	7.44
241.162	7.1
241.539	6.74
241.915	6.31
242.292	5.53
242.668	5.13
243.045	5.26
243.421	5.35
243.798	5.23
244.174	5.53
244.551	5.56
244.927	5.59
245.303	5.61
245.679	5.68
246.056	5.41
246.432	5.4
246.808	5.16
247.184	5
247.56	4.99
247.936	4.85
248.312	4.74
248.688	4.8
249.064	4.57
249.44	4.74
249.815	4.75
250.191	4.9
250.567	4.86
250.943	4.75
251.318	4.91
251.694	4.91
252.069	4.82
252.445	5.25
252.82	5.25
253.196	5.38
253.571	5.47
253.947	5.77
254.322	5.98
254.697	6.08
255.073	6.05
255.448	5.69
255.823	5.48
256.198	5.36
256.573	5.12
256.948	5.42
257.323	5.48
257.698	5.37
258.073	5.28
258.448	5.18
258.823	5.21
259.198	5.01
259.573	5.01
259.948	4.85
260.322	4.48
260.697	4.34
261.072	4.27
261.446	4.2
261.821	4.06
262.195	4.12
262.57	4.12
262.944	4.19
263.319	4.32
263.693	4.37
264.067	4.49
264.442	4.61
264.816	4.43
265.19	4.18
265.564	4.14
265.938	4.09
266.313	4.34
266.687	4.4
267.061	4.6
267.435	4.6
267.809	4.58
268.183	4.69
268.556	4.79
268.93	4.53
269.304	4.46
269.678	4.63
270.051	4.38
270.425	4.33
270.799	4.16
271.172	4.22
271.546	4.38
271.919	4.3
272.293	4.21
272.666	4.39
273.04	4.4
273.413	4.54
273.787	4.55
274.16	4.5
274.533	4.37
274.906	4.11
275.279	4.09
275.653	4.16
276.026	4.02
276.399	4.03
276.772	4.21
277.145	4.17
277.518	4.11
277.891	4.25
278.263	4.33
278.636	4.42
279.009	4.15
279.382	4.21
279.755	4.14
280.127	4.33
280.5	4.26
280.872	4.4
281.245	4.44
281.617	4.59
281.99	4.61
282.362	4.65
282.735	4.58
283.107	4.49
283.479	4.47
283.852	4.58
284.224	4.56
284.596	4.6
284.968	4.6
285.34	4.53
285.713	4.51
286.085	4.53
286.457	4.57
286.829	4.66
287.201	4.76
287.572	4.8
287.944	4.63
288.316	4.63
288.688	4.5
289.06	4.39
289.431	4.33
289.803	4.33
290.175	4.43
290.546	4.47
290.918	4.59
291.289	4.61
291.661	4.66
292.032	4.76
292.403	4.76
292.775	4.89
293.146	5.1
293.517	5.11
293.889	5.16
294.26	5.04
294.631	5.08
295.002	4.94
295.373	4.95
295.744	5.17
296.115	5.28
296.486	5.39
296.857	5.56
297.228	5.6
297.599	5.6
297.97	5.54
298.34	5.67
298.711	5.68
299.082	5.77
299.452	5.76
299.823	5.76
300.194	5.8
300.564	5.71
300.935	5.78
301.305	5.75
301.676	5.85
302.046	5.96
302.416	6.12
302.787	6.07
303.157	6.26
303.527	6.22
303.897	6.19
304.267	6.31
304.637	6.38
305.008	6.52
305.378	6.68
305.748	6.93
306.117	7.01
306.487	7.18
306.857	7.33
307.227	7.61
307.597	7.71
307.967	7.68
308.336	7.86
308.706	7.86
309.076	8.02
309.445	8.13
309.815	8.25
310.184	8.17
310.554	8.47
310.923	8.5
311.293	8.56
311.662	8.69
312.031	8.76
312.401	8.81
312.77	8.96
313.139	9
313.508	9.05
313.877	9.05
314.246	9.15
314.616	9.15
314.985	9.09
315.353	9.21
315.722	9.49
316.091	9.54
316.46	9.59
316.829	9.74
317.198	9.75
317.567	9.83
317.935	9.99
318.304	9.93
318.672	10
319.041	10.23
319.41	10.32
319.778	10.42
320.147	10.44
320.515	10.37
320.883	10.36
321.252	10.37
321.62	10.65
321.988	10.62
322.357	10.73
322.725	10.66
323.093	10.7
323.461	10.76
323.829	10.99
324.197	11.02
324.565	11.08
324.933	11.2
325.301	11.29
325.669	11.34
326.037	11.54
326.405	11.68
326.772	11.77
327.14	11.91
327.508	12.05
327.875	12.1
328.243	12.12
328.61	12.28
328.978	12.36
329.346	12.4
329.713	12.48
330.08	12.58
330.448	12.71
330.815	12.7
331.182	12.75
331.55	12.81
331.917	12.9
332.284	12.92
332.651	12.91
333.018	12.87
333.385	13
333.752	13.02
334.119	13.08
334.486	12.94
334.853	12.91
335.22	12.8
335.587	12.84
335.954	12.89
336.32	12.9
336.687	12.87
337.054	12.84
337.42	12.86
337.787	12.83
338.153	12.94
338.52	13.03
338.886	12.98
339.253	12.9
339.619	13.03
339.986	13.09
340.352	13.11
340.718	13.3
341.084	13.29
341.451	13.3
341.817	13.36
342.183	13.44
342.549	13.42
342.915	13.51
343.281	13.5
343.647	13.56
344.013	13.6
344.379	13.67
344.745	13.62
345.11	13.83
345.476	13.88
345.842	13.89
346.208	13.91
346.573	13.95
346.939	14.15
347.304	14.12
347.67	14.1
348.035	14.06
348.401	13.94
348.766	14.02
349.132	13.97
349.497	13.87
349.862	13.98
350.228	14.02
350.593	13.96
350.958	13.97
351.323	14.04
351.688	14.05
352.053	14.08
352.418	14.18
352.783	14.01
353.148	13.94
353.513	13.88
353.878	13.89
354.243	13.98
354.608	13.93
354.972	13.91
355.337	13.96
355.702	14.05
356.066	14.03
356.431	13.96
356.795	14.06
357.16	14
357.524	13.81
357.889	13.76
358.253	13.78
358.618	13.76
358.982	13.58
359.346	13.5
359.71	13.4
360.075	13.37
360.439	13.38
360.803	13.39
361.167	13.34
361.531	13.22
361.895	13.07
362.259	12.97
362.623	12.95
362.987	12.87
363.351	12.78
363.714	12.8
364.078	12.72
364.442	12.57
364.806	12.58
365.169	12.64
365.533	12.57
365.896	12.48
366.26	12.42
366.623	12.41
366.987	12.34
367.35	12.29
367.714	12.22
368.077	12.07
368.44	11.98
368.803	11.9
369.167	11.79
369.53	11.66
369.893	11.58
370.256	11.46
370.619	11.35
370.982	11.13
371.345	11.01
371.708	10.94
372.071	10.85
372.434	10.69
372.797	10.56
373.159	10.49
373.522	10.39
373.885	10.31
374.247	10.29
374.61	10.21
374.973	10.1
375.335	9.98
375.698	9.94
376.06	9.87
376.423	9.78
376.785	9.78
377.147	9.77
377.51	9.66
377.872	9.58
378.234	9.5
378.596	9.49
378.958	9.37
379.321	9.33
379.683	9.28
380.045	9.2
380.407	9.1
380.769	9.01
381.13	8.99
381.492	8.89
381.854	8.79
382.216	8.74
382.578	8.64
382.939	8.55
383.301	8.41
383.663	8.28
384.024	8.14
384.386	8.08
384.747	8
385.109	7.93
385.47	7.87
385.832	7.77
386.193	7.72
386.554	7.67
386.916	7.58
387.277	7.51
387.638	7.46
387.999	7.37
388.36	7.31
388.721	7.22
389.082	7.15
389.443	7.06
389.804	7.01
390.165	6.92
390.526	6.88
390.887	6.86
391.248	6.85
391.609	6.89
391.969	6.8
392.33	6.76
392.691	6.73
393.051	6.67
393.412	6.65
393.772	6.55
394.133	6.51
394.493	6.47
394.854	6.44
395.214	6.41
395.574	6.4
395.935	6.34
396.295	6.28
396.655	6.23
397.015	6.2
397.376	6.14
397.736	6.12
398.096	6.08
398.456	6.03
398.816	5.97
399.176	5.86
399.535	5.8
399.895	5.74
400.255	5.67
400.615	5.64
400.975	5.62
401.334	5.59
401.694	5.56
402.054	5.5
402.413	5.42
402.773	5.35
403.132	5.31
403.492	5.3
403.851	5.27
404.211	5.24
404.57	5.16
404.929	5.12
405.288	5.1
405.648	5.05
406.007	5.03
406.366	4.99
406.725	5.03
407.084	5.05
407.443	5.02
407.802	5.01
408.161	4.96
408.52	4.93
408.879	4.91
409.238	4.89
409.596	4.88
409.955	4.86
410.314	4.88
410.673	4.84
411.031	4.8
411.39	4.79
411.748	4.79
412.107	4.8
412.465	4.78
412.824	4.73
413.182	4.71
413.54	4.71
413.899	4.69
414.257	4.64
414.615	4.59
414.974	4.57
415.332	4.53
415.69	4.54
416.048	4.5
416.406	4.48
416.764	4.43
417.122	4.42
417.48	4.38
417.838	4.37
418.195	4.34
418.553	4.3
418.911	4.26
419.269	4.26
419.626	4.23
419.984	4.21
420.342	4.2
420.699	4.17
421.057	4.15
421.414	4.13
421.772	4.12
422.129	4.1
422.486	4.08
422.844	4.07
423.201	4.03
423.558	4.02
423.915	4.01
424.273	4.01
424.63	3.98
424.987	3.97
425.344	3.95
425.701	3.93
426.058	3.93
426.415	3.93
426.772	3.91
427.128	3.89
427.485	3.88
427.842	3.87
428.199	3.88
428.555	3.86
428.912	3.87
429.269	3.86
429.625	3.86
429.982	3.86
430.338	3.84
430.695	3.84
431.051	3.83
431.407	3.82
431.764	3.81
432.12	3.81
432.476	3.8
432.832	3.78
433.189	3.79
433.545	3.81
433.901	3.78
434.257	3.76
434.613	3.76
434.969	3.76
435.325	3.76
435.681	3.76
436.036	3.77
436.392	3.76
436.748	3.76
437.104	3.74
437.459	3.75
437.815	3.74
438.171	3.75
438.526	3.74
438.882	3.73
439.237	3.73
439.593	3.74
439.948	3.75
440.304	3.76
440.659	3.75
441.014	3.74
441.369	3.73
441.725	3.73
442.08	3.74
442.435	3.74
442.79	3.73
443.145	3.71
443.5	3.68
443.855	3.67
444.21	3.66
444.565	3.67
444.92	3.67
445.275	3.65
445.629	3.64
445.984	3.65
446.339	3.63
446.693	3.62
447.048	3.61
447.403	3.58
447.757	3.56
448.112	3.54
448.466	3.52
448.82	3.53
449.175	3.54
449.529	3.5
449.883	3.49
450.238	3.48
450.592	3.49
450.946	3.48
451.3	3.47
451.654	3.46
452.008	3.45
452.362	3.41
452.716	3.42
453.07	3.43
453.424	3.41
453.778	3.41
454.132	3.42
454.486	3.4
454.839	3.4
455.193	3.39
455.547	3.4
455.9	3.39
456.254	3.37
456.607	3.36
456.961	3.37
457.314	3.37
457.668	3.36
458.021	3.34
458.375	3.36
458.728	3.36
459.081	3.36
459.434	3.35
459.787	3.36
460.141	3.36
460.494	3.36
460.847	3.36
461.2	3.36
461.553	3.36
461.906	3.36
462.259	3.38
462.611	3.4
462.964	3.41
463.317	3.41
463.67	3.43
464.022	3.42
464.375	3.44
464.728	3.44
465.08	3.47
465.433	3.5
465.785	3.51
466.138	3.51
466.49	3.55
466.843	3.56
467.195	3.57
467.547	3.61
467.899	3.62
468.252	3.64
468.604	3.67
468.956	3.66
469.308	3.68
469.66	3.67
470.012	3.69
470.364	3.7
470.716	3.72
471.068	3.75
471.42	3.77
471.772	3.78
472.123	3.81
472.475	3.81
472.827	3.82
473.178	3.84
473.53	3.84
473.882	3.81
474.233	3.82
474.585	3.82
474.936	3.8
475.288	3.78
475.639	3.79
475.99	3.78
476.342	3.79
476.693	3.8
477.044	3.81
477.395	3.81
477.746	3.81
478.097	3.83
478.448	3.81
478.8	3.81
479.15	3.77
479.501	3.76
479.852	3.75
480.203	3.73
480.554	3.72
480.905	3.72
481.255	3.74
481.606	3.75
481.957	3.75
482.307	3.76
482.658	3.77
483.009	3.75
483.359	3.74
483.709	3.75
484.06	3.74
484.41	3.74
484.761	3.73
485.111	3.72
485.461	3.72
485.811	3.71
486.162	3.72
486.512	3.73
486.862	3.73
487.212	3.73
487.562	3.73
487.912	3.73
488.262	3.73
488.612	3.72
488.961	3.72
489.311	3.72
489.661	3.72
490.011	3.71
490.36	3.72
490.71	3.73
491.06	3.72
491.409	3.73
491.759	3.74
492.108	3.75
492.458	3.77
492.807	3.77
493.157	3.78
493.506	3.8
493.855	3.8
494.204	3.81
494.554	3.82
494.903	3.83
495.252	3.86
495.601	3.89
495.95	3.91
496.299	3.92
496.648	3.94
496.997	3.99
497.346	4.02
497.695	4.05
498.043	4.09
498.392	4.12
498.741	4.17
499.09	4.2
499.438	4.23
499.787	4.28
500.135	4.34
500.484	4.38
500.832	4.41
501.181	4.47
501.529	4.53
501.878	4.62
502.226	4.68
502.574	4.75
502.923	4.81
503.271	4.86
503.619	4.96
503.967	5.03
504.315	5.08
504.663	5.16
505.011	5.24
505.359	5.29
505.707	5.4
506.055	5.45
506.403	5.52
506.751	5.62
507.098	5.69
507.446	5.79
507.794	5.89
508.141	5.99
508.489	6.07
508.837	6.19
509.184	6.27
509.531	6.35
509.879	6.45
510.226	6.57
510.574	6.66
510.921	6.72
511.268	6.81
511.616	6.91
511.963	7.01
512.31	7.11
512.657	7.23
513.004	7.32
513.351	7.46
513.698	7.59
514.045	7.72
514.392	7.87
514.739	7.99
515.086	8.14
515.432	8.26
515.779	8.39
516.126	8.5
516.473	8.62
516.819	8.78
517.166	8.88
517.512	8.98
517.859	9.12
518.205	9.24
518.552	9.4
518.898	9.52
519.245	9.62
519.591	9.74
519.937	9.87
520.283	10
520.629	10.12
520.976	10.27
521.322	10.41
521.668	10.54
522.014	10.71
522.36	10.86
522.706	11.03
523.052	11.21
523.398	11.39
523.743	11.59
524.089	11.77
524.435	11.95
524.781	12.14
525.126	12.3
525.472	12.44
525.817	12.57
526.163	12.72
526.509	12.83
526.854	12.94
527.199	13.03
527.545	13.12
527.89	13.25
528.235	13.35
528.581	13.45
528.926	13.57
529.271	13.67
529.616	13.76
529.961	13.87
530.306	14
530.651	14.12
530.996	14.26
531.341	14.38
531.686	14.52
532.031	14.64
532.376	14.78
532.721	14.92
533.065	15.06
533.41	15.2
533.755	15.36
534.099	15.53
534.444	15.72
534.788	15.9
535.133	16.05
535.477	16.22
535.822	16.39
536.166	16.58
536.51	16.79
536.855	17.01
537.199	17.26
537.543	17.47
537.887	17.7
538.231	17.88
538.576	18.12
538.92	18.32
539.264	18.54
539.608	18.71
539.951	18.92
540.295	19.09
540.639	19.29
540.983	19.49
541.327	19.67
541.671	19.83
542.014	20
542.358	20.18
542.701	20.35
543.045	20.52
543.389	20.69
543.732	20.88
544.075	21.09
544.419	21.26
544.762	21.45
545.105	21.65
545.449	21.89
545.792	22.13
546.135	22.4
546.478	22.66
546.821	22.97
547.165	23.26
547.508	23.56
547.851	23.82
548.194	24.11
548.536	24.39
548.879	24.73
549.222	25.04
549.565	25.35
549.908	25.67
550.25	25.98
550.593	26.29
550.936	26.6
551.278	26.89
551.621	27.2
551.963	27.52
552.306	27.81
552.648	28.11
552.991	28.38
553.333	28.69
553.675	28.92
554.017	29.2
554.36	29.46
554.702	29.77
555.044	30.05
555.386	30.34
555.728	30.62
556.07	30.89
556.412	31.17
556.754	31.43
557.096	31.78
557.438	32.12
557.78	32.41
558.121	32.71
558.463	33.01
558.805	33.27
559.147	33.59
559.488	33.91
559.83	34.21
560.171	34.51
560.513	34.81
560.854	35.16
561.196	35.48
561.537	35.75
561.878	35.98
562.22	36.3
562.561	36.54
562.902	36.84
563.243	37.07
563.584	37.38
563.925	37.71
564.266	37.93
564.607	38.16
564.948	38.43
565.289	38.65
565.63	38.95
565.971	39.19
566.312	39.46
566.653	39.68
566.993	39.93
567.334	40.14
567.675	40.26
568.015	40.51
568.356	40.72
568.696	41.03
569.037	41.3
569.377	41.49
569.718	41.74
570.058	41.97
570.398	42.24
570.739	42.45
571.079	42.64
571.419	42.81
571.759	43.07
572.099	43.29
572.439	43.51
572.779	43.65
573.119	43.85
573.459	44.02
573.799	44.2
574.139	44.36
574.479	44.61
574.819	44.84
575.158	45.03
575.498	45.2
575.838	45.37
576.177	45.5
576.517	45.71
576.856	45.82
577.196	45.98
577.535	46.14
577.875	46.3
578.214	46.44
578.553	46.64
578.893	46.7
579.232	46.88
579.571	47.02
579.91	47.22
580.25	47.45
580.589	47.58
580.928	47.83
581.267	47.96
581.606	48.05
581.945	48.17
582.283	48.21
582.622	48.31
582.961	48.45
583.3	48.6
583.639	48.7
583.977	48.88
584.316	49.05
584.654	49.15
584.993	49.23
585.332	49.41
585.67	49.5
586.008	49.76
586.347	49.83
586.685	49.92
587.024	50.05
587.362	50.1
587.7	50.19
588.038	50.27
588.376	50.36
588.715	50.48
589.053	50.63
589.391	50.79
589.729	50.94
590.067	50.95
590.404	51.07
590.742	51.17
591.08	51.36
591.418	51.41
591.756	51.54
592.093	51.62
592.431	51.65
592.769	51.74
593.106	51.81
593.444	51.8
593.781	51.85
594.119	51.89
594.456	51.89
594.793	51.95
595.131	51.99
595.468	52.07
595.805	52.09
596.143	52.13
596.48	52.19
596.817	52.25
597.154	52.34
597.491	52.37
597.828	52.48
598.165	52.5
598.502	52.59
598.839	52.58
599.176	52.7
599.512	52.86
599.849	52.93
600.186	52.96
600.523	53.13
600.859	53.32
601.196	53.39
601.532	53.52
601.869	53.59
602.205	53.68
602.542	53.78
602.878	53.85
603.215	53.98
603.551	53.98
603.887	54.02
604.223	54.02
604.56	54.12
604.896	54.09
605.232	54.07
605.568	54.11
605.904	54.17
606.24	54.17
606.576	54.11
606.912	54.21
607.248	54.29
607.583	54.29
607.919	54.32
608.255	54.41
608.591	54.53
608.926	54.6
609.262	54.64
609.597	54.69
609.933	54.68
610.268	54.66
610.604	54.74
610.939	54.81
611.275	54.95
611.61	54.95
611.945	55.06
612.281	55.09
612.616	55.06
612.951	55.13
613.286	55.21
613.621	55.29
613.956	55.24
614.291	55.26
614.626	55.33
614.961	55.22
615.296	55.28
615.631	55.31
615.966	55.3
616.3	55.29
616.635	55.27
616.97	55.34
617.304	55.48
617.639	55.55
617.973	55.51
618.308	55.56
618.642	55.61
618.977	55.65
619.311	55.77
619.646	55.86
619.98	55.86
620.314	55.9
620.648	55.97
620.983	56.05
621.317	56.04
621.651	56.11
621.985	56.21
622.319	56.13
622.653	56.05
622.987	56.1
623.321	56.21
623.655	56.32
623.988	56.28
624.322	56.26
624.656	56.12
624.99	56.13
625.323	56.08
625.657	56.07
625.99	56.08
626.324	56.11
626.657	56.07
626.991	56.15
627.324	56.06
627.658	56.06
627.991	56.13
628.324	56.22
628.657	56.24
628.991	56.32
629.324	56.44
629.657	56.52
629.99	56.57
630.323	56.54
630.656	56.49
630.989	56.58
631.322	56.46
631.655	56.58
631.987	56.59
632.32	56.57
632.653	56.65
632.986	56.6
633.318	56.5
633.651	56.59
633.984	56.56
634.316	56.64
634.649	56.7
634.981	56.59
635.313	56.45
635.646	56.43
635.978	56.31
636.31	56.21
636.643	56.16
636.975	56.17
637.307	56.26
637.639	56.26
637.971	56.22
638.303	56.34
638.635	56.34
638.967	56.42
639.299	56.5
639.631	56.47
639.963	56.47
640.295	56.56
640.626	56.44
640.958	56.44
641.29	56.47
641.621	56.5
641.953	56.61
642.285	56.69
642.616	56.6
642.948	56.72
643.279	56.81
643.61	56.86
643.942	56.82
644.273	56.72
644.604	56.56
644.936	56.52
645.267	56.57
645.598	56.51
645.929	56.57
646.26	56.63
646.591	56.51
646.922	56.52
647.253	56.48
647.584	56.69
647.915	56.67
648.245	56.7
648.576	56.7
648.907	56.73
649.238	56.75
649.568	56.92
649.899	56.86
650.229	56.79
650.56	56.72
650.89	56.77
651.221	56.76
651.551	56.96
651.882	57.08
652.212	57.09
652.542	57.18
652.872	57.1
653.203	57.09
653.533	57.18
653.863	57.15
654.193	57.11
654.523	57.1
654.853	57.08
655.183	57.13
655.513	57.04
655.843	56.92
656.172	57
656.502	57
656.832	57.08
657.162	57.12
657.491	57.2
657.821	57.21
658.15	57.28
658.48	57.31
658.809	57.29
659.139	57.28
659.468	57.33
659.798	57.34
660.127	57.39
660.456	57.5
660.785	57.6
661.115	57.63
661.444	57.55
661.773	57.54
662.102	57.47
662.431	57.58
662.76	57.72
663.089	57.66
663.418	57.66
663.747	57.56
664.076	57.66
664.404	57.57
664.733	57.52
