Data from BU58140_Reflection_00008.txt Node
Date: Tue Nov 19 10:53:35 EST 2019
User: vgr7
Spectrometer: USB2G7710
Scans to average: 3
Trigger mode: 4
Integration Time (sec): 2.000000E-2
Electric dark correction enabled: true
Boxcar width: 10
XAxis mode: Wavelengths
Number of Pixels in Spectrum: 2048
>>>>>Begin Spectral Data<<<<<
177.721	514.41
178.105	-214.1
178.488	-85.77
178.871	-52.38
179.254	211.11
179.636	92.91
180.019	87.18
180.402	866.67
180.785	245.83
181.168	698.96
181.55	-1129.17
181.933	-226.39
182.316	-96.58
182.698	-181.89
183.081	-107.65
183.463	-78.39
183.846	-184.15
184.228	-202.08
184.611	-1156.41
184.993	336.67
185.376	206.43
185.758	123.22
186.14	270.83
186.522	153.99
186.904	48.72
187.287	-1.92
187.669	33.33
188.051	31.32
188.433	28.1
188.815	17.4
189.197	-3.8
189.579	-12.3
189.961	-1.48
190.342	-9.74
190.724	-14.7
191.106	-35.96
191.488	-38.59
191.869	-33.23
192.251	-31.6
192.633	-34.39
193.014	-39.82
193.396	-50.72
193.777	-37.29
194.159	-28.05
194.54	-12.55
194.922	-27.59
195.303	-23.23
195.684	-35.11
196.065	-24.46
196.447	-19.22
196.828	-22.94
197.209	-24.51
197.59	-21.7
197.971	-23.33
198.352	-24.81
198.733	-23.17
199.114	-19.2
199.495	-20.01
199.876	-28.39
200.257	-24.83
200.638	-19.6
201.018	-16.91
201.399	-3.86
201.78	-11.33
202.16	-4.51
202.541	-14.58
202.922	1.53
203.302	0.07
203.683	-0.34
204.063	-8.43
204.444	-7.42
204.824	-3.47
205.204	1.12
205.585	3.07
205.965	7.48
206.345	8.83
206.725	21.92
207.106	20.48
207.486	24.42
207.866	35.47
208.246	36.2
208.626	28.16
209.006	28.01
209.386	25.89
209.766	35.92
210.145	26.18
210.525	16.12
210.905	9.84
211.285	12.06
211.664	17.2
212.044	12.86
212.424	11.59
212.803	9.85
213.183	7.6
213.562	8.02
213.942	7.11
214.321	0.25
214.701	-27.1
215.08	-23.35
215.459	-9.12
215.838	-17.88
216.218	-29.04
216.597	-27.22
216.976	-24.32
217.355	-33.26
217.734	-35.83
218.113	-15.48
218.492	-6.98
218.871	-0.35
219.25	-14
219.629	-18.5
220.008	-12.56
220.387	-9.06
220.766	-8.78
221.144	-12
221.523	-14.99
221.902	-15.16
222.28	-2.95
222.659	17.63
223.037	13.13
223.416	9.19
223.794	4.36
224.173	7.24
224.551	3.13
224.929	-1.96
225.308	2.1
225.686	2.25
226.064	-2.9
226.442	0.34
226.821	5.81
227.199	8.83
227.577	8.14
227.955	12.52
228.333	8.21
228.711	4.45
229.089	7.2
229.467	6.13
229.845	2.57
230.222	2.32
230.6	-1.19
230.978	2.54
231.356	2.34
231.733	2.83
232.111	1.71
232.488	2.97
232.866	3.85
233.243	2.22
233.621	2.72
233.998	3.14
234.376	1.16
234.753	-1.7
235.13	-0.93
235.508	-0.36
235.885	-1.1
236.262	0.01
236.639	1.95
237.016	0.74
237.393	2.47
237.77	3.73
238.147	3.8
238.524	4.95
238.901	4.05
239.278	2.83
239.655	3.58
240.032	4.3
240.409	4.99
240.785	5.05
241.162	5.89
241.539	5.3
241.915	5.27
242.292	5.51
242.668	5.8
243.045	6.17
243.421	6.35
243.798	6.13
244.174	6.18
244.551	6.08
244.927	6.22
245.303	5.78
245.679	5.87
246.056	5.8
246.432	5.57
246.808	5.65
247.184	5.96
247.56	6.05
247.936	5.86
248.312	5.81
248.688	5.86
249.064	5.52
249.44	5.67
249.815	5.76
250.191	5.79
250.567	5.47
250.943	5.33
251.318	5.09
251.694	5
252.069	4.59
252.445	4.38
252.82	4.29
253.196	4.38
253.571	4.2
253.947	4.3
254.322	4.42
254.697	4.17
255.073	3.96
255.448	3.78
255.823	3.9
256.198	3.87
256.573	3.86
256.948	4.11
257.323	3.94
257.698	3.83
258.073	3.7
258.448	4.02
258.823	3.93
259.198	4.05
259.573	3.93
259.948	4.06
260.322	4
260.697	4.08
261.072	4.01
261.446	4
261.821	3.85
262.195	3.7
262.57	3.85
262.944	3.98
263.319	3.97
263.693	3.94
264.067	3.88
264.442	3.81
264.816	3.64
265.19	3.62
265.564	3.52
265.938	3.61
266.313	3.22
266.687	3.16
267.061	3.11
267.435	3.41
267.809	3.36
268.183	3.41
268.556	3.25
268.93	3.31
269.304	3.27
269.678	3.3
270.051	3.36
270.425	3.23
270.799	3.02
271.172	3.06
271.546	2.96
271.919	2.9
272.293	2.9
272.666	2.9
273.04	2.95
273.413	2.92
273.787	2.95
274.16	3.11
274.533	3.12
274.906	3.25
275.279	3.12
275.653	3.27
276.026	3.3
276.399	3.41
276.772	3.38
277.145	3.36
277.518	3.37
277.891	3.49
278.263	3.58
278.636	3.67
279.009	3.45
279.382	3.52
279.755	3.53
280.127	3.7
280.5	3.67
280.872	3.72
281.245	3.9
281.617	3.86
281.99	3.87
282.362	3.92
282.735	3.72
283.107	3.63
283.479	3.65
283.852	3.96
284.224	3.9
284.596	3.89
284.968	3.92
285.34	4.03
285.713	4
286.085	3.89
286.457	3.86
286.829	3.9
287.201	3.96
287.572	4.01
287.944	4.03
288.316	4.12
288.688	4.15
289.06	4.15
289.431	4.13
289.803	4.24
290.175	4.18
290.546	4.29
290.918	4.43
291.289	4.39
291.661	4.22
292.032	4.18
292.403	4.31
292.775	4.45
293.146	4.57
293.517	4.66
293.889	4.8
294.26	4.99
294.631	5.06
295.002	5.19
295.373	5.31
295.744	5.32
296.115	5.39
296.486	5.55
296.857	5.71
297.228	5.72
297.599	5.84
297.97	6.17
298.34	6.2
298.711	6.27
299.082	6.31
299.452	6.36
299.823	6.57
300.194	6.63
300.564	6.58
300.935	6.56
301.305	6.47
301.676	6.48
302.046	6.44
302.416	6.6
302.787	6.68
303.157	6.64
303.527	6.7
303.897	6.7
304.267	6.59
304.637	6.55
305.008	6.77
305.378	6.91
305.748	6.67
306.117	6.78
306.487	6.85
306.857	7.14
307.227	7.3
307.597	7.37
307.967	7.46
308.336	7.63
308.706	7.79
309.076	8.01
309.445	8.17
309.815	8.38
310.184	8.33
310.554	8.36
310.923	8.55
311.293	8.66
311.662	8.87
312.031	8.97
312.401	8.99
312.77	8.97
313.139	8.79
313.508	8.99
313.877	9.12
314.246	9.24
314.616	9.12
314.985	9.13
315.353	9.27
315.722	9.5
316.091	9.76
316.46	9.69
316.829	9.8
317.198	9.86
317.567	9.89
317.935	10.1
318.304	10.26
318.672	10.44
319.041	10.61
319.41	10.76
319.778	11
320.147	11.14
320.515	11.3
320.883	11.46
321.252	11.5
321.62	11.55
321.988	11.63
322.357	11.95
322.725	12
323.093	11.99
323.461	12.03
323.829	11.91
324.197	12.06
324.565	12.1
324.933	12.12
325.301	12.12
325.669	12.15
326.037	12.16
326.405	12.06
326.772	11.96
327.14	11.73
327.508	11.65
327.875	11.71
328.243	11.81
328.61	11.91
328.978	11.93
329.346	11.99
329.713	12
330.08	11.98
330.448	12.06
330.815	12.1
331.182	12.06
331.55	12.16
331.917	12.18
332.284	12.21
332.651	12.33
333.018	12.43
333.385	12.58
333.752	12.61
334.119	12.74
334.486	12.81
334.853	13.04
335.22	13.2
335.587	13.26
335.954	13.23
336.32	13.26
336.687	13.35
337.054	13.36
337.42	13.31
337.787	13.24
338.153	13.33
338.52	13.44
338.886	13.56
339.253	13.61
339.619	13.65
339.986	13.66
340.352	13.61
340.718	13.62
341.084	13.58
341.451	13.65
341.817	13.6
342.183	13.65
342.549	13.58
342.915	13.61
343.281	13.67
343.647	13.73
344.013	13.72
344.379	13.79
344.745	13.87
345.11	13.91
345.476	13.94
345.842	13.92
346.208	13.85
346.573	13.81
346.939	13.83
347.304	13.91
347.67	13.9
348.035	13.97
348.401	14.1
348.766	14.11
349.132	14.14
349.497	14.21
349.862	14.27
350.228	14.35
350.593	14.35
350.958	14.39
351.323	14.38
351.688	14.4
352.053	14.4
352.418	14.37
352.783	14.37
353.148	14.45
353.513	14.43
353.878	14.44
354.243	14.32
354.608	14.33
354.972	14.33
355.337	14.32
355.702	14.27
356.066	14.21
356.431	14.23
356.795	14.17
357.16	14.04
357.524	13.98
357.889	13.95
358.253	13.95
358.618	13.88
358.982	13.82
359.346	13.78
359.71	13.73
360.075	13.66
360.439	13.64
360.803	13.57
361.167	13.54
361.531	13.54
361.895	13.6
362.259	13.59
362.623	13.49
362.987	13.53
363.351	13.5
363.714	13.44
364.078	13.42
364.442	13.37
364.806	13.42
365.169	13.41
365.533	13.42
365.896	13.28
366.26	13.18
366.623	13.15
366.987	13.11
367.35	13.04
367.714	12.97
368.077	12.94
368.44	12.86
368.803	12.79
369.167	12.65
369.53	12.55
369.893	12.45
370.256	12.3
370.619	12.15
370.982	12.06
371.345	12.03
371.708	11.9
372.071	11.86
372.434	11.76
372.797	11.68
373.159	11.56
373.522	11.44
373.885	11.37
374.247	11.28
374.61	11.22
374.973	11.09
375.335	10.96
375.698	10.85
376.06	10.76
376.423	10.68
376.785	10.6
377.147	10.51
377.51	10.36
377.872	10.31
378.234	10.32
378.596	10.23
378.958	10.09
379.321	9.99
379.683	9.93
380.045	9.82
380.407	9.68
380.769	9.55
381.13	9.5
381.492	9.42
381.854	9.35
382.216	9.29
382.578	9.25
382.939	9.24
383.301	9.14
383.663	9.02
384.024	8.96
384.386	8.89
384.747	8.86
385.109	8.85
385.47	8.78
385.832	8.63
386.193	8.57
386.554	8.49
386.916	8.46
387.277	8.35
387.638	8.32
387.999	8.28
388.36	8.26
388.721	8.2
389.082	8.17
389.443	8.1
389.804	8.05
390.165	8
390.526	7.93
390.887	7.92
391.248	7.91
391.609	7.87
391.969	7.83
392.33	7.77
392.691	7.69
393.051	7.66
393.412	7.67
393.772	7.63
394.133	7.58
394.493	7.52
394.854	7.49
395.214	7.41
395.574	7.36
395.935	7.32
396.295	7.3
396.655	7.26
397.015	7.23
397.376	7.16
397.736	7.1
398.096	7.07
398.456	7.03
398.816	6.98
399.176	6.88
399.535	6.79
399.895	6.69
400.255	6.66
400.615	6.61
400.975	6.52
401.334	6.43
401.694	6.38
402.054	6.32
402.413	6.25
402.773	6.2
403.132	6.13
403.492	6.07
403.851	6.01
404.211	5.94
404.57	5.87
404.929	5.78
405.288	5.73
405.648	5.7
406.007	5.63
406.366	5.6
406.725	5.58
407.084	5.58
407.443	5.57
407.802	5.54
408.161	5.5
408.52	5.47
408.879	5.48
409.238	5.47
409.596	5.47
409.955	5.43
410.314	5.45
410.673	5.44
411.031	5.42
411.39	5.4
411.748	5.41
412.107	5.4
412.465	5.4
412.824	5.4
413.182	5.34
413.54	5.33
413.899	5.3
414.257	5.26
414.615	5.25
414.974	5.21
415.332	5.22
415.69	5.2
416.048	5.18
416.406	5.12
416.764	5.1
417.122	5.05
417.48	5.03
417.838	4.99
418.195	4.98
418.553	4.94
418.911	4.9
419.269	4.85
419.626	4.84
419.984	4.83
420.342	4.81
420.699	4.78
421.057	4.75
421.414	4.73
421.772	4.72
422.129	4.68
422.486	4.67
422.844	4.63
423.201	4.61
423.558	4.59
423.915	4.57
424.273	4.54
424.63	4.53
424.987	4.51
425.344	4.49
425.701	4.44
426.058	4.44
426.415	4.43
426.772	4.42
427.128	4.4
427.485	4.39
427.842	4.37
428.199	4.35
428.555	4.34
428.912	4.33
429.269	4.3
429.625	4.29
429.982	4.28
430.338	4.28
430.695	4.27
431.051	4.26
431.407	4.28
431.764	4.29
432.12	4.28
432.476	4.3
432.832	4.31
433.189	4.31
433.545	4.31
433.901	4.29
434.257	4.28
434.613	4.26
434.969	4.24
435.325	4.25
435.681	4.27
436.036	4.27
436.392	4.25
436.748	4.27
437.104	4.27
437.459	4.26
437.815	4.25
438.171	4.24
438.526	4.24
438.882	4.21
439.237	4.19
439.593	4.19
439.948	4.18
440.304	4.18
440.659	4.19
441.014	4.18
441.369	4.18
441.725	4.2
442.08	4.21
442.435	4.21
442.79	4.18
443.145	4.17
443.5	4.17
443.855	4.17
444.21	4.15
444.565	4.14
444.92	4.13
445.275	4.12
445.629	4.12
445.984	4.13
446.339	4.13
446.693	4.13
447.048	4.11
447.403	4.09
447.757	4.07
448.112	4.04
448.466	4.04
448.82	4.04
449.175	4
449.529	3.97
449.883	3.94
450.238	3.95
450.592	3.93
450.946	3.91
451.3	3.89
451.654	3.87
452.008	3.86
452.362	3.83
452.716	3.84
453.07	3.84
453.424	3.83
453.778	3.81
454.132	3.79
454.486	3.79
454.839	3.8
455.193	3.82
455.547	3.83
455.9	3.83
456.254	3.82
456.607	3.84
456.961	3.85
457.314	3.86
457.668	3.87
458.021	3.87
458.375	3.88
458.728	3.89
459.081	3.9
459.434	3.9
459.787	3.93
460.141	3.93
460.494	3.91
460.847	3.89
461.2	3.88
461.553	3.91
461.906	3.92
462.259	3.89
462.611	3.9
462.964	3.91
463.317	3.91
463.67	3.93
464.022	3.92
464.375	3.91
464.728	3.94
465.08	3.93
465.433	3.96
465.785	3.97
466.138	3.98
466.49	3.99
466.843	4.03
467.195	4.05
467.547	4.06
467.899	4.09
468.252	4.15
468.604	4.19
468.956	4.19
469.308	4.19
469.66	4.24
470.012	4.26
470.364	4.26
470.716	4.29
471.068	4.31
471.42	4.33
471.772	4.38
472.123	4.37
472.475	4.42
472.827	4.42
473.178	4.44
473.53	4.45
473.882	4.45
474.233	4.44
474.585	4.43
474.936	4.44
475.288	4.43
475.639	4.41
475.99	4.39
476.342	4.41
476.693	4.4
477.044	4.41
477.395	4.4
477.746	4.37
478.097	4.35
478.448	4.34
478.8	4.35
479.15	4.33
479.501	4.35
479.852	4.32
480.203	4.29
480.554	4.28
480.905	4.28
481.255	4.28
481.606	4.28
481.957	4.28
482.307	4.27
482.658	4.28
483.009	4.28
483.359	4.28
483.709	4.28
484.06	4.28
484.41	4.28
484.761	4.28
485.111	4.29
485.461	4.28
485.811	4.27
486.162	4.27
486.512	4.27
486.862	4.26
487.212	4.26
487.562	4.27
487.912	4.27
488.262	4.26
488.612	4.25
488.961	4.26
489.311	4.25
489.661	4.25
490.011	4.25
490.36	4.25
490.71	4.25
491.06	4.24
491.409	4.24
491.759	4.24
492.108	4.26
492.458	4.27
492.807	4.27
493.157	4.28
493.506	4.3
493.855	4.31
494.204	4.32
494.554	4.34
494.903	4.35
495.252	4.38
495.601	4.42
495.95	4.46
496.299	4.47
496.648	4.51
496.997	4.53
497.346	4.57
497.695	4.61
498.043	4.66
498.392	4.72
498.741	4.78
499.09	4.86
499.438	4.9
499.787	4.97
500.135	5.06
500.484	5.12
500.832	5.19
501.181	5.27
501.529	5.35
501.878	5.41
502.226	5.52
502.574	5.61
502.923	5.69
503.271	5.78
503.619	5.91
503.967	6.02
504.315	6.13
504.663	6.25
505.011	6.34
505.359	6.46
505.707	6.58
506.055	6.71
506.403	6.83
506.751	6.95
507.098	7.08
507.446	7.23
507.794	7.37
508.141	7.51
508.489	7.68
508.837	7.81
509.184	7.98
509.531	8.11
509.879	8.27
510.226	8.42
510.574	8.57
510.921	8.72
511.268	8.87
511.616	9.04
511.963	9.21
512.31	9.4
512.657	9.57
513.004	9.74
513.351	9.9
513.698	10.08
514.045	10.28
514.392	10.48
514.739	10.68
515.086	10.9
515.432	11.11
515.779	11.29
516.126	11.53
516.473	11.74
516.819	11.93
517.166	12.12
517.512	12.35
517.859	12.52
518.205	12.68
518.552	12.88
518.898	13.05
519.245	13.22
519.591	13.4
519.937	13.58
520.283	13.77
520.629	13.96
520.976	14.2
521.322	14.42
521.668	14.64
522.014	14.87
522.36	15.07
522.706	15.31
523.052	15.56
523.398	15.84
523.743	16.09
524.089	16.38
524.435	16.63
524.781	16.87
525.126	17.1
525.472	17.34
525.817	17.54
526.163	17.75
526.509	17.92
526.854	18.08
527.199	18.25
527.545	18.41
527.89	18.55
528.235	18.7
528.581	18.87
528.926	19.03
529.271	19.21
529.616	19.41
529.961	19.58
530.306	19.76
530.651	19.92
530.996	20.1
531.341	20.3
531.686	20.49
532.031	20.67
532.376	20.88
532.721	21.09
533.065	21.31
533.41	21.51
533.755	21.74
534.099	21.99
534.444	22.21
534.788	22.45
535.133	22.72
535.477	22.96
535.822	23.19
536.166	23.42
536.51	23.69
536.855	23.92
537.199	24.2
537.543	24.51
537.887	24.8
538.231	25.1
538.576	25.38
538.92	25.69
539.264	25.97
539.608	26.23
539.951	26.47
540.295	26.73
540.639	26.97
540.983	27.21
541.327	27.43
541.671	27.68
542.014	27.89
542.358	28.06
542.701	28.28
543.045	28.52
543.389	28.76
543.732	28.95
544.075	29.18
544.419	29.41
544.762	29.62
545.105	29.86
545.449	30.11
545.792	30.38
546.135	30.62
546.478	30.91
546.821	31.23
547.165	31.52
547.508	31.78
547.851	32.06
548.194	32.31
548.536	32.53
548.879	32.81
549.222	33.1
549.565	33.47
549.908	33.7
550.25	33.95
550.593	34.23
550.936	34.51
551.278	34.75
551.621	35.03
551.963	35.3
552.306	35.53
552.648	35.76
552.991	35.96
553.333	36.24
553.675	36.48
554.017	36.65
554.36	36.86
554.702	37.08
555.044	37.3
555.386	37.56
555.728	37.78
556.07	37.99
556.412	38.2
556.754	38.31
557.096	38.53
557.438	38.7
557.78	38.92
558.121	39.18
558.463	39.43
558.805	39.62
559.147	39.79
559.488	40.02
559.83	40.22
560.171	40.39
560.513	40.6
560.854	40.72
561.196	40.99
561.537	41.13
561.878	41.27
562.22	41.47
562.561	41.68
562.902	41.87
563.243	42.05
563.584	42.23
563.925	42.44
564.266	42.61
564.607	42.77
564.948	42.86
565.289	42.96
565.63	43.09
565.971	43.25
566.312	43.42
566.653	43.54
566.993	43.67
567.334	43.83
567.675	43.95
568.015	44.09
568.356	44.2
568.696	44.38
569.037	44.53
569.377	44.65
569.718	44.71
570.058	44.88
570.398	45.02
570.739	45.11
571.079	45.27
571.419	45.37
571.759	45.48
572.099	45.65
572.439	45.79
572.779	45.88
573.119	45.97
573.459	46.08
573.799	46.18
574.139	46.27
574.479	46.35
574.819	46.44
575.158	46.55
575.498	46.63
575.838	46.71
576.177	46.83
576.517	46.93
576.856	47.08
577.196	47.15
577.535	47.21
577.875	47.32
578.214	47.44
578.553	47.58
578.893	47.64
579.232	47.69
579.571	47.73
579.91	47.84
580.25	47.94
580.589	47.97
580.928	48.11
581.267	48.22
581.606	48.3
581.945	48.41
582.283	48.55
582.622	48.65
582.961	48.73
583.3	48.78
583.639	48.83
583.977	48.91
584.316	49.01
584.654	49.12
584.993	49.17
585.332	49.19
585.67	49.19
586.008	49.34
586.347	49.37
586.685	49.49
587.024	49.61
587.362	49.7
587.7	49.78
588.038	49.83
588.376	49.98
588.715	50.12
589.053	50.24
589.391	50.27
589.729	50.34
590.067	50.41
590.404	50.51
590.742	50.62
591.08	50.57
591.418	50.6
591.756	50.61
592.093	50.65
592.431	50.73
592.769	50.78
593.106	50.83
593.444	50.97
593.781	50.98
594.119	50.91
594.456	50.93
594.793	50.98
595.131	51.06
595.468	50.99
595.805	51.02
596.143	51.02
596.48	51.07
596.817	51.1
597.154	51.1
597.491	51.15
597.828	51.18
598.165	51.32
598.502	51.37
598.839	51.37
599.176	51.46
599.512	51.44
599.849	51.54
600.186	51.56
600.523	51.5
600.859	51.56
601.196	51.65
601.532	51.7
601.869	51.75
602.205	51.76
602.542	51.88
602.878	51.88
603.215	51.9
603.551	51.93
603.887	51.99
604.223	52.04
604.56	52.03
604.896	52.05
605.232	52.04
605.568	52.08
605.904	52.21
606.24	52.21
606.576	52.22
606.912	52.23
607.248	52.26
607.583	52.41
607.919	52.47
608.255	52.51
608.591	52.61
608.926	52.69
609.262	52.69
609.597	52.67
609.933	52.7
610.268	52.76
610.604	52.76
610.939	52.73
611.275	52.71
611.61	52.71
611.945	52.73
612.281	52.76
612.616	52.76
612.951	52.73
613.286	52.74
613.621	52.8
613.956	52.83
614.291	52.84
614.626	52.76
614.961	52.7
615.296	52.69
615.631	52.64
615.966	52.57
616.3	52.69
616.635	52.71
616.97	52.74
617.304	52.79
617.639	52.79
617.973	52.89
618.308	52.96
618.642	52.98
618.977	52.99
619.311	52.98
619.646	53.09
619.98	53.05
620.314	53.12
620.648	53.14
620.983	53.17
621.317	53.29
621.651	53.41
621.985	53.44
622.319	53.48
622.653	53.43
622.987	53.39
623.321	53.36
623.655	53.43
623.988	53.53
624.322	53.57
624.656	53.53
624.99	53.44
625.323	53.47
625.657	53.46
625.99	53.47
626.324	53.46
626.657	53.41
626.991	53.5
627.324	53.5
627.658	53.47
627.991	53.46
628.324	53.38
628.657	53.35
628.991	53.38
629.324	53.47
629.657	53.43
629.99	53.52
630.323	53.51
630.656	53.57
630.989	53.56
631.322	53.44
631.655	53.55
631.987	53.59
632.32	53.57
632.653	53.65
632.986	53.73
633.318	53.76
633.651	53.8
633.984	53.81
634.316	53.76
634.649	53.88
634.981	53.84
635.313	53.78
635.646	53.79
635.978	53.81
636.31	53.66
636.643	53.8
636.975	53.84
637.307	53.84
637.639	53.75
637.971	53.74
638.303	53.82
638.635	53.76
638.967	53.8
639.299	53.8
639.631	53.76
639.963	53.75
640.295	53.77
640.626	53.81
640.958	53.74
641.29	53.79
641.621	53.81
641.953	53.95
642.285	54.06
642.616	54.07
642.948	53.98
643.279	54.08
643.61	54.05
643.942	53.95
644.273	53.99
644.604	53.9
644.936	53.84
645.267	53.89
645.598	53.97
645.929	54
646.26	54.06
646.591	54.1
646.922	54.16
647.253	54.16
647.584	54.06
647.915	54.18
648.245	54.15
648.576	54.08
648.907	54
649.238	53.99
649.568	54.09
649.899	54.08
650.229	54.16
650.56	54.17
650.89	54.21
651.221	54.17
651.551	54.31
651.882	54.36
652.212	54.31
652.542	54.31
652.872	54.25
653.203	54.19
653.533	54.19
653.863	54.07
654.193	54.07
654.523	54.23
654.853	54.22
655.183	54.22
655.513	54.24
655.843	54.36
656.172	54.36
656.502	54.27
656.832	54.36
657.162	54.38
657.491	54.52
657.821	54.6
658.15	54.66
658.48	54.56
658.809	54.45
659.139	54.51
659.468	54.47
659.798	54.6
660.127	54.75
660.456	54.71
660.785	54.73
661.115	54.88
661.444	54.88
661.773	54.83
662.102	54.84
662.431	54.9
662.76	54.85
663.089	54.95
663.418	55.03
663.747	54.97
664.076	54.95
664.404	54.92
664.733	54.89
665.062	54.85
