Data from BU58140_Reflection_00007.txt Node
Date: Tue Nov 19 10:53:33 EST 2019
User: vgr7
Spectrometer: USB2G7710
Scans to average: 3
Trigger mode: 4
Integration Time (sec): 2.000000E-2
Electric dark correction enabled: true
Boxcar width: 10
XAxis mode: Wavelengths
Number of Pixels in Spectrum: 2048
>>>>>Begin Spectral Data<<<<<
177.721	-71.17
178.105	-8.97
178.488	-39.07
178.871	-47.62
179.254	-311.11
179.636	139.01
180.019	-117.95
180.402	266.67
180.785	329.17
181.168	579.17
181.55	-733.33
181.933	-240.28
182.316	-11.11
182.698	-74.9
183.081	-65.3
183.463	-53.65
183.846	-140.44
184.228	-35.42
184.611	-489.74
184.993	143.33
185.376	41.77
185.758	31.69
186.14	104.17
186.522	60.09
186.904	-6.41
187.287	25.66
187.669	19.3
188.051	-17.25
188.433	-9.48
188.815	-25.37
189.197	-44.01
189.579	-38.77
189.961	-62.63
190.342	-57.86
190.724	-91.38
191.106	-98.62
191.488	-94.74
191.869	-67.75
192.251	-58.02
192.633	-49.43
193.014	-55.48
193.396	-56.22
193.777	-55.88
194.159	-44.67
194.54	-30.27
194.922	-30.89
195.303	-32.83
195.684	-38.56
196.065	-21.02
196.447	-25.83
196.828	-28.3
197.209	-10.85
197.59	-8.5
197.971	1.1
198.352	10.2
198.733	11.55
199.114	11.49
199.495	12.1
199.876	6.84
200.257	12.48
200.638	6.64
201.018	-8.04
201.399	-4.21
201.78	-11.66
202.16	-20.49
202.541	-28.95
202.922	-15.52
203.302	-19.38
203.683	-20.07
204.063	-22.61
204.444	-18.16
204.824	-18.4
205.204	-23.34
205.585	-21.16
205.965	-22.91
206.345	-21.08
206.725	-21.5
207.106	-17.05
207.486	-19.47
207.866	-19.33
208.246	-17.77
208.626	-24.49
209.006	-7.68
209.386	0.45
209.766	6.32
210.145	14.65
210.525	12.57
210.905	11.18
211.285	13.38
211.664	12.17
212.044	15.65
212.424	19.34
212.803	15.78
213.183	20.47
213.562	24.38
213.942	32.39
214.321	29.57
214.701	19.85
215.08	1.12
215.459	11.51
215.838	-0.07
216.218	-0.08
216.597	8.67
216.976	-4.34
217.355	-18.99
217.734	-22.98
218.113	-16.76
218.492	-11.22
218.871	-9.22
219.25	-7.86
219.629	-15.68
220.008	-18.9
220.387	-21.38
220.766	-10.25
221.144	-13.52
221.523	-25.18
221.902	-40.2
222.28	-26.25
222.659	-5.03
223.037	15.39
223.416	6.56
223.794	12.56
224.173	4.8
224.551	4.3
224.929	0.49
225.308	-1.13
225.686	-1.81
226.064	-4.71
226.442	-4.44
226.821	-5.81
227.199	-6.97
227.577	-3.35
227.955	-1.84
228.333	-2.51
228.711	-2.6
229.089	-3.52
229.467	-1.31
229.845	0.26
230.222	-0.71
230.6	-2.07
230.978	-0.51
231.356	-2.48
231.733	-1.11
232.111	1.64
232.488	0.37
232.866	3.98
233.243	6.35
233.621	5.37
233.998	6.67
234.376	6.66
234.753	8.09
235.13	7.58
235.508	6.79
235.885	5.72
236.262	5.33
236.639	3.26
237.016	1.82
237.393	1.9
237.77	1.81
238.147	2.15
238.524	1.88
238.901	0.41
239.278	1.72
239.655	1.65
240.032	1.58
240.409	1.92
240.785	1.42
241.162	1.58
241.539	2.32
241.915	2.04
242.292	2.26
242.668	2.01
243.045	2.59
243.421	3.39
243.798	3.68
244.174	3.98
244.551	4.18
244.927	4.51
245.303	4.4
245.679	4.43
246.056	4.39
246.432	4.46
246.808	4.79
247.184	4.83
247.56	4.91
247.936	5
248.312	5.12
248.688	5.18
249.064	5.18
249.44	5.09
249.815	5.38
250.191	5.19
250.567	5.24
250.943	5.3
251.318	5.03
251.694	4.87
252.069	4.66
252.445	4.86
252.82	4.97
253.196	5.12
253.571	5.36
253.947	5.61
254.322	5.57
254.697	5.51
255.073	5.1
255.448	4.84
255.823	4.61
256.198	4.38
256.573	4.47
256.948	4.45
257.323	4.53
257.698	4.22
258.073	4.28
258.448	4.26
258.823	4.02
259.198	4.18
259.573	4.11
259.948	4.15
260.322	4.2
260.697	4.26
261.072	4.33
261.446	4.19
261.821	3.95
262.195	3.93
262.57	3.89
262.944	4.19
263.319	4.22
263.693	4.32
264.067	4.29
264.442	4.23
264.816	4.13
265.19	4
265.564	4.08
265.938	4.13
266.313	4.09
266.687	4.17
267.061	3.89
267.435	4.17
267.809	4.11
268.183	4.04
268.556	3.8
268.93	3.76
269.304	3.81
269.678	4.07
270.051	4.2
270.425	4.02
270.799	3.7
271.172	3.62
271.546	3.63
271.919	3.68
272.293	3.76
272.666	3.82
273.04	3.86
273.413	3.8
273.787	3.89
274.16	3.92
274.533	4.07
274.906	4.31
275.279	4.08
275.653	4.3
276.026	4.38
276.399	4.42
276.772	4.42
277.145	4.37
277.518	4.21
277.891	4.13
278.263	4.37
278.636	4.63
279.009	4.91
279.382	4.86
279.755	4.95
280.127	4.74
280.5	4.65
280.872	4.64
281.245	4.66
281.617	4.62
281.99	4.6
282.362	4.44
282.735	4.24
283.107	4.26
283.479	4.19
283.852	4.16
284.224	4.14
284.596	4.05
284.968	4.18
285.34	4.19
285.713	4.27
286.085	4.18
286.457	4.1
286.829	3.97
287.201	3.98
287.572	4.05
287.944	4.16
288.316	4.21
288.688	4.28
289.06	4.3
289.431	4.36
289.803	4.43
290.175	4.45
290.546	4.48
290.918	4.61
291.289	4.52
291.661	4.52
292.032	4.55
292.403	4.6
292.775	4.65
293.146	4.71
293.517	4.79
293.889	4.87
294.26	5.05
294.631	5.08
295.002	5.17
295.373	5.15
295.744	5.22
296.115	5.34
296.486	5.36
296.857	5.45
297.228	5.38
297.599	5.4
297.97	5.53
298.34	5.6
298.711	5.74
299.082	5.78
299.452	5.92
299.823	6.06
300.194	6.24
300.564	6.2
300.935	6.36
301.305	6.32
301.676	6.32
302.046	6.33
302.416	6.53
302.787	6.5
303.157	6.58
303.527	6.66
303.897	6.67
304.267	6.79
304.637	6.87
305.008	7.07
305.378	7.31
305.748	7.27
306.117	7.53
306.487	7.56
306.857	7.78
307.227	7.92
307.597	8.02
307.967	8.17
308.336	8.41
308.706	8.5
309.076	8.66
309.445	8.87
309.815	8.99
310.184	9.05
310.554	9.2
310.923	9.27
311.293	9.37
311.662	9.55
312.031	9.72
312.401	9.7
312.77	9.76
313.139	9.79
313.508	9.77
313.877	9.89
314.246	9.93
314.616	10.12
314.985	10.1
315.353	10.17
315.722	10.23
316.091	10.21
316.46	10.42
316.829	10.62
317.198	10.8
317.567	10.86
317.935	11.06
318.304	11.18
318.672	11.39
319.041	11.47
319.41	11.39
319.778	11.36
320.147	11.49
320.515	11.58
320.883	11.64
321.252	12.08
321.62	12.04
321.988	12.1
322.357	12.22
322.725	12.36
323.093	12.48
323.461	12.73
323.829	12.81
324.197	12.77
324.565	12.86
324.933	12.71
325.301	12.79
325.669	12.72
326.037	12.8
326.405	12.81
326.772	12.91
327.14	13.03
327.508	13.04
327.875	13.13
328.243	13.27
328.61	13.32
328.978	13.34
329.346	13.4
329.713	13.52
330.08	13.5
330.448	13.5
330.815	13.6
331.182	13.47
331.55	13.55
331.917	13.58
332.284	13.52
332.651	13.74
333.018	13.82
333.385	13.96
333.752	13.99
334.119	13.94
334.486	13.95
334.853	13.98
335.22	14.15
335.587	14.25
335.954	14.19
336.32	14.17
336.687	14.24
337.054	14.32
337.42	14.25
337.787	14.26
338.153	14.37
338.52	14.58
338.886	14.73
339.253	14.85
339.619	14.85
339.986	14.85
340.352	14.84
340.718	14.89
341.084	14.97
341.451	15.1
341.817	15.26
342.183	15.3
342.549	15.34
342.915	15.33
343.281	15.36
343.647	15.39
344.013	15.43
344.379	15.43
344.745	15.55
345.11	15.67
345.476	15.77
345.842	15.76
346.208	15.63
346.573	15.52
346.939	15.49
347.304	15.49
347.67	15.57
348.035	15.56
348.401	15.55
348.766	15.42
349.132	15.42
349.497	15.5
349.862	15.49
350.228	15.57
350.593	15.48
350.958	15.52
351.323	15.54
351.688	15.69
352.053	15.71
352.418	15.6
352.783	15.68
353.148	15.65
353.513	15.54
353.878	15.46
354.243	15.45
354.608	15.52
354.972	15.59
355.337	15.58
355.702	15.58
356.066	15.62
356.431	15.61
356.795	15.53
357.16	15.41
357.524	15.41
357.889	15.33
358.253	15.38
358.618	15.33
358.982	15.28
359.346	15.2
359.71	15.1
360.075	15.06
360.439	15.01
360.803	14.93
361.167	14.96
361.531	14.99
361.895	14.97
362.259	14.92
362.623	14.81
362.987	14.75
363.351	14.68
363.714	14.56
364.078	14.59
364.442	14.54
364.806	14.53
365.169	14.51
365.533	14.47
365.896	14.41
366.26	14.35
366.623	14.26
366.987	14.22
367.35	14.22
367.714	14.16
368.077	14.02
368.44	13.97
368.803	13.86
369.167	13.7
369.53	13.67
369.893	13.58
370.256	13.49
370.619	13.39
370.982	13.31
371.345	13.24
371.708	13.05
372.071	12.89
372.434	12.77
372.797	12.61
373.159	12.46
373.522	12.35
373.885	12.24
374.247	12.15
374.61	11.97
374.973	11.86
375.335	11.85
375.698	11.85
376.06	11.74
376.423	11.64
376.785	11.58
377.147	11.43
377.51	11.25
377.872	11.19
378.234	11.08
378.596	11.03
378.958	10.93
379.321	10.88
379.683	10.82
380.045	10.75
380.407	10.65
380.769	10.58
381.13	10.48
381.492	10.39
381.854	10.31
382.216	10.28
382.578	10.18
382.939	10.05
383.301	9.92
383.663	9.81
384.024	9.75
384.386	9.63
384.747	9.57
385.109	9.58
385.47	9.48
385.832	9.42
386.193	9.4
386.554	9.32
386.916	9.27
387.277	9.23
387.638	9.14
387.999	9.09
388.36	9.02
388.721	8.96
389.082	8.92
389.443	8.89
389.804	8.83
390.165	8.73
390.526	8.67
390.887	8.61
391.248	8.56
391.609	8.55
391.969	8.51
392.33	8.46
392.691	8.39
393.051	8.34
393.412	8.27
393.772	8.17
394.133	8.07
394.493	8.03
394.854	7.95
395.214	7.92
395.574	7.84
395.935	7.8
396.295	7.75
396.655	7.68
397.015	7.59
397.376	7.5
397.736	7.46
398.096	7.38
398.456	7.3
398.816	7.26
399.176	7.14
399.535	7.05
399.895	6.97
400.255	6.93
400.615	6.86
400.975	6.82
401.334	6.77
401.694	6.76
402.054	6.71
402.413	6.68
402.773	6.65
403.132	6.6
403.492	6.6
403.851	6.57
404.211	6.51
404.57	6.51
404.929	6.49
405.288	6.45
405.648	6.4
406.007	6.35
406.366	6.3
406.725	6.3
407.084	6.3
407.443	6.3
407.802	6.25
408.161	6.23
408.52	6.21
408.879	6.2
409.238	6.17
409.596	6.14
409.955	6.09
410.314	6.05
410.673	6.05
411.031	5.99
411.39	5.97
411.748	5.95
412.107	5.9
412.465	5.87
412.824	5.84
413.182	5.83
413.54	5.84
413.899	5.83
414.257	5.79
414.615	5.76
414.974	5.71
415.332	5.66
415.69	5.62
416.048	5.6
416.406	5.54
416.764	5.53
417.122	5.49
417.48	5.47
417.838	5.43
418.195	5.39
418.553	5.38
418.911	5.32
419.269	5.29
419.626	5.27
419.984	5.23
420.342	5.21
420.699	5.18
421.057	5.14
421.414	5.12
421.772	5.09
422.129	5.06
422.486	5.05
422.844	5.03
423.201	5
423.558	4.98
423.915	4.95
424.273	4.93
424.63	4.91
424.987	4.88
425.344	4.84
425.701	4.81
426.058	4.79
426.415	4.78
426.772	4.75
427.128	4.73
427.485	4.72
427.842	4.67
428.199	4.65
428.555	4.62
428.912	4.59
429.269	4.58
429.625	4.58
429.982	4.56
430.338	4.56
430.695	4.55
431.051	4.52
431.407	4.53
431.764	4.51
432.12	4.5
432.476	4.51
432.832	4.54
433.189	4.53
433.545	4.51
433.901	4.51
434.257	4.52
434.613	4.51
434.969	4.51
435.325	4.53
435.681	4.53
436.036	4.54
436.392	4.55
436.748	4.55
437.104	4.54
437.459	4.53
437.815	4.51
438.171	4.5
438.526	4.52
438.882	4.53
439.237	4.54
439.593	4.55
439.948	4.54
440.304	4.53
440.659	4.55
441.014	4.54
441.369	4.54
441.725	4.53
442.08	4.54
442.435	4.53
442.79	4.51
443.145	4.51
443.5	4.51
443.855	4.49
444.21	4.47
444.565	4.48
444.92	4.46
445.275	4.48
445.629	4.47
445.984	4.45
446.339	4.43
446.693	4.41
447.048	4.37
447.403	4.37
447.757	4.34
448.112	4.31
448.466	4.31
448.82	4.29
449.175	4.28
449.529	4.25
449.883	4.24
450.238	4.22
450.592	4.21
450.946	4.19
451.3	4.17
451.654	4.14
452.008	4.1
452.362	4.1
452.716	4.08
453.07	4.07
453.424	4.07
453.778	4.06
454.132	4.03
454.486	4.05
454.839	4.05
455.193	4.09
455.547	4.1
455.9	4.08
456.254	4.08
456.607	4.08
456.961	4.09
457.314	4.07
457.668	4.09
458.021	4.08
458.375	4.08
458.728	4.09
459.081	4.12
459.434	4.13
459.787	4.14
460.141	4.13
460.494	4.14
460.847	4.14
461.2	4.15
461.553	4.16
461.906	4.15
462.259	4.15
462.611	4.15
462.964	4.15
463.317	4.16
463.67	4.19
464.022	4.21
464.375	4.22
464.728	4.23
465.08	4.25
465.433	4.27
465.785	4.28
466.138	4.3
466.49	4.33
466.843	4.36
467.195	4.38
467.547	4.39
467.899	4.41
468.252	4.44
468.604	4.44
468.956	4.49
469.308	4.49
469.66	4.5
470.012	4.52
470.364	4.56
470.716	4.59
471.068	4.6
471.42	4.65
471.772	4.66
472.123	4.71
472.475	4.72
472.827	4.75
473.178	4.78
473.53	4.81
473.882	4.81
474.233	4.81
474.585	4.84
474.936	4.86
475.288	4.85
475.639	4.85
475.99	4.86
476.342	4.85
476.693	4.87
477.044	4.87
477.395	4.87
477.746	4.85
478.097	4.85
478.448	4.82
478.8	4.78
479.15	4.76
479.501	4.73
479.852	4.74
480.203	4.71
480.554	4.69
480.905	4.68
481.255	4.67
481.606	4.66
481.957	4.65
482.307	4.64
482.658	4.64
483.009	4.64
483.359	4.64
483.709	4.64
484.06	4.64
484.41	4.63
484.761	4.63
485.111	4.64
485.461	4.62
485.811	4.64
486.162	4.64
486.512	4.63
486.862	4.63
487.212	4.62
487.562	4.62
487.912	4.62
488.262	4.61
488.612	4.62
488.961	4.61
489.311	4.61
489.661	4.6
490.011	4.6
490.36	4.61
490.71	4.61
491.06	4.6
491.409	4.6
491.759	4.62
492.108	4.62
492.458	4.62
492.807	4.63
493.157	4.63
493.506	4.64
493.855	4.67
494.204	4.71
494.554	4.74
494.903	4.77
495.252	4.81
495.601	4.85
495.95	4.86
496.299	4.9
496.648	4.94
496.997	5
497.346	5.06
497.695	5.09
498.043	5.17
498.392	5.23
498.741	5.28
499.09	5.32
499.438	5.41
499.787	5.47
500.135	5.55
500.484	5.61
500.832	5.71
501.181	5.81
501.529	5.89
501.878	5.97
502.226	6.05
502.574	6.16
502.923	6.29
503.271	6.41
503.619	6.55
503.967	6.67
504.315	6.77
504.663	6.88
505.011	7.04
505.359	7.16
505.707	7.3
506.055	7.44
506.403	7.58
506.751	7.7
507.098	7.85
507.446	8
507.794	8.16
508.141	8.31
508.489	8.43
508.837	8.56
509.184	8.69
509.531	8.87
509.879	9.03
510.226	9.17
510.574	9.32
510.921	9.48
511.268	9.66
511.616	9.85
511.963	10.03
512.31	10.2
512.657	10.4
513.004	10.58
513.351	10.79
513.698	11.01
514.045	11.26
514.392	11.49
514.739	11.73
515.086	11.96
515.432	12.22
515.779	12.45
516.126	12.73
516.473	12.96
516.819	13.14
517.166	13.36
517.512	13.57
517.859	13.77
518.205	13.96
518.552	14.16
518.898	14.36
519.245	14.55
519.591	14.75
519.937	14.94
520.283	15.16
520.629	15.39
520.976	15.64
521.322	15.87
521.668	16.1
522.014	16.35
522.36	16.57
522.706	16.81
523.052	17.09
523.398	17.37
523.743	17.67
524.089	17.99
524.435	18.27
524.781	18.55
525.126	18.8
525.472	19.04
525.817	19.25
526.163	19.46
526.509	19.65
526.854	19.84
527.199	20.01
527.545	20.18
527.89	20.34
528.235	20.49
528.581	20.66
528.926	20.83
529.271	21.01
529.616	21.2
529.961	21.37
530.306	21.54
530.651	21.73
530.996	21.92
531.341	22.13
531.686	22.33
532.031	22.53
532.376	22.76
532.721	22.99
533.065	23.22
533.41	23.44
533.755	23.69
534.099	23.92
534.444	24.16
534.788	24.39
535.133	24.63
535.477	24.87
535.822	25.11
536.166	25.35
536.51	25.62
536.855	25.91
537.199	26.25
537.543	26.59
537.887	26.91
538.231	27.22
538.576	27.52
538.92	27.85
539.264	28.13
539.608	28.38
539.951	28.64
540.295	28.91
540.639	29.17
540.983	29.4
541.327	29.65
541.671	29.9
542.014	30.11
542.358	30.33
542.701	30.57
543.045	30.81
543.389	31.07
543.732	31.29
544.075	31.53
544.419	31.72
544.762	31.96
545.105	32.22
545.449	32.5
545.792	32.78
546.135	33.04
546.478	33.34
546.821	33.64
547.165	33.94
547.508	34.23
547.851	34.5
548.194	34.78
548.536	35.04
548.879	35.35
549.222	35.67
549.565	36
549.908	36.28
550.25	36.55
550.593	36.84
550.936	37.16
551.278	37.42
551.621	37.79
551.963	38.05
552.306	38.28
552.648	38.52
552.991	38.72
553.333	38.94
553.675	39.17
554.017	39.4
554.36	39.59
554.702	39.77
555.044	40.03
555.386	40.27
555.728	40.5
556.07	40.7
556.412	40.93
556.754	41.09
557.096	41.3
557.438	41.52
557.78	41.72
558.121	41.95
558.463	42.18
558.805	42.35
559.147	42.54
559.488	42.73
559.83	42.93
560.171	43.12
560.513	43.3
560.854	43.54
561.196	43.76
561.537	43.95
561.878	44.22
562.22	44.37
562.561	44.55
562.902	44.69
563.243	44.82
563.584	44.97
563.925	45.18
564.266	45.3
564.607	45.46
564.948	45.57
565.289	45.69
565.63	45.84
565.971	45.99
566.312	46.13
566.653	46.25
566.993	46.36
567.334	46.51
567.675	46.67
568.015	46.78
568.356	46.92
568.696	47.1
569.037	47.17
569.377	47.32
569.718	47.44
570.058	47.62
570.398	47.75
570.739	47.89
571.079	48.02
571.419	48.17
571.759	48.31
572.099	48.48
572.439	48.59
572.779	48.65
573.119	48.76
573.459	48.95
573.799	49.08
574.139	49.21
574.479	49.3
574.819	49.39
575.158	49.5
575.498	49.6
575.838	49.71
576.177	49.83
576.517	49.91
576.856	50.06
577.196	50.16
577.535	50.28
577.875	50.37
578.214	50.46
578.553	50.56
578.893	50.65
579.232	50.68
579.571	50.74
579.91	50.88
580.25	51.01
580.589	51.02
580.928	51.11
581.267	51.15
581.606	51.26
581.945	51.4
582.283	51.5
582.622	51.58
582.961	51.64
583.3	51.73
583.639	51.73
583.977	51.82
584.316	51.91
584.654	52.01
584.993	52.11
585.332	52.21
585.67	52.26
586.008	52.27
586.347	52.37
586.685	52.47
587.024	52.52
587.362	52.6
587.7	52.63
588.038	52.69
588.376	52.81
588.715	52.91
589.053	52.95
589.391	53.01
589.729	53.07
590.067	53.26
590.404	53.29
590.742	53.42
591.08	53.42
591.418	53.44
591.756	53.5
592.093	53.56
592.431	53.61
592.769	53.7
593.106	53.79
593.444	53.86
593.781	53.89
594.119	53.87
594.456	53.9
594.793	53.94
595.131	53.98
595.468	54.02
595.805	54.02
596.143	54.03
596.48	54.07
596.817	54.11
597.154	54.05
597.491	54.05
597.828	54.09
598.165	54.16
598.502	54.24
598.839	54.26
599.176	54.33
599.512	54.33
599.849	54.36
600.186	54.4
600.523	54.38
600.859	54.52
601.196	54.57
601.532	54.59
601.869	54.65
602.205	54.66
602.542	54.66
602.878	54.73
603.215	54.71
603.551	54.74
603.887	54.76
604.223	54.81
604.56	54.97
604.896	55.02
605.232	54.95
605.568	54.95
605.904	55.06
606.24	55.06
606.576	55.11
606.912	55.12
607.248	55.18
607.583	55.29
607.919	55.29
608.255	55.39
608.591	55.43
608.926	55.49
609.262	55.6
609.597	55.69
609.933	55.69
610.268	55.79
610.604	55.84
610.939	55.93
611.275	55.92
611.61	55.84
611.945	55.81
612.281	55.97
612.616	55.97
612.951	55.96
613.286	55.93
613.621	55.88
613.956	55.93
614.291	55.9
614.626	55.83
614.961	55.85
615.296	55.81
615.631	55.76
615.966	55.72
616.3	55.66
616.635	55.64
616.97	55.72
617.304	55.82
617.639	55.8
617.973	55.7
618.308	55.74
618.642	55.71
618.977	55.75
619.311	55.68
619.646	55.82
619.98	55.83
620.314	55.9
620.648	55.96
620.983	55.94
621.317	55.92
621.651	56.02
621.985	56.02
622.319	56.15
622.653	56.18
622.987	56.2
623.321	56.23
623.655	56.37
623.988	56.35
624.322	56.22
624.656	56.23
624.99	56.27
625.323	56.2
625.657	56.21
625.99	56.26
626.324	56.23
626.657	56.16
626.991	56.1
627.324	56.13
627.658	56.19
627.991	56.2
628.324	56.27
628.657	56.22
628.991	56.22
629.324	56.14
629.657	56.14
629.99	56.21
630.323	56.27
630.656	56.18
630.989	56.13
631.322	56.17
631.655	56.25
631.987	56.29
632.32	56.43
632.653	56.47
632.986	56.48
633.318	56.59
633.651	56.6
633.984	56.63
634.316	56.66
634.649	56.65
634.981	56.79
635.313	56.75
635.646	56.85
635.978	56.86
636.31	56.88
636.643	56.93
636.975	56.82
637.307	56.83
637.639	56.78
637.971	56.84
638.303	56.89
638.635	56.82
638.967	56.86
639.299	56.81
639.631	56.89
639.963	56.82
640.295	56.82
640.626	56.84
640.958	56.95
641.29	56.83
641.621	56.82
641.953	56.74
642.285	56.8
642.616	56.77
642.948	56.71
643.279	56.7
643.61	56.69
643.942	56.76
644.273	56.74
644.604	56.68
644.936	56.72
645.267	56.65
645.598	56.69
645.929	56.69
646.26	56.77
646.591	56.75
646.922	56.77
647.253	56.83
647.584	56.79
647.915	56.72
648.245	56.79
648.576	56.79
648.907	56.84
649.238	56.9
649.568	56.9
649.899	56.94
650.229	57.14
650.56	57.2
650.89	57.2
651.221	57.17
651.551	57.31
651.882	57.29
652.212	57.41
652.542	57.35
652.872	57.2
653.203	57.14
653.533	57.17
653.863	57.19
654.193	57.13
654.523	57.13
654.853	57.13
655.183	57.21
655.513	57.28
655.843	57.21
656.172	57.24
656.502	57.23
656.832	57.19
657.162	57.07
657.491	57.09
657.821	57.17
658.15	57.27
658.48	57.38
658.809	57.34
659.139	57.39
659.468	57.39
659.798	57.59
660.127	57.59
660.456	57.54
660.785	57.59
661.115	57.65
661.444	57.72
661.773	57.71
662.102	57.65
662.431	57.65
662.76	57.7
663.089	57.62
663.418	57.65
