Data from BU58140_Reflection_00011.txt Node
Date: Tue Nov 19 10:53:43 EST 2019
User: vgr7
Spectrometer: USB2G7710
Scans to average: 3
Trigger mode: 4
Integration Time (sec): 2.000000E-2
Electric dark correction enabled: true
Boxcar width: 10
XAxis mode: Wavelengths
Number of Pixels in Spectrum: 2048
>>>>>Begin Spectral Data<<<<<
177.721	187.84
178.105	-246.15
178.488	-108.6
178.871	-657.14
179.254	-516.67
179.636	461.7
180.019	580.77
180.402	600
180.785	218.75
181.168	21.87
181.55	381.25
181.933	235.42
182.316	116.03
182.698	140.12
183.081	102.05
183.463	86.33
183.846	112.3
184.228	72.66
184.611	119.23
184.993	-35
185.376	-89.76
185.758	-57.79
186.14	-31.25
186.522	75.35
186.904	40.38
187.287	44.24
187.669	11.84
188.051	-9.3
188.433	-43.38
188.815	-60.4
189.197	-63.38
189.579	-49.14
189.961	-54.23
190.342	-41.73
190.724	-47.34
191.106	-60.71
191.488	-65.77
191.869	-67.48
192.251	-70.75
192.633	-59.81
193.014	-66.95
193.396	-72.44
193.777	-62.77
194.159	-48.83
194.54	-58.76
194.922	-51.84
195.303	-56.82
195.684	-54.59
196.065	-50.52
196.447	-30.57
196.828	-26.86
197.209	-17.68
197.59	-31.81
197.971	-24.7
198.352	-29.57
198.733	-31.03
199.114	-25.8
199.495	-19.17
199.876	-13.31
200.257	-19.77
200.638	-30.21
201.018	-34.46
201.399	-27.85
201.78	-32.12
202.16	-44.27
202.541	-53.56
202.922	-44.57
203.302	-38.33
203.683	-30.1
204.063	-28.16
204.444	-29.42
204.824	-26.56
205.204	-28.41
205.585	-11.26
205.965	-10.72
206.345	-1.2
206.725	12.29
207.106	25.1
207.486	26.24
207.866	22.67
208.246	23.52
208.626	26.27
209.006	32.4
209.386	23.24
209.766	21.98
210.145	27.77
210.525	29.1
210.905	19.34
211.285	17.46
211.664	14.68
212.044	9.68
212.424	7.45
212.803	0.8
213.183	6.58
213.562	7.87
213.942	7.85
214.321	1.05
214.701	-10.16
215.08	-14.58
215.459	-4.29
215.838	-8.44
216.218	-3.27
216.597	-1.81
216.976	-7.22
217.355	-5.29
217.734	-4.07
218.113	-8.93
218.492	-20.84
218.871	-21.81
219.25	-33.66
219.629	-37.66
220.008	-32.77
220.387	-44.02
220.766	-45.46
221.144	-53.19
221.523	-54.48
221.902	-59.33
222.28	-41.15
222.659	-28.11
223.037	-32.85
223.416	-33.46
223.794	-29.62
224.173	-30.32
224.551	-22.2
224.929	-22.82
225.308	-14.38
225.686	-11.7
226.064	-7.88
226.442	0.77
226.821	1.15
227.199	3.68
227.577	6.45
227.955	9.29
228.333	12.16
228.711	13.97
229.089	12.14
229.467	9.32
229.845	10.29
230.222	7.62
230.6	4.02
230.978	5.46
231.356	3.96
231.733	7.12
232.111	7.03
232.488	5.26
232.866	8.46
233.243	7.99
233.621	7.34
233.998	5.19
234.376	4.1
234.753	4.11
235.13	4.81
235.508	4.3
235.885	2.15
236.262	1.25
236.639	1.17
237.016	3.11
237.393	4.8
237.77	3.95
238.147	4.65
238.524	6.02
238.901	5.75
239.278	5.89
239.655	4.26
240.032	4.5
240.409	4.72
240.785	4.16
241.162	4.14
241.539	4.09
241.915	4.69
242.292	4.54
242.668	4.41
243.045	4.44
243.421	4.68
243.798	4.94
244.174	5.24
244.551	5.18
244.927	4.83
245.303	4.7
245.679	4.71
246.056	4.76
246.432	4.54
246.808	4.68
247.184	4.58
247.56	4.68
247.936	4.5
248.312	4.4
248.688	4.35
249.064	4.4
249.44	4.52
249.815	4.44
250.191	4.62
250.567	4.71
250.943	4.47
251.318	4.36
251.694	4.35
252.069	4.49
252.445	4.68
252.82	5
253.196	4.82
253.571	5.14
253.947	4.79
254.322	4.89
254.697	4.43
255.073	4.41
255.448	4.41
255.823	4.77
256.198	4.83
256.573	4.89
256.948	4.71
257.323	4.74
257.698	4.67
258.073	4.45
258.448	4.64
258.823	4.67
259.198	4.73
259.573	4.47
259.948	4.21
260.322	4.17
260.697	4.2
261.072	4.28
261.446	4.13
261.821	4.18
262.195	4.14
262.57	4.25
262.944	4.32
263.319	4.39
263.693	4.28
264.067	4.14
264.442	4.11
264.816	4.08
265.19	3.83
265.564	3.83
265.938	3.99
266.313	3.79
266.687	3.9
267.061	3.97
267.435	4.24
267.809	4.58
268.183	4.38
268.556	4.18
268.93	4.09
269.304	4.03
269.678	4.12
270.051	4.13
270.425	4.1
270.799	3.98
271.172	4
271.546	4.1
271.919	4.21
272.293	4.11
272.666	4.11
273.04	4.24
273.413	4.33
273.787	4.3
274.16	4.29
274.533	4.26
274.906	4.18
275.279	4.19
275.653	4.08
276.026	4.14
276.399	4.07
276.772	4.23
277.145	4.24
277.518	4.12
277.891	3.96
278.263	3.97
278.636	4.25
279.009	4.12
279.382	3.98
279.755	3.97
280.127	3.95
280.5	3.79
280.872	3.85
281.245	3.81
281.617	3.78
281.99	3.82
282.362	3.8
282.735	3.8
283.107	3.75
283.479	3.56
283.852	3.58
284.224	3.69
284.596	3.65
284.968	3.71
285.34	3.77
285.713	3.84
286.085	3.86
286.457	3.76
286.829	3.73
287.201	3.7
287.572	3.69
287.944	3.87
288.316	4
288.688	4
289.06	3.97
289.431	3.98
289.803	4.13
290.175	4.19
290.546	4.21
290.918	4.28
291.289	4.36
291.661	4.37
292.032	4.41
292.403	4.4
292.775	4.57
293.146	4.56
293.517	4.63
293.889	4.68
294.26	4.6
294.631	4.82
295.002	4.9
295.373	4.95
295.744	4.95
296.115	5.14
296.486	5.2
296.857	5.42
297.228	5.45
297.599	5.39
297.97	5.36
298.34	5.32
298.711	5.28
299.082	5.3
299.452	5.33
299.823	5.35
300.194	5.63
300.564	5.56
300.935	5.67
301.305	5.76
301.676	5.7
302.046	5.77
302.416	5.86
302.787	6.01
303.157	6.04
303.527	6.11
303.897	5.97
304.267	5.96
304.637	5.88
305.008	5.86
305.378	5.88
305.748	5.91
306.117	6.04
306.487	6.32
306.857	6.47
307.227	6.61
307.597	6.67
307.967	6.57
308.336	6.65
308.706	6.7
309.076	6.64
309.445	6.74
309.815	6.97
310.184	6.84
310.554	6.79
310.923	6.89
311.293	6.92
311.662	7.11
312.031	7.11
312.401	7.12
312.77	7.21
313.139	7.34
313.508	7.43
313.877	7.48
314.246	7.29
314.616	7.35
314.985	7.36
315.353	7.41
315.722	7.4
316.091	7.59
316.46	7.71
316.829	7.9
317.198	8.22
317.567	8.27
317.935	8.37
318.304	8.6
318.672	8.67
319.041	8.66
319.41	8.7
319.778	8.84
320.147	8.94
320.515	8.95
320.883	8.89
321.252	9
321.62	9.1
321.988	9.42
322.357	9.58
322.725	9.72
323.093	9.8
323.461	9.98
323.829	9.83
324.197	9.95
324.565	9.92
324.933	9.77
325.301	9.63
325.669	9.68
326.037	9.72
326.405	9.81
326.772	9.99
327.14	9.88
327.508	10.06
327.875	10.1
328.243	10.25
328.61	10.32
328.978	10.16
329.346	10.23
329.713	10.2
330.08	10.26
330.448	10.26
330.815	10.25
331.182	10.31
331.55	10.47
331.917	10.38
332.284	10.52
332.651	10.66
333.018	10.73
333.385	10.82
333.752	10.69
334.119	10.71
334.486	10.73
334.853	10.9
335.22	10.79
335.587	10.81
335.954	10.74
336.32	10.88
336.687	11.19
337.054	11.26
337.42	11.3
337.787	11.14
338.153	11.21
338.52	11.35
338.886	11.2
339.253	11.16
339.619	11.23
339.986	11.15
340.352	11.11
340.718	11.23
341.084	11.1
341.451	11.22
341.817	11.18
342.183	11.15
342.549	11.24
342.915	11.28
343.281	11.33
343.647	11.49
344.013	11.44
344.379	11.35
344.745	11.25
345.11	11.25
345.476	11.34
345.842	11.26
346.208	11.25
346.573	11.29
346.939	11.39
347.304	11.32
347.67	11.33
348.035	11.36
348.401	11.34
348.766	11.45
349.132	11.6
349.497	11.7
349.862	11.74
350.228	11.61
350.593	11.64
350.958	11.57
351.323	11.5
351.688	11.45
352.053	11.46
352.418	11.45
352.783	11.4
353.148	11.35
353.513	11.35
353.878	11.24
354.243	11.15
354.608	11.06
354.972	11.07
355.337	11.14
355.702	11.08
356.066	10.99
356.431	10.9
356.795	10.75
357.16	10.62
357.524	10.6
357.889	10.54
358.253	10.49
358.618	10.47
358.982	10.43
359.346	10.4
359.71	10.35
360.075	10.36
360.439	10.38
360.803	10.37
361.167	10.3
361.531	10.35
361.895	10.38
362.259	10.34
362.623	10.29
362.987	10.16
363.351	10.08
363.714	10.04
364.078	10
364.442	9.9
364.806	9.91
365.169	9.86
365.533	9.86
365.896	9.73
366.26	9.64
366.623	9.57
366.987	9.54
367.35	9.55
367.714	9.42
368.077	9.3
368.44	9.25
368.803	9.21
369.167	9.05
369.53	8.99
369.893	8.92
370.256	8.81
370.619	8.76
370.982	8.75
371.345	8.7
371.708	8.69
372.071	8.63
372.434	8.56
372.797	8.45
373.159	8.31
373.522	8.27
373.885	8.25
374.247	8.14
374.61	8.04
374.973	7.9
375.335	7.87
375.698	7.75
376.06	7.65
376.423	7.6
376.785	7.6
377.147	7.52
377.51	7.44
377.872	7.35
378.234	7.34
378.596	7.27
378.958	7.23
379.321	7.11
379.683	7.04
380.045	6.93
380.407	6.87
380.769	6.85
381.13	6.78
381.492	6.7
381.854	6.7
382.216	6.7
382.578	6.64
382.939	6.56
383.301	6.54
383.663	6.54
384.024	6.45
384.386	6.35
384.747	6.29
385.109	6.27
385.47	6.27
385.832	6.18
386.193	6.17
386.554	6.09
386.916	6.12
387.277	6.07
387.638	5.99
387.999	5.97
388.36	5.9
388.721	5.91
389.082	5.88
389.443	5.8
389.804	5.7
390.165	5.67
390.526	5.63
390.887	5.55
391.248	5.48
391.609	5.48
391.969	5.46
392.33	5.44
392.691	5.39
393.051	5.36
393.412	5.32
393.772	5.26
394.133	5.25
394.493	5.19
394.854	5.19
395.214	5.18
395.574	5.08
395.935	5.02
396.295	4.94
396.655	4.88
397.015	4.86
397.376	4.84
397.736	4.79
398.096	4.75
398.456	4.74
398.816	4.7
399.176	4.62
399.535	4.54
399.895	4.48
400.255	4.45
400.615	4.4
400.975	4.38
401.334	4.33
401.694	4.32
402.054	4.28
402.413	4.24
402.773	4.21
403.132	4.21
403.492	4.21
403.851	4.19
404.211	4.2
404.57	4.21
404.929	4.18
405.288	4.18
405.648	4.16
406.007	4.16
406.366	4.14
406.725	4.14
407.084	4.2
407.443	4.21
407.802	4.17
408.161	4.16
408.52	4.16
408.879	4.16
409.238	4.13
409.596	4.13
409.955	4.12
410.314	4.11
410.673	4.1
411.031	4.09
411.39	4.1
411.748	4.09
412.107	4.06
412.465	4.05
412.824	4.01
413.182	4.01
413.54	4.01
413.899	3.98
414.257	3.96
414.615	3.91
414.974	3.91
415.332	3.92
415.69	3.89
416.048	3.86
416.406	3.8
416.764	3.77
417.122	3.73
417.48	3.72
417.838	3.72
418.195	3.7
418.553	3.68
418.911	3.65
419.269	3.61
419.626	3.59
419.984	3.57
420.342	3.57
420.699	3.56
421.057	3.55
421.414	3.55
421.772	3.53
422.129	3.5
422.486	3.48
422.844	3.46
423.201	3.46
423.558	3.45
423.915	3.45
424.273	3.45
424.63	3.44
424.987	3.43
425.344	3.42
425.701	3.4
426.058	3.39
426.415	3.38
426.772	3.36
427.128	3.36
427.485	3.35
427.842	3.32
428.199	3.31
428.555	3.28
428.912	3.26
429.269	3.25
429.625	3.26
429.982	3.25
430.338	3.25
430.695	3.21
431.051	3.21
431.407	3.22
431.764	3.18
432.12	3.21
432.476	3.21
432.832	3.19
433.189	3.19
433.545	3.18
433.901	3.18
434.257	3.22
434.613	3.23
434.969	3.22
435.325	3.22
435.681	3.2
436.036	3.2
436.392	3.21
436.748	3.2
437.104	3.2
437.459	3.2
437.815	3.2
438.171	3.22
438.526	3.23
438.882	3.24
439.237	3.27
439.593	3.25
439.948	3.24
440.304	3.26
440.659	3.25
441.014	3.25
441.369	3.25
441.725	3.23
442.08	3.22
442.435	3.24
442.79	3.23
443.145	3.25
443.5	3.25
443.855	3.24
444.21	3.25
444.565	3.27
444.92	3.26
445.275	3.25
445.629	3.25
445.984	3.22
446.339	3.22
446.693	3.22
447.048	3.21
447.403	3.22
447.757	3.2
448.112	3.2
448.466	3.19
448.82	3.21
449.175	3.21
449.529	3.21
449.883	3.2
450.238	3.2
450.592	3.2
450.946	3.18
451.3	3.2
451.654	3.18
452.008	3.16
452.362	3.14
452.716	3.15
453.07	3.12
453.424	3.13
453.778	3.11
454.132	3.09
454.486	3.07
454.839	3.06
455.193	3.06
455.547	3.07
455.9	3.07
456.254	3.07
456.607	3.07
456.961	3.06
457.314	3.03
457.668	3.03
458.021	3.03
458.375	3.02
458.728	3.02
459.081	3.02
459.434	3.03
459.787	3.04
460.141	3.04
460.494	3.06
460.847	3.05
461.2	3.05
461.553	3.05
461.906	3.07
462.259	3.07
462.611	3.08
462.964	3.08
463.317	3.07
463.67	3.06
464.022	3.07
464.375	3.09
464.728	3.11
465.08	3.12
465.433	3.14
465.785	3.16
466.138	3.17
466.49	3.16
466.843	3.18
467.195	3.2
467.547	3.22
467.899	3.22
468.252	3.25
468.604	3.28
468.956	3.3
469.308	3.31
469.66	3.33
470.012	3.34
470.364	3.36
470.716	3.38
471.068	3.41
471.42	3.43
471.772	3.45
472.123	3.44
472.475	3.45
472.827	3.45
473.178	3.46
473.53	3.46
473.882	3.48
474.233	3.47
474.585	3.47
474.936	3.47
475.288	3.46
475.639	3.47
475.99	3.46
476.342	3.45
476.693	3.42
477.044	3.42
477.395	3.41
477.746	3.4
478.097	3.4
478.448	3.39
478.8	3.36
479.15	3.35
479.501	3.35
479.852	3.34
480.203	3.33
480.554	3.33
480.905	3.33
481.255	3.32
481.606	3.33
481.957	3.33
482.307	3.32
482.658	3.33
483.009	3.32
483.359	3.32
483.709	3.32
484.06	3.32
484.41	3.32
484.761	3.32
485.111	3.31
485.461	3.3
485.811	3.31
486.162	3.31
486.512	3.3
486.862	3.3
487.212	3.3
487.562	3.31
487.912	3.3
488.262	3.3
488.612	3.3
488.961	3.3
489.311	3.29
489.661	3.3
490.011	3.29
490.36	3.29
490.71	3.3
491.06	3.3
491.409	3.3
491.759	3.3
492.108	3.31
492.458	3.31
492.807	3.32
493.157	3.32
493.506	3.34
493.855	3.35
494.204	3.37
494.554	3.39
494.903	3.39
495.252	3.41
495.601	3.43
495.95	3.44
496.299	3.45
496.648	3.48
496.997	3.49
497.346	3.51
497.695	3.55
498.043	3.57
498.392	3.61
498.741	3.66
499.09	3.7
499.438	3.75
499.787	3.78
500.135	3.81
500.484	3.86
500.832	3.9
501.181	3.96
501.529	4.01
501.878	4.06
502.226	4.12
502.574	4.17
502.923	4.24
503.271	4.31
503.619	4.39
503.967	4.46
504.315	4.55
504.663	4.64
505.011	4.71
505.359	4.78
505.707	4.86
506.055	4.94
506.403	5.01
506.751	5.1
507.098	5.2
507.446	5.31
507.794	5.39
508.141	5.49
508.489	5.58
508.837	5.69
509.184	5.77
509.531	5.87
509.879	5.96
510.226	6.05
510.574	6.19
510.921	6.28
511.268	6.38
511.616	6.5
511.963	6.6
512.31	6.75
512.657	6.88
513.004	7.01
513.351	7.16
513.698	7.31
514.045	7.46
514.392	7.63
514.739	7.8
515.086	7.98
515.432	8.14
515.779	8.31
516.126	8.47
516.473	8.64
516.819	8.8
517.166	9
517.512	9.15
517.859	9.3
518.205	9.46
518.552	9.61
518.898	9.77
519.245	9.92
519.591	10.05
519.937	10.21
520.283	10.39
520.629	10.55
520.976	10.71
521.322	10.89
521.668	11.11
522.014	11.31
522.36	11.47
522.706	11.69
523.052	11.93
523.398	12.17
523.743	12.45
524.089	12.73
524.435	12.94
524.781	13.19
525.126	13.39
525.472	13.63
525.817	13.84
526.163	14.01
526.509	14.17
526.854	14.35
527.199	14.5
527.545	14.66
527.89	14.82
528.235	14.99
528.581	15.15
528.926	15.3
529.271	15.49
529.616	15.65
529.961	15.82
530.306	15.98
530.651	16.14
530.996	16.31
531.341	16.49
531.686	16.71
532.031	16.91
532.376	17.14
532.721	17.33
533.065	17.53
533.41	17.78
533.755	18.03
534.099	18.28
534.444	18.52
534.788	18.73
535.133	18.99
535.477	19.21
535.822	19.47
536.166	19.73
536.51	19.98
536.855	20.29
537.199	20.58
537.543	20.92
537.887	21.27
538.231	21.57
538.576	21.91
538.92	22.23
539.264	22.53
539.608	22.81
539.951	23.08
540.295	23.36
540.639	23.61
540.983	23.86
541.327	24.09
541.671	24.35
542.014	24.6
542.358	24.8
542.701	25.05
543.045	25.29
543.389	25.51
543.732	25.76
544.075	26.02
544.419	26.26
544.762	26.5
545.105	26.78
545.449	27.08
545.792	27.35
546.135	27.62
546.478	27.89
546.821	28.2
547.165	28.54
547.508	28.82
547.851	29.14
548.194	29.44
548.536	29.75
548.879	30.05
549.222	30.38
549.565	30.72
549.908	31.02
550.25	31.33
550.593	31.7
550.936	32.06
551.278	32.34
551.621	32.67
551.963	33
552.306	33.28
552.648	33.56
552.991	33.81
553.333	34.11
553.675	34.41
554.017	34.68
554.36	34.88
554.702	35.19
555.044	35.45
555.386	35.73
555.728	36.01
556.07	36.27
556.412	36.53
556.754	36.75
557.096	37
557.438	37.31
557.78	37.62
558.121	37.84
558.463	38.17
558.805	38.44
559.147	38.72
559.488	38.95
559.83	39.2
560.171	39.43
560.513	39.69
560.854	39.93
561.196	40.22
561.537	40.46
561.878	40.71
562.22	40.94
562.561	41.13
562.902	41.31
563.243	41.6
563.584	41.79
563.925	42.04
564.266	42.25
564.607	42.42
564.948	42.57
565.289	42.76
565.63	42.91
565.971	43.1
566.312	43.25
566.653	43.42
566.993	43.59
567.334	43.78
567.675	43.92
568.015	44.08
568.356	44.23
568.696	44.44
569.037	44.59
569.377	44.74
569.718	44.96
570.058	45.12
570.398	45.19
570.739	45.38
571.079	45.53
571.419	45.72
571.759	45.86
572.099	46.02
572.439	46.17
572.779	46.29
573.119	46.42
573.459	46.58
573.799	46.66
574.139	46.76
574.479	46.87
574.819	47.01
575.158	47.16
575.498	47.29
575.838	47.48
576.177	47.54
576.517	47.65
576.856	47.74
577.196	47.88
577.535	48.03
577.875	48.16
578.214	48.33
578.553	48.41
578.893	48.55
579.232	48.58
579.571	48.7
579.91	48.84
580.25	48.97
580.589	49.01
580.928	49.23
581.267	49.43
581.606	49.52
581.945	49.69
582.283	49.79
582.622	49.92
582.961	50.01
583.3	50.17
583.639	50.32
583.977	50.46
584.316	50.61
584.654	50.77
584.993	50.9
585.332	51.02
585.67	51.12
586.008	51.24
586.347	51.39
586.685	51.5
587.024	51.63
587.362	51.8
587.7	51.91
588.038	52.01
588.376	52.09
588.715	52.27
589.053	52.37
589.391	52.48
589.729	52.54
590.067	52.61
590.404	52.69
590.742	52.81
591.08	52.85
591.418	52.91
591.756	52.9
592.093	52.9
592.431	52.98
592.769	53.11
593.106	53.17
593.444	53.34
593.781	53.42
594.119	53.48
594.456	53.44
594.793	53.56
595.131	53.6
595.468	53.66
595.805	53.68
596.143	53.71
596.48	53.75
596.817	53.79
597.154	53.82
597.491	53.92
597.828	53.91
598.165	54
598.502	54.11
598.839	54.16
599.176	54.27
599.512	54.23
599.849	54.31
600.186	54.4
600.523	54.34
600.859	54.39
601.196	54.48
601.532	54.6
601.869	54.64
602.205	54.67
602.542	54.77
602.878	54.83
603.215	54.83
603.551	54.85
603.887	54.91
604.223	54.87
604.56	54.87
604.896	55
605.232	55.04
605.568	55.06
605.904	55.24
606.24	55.25
606.576	55.31
606.912	55.36
607.248	55.41
607.583	55.53
607.919	55.6
608.255	55.58
608.591	55.61
608.926	55.71
609.262	55.79
609.597	55.81
609.933	55.8
610.268	55.91
610.604	55.96
610.939	56.1
611.275	56.2
611.61	56.23
611.945	56.22
612.281	56.27
612.616	56.35
612.951	56.27
613.286	56.34
613.621	56.33
613.956	56.3
614.291	56.28
614.626	56.27
614.961	56.3
615.296	56.36
615.631	56.35
615.966	56.3
616.3	56.33
616.635	56.35
616.97	56.45
617.304	56.47
617.639	56.51
617.973	56.48
618.308	56.5
618.642	56.55
618.977	56.53
619.311	56.53
619.646	56.57
619.98	56.66
620.314	56.69
620.648	56.78
620.983	56.82
621.317	56.85
621.651	56.86
621.985	56.9
622.319	56.9
622.653	56.97
622.987	56.96
623.321	56.99
623.655	57.02
623.988	57.17
624.322	57.11
624.656	57.13
624.99	57.12
625.323	57.15
625.657	57.16
625.99	57.26
626.324	57.3
626.657	57.26
626.991	57.27
627.324	57.29
627.658	57.3
627.991	57.31
628.324	57.31
628.657	57.34
628.991	57.42
629.324	57.44
629.657	57.42
629.99	57.45
630.323	57.53
630.656	57.52
630.989	57.43
631.322	57.46
631.655	57.5
631.987	57.49
632.32	57.56
632.653	57.59
632.986	57.63
633.318	57.62
633.651	57.62
633.984	57.63
634.316	57.68
634.649	57.76
634.981	57.84
635.313	57.84
635.646	57.87
635.978	57.82
636.31	57.84
636.643	57.89
636.975	57.89
637.307	57.85
637.639	57.83
637.971	57.88
638.303	57.91
638.635	57.82
638.967	57.86
639.299	57.82
639.631	57.82
639.963	57.84
640.295	57.83
640.626	57.93
640.958	57.91
641.29	57.94
641.621	58.02
641.953	58
642.285	58.1
642.616	58.14
642.948	58.08
643.279	58.18
643.61	58.22
643.942	58.32
644.273	58.38
644.604	58.42
644.936	58.44
645.267	58.49
645.598	58.66
645.929	58.7
646.26	58.75
646.591	58.87
646.922	58.81
647.253	58.88
647.584	58.85
647.915	58.85
648.245	58.88
648.576	58.84
648.907	58.87
649.238	58.93
649.568	58.91
649.899	58.97
650.229	58.98
650.56	59
650.89	59.04
651.221	59.04
651.551	59.1
651.882	59.09
652.212	59.02
652.542	59.04
652.872	59.05
653.203	59.06
653.533	59.03
653.863	59
654.193	58.98
654.523	59.08
654.853	59.04
655.183	58.9
655.513	58.92
655.843	58.87
656.172	58.85
656.502	58.94
656.832	58.95
657.162	58.87
657.491	58.95
657.821	58.9
658.15	58.93
658.48	58.95
658.809	58.86
659.139	58.92
659.468	58.77
659.798	58.89
660.127	58.9
660.456	58.89
660.785	58.92
661.115	59.03
661.444	58.98
661.773	59.05
662.102	59.17
662.431	59.25
662.76	59.36
663.089	59.3
663.418	59.18
663.747	59.21
664.076	59.21
664.404	59.21
664.733	59.08
665.062	59.05
665.39	59.03
665.719	59.07
666.048	59.05
666.376	59.13
666.705	59.08
667.033	59.01
