Data from BU58141_Reflection_00006.txt Node
Date: Mon Nov 18 16:46:45 EST 2019
User: vgr7
Spectrometer: USB2G7710
Scans to average: 3
Trigger mode: 4
Integration Time (sec): 2.000000E-2
Electric dark correction enabled: true
Boxcar width: 10
XAxis mode: Wavelengths
Number of Pixels in Spectrum: 2048
>>>>>Begin Spectral Data<<<<<
177.721	-51.84
178.105	-4.8
178.488	21.45
178.871	33.23
179.254	66.61
179.636	-2775
180.019	193.65
180.402	66.67
180.785	-138.43
181.168	2188.24
181.55	468.66
181.933	-14.8
182.316	1.84
182.698	13.53
183.081	13.97
183.463	0.12
183.846	-7.59
184.228	11.32
184.611	6.69
184.993	-8.82
185.376	-34.82
185.758	-5.75
186.14	16.15
186.522	41.44
186.904	150.22
187.287	296.46
187.669	-391.35
188.051	-325.99
188.433	-11.87
188.815	33.43
189.197	245.92
189.579	-3900
189.961	-485.64
190.342	-766.24
190.724	-55.29
191.106	-59.88
191.488	-58.06
191.869	-43.33
192.251	-42.06
192.633	-30.59
193.014	-58.7
193.396	-51.67
193.777	-25.86
194.159	0.96
194.54	11.67
194.922	45.09
195.303	65.34
195.684	90.6
196.065	73.12
196.447	45.98
196.828	10.24
197.209	18.04
197.59	12.04
197.971	12.59
198.352	19.36
198.733	19.4
199.114	35.06
199.495	15.6
199.876	15.88
200.257	13.54
200.638	17.53
201.018	11.51
201.399	2.63
201.78	8.99
202.16	3.85
202.541	2.39
202.922	-14.01
203.302	-34.66
203.683	-53.63
204.063	-48.51
204.444	-47.21
204.824	-31.97
205.204	-28.17
205.585	-29.84
205.965	-43.25
206.345	-60.61
206.725	-54.33
207.106	-63.76
207.486	-37.66
207.866	-49.6
208.246	-49.39
208.626	-76.45
209.006	-44.76
209.386	-57.33
209.766	-83.21
210.145	-88.59
210.525	-84.6
210.905	-76
211.285	-62.05
211.664	-64.84
212.044	-75.47
212.424	-78.11
212.803	-76.28
213.183	-66.62
213.562	-56.8
213.942	-45.92
214.321	-25.52
214.701	-37.96
215.08	-43.43
215.459	-36.23
215.838	-38.12
216.218	-40.03
216.597	-25.89
216.976	-25.66
217.355	-27.32
217.734	-25.14
218.113	-26.69
218.492	-28.39
218.871	-22.08
219.25	-26.68
219.629	-23.08
220.008	-23.29
220.387	-18.01
220.766	-26.9
221.144	-42.64
221.523	-43.4
221.902	-40.38
222.28	-66.85
222.659	-44.12
223.037	-28.68
223.416	-32.99
223.794	-38.38
224.173	-28.94
224.551	-21.66
224.929	-17.69
225.308	-15.93
225.686	-17.48
226.064	-5.33
226.442	2.28
226.821	2.42
227.199	2.56
227.577	4.75
227.955	6.38
228.333	4.63
228.711	2.32
229.089	7.31
229.467	5.01
229.845	3.44
230.222	6.65
230.6	4.93
230.978	4.87
231.356	6.89
231.733	8.97
232.111	8.02
232.488	8.83
232.866	9.54
233.243	12.02
233.621	11.68
233.998	10.63
234.376	7.22
234.753	7.96
235.13	6.95
235.508	6.67
235.885	6.83
236.262	7.44
236.639	9.75
237.016	8.79
237.393	9.39
237.77	9.8
238.147	10.25
238.524	9.95
238.901	8.9
239.278	7.6
239.655	8.12
240.032	7.68
240.409	7.73
240.785	7.32
241.162	7.11
241.539	7.26
241.915	6.74
242.292	6.96
242.668	6.83
243.045	7.08
243.421	6.44
243.798	6.03
244.174	5.65
244.551	5.65
244.927	5.65
245.303	5.55
245.679	5.4
246.056	5.05
246.432	5.05
246.808	5.35
247.184	5.24
247.56	5.16
247.936	5.43
248.312	5.28
248.688	5.09
249.064	5.11
249.44	4.96
249.815	5.02
250.191	5.16
250.567	5.04
250.943	4.8
251.318	5.03
251.694	4.96
252.069	4.95
252.445	4.89
252.82	5.05
253.196	4.93
253.571	4.84
253.947	4.83
254.322	5
254.697	4.62
255.073	4.47
255.448	3.89
255.823	3.6
256.198	3.6
256.573	3.88
256.948	3.66
257.323	3.79
257.698	3.94
258.073	3.89
258.448	3.87
258.823	4
259.198	3.96
259.573	3.96
259.948	4.11
260.322	3.94
260.697	3.73
261.072	3.69
261.446	3.69
261.821	3.75
262.195	3.75
262.57	3.77
262.944	3.86
263.319	3.89
263.693	3.9
264.067	3.89
264.442	3.8
264.816	3.86
265.19	3.8
265.564	3.77
265.938	3.7
266.313	3.74
266.687	3.66
267.061	3.58
267.435	3.64
267.809	3.54
268.183	3.84
268.556	3.8
268.93	3.97
269.304	3.98
269.678	4.14
270.051	3.88
270.425	3.82
270.799	3.86
271.172	4.01
271.546	4.04
271.919	4.08
272.293	4.13
272.666	4.18
273.04	4.2
273.413	4.26
273.787	4.26
274.16	4.2
274.533	4.3
274.906	4.26
275.279	4.33
275.653	4.27
276.026	4.11
276.399	4.02
276.772	4.05
277.145	4.03
277.518	3.89
277.891	4.1
278.263	4.1
278.636	4.1
279.009	4.13
279.382	4.22
279.755	4.18
280.127	4.05
280.5	3.91
280.872	3.85
281.245	3.68
281.617	3.73
281.99	3.77
282.362	3.65
282.735	3.75
283.107	3.63
283.479	3.61
283.852	3.6
284.224	3.83
284.596	3.82
284.968	3.91
285.34	3.83
285.713	3.71
286.085	3.72
286.457	3.77
286.829	3.83
287.201	3.82
287.572	3.81
287.944	3.89
288.316	3.84
288.688	3.88
289.06	3.89
289.431	3.93
289.803	4.03
290.175	4.15
290.546	4.26
290.918	4.32
291.289	4.41
291.661	4.45
292.032	4.37
292.403	4.33
292.775	4.22
293.146	4.27
293.517	4.28
293.889	4.32
294.26	4.29
294.631	4.15
295.002	4.21
295.373	4.14
295.744	4.17
296.115	4.26
296.486	4.13
296.857	4.13
297.228	4.05
297.599	3.95
297.97	3.97
298.34	3.93
298.711	4
299.082	3.95
299.452	3.99
299.823	4
300.194	3.99
300.564	4.01
300.935	4.01
301.305	3.99
301.676	4.04
302.046	3.93
302.416	4.11
302.787	3.85
303.157	3.86
303.527	3.73
303.897	3.79
304.267	3.84
304.637	3.94
305.008	4.09
305.378	4.15
305.748	4.18
306.117	4.06
306.487	4.06
306.857	3.92
307.227	3.91
307.597	3.87
307.967	3.87
308.336	3.97
308.706	4.03
309.076	4.09
309.445	4.01
309.815	3.95
310.184	3.84
310.554	4
310.923	4.05
311.293	4.17
311.662	4.12
312.031	4.1
312.401	4.1
312.77	4.15
313.139	4.13
313.508	4.01
313.877	4.02
314.246	4.03
314.616	4.07
314.985	4.09
315.353	4.02
315.722	4.07
316.091	3.82
316.46	3.74
316.829	3.81
317.198	3.79
317.567	3.78
317.935	3.67
318.304	3.69
318.672	3.62
319.041	3.53
319.41	3.51
319.778	3.61
320.147	3.6
320.515	3.44
320.883	3.34
321.252	3.35
321.62	3.35
321.988	3.31
322.357	3.5
322.725	3.51
323.093	3.56
323.461	3.56
323.829	3.71
324.197	3.8
324.565	3.71
324.933	3.7
325.301	3.84
325.669	3.85
326.037	3.75
326.405	3.74
326.772	3.79
327.14	3.94
327.508	3.91
327.875	3.87
328.243	3.96
328.61	4.07
328.978	4.04
329.346	4.17
329.713	4.15
330.08	4.04
330.448	3.87
330.815	3.75
331.182	3.75
331.55	3.75
331.917	3.61
332.284	3.61
332.651	3.5
333.018	3.6
333.385	3.65
333.752	3.75
334.119	3.81
334.486	3.71
334.853	3.54
335.22	3.53
335.587	3.64
335.954	3.55
336.32	3.48
336.687	3.47
337.054	3.45
337.42	3.39
337.787	3.45
338.153	3.54
338.52	3.73
338.886	3.63
339.253	3.59
339.619	3.66
339.986	3.67
340.352	3.73
340.718	3.64
341.084	3.7
341.451	3.68
341.817	3.67
342.183	3.74
342.549	3.76
342.915	3.76
343.281	3.64
343.647	3.67
344.013	3.6
344.379	3.64
344.745	3.62
345.11	3.63
345.476	3.58
345.842	3.6
346.208	3.48
346.573	3.52
346.939	3.52
347.304	3.5
347.67	3.53
348.035	3.5
348.401	3.42
348.766	3.44
349.132	3.45
349.497	3.47
349.862	3.53
350.228	3.52
350.593	3.51
350.958	3.53
351.323	3.42
351.688	3.51
352.053	3.65
352.418	3.68
352.783	3.74
353.148	3.79
353.513	3.75
353.878	3.77
354.243	3.79
354.608	3.82
354.972	3.84
355.337	3.82
355.702	3.9
356.066	3.99
356.431	3.89
356.795	3.97
357.16	3.91
357.524	3.73
357.889	3.72
358.253	3.8
358.618	3.79
358.982	3.85
359.346	3.75
359.71	3.67
360.075	3.66
360.439	3.67
360.803	3.61
361.167	3.6
361.531	3.61
361.895	3.55
362.259	3.52
362.623	3.51
362.987	3.42
363.351	3.44
363.714	3.41
364.078	3.41
364.442	3.32
364.806	3.32
365.169	3.4
365.533	3.35
365.896	3.25
366.26	3.23
366.623	3.15
366.987	3.23
367.35	3.23
367.714	3.19
368.077	3.13
368.44	3.14
368.803	3.11
369.167	3.09
369.53	3.05
369.893	3.06
370.256	3.14
370.619	3.25
370.982	3.17
371.345	3.15
371.708	3.11
372.071	3.03
372.434	3.01
372.797	3.03
373.159	3.06
373.522	3.08
373.885	3.17
374.247	3.24
374.61	3.21
374.973	3.19
375.335	3.17
375.698	3.18
376.06	3.17
376.423	3.19
376.785	3.25
377.147	3.33
377.51	3.29
377.872	3.23
378.234	3.2
378.596	3.24
378.958	3.28
379.321	3.29
379.683	3.33
380.045	3.3
380.407	3.27
380.769	3.28
381.13	3.27
381.492	3.21
381.854	3.2
382.216	3.18
382.578	3.21
382.939	3.19
383.301	3.22
383.663	3.21
384.024	3.19
384.386	3.12
384.747	3.12
385.109	3.15
385.47	3.11
385.832	3.13
386.193	3.14
386.554	3.07
386.916	3.07
387.277	3.1
387.638	3.14
387.999	3.15
388.36	3.14
388.721	3.16
389.082	3.16
389.443	3.14
389.804	3.16
390.165	3.09
390.526	3.14
390.887	3.13
391.248	3.16
391.609	3.19
391.969	3.22
392.33	3.2
392.691	3.2
393.051	3.17
393.412	3.12
393.772	3.07
394.133	3.11
394.493	3.1
394.854	3.12
395.214	3.11
395.574	3.08
395.935	3.1
396.295	3.11
396.655	3.11
397.015	3.14
397.376	3.12
397.736	3.11
398.096	3.09
398.456	3.12
398.816	3.1
399.176	3.07
399.535	3.07
399.895	3.05
400.255	3.04
400.615	3.08
400.975	3.11
401.334	3.13
401.694	3.14
402.054	3.15
402.413	3.13
402.773	3.11
403.132	3.1
403.492	3.08
403.851	3.07
404.211	3.06
404.57	3.07
404.929	3.11
405.288	3.12
405.648	3.07
406.007	3.06
406.366	3.06
406.725	3.1
407.084	3.13
407.443	3.13
407.802	3.14
408.161	3.12
408.52	3.12
408.879	3.12
409.238	3.14
409.596	3.15
409.955	3.13
410.314	3.17
410.673	3.2
411.031	3.2
411.39	3.2
411.748	3.18
412.107	3.16
412.465	3.16
412.824	3.15
413.182	3.17
413.54	3.14
413.899	3.13
414.257	3.1
414.615	3.08
414.974	3.08
415.332	3.06
415.69	3.06
416.048	3.03
416.406	3.05
416.764	3.02
417.122	3.01
417.48	3.03
417.838	3.01
418.195	3.01
418.553	3
418.911	3
419.269	3.02
419.626	3.03
419.984	3.02
420.342	3.02
420.699	3.01
421.057	3.02
421.414	3.03
421.772	3.04
422.129	3.04
422.486	3.05
422.844	3.05
423.201	3.05
423.558	3.06
423.915	3.06
424.273	3.06
424.63	3.06
424.987	3.06
425.344	3.05
425.701	3.06
426.058	3.06
426.415	3.05
426.772	3.04
427.128	3.02
427.485	3.02
427.842	3.02
428.199	3.04
428.555	3.05
428.912	3.05
429.269	3.06
429.625	3.06
429.982	3.04
430.338	3.05
430.695	3.05
431.051	3.05
431.407	3.05
431.764	3.07
432.12	3.06
432.476	3.05
432.832	3.05
433.189	3.04
433.545	3.04
433.901	3.05
434.257	3.04
434.613	3.05
434.969	3.05
435.325	3.05
435.681	3.04
436.036	3.03
436.392	3.01
436.748	3
437.104	3
437.459	3
437.815	2.99
438.171	2.99
438.526	3
438.882	3
439.237	2.99
439.593	3
439.948	3.01
440.304	3.02
440.659	3.04
441.014	3.04
441.369	3.02
441.725	3
442.08	3.01
442.435	3
442.79	3.01
443.145	3.01
443.5	3.01
443.855	3.01
444.21	3
444.565	3.01
444.92	3.02
445.275	3.03
445.629	3.02
445.984	3.01
446.339	3.01
446.693	2.99
447.048	2.99
447.403	2.97
447.757	2.97
448.112	2.96
448.466	2.96
448.82	2.97
449.175	2.99
449.529	2.99
449.883	2.98
450.238	2.97
450.592	2.98
450.946	2.97
451.3	2.98
451.654	2.97
452.008	2.97
452.362	2.96
452.716	2.97
453.07	2.97
453.424	2.97
453.778	2.97
454.132	3
454.486	2.97
454.839	2.97
455.193	2.96
455.547	2.94
455.9	2.94
456.254	2.95
456.607	2.94
456.961	2.92
457.314	2.93
457.668	2.93
458.021	2.92
458.375	2.94
458.728	2.93
459.081	2.93
459.434	2.92
459.787	2.92
460.141	2.92
460.494	2.91
460.847	2.92
461.2	2.91
461.553	2.9
461.906	2.94
462.259	2.95
462.611	2.95
462.964	2.97
463.317	2.97
463.67	2.97
464.022	3
464.375	3
464.728	3.01
465.08	3.01
465.433	3.02
465.785	3.01
466.138	2.99
466.49	2.99
466.843	3.01
467.195	3
467.547	3
467.899	3
468.252	3
468.604	3.01
468.956	2.99
469.308	3
469.66	2.98
470.012	2.99
470.364	2.99
470.716	2.99
471.068	2.98
471.42	2.97
471.772	2.99
472.123	3
472.475	2.99
472.827	2.98
473.178	2.99
473.53	3.01
473.882	3.03
474.233	3.02
474.585	3.02
474.936	3.02
475.288	3.02
475.639	3.06
475.99	3.07
476.342	3.07
476.693	3.05
477.044	3.08
477.395	3.07
477.746	3.06
478.097	3.06
478.448	3.07
478.8	3.06
479.15	3.03
479.501	3.03
479.852	3.04
480.203	3.05
480.554	3.06
480.905	3.06
481.255	3.05
481.606	3.05
481.957	3.06
482.307	3.06
482.658	3.06
483.009	3.06
483.359	3.05
483.709	3.06
484.06	3.06
484.41	3.06
484.761	3.06
485.111	3.06
485.461	3.06
485.811	3.06
486.162	3.06
486.512	3.08
486.862	3.07
487.212	3.07
487.562	3.07
487.912	3.06
488.262	3.05
488.612	3.06
488.961	3.05
489.311	3.05
489.661	3.05
490.011	3.05
490.36	3.03
490.71	3.04
491.06	3.03
491.409	3.02
491.759	3.02
492.108	3.03
492.458	3.01
492.807	3
493.157	3.01
493.506	3.02
493.855	3
494.204	3.02
494.554	3.02
494.903	3.01
495.252	3.01
495.601	3.03
495.95	3.04
496.299	3.05
496.648	3.03
496.997	3.03
497.346	3.05
497.695	3.06
498.043	3.05
498.392	3.07
498.741	3.09
499.09	3.09
499.438	3.08
499.787	3.09
500.135	3.11
500.484	3.11
500.832	3.1
501.181	3.11
501.529	3.1
501.878	3.11
502.226	3.13
502.574	3.14
502.923	3.14
503.271	3.12
503.619	3.13
503.967	3.14
504.315	3.12
504.663	3.13
505.011	3.14
505.359	3.13
505.707	3.12
506.055	3.12
506.403	3.13
506.751	3.15
507.098	3.14
507.446	3.15
507.794	3.15
508.141	3.15
508.489	3.14
508.837	3.16
509.184	3.17
509.531	3.16
509.879	3.17
510.226	3.17
510.574	3.17
510.921	3.17
511.268	3.18
511.616	3.2
511.963	3.19
512.31	3.21
512.657	3.22
513.004	3.22
513.351	3.24
513.698	3.25
514.045	3.25
514.392	3.24
514.739	3.25
515.086	3.28
515.432	3.27
515.779	3.27
516.126	3.28
516.473	3.28
516.819	3.3
517.166	3.3
517.512	3.3
517.859	3.32
518.205	3.34
518.552	3.36
518.898	3.36
519.245	3.36
519.591	3.35
519.937	3.36
520.283	3.37
520.629	3.35
520.976	3.36
521.322	3.37
521.668	3.38
522.014	3.38
522.36	3.37
522.706	3.39
523.052	3.39
523.398	3.39
523.743	3.41
524.089	3.4
524.435	3.41
524.781	3.4
525.126	3.41
525.472	3.4
525.817	3.41
526.163	3.41
526.509	3.41
526.854	3.43
527.199	3.44
527.545	3.43
527.89	3.45
528.235	3.44
528.581	3.44
528.926	3.43
529.271	3.43
529.616	3.43
529.961	3.44
530.306	3.46
530.651	3.46
530.996	3.46
531.341	3.45
531.686	3.45
532.031	3.46
532.376	3.45
532.721	3.46
533.065	3.44
533.41	3.44
533.755	3.46
534.099	3.44
534.444	3.44
534.788	3.46
535.133	3.44
535.477	3.45
535.822	3.45
536.166	3.47
536.51	3.48
536.855	3.49
537.199	3.48
537.543	3.47
537.887	3.47
538.231	3.46
538.576	3.48
538.92	3.49
539.264	3.49
539.608	3.51
539.951	3.5
540.295	3.51
540.639	3.53
540.983	3.54
541.327	3.54
541.671	3.55
542.014	3.54
542.358	3.55
542.701	3.56
543.045	3.58
543.389	3.58
543.732	3.59
544.075	3.59
544.419	3.58
544.762	3.58
545.105	3.57
545.449	3.58
545.792	3.6
546.135	3.61
546.478	3.6
546.821	3.59
547.165	3.61
547.508	3.62
547.851	3.62
548.194	3.6
548.536	3.61
548.879	3.62
549.222	3.63
549.565	3.65
549.908	3.64
550.25	3.64
550.593	3.64
550.936	3.65
551.278	3.66
551.621	3.69
551.963	3.72
552.306	3.7
552.648	3.69
552.991	3.67
553.333	3.66
553.675	3.67
554.017	3.7
554.36	3.68
554.702	3.71
555.044	3.7
555.386	3.73
555.728	3.74
556.07	3.74
556.412	3.72
556.754	3.72
557.096	3.71
557.438	3.68
557.78	3.69
558.121	3.68
558.463	3.7
558.805	3.69
559.147	3.7
559.488	3.71
559.83	3.72
560.171	3.75
560.513	3.77
560.854	3.8
561.196	3.75
561.537	3.76
561.878	3.72
562.22	3.71
562.561	3.68
562.902	3.67
563.243	3.67
563.584	3.69
563.925	3.7
564.266	3.69
564.607	3.71
564.948	3.73
565.289	3.73
565.63	3.7
565.971	3.66
566.312	3.64
566.653	3.66
566.993	3.62
567.334	3.62
567.675	3.59
568.015	3.56
568.356	3.58
568.696	3.64
569.037	3.66
569.377	3.66
569.718	3.67
570.058	3.68
570.398	3.69
570.739	3.67
571.079	3.65
571.419	3.69
571.759	3.72
572.099	3.69
572.439	3.67
572.779	3.69
573.119	3.69
573.459	3.72
573.799	3.73
574.139	3.77
574.479	3.77
574.819	3.77
575.158	3.79
575.498	3.8
575.838	3.77
576.177	3.74
576.517	3.74
576.856	3.77
577.196	3.75
577.535	3.77
577.875	3.79
578.214	3.76
578.553	3.76
578.893	3.71
579.232	3.71
579.571	3.74
579.91	3.71
580.25	3.75
580.589	3.74
580.928	3.72
581.267	3.72
581.606	3.7
581.945	3.7
582.283	3.67
582.622	3.64
582.961	3.58
583.3	3.59
583.639	3.59
583.977	3.59
584.316	3.59
584.654	3.55
584.993	3.57
585.332	3.59
585.67	3.61
586.008	3.65
586.347	3.63
586.685	3.63
587.024	3.63
587.362	3.64
587.7	3.64
588.038	3.68
588.376	3.68
588.715	3.73
589.053	3.77
589.391	3.79
589.729	3.83
590.067	3.83
590.404	3.83
590.742	3.86
591.08	3.84
591.418	3.85
591.756	3.86
592.093	3.83
592.431	3.82
592.769	3.8
593.106	3.83
593.444	3.81
593.781	3.78
594.119	3.82
594.456	3.81
594.793	3.82
595.131	3.76
595.468	3.78
595.805	3.75
596.143	3.74
596.48	3.73
596.817	3.7
597.154	3.75
597.491	3.75
597.828	3.73
598.165	3.72
598.502	3.7
598.839	3.72
599.176	3.72
599.512	3.72
599.849	3.71
600.186	3.67
600.523	3.74
600.859	3.8
601.196	3.84
601.532	3.84
601.869	3.81
602.205	3.84
602.542	3.83
602.878	3.84
603.215	3.81
603.551	3.83
603.887	3.82
604.223	3.8
604.56	3.83
604.896	3.81
605.232	3.82
605.568	3.85
605.904	3.86
606.24	3.9
606.576	3.9
606.912	3.89
607.248	3.91
607.583	3.89
607.919	3.86
608.255	3.82
608.591	3.83
608.926	3.88
609.262	3.89
609.597	3.91
609.933	3.92
610.268	3.93
610.604	3.94
610.939	3.96
611.275	3.97
611.61	3.95
611.945	4.01
612.281	4
612.616	3.95
612.951	3.96
613.286	3.96
613.621	3.97
613.956	3.99
614.291	4.01
614.626	3.99
614.961	3.93
615.296	3.9
615.631	3.88
615.966	3.85
616.3	3.84
616.635	3.81
616.97	3.79
617.304	3.8
617.639	3.79
617.973	3.76
618.308	3.74
618.642	3.71
618.977	3.67
619.311	3.68
619.646	3.78
619.98	3.71
620.314	3.68
620.648	3.69
620.983	3.69
621.317	3.68
621.651	3.7
621.985	3.74
622.319	3.82
622.653	3.82
622.987	3.83
623.321	3.83
623.655	3.85
623.988	3.87
624.322	3.84
624.656	3.91
624.99	3.94
625.323	3.96
625.657	4.02
625.99	4.01
626.324	4.03
626.657	4.02
626.991	4.06
627.324	4.04
627.658	4.07
627.991	4.11
628.324	4.11
628.657	4.12
628.991	4.1
629.324	4.04
629.657	4.04
629.99	4.06
630.323	4.04
630.656	4.02
630.989	4
631.322	4.06
631.655	3.97
631.987	4
632.32	4.01
632.653	3.96
632.986	3.98
633.318	3.95
633.651	3.92
633.984	3.89
634.316	3.89
634.649	3.82
634.981	3.79
635.313	3.76
635.646	3.76
635.978	3.84
636.31	3.92
636.643	3.98
636.975	3.95
637.307	3.97
637.639	4.02
637.971	4
638.303	4
638.635	4.04
638.967	4.01
639.299	4.03
639.631	4.08
639.963	4.05
640.295	4.09
640.626	4.11
640.958	4.16
641.29	4.19
641.621	4.23
641.953	4.23
642.285	4.26
642.616	4.33
642.948	4.3
643.279	4.25
643.61	4.21
643.942	4.21
644.273	4.27
644.604	4.2
644.936	4.24
645.267	4.25
645.598	4.22
645.929	4.28
646.26	4.22
646.591	4.2
646.922	4.19
647.253	4.15
647.584	4.14
647.915	4.08
648.245	4.13
648.576	4.18
648.907	4.11
649.238	4.09
649.568	4.01
649.899	4
650.229	3.95
650.56	3.94
650.89	3.91
651.221	3.91
651.551	3.94
651.882	3.93
652.212	3.91
652.542	3.86
652.872	3.83
653.203	3.85
653.533	3.88
653.863	3.94
654.193	3.95
654.523	3.94
654.853	3.98
655.183	3.94
655.513	3.85
655.843	3.88
656.172	3.93
656.502	3.98
656.832	3.98
657.162	3.99
657.491	3.97
657.821	3.98
658.15	3.93
658.48	3.93
658.809	3.93
659.139	3.94
659.468	3.99
659.798	3.98
660.127	4
660.456	3.96
660.785	3.94
661.115	3.91
661.444	3.94
661.773	3.94
662.102	3.98
662.431	4.06
662.76	4.09
663.089	4.08
663.418	3.96
663.747	3.92
664.076	3.95
664.404	3.89
664.733	3.99
665.062	4.01
665.39	3.97
665.719	3.9
666.048	3.86
666.376	3.84
666.705	3.83
667.033	3.83
667.362	3.92
667.69	3.96
668.018	4.06
668.347	4.06
668.675	4.06
669.003	4.07
669.331	4.05
669.659	4.02
669.987	3.99
670.315	4.15
670.643	4.21
670.971	4.25
671.299	4.35
671.627	4.32
671.955	4.32
672.283	4.37
672.61	4.43
672.938	4.47
673.266	4.5
673.593	4.58
673.921	4.64
674.249	4.6
674.576	4.57
674.904	4.46
675.231	4.4
675.558	4.47
675.886	4.37
676.213	4.39
676.54	4.45
676.867	4.46
677.195	4.41
677.522	4.42
677.849	4.4
678.176	4.34
678.503	4.3
678.83	4.25
679.157	4.22
679.484	4.24
679.81	4.22
