Data from BU58119_Reflection_00014.txt Node
Date: Tue Nov 19 10:51:08 EST 2019
User: vgr7
Spectrometer: USB2G7710
Scans to average: 3
Trigger mode: 4
Integration Time (sec): 2.000000E-2
Electric dark correction enabled: true
Boxcar width: 10
XAxis mode: Wavelengths
Number of Pixels in Spectrum: 2048
>>>>>Begin Spectral Data<<<<<
177.721	-599.68
178.105	-278.64
178.488	-436.02
178.871	-690.91
179.254	-980
179.636	9.48
180.019	35.62
180.402	48.15
180.785	-772.73
181.168	-124.03
181.55	78.8
181.933	86.33
182.316	194.17
182.698	90.49
183.081	67.09
183.463	-22.45
183.846	-86.25
184.228	-439.57
184.611	-374.31
184.993	-373.24
185.376	-430.69
185.758	913.08
186.14	297.01
186.522	223.64
186.904	213.92
187.287	166.82
187.669	75.17
188.051	89.99
188.433	42.37
188.815	43.06
189.197	48.49
189.579	65.89
189.961	61.66
190.342	90.56
190.724	88.09
191.106	95.11
191.488	70.3
191.869	55.24
192.251	65.55
192.633	47.7
193.014	43.89
193.396	43.89
193.777	48.76
194.159	47.56
194.54	39.06
194.922	43.01
195.303	36.38
195.684	33.57
196.065	32.95
196.447	58.19
196.828	56.5
197.209	81.67
197.59	95.83
197.971	101.83
198.352	77.68
198.733	73.67
199.114	76.87
199.495	173
199.876	279.87
200.257	750.35
200.638	1619.48
201.018	-2996.77
201.399	294.54
201.78	300.74
202.16	243.28
202.541	1472.88
202.922	603.36
203.302	-7746.15
203.683	-4580
204.063	952.63
204.444	901.98
204.824	18100
205.204	61.81
205.585	73.04
205.965	20.51
206.345	45.55
206.725	35.18
207.106	47.02
207.486	40.45
207.866	43.22
208.246	47.6
208.626	41.08
209.006	48.84
209.386	48.73
209.766	65.01
210.145	57.83
210.525	60.09
210.905	57.38
211.285	41.34
211.664	36.64
212.044	44.43
212.424	43.38
212.803	38.15
213.183	46.24
213.562	39.25
213.942	44.64
214.321	48.9
214.701	46.3
215.08	37.48
215.459	30.31
215.838	34.47
216.218	31.08
216.597	32.05
216.976	28.42
217.355	23.79
217.734	14.26
218.113	22.91
218.492	15.05
218.871	22.87
219.25	24.49
219.629	19.16
220.008	14.26
220.387	10.91
220.766	14.03
221.144	5.46
221.523	5.18
221.902	15.39
222.28	1.44
222.659	11.52
223.037	10.49
223.416	12.53
223.794	6.37
224.173	3.64
224.551	-0.04
224.929	-1.33
225.308	10.14
225.686	7.27
226.064	-5.17
226.442	1.58
226.821	-1.98
227.199	0.23
227.577	8.49
227.955	9.82
228.333	4.35
228.711	4.21
229.089	10.47
229.467	7.87
229.845	6.14
230.222	8.39
230.6	6.38
230.978	6.13
231.356	6.01
231.733	6.49
232.111	6.15
232.488	8.43
232.866	9.42
233.243	10.46
233.621	11.86
233.998	14.63
234.376	13.8
234.753	14.96
235.13	16.37
235.508	15.91
235.885	16.86
236.262	17.92
236.639	16.84
237.016	13.14
237.393	13.25
237.77	12.77
238.147	11.87
238.524	11.16
238.901	11.07
239.278	9.54
239.655	9.36
240.032	9.39
240.409	8.73
240.785	9.21
241.162	8.83
241.539	8.1
241.915	7.35
242.292	7.21
242.668	6.43
243.045	6
243.421	5.56
243.798	5.46
244.174	5.57
244.551	5.71
244.927	5.81
245.303	5.31
245.679	5.2
246.056	5.25
246.432	5.35
246.808	5.35
247.184	5.7
247.56	5.47
247.936	5.46
248.312	5.38
248.688	5.03
249.064	4.78
249.44	5.07
249.815	5.32
250.191	5.42
250.567	5.37
250.943	5.38
251.318	5.33
251.694	5.44
252.069	5.45
252.445	5.26
252.82	5.55
253.196	5.88
253.571	6.12
253.947	6.26
254.322	5.98
254.697	5.74
255.073	5.36
255.448	5.36
255.823	5.36
256.198	5.54
256.573	5.57
256.948	5.59
257.323	5.55
257.698	5.43
258.073	5.06
258.448	5.15
258.823	5.07
259.198	5.08
259.573	4.78
259.948	4.82
260.322	4.85
260.697	4.93
261.072	4.79
261.446	4.75
261.821	4.54
262.195	4.6
262.57	4.71
262.944	5.05
263.319	5.11
263.693	5.07
264.067	4.97
264.442	4.89
264.816	4.78
265.19	4.73
265.564	4.72
265.938	5.02
266.313	4.92
266.687	5.09
267.061	5.14
267.435	5.35
267.809	5.17
268.183	5.15
268.556	5.04
268.93	5.3
269.304	5.19
269.678	5.39
270.051	5.45
270.425	5.48
270.799	5.18
271.172	5.24
271.546	5.34
271.919	5.37
272.293	5.42
272.666	5.39
273.04	5.36
273.413	5.36
273.787	5.23
274.16	5.06
274.533	5.05
274.906	5.23
275.279	5.13
275.653	5.15
276.026	5.05
276.399	4.98
276.772	4.95
277.145	4.94
277.518	4.97
277.891	4.92
278.263	4.94
278.636	5.16
279.009	5.23
279.382	5.02
279.755	5.05
280.127	5.02
280.5	5.16
280.872	5.2
281.245	5.28
281.617	5.39
281.99	5.56
282.362	5.46
282.735	5.29
283.107	5.23
283.479	5.17
283.852	5.26
284.224	5.29
284.596	5.24
284.968	5.29
285.34	5.2
285.713	5.19
286.085	5.01
286.457	4.98
286.829	4.89
287.201	4.97
287.572	5
287.944	5.03
288.316	4.99
288.688	5.13
289.06	5.1
289.431	5.09
289.803	5.14
290.175	5.16
290.546	5.27
290.918	5.32
291.289	5.4
291.661	5.49
292.032	5.46
292.403	5.31
292.775	5.38
293.146	5.49
293.517	5.59
293.889	5.78
294.26	5.87
294.631	6.02
295.002	6.09
295.373	6.06
295.744	6.05
296.115	6.09
296.486	6.08
296.857	6.15
297.228	6.04
297.599	6.05
297.97	6.19
298.34	6.17
298.711	6.33
299.082	6.4
299.452	6.38
299.823	6.33
300.194	6.62
300.564	6.67
300.935	6.6
301.305	6.69
301.676	6.61
302.046	6.55
302.416	6.46
302.787	6.43
303.157	6.4
303.527	6.7
303.897	6.8
304.267	6.73
304.637	6.78
305.008	7.07
305.378	7.1
305.748	6.98
306.117	6.91
306.487	6.95
306.857	7
307.227	7.26
307.597	7.52
307.967	7.56
308.336	7.51
308.706	7.74
309.076	7.75
309.445	8.01
309.815	8.13
310.184	8.25
310.554	8.33
310.923	8.42
311.293	8.33
311.662	8.38
312.031	8.52
312.401	8.61
312.77	8.54
313.139	8.74
313.508	8.82
313.877	8.84
314.246	8.9
314.616	9.07
314.985	8.98
315.353	9.09
315.722	9.23
316.091	9.4
316.46	9.38
316.829	9.45
317.198	9.58
317.567	9.69
317.935	9.9
318.304	10.05
318.672	10.22
319.041	10.31
319.41	10.47
319.778	10.41
320.147	10.35
320.515	10.51
320.883	10.48
321.252	10.73
321.62	11.03
321.988	11.18
322.357	11.17
322.725	11.4
323.093	11.28
323.461	11.3
323.829	11.38
324.197	11.22
324.565	11.27
324.933	11.2
325.301	11.1
325.669	11
326.037	11.07
326.405	11.15
326.772	11.29
327.14	11.35
327.508	11.54
327.875	11.72
328.243	11.77
328.61	11.96
328.978	11.86
329.346	11.86
329.713	11.81
330.08	11.94
330.448	11.76
330.815	11.81
331.182	11.71
331.55	11.82
331.917	12.11
332.284	12.31
332.651	12.49
333.018	12.66
333.385	12.69
333.752	12.74
334.119	12.71
334.486	12.65
334.853	12.69
335.22	12.63
335.587	12.46
335.954	12.47
336.32	12.3
336.687	12.38
337.054	12.39
337.42	12.42
337.787	12.38
338.153	12.49
338.52	12.63
338.886	12.74
339.253	12.68
339.619	12.68
339.986	12.56
340.352	12.41
340.718	12.42
341.084	12.31
341.451	12.18
341.817	12.26
342.183	12.19
342.549	12.18
342.915	12.15
343.281	12.24
343.647	12.2
344.013	12.32
344.379	12.4
344.745	12.53
345.11	12.48
345.476	12.43
345.842	12.47
346.208	12.48
346.573	12.47
346.939	12.44
347.304	12.44
347.67	12.46
348.035	12.47
348.401	12.39
348.766	12.5
349.132	12.68
349.497	12.69
349.862	12.77
350.228	12.69
350.593	12.7
350.958	12.77
351.323	12.84
351.688	12.79
352.053	12.71
352.418	12.6
352.783	12.65
353.148	12.6
353.513	12.53
353.878	12.49
354.243	12.48
354.608	12.53
354.972	12.46
355.337	12.41
355.702	12.4
356.066	12.48
356.431	12.39
356.795	12.24
357.16	12.18
357.524	12.19
357.889	12.17
358.253	12.1
358.618	12.02
358.982	12.01
359.346	11.94
359.71	11.84
360.075	11.85
360.439	11.77
360.803	11.88
361.167	11.79
361.531	11.7
361.895	11.59
362.259	11.54
362.623	11.54
362.987	11.48
363.351	11.45
363.714	11.3
364.078	11.29
364.442	11.27
364.806	11.24
365.169	11.13
365.533	11.18
365.896	11.14
366.26	11.09
366.623	10.98
366.987	10.98
367.35	10.96
367.714	10.86
368.077	10.87
368.44	10.64
368.803	10.57
369.167	10.55
369.53	10.48
369.893	10.45
370.256	10.26
370.619	10.21
370.982	10.07
371.345	10.07
371.708	10.1
372.071	9.99
372.434	9.86
372.797	9.79
373.159	9.66
373.522	9.57
373.885	9.55
374.247	9.53
374.61	9.45
374.973	9.39
375.335	9.33
375.698	9.18
376.06	9.18
376.423	9.14
376.785	8.98
377.147	8.93
377.51	8.77
377.872	8.76
378.234	8.66
378.596	8.64
378.958	8.5
379.321	8.36
379.683	8.4
380.045	8.33
380.407	8.29
380.769	8.14
381.13	8.07
381.492	7.94
381.854	7.82
382.216	7.76
382.578	7.69
382.939	7.59
383.301	7.52
383.663	7.4
384.024	7.31
384.386	7.3
384.747	7.2
385.109	7.16
385.47	7.16
385.832	7.09
386.193	7.04
386.554	7
386.916	6.93
387.277	6.84
387.638	6.8
387.999	6.75
388.36	6.74
388.721	6.72
389.082	6.73
389.443	6.7
389.804	6.68
390.165	6.63
390.526	6.59
390.887	6.51
391.248	6.45
391.609	6.43
391.969	6.44
392.33	6.4
392.691	6.37
393.051	6.31
393.412	6.28
393.772	6.26
394.133	6.17
394.493	6.13
394.854	6.05
395.214	6.02
395.574	5.98
395.935	5.96
396.295	5.92
396.655	5.86
397.015	5.8
397.376	5.73
397.736	5.65
398.096	5.59
398.456	5.56
398.816	5.54
399.176	5.46
399.535	5.36
399.895	5.36
400.255	5.3
400.615	5.23
400.975	5.15
401.334	5.09
401.694	5.09
402.054	5.07
402.413	5.06
402.773	5.02
403.132	4.96
403.492	4.9
403.851	4.87
404.211	4.84
404.57	4.83
404.929	4.77
405.288	4.76
405.648	4.76
406.007	4.79
406.366	4.74
406.725	4.72
407.084	4.72
407.443	4.73
407.802	4.69
408.161	4.68
408.52	4.74
408.879	4.73
409.238	4.73
409.596	4.68
409.955	4.64
410.314	4.61
410.673	4.59
411.031	4.61
411.39	4.6
411.748	4.6
412.107	4.57
412.465	4.57
412.824	4.54
413.182	4.53
413.54	4.51
413.899	4.51
414.257	4.51
414.615	4.46
414.974	4.42
415.332	4.42
415.69	4.41
416.048	4.36
416.406	4.31
416.764	4.27
417.122	4.28
417.48	4.26
417.838	4.24
418.195	4.23
418.553	4.18
418.911	4.13
419.269	4.11
419.626	4.08
419.984	4.08
420.342	4.09
420.699	4.06
421.057	4.03
421.414	4.02
421.772	4.01
422.129	4
422.486	3.98
422.844	3.97
423.201	3.95
423.558	3.93
423.915	3.93
424.273	3.92
424.63	3.9
424.987	3.89
425.344	3.89
425.701	3.89
426.058	3.88
426.415	3.89
426.772	3.86
427.128	3.87
427.485	3.83
427.842	3.83
428.199	3.83
428.555	3.83
428.912	3.82
429.269	3.81
429.625	3.81
429.982	3.8
430.338	3.77
430.695	3.76
431.051	3.78
431.407	3.8
431.764	3.8
432.12	3.78
432.476	3.78
432.832	3.78
433.189	3.76
433.545	3.77
433.901	3.76
434.257	3.77
434.613	3.76
434.969	3.76
435.325	3.72
435.681	3.7
436.036	3.69
436.392	3.7
436.748	3.72
437.104	3.74
437.459	3.73
437.815	3.76
438.171	3.77
438.526	3.74
438.882	3.72
439.237	3.72
439.593	3.72
439.948	3.73
440.304	3.72
440.659	3.72
441.014	3.71
441.369	3.7
441.725	3.7
442.08	3.69
442.435	3.68
442.79	3.68
443.145	3.7
443.5	3.68
443.855	3.69
444.21	3.7
444.565	3.68
444.92	3.68
445.275	3.66
445.629	3.66
445.984	3.65
446.339	3.65
446.693	3.67
447.048	3.66
447.403	3.64
447.757	3.62
448.112	3.61
448.466	3.6
448.82	3.6
449.175	3.6
449.529	3.59
449.883	3.58
450.238	3.59
450.592	3.57
450.946	3.58
451.3	3.55
451.654	3.51
452.008	3.51
452.362	3.5
452.716	3.5
453.07	3.47
453.424	3.48
453.778	3.47
454.132	3.44
454.486	3.45
454.839	3.46
455.193	3.45
455.547	3.45
455.9	3.47
456.254	3.46
456.607	3.46
456.961	3.47
457.314	3.48
457.668	3.45
458.021	3.44
458.375	3.43
458.728	3.44
459.081	3.46
459.434	3.45
459.787	3.46
460.141	3.47
460.494	3.49
460.847	3.49
461.2	3.5
461.553	3.5
461.906	3.5
462.259	3.5
462.611	3.53
462.964	3.57
463.317	3.58
463.67	3.59
464.022	3.6
464.375	3.61
464.728	3.62
465.08	3.65
465.433	3.66
465.785	3.69
466.138	3.71
466.49	3.71
466.843	3.74
467.195	3.75
467.547	3.73
467.899	3.74
468.252	3.76
468.604	3.78
468.956	3.81
469.308	3.81
469.66	3.84
470.012	3.83
470.364	3.8
470.716	3.82
471.068	3.86
471.42	3.87
471.772	3.89
472.123	3.9
472.475	3.92
472.827	3.93
473.178	3.93
473.53	3.93
473.882	3.93
474.233	3.94
474.585	3.94
474.936	3.95
475.288	3.95
475.639	3.95
475.99	3.94
476.342	3.95
476.693	3.95
477.044	3.92
477.395	3.92
477.746	3.92
478.097	3.9
478.448	3.88
478.8	3.86
479.15	3.82
479.501	3.8
479.852	3.79
480.203	3.77
480.554	3.78
480.905	3.77
481.255	3.77
481.606	3.76
481.957	3.76
482.307	3.77
482.658	3.77
483.009	3.75
483.359	3.75
483.709	3.75
484.06	3.75
484.41	3.75
484.761	3.76
485.111	3.76
485.461	3.77
485.811	3.76
486.162	3.76
486.512	3.76
486.862	3.76
487.212	3.77
487.562	3.77
487.912	3.76
488.262	3.76
488.612	3.76
488.961	3.76
489.311	3.76
489.661	3.76
490.011	3.75
490.36	3.75
490.71	3.75
491.06	3.75
491.409	3.76
491.759	3.77
492.108	3.76
492.458	3.76
492.807	3.76
493.157	3.77
493.506	3.77
493.855	3.79
494.204	3.81
494.554	3.8
494.903	3.82
495.252	3.83
495.601	3.87
495.95	3.88
496.299	3.89
496.648	3.92
496.997	3.93
497.346	3.96
497.695	4.02
498.043	4.05
498.392	4.09
498.741	4.08
499.09	4.11
499.438	4.17
499.787	4.21
500.135	4.24
500.484	4.29
500.832	4.34
501.181	4.36
501.529	4.4
501.878	4.48
502.226	4.53
502.574	4.58
502.923	4.62
503.271	4.68
503.619	4.76
503.967	4.83
504.315	4.88
504.663	4.97
505.011	5.02
505.359	5.07
505.707	5.14
506.055	5.24
506.403	5.3
506.751	5.35
507.098	5.44
507.446	5.53
507.794	5.61
508.141	5.7
508.489	5.79
508.837	5.88
509.184	5.95
509.531	6.05
509.879	6.15
510.226	6.26
510.574	6.36
510.921	6.44
511.268	6.53
511.616	6.65
511.963	6.72
512.31	6.83
512.657	6.93
513.004	7.02
513.351	7.13
513.698	7.28
514.045	7.39
514.392	7.52
514.739	7.64
515.086	7.77
515.432	7.9
515.779	8.02
516.126	8.15
516.473	8.26
516.819	8.38
517.166	8.49
517.512	8.57
517.859	8.68
518.205	8.78
518.552	8.89
518.898	8.98
519.245	9.1
519.591	9.19
519.937	9.31
520.283	9.44
520.629	9.54
520.976	9.65
521.322	9.78
521.668	9.9
522.014	10.04
522.36	10.18
522.706	10.32
523.052	10.5
523.398	10.67
523.743	10.85
524.089	11.03
524.435	11.18
524.781	11.36
525.126	11.5
525.472	11.66
525.817	11.81
526.163	11.94
526.509	12.05
526.854	12.16
527.199	12.28
527.545	12.38
527.89	12.49
528.235	12.6
528.581	12.71
528.926	12.83
529.271	12.95
529.616	13.06
529.961	13.18
530.306	13.31
530.651	13.43
530.996	13.58
531.341	13.73
531.686	13.88
532.031	14.03
532.376	14.2
532.721	14.35
533.065	14.52
533.41	14.7
533.755	14.89
534.099	15.08
534.444	15.28
534.788	15.48
535.133	15.65
535.477	15.85
535.822	16.07
536.166	16.28
536.51	16.51
536.855	16.79
537.199	17.05
537.543	17.3
537.887	17.56
538.231	17.8
538.576	18.05
538.92	18.33
539.264	18.6
539.608	18.83
539.951	19.05
540.295	19.23
540.639	19.44
540.983	19.66
541.327	19.87
541.671	20.05
542.014	20.29
542.358	20.49
542.701	20.71
543.045	20.92
543.389	21.13
543.732	21.33
544.075	21.54
544.419	21.77
544.762	21.98
545.105	22.27
545.449	22.53
545.792	22.81
546.135	23.1
546.478	23.38
546.821	23.7
547.165	24.04
547.508	24.39
547.851	24.71
548.194	25.02
548.536	25.36
548.879	25.7
549.222	26.02
549.565	26.34
549.908	26.65
550.25	26.96
550.593	27.28
550.936	27.64
551.278	27.96
551.621	28.3
551.963	28.66
552.306	28.94
552.648	29.27
552.991	29.56
553.333	29.8
553.675	30.12
554.017	30.42
554.36	30.71
554.702	31.02
555.044	31.32
555.386	31.62
555.728	31.9
556.07	32.22
556.412	32.5
556.754	32.87
557.096	33.2
557.438	33.53
557.78	33.86
558.121	34.14
558.463	34.45
558.805	34.72
559.147	34.93
559.488	35.23
559.83	35.49
560.171	35.74
560.513	36.13
560.854	36.39
561.196	36.6
561.537	36.86
561.878	37.05
562.22	37.25
562.561	37.45
562.902	37.6
563.243	37.75
563.584	37.96
563.925	38.13
564.266	38.32
564.607	38.53
564.948	38.68
565.289	38.94
565.63	39.11
565.971	39.3
566.312	39.56
566.653	39.74
566.993	39.87
567.334	40.06
567.675	40.12
568.015	40.2
568.356	40.36
568.696	40.54
569.037	40.72
569.377	40.85
569.718	41.01
570.058	41.19
570.398	41.38
570.739	41.5
571.079	41.65
571.419	41.83
571.759	41.93
572.099	42.17
572.439	42.22
572.779	42.39
573.119	42.5
573.459	42.59
573.799	42.72
574.139	42.91
574.479	43.03
574.819	43.24
575.158	43.42
575.498	43.57
575.838	43.7
576.177	43.85
576.517	44.12
576.856	44.34
577.196	44.55
577.535	44.74
577.875	44.97
578.214	45.19
578.553	45.39
578.893	45.63
579.232	45.73
579.571	45.99
579.91	46.18
580.25	46.38
580.589	46.6
580.928	46.78
581.267	46.93
581.606	47.11
581.945	47.26
582.283	47.4
582.622	47.55
582.961	47.71
583.3	47.83
583.639	47.91
583.977	47.99
584.316	48.12
584.654	48.29
584.993	48.34
585.332	48.42
585.67	48.46
586.008	48.47
586.347	48.5
586.685	48.58
587.024	48.6
587.362	48.65
587.7	48.64
588.038	48.67
588.376	48.76
588.715	48.77
589.053	48.82
589.391	48.91
589.729	49.07
590.067	49.06
590.404	49.15
590.742	49.19
591.08	49.32
591.418	49.4
591.756	49.39
592.093	49.45
592.431	49.51
592.769	49.54
593.106	49.59
593.444	49.75
593.781	49.75
594.119	49.75
594.456	49.75
594.793	49.85
595.131	49.86
595.468	49.92
595.805	50.05
596.143	50.15
596.48	50.18
596.817	50.17
597.154	50.29
597.491	50.31
597.828	50.39
598.165	50.4
598.502	50.4
598.839	50.56
599.176	50.61
599.512	50.57
599.849	50.73
600.186	50.76
600.523	50.7
600.859	50.76
601.196	50.88
601.532	50.94
601.869	51.01
602.205	51.11
602.542	51.19
602.878	51.17
603.215	51.18
603.551	51.23
603.887	51.21
604.223	51.22
604.56	51.26
604.896	51.25
605.232	51.25
605.568	51.36
605.904	51.34
606.24	51.42
606.576	51.51
606.912	51.53
607.248	51.71
607.583	51.79
607.919	51.83
608.255	51.91
608.591	52.08
608.926	52.06
609.262	52.08
609.597	52.1
609.933	52.12
610.268	52.16
610.604	52.25
610.939	52.34
611.275	52.44
611.61	52.54
611.945	52.63
612.281	52.72
612.616	52.79
612.951	52.83
613.286	52.94
613.621	53.04
613.956	53.06
614.291	53.04
614.626	53.3
614.961	53.35
615.296	53.42
615.631	53.43
615.966	53.56
616.3	53.7
616.635	53.81
616.97	53.96
617.304	54.02
617.639	54
617.973	54.12
618.308	54.1
618.642	54.16
618.977	54.17
619.311	54.34
619.646	54.37
619.98	54.38
620.314	54.36
620.648	54.36
620.983	54.42
621.317	54.49
621.651	54.44
621.985	54.48
622.319	54.47
622.653	54.45
622.987	54.54
623.321	54.6
623.655	54.56
623.988	54.59
624.322	54.63
624.656	54.63
624.99	54.65
625.323	54.68
625.657	54.62
625.99	54.65
626.324	54.51
626.657	54.47
626.991	54.46
627.324	54.49
627.658	54.57
627.991	54.59
628.324	54.58
628.657	54.51
628.991	54.6
629.324	54.68
629.657	54.72
629.99	54.71
630.323	54.74
630.656	54.74
630.989	54.8
631.322	54.85
631.655	54.93
631.987	54.95
632.32	55.03
632.653	55.13
632.986	55.21
633.318	55.29
633.651	55.39
633.984	55.56
634.316	55.67
634.649	55.65
634.981	55.71
635.313	55.86
635.646	56.03
635.978	56.13
636.31	56.12
636.643	56.17
636.975	56.27
637.307	56.2
637.639	56.38
637.971	56.37
638.303	56.32
638.635	56.41
638.967	56.48
639.299	56.51
639.631	56.61
639.963	56.63
640.295	56.79
640.626	56.81
640.958	56.81
641.29	56.82
641.621	56.85
641.953	56.85
642.285	56.89
642.616	56.92
642.948	56.92
643.279	57.01
643.61	57.07
643.942	57.02
644.273	57.08
644.604	57.08
644.936	57.09
645.267	57.08
645.598	57.05
645.929	56.96
646.26	56.89
646.591	56.87
646.922	56.93
647.253	56.88
647.584	56.75
647.915	56.68
648.245	56.7
648.576	56.78
648.907	56.81
649.238	56.75
649.568	56.69
649.899	56.6
650.229	56.65
650.56	56.65
650.89	56.78
651.221	56.74
651.551	56.74
651.882	56.77
652.212	56.78
652.542	56.9
652.872	57.07
653.203	57.09
653.533	57.05
653.863	56.99
654.193	56.81
654.523	56.79
654.853	56.9
655.183	56.83
655.513	56.71
655.843	56.65
656.172	56.66
656.502	56.66
656.832	56.69
657.162	56.54
657.491	56.53
657.821	56.37
658.15	56.52
658.48	56.46
658.809	56.51
659.139	56.55
659.468	56.59
659.798	56.56
660.127	56.69
660.456	56.83
660.785	56.93
661.115	57.12
661.444	57.39
661.773	57.31
662.102	57.35
662.431	57.47
662.76	57.59
663.089	57.66
663.418	57.67
663.747	57.69
664.076	57.85
664.404	57.92
664.733	58.15
665.062	58.11
665.39	58.14
665.719	58.14
