Data from BU58130_Reflection_00008.txt Node
Date: Mon Nov 18 16:37:27 EST 2019
User: vgr7
Spectrometer: USB2G7710
Scans to average: 3
Trigger mode: 4
Integration Time (sec): 2.000000E-2
Electric dark correction enabled: true
Boxcar width: 10
XAxis mode: Wavelengths
Number of Pixels in Spectrum: 2048
>>>>>Begin Spectral Data<<<<<
177.721	-416.54
178.105	311.38
178.488	66.95
178.871	19.09
179.254	15.37
179.636	-405.75
180.019	68.04
180.402	62.07
180.785	27.16
181.168	60.59
181.55	104.37
181.933	94.34
182.316	114.86
182.698	94.09
183.081	88.51
183.463	94.94
183.846	150.46
184.228	168.2
184.611	400.81
184.993	548.94
185.376	315.01
185.758	398.38
186.14	536.34
186.522	929.68
186.904	1336.29
187.287	1523.28
187.669	-883.94
188.051	-3777.19
188.433	-2082.8
188.815	-190.38
189.197	-80.09
189.579	-36.7
189.961	-49.3
190.342	-55.64
190.724	-50.4
191.106	-83.99
191.488	-127.22
191.869	-63.71
192.251	-124.96
192.633	-370.9
193.014	-2529.63
193.396	902.47
193.777	-175.36
194.159	-3.88
194.54	-135.87
194.922	-20.65
195.303	-251.6
195.684	-29.74
196.065	-11.65
196.447	-0.96
196.828	26.76
197.209	5.98
197.59	-11.54
197.971	-0.31
198.352	12.67
198.733	-53.59
199.114	-52.63
199.495	-55.61
199.876	-44.17
200.257	-48.31
200.638	-44.2
201.018	-46.74
201.399	-32.13
201.78	-32.63
202.16	-32.85
202.541	-34.22
202.922	-34.42
203.302	-48.29
203.683	-68.82
204.063	-107.35
204.444	-129.47
204.824	-118.3
205.204	-111.59
205.585	-112.07
205.965	-102.37
206.345	-125.53
206.725	-95.75
207.106	-90.32
207.486	-147.83
207.866	-252.63
208.246	-147.14
208.626	-131.92
209.006	-138.31
209.386	-214.51
209.766	-163.24
210.145	-121.98
210.525	-123.55
210.905	-192.56
211.285	-453.62
211.664	-221.77
212.044	-131.37
212.424	80.39
212.803	111.34
213.183	389.62
213.562	-140.98
213.942	-23.78
214.321	-50.58
214.701	-53.82
215.08	-77.34
215.459	-86.94
215.838	-56.6
216.218	-62.11
216.597	-24.83
216.976	-13.27
217.355	-15.73
217.734	-34.01
218.113	-16.44
218.492	-27.03
218.871	-8.62
219.25	15.21
219.629	5.05
220.008	-7.71
220.387	2.23
220.766	4.99
221.144	-13.64
221.523	-16.04
221.902	-41.97
222.28	-35.73
222.659	-15.68
223.037	-2.09
223.416	-2.41
223.794	-7.93
224.173	-5.25
224.551	-17.79
224.929	-26.98
225.308	-22.25
225.686	-24.93
226.064	-30.74
226.442	-27.44
226.821	-26.86
227.199	-29.34
227.577	-24.68
227.955	-20.65
228.333	-21.02
228.711	-16.24
229.089	-7.02
229.467	-8
229.845	-7.16
230.222	-3.55
230.6	-7.75
230.978	-8.1
231.356	-5.27
231.733	-2.26
232.111	-2.69
232.488	-2.67
232.866	-0.69
233.243	1.31
233.621	5.62
233.998	6.62
234.376	5.52
234.753	6.14
235.13	6.42
235.508	7.39
235.885	6.9
236.262	5.95
236.639	6.19
237.016	5.08
237.393	5.63
237.77	4.7
238.147	3.35
238.524	3.96
238.901	4.09
239.278	4.32
239.655	3.98
240.032	4.09
240.409	3.51
240.785	3.88
241.162	4.32
241.539	3.72
241.915	3.67
242.292	4.26
242.668	4.1
243.045	4.23
243.421	3.55
243.798	3.33
244.174	3.48
244.551	3.04
244.927	2.89
245.303	2.73
245.679	2.74
246.056	2.88
246.432	3.11
246.808	3.16
247.184	3.13
247.56	2.96
247.936	2.79
248.312	2.81
248.688	2.62
249.064	2.38
249.44	2.49
249.815	2.57
250.191	2.49
250.567	2.56
250.943	2.46
251.318	2.75
251.694	2.92
252.069	2.64
252.445	2.62
252.82	2.65
253.196	2.75
253.571	2.71
253.947	2.87
254.322	2.57
254.697	2.66
255.073	2.49
255.448	2.17
255.823	2.57
256.198	2.7
256.573	2.56
256.948	2.37
257.323	2.32
257.698	2.18
258.073	2.05
258.448	2.03
258.823	2.04
259.198	1.9
259.573	1.81
259.948	1.83
260.322	1.91
260.697	2.02
261.072	2
261.446	2.12
261.821	2.01
262.195	2.22
262.57	2.05
262.944	2
263.319	2.2
263.693	2.17
264.067	2.22
264.442	2.25
264.816	2.43
265.19	2.47
265.564	2.44
265.938	2.48
266.313	2.4
266.687	2.55
267.061	2.89
267.435	3.04
267.809	2.97
268.183	2.96
268.556	2.7
268.93	2.73
269.304	2.62
269.678	2.73
270.051	2.61
270.425	2.76
270.799	2.88
271.172	2.84
271.546	2.63
271.919	2.66
272.293	2.7
272.666	2.68
273.04	2.54
273.413	2.66
273.787	2.64
274.16	2.78
274.533	2.71
274.906	2.51
275.279	2.42
275.653	2.61
276.026	2.52
276.399	2.58
276.772	2.8
277.145	2.68
277.518	2.59
277.891	2.57
278.263	2.4
278.636	2.31
279.009	2.29
279.382	2.44
279.755	2.35
280.127	2.53
280.5	2.53
280.872	2.69
281.245	2.58
281.617	2.7
281.99	2.71
282.362	2.68
282.735	2.47
283.107	2.53
283.479	2.44
283.852	2.44
284.224	2.45
284.596	2.22
284.968	2.36
285.34	2.37
285.713	2.33
286.085	2.42
286.457	2.44
286.829	2.44
287.201	2.43
287.572	2.34
287.944	2.15
288.316	2.16
288.688	2.2
289.06	2.16
289.431	2.01
289.803	2.03
290.175	2.11
290.546	2.4
290.918	2.35
291.289	2.43
291.661	2.42
292.032	2.47
292.403	2.48
292.775	2.48
293.146	2.56
293.517	2.56
293.889	2.6
294.26	2.52
294.631	2.54
295.002	2.58
295.373	2.7
295.744	2.74
296.115	2.84
296.486	2.75
296.857	2.74
297.228	2.84
297.599	2.71
297.97	2.67
298.34	2.59
298.711	2.67
299.082	2.68
299.452	2.77
299.823	2.92
300.194	2.98
300.564	2.87
300.935	2.83
301.305	2.86
301.676	2.85
302.046	3
302.416	3.15
302.787	3.1
303.157	3.17
303.527	3.35
303.897	3.32
304.267	3.54
304.637	3.76
305.008	3.82
305.378	4.09
305.748	4.26
306.117	4.26
306.487	4.3
306.857	4.34
307.227	4.43
307.597	4.27
307.967	4.35
308.336	4.57
308.706	4.6
309.076	4.63
309.445	4.64
309.815	4.64
310.184	4.43
310.554	4.5
310.923	4.53
311.293	4.43
311.662	4.5
312.031	4.47
312.401	4.45
312.77	4.48
313.139	4.36
313.508	4.37
313.877	4.36
314.246	4.41
314.616	4.4
314.985	4.4
315.353	4.41
315.722	4.44
316.091	4.45
316.46	4.46
316.829	4.69
317.198	4.72
317.567	4.7
317.935	4.93
318.304	4.89
318.672	4.95
319.041	5.2
319.41	5.19
319.778	5.15
320.147	5.11
320.515	5.13
320.883	5.11
321.252	5.11
321.62	5.27
321.988	5.33
322.357	5.33
322.725	5.24
323.093	5.55
323.461	5.48
323.829	5.55
324.197	5.76
324.565	5.7
324.933	5.73
325.301	5.78
325.669	5.73
326.037	5.88
326.405	5.82
326.772	5.79
327.14	5.98
327.508	6.05
327.875	6.01
328.243	6.24
328.61	6.36
328.978	6.41
329.346	6.46
329.713	6.31
330.08	6.38
330.448	6.45
330.815	6.28
331.182	6.38
331.55	6.32
331.917	6.21
332.284	6.39
332.651	6.54
333.018	6.63
333.385	6.75
333.752	6.74
334.119	6.75
334.486	6.68
334.853	6.43
335.22	6.46
335.587	6.61
335.954	6.32
336.32	6.37
336.687	6.32
337.054	6.23
337.42	6.28
337.787	6.38
338.153	6.53
338.52	6.55
338.886	6.51
339.253	6.45
339.619	6.44
339.986	6.28
340.352	6.25
340.718	6.25
341.084	6.13
341.451	6.18
341.817	6.25
342.183	6.21
342.549	6.27
342.915	6.33
343.281	6.34
343.647	6.39
344.013	6.42
344.379	6.41
344.745	6.52
345.11	6.67
345.476	6.67
345.842	6.65
346.208	6.62
346.573	6.65
346.939	6.81
347.304	6.86
347.67	6.85
348.035	6.79
348.401	6.82
348.766	6.95
349.132	6.91
349.497	6.89
349.862	7
350.228	7.02
350.593	6.95
350.958	6.98
351.323	7.06
351.688	6.99
352.053	6.97
352.418	6.96
352.783	6.91
353.148	6.86
353.513	6.81
353.878	6.9
354.243	6.98
354.608	6.85
354.972	6.81
355.337	6.81
355.702	6.86
356.066	6.91
356.431	6.84
356.795	6.9
357.16	6.83
357.524	6.73
357.889	6.67
358.253	6.64
358.618	6.53
358.982	6.5
359.346	6.45
359.71	6.43
360.075	6.34
360.439	6.32
360.803	6.28
361.167	6.25
361.531	6.16
361.895	6.06
362.259	6.08
362.623	6.06
362.987	6.04
363.351	5.97
363.714	5.85
364.078	5.76
364.442	5.62
364.806	5.62
365.169	5.58
365.533	5.57
365.896	5.52
366.26	5.51
366.623	5.47
366.987	5.47
367.35	5.45
367.714	5.47
368.077	5.38
368.44	5.36
368.803	5.35
369.167	5.32
369.53	5.33
369.893	5.31
370.256	5.23
370.619	5.15
370.982	5.07
371.345	5.08
371.708	5.03
372.071	5.03
372.434	4.99
372.797	5.01
373.159	5
373.522	4.9
373.885	4.89
374.247	4.89
374.61	4.8
374.973	4.73
375.335	4.67
375.698	4.64
376.06	4.57
376.423	4.53
376.785	4.51
377.147	4.45
377.51	4.35
377.872	4.39
378.234	4.36
378.596	4.38
378.958	4.3
379.321	4.34
379.683	4.31
380.045	4.28
380.407	4.19
380.769	4.12
381.13	4.09
381.492	4.03
381.854	3.99
382.216	3.95
382.578	3.93
382.939	3.88
383.301	3.83
383.663	3.82
384.024	3.76
384.386	3.75
384.747	3.72
385.109	3.72
385.47	3.65
385.832	3.65
386.193	3.65
386.554	3.62
386.916	3.57
387.277	3.59
387.638	3.55
387.999	3.49
388.36	3.44
388.721	3.45
389.082	3.43
389.443	3.35
389.804	3.35
390.165	3.33
390.526	3.33
390.887	3.29
391.248	3.28
391.609	3.25
391.969	3.23
392.33	3.2
392.691	3.19
393.051	3.17
393.412	3.14
393.772	3.05
394.133	3.05
394.493	3.01
394.854	2.94
395.214	2.94
395.574	2.96
395.935	2.97
396.295	2.96
396.655	2.92
397.015	2.91
397.376	2.89
397.736	2.83
398.096	2.82
398.456	2.82
398.816	2.78
399.176	2.74
399.535	2.68
399.895	2.65
400.255	2.62
400.615	2.6
400.975	2.6
401.334	2.6
401.694	2.58
402.054	2.57
402.413	2.57
402.773	2.53
403.132	2.52
403.492	2.52
403.851	2.51
404.211	2.49
404.57	2.49
404.929	2.47
405.288	2.49
405.648	2.49
406.007	2.5
406.366	2.49
406.725	2.55
407.084	2.58
407.443	2.59
407.802	2.6
408.161	2.58
408.52	2.53
408.879	2.54
409.238	2.53
409.596	2.55
409.955	2.56
410.314	2.56
410.673	2.54
411.031	2.53
411.39	2.53
411.748	2.54
412.107	2.56
412.465	2.55
412.824	2.53
413.182	2.5
413.54	2.5
413.899	2.5
414.257	2.45
414.615	2.39
414.974	2.39
415.332	2.33
415.69	2.35
416.048	2.35
416.406	2.33
416.764	2.32
417.122	2.29
417.48	2.27
417.838	2.25
418.195	2.24
418.553	2.22
418.911	2.21
419.269	2.21
419.626	2.19
419.984	2.18
420.342	2.19
420.699	2.18
421.057	2.17
421.414	2.16
421.772	2.15
422.129	2.17
422.486	2.16
422.844	2.16
423.201	2.15
423.558	2.15
423.915	2.16
424.273	2.16
424.63	2.15
424.987	2.16
425.344	2.15
425.701	2.15
426.058	2.16
426.415	2.16
426.772	2.15
427.128	2.15
427.485	2.16
427.842	2.14
428.199	2.14
428.555	2.13
428.912	2.12
429.269	2.11
429.625	2.09
429.982	2.08
430.338	2.08
430.695	2.08
431.051	2.08
431.407	2.06
431.764	2.06
432.12	2.06
432.476	2.03
432.832	2.02
433.189	2.02
433.545	2
433.901	1.99
434.257	1.99
434.613	2
434.969	1.98
435.325	1.99
435.681	1.99
436.036	2
436.392	2
436.748	2.01
437.104	2.02
437.459	2.03
437.815	2.03
438.171	2.03
438.526	2.03
438.882	2.03
439.237	2.04
439.593	2.06
439.948	2.07
440.304	2.09
440.659	2.09
441.014	2.09
441.369	2.08
441.725	2.07
442.08	2.05
442.435	2.07
442.79	2.07
443.145	2.07
443.5	2.06
443.855	2.06
444.21	2.05
444.565	2.05
444.92	2.06
445.275	2.05
445.629	2.05
445.984	2.03
446.339	2.01
446.693	1.99
447.048	1.99
447.403	1.98
447.757	1.95
448.112	1.94
448.466	1.95
448.82	1.94
449.175	1.96
449.529	1.96
449.883	1.94
450.238	1.91
450.592	1.91
450.946	1.9
451.3	1.89
451.654	1.89
452.008	1.89
452.362	1.86
452.716	1.86
453.07	1.87
453.424	1.88
453.778	1.88
454.132	1.86
454.486	1.85
454.839	1.86
455.193	1.87
455.547	1.88
455.9	1.87
456.254	1.87
456.607	1.86
456.961	1.85
457.314	1.86
457.668	1.88
458.021	1.87
458.375	1.87
458.728	1.88
459.081	1.87
459.434	1.85
459.787	1.87
460.141	1.87
460.494	1.85
460.847	1.85
461.2	1.84
461.553	1.87
461.906	1.88
462.259	1.9
462.611	1.9
462.964	1.91
463.317	1.91
463.67	1.93
464.022	1.93
464.375	1.95
464.728	1.96
465.08	1.95
465.433	1.96
465.785	1.99
466.138	1.99
466.49	1.97
466.843	1.99
467.195	2
467.547	2.01
467.899	2.01
468.252	2.01
468.604	2.02
468.956	2.01
469.308	2
469.66	1.97
470.012	1.97
470.364	1.98
470.716	2
471.068	2
471.42	2
471.772	2.01
472.123	2.02
472.475	2.05
472.827	2.05
473.178	2.02
473.53	2.02
473.882	2.02
474.233	2.04
474.585	2.03
474.936	2.01
475.288	2
475.639	2
475.99	2.02
476.342	2.05
476.693	2.05
477.044	2.08
477.395	2.1
477.746	2.09
478.097	2.08
478.448	2.06
478.8	2.06
479.15	2.04
479.501	2.02
479.852	2.01
480.203	2.01
480.554	2.03
480.905	2.04
481.255	2.04
481.606	2.03
481.957	2.04
482.307	2.06
482.658	2.07
483.009	2.08
483.359	2.07
483.709	2.06
484.06	2.06
484.41	2.05
484.761	2.05
485.111	2.05
485.461	2.06
485.811	2.06
486.162	2.07
486.512	2.07
486.862	2.08
487.212	2.08
487.562	2.09
487.912	2.08
488.262	2.07
488.612	2.08
488.961	2.08
489.311	2.08
489.661	2.08
490.011	2.07
490.36	2.07
490.71	2.07
491.06	2.08
491.409	2.09
491.759	2.09
492.108	2.09
492.458	2.08
492.807	2.07
493.157	2.09
493.506	2.08
493.855	2.09
494.204	2.1
494.554	2.1
494.903	2.09
495.252	2.11
495.601	2.14
495.95	2.15
496.299	2.15
496.648	2.16
496.997	2.17
497.346	2.19
497.695	2.21
498.043	2.23
498.392	2.25
498.741	2.26
499.09	2.28
499.438	2.31
499.787	2.36
500.135	2.36
500.484	2.37
500.832	2.4
501.181	2.4
501.529	2.41
501.878	2.44
502.226	2.46
502.574	2.47
502.923	2.48
503.271	2.5
503.619	2.52
503.967	2.53
504.315	2.54
504.663	2.57
505.011	2.61
505.359	2.62
505.707	2.65
506.055	2.66
506.403	2.69
506.751	2.71
507.098	2.74
507.446	2.8
507.794	2.83
508.141	2.86
508.489	2.89
508.837	2.93
509.184	2.96
509.531	3
509.879	3.05
510.226	3.08
510.574	3.11
510.921	3.16
511.268	3.19
511.616	3.23
511.963	3.25
512.31	3.27
512.657	3.34
513.004	3.39
513.351	3.44
513.698	3.5
514.045	3.53
514.392	3.56
514.739	3.62
515.086	3.67
515.432	3.71
515.779	3.74
516.126	3.81
516.473	3.87
516.819	3.92
517.166	3.95
517.512	3.98
517.859	4.03
518.205	4.06
518.552	4.1
518.898	4.16
519.245	4.19
519.591	4.24
519.937	4.26
520.283	4.31
520.629	4.35
520.976	4.4
521.322	4.46
521.668	4.52
522.014	4.56
522.36	4.62
522.706	4.68
523.052	4.75
523.398	4.84
523.743	4.89
524.089	4.95
524.435	5.02
524.781	5.1
525.126	5.17
525.472	5.24
525.817	5.31
526.163	5.35
526.509	5.4
526.854	5.44
527.199	5.48
527.545	5.52
527.89	5.56
528.235	5.6
528.581	5.64
528.926	5.7
529.271	5.75
529.616	5.8
529.961	5.85
530.306	5.91
530.651	5.96
530.996	6.03
531.341	6.09
531.686	6.15
532.031	6.23
532.376	6.31
532.721	6.38
533.065	6.45
533.41	6.53
533.755	6.63
534.099	6.72
534.444	6.81
534.788	6.9
535.133	6.99
535.477	7.09
535.822	7.21
536.166	7.31
536.51	7.42
536.855	7.56
537.199	7.7
537.543	7.83
537.887	7.95
538.231	8.08
538.576	8.24
538.92	8.39
539.264	8.51
539.608	8.65
539.951	8.78
540.295	8.9
540.639	9.05
540.983	9.17
541.327	9.3
541.671	9.41
542.014	9.54
542.358	9.67
542.701	9.8
543.045	9.92
543.389	10.05
543.732	10.18
544.075	10.3
544.419	10.44
544.762	10.59
545.105	10.76
545.449	10.93
545.792	11.11
546.135	11.31
546.478	11.54
546.821	11.74
547.165	11.94
547.508	12.18
547.851	12.38
548.194	12.6
548.536	12.83
548.879	13.1
549.222	13.32
549.565	13.6
549.908	13.82
550.25	14.1
550.593	14.36
550.936	14.62
551.278	14.91
551.621	15.16
551.963	15.43
552.306	15.69
552.648	15.96
552.991	16.22
553.333	16.43
553.675	16.64
554.017	16.86
554.36	17.11
554.702	17.34
555.044	17.54
555.386	17.8
555.728	18.06
556.07	18.27
556.412	18.55
556.754	18.73
557.096	19.03
557.438	19.29
557.78	19.53
558.121	19.81
558.463	20.04
558.805	20.34
559.147	20.58
559.488	20.83
559.83	21.09
560.171	21.31
560.513	21.58
560.854	21.82
561.196	22.09
561.537	22.36
561.878	22.62
562.22	22.93
562.561	23.12
562.902	23.36
563.243	23.63
563.584	23.84
563.925	24.17
564.266	24.35
564.607	24.57
564.948	24.84
565.289	25.1
565.63	25.34
565.971	25.49
566.312	25.68
566.653	25.92
566.993	26.1
567.334	26.32
567.675	26.51
568.015	26.73
568.356	26.91
568.696	27.11
569.037	27.29
569.377	27.46
569.718	27.71
570.058	27.89
570.398	28.1
570.739	28.27
571.079	28.39
571.419	28.58
571.759	28.79
572.099	28.92
572.439	29.09
572.779	29.23
573.119	29.43
573.459	29.63
573.799	29.74
574.139	29.88
574.479	30.01
574.819	30.2
575.158	30.39
575.498	30.59
575.838	30.74
576.177	30.9
576.517	31.07
576.856	31.24
577.196	31.39
577.535	31.51
577.875	31.71
578.214	31.89
578.553	32.08
578.893	32.19
579.232	32.37
579.571	32.52
579.91	32.69
580.25	32.88
580.589	33.02
580.928	33.19
581.267	33.34
581.606	33.51
581.945	33.64
582.283	33.76
582.622	33.82
582.961	33.91
583.3	34.09
583.639	34.23
583.977	34.33
584.316	34.47
584.654	34.59
584.993	34.73
585.332	34.79
585.67	34.89
586.008	35.02
586.347	35.14
586.685	35.21
587.024	35.3
587.362	35.3
587.7	35.42
588.038	35.51
588.376	35.65
588.715	35.69
589.053	35.77
589.391	35.9
589.729	36.04
590.067	36.2
590.404	36.23
590.742	36.38
591.08	36.42
591.418	36.52
591.756	36.62
592.093	36.67
592.431	36.79
592.769	36.88
593.106	36.98
593.444	37.04
593.781	37.1
594.119	37.22
594.456	37.37
594.793	37.43
595.131	37.47
595.468	37.55
595.805	37.64
596.143	37.76
596.48	37.82
596.817	37.88
597.154	37.92
597.491	38
597.828	37.97
598.165	38.03
598.502	38.03
598.839	38.11
599.176	38.19
599.512	38.26
599.849	38.34
600.186	38.39
600.523	38.45
600.859	38.59
601.196	38.67
601.532	38.67
601.869	38.71
602.205	38.81
602.542	38.85
602.878	38.92
603.215	38.89
603.551	38.86
603.887	38.88
604.223	38.93
604.56	38.92
604.896	39.05
605.232	39.1
605.568	39.23
605.904	39.3
606.24	39.32
606.576	39.35
606.912	39.37
607.248	39.44
607.583	39.51
607.919	39.55
608.255	39.54
608.591	39.66
608.926	39.71
609.262	39.76
609.597	39.82
609.933	39.82
610.268	39.96
610.604	40.01
610.939	40.03
611.275	39.96
611.61	40.01
611.945	39.97
612.281	40.01
612.616	39.98
612.951	39.95
613.286	39.99
613.621	40.08
613.956	40.09
614.291	40.09
614.626	40.12
614.961	40.15
615.296	40.14
615.631	40.16
615.966	40.16
616.3	40.14
616.635	40.22
616.97	40.2
617.304	40.12
617.639	40.25
617.973	40.29
618.308	40.47
618.642	40.51
618.977	40.53
619.311	40.52
619.646	40.58
619.98	40.58
620.314	40.58
620.648	40.6
620.983	40.64
621.317	40.72
621.651	40.7
621.985	40.68
622.319	40.77
622.653	40.8
622.987	40.89
623.321	41.02
623.655	41.02
623.988	41.17
624.322	41.2
624.656	41.23
624.99	41.27
625.323	41.26
625.657	41.29
625.99	41.42
626.324	41.51
626.657	41.5
626.991	41.6
627.324	41.67
627.658	41.64
627.991	41.72
628.324	41.73
628.657	41.76
628.991	41.76
629.324	41.81
629.657	41.78
629.99	41.7
630.323	41.59
630.656	41.62
630.989	41.61
631.322	41.61
631.655	41.56
631.987	41.53
632.32	41.52
632.653	41.52
632.986	41.47
633.318	41.48
633.651	41.53
633.984	41.52
634.316	41.6
634.649	41.67
634.981	41.59
635.313	41.55
635.646	41.62
635.978	41.7
636.31	41.72
636.643	41.67
636.975	41.85
637.307	42.05
637.639	42.12
637.971	42.09
638.303	42.12
638.635	42.16
638.967	42.29
639.299	42.31
639.631	42.32
639.963	42.25
640.295	42.25
640.626	42.28
640.958	42.29
641.29	42.24
641.621	42.32
641.953	42.4
642.285	42.38
642.616	42.38
642.948	42.36
643.279	42.35
643.61	42.52
643.942	42.44
644.273	42.28
644.604	42.2
644.936	42.26
645.267	42.26
645.598	42.23
645.929	42.09
646.26	42.19
646.591	42.31
646.922	42.39
647.253	42.36
647.584	42.38
647.915	42.37
648.245	42.27
648.576	42.17
648.907	42.15
649.238	42.26
649.568	42.24
649.899	42.24
650.229	42.26
650.56	42.2
650.89	42.21
651.221	42.25
651.551	42.25
651.882	42.23
652.212	42.25
652.542	42.28
652.872	42.3
653.203	42.28
653.533	42.19
653.863	42.21
654.193	42.27
654.523	42.27
654.853	42.29
655.183	42.41
655.513	42.46
655.843	42.46
656.172	42.37
656.502	42.42
656.832	42.49
657.162	42.62
657.491	42.6
657.821	42.62
658.15	42.64
658.48	42.58
658.809	42.57
659.139	42.55
659.468	42.54
659.798	42.58
660.127	42.56
660.456	42.58
660.785	42.56
661.115	42.57
661.444	42.57
661.773	42.52
662.102	42.49
662.431	42.52
662.76	42.54
663.089	42.56
663.418	42.57
663.747	42.48
664.076	42.27
664.404	42.21
664.733	42.18
665.062	42.22
665.39	42.33
665.719	42.4
666.048	42.4
666.376	42.36
666.705	42.49
667.033	42.57
667.362	42.72
667.69	42.72
668.018	42.72
668.347	42.71
