Data from BU58119_Reflection_00004.txt Node
Date: Tue Nov 19 10:50:45 EST 2019
User: vgr7
Spectrometer: USB2G7710
Scans to average: 3
Trigger mode: 4
Integration Time (sec): 2.000000E-2
Electric dark correction enabled: true
Boxcar width: 10
XAxis mode: Wavelengths
Number of Pixels in Spectrum: 2048
>>>>>Begin Spectral Data<<<<<
177.721	-355.27
178.105	-249.51
178.488	-293.37
178.871	-527.27
179.254	-1280
179.636	397.41
180.019	325.32
180.402	148.15
180.785	-690.91
181.168	-94.81
181.55	9.89
181.933	0.91
182.316	-54.71
182.698	-16.48
183.081	-45.34
183.463	-0.58
183.846	-62.97
184.228	-234.53
184.611	-202.37
184.993	-225.35
185.376	-360.29
185.758	1319.63
186.14	417.91
186.522	246.42
186.904	270.89
187.287	210.24
187.669	151.72
188.051	135.04
188.433	77.25
188.815	47.55
189.197	39.9
189.579	17.56
189.961	0.49
190.342	-1.01
190.724	-18.26
191.106	-21.4
191.488	-18.03
191.869	-12.55
192.251	-9.55
192.633	-10.64
193.014	-16.39
193.396	-28.33
193.777	-38.69
194.159	-31.11
194.54	-17.44
194.922	-18.4
195.303	-21.62
195.684	-30.82
196.065	-25.39
196.447	-26.18
196.828	-23.97
197.209	-16.37
197.59	11.4
197.971	7.79
198.352	19.09
198.733	26.06
199.114	33.78
199.495	60.02
199.876	13.28
200.257	-36.36
200.638	-231.17
201.018	148.39
201.399	43.69
201.78	172.49
202.16	-2.99
202.541	-484.75
202.922	-212.08
203.302	1830.77
203.683	160
204.063	-547.37
204.444	-211.88
204.824	400
205.204	0.28
205.585	-17.46
205.965	-13.35
206.345	-20.57
206.725	-18.5
207.106	-10.86
207.486	8.44
207.866	20.91
208.246	19.61
208.626	26.66
209.006	15.44
209.386	32.42
209.766	23.91
210.145	33.83
210.525	24.83
210.905	37.94
211.285	33.35
211.664	27.52
212.044	38.66
212.424	31.58
212.803	26.05
213.183	25.6
213.562	25.52
213.942	31.97
214.321	15
214.701	13.99
215.08	15.84
215.459	7.82
215.838	3.15
216.218	-2.85
216.597	-5.22
216.976	-4.59
217.355	-13.85
217.734	-18.61
218.113	-8.59
218.492	-2.72
218.871	-5.14
219.25	-3.49
219.629	-10.64
220.008	-8.71
220.387	-19.68
220.766	-15.56
221.144	-22.57
221.523	-32.62
221.902	-34.34
222.28	-9.03
222.659	0.31
223.037	-11.23
223.416	-4.56
223.794	-10.27
224.173	-10.97
224.551	-13.34
224.929	-6.45
225.308	-3.84
225.686	0.05
226.064	-13.87
226.442	-11.91
226.821	-14.2
227.199	-16.07
227.577	-11.04
227.955	-5.81
228.333	-3.17
228.711	-3.07
229.089	-4.61
229.467	0.8
229.845	-0.68
230.222	3.28
230.6	5.44
230.978	7.34
231.356	7.82
231.733	11.6
232.111	17.05
232.488	17.67
232.866	20.15
233.243	19.38
233.621	20.04
233.998	20.73
234.376	19.56
234.753	20.96
235.13	20.4
235.508	19.51
235.885	18.39
236.262	19.18
236.639	17.66
237.016	18.3
237.393	16.58
237.77	16.61
238.147	14.42
238.524	13.95
238.901	11.99
239.278	9.89
239.655	8.86
240.032	7.71
240.409	7.1
240.785	6.73
241.162	7.13
241.539	6.82
241.915	6.89
242.292	7.58
242.668	7.89
243.045	8.18
243.421	7.78
243.798	7.58
244.174	7.28
244.551	7.29
244.927	7.27
245.303	6.82
245.679	6.96
246.056	6.69
246.432	6.47
246.808	6.97
247.184	7.33
247.56	7.02
247.936	7.18
248.312	7.27
248.688	7.04
249.064	6.83
249.44	6.87
249.815	6.89
250.191	6.63
250.567	6.14
250.943	6.13
251.318	6.15
251.694	6.09
252.069	6.21
252.445	6.28
252.82	6.3
253.196	6.85
253.571	6.83
253.947	7.26
254.322	7.26
254.697	6.64
255.073	6.2
255.448	6.32
255.823	5.74
256.198	5.5
256.573	5.5
256.948	5.68
257.323	5.68
257.698	5.76
258.073	5.78
258.448	5.97
258.823	5.64
259.198	5.77
259.573	5.67
259.948	5.85
260.322	5.75
260.697	5.7
261.072	5.53
261.446	5.48
261.821	5.34
262.195	5.42
262.57	5.55
262.944	5.83
263.319	6.18
263.693	6.34
264.067	6.66
264.442	6.82
264.816	6.71
265.19	6.66
265.564	6.54
265.938	6.42
266.313	6.26
266.687	6.38
267.061	6.12
267.435	6.22
267.809	5.85
268.183	5.57
268.556	5.56
268.93	5.41
269.304	5.41
269.678	5.45
270.051	5.28
270.425	5.19
270.799	5.05
271.172	4.95
271.546	4.96
271.919	5.03
272.293	4.87
272.666	5.05
273.04	4.92
273.413	4.83
273.787	5.12
274.16	5.15
274.533	5.22
274.906	5.29
275.279	5.29
275.653	5.44
276.026	5.73
276.399	5.85
276.772	5.94
277.145	5.98
277.518	6
277.891	5.94
278.263	6.14
278.636	6.1
279.009	6.08
279.382	6.02
279.755	5.88
280.127	5.96
280.5	5.73
280.872	5.91
281.245	5.75
281.617	5.68
281.99	5.83
282.362	5.85
282.735	5.84
283.107	5.85
283.479	5.75
283.852	5.6
284.224	5.48
284.596	5.43
284.968	5.44
285.34	5.56
285.713	5.53
286.085	5.44
286.457	5.48
286.829	5.4
287.201	5.45
287.572	5.45
287.944	5.64
288.316	5.76
288.688	5.69
289.06	5.97
289.431	5.96
289.803	5.93
290.175	6.02
290.546	6.08
290.918	6.01
291.289	6.03
291.661	6.22
292.032	6.29
292.403	6.44
292.775	6.4
293.146	6.28
293.517	6.35
293.889	6.42
294.26	6.46
294.631	6.63
295.002	6.66
295.373	6.64
295.744	6.44
296.115	6.36
296.486	6.48
296.857	6.49
297.228	6.39
297.599	6.43
297.97	6.35
298.34	6.4
298.711	6.42
299.082	6.54
299.452	6.51
299.823	6.47
300.194	6.35
300.564	6.34
300.935	6.43
301.305	6.46
301.676	6.28
302.046	6.24
302.416	6.13
302.787	6.17
303.157	6.3
303.527	6.52
303.897	6.5
304.267	6.46
304.637	6.46
305.008	6.48
305.378	6.26
305.748	6.29
306.117	6.27
306.487	6.32
306.857	6.27
307.227	6.28
307.597	6.26
307.967	6.32
308.336	6.43
308.706	6.27
309.076	6.34
309.445	6.68
309.815	6.59
310.184	6.48
310.554	6.35
310.923	6.22
311.293	6.12
311.662	6.11
312.031	6.16
312.401	6.21
312.77	6.28
313.139	6.47
313.508	6.47
313.877	6.34
314.246	6.42
314.616	6.43
314.985	6.44
315.353	6.45
315.722	6.7
316.091	6.56
316.46	6.8
316.829	6.7
317.198	6.52
317.567	6.68
317.935	6.93
318.304	7.01
318.672	7.06
319.041	6.92
319.41	6.88
319.778	6.82
320.147	6.55
320.515	6.39
320.883	6.2
321.252	6.17
321.62	6.31
321.988	6.39
322.357	6.37
322.725	6.38
323.093	6.38
323.461	6.19
323.829	6.18
324.197	6.06
324.565	6.22
324.933	6.14
325.301	6.07
325.669	6
326.037	6.03
326.405	5.94
326.772	6.01
327.14	6.08
327.508	6.06
327.875	6.18
328.243	6.36
328.61	6.49
328.978	6.53
329.346	6.47
329.713	6.45
330.08	6.41
330.448	6.38
330.815	6.44
331.182	6.45
331.55	6.51
331.917	6.56
332.284	6.42
332.651	6.45
333.018	6.42
333.385	6.36
333.752	6.41
334.119	6.51
334.486	6.51
334.853	6.59
335.22	6.62
335.587	6.61
335.954	6.59
336.32	6.6
336.687	6.71
337.054	6.77
337.42	6.7
337.787	6.65
338.153	6.76
338.52	6.75
338.886	6.8
339.253	6.79
339.619	6.8
339.986	6.88
340.352	7
340.718	7.04
341.084	7.05
341.451	7.12
341.817	7.12
342.183	7.11
342.549	7.04
342.915	7.01
343.281	6.96
343.647	6.91
344.013	6.87
344.379	6.82
344.745	6.82
345.11	6.73
345.476	6.83
345.842	6.75
346.208	6.82
346.573	6.72
346.939	6.77
347.304	6.8
347.67	6.7
348.035	6.61
348.401	6.6
348.766	6.56
349.132	6.49
349.497	6.45
349.862	6.47
350.228	6.45
350.593	6.49
350.958	6.62
351.323	6.6
351.688	6.59
352.053	6.49
352.418	6.54
352.783	6.54
353.148	6.48
353.513	6.43
353.878	6.31
354.243	6.22
354.608	6.15
354.972	6.03
355.337	6.07
355.702	6.05
356.066	6.08
356.431	6.08
356.795	6.06
357.16	6.06
357.524	6.07
357.889	6.06
358.253	6.02
358.618	5.95
358.982	5.97
359.346	5.95
359.71	5.92
360.075	5.82
360.439	5.82
360.803	5.86
361.167	5.88
361.531	5.9
361.895	5.98
362.259	6.05
362.623	6.07
362.987	6.06
363.351	6.13
363.714	6.16
364.078	6.16
364.442	6.18
364.806	6.22
365.169	6.21
365.533	6.27
365.896	6.34
366.26	6.35
366.623	6.34
366.987	6.43
367.35	6.47
367.714	6.55
368.077	6.57
368.44	6.57
368.803	6.49
369.167	6.4
369.53	6.34
369.893	6.26
370.256	6.25
370.619	6.26
370.982	6.18
371.345	6.18
371.708	6.14
372.071	6.04
372.434	5.95
372.797	5.88
373.159	5.82
373.522	5.82
373.885	5.8
374.247	5.74
374.61	5.7
374.973	5.68
375.335	5.66
375.698	5.58
376.06	5.55
376.423	5.59
376.785	5.67
377.147	5.72
377.51	5.73
377.872	5.75
378.234	5.79
378.596	5.81
378.958	5.77
379.321	5.78
379.683	5.86
380.045	5.91
380.407	5.97
380.769	5.89
381.13	5.81
381.492	5.84
381.854	5.84
382.216	5.85
382.578	5.91
382.939	5.92
383.301	5.9
383.663	5.89
384.024	5.93
384.386	5.9
384.747	5.84
385.109	5.83
385.47	5.81
385.832	5.72
386.193	5.67
386.554	5.68
386.916	5.69
387.277	5.68
387.638	5.67
387.999	5.66
388.36	5.73
388.721	5.76
389.082	5.74
389.443	5.76
389.804	5.76
390.165	5.72
390.526	5.74
390.887	5.79
391.248	5.77
391.609	5.77
391.969	5.77
392.33	5.81
392.691	5.8
393.051	5.82
393.412	5.89
393.772	5.92
394.133	5.87
394.493	5.83
394.854	5.83
395.214	5.79
395.574	5.8
395.935	5.79
396.295	5.79
396.655	5.79
397.015	5.82
397.376	5.8
397.736	5.77
398.096	5.73
398.456	5.73
398.816	5.79
399.176	5.78
399.535	5.82
399.895	5.82
400.255	5.86
400.615	5.85
400.975	5.8
401.334	5.77
401.694	5.83
402.054	5.85
402.413	5.81
402.773	5.86
403.132	5.82
403.492	5.81
403.851	5.79
404.211	5.79
404.57	5.77
404.929	5.77
405.288	5.83
405.648	5.87
406.007	5.87
406.366	5.8
406.725	5.78
407.084	5.77
407.443	5.78
407.802	5.72
408.161	5.71
408.52	5.76
408.879	5.77
409.238	5.74
409.596	5.78
409.955	5.78
410.314	5.76
410.673	5.76
411.031	5.77
411.39	5.74
411.748	5.75
412.107	5.72
412.465	5.72
412.824	5.67
413.182	5.61
413.54	5.63
413.899	5.66
414.257	5.64
414.615	5.63
414.974	5.61
415.332	5.64
415.69	5.63
416.048	5.6
416.406	5.58
416.764	5.59
417.122	5.6
417.48	5.61
417.838	5.62
418.195	5.62
418.553	5.59
418.911	5.59
419.269	5.58
419.626	5.59
419.984	5.6
420.342	5.61
420.699	5.59
421.057	5.58
421.414	5.56
421.772	5.55
422.129	5.54
422.486	5.53
422.844	5.5
423.201	5.5
423.558	5.49
423.915	5.51
424.273	5.49
424.63	5.46
424.987	5.45
425.344	5.42
425.701	5.43
426.058	5.45
426.415	5.45
426.772	5.46
427.128	5.46
427.485	5.44
427.842	5.44
428.199	5.47
428.555	5.48
428.912	5.47
429.269	5.47
429.625	5.46
429.982	5.47
430.338	5.48
430.695	5.46
431.051	5.48
431.407	5.45
431.764	5.47
432.12	5.5
432.476	5.49
432.832	5.49
433.189	5.46
433.545	5.45
433.901	5.46
434.257	5.43
434.613	5.42
434.969	5.41
435.325	5.41
435.681	5.41
436.036	5.42
436.392	5.43
436.748	5.44
437.104	5.44
437.459	5.45
437.815	5.45
438.171	5.46
438.526	5.47
438.882	5.48
439.237	5.47
439.593	5.45
439.948	5.43
440.304	5.45
440.659	5.47
441.014	5.48
441.369	5.48
441.725	5.49
442.08	5.47
442.435	5.46
442.79	5.46
443.145	5.43
443.5	5.43
443.855	5.45
444.21	5.46
444.565	5.46
444.92	5.45
445.275	5.47
445.629	5.45
445.984	5.44
446.339	5.46
446.693	5.45
447.048	5.46
447.403	5.47
447.757	5.46
448.112	5.45
448.466	5.43
448.82	5.44
449.175	5.44
449.529	5.45
449.883	5.47
450.238	5.49
450.592	5.5
450.946	5.48
451.3	5.46
451.654	5.45
452.008	5.44
452.362	5.44
452.716	5.44
453.07	5.45
453.424	5.45
453.778	5.42
454.132	5.43
454.486	5.42
454.839	5.43
455.193	5.44
455.547	5.47
455.9	5.51
456.254	5.5
456.607	5.5
456.961	5.51
457.314	5.5
457.668	5.47
458.021	5.47
458.375	5.47
458.728	5.47
459.081	5.48
459.434	5.47
459.787	5.48
460.141	5.48
460.494	5.49
460.847	5.51
461.2	5.53
461.553	5.54
461.906	5.53
462.259	5.51
462.611	5.5
462.964	5.47
463.317	5.45
463.67	5.46
464.022	5.45
464.375	5.44
464.728	5.43
465.08	5.44
465.433	5.45
465.785	5.48
466.138	5.49
466.49	5.49
466.843	5.53
467.195	5.49
467.547	5.48
467.899	5.48
468.252	5.48
468.604	5.48
468.956	5.49
469.308	5.49
469.66	5.51
470.012	5.5
470.364	5.53
470.716	5.53
471.068	5.55
471.42	5.58
471.772	5.6
472.123	5.61
472.475	5.61
472.827	5.63
473.178	5.61
473.53	5.61
473.882	5.61
474.233	5.58
474.585	5.61
474.936	5.64
475.288	5.62
475.639	5.62
475.99	5.62
476.342	5.63
476.693	5.63
477.044	5.63
477.395	5.64
477.746	5.61
478.097	5.6
478.448	5.57
478.8	5.53
479.15	5.51
479.501	5.52
479.852	5.53
480.203	5.52
480.554	5.53
480.905	5.53
481.255	5.54
481.606	5.57
481.957	5.57
482.307	5.57
482.658	5.58
483.009	5.57
483.359	5.57
483.709	5.58
484.06	5.57
484.41	5.58
484.761	5.6
485.111	5.6
485.461	5.61
485.811	5.62
486.162	5.64
486.512	5.64
486.862	5.65
487.212	5.65
487.562	5.65
487.912	5.64
488.262	5.64
488.612	5.65
488.961	5.62
489.311	5.61
489.661	5.61
490.011	5.62
490.36	5.62
490.71	5.62
491.06	5.62
491.409	5.63
491.759	5.63
492.108	5.61
492.458	5.6
492.807	5.6
493.157	5.6
493.506	5.59
493.855	5.59
494.204	5.58
494.554	5.57
494.903	5.58
495.252	5.61
495.601	5.61
495.95	5.61
496.299	5.64
496.648	5.67
496.997	5.66
497.346	5.66
497.695	5.67
498.043	5.66
498.392	5.66
498.741	5.66
499.09	5.68
499.438	5.73
499.787	5.74
500.135	5.73
500.484	5.72
500.832	5.72
501.181	5.72
501.529	5.73
501.878	5.75
502.226	5.75
502.574	5.75
502.923	5.75
503.271	5.75
503.619	5.74
503.967	5.72
504.315	5.75
504.663	5.74
505.011	5.73
505.359	5.75
505.707	5.76
506.055	5.78
506.403	5.78
506.751	5.74
507.098	5.74
507.446	5.76
507.794	5.79
508.141	5.81
508.489	5.83
508.837	5.83
509.184	5.85
509.531	5.84
509.879	5.84
510.226	5.84
510.574	5.86
510.921	5.89
511.268	5.93
511.616	5.94
511.963	5.95
512.31	5.99
512.657	5.99
513.004	5.99
513.351	5.96
513.698	5.97
514.045	6.02
514.392	6.04
514.739	6.04
515.086	6.07
515.432	6.07
515.779	6.07
516.126	6.08
516.473	6.08
516.819	6.11
517.166	6.14
517.512	6.14
517.859	6.15
518.205	6.15
518.552	6.15
518.898	6.15
519.245	6.17
519.591	6.16
519.937	6.16
520.283	6.16
520.629	6.18
520.976	6.16
521.322	6.15
521.668	6.15
522.014	6.15
522.36	6.13
522.706	6.15
523.052	6.18
523.398	6.18
523.743	6.19
524.089	6.19
524.435	6.17
524.781	6.18
525.126	6.19
525.472	6.2
525.817	6.19
526.163	6.2
526.509	6.19
526.854	6.18
527.199	6.2
527.545	6.21
527.89	6.22
528.235	6.22
528.581	6.22
528.926	6.21
529.271	6.23
529.616	6.23
529.961	6.24
530.306	6.24
530.651	6.23
530.996	6.25
531.341	6.27
531.686	6.29
532.031	6.29
532.376	6.29
532.721	6.29
533.065	6.3
533.41	6.3
533.755	6.33
534.099	6.34
534.444	6.33
534.788	6.34
535.133	6.33
535.477	6.34
535.822	6.37
536.166	6.38
536.51	6.38
536.855	6.39
537.199	6.37
537.543	6.39
537.887	6.4
538.231	6.4
538.576	6.39
538.92	6.4
539.264	6.42
539.608	6.42
539.951	6.42
540.295	6.42
540.639	6.41
540.983	6.4
541.327	6.42
541.671	6.43
542.014	6.43
542.358	6.43
542.701	6.46
543.045	6.44
543.389	6.45
543.732	6.45
544.075	6.46
544.419	6.48
544.762	6.46
545.105	6.5
545.449	6.48
545.792	6.46
546.135	6.46
546.478	6.42
546.821	6.43
547.165	6.42
547.508	6.43
547.851	6.42
548.194	6.42
548.536	6.38
548.879	6.39
549.222	6.38
549.565	6.36
549.908	6.33
550.25	6.34
550.593	6.36
550.936	6.35
551.278	6.33
551.621	6.32
551.963	6.35
552.306	6.31
552.648	6.35
552.991	6.35
553.333	6.37
553.675	6.43
554.017	6.41
554.36	6.44
554.702	6.42
555.044	6.46
555.386	6.49
555.728	6.5
556.07	6.48
556.412	6.51
556.754	6.55
557.096	6.56
557.438	6.57
557.78	6.56
558.121	6.59
558.463	6.58
558.805	6.57
559.147	6.56
559.488	6.52
559.83	6.51
560.171	6.56
560.513	6.54
560.854	6.5
561.196	6.53
561.537	6.55
561.878	6.57
562.22	6.54
562.561	6.5
562.902	6.51
563.243	6.51
563.584	6.54
563.925	6.55
564.266	6.53
564.607	6.51
564.948	6.49
565.289	6.49
565.63	6.5
565.971	6.51
566.312	6.51
566.653	6.54
566.993	6.53
567.334	6.54
567.675	6.54
568.015	6.55
568.356	6.52
568.696	6.51
569.037	6.53
569.377	6.53
569.718	6.55
570.058	6.56
570.398	6.56
570.739	6.54
571.079	6.5
571.419	6.51
571.759	6.51
572.099	6.53
572.439	6.51
572.779	6.49
573.119	6.49
573.459	6.49
573.799	6.49
574.139	6.48
574.479	6.49
574.819	6.5
575.158	6.51
575.498	6.53
575.838	6.5
576.177	6.48
576.517	6.5
576.856	6.5
577.196	6.52
577.535	6.53
577.875	6.54
578.214	6.59
578.553	6.6
578.893	6.62
579.232	6.64
579.571	6.66
579.91	6.72
580.25	6.72
580.589	6.72
580.928	6.73
581.267	6.75
581.606	6.69
581.945	6.67
582.283	6.67
582.622	6.66
582.961	6.69
583.3	6.69
583.639	6.65
583.977	6.65
584.316	6.61
584.654	6.61
584.993	6.59
585.332	6.57
585.67	6.61
586.008	6.67
586.347	6.66
586.685	6.64
587.024	6.6
587.362	6.61
587.7	6.63
588.038	6.65
588.376	6.62
588.715	6.66
589.053	6.7
589.391	6.68
589.729	6.68
590.067	6.68
590.404	6.69
590.742	6.7
591.08	6.7
591.418	6.71
591.756	6.71
592.093	6.75
592.431	6.76
592.769	6.72
593.106	6.69
593.444	6.71
593.781	6.69
594.119	6.72
594.456	6.74
594.793	6.73
595.131	6.75
595.468	6.8
595.805	6.77
596.143	6.75
596.48	6.77
596.817	6.78
597.154	6.81
597.491	6.81
597.828	6.83
598.165	6.85
598.502	6.83
598.839	6.86
599.176	6.81
599.512	6.82
599.849	6.83
600.186	6.82
600.523	6.77
600.859	6.8
601.196	6.8
601.532	6.76
601.869	6.77
602.205	6.72
602.542	6.7
602.878	6.75
603.215	6.77
603.551	6.77
603.887	6.74
604.223	6.69
604.56	6.7
604.896	6.75
605.232	6.71
605.568	6.74
605.904	6.7
606.24	6.72
606.576	6.74
606.912	6.74
607.248	6.75
607.583	6.83
607.919	6.83
608.255	6.85
608.591	6.9
608.926	6.88
609.262	6.92
609.597	6.92
609.933	6.89
610.268	6.89
610.604	6.9
610.939	7
611.275	7
611.61	6.97
611.945	6.9
612.281	6.93
612.616	6.93
612.951	6.98
613.286	6.95
613.621	6.93
613.956	6.92
614.291	6.92
614.626	6.81
614.961	6.81
615.296	6.8
615.631	6.76
615.966	6.76
616.3	6.76
616.635	6.73
616.97	6.71
617.304	6.72
617.639	6.72
617.973	6.66
618.308	6.66
618.642	6.69
618.977	6.7
619.311	6.69
619.646	6.66
619.98	6.64
620.314	6.65
620.648	6.62
620.983	6.65
621.317	6.66
621.651	6.71
621.985	6.76
622.319	6.74
622.653	6.76
622.987	6.72
623.321	6.72
623.655	6.72
623.988	6.78
624.322	6.76
624.656	6.81
624.99	6.79
625.323	6.81
625.657	6.87
625.99	6.89
626.324	6.92
626.657	6.95
626.991	6.95
627.324	6.95
627.658	7
627.991	7.06
628.324	7.05
628.657	7.06
628.991	7.01
629.324	7.02
629.657	6.98
629.99	7.04
630.323	7.07
630.656	7.08
630.989	7.08
631.322	7.08
631.655	7.08
631.987	7.12
632.32	7.14
632.653	7.14
632.986	7.18
633.318	7.19
633.651	7.18
633.984	7.25
634.316	7.31
634.649	7.3
634.981	7.17
635.313	7.21
635.646	7.29
635.978	7.26
636.31	7.26
636.643	7.26
636.975	7.25
637.307	7.22
637.639	7.29
637.971	7.32
638.303	7.34
638.635	7.31
638.967	7.32
639.299	7.32
639.631	7.27
639.963	7.24
640.295	7.28
640.626	7.24
640.958	7.15
641.29	7.15
641.621	7.13
641.953	7.19
642.285	7.14
642.616	7.15
642.948	7.21
643.279	7.28
643.61	7.44
643.942	7.48
644.273	7.45
644.604	7.4
644.936	7.36
645.267	7.35
645.598	7.33
645.929	7.27
646.26	7.33
646.591	7.34
646.922	7.33
647.253	7.29
647.584	7.32
647.915	7.31
648.245	7.33
648.576	7.3
648.907	7.34
649.238	7.26
649.568	7.15
649.899	7.14
650.229	7.08
650.56	6.97
650.89	6.97
651.221	7.04
651.551	7.06
651.882	7.07
652.212	7.04
652.542	6.99
652.872	7.05
653.203	7.08
653.533	7.13
653.863	7.13
654.193	7.05
654.523	7.03
654.853	7.15
655.183	7.07
655.513	7.12
655.843	7.14
656.172	7.25
656.502	7.27
656.832	7.27
657.162	7.23
657.491	7.22
657.821	7.2
658.15	7.25
658.48	7.31
658.809	7.29
659.139	7.26
659.468	7.33
659.798	7.33
660.127	7.28
660.456	7.24
660.785	7.27
661.115	7.27
661.444	7.39
661.773	7.35
662.102	7.43
662.431	7.4
662.76	7.38
663.089	7.36
663.418	7.42
663.747	7.53
664.076	7.64
664.404	7.73
664.733	7.7
665.062	7.68
665.39	7.55
665.719	7.55
666.048	7.53
666.376	7.51
666.705	7.59
667.033	7.61
667.362	7.62
667.69	7.64
668.018	7.69
668.347	7.57
668.675	7.54
669.003	7.47
669.331	7.57
669.659	7.56
669.987	7.49
670.315	7.46
670.643	7.36
670.971	7.33
671.299	7.29
671.627	7.4
671.955	7.31
672.283	7.45
672.61	7.41
672.938	7.58
673.266	7.62
673.593	7.48
673.921	7.41
674.249	7.4
674.576	7.39
674.904	7.4
675.231	7.47
675.558	7.56
675.886	7.61
676.213	7.59
676.54	7.63
676.867	7.7
677.195	7.67
677.522	7.71
