Data from BU58002_Reflection_00001.txt Node
Date: Tue Nov 19 10:57:33 EST 2019
User: vgr7
Spectrometer: USB2G7710
Scans to average: 3
Trigger mode: 4
Integration Time (sec): 2.000000E-2
Electric dark correction enabled: true
Boxcar width: 10
XAxis mode: Wavelengths
Number of Pixels in Spectrum: 2048
>>>>>Begin Spectral Data<<<<<
177.721	141.1
178.105	94.49
178.488	79.97
178.871	256.82
179.254	88.46
179.636	31.27
180.019	69.85
180.402	91.67
180.785	-106.25
181.168	-76.47
181.55	85.58
181.933	37.85
182.316	28.97
182.698	-12.15
183.081	-37.47
183.463	-47.64
183.846	-28.76
184.228	-109.02
184.611	-321.35
184.993	-322.73
185.376	-164.71
185.758	-831.03
186.14	250
186.522	227.12
186.904	-530
187.287	-413.16
187.669	170.59
188.051	44.7
188.433	-41.51
188.815	-382.14
189.197	-83.45
189.579	7.79
189.961	-12.7
190.342	-27.7
190.724	-36.67
191.106	-44.6
191.488	-37.73
191.869	-51.69
192.251	-45.44
192.633	-27.73
193.014	-25.27
193.396	-6.93
193.777	15.38
194.159	4.56
194.54	0.4
194.922	2.21
195.303	14.29
195.684	13.28
196.065	13.57
196.447	10.45
196.828	25.8
197.209	25.07
197.59	12.54
197.971	14.97
198.352	26.3
198.733	30.3
199.114	23.68
199.495	16.03
199.876	28.41
200.257	0.4
200.638	-9.56
201.018	-26.9
201.399	-39.02
201.78	-36.91
202.16	-41.48
202.541	-56.61
202.922	-65.98
203.302	-78.71
203.683	-85.79
204.063	-61.92
204.444	-62.3
204.824	-70.34
205.204	-66.95
205.585	-65.64
205.965	-76.47
206.345	-70.49
206.725	-56.29
207.106	-41.91
207.486	-34.8
207.866	-22.75
208.246	-4.34
208.626	-19.54
209.006	-6.51
209.386	-13.6
209.766	-28.19
210.145	-24.03
210.525	-9.62
210.905	2.86
211.285	15.09
211.664	23.69
212.044	22.87
212.424	10.7
212.803	17.35
213.183	14.83
213.562	27.21
213.942	32.31
214.321	18.12
214.701	13.74
215.08	12.25
215.459	15.84
215.838	17.7
216.218	1.56
216.597	7.94
216.976	-6.24
217.355	-4.88
217.734	7.27
218.113	23.28
218.492	9.21
218.871	11.5
219.25	5.72
219.629	-23.97
220.008	-14.85
220.387	-7.93
220.766	-13.43
221.144	-8.45
221.523	-21.85
221.902	-27.78
222.28	-11.57
222.659	-5.83
223.037	-2.43
223.416	-4.06
223.794	-4.88
224.173	-1.49
224.551	-5.32
224.929	-4.96
225.308	-2.97
225.686	-8.94
226.064	-13.96
226.442	-8.34
226.821	-7.97
227.199	-8.23
227.577	-8.4
227.955	-7
228.333	-3.58
228.711	-4.03
229.089	-2.62
229.467	-4.73
229.845	-4.4
230.222	-3.89
230.6	-5.6
230.978	-7.53
231.356	-7.27
231.733	-7.91
232.111	-5.69
232.488	-3.67
232.866	-2.75
233.243	-2.9
233.621	-1.36
233.998	-1.79
234.376	-2.6
234.753	-4.74
235.13	-4.95
235.508	-2.63
235.885	-3.65
236.262	-3.87
236.639	-4.5
237.016	-4.27
237.393	-3.36
237.77	-1.99
238.147	-0.64
238.524	0.56
238.901	0.74
239.278	0.09
239.655	1.02
240.032	1.37
240.409	2.09
240.785	2.13
241.162	2.57
241.539	2.73
241.915	2.9
242.292	2.92
242.668	3.56
243.045	3.6
243.421	3.49
243.798	3.71
244.174	3.93
244.551	4.45
244.927	4.36
245.303	4.57
245.679	4.3
246.056	3.95
246.432	3.69
246.808	3.86
247.184	4.11
247.56	3.72
247.936	3.54
248.312	3.52
248.688	3.29
249.064	3.12
249.44	3.14
249.815	3.24
250.191	3.36
250.567	3.17
250.943	3.3
251.318	3.37
251.694	3.32
252.069	3.06
252.445	2.77
252.82	2.8
253.196	2.53
253.571	2.9
253.947	2.85
254.322	3.17
254.697	2.92
255.073	2.64
255.448	3.06
255.823	2.83
256.198	3.03
256.573	3.32
256.948	3.46
257.323	3.37
257.698	3.45
258.073	3.32
258.448	3.56
258.823	3.42
259.198	3.18
259.573	2.87
259.948	2.89
260.322	2.79
260.697	2.85
261.072	2.78
261.446	2.49
261.821	2.49
262.195	2.55
262.57	2.73
262.944	2.86
263.319	2.81
263.693	2.87
264.067	2.65
264.442	2.62
264.816	2.39
265.19	2.41
265.564	2.23
265.938	2.21
266.313	1.97
266.687	1.95
267.061	2
267.435	2.34
267.809	2.42
268.183	2.65
268.556	2.62
268.93	2.92
269.304	3.04
269.678	3.2
270.051	2.94
270.425	3.05
270.799	2.83
271.172	2.87
271.546	2.96
271.919	3.1
272.293	3.15
272.666	3.38
273.04	3.55
273.413	3.59
273.787	3.74
274.16	3.8
274.533	3.82
274.906	4.02
275.279	4.05
275.653	4.11
276.026	4.03
276.399	3.84
276.772	3.71
277.145	3.88
277.518	3.78
277.891	3.94
278.263	3.9
278.636	4.2
279.009	4.22
279.382	4.25
279.755	4.23
280.127	4.27
280.5	4.14
280.872	4.15
281.245	4.2
281.617	4.09
281.99	4.01
282.362	3.97
282.735	3.87
283.107	3.82
283.479	3.82
283.852	3.78
284.224	3.85
284.596	3.69
284.968	3.55
285.34	3.59
285.713	3.57
286.085	3.49
286.457	3.39
286.829	3.23
287.201	3.25
287.572	3.22
287.944	3.29
288.316	3.29
288.688	3.16
289.06	3.11
289.431	3.09
289.803	3.14
290.175	3.19
290.546	3.23
290.918	3.16
291.289	3.04
291.661	3.1
292.032	3.17
292.403	3.33
292.775	3.46
293.146	3.54
293.517	3.51
293.889	3.55
294.26	3.65
294.631	3.75
295.002	3.82
295.373	3.73
295.744	3.63
296.115	3.72
296.486	3.69
296.857	3.67
297.228	3.64
297.599	3.62
297.97	3.69
298.34	3.75
298.711	3.84
299.082	3.9
299.452	4
299.823	4.02
300.194	4.03
300.564	3.82
300.935	3.78
301.305	3.75
301.676	3.69
302.046	3.66
302.416	3.57
302.787	3.51
303.157	3.56
303.527	3.49
303.897	3.49
304.267	3.47
304.637	3.49
305.008	3.51
305.378	3.66
305.748	3.58
306.117	3.52
306.487	3.5
306.857	3.48
307.227	3.42
307.597	3.38
307.967	3.3
308.336	3.52
308.706	3.61
309.076	3.76
309.445	3.77
309.815	3.76
310.184	3.85
310.554	3.8
310.923	3.8
311.293	3.86
311.662	3.82
312.031	3.91
312.401	3.9
312.77	3.94
313.139	3.78
313.508	3.66
313.877	3.58
314.246	3.55
314.616	3.63
314.985	3.63
315.353	3.66
315.722	3.67
316.091	3.6
316.46	3.36
316.829	3.22
317.198	3.29
317.567	3.36
317.935	3.28
318.304	3.37
318.672	3.41
319.041	3.5
319.41	3.42
319.778	3.35
320.147	3.32
320.515	3.3
320.883	3.26
321.252	3.62
321.62	3.69
321.988	3.65
322.357	3.59
322.725	3.5
323.093	3.42
323.461	3.54
323.829	3.53
324.197	3.7
324.565	3.82
324.933	3.83
325.301	3.77
325.669	3.78
326.037	3.77
326.405	3.82
326.772	3.8
327.14	3.81
327.508	3.93
327.875	3.96
328.243	4
328.61	4.21
328.978	4.03
329.346	4
329.713	4.2
330.08	4.26
330.448	4.27
330.815	4.23
331.182	4.15
331.55	4.13
331.917	4.03
332.284	3.86
332.651	3.83
333.018	3.88
333.385	3.96
333.752	3.79
334.119	3.71
334.486	3.62
334.853	3.6
335.22	3.53
335.587	3.59
335.954	3.57
336.32	3.38
336.687	3.42
337.054	3.5
337.42	3.34
337.787	3.23
338.153	3.32
338.52	3.45
338.886	3.51
339.253	3.52
339.619	3.64
339.986	3.63
340.352	3.61
340.718	3.57
341.084	3.57
341.451	3.64
341.817	3.68
342.183	3.73
342.549	3.82
342.915	3.76
343.281	3.6
343.647	3.64
344.013	3.68
344.379	3.65
344.745	3.66
345.11	3.69
345.476	3.77
345.842	3.64
346.208	3.59
346.573	3.58
346.939	3.57
347.304	3.52
347.67	3.58
348.035	3.58
348.401	3.55
348.766	3.52
349.132	3.46
349.497	3.47
349.862	3.43
350.228	3.42
350.593	3.42
350.958	3.59
351.323	3.46
351.688	3.47
352.053	3.48
352.418	3.4
352.783	3.49
353.148	3.4
353.513	3.45
353.878	3.44
354.243	3.36
354.608	3.35
354.972	3.38
355.337	3.49
355.702	3.44
356.066	3.49
356.431	3.5
356.795	3.59
357.16	3.54
357.524	3.55
357.889	3.54
358.253	3.57
358.618	3.53
358.982	3.62
359.346	3.68
359.71	3.67
360.075	3.6
360.439	3.58
360.803	3.63
361.167	3.59
361.531	3.66
361.895	3.75
362.259	3.82
362.623	3.86
362.987	3.79
363.351	3.81
363.714	3.75
364.078	3.73
364.442	3.71
364.806	3.71
365.169	3.72
365.533	3.74
365.896	3.79
366.26	3.77
366.623	3.73
366.987	3.68
367.35	3.69
367.714	3.78
368.077	3.74
368.44	3.75
368.803	3.81
369.167	3.74
369.53	3.68
369.893	3.67
370.256	3.58
370.619	3.58
370.982	3.5
371.345	3.55
371.708	3.58
372.071	3.57
372.434	3.57
372.797	3.62
373.159	3.6
373.522	3.56
373.885	3.59
374.247	3.62
374.61	3.64
374.973	3.63
375.335	3.61
375.698	3.65
376.06	3.62
376.423	3.57
376.785	3.59
377.147	3.61
377.51	3.55
377.872	3.6
378.234	3.62
378.596	3.66
378.958	3.66
379.321	3.62
379.683	3.64
380.045	3.61
380.407	3.54
380.769	3.56
381.13	3.52
381.492	3.49
381.854	3.46
382.216	3.49
382.578	3.49
382.939	3.52
383.301	3.47
383.663	3.51
384.024	3.52
384.386	3.51
384.747	3.49
385.109	3.53
385.47	3.51
385.832	3.47
386.193	3.48
386.554	3.46
386.916	3.47
387.277	3.45
387.638	3.47
387.999	3.51
388.36	3.48
388.721	3.54
389.082	3.59
389.443	3.59
389.804	3.57
390.165	3.58
390.526	3.58
390.887	3.59
391.248	3.56
391.609	3.55
391.969	3.58
392.33	3.59
392.691	3.58
393.051	3.54
393.412	3.53
393.772	3.54
394.133	3.55
394.493	3.53
394.854	3.53
395.214	3.55
395.574	3.53
395.935	3.51
396.295	3.48
396.655	3.43
397.015	3.41
397.376	3.42
397.736	3.44
398.096	3.44
398.456	3.43
398.816	3.46
399.176	3.44
399.535	3.41
399.895	3.41
400.255	3.42
400.615	3.44
400.975	3.5
401.334	3.51
401.694	3.53
402.054	3.54
402.413	3.52
402.773	3.51
403.132	3.52
403.492	3.53
403.851	3.52
404.211	3.54
404.57	3.59
404.929	3.59
405.288	3.56
405.648	3.55
406.007	3.54
406.366	3.51
406.725	3.55
407.084	3.56
407.443	3.57
407.802	3.57
408.161	3.57
408.52	3.56
408.879	3.55
409.238	3.55
409.596	3.57
409.955	3.54
410.314	3.54
410.673	3.53
411.031	3.49
411.39	3.5
411.748	3.5
412.107	3.46
412.465	3.44
412.824	3.43
413.182	3.42
413.54	3.46
413.899	3.47
414.257	3.47
414.615	3.45
414.974	3.44
415.332	3.42
415.69	3.41
416.048	3.42
416.406	3.39
416.764	3.39
417.122	3.37
417.48	3.39
417.838	3.4
418.195	3.42
418.553	3.41
418.911	3.43
419.269	3.44
419.626	3.45
419.984	3.46
420.342	3.47
420.699	3.47
421.057	3.45
421.414	3.45
421.772	3.44
422.129	3.44
422.486	3.43
422.844	3.43
423.201	3.43
423.558	3.42
423.915	3.44
424.273	3.44
424.63	3.44
424.987	3.44
425.344	3.43
425.701	3.42
426.058	3.44
426.415	3.42
426.772	3.4
427.128	3.4
427.485	3.37
427.842	3.36
428.199	3.35
428.555	3.37
428.912	3.39
429.269	3.36
429.625	3.37
429.982	3.37
430.338	3.37
430.695	3.37
431.051	3.37
431.407	3.37
431.764	3.35
432.12	3.37
432.476	3.37
432.832	3.35
433.189	3.36
433.545	3.36
433.901	3.36
434.257	3.37
434.613	3.36
434.969	3.37
435.325	3.38
435.681	3.36
436.036	3.34
436.392	3.31
436.748	3.34
437.104	3.33
437.459	3.33
437.815	3.34
438.171	3.36
438.526	3.36
438.882	3.35
439.237	3.36
439.593	3.34
439.948	3.34
440.304	3.35
440.659	3.37
441.014	3.37
441.369	3.38
441.725	3.37
442.08	3.37
442.435	3.39
442.79	3.38
443.145	3.39
443.5	3.4
443.855	3.39
444.21	3.37
444.565	3.36
444.92	3.36
445.275	3.35
445.629	3.34
445.984	3.34
446.339	3.34
446.693	3.33
447.048	3.33
447.403	3.32
447.757	3.31
448.112	3.3
448.466	3.3
448.82	3.3
449.175	3.3
449.529	3.29
449.883	3.26
450.238	3.27
450.592	3.26
450.946	3.26
451.3	3.29
451.654	3.3
452.008	3.29
452.362	3.3
452.716	3.29
453.07	3.29
453.424	3.3
453.778	3.29
454.132	3.28
454.486	3.29
454.839	3.3
455.193	3.32
455.547	3.3
455.9	3.3
456.254	3.27
456.607	3.28
456.961	3.31
457.314	3.31
457.668	3.3
458.021	3.29
458.375	3.29
458.728	3.26
459.081	3.26
459.434	3.26
459.787	3.26
460.141	3.27
460.494	3.28
460.847	3.26
461.2	3.28
461.553	3.3
461.906	3.3
462.259	3.29
462.611	3.27
462.964	3.28
463.317	3.26
463.67	3.29
464.022	3.31
464.375	3.29
464.728	3.29
465.08	3.3
465.433	3.32
465.785	3.33
466.138	3.34
466.49	3.35
466.843	3.38
467.195	3.38
467.547	3.35
467.899	3.36
468.252	3.36
468.604	3.36
468.956	3.35
469.308	3.35
469.66	3.35
470.012	3.37
470.364	3.37
470.716	3.39
471.068	3.39
471.42	3.36
471.772	3.36
472.123	3.36
472.475	3.38
472.827	3.37
473.178	3.36
473.53	3.36
473.882	3.37
474.233	3.37
474.585	3.36
474.936	3.38
475.288	3.37
475.639	3.38
475.99	3.38
476.342	3.37
476.693	3.39
477.044	3.38
477.395	3.37
477.746	3.37
478.097	3.39
478.448	3.38
478.8	3.42
479.15	3.42
479.501	3.42
479.852	3.41
480.203	3.42
480.554	3.42
480.905	3.43
481.255	3.41
481.606	3.43
481.957	3.45
482.307	3.47
482.658	3.48
483.009	3.49
483.359	3.49
483.709	3.5
484.06	3.5
484.41	3.51
484.761	3.52
485.111	3.53
485.461	3.52
485.811	3.52
486.162	3.51
486.512	3.51
486.862	3.52
487.212	3.52
487.562	3.51
487.912	3.53
488.262	3.52
488.612	3.54
488.961	3.53
489.311	3.51
489.661	3.5
490.011	3.49
490.36	3.48
490.71	3.48
491.06	3.49
491.409	3.48
491.759	3.48
492.108	3.46
492.458	3.46
492.807	3.47
493.157	3.48
493.506	3.48
493.855	3.48
494.204	3.47
494.554	3.47
494.903	3.47
495.252	3.47
495.601	3.49
495.95	3.48
496.299	3.48
496.648	3.49
496.997	3.5
497.346	3.5
497.695	3.51
498.043	3.52
498.392	3.51
498.741	3.5
499.09	3.52
499.438	3.54
499.787	3.53
500.135	3.52
500.484	3.53
500.832	3.53
501.181	3.54
501.529	3.54
501.878	3.55
502.226	3.57
502.574	3.56
502.923	3.54
503.271	3.54
503.619	3.55
503.967	3.53
504.315	3.54
504.663	3.52
505.011	3.53
505.359	3.5
505.707	3.5
506.055	3.51
506.403	3.51
506.751	3.49
507.098	3.51
507.446	3.53
507.794	3.54
508.141	3.54
508.489	3.56
508.837	3.58
509.184	3.59
509.531	3.59
509.879	3.58
510.226	3.62
510.574	3.63
510.921	3.63
511.268	3.65
511.616	3.66
511.963	3.69
512.31	3.7
512.657	3.71
513.004	3.71
513.351	3.72
513.698	3.72
514.045	3.73
514.392	3.73
514.739	3.73
515.086	3.71
515.432	3.72
515.779	3.7
516.126	3.69
516.473	3.71
516.819	3.68
517.166	3.7
517.512	3.7
517.859	3.7
518.205	3.69
518.552	3.69
518.898	3.68
519.245	3.69
519.591	3.68
519.937	3.68
520.283	3.69
520.629	3.7
520.976	3.71
521.322	3.73
521.668	3.73
522.014	3.73
522.36	3.74
522.706	3.73
523.052	3.75
523.398	3.76
523.743	3.78
524.089	3.81
524.435	3.81
524.781	3.81
525.126	3.81
525.472	3.83
525.817	3.84
526.163	3.85
526.509	3.85
526.854	3.86
527.199	3.87
527.545	3.86
527.89	3.86
528.235	3.86
528.581	3.85
528.926	3.85
529.271	3.86
529.616	3.86
529.961	3.87
530.306	3.87
530.651	3.86
530.996	3.87
531.341	3.87
531.686	3.89
532.031	3.9
532.376	3.9
532.721	3.9
533.065	3.91
533.41	3.92
533.755	3.91
534.099	3.91
534.444	3.91
534.788	3.91
535.133	3.92
535.477	3.93
535.822	3.94
536.166	3.95
536.51	3.95
536.855	3.96
537.199	3.96
537.543	3.97
537.887	3.98
538.231	3.98
538.576	3.96
538.92	3.96
539.264	3.95
539.608	3.96
539.951	3.96
540.295	3.96
540.639	3.96
540.983	3.96
541.327	3.96
541.671	3.96
542.014	3.98
542.358	3.98
542.701	3.99
543.045	3.98
543.389	3.99
543.732	3.99
544.075	4.01
544.419	4.01
544.762	4.01
545.105	4.03
545.449	4.03
545.792	4.05
546.135	4.04
546.478	4.05
546.821	4.04
547.165	4.05
547.508	4.07
547.851	4.11
548.194	4.11
548.536	4.12
548.879	4.13
549.222	4.11
549.565	4.09
549.908	4.09
550.25	4.11
550.593	4.08
550.936	4.1
551.278	4.07
551.621	4.1
551.963	4.11
552.306	4.09
552.648	4.1
552.991	4.07
553.333	4.07
553.675	4.06
554.017	4.05
554.36	4.06
554.702	4.04
555.044	4.01
555.386	4.06
555.728	4.06
556.07	4.02
556.412	4
556.754	4
557.096	4
557.438	3.99
557.78	4.03
558.121	4.01
558.463	4
558.805	3.99
559.147	3.96
559.488	3.95
559.83	3.92
560.171	3.92
560.513	3.96
560.854	3.93
561.196	3.96
561.537	3.97
561.878	3.97
562.22	3.98
562.561	3.98
562.902	3.98
563.243	4.04
563.584	4.06
563.925	4.1
564.266	4.09
564.607	4.08
564.948	4.07
565.289	4.08
565.63	4.08
565.971	4.06
566.312	4.06
566.653	4.04
566.993	4.04
567.334	4.06
567.675	4.05
568.015	4.07
568.356	4.07
568.696	4.03
569.037	4.06
569.377	4.03
569.718	4.03
570.058	4.01
570.398	3.99
570.739	3.97
571.079	3.98
571.419	3.98
571.759	3.99
572.099	3.99
572.439	3.97
572.779	3.99
573.119	3.98
573.459	3.98
573.799	3.99
574.139	4.01
574.479	4.02
574.819	4.01
575.158	4
575.498	3.99
575.838	4.02
576.177	3.96
576.517	4
576.856	3.96
577.196	3.97
577.535	3.97
577.875	3.98
578.214	3.96
578.553	3.95
578.893	3.97
579.232	3.98
579.571	3.99
579.91	4.01
580.25	4.03
580.589	4.05
580.928	4.06
581.267	4.07
581.606	4.05
581.945	4.04
582.283	4.05
582.622	4.03
582.961	4.06
583.3	4.07
583.639	4.03
583.977	4.04
584.316	4.04
584.654	4.05
584.993	4.03
585.332	4.04
585.67	4.04
586.008	4.02
586.347	4.03
586.685	4.04
587.024	4.03
587.362	4.04
587.7	4.07
588.038	4.1
588.376	4.1
588.715	4.1
589.053	4.09
589.391	4.08
589.729	4.12
590.067	4.07
590.404	4.12
590.742	4.16
591.08	4.18
591.418	4.17
591.756	4.21
592.093	4.25
592.431	4.27
592.769	4.27
593.106	4.26
593.444	4.25
593.781	4.29
594.119	4.28
594.456	4.27
594.793	4.27
595.131	4.24
595.468	4.22
595.805	4.26
596.143	4.32
596.48	4.32
596.817	4.3
597.154	4.33
597.491	4.33
597.828	4.29
598.165	4.24
598.502	4.25
598.839	4.22
599.176	4.2
599.512	4.18
599.849	4.19
600.186	4.19
600.523	4.21
600.859	4.17
601.196	4.16
601.532	4.18
601.869	4.15
602.205	4.16
602.542	4.15
602.878	4.14
603.215	4.11
603.551	4.11
603.887	4.11
604.223	4.11
604.56	4.12
604.896	4.13
605.232	4.16
605.568	4.17
605.904	4.15
606.24	4.18
606.576	4.18
606.912	4.19
607.248	4.22
607.583	4.2
607.919	4.19
608.255	4.21
608.591	4.21
608.926	4.21
609.262	4.19
609.597	4.23
609.933	4.21
610.268	4.2
610.604	4.22
610.939	4.21
611.275	4.18
611.61	4.13
611.945	4.11
612.281	4.14
612.616	4.13
612.951	4.19
613.286	4.14
613.621	4.17
613.956	4.17
614.291	4.14
614.626	4.15
614.961	4.2
615.296	4.2
615.631	4.21
615.966	4.25
616.3	4.28
616.635	4.24
616.97	4.25
617.304	4.27
617.639	4.25
617.973	4.25
618.308	4.28
618.642	4.28
618.977	4.28
619.311	4.26
619.646	4.27
619.98	4.23
620.314	4.23
620.648	4.21
620.983	4.19
621.317	4.18
621.651	4.21
621.985	4.19
622.319	4.19
622.653	4.17
622.987	4.15
623.321	4.21
623.655	4.19
623.988	4.21
624.322	4.21
624.656	4.21
624.99	4.24
625.323	4.24
625.657	4.26
625.99	4.26
626.324	4.23
626.657	4.21
626.991	4.22
627.324	4.25
627.658	4.24
627.991	4.3
628.324	4.28
628.657	4.26
628.991	4.22
629.324	4.24
629.657	4.24
629.99	4.21
630.323	4.19
630.656	4.2
630.989	4.19
631.322	4.18
631.655	4.2
631.987	4.18
632.32	4.21
632.653	4.2
632.986	4.22
633.318	4.27
633.651	4.31
633.984	4.35
634.316	4.36
634.649	4.34
634.981	4.3
635.313	4.36
635.646	4.39
635.978	4.47
636.31	4.45
636.643	4.47
636.975	4.49
637.307	4.5
637.639	4.53
637.971	4.56
638.303	4.54
638.635	4.55
638.967	4.56
639.299	4.51
639.631	4.55
639.963	4.56
640.295	4.56
640.626	4.52
640.958	4.5
641.29	4.46
641.621	4.46
641.953	4.45
642.285	4.42
642.616	4.39
642.948	4.33
643.279	4.35
643.61	4.31
643.942	4.34
644.273	4.3
644.604	4.3
644.936	4.32
645.267	4.35
645.598	4.31
645.929	4.3
646.26	4.3
646.591	4.38
646.922	4.36
647.253	4.32
647.584	4.37
647.915	4.33
648.245	4.34
648.576	4.36
648.907	4.36
649.238	4.36
649.568	4.37
649.899	4.37
650.229	4.42
650.56	4.42
650.89	4.48
651.221	4.45
651.551	4.49
651.882	4.43
652.212	4.43
652.542	4.48
652.872	4.52
653.203	4.58
653.533	4.52
653.863	4.52
654.193	4.53
654.523	4.46
654.853	4.51
655.183	4.51
655.513	4.56
655.843	4.62
656.172	4.72
656.502	4.68
656.832	4.65
657.162	4.56
657.491	4.59
657.821	4.58
658.15	4.66
658.48	4.67
658.809	4.71
659.139	4.75
659.468	4.72
659.798	4.79
660.127	4.75
660.456	4.73
660.785	4.75
661.115	4.79
661.444	4.75
661.773	4.75
662.102	4.78
662.431	4.79
662.76	4.7
663.089	4.66
663.418	4.68
663.747	4.75
664.076	4.75
664.404	4.73
664.733	4.72
665.062	4.7
665.39	4.6
665.719	4.55
666.048	4.53
666.376	4.61
666.705	4.53
667.033	4.58
667.362	4.59
667.69	4.61
668.018	4.57
668.347	4.65
668.675	4.61
669.003	4.58
669.331	4.58
669.659	4.66
669.987	4.56
670.315	4.61
670.643	4.56
670.971	4.57
671.299	4.6
671.627	4.54
671.955	4.49
672.283	4.46
672.61	4.48
672.938	4.5
673.266	4.45
673.593	4.39
673.921	4.38
674.249	4.41
674.576	4.42
674.904	4.45
675.231	4.39
675.558	4.45
675.886	4.41
676.213	4.41
676.54	4.36
676.867	4.48
677.195	4.47
677.522	4.46
677.849	4.54
678.176	4.53
678.503	4.63
678.83	4.63
