Data from BU58138_Reflection_00009.txt Node
Date: Mon Nov 18 16:42:17 EST 2019
User: vgr7
Spectrometer: USB2G7710
Scans to average: 3
Trigger mode: 4
Integration Time (sec): 2.000000E-2
Electric dark correction enabled: true
Boxcar width: 10
XAxis mode: Wavelengths
Number of Pixels in Spectrum: 2048
>>>>>Begin Spectral Data<<<<<
177.721	84433.33
178.105	-201.59
178.488	-131.69
178.871	-1191.67
179.254	14.84
179.636	54.85
180.019	2.69
180.402	48.15
180.785	40.91
181.168	129.47
181.55	45.66
181.933	59.82
182.316	76.5
182.698	59.17
183.081	37.12
183.463	34.28
183.846	43.28
184.228	62.96
184.611	62.78
184.993	84.07
185.376	120.97
185.758	105.42
186.14	135.5
186.522	158.22
186.904	234.42
187.287	1574.89
187.669	-993.19
188.051	1151.28
188.433	246.51
188.815	7305.13
189.197	-684.51
189.579	-291.81
189.961	-290.12
190.342	-265.81
190.724	-140.22
191.106	-101.18
191.488	-107.72
191.869	-83.5
192.251	-109.72
192.633	-105.67
193.014	-145.83
193.396	-143.34
193.777	-98
194.159	-94.53
194.54	-66.52
194.922	-46.69
195.303	-75.63
195.684	-90.24
196.065	-54.67
196.447	-66.79
196.828	-57.24
197.209	-66.79
197.59	-69.47
197.971	-77.32
198.352	-72
198.733	-84.85
199.114	-75.51
199.495	-65.35
199.876	-81.01
200.257	-75.34
200.638	-76.35
201.018	-76.44
201.399	-76.7
201.78	-85.09
202.16	-89.43
202.541	-125.93
202.922	-231.64
203.302	-245.22
203.683	-182.75
204.063	-235.82
204.444	-186.75
204.824	-180.44
205.204	-190.28
205.585	-188.85
205.965	-141.57
206.345	-163.1
206.725	-156.52
207.106	-164.13
207.486	-185.91
207.866	-187.82
208.246	-165.6
208.626	-147.57
209.006	-116.61
209.386	-123.19
209.766	-114.39
210.145	-100.14
210.525	-87.22
210.905	-60.43
211.285	-49.17
211.664	-55.85
212.044	-53.4
212.424	-46.62
212.803	-46.62
213.183	-41.43
213.562	-45.13
213.942	-49.35
214.321	-41.78
214.701	-52.4
215.08	-51.39
215.459	-44.16
215.838	-33.54
216.218	-41.32
216.597	-37.35
216.976	-38.51
217.355	-39.7
217.734	-33.37
218.113	-40.61
218.492	-44.54
218.871	-55.99
219.25	-60.09
219.629	-63.59
220.008	-58.15
220.387	-75.26
220.766	-87.59
221.144	-133.38
221.523	-166.06
221.902	-199.31
222.28	-217.83
222.659	-162.76
223.037	-156.3
223.416	-130.98
223.794	-111.26
224.173	-76.92
224.551	-52.95
224.929	-53.47
225.308	-42.78
225.686	-37.4
226.064	-28.45
226.442	-25.45
226.821	-21.65
227.199	-21.8
227.577	-18.78
227.955	-19.04
228.333	-17.25
228.711	-13.5
229.089	-7
229.467	-6.15
229.845	-7.04
230.222	-9.1
230.6	-10.58
230.978	-7.9
231.356	-6.1
231.733	-6.65
232.111	-6.11
232.488	-6.36
232.866	-6.17
233.243	-4.48
233.621	-5.05
233.998	-3.11
234.376	-3.88
234.753	-5.09
235.13	-4.58
235.508	-3.16
235.885	-4.27
236.262	-5.42
236.639	-6.33
237.016	-7.99
237.393	-5.99
237.77	-5.63
238.147	-3.76
238.524	-2.42
238.901	-1.83
239.278	-1.38
239.655	0.33
240.032	0.72
240.409	0.79
240.785	0.83
241.162	0.67
241.539	1.08
241.915	0.88
242.292	0.89
242.668	1.05
243.045	1.41
243.421	1.18
243.798	1.21
244.174	1.73
244.551	2.02
244.927	2.13
245.303	2.33
245.679	2.61
246.056	2.51
246.432	2.34
246.808	2.39
247.184	2.3
247.56	1.85
247.936	1.73
248.312	1.45
248.688	1.57
249.064	1.54
249.44	1.43
249.815	1.41
250.191	1.57
250.567	1.59
250.943	1.54
251.318	1.73
251.694	1.75
252.069	1.51
252.445	1.43
252.82	1.49
253.196	1.44
253.571	1.19
253.947	1.12
254.322	1.31
254.697	1.11
255.073	1.19
255.448	1.22
255.823	1.33
256.198	1.65
256.573	1.66
256.948	2.04
257.323	2.21
257.698	2.26
258.073	2.3
258.448	2.17
258.823	2.15
259.198	1.98
259.573	1.86
259.948	1.99
260.322	2.05
260.697	1.97
261.072	1.83
261.446	1.89
261.821	1.94
262.195	2.02
262.57	2
262.944	2
263.319	2.04
263.693	1.9
264.067	1.91
264.442	2.01
264.816	1.88
265.19	1.76
265.564	1.59
265.938	1.43
266.313	1.61
266.687	1.63
267.061	1.65
267.435	1.96
267.809	1.93
268.183	1.83
268.556	1.91
268.93	2.04
269.304	2.09
269.678	2.09
270.051	2.06
270.425	2.14
270.799	2.09
271.172	2.1
271.546	2.25
271.919	2.25
272.293	2.19
272.666	2.13
273.04	2.17
273.413	2.19
273.787	2.17
274.16	2.06
274.533	1.97
274.906	1.95
275.279	1.97
275.653	1.99
276.026	1.95
276.399	1.95
276.772	1.93
277.145	1.86
277.518	1.91
277.891	1.86
278.263	1.82
278.636	1.76
279.009	1.76
279.382	1.86
279.755	1.8
280.127	1.8
280.5	1.83
280.872	1.9
281.245	2
281.617	2.16
281.99	2.31
282.362	2.4
282.735	2.36
283.107	2.28
283.479	2.27
283.852	2.38
284.224	2.37
284.596	2.39
284.968	2.42
285.34	2.38
285.713	2.33
286.085	2.33
286.457	2.53
286.829	2.61
287.201	2.63
287.572	2.59
287.944	2.63
288.316	2.6
288.688	2.55
289.06	2.52
289.431	2.47
289.803	2.43
290.175	2.35
290.546	2.54
290.918	2.55
291.289	2.51
291.661	2.6
292.032	2.62
292.403	2.68
292.775	2.74
293.146	2.67
293.517	2.6
293.889	2.67
294.26	2.66
294.631	2.58
295.002	2.53
295.373	2.7
295.744	2.64
296.115	2.65
296.486	2.53
296.857	2.62
297.228	2.64
297.599	2.49
297.97	2.59
298.34	2.52
298.711	2.53
299.082	2.63
299.452	2.56
299.823	2.6
300.194	2.5
300.564	2.34
300.935	2.44
301.305	2.55
301.676	2.5
302.046	2.39
302.416	2.45
302.787	2.38
303.157	2.22
303.527	2.18
303.897	2.25
304.267	2.45
304.637	2.39
305.008	2.46
305.378	2.63
305.748	2.6
306.117	2.67
306.487	2.64
306.857	2.66
307.227	2.64
307.597	2.68
307.967	2.72
308.336	2.95
308.706	3.01
309.076	3.02
309.445	3.03
309.815	3.09
310.184	3.04
310.554	3.05
310.923	3.03
311.293	3.12
311.662	3.2
312.031	3.17
312.401	3.19
312.77	3.23
313.139	3.31
313.508	3.46
313.877	3.33
314.246	3.39
314.616	3.3
314.985	3.44
315.353	3.32
315.722	3.47
316.091	3.36
316.46	3.31
316.829	3.45
317.198	3.36
317.567	3.37
317.935	3.46
318.304	3.54
318.672	3.51
319.041	3.53
319.41	3.37
319.778	3.31
320.147	3.3
320.515	3.13
320.883	2.96
321.252	2.95
321.62	3.12
321.988	3.11
322.357	3.18
322.725	3.13
323.093	3.33
323.461	3.43
323.829	3.61
324.197	3.69
324.565	3.62
324.933	3.72
325.301	3.68
325.669	3.7
326.037	3.72
326.405	3.83
326.772	3.97
327.14	4.16
327.508	4.15
327.875	4.1
328.243	4.32
328.61	4.5
328.978	4.42
329.346	4.37
329.713	4.5
330.08	4.58
330.448	4.56
330.815	4.52
331.182	4.43
331.55	4.39
331.917	4.43
332.284	4.48
332.651	4.51
333.018	4.55
333.385	4.59
333.752	4.47
334.119	4.61
334.486	4.48
334.853	4.48
335.22	4.57
335.587	4.68
335.954	4.63
336.32	4.58
336.687	4.7
337.054	4.8
337.42	4.73
337.787	4.73
338.153	4.65
338.52	4.71
338.886	4.55
339.253	4.5
339.619	4.51
339.986	4.5
340.352	4.5
340.718	4.52
341.084	4.43
341.451	4.56
341.817	4.49
342.183	4.57
342.549	4.51
342.915	4.47
343.281	4.48
343.647	4.36
344.013	4.37
344.379	4.33
344.745	4.32
345.11	4.39
345.476	4.42
345.842	4.52
346.208	4.47
346.573	4.59
346.939	4.7
347.304	4.61
347.67	4.6
348.035	4.54
348.401	4.55
348.766	4.57
349.132	4.53
349.497	4.51
349.862	4.62
350.228	4.61
350.593	4.61
350.958	4.63
351.323	4.74
351.688	4.7
352.053	4.69
352.418	4.7
352.783	4.6
353.148	4.54
353.513	4.56
353.878	4.56
354.243	4.62
354.608	4.56
354.972	4.56
355.337	4.53
355.702	4.56
356.066	4.51
356.431	4.46
356.795	4.58
357.16	4.54
357.524	4.31
357.889	4.34
358.253	4.4
358.618	4.4
358.982	4.33
359.346	4.35
359.71	4.34
360.075	4.28
360.439	4.31
360.803	4.31
361.167	4.22
361.531	4.19
361.895	4.15
362.259	4.11
362.623	4.12
362.987	4.14
363.351	4.14
363.714	4.17
364.078	4.16
364.442	4.02
364.806	4.02
365.169	4.05
365.533	4.02
365.896	3.94
366.26	3.88
366.623	3.9
366.987	3.89
367.35	3.86
367.714	3.82
368.077	3.71
368.44	3.65
368.803	3.7
369.167	3.58
369.53	3.52
369.893	3.59
370.256	3.56
370.619	3.57
370.982	3.5
371.345	3.47
371.708	3.55
372.071	3.62
372.434	3.54
372.797	3.58
373.159	3.48
373.522	3.49
373.885	3.45
374.247	3.44
374.61	3.38
374.973	3.37
375.335	3.43
375.698	3.5
376.06	3.46
376.423	3.39
376.785	3.51
377.147	3.56
377.51	3.49
377.872	3.53
378.234	3.45
378.596	3.47
378.958	3.47
379.321	3.38
379.683	3.33
380.045	3.35
380.407	3.29
380.769	3.34
381.13	3.36
381.492	3.39
381.854	3.36
382.216	3.37
382.578	3.36
382.939	3.31
383.301	3.26
383.663	3.27
384.024	3.28
384.386	3.21
384.747	3.19
385.109	3.18
385.47	3.07
385.832	3.05
386.193	3.04
386.554	3.03
386.916	3.01
387.277	2.99
387.638	2.99
387.999	2.97
388.36	2.95
388.721	2.96
389.082	2.91
389.443	2.91
389.804	2.88
390.165	2.86
390.526	2.83
390.887	2.83
391.248	2.87
391.609	2.86
391.969	2.87
392.33	2.81
392.691	2.81
393.051	2.81
393.412	2.81
393.772	2.78
394.133	2.77
394.493	2.78
394.854	2.77
395.214	2.75
395.574	2.75
395.935	2.72
396.295	2.66
396.655	2.65
397.015	2.6
397.376	2.6
397.736	2.61
398.096	2.6
398.456	2.61
398.816	2.56
399.176	2.55
399.535	2.52
399.895	2.5
400.255	2.5
400.615	2.49
400.975	2.49
401.334	2.49
401.694	2.47
402.054	2.44
402.413	2.45
402.773	2.42
403.132	2.42
403.492	2.43
403.851	2.43
404.211	2.41
404.57	2.46
404.929	2.44
405.288	2.41
405.648	2.39
406.007	2.39
406.366	2.38
406.725	2.4
407.084	2.42
407.443	2.44
407.802	2.45
408.161	2.47
408.52	2.47
408.879	2.45
409.238	2.5
409.596	2.51
409.955	2.48
410.314	2.52
410.673	2.49
411.031	2.48
411.39	2.49
411.748	2.51
412.107	2.51
412.465	2.49
412.824	2.51
413.182	2.51
413.54	2.51
413.899	2.52
414.257	2.46
414.615	2.44
414.974	2.44
415.332	2.41
415.69	2.38
416.048	2.38
416.406	2.36
416.764	2.34
417.122	2.34
417.48	2.35
417.838	2.34
418.195	2.35
418.553	2.34
418.911	2.33
419.269	2.33
419.626	2.32
419.984	2.33
420.342	2.32
420.699	2.33
421.057	2.33
421.414	2.33
421.772	2.34
422.129	2.35
422.486	2.33
422.844	2.34
423.201	2.34
423.558	2.34
423.915	2.35
424.273	2.35
424.63	2.34
424.987	2.34
425.344	2.33
425.701	2.33
426.058	2.34
426.415	2.33
426.772	2.32
427.128	2.3
427.485	2.31
427.842	2.3
428.199	2.31
428.555	2.29
428.912	2.29
429.269	2.28
429.625	2.25
429.982	2.24
430.338	2.24
430.695	2.24
431.051	2.24
431.407	2.23
431.764	2.22
432.12	2.21
432.476	2.21
432.832	2.22
433.189	2.22
433.545	2.21
433.901	2.23
434.257	2.22
434.613	2.24
434.969	2.24
435.325	2.24
435.681	2.24
436.036	2.23
436.392	2.22
436.748	2.23
437.104	2.24
437.459	2.25
437.815	2.25
438.171	2.25
438.526	2.27
438.882	2.27
439.237	2.26
439.593	2.27
439.948	2.29
440.304	2.29
440.659	2.29
441.014	2.29
441.369	2.29
441.725	2.29
442.08	2.29
442.435	2.28
442.79	2.28
443.145	2.27
443.5	2.27
443.855	2.27
444.21	2.26
444.565	2.27
444.92	2.26
445.275	2.24
445.629	2.25
445.984	2.23
446.339	2.22
446.693	2.22
447.048	2.19
447.403	2.17
447.757	2.15
448.112	2.15
448.466	2.15
448.82	2.15
449.175	2.15
449.529	2.13
449.883	2.12
450.238	2.1
450.592	2.09
450.946	2.08
451.3	2.08
451.654	2.08
452.008	2.09
452.362	2.11
452.716	2.12
453.07	2.11
453.424	2.09
453.778	2.09
454.132	2.09
454.486	2.12
454.839	2.11
455.193	2.14
455.547	2.15
455.9	2.14
456.254	2.15
456.607	2.15
456.961	2.15
457.314	2.16
457.668	2.17
458.021	2.18
458.375	2.2
458.728	2.21
459.081	2.21
459.434	2.19
459.787	2.2
460.141	2.2
460.494	2.21
460.847	2.22
461.2	2.24
461.553	2.23
461.906	2.23
462.259	2.26
462.611	2.25
462.964	2.24
463.317	2.24
463.67	2.24
464.022	2.23
464.375	2.24
464.728	2.25
465.08	2.25
465.433	2.26
465.785	2.25
466.138	2.22
466.49	2.22
466.843	2.24
467.195	2.22
467.547	2.21
467.899	2.19
468.252	2.2
468.604	2.19
468.956	2.2
469.308	2.2
469.66	2.17
470.012	2.17
470.364	2.18
470.716	2.19
471.068	2.17
471.42	2.17
471.772	2.19
472.123	2.19
472.475	2.2
472.827	2.2
473.178	2.2
473.53	2.2
473.882	2.21
474.233	2.19
474.585	2.18
474.936	2.16
475.288	2.19
475.639	2.19
475.99	2.21
476.342	2.22
476.693	2.21
477.044	2.24
477.395	2.25
477.746	2.26
478.097	2.26
478.448	2.26
478.8	2.27
479.15	2.25
479.501	2.23
479.852	2.22
480.203	2.21
480.554	2.22
480.905	2.23
481.255	2.23
481.606	2.24
481.957	2.25
482.307	2.27
482.658	2.27
483.009	2.27
483.359	2.27
483.709	2.26
484.06	2.26
484.41	2.26
484.761	2.25
485.111	2.25
485.461	2.25
485.811	2.26
486.162	2.25
486.512	2.27
486.862	2.28
487.212	2.27
487.562	2.28
487.912	2.28
488.262	2.28
488.612	2.29
488.961	2.28
489.311	2.29
489.661	2.27
490.011	2.27
490.36	2.27
490.71	2.27
491.06	2.28
491.409	2.27
491.759	2.27
492.108	2.27
492.458	2.27
492.807	2.27
493.157	2.27
493.506	2.28
493.855	2.27
494.204	2.25
494.554	2.26
494.903	2.26
495.252	2.26
495.601	2.27
495.95	2.24
496.299	2.26
496.648	2.24
496.997	2.26
497.346	2.25
497.695	2.26
498.043	2.25
498.392	2.25
498.741	2.28
499.09	2.29
499.438	2.31
499.787	2.36
500.135	2.37
500.484	2.39
500.832	2.4
501.181	2.42
501.529	2.44
501.878	2.47
502.226	2.49
502.574	2.49
502.923	2.49
503.271	2.52
503.619	2.55
503.967	2.59
504.315	2.6
504.663	2.62
505.011	2.64
505.359	2.66
505.707	2.69
506.055	2.7
506.403	2.72
506.751	2.72
507.098	2.73
507.446	2.76
507.794	2.78
508.141	2.8
508.489	2.84
508.837	2.89
509.184	2.92
509.531	2.97
509.879	3.03
510.226	3.11
510.574	3.14
510.921	3.16
511.268	3.2
511.616	3.26
511.963	3.32
512.31	3.37
512.657	3.42
513.004	3.47
513.351	3.54
513.698	3.61
514.045	3.69
514.392	3.73
514.739	3.79
515.086	3.85
515.432	3.91
515.779	3.95
516.126	4.02
516.473	4.09
516.819	4.14
517.166	4.18
517.512	4.22
517.859	4.29
518.205	4.36
518.552	4.42
518.898	4.46
519.245	4.49
519.591	4.52
519.937	4.59
520.283	4.68
520.629	4.77
520.976	4.84
521.322	4.9
521.668	5.01
522.014	5.09
522.36	5.2
522.706	5.31
523.052	5.42
523.398	5.54
523.743	5.65
524.089	5.77
524.435	5.87
524.781	5.96
525.126	6.04
525.472	6.12
525.817	6.2
526.163	6.28
526.509	6.36
526.854	6.45
527.199	6.51
527.545	6.57
527.89	6.63
528.235	6.69
528.581	6.76
528.926	6.82
529.271	6.88
529.616	6.95
529.961	7.01
530.306	7.08
530.651	7.14
530.996	7.21
531.341	7.29
531.686	7.38
532.031	7.46
532.376	7.57
532.721	7.67
533.065	7.79
533.41	7.88
533.755	8
534.099	8.09
534.444	8.21
534.788	8.33
535.133	8.42
535.477	8.55
535.822	8.67
536.166	8.79
536.51	8.95
536.855	9.09
537.199	9.24
537.543	9.39
537.887	9.56
538.231	9.72
538.576	9.87
538.92	10.05
539.264	10.2
539.608	10.34
539.951	10.47
540.295	10.59
540.639	10.74
540.983	10.86
541.327	10.99
541.671	11.11
542.014	11.25
542.358	11.39
542.701	11.52
543.045	11.64
543.389	11.79
543.732	11.91
544.075	12.04
544.419	12.18
544.762	12.31
545.105	12.47
545.449	12.62
545.792	12.81
546.135	12.99
546.478	13.18
546.821	13.35
547.165	13.57
547.508	13.77
547.851	13.96
548.194	14.16
548.536	14.36
548.879	14.57
549.222	14.76
549.565	14.98
549.908	15.15
550.25	15.36
550.593	15.58
550.936	15.79
551.278	16.01
551.621	16.27
551.963	16.52
552.306	16.75
552.648	16.99
552.991	17.19
553.333	17.36
553.675	17.55
554.017	17.76
554.36	17.96
554.702	18.18
555.044	18.41
555.386	18.62
555.728	18.84
556.07	19.07
556.412	19.28
556.754	19.47
557.096	19.7
557.438	19.89
557.78	20.14
558.121	20.37
558.463	20.58
558.805	20.79
559.147	20.96
559.488	21.16
559.83	21.39
560.171	21.61
560.513	21.86
560.854	22.11
561.196	22.31
561.537	22.53
561.878	22.71
562.22	22.89
562.561	23.07
562.902	23.27
563.243	23.45
563.584	23.64
563.925	23.8
564.266	24.01
564.607	24.23
564.948	24.37
565.289	24.57
565.63	24.76
565.971	24.9
566.312	25.1
566.653	25.31
566.993	25.43
567.334	25.57
567.675	25.72
568.015	25.85
568.356	26
568.696	26.12
569.037	26.29
569.377	26.48
569.718	26.66
570.058	26.82
570.398	26.99
570.739	27.16
571.079	27.34
571.419	27.49
571.759	27.63
572.099	27.81
572.439	27.94
572.779	28.07
573.119	28.27
573.459	28.45
573.799	28.57
574.139	28.71
574.479	28.85
574.819	28.98
575.158	29.16
575.498	29.34
575.838	29.51
576.177	29.61
576.517	29.76
576.856	29.9
577.196	30.08
577.535	30.2
577.875	30.39
578.214	30.53
578.553	30.68
578.893	30.84
579.232	30.9
579.571	31.04
579.91	31.18
580.25	31.24
580.589	31.3
580.928	31.44
581.267	31.58
581.606	31.73
581.945	31.88
582.283	31.93
582.622	32.03
582.961	32.17
583.3	32.28
583.639	32.42
583.977	32.56
584.316	32.64
584.654	32.81
584.993	32.82
585.332	32.95
585.67	33.03
586.008	33.15
586.347	33.28
586.685	33.44
587.024	33.55
587.362	33.69
587.7	33.79
588.038	33.83
588.376	33.96
588.715	34.02
589.053	34.09
589.391	34.24
589.729	34.37
590.067	34.47
590.404	34.59
590.742	34.61
591.08	34.7
591.418	34.8
591.756	34.81
592.093	34.92
592.431	34.97
592.769	35.12
593.106	35.17
593.444	35.24
593.781	35.28
594.119	35.37
594.456	35.43
594.793	35.54
595.131	35.62
595.468	35.68
595.805	35.74
596.143	35.82
596.48	35.84
596.817	35.88
597.154	35.96
597.491	36.04
597.828	36.1
598.165	36.09
598.502	36.13
598.839	36.2
599.176	36.2
599.512	36.29
599.849	36.32
600.186	36.45
600.523	36.55
600.859	36.59
601.196	36.62
601.532	36.66
601.869	36.72
602.205	36.8
602.542	36.81
602.878	36.85
603.215	36.85
603.551	36.92
603.887	36.95
604.223	36.97
604.56	37.05
604.896	37.13
605.232	37.24
605.568	37.3
605.904	37.42
606.24	37.5
606.576	37.52
606.912	37.55
607.248	37.55
607.583	37.63
607.919	37.63
608.255	37.65
608.591	37.76
608.926	37.74
609.262	37.83
609.597	37.92
609.933	38.03
610.268	38.1
610.604	38.15
610.939	38.2
611.275	38.24
611.61	38.25
611.945	38.28
612.281	38.24
612.616	38.21
612.951	38.18
613.286	38.26
613.621	38.24
613.956	38.29
614.291	38.26
614.626	38.25
614.961	38.36
615.296	38.48
615.631	38.49
615.966	38.58
616.3	38.57
616.635	38.58
616.97	38.58
617.304	38.56
617.639	38.56
617.973	38.59
618.308	38.62
618.642	38.67
618.977	38.74
619.311	38.87
619.646	39.02
619.98	39.05
620.314	39.1
620.648	39.25
620.983	39.28
621.317	39.42
621.651	39.5
621.985	39.56
622.319	39.55
622.653	39.57
622.987	39.63
623.321	39.67
623.655	39.73
623.988	39.81
624.322	39.85
624.656	40.02
624.99	40.07
625.323	40.04
625.657	40.04
625.99	40.08
626.324	40.03
626.657	39.99
626.991	40.05
627.324	40.02
627.658	40.06
627.991	40.14
628.324	40.2
628.657	40.21
628.991	40.14
629.324	40.19
629.657	40.24
629.99	40.26
630.323	40.24
630.656	40.29
630.989	40.24
631.322	40.37
631.655	40.31
631.987	40.32
632.32	40.37
632.653	40.36
632.986	40.41
633.318	40.5
633.651	40.51
633.984	40.47
634.316	40.5
634.649	40.46
634.981	40.39
635.313	40.29
635.646	40.27
635.978	40.36
636.31	40.41
636.643	40.35
636.975	40.33
637.307	40.31
637.639	40.23
637.971	40.3
638.303	40.3
638.635	40.24
638.967	40.25
639.299	40.29
639.631	40.36
639.963	40.3
640.295	40.31
640.626	40.41
640.958	40.51
641.29	40.52
641.621	40.66
641.953	40.72
642.285	40.9
642.616	40.98
642.948	40.99
643.279	40.94
643.61	40.96
643.942	41
644.273	41.05
644.604	41.18
644.936	41.14
645.267	41.05
645.598	41.1
645.929	41.09
646.26	41.12
646.591	41.11
646.922	41.13
647.253	41.14
647.584	41.03
647.915	40.99
648.245	41.01
648.576	40.89
648.907	40.93
649.238	40.85
649.568	40.74
649.899	40.72
650.229	40.79
650.56	40.82
650.89	40.78
651.221	40.8
651.551	40.72
651.882	40.74
652.212	40.81
652.542	40.85
652.872	40.83
653.203	40.83
653.533	40.84
653.863	40.74
654.193	40.8
654.523	40.91
654.853	41.01
655.183	41.05
655.513	40.98
655.843	40.98
656.172	40.99
656.502	41.09
656.832	41.1
657.162	41.08
657.491	41.08
657.821	41.19
658.15	41.22
658.48	41.23
658.809	41.25
659.139	41.32
659.468	41.2
659.798	41.17
660.127	41.22
660.456	41.19
660.785	41.29
661.115	41.2
661.444	41.13
661.773	41.02
662.102	40.97
662.431	41.11
662.76	41.04
663.089	41.02
663.418	40.98
663.747	40.81
664.076	40.73
664.404	40.8
664.733	40.61
665.062	40.58
665.39	40.64
665.719	40.57
666.048	40.41
666.376	40.55
666.705	40.58
