Data from BU58141_Reflection_00013.txt Node
Date: Mon Nov 18 16:47:01 EST 2019
User: vgr7
Spectrometer: USB2G7710
Scans to average: 3
Trigger mode: 4
Integration Time (sec): 2.000000E-2
Electric dark correction enabled: true
Boxcar width: 10
XAxis mode: Wavelengths
Number of Pixels in Spectrum: 2048
>>>>>Begin Spectral Data<<<<<
177.721	70.66
178.105	62.7
178.488	86.19
178.871	113.66
179.254	175.13
179.636	-3275
180.019	551.51
180.402	166.67
180.785	11.64
181.168	-429.41
181.55	86.18
181.933	43.5
182.316	111.04
182.698	9.2
183.081	5.54
183.463	-0.29
183.846	32.67
184.228	37.34
184.611	55.75
184.993	32.87
185.376	19.41
185.758	4.13
186.14	9.96
186.522	40.8
186.904	139.88
187.287	329.86
187.669	-346.37
188.051	-603.97
188.433	-182.4
188.815	-208.25
189.197	679.4
189.579	-6740
189.961	-1076.8
190.342	-1218.47
190.724	-222.73
191.106	-158.38
191.488	-133.05
191.869	-82.86
192.251	-95.24
192.633	-74.65
193.014	-118.11
193.396	-155.34
193.777	-212.53
194.159	-287.78
194.54	-189.9
194.922	-180.6
195.303	-128.04
195.684	-116.57
196.065	-72.97
196.447	-64.99
196.828	-62.05
197.209	-46.59
197.59	-57.11
197.971	-53.95
198.352	-49.25
198.733	-58.98
199.114	-55.72
199.495	-49.45
199.876	-51.54
200.257	-47.97
200.638	-48.57
201.018	-38.22
201.399	-28.33
201.78	-12.99
202.16	-20.11
202.541	-31.71
202.922	-47.79
203.302	-50.12
203.683	-61.65
204.063	-83.19
204.444	-87.56
204.824	-75.19
205.204	-79.73
205.585	-98.59
205.965	-92.11
206.345	-109.61
206.725	-112.6
207.106	-159.52
207.486	-180.41
207.866	-181.77
208.246	-175.71
208.626	-185.12
209.006	-152.58
209.386	-208.35
209.766	-259.18
210.145	-179.69
210.525	-141.83
210.905	-106.98
211.285	-114.84
211.664	-95.2
212.044	-84.32
212.424	-73.15
212.803	-81.98
213.183	-69.46
213.562	-31.29
213.942	-29.41
214.321	2.54
214.701	13.33
215.08	16.59
215.459	11.84
215.838	5.55
216.218	22.44
216.597	26.95
216.976	26.75
217.355	28.93
217.734	18.15
218.113	22.66
218.492	26.66
218.871	11.38
219.25	7.6
219.629	2.67
220.008	-13.64
220.387	-14.36
220.766	-11.67
221.144	-23.81
221.523	-38.86
221.902	-43.55
222.28	-58.85
222.659	-45.09
223.037	-41.51
223.416	-52.86
223.794	-50.46
224.173	-56.19
224.551	-54.69
224.929	-41.63
225.308	-34.54
225.686	-21.52
226.064	-13.98
226.442	-15.23
226.821	-11.4
227.199	-7.87
227.577	-10.38
227.955	-3.21
228.333	-4.23
228.711	0.31
229.089	5.79
229.467	6.28
229.845	8.62
230.222	7.78
230.6	2.91
230.978	4.92
231.356	7.4
231.733	8.34
232.111	11.2
232.488	11.13
232.866	10.58
233.243	12.25
233.621	9.79
233.998	7.27
234.376	5.61
234.753	5.48
235.13	5.1
235.508	6.37
235.885	6.86
236.262	5.29
236.639	4.27
237.016	2.62
237.393	3.51
237.77	4.03
238.147	4.1
238.524	4.55
238.901	4.05
239.278	4.14
239.655	4.37
240.032	3.89
240.409	3.94
240.785	3.56
241.162	3.46
241.539	3.75
241.915	4.03
242.292	4.44
242.668	4.7
243.045	5.14
243.421	5.06
243.798	5.2
244.174	5.24
244.551	5
244.927	5.09
245.303	5
245.679	4.9
246.056	4.96
246.432	5.27
246.808	5.28
247.184	5.03
247.56	4.89
247.936	4.88
248.312	4.88
248.688	4.96
249.064	4.78
249.44	4.79
249.815	4.74
250.191	4.74
250.567	4.58
250.943	4.31
251.318	4.34
251.694	3.94
252.069	4.14
252.445	4.25
252.82	3.83
253.196	3.77
253.571	3.88
253.947	3.86
254.322	3.85
254.697	3.77
255.073	3.96
255.448	3.84
255.823	4
256.198	4.22
256.573	4.16
256.948	4.21
257.323	4.31
257.698	4.29
258.073	4.19
258.448	4.21
258.823	4.26
259.198	3.95
259.573	4.04
259.948	4
260.322	4.03
260.697	4.11
261.072	4.05
261.446	3.89
261.821	3.92
262.195	3.86
262.57	3.88
262.944	3.8
263.319	3.71
263.693	3.65
264.067	3.55
264.442	3.63
264.816	3.64
265.19	3.49
265.564	3.49
265.938	3.37
266.313	3.39
266.687	3.38
267.061	3.68
267.435	3.81
267.809	3.9
268.183	3.84
268.556	3.96
268.93	4.06
269.304	4.23
269.678	4.26
270.051	4.24
270.425	4.16
270.799	4.23
271.172	4.26
271.546	4.13
271.919	4.19
272.293	3.97
272.666	3.89
273.04	4.02
273.413	3.98
273.787	4.08
274.16	4.06
274.533	3.95
274.906	3.71
275.279	3.65
275.653	3.62
276.026	3.6
276.399	3.6
276.772	3.61
277.145	3.37
277.518	3.26
277.891	3.09
278.263	3.14
278.636	3.1
279.009	3.1
279.382	3.22
279.755	3.29
280.127	3.55
280.5	3.64
280.872	3.65
281.245	3.52
281.617	3.63
281.99	3.64
282.362	3.7
282.735	3.71
283.107	3.56
283.479	3.67
283.852	3.68
284.224	3.63
284.596	3.64
284.968	3.85
285.34	3.96
285.713	3.99
286.085	4.02
286.457	4.1
286.829	4.15
287.201	4.17
287.572	3.98
287.944	3.92
288.316	4.07
288.688	4.05
289.06	4.18
289.431	4.18
289.803	4.32
290.175	4.42
290.546	4.58
290.918	4.82
291.289	4.82
291.661	4.99
292.032	5.17
292.403	5.21
292.775	5.31
293.146	5.23
293.517	5.42
293.889	5.54
294.26	5.63
294.631	5.75
295.002	5.77
295.373	6
295.744	6.09
296.115	5.97
296.486	5.86
296.857	5.93
297.228	6.02
297.599	6.02
297.97	6.07
298.34	6.14
298.711	6.16
299.082	6.15
299.452	6.15
299.823	6.2
300.194	6.12
300.564	6.09
300.935	6.23
301.305	6.23
301.676	6.27
302.046	6.33
302.416	6.46
302.787	6.52
303.157	6.5
303.527	6.62
303.897	6.77
304.267	7.12
304.637	7.28
305.008	7.5
305.378	7.71
305.748	7.81
306.117	7.89
306.487	7.97
306.857	8.3
307.227	8.41
307.597	8.5
307.967	8.85
308.336	8.94
308.706	8.95
309.076	9.19
309.445	9.19
309.815	9.36
310.184	9.38
310.554	9.59
310.923	9.76
311.293	9.72
311.662	9.75
312.031	9.8
312.401	9.82
312.77	9.91
313.139	10
313.508	10.11
313.877	10.3
314.246	10.53
314.616	10.51
314.985	10.67
315.353	10.83
315.722	10.91
316.091	11.12
316.46	11.44
316.829	11.49
317.198	11.59
317.567	11.62
317.935	11.73
318.304	11.84
318.672	11.89
319.041	12.17
319.41	12.3
319.778	12.45
320.147	12.57
320.515	12.57
320.883	12.71
321.252	12.8
321.62	12.82
321.988	12.88
322.357	12.91
322.725	12.95
323.093	12.98
323.461	13
323.829	12.87
324.197	12.79
324.565	12.92
324.933	13.14
325.301	13.29
325.669	13.4
326.037	13.48
326.405	13.51
326.772	13.71
327.14	13.89
327.508	13.97
327.875	14.03
328.243	14.11
328.61	14.14
328.978	14.25
329.346	14.42
329.713	14.49
330.08	14.6
330.448	14.7
330.815	14.74
331.182	14.79
331.55	15.05
331.917	15.09
332.284	15.03
332.651	15.09
333.018	15.16
333.385	15.18
333.752	15.25
334.119	15.31
334.486	15.13
334.853	15.28
335.22	15.19
335.587	15.23
335.954	15.4
336.32	15.39
336.687	15.44
337.054	15.56
337.42	15.68
337.787	15.88
338.153	15.92
338.52	16.04
338.886	16.03
339.253	16.07
339.619	16.13
339.986	16.23
340.352	16.31
340.718	16.35
341.084	16.42
341.451	16.51
341.817	16.72
342.183	16.88
342.549	16.74
342.915	16.93
343.281	17.03
343.647	16.95
344.013	17.03
344.379	17.01
344.745	16.96
345.11	16.93
345.476	16.86
345.842	16.84
346.208	16.9
346.573	17.01
346.939	17.05
347.304	17.05
347.67	17.2
348.035	17.21
348.401	17.17
348.766	17.18
349.132	17.13
349.497	17.02
349.862	17.06
350.228	17.12
350.593	16.97
350.958	16.93
351.323	17.03
351.688	16.96
352.053	17.09
352.418	17.13
352.783	17.16
353.148	17.12
353.513	17.16
353.878	17.18
354.243	17.11
354.608	17.11
354.972	17.14
355.337	17.11
355.702	17.14
356.066	17.24
356.431	17.17
356.795	17.21
357.16	17.18
357.524	17.06
357.889	17.04
358.253	17.22
358.618	17.29
358.982	17.16
359.346	17.08
359.71	16.96
360.075	17.01
360.439	16.88
360.803	16.85
361.167	16.81
361.531	16.67
361.895	16.67
362.259	16.58
362.623	16.57
362.987	16.58
363.351	16.52
363.714	16.43
364.078	16.41
364.442	16.34
364.806	16.32
365.169	16.34
365.533	16.3
365.896	16.06
366.26	15.95
366.623	15.9
366.987	15.88
367.35	15.81
367.714	15.66
368.077	15.66
368.44	15.61
368.803	15.56
369.167	15.55
369.53	15.49
369.893	15.38
370.256	15.29
370.619	15.12
370.982	15
371.345	14.93
371.708	14.9
372.071	14.85
372.434	14.73
372.797	14.6
373.159	14.48
373.522	14.43
373.885	14.35
374.247	14.27
374.61	14.2
374.973	14.04
375.335	13.92
375.698	13.77
376.06	13.63
376.423	13.55
376.785	13.49
377.147	13.41
377.51	13.38
377.872	13.31
378.234	13.21
378.596	13.16
378.958	13.04
379.321	12.9
379.683	12.77
380.045	12.7
380.407	12.56
380.769	12.48
381.13	12.36
381.492	12.26
381.854	12.15
382.216	12.08
382.578	11.99
382.939	11.9
383.301	11.77
383.663	11.7
384.024	11.56
384.386	11.41
384.747	11.32
385.109	11.19
385.47	11.04
385.832	10.94
386.193	10.85
386.554	10.76
386.916	10.69
387.277	10.6
387.638	10.54
387.999	10.44
388.36	10.35
388.721	10.3
389.082	10.24
389.443	10.14
389.804	10.06
390.165	9.98
390.526	9.91
390.887	9.87
391.248	9.77
391.609	9.72
391.969	9.67
392.33	9.6
392.691	9.56
393.051	9.51
393.412	9.48
393.772	9.41
394.133	9.31
394.493	9.24
394.854	9.17
395.214	9.09
395.574	9.05
395.935	8.99
396.295	8.94
396.655	8.82
397.015	8.77
397.376	8.69
397.736	8.66
398.096	8.59
398.456	8.56
398.816	8.49
399.176	8.38
399.535	8.26
399.895	8.14
400.255	8.1
400.615	8.02
400.975	7.87
401.334	7.82
401.694	7.76
402.054	7.65
402.413	7.6
402.773	7.53
403.132	7.49
403.492	7.43
403.851	7.35
404.211	7.31
404.57	7.23
404.929	7.16
405.288	7.11
405.648	7.06
406.007	6.97
406.366	6.94
406.725	6.9
407.084	6.88
407.443	6.88
407.802	6.85
408.161	6.81
408.52	6.78
408.879	6.73
409.238	6.7
409.596	6.71
409.955	6.65
410.314	6.64
410.673	6.59
411.031	6.57
411.39	6.55
411.748	6.51
412.107	6.47
412.465	6.43
412.824	6.41
413.182	6.36
413.54	6.33
413.899	6.32
414.257	6.29
414.615	6.23
414.974	6.16
415.332	6.08
415.69	6.02
416.048	6
416.406	5.96
416.764	5.93
417.122	5.89
417.48	5.87
417.838	5.82
418.195	5.8
418.553	5.77
418.911	5.76
419.269	5.75
419.626	5.73
419.984	5.69
420.342	5.65
420.699	5.61
421.057	5.59
421.414	5.56
421.772	5.54
422.129	5.53
422.486	5.52
422.844	5.51
423.201	5.5
423.558	5.46
423.915	5.43
424.273	5.39
424.63	5.37
424.987	5.33
425.344	5.31
425.701	5.29
426.058	5.26
426.415	5.22
426.772	5.17
427.128	5.15
427.485	5.15
427.842	5.13
428.199	5.12
428.555	5.07
428.912	5.06
429.269	5.03
429.625	5
429.982	4.98
430.338	4.95
430.695	4.94
431.051	4.92
431.407	4.91
431.764	4.92
432.12	4.89
432.476	4.89
432.832	4.85
433.189	4.83
433.545	4.81
433.901	4.81
434.257	4.82
434.613	4.8
434.969	4.76
435.325	4.76
435.681	4.76
436.036	4.76
436.392	4.73
436.748	4.72
437.104	4.71
437.459	4.71
437.815	4.7
438.171	4.69
438.526	4.68
438.882	4.67
439.237	4.66
439.593	4.68
439.948	4.68
440.304	4.7
440.659	4.71
441.014	4.71
441.369	4.7
441.725	4.7
442.08	4.7
442.435	4.71
442.79	4.71
443.145	4.71
443.5	4.7
443.855	4.72
444.21	4.71
444.565	4.7
444.92	4.69
445.275	4.67
445.629	4.67
445.984	4.68
446.339	4.67
446.693	4.66
447.048	4.64
447.403	4.62
447.757	4.62
448.112	4.59
448.466	4.57
448.82	4.54
449.175	4.52
449.529	4.52
449.883	4.5
450.238	4.47
450.592	4.45
450.946	4.43
451.3	4.39
451.654	4.39
452.008	4.39
452.362	4.38
452.716	4.38
453.07	4.36
453.424	4.35
453.778	4.36
454.132	4.35
454.486	4.33
454.839	4.33
455.193	4.29
455.547	4.28
455.9	4.28
456.254	4.28
456.607	4.29
456.961	4.27
457.314	4.28
457.668	4.28
458.021	4.26
458.375	4.26
458.728	4.28
459.081	4.26
459.434	4.25
459.787	4.25
460.141	4.23
460.494	4.22
460.847	4.22
461.2	4.21
461.553	4.2
461.906	4.2
462.259	4.21
462.611	4.22
462.964	4.23
463.317	4.24
463.67	4.24
464.022	4.23
464.375	4.23
464.728	4.24
465.08	4.24
465.433	4.25
465.785	4.24
466.138	4.23
466.49	4.26
466.843	4.28
467.195	4.3
467.547	4.34
467.899	4.35
468.252	4.36
468.604	4.39
468.956	4.41
469.308	4.44
469.66	4.44
470.012	4.47
470.364	4.51
470.716	4.52
471.068	4.53
471.42	4.55
471.772	4.59
472.123	4.62
472.475	4.65
472.827	4.69
473.178	4.76
473.53	4.77
473.882	4.77
474.233	4.78
474.585	4.79
474.936	4.78
475.288	4.8
475.639	4.81
475.99	4.83
476.342	4.85
476.693	4.86
477.044	4.9
477.395	4.91
477.746	4.9
478.097	4.92
478.448	4.94
478.8	4.95
479.15	4.94
479.501	4.95
479.852	4.95
480.203	4.96
480.554	4.95
480.905	4.97
481.255	4.98
481.606	5
481.957	4.99
482.307	5.01
482.658	5.01
483.009	5
483.359	4.98
483.709	4.98
484.06	4.97
484.41	4.96
484.761	4.97
485.111	4.96
485.461	4.95
485.811	4.95
486.162	4.95
486.512	4.95
486.862	4.94
487.212	4.93
487.562	4.93
487.912	4.93
488.262	4.92
488.612	4.91
488.961	4.89
489.311	4.88
489.661	4.87
490.011	4.86
490.36	4.86
490.71	4.86
491.06	4.86
491.409	4.87
491.759	4.87
492.108	4.85
492.458	4.86
492.807	4.86
493.157	4.87
493.506	4.88
493.855	4.87
494.204	4.89
494.554	4.89
494.903	4.87
495.252	4.88
495.601	4.89
495.95	4.9
496.299	4.93
496.648	4.95
496.997	4.96
497.346	4.98
497.695	5.01
498.043	5.03
498.392	5.04
498.741	5.08
499.09	5.11
499.438	5.18
499.787	5.21
500.135	5.25
500.484	5.3
500.832	5.33
501.181	5.39
501.529	5.43
501.878	5.49
502.226	5.55
502.574	5.61
502.923	5.67
503.271	5.75
503.619	5.82
503.967	5.92
504.315	6.01
504.663	6.1
505.011	6.18
505.359	6.27
505.707	6.39
506.055	6.48
506.403	6.57
506.751	6.66
507.098	6.76
507.446	6.89
507.794	6.98
508.141	7.12
508.489	7.24
508.837	7.36
509.184	7.49
509.531	7.61
509.879	7.76
510.226	7.89
510.574	8.03
510.921	8.18
511.268	8.31
511.616	8.45
511.963	8.62
512.31	8.81
512.657	9.02
513.004	9.2
513.351	9.41
513.698	9.66
514.045	9.87
514.392	10.11
514.739	10.33
515.086	10.56
515.432	10.79
515.779	11.01
516.126	11.26
516.473	11.5
516.819	11.76
517.166	12
517.512	12.23
517.859	12.47
518.205	12.7
518.552	12.94
518.898	13.18
519.245	13.42
519.591	13.63
519.937	13.85
520.283	14.13
520.629	14.41
520.976	14.68
521.322	15
521.668	15.29
522.014	15.66
522.36	16.01
522.706	16.39
523.052	16.79
523.398	17.16
523.743	17.58
524.089	17.96
524.435	18.34
524.781	18.72
525.126	19.05
525.472	19.37
525.817	19.67
526.163	19.96
526.509	20.2
526.854	20.45
527.199	20.67
527.545	20.85
527.89	21.06
528.235	21.26
528.581	21.46
528.926	21.67
529.271	21.84
529.616	22.03
529.961	22.22
530.306	22.45
530.651	22.69
530.996	22.92
531.341	23.16
531.686	23.39
532.031	23.61
532.376	23.85
532.721	24.09
533.065	24.33
533.41	24.57
533.755	24.84
534.099	25.08
534.444	25.36
534.788	25.63
535.133	25.9
535.477	26.17
535.822	26.47
536.166	26.77
536.51	27.09
536.855	27.44
537.199	27.76
537.543	28.07
537.887	28.35
538.231	28.64
538.576	28.94
538.92	29.24
539.264	29.56
539.608	29.85
539.951	30.13
540.295	30.37
540.639	30.61
540.983	30.84
541.327	31.06
541.671	31.29
542.014	31.53
542.358	31.71
542.701	31.91
543.045	32.11
543.389	32.3
543.732	32.52
544.075	32.72
544.419	32.96
544.762	33.17
545.105	33.44
545.449	33.7
545.792	33.98
546.135	34.26
546.478	34.51
546.821	34.8
547.165	35.06
547.508	35.37
547.851	35.65
548.194	35.93
548.536	36.25
548.879	36.53
549.222	36.79
549.565	37.16
549.908	37.46
550.25	37.78
550.593	38.11
550.936	38.37
551.278	38.62
551.621	38.89
551.963	39.24
552.306	39.51
552.648	39.8
552.991	40.08
553.333	40.35
553.675	40.58
554.017	40.79
554.36	40.99
554.702	41.17
555.044	41.39
555.386	41.65
555.728	41.94
556.07	42.16
556.412	42.4
556.754	42.6
557.096	42.82
557.438	43.03
557.78	43.26
558.121	43.48
558.463	43.66
558.805	43.86
559.147	43.99
559.488	44.2
559.83	44.34
560.171	44.55
560.513	44.71
560.854	44.95
561.196	45.27
561.537	45.5
561.878	45.7
562.22	45.88
562.561	46.02
562.902	46.12
563.243	46.32
563.584	46.52
563.925	46.63
564.266	46.83
564.607	46.97
564.948	47.15
565.289	47.38
565.63	47.58
565.971	47.75
566.312	47.9
566.653	48.02
566.993	48.21
567.334	48.31
567.675	48.42
568.015	48.58
568.356	48.63
568.696	48.83
569.037	49
569.377	49.23
569.718	49.36
570.058	49.54
570.398	49.65
570.739	49.73
571.079	49.92
571.419	50.05
571.759	50.21
572.099	50.31
572.439	50.35
572.779	50.43
573.119	50.51
573.459	50.63
573.799	50.77
574.139	50.88
574.479	50.96
574.819	51.11
575.158	51.19
575.498	51.31
575.838	51.36
576.177	51.43
576.517	51.45
576.856	51.64
577.196	51.69
577.535	51.8
577.875	51.93
578.214	52
578.553	52.06
578.893	52.15
579.232	52.23
579.571	52.42
579.91	52.5
580.25	52.64
580.589	52.78
580.928	52.88
581.267	52.95
581.606	53.15
581.945	53.23
582.283	53.29
582.622	53.4
582.961	53.53
583.3	53.66
583.639	53.79
583.977	53.81
584.316	53.89
584.654	53.92
584.993	53.98
585.332	54.16
585.67	54.21
586.008	54.25
586.347	54.27
586.685	54.3
587.024	54.4
587.362	54.4
587.7	54.42
588.038	54.48
588.376	54.49
588.715	54.5
589.053	54.61
589.391	54.7
589.729	54.74
590.067	54.77
590.404	54.81
590.742	54.83
591.08	54.91
591.418	54.95
591.756	55.05
592.093	55.15
592.431	55.1
592.769	55.19
593.106	55.32
593.444	55.37
593.781	55.41
594.119	55.44
594.456	55.56
594.793	55.61
595.131	55.63
595.468	55.72
595.805	55.72
596.143	55.73
596.48	55.77
596.817	55.81
597.154	55.83
597.491	55.92
597.828	55.95
598.165	55.95
598.502	56.06
598.839	56.08
599.176	56.06
599.512	56.11
599.849	56.14
600.186	56.11
600.523	56.21
600.859	56.27
601.196	56.34
601.532	56.31
601.869	56.33
602.205	56.35
602.542	56.35
602.878	56.39
603.215	56.42
603.551	56.47
603.887	56.44
604.223	56.51
604.56	56.47
604.896	56.55
605.232	56.62
605.568	56.68
605.904	56.75
606.24	56.78
606.576	56.83
606.912	56.86
607.248	56.86
607.583	56.85
607.919	56.88
608.255	56.95
608.591	57.04
608.926	57.09
609.262	57.2
609.597	57.23
609.933	57.34
610.268	57.43
610.604	57.45
610.939	57.48
611.275	57.45
611.61	57.5
611.945	57.48
612.281	57.47
612.616	57.37
612.951	57.42
613.286	57.45
613.621	57.41
613.956	57.43
614.291	57.5
614.626	57.65
614.961	57.66
615.296	57.7
615.631	57.71
615.966	57.69
616.3	57.68
616.635	57.83
616.97	57.8
617.304	57.82
617.639	57.81
617.973	57.92
618.308	58
618.642	58.05
618.977	58.07
619.311	58.12
619.646	58.23
619.98	58.24
620.314	58.38
620.648	58.41
620.983	58.41
621.317	58.42
621.651	58.46
621.985	58.46
622.319	58.38
622.653	58.4
622.987	58.46
623.321	58.45
623.655	58.39
623.988	58.43
624.322	58.42
624.656	58.45
624.99	58.44
625.323	58.51
625.657	58.55
625.99	58.6
626.324	58.62
626.657	58.58
626.991	58.57
627.324	58.53
627.658	58.52
627.991	58.57
628.324	58.7
628.657	58.63
628.991	58.69
629.324	58.74
629.657	58.74
629.99	58.78
630.323	58.87
630.656	58.95
630.989	58.89
631.322	58.83
631.655	58.81
631.987	58.85
632.32	58.81
632.653	58.82
632.986	58.84
633.318	58.76
633.651	58.78
633.984	58.77
634.316	58.79
634.649	58.81
634.981	58.86
635.313	58.78
635.646	58.73
635.978	58.74
636.31	58.74
636.643	58.73
636.975	58.75
637.307	58.69
637.639	58.66
637.971	58.74
638.303	58.85
638.635	58.92
638.967	58.92
639.299	58.96
639.631	58.86
639.963	58.89
640.295	58.9
640.626	59.04
640.958	59.11
641.29	59.07
641.621	59.13
641.953	59.11
642.285	59.14
642.616	59.32
642.948	59.24
643.279	59.29
643.61	59.42
643.942	59.37
644.273	59.32
644.604	59.27
644.936	59.2
645.267	59.25
645.598	59.18
645.929	59.25
646.26	59.32
646.591	59.36
646.922	59.18
647.253	59.21
647.584	59.17
647.915	59.02
648.245	59.06
648.576	59.15
648.907	59.13
649.238	59.04
649.568	58.92
649.899	58.94
650.229	58.89
650.56	58.89
650.89	58.91
651.221	58.98
651.551	58.91
651.882	58.94
652.212	58.86
652.542	58.89
652.872	58.85
653.203	58.85
653.533	58.89
653.863	58.9
654.193	58.97
654.523	58.91
654.853	59.08
655.183	59.12
655.513	59.06
655.843	59.11
656.172	59.27
656.502	59.36
656.832	59.31
657.162	59.42
657.491	59.38
657.821	59.45
658.15	59.45
658.48	59.52
658.809	59.45
659.139	59.31
659.468	59.16
659.798	59.11
660.127	59.11
660.456	59.19
660.785	59.29
661.115	59.3
661.444	59.36
661.773	59.33
662.102	59.38
662.431	59.44
