Data from BU58140_Reflection_00012.txt Node
Date: Tue Nov 19 10:53:45 EST 2019
User: vgr7
Spectrometer: USB2G7710
Scans to average: 3
Trigger mode: 4
Integration Time (sec): 2.000000E-2
Electric dark correction enabled: true
Boxcar width: 10
XAxis mode: Wavelengths
Number of Pixels in Spectrum: 2048
>>>>>Begin Spectral Data<<<<<
177.721	392.79
178.105	-137.18
178.488	-57.11
178.871	-52.38
179.254	-55.56
179.636	316.31
180.019	548.72
180.402	-600
180.785	58.33
181.168	277.08
181.55	183.33
181.933	86.11
182.316	82.91
182.698	65.02
183.081	43.99
183.463	54.43
183.846	119.13
184.228	40.1
184.611	-233.33
184.993	46.67
185.376	7.63
185.758	-32.51
186.14	-116.67
186.522	-113.62
186.904	-97.44
187.287	-109.83
187.669	-66.67
188.051	-66.67
188.433	-84.64
188.815	-97.64
189.197	-117.84
189.579	-108.87
189.961	-110.35
190.342	-92.49
190.724	-113.56
191.106	-97.99
191.488	-97.73
191.869	-89.86
192.251	-92.12
192.633	-98.05
193.014	-117
193.396	-111.77
193.777	-125.42
194.159	-104.3
194.54	-95.88
194.922	-103.86
195.303	-106.57
195.684	-98.72
196.065	-96.81
196.447	-93.48
196.828	-88.53
197.209	-83.06
197.59	-78.63
197.971	-67.06
198.352	-61.34
198.733	-65.94
199.114	-67.38
199.495	-62.61
199.876	-55.83
200.257	-54.11
200.638	-52.01
201.018	-52.69
201.399	-59.77
201.78	-62.41
202.16	-77.43
202.541	-74.93
202.922	-73.63
203.302	-71.36
203.683	-72.79
204.063	-79.69
204.444	-64.59
204.824	-56.6
205.204	-57.58
205.585	-48.35
205.965	-60.65
206.345	-55.73
206.725	-45.31
207.106	-40.59
207.486	-48.84
207.866	-56.94
208.246	-52.36
208.626	-57.36
209.006	-50.94
209.386	-40.38
209.766	-34.77
210.145	-29.18
210.525	-34.7
210.905	-27.88
211.285	-24.28
211.664	-26.46
212.044	-26.02
212.424	-34.08
212.803	-38.2
213.183	-38.89
213.562	-47.53
213.942	-40.51
214.321	-58.06
214.701	-69.35
215.08	-53.11
215.459	-46.04
215.838	-45.66
216.218	-47.1
216.597	-34.68
216.976	-42.62
217.355	-51.28
217.734	-58.96
218.113	-49.07
218.492	-35.36
218.871	-29.08
219.25	-38.89
219.629	-45.92
220.008	-34.6
220.387	-29.71
220.766	-24.26
221.144	-22.25
221.523	-10.63
221.902	-15.16
222.28	-3.83
222.659	7.68
223.037	3.79
223.416	6.82
223.794	8.97
224.173	6.51
224.551	5.93
224.929	2.05
225.308	4.53
225.686	4.47
226.064	5.8
226.442	5.47
226.821	0.31
227.199	0.37
227.577	6.52
227.955	5.4
228.333	0.9
228.711	-3.81
229.089	-3.1
229.467	-4.15
229.845	-4.92
230.222	-3.3
230.6	-3.55
230.978	-4.63
231.356	-3.83
231.733	-2.62
232.111	-3.2
232.488	-2.52
232.866	-0.79
233.243	-0.99
233.621	-0.37
233.998	0.13
234.376	-2.55
234.753	0.12
235.13	0.64
235.508	0.15
235.885	-1.1
236.262	0.96
236.639	1.19
237.016	0.6
237.393	1.42
237.77	2.91
238.147	2.94
238.524	2.79
238.901	2.16
239.278	1
239.655	0.3
240.032	0.9
240.409	1.08
240.785	0.81
241.162	1.08
241.539	1.35
241.915	0.81
242.292	1.41
242.668	1.22
243.045	1.9
243.421	2.58
243.798	3.07
244.174	2.93
244.551	3.2
244.927	3.3
245.303	3.1
245.679	2.82
246.056	2.72
246.432	2.84
246.808	3.15
247.184	3.58
247.56	3.6
247.936	3.62
248.312	3.75
248.688	3.95
249.064	4.04
249.44	4.08
249.815	4.49
250.191	4.47
250.567	4.71
250.943	4.57
251.318	4.09
251.694	3.88
252.069	4.12
252.445	4.17
252.82	4.47
253.196	4.55
253.571	4.66
253.947	4.59
254.322	4.51
254.697	4.23
255.073	4.16
255.448	4.38
255.823	4.23
256.198	4.19
256.573	4.32
256.948	4.5
257.323	4.62
257.698	4.5
258.073	4.58
258.448	4.5
258.823	4.48
259.198	4.55
259.573	4.54
259.948	4.44
260.322	4.4
260.697	4.38
261.072	4.44
261.446	4.56
261.821	4.66
262.195	4.66
262.57	4.68
262.944	4.58
263.319	4.63
263.693	4.71
264.067	4.67
264.442	4.53
264.816	4.28
265.19	4.24
265.564	4.15
265.938	4.08
266.313	3.93
266.687	3.78
267.061	3.8
267.435	3.9
267.809	3.87
268.183	3.73
268.556	3.69
268.93	3.68
269.304	3.53
269.678	3.66
270.051	3.78
270.425	3.81
270.799	3.77
271.172	3.76
271.546	3.71
271.919	3.7
272.293	3.73
272.666	3.67
273.04	3.73
273.413	3.83
273.787	3.63
274.16	3.66
274.533	3.81
274.906	3.76
275.279	3.82
275.653	3.83
276.026	3.96
276.399	3.83
276.772	3.78
277.145	4
277.518	3.77
277.891	3.66
278.263	3.82
278.636	3.91
279.009	3.89
279.382	3.88
279.755	3.86
280.127	3.87
280.5	3.79
280.872	3.59
281.245	3.56
281.617	3.8
281.99	3.71
282.362	3.65
282.735	3.62
283.107	3.46
283.479	3.54
283.852	3.46
284.224	3.68
284.596	3.77
284.968	3.62
285.34	3.58
285.713	3.8
286.085	3.59
286.457	3.72
286.829	3.62
287.201	3.68
287.572	3.78
287.944	3.79
288.316	3.9
288.688	4.04
289.06	4.04
289.431	4.04
289.803	4.23
290.175	4.32
290.546	4.3
290.918	4.4
291.289	4.21
291.661	4.3
292.032	4.18
292.403	4.14
292.775	4.16
293.146	4.28
293.517	4.1
293.889	4.28
294.26	4.31
294.631	4.41
295.002	4.51
295.373	4.49
295.744	4.48
296.115	4.52
296.486	4.55
296.857	4.64
297.228	4.62
297.599	4.55
297.97	4.67
298.34	4.79
298.711	4.84
299.082	5.16
299.452	5.09
299.823	5.16
300.194	5.27
300.564	5.31
300.935	5.36
301.305	5.43
301.676	5.47
302.046	5.46
302.416	5.53
302.787	5.47
303.157	5.52
303.527	5.74
303.897	5.76
304.267	5.89
304.637	5.78
305.008	5.73
305.378	5.72
305.748	5.7
306.117	5.77
306.487	5.87
306.857	5.83
307.227	6.08
307.597	6.26
307.967	6.25
308.336	6.43
308.706	6.51
309.076	6.52
309.445	6.63
309.815	6.8
310.184	6.85
310.554	6.96
310.923	7.02
311.293	7.02
311.662	7.14
312.031	7.19
312.401	7.35
312.77	7.53
313.139	7.67
313.508	7.65
313.877	7.83
314.246	7.89
314.616	7.92
314.985	7.99
315.353	7.94
315.722	8.16
316.091	8.19
316.46	8.29
316.829	8.44
317.198	8.46
317.567	8.49
317.935	8.59
318.304	8.91
318.672	8.99
319.041	9.04
319.41	9.1
319.778	9.18
320.147	9.29
320.515	9.34
320.883	9.46
321.252	9.53
321.62	9.63
321.988	9.68
322.357	9.75
322.725	9.73
323.093	9.88
323.461	9.85
323.829	9.94
324.197	10.07
324.565	10.18
324.933	10.15
325.301	10.01
325.669	9.96
326.037	9.78
326.405	9.79
326.772	9.93
327.14	9.86
327.508	9.63
327.875	9.64
328.243	9.79
328.61	9.86
328.978	9.98
329.346	9.78
329.713	9.9
330.08	9.9
330.448	10.03
330.815	9.97
331.182	9.96
331.55	10.05
331.917	9.97
332.284	9.87
332.651	10
333.018	10.02
333.385	10.13
333.752	10.17
334.119	10.27
334.486	10.38
334.853	10.57
335.22	10.79
335.587	10.7
335.954	10.71
336.32	10.69
336.687	10.72
337.054	10.77
337.42	10.79
337.787	10.87
338.153	10.9
338.52	10.99
338.886	11.02
339.253	10.98
339.619	11.05
339.986	11.14
340.352	11.11
340.718	11.31
341.084	11.41
341.451	11.45
341.817	11.31
342.183	11.18
342.549	11.09
342.915	11.09
343.281	11.23
343.647	11.24
344.013	11.16
344.379	11.1
344.745	11.27
345.11	11.24
345.476	11.29
345.842	11.25
346.208	11.24
346.573	11.22
346.939	11.18
347.304	11.16
347.67	11.16
348.035	11.22
348.401	11.13
348.766	11.09
349.132	11.18
349.497	11.31
349.862	11.34
350.228	11.5
350.593	11.45
350.958	11.44
351.323	11.34
351.688	11.46
352.053	11.48
352.418	11.35
352.783	11.36
353.148	11.26
353.513	11.24
353.878	11.22
354.243	11.21
354.608	11.28
354.972	11.21
355.337	11.21
355.702	11.15
356.066	11
356.431	10.99
356.795	10.95
357.16	10.95
357.524	10.97
357.889	10.84
358.253	10.87
358.618	10.76
358.982	10.86
359.346	10.79
359.71	10.71
360.075	10.69
360.439	10.7
360.803	10.69
361.167	10.64
361.531	10.62
361.895	10.59
362.259	10.57
362.623	10.57
362.987	10.45
363.351	10.44
363.714	10.48
364.078	10.4
364.442	10.33
364.806	10.19
365.169	10.06
365.533	10.06
365.896	9.99
366.26	9.97
366.623	9.85
366.987	9.75
367.35	9.8
367.714	9.73
368.077	9.64
368.44	9.56
368.803	9.46
369.167	9.36
369.53	9.28
369.893	9.11
370.256	9
370.619	8.97
370.982	8.83
371.345	8.8
371.708	8.7
372.071	8.6
372.434	8.59
372.797	8.58
373.159	8.43
373.522	8.32
373.885	8.3
374.247	8.16
374.61	8.12
374.973	7.95
375.335	7.89
375.698	7.72
376.06	7.68
376.423	7.59
376.785	7.5
377.147	7.43
377.51	7.42
377.872	7.38
378.234	7.28
378.596	7.26
378.958	7.17
379.321	7.12
379.683	7.08
380.045	7.01
380.407	6.84
380.769	6.8
381.13	6.71
381.492	6.61
381.854	6.59
382.216	6.58
382.578	6.6
382.939	6.53
383.301	6.52
383.663	6.43
384.024	6.43
384.386	6.42
384.747	6.4
385.109	6.32
385.47	6.29
385.832	6.27
386.193	6.18
386.554	6.11
386.916	6.11
387.277	6.02
387.638	5.93
387.999	5.94
388.36	5.92
388.721	5.9
389.082	5.87
389.443	5.85
389.804	5.78
390.165	5.7
390.526	5.66
390.887	5.6
391.248	5.53
391.609	5.52
391.969	5.46
392.33	5.41
392.691	5.35
393.051	5.28
393.412	5.25
393.772	5.23
394.133	5.19
394.493	5.08
394.854	5.04
395.214	5.06
395.574	4.99
395.935	4.94
396.295	4.91
396.655	4.84
397.015	4.78
397.376	4.71
397.736	4.65
398.096	4.61
398.456	4.54
398.816	4.53
399.176	4.47
399.535	4.44
399.895	4.4
400.255	4.39
400.615	4.37
400.975	4.3
401.334	4.27
401.694	4.25
402.054	4.28
402.413	4.25
402.773	4.2
403.132	4.22
403.492	4.2
403.851	4.17
404.211	4.14
404.57	4.13
404.929	4.11
405.288	4.12
405.648	4.11
406.007	4.15
406.366	4.14
406.725	4.12
407.084	4.11
407.443	4.1
407.802	4.07
408.161	4.1
408.52	4.12
408.879	4.1
409.238	4.1
409.596	4.07
409.955	4.09
410.314	4.08
410.673	4.05
411.031	4.03
411.39	4.05
411.748	4.09
412.107	4.06
412.465	4.07
412.824	4.04
413.182	4.02
413.54	3.98
413.899	3.97
414.257	3.97
414.615	3.95
414.974	3.94
415.332	3.94
415.69	3.9
416.048	3.87
416.406	3.83
416.764	3.81
417.122	3.78
417.48	3.76
417.838	3.75
418.195	3.74
418.553	3.72
418.911	3.67
419.269	3.65
419.626	3.65
419.984	3.63
420.342	3.62
420.699	3.6
421.057	3.58
421.414	3.57
421.772	3.54
422.129	3.53
422.486	3.52
422.844	3.51
423.201	3.49
423.558	3.49
423.915	3.49
424.273	3.48
424.63	3.48
424.987	3.45
425.344	3.43
425.701	3.43
426.058	3.43
426.415	3.42
426.772	3.4
427.128	3.38
427.485	3.37
427.842	3.34
428.199	3.34
428.555	3.31
428.912	3.29
429.269	3.29
429.625	3.28
429.982	3.27
430.338	3.27
430.695	3.25
431.051	3.23
431.407	3.24
431.764	3.22
432.12	3.24
432.476	3.25
432.832	3.25
433.189	3.23
433.545	3.23
433.901	3.25
434.257	3.26
434.613	3.25
434.969	3.26
435.325	3.28
435.681	3.28
436.036	3.29
436.392	3.31
436.748	3.32
437.104	3.33
437.459	3.32
437.815	3.32
438.171	3.34
438.526	3.34
438.882	3.34
439.237	3.36
439.593	3.34
439.948	3.34
440.304	3.35
440.659	3.36
441.014	3.35
441.369	3.34
441.725	3.33
442.08	3.35
442.435	3.34
442.79	3.34
443.145	3.34
443.5	3.34
443.855	3.31
444.21	3.3
444.565	3.29
444.92	3.3
445.275	3.28
445.629	3.28
445.984	3.27
446.339	3.26
446.693	3.25
447.048	3.24
447.403	3.24
447.757	3.22
448.112	3.21
448.466	3.2
448.82	3.2
449.175	3.19
449.529	3.17
449.883	3.17
450.238	3.16
450.592	3.16
450.946	3.16
451.3	3.15
451.654	3.14
452.008	3.11
452.362	3.1
452.716	3.11
453.07	3.09
453.424	3.11
453.778	3.1
454.132	3.09
454.486	3.08
454.839	3.07
455.193	3.08
455.547	3.09
455.9	3.11
456.254	3.11
456.607	3.11
456.961	3.13
457.314	3.13
457.668	3.13
458.021	3.13
458.375	3.12
458.728	3.14
459.081	3.15
459.434	3.17
459.787	3.18
460.141	3.18
460.494	3.18
460.847	3.16
461.2	3.17
461.553	3.18
461.906	3.2
462.259	3.19
462.611	3.2
462.964	3.21
463.317	3.2
463.67	3.21
464.022	3.22
464.375	3.21
464.728	3.21
465.08	3.22
465.433	3.24
465.785	3.26
466.138	3.27
466.49	3.3
466.843	3.31
467.195	3.29
467.547	3.28
467.899	3.31
468.252	3.34
468.604	3.33
468.956	3.35
469.308	3.37
469.66	3.42
470.012	3.41
470.364	3.43
470.716	3.44
471.068	3.47
471.42	3.49
471.772	3.51
472.123	3.52
472.475	3.53
472.827	3.51
473.178	3.51
473.53	3.52
473.882	3.5
474.233	3.5
474.585	3.51
474.936	3.52
475.288	3.51
475.639	3.52
475.99	3.51
476.342	3.49
476.693	3.48
477.044	3.47
477.395	3.47
477.746	3.44
478.097	3.44
478.448	3.42
478.8	3.41
479.15	3.41
479.501	3.39
479.852	3.37
480.203	3.38
480.554	3.37
480.905	3.37
481.255	3.37
481.606	3.37
481.957	3.37
482.307	3.37
482.658	3.36
483.009	3.36
483.359	3.36
483.709	3.37
484.06	3.37
484.41	3.35
484.761	3.36
485.111	3.37
485.461	3.35
485.811	3.35
486.162	3.35
486.512	3.35
486.862	3.35
487.212	3.35
487.562	3.36
487.912	3.36
488.262	3.35
488.612	3.35
488.961	3.35
489.311	3.35
489.661	3.35
490.011	3.34
490.36	3.34
490.71	3.34
491.06	3.33
491.409	3.32
491.759	3.33
492.108	3.33
492.458	3.33
492.807	3.34
493.157	3.35
493.506	3.35
493.855	3.35
494.204	3.37
494.554	3.38
494.903	3.38
495.252	3.41
495.601	3.44
495.95	3.45
496.299	3.47
496.648	3.49
496.997	3.51
497.346	3.56
497.695	3.61
498.043	3.65
498.392	3.69
498.741	3.74
499.09	3.76
499.438	3.79
499.787	3.84
500.135	3.88
500.484	3.92
500.832	3.96
501.181	4.02
501.529	4.08
501.878	4.13
502.226	4.18
502.574	4.25
502.923	4.28
503.271	4.34
503.619	4.42
503.967	4.51
504.315	4.6
504.663	4.66
505.011	4.74
505.359	4.8
505.707	4.89
506.055	4.98
506.403	5.08
506.751	5.17
507.098	5.25
507.446	5.37
507.794	5.47
508.141	5.57
508.489	5.66
508.837	5.76
509.184	5.85
509.531	5.95
509.879	6.04
510.226	6.16
510.574	6.27
510.921	6.37
511.268	6.48
511.616	6.6
511.963	6.74
512.31	6.84
512.657	7
513.004	7.12
513.351	7.27
513.698	7.44
514.045	7.61
514.392	7.77
514.739	7.95
515.086	8.14
515.432	8.32
515.779	8.49
516.126	8.65
516.473	8.83
516.819	9.01
517.166	9.16
517.512	9.34
517.859	9.51
518.205	9.66
518.552	9.84
518.898	10
519.245	10.15
519.591	10.32
519.937	10.46
520.283	10.65
520.629	10.8
520.976	10.98
521.322	11.16
521.668	11.36
522.014	11.53
522.36	11.73
522.706	11.94
523.052	12.18
523.398	12.43
523.743	12.7
524.089	12.96
524.435	13.2
524.781	13.43
525.126	13.64
525.472	13.87
525.817	14.07
526.163	14.24
526.509	14.43
526.854	14.6
527.199	14.75
527.545	14.91
527.89	15.07
528.235	15.23
528.581	15.41
528.926	15.58
529.271	15.77
529.616	15.93
529.961	16.1
530.306	16.27
530.651	16.45
530.996	16.64
531.341	16.83
531.686	17.05
532.031	17.25
532.376	17.48
532.721	17.69
533.065	17.91
533.41	18.16
533.755	18.38
534.099	18.63
534.444	18.89
534.788	19.12
535.133	19.38
535.477	19.63
535.822	19.88
536.166	20.17
536.51	20.45
536.855	20.77
537.199	21.1
537.543	21.45
537.887	21.79
538.231	22.1
538.576	22.44
538.92	22.77
539.264	23.08
539.608	23.37
539.951	23.63
540.295	23.91
540.639	24.14
540.983	24.42
541.327	24.67
541.671	24.94
542.014	25.2
542.358	25.43
542.701	25.67
543.045	25.89
543.389	26.14
543.732	26.39
544.075	26.64
544.419	26.89
544.762	27.15
545.105	27.42
545.449	27.72
545.792	28.03
546.135	28.32
546.478	28.65
546.821	28.98
547.165	29.38
547.508	29.72
547.851	30.09
548.194	30.4
548.536	30.74
548.879	31.07
549.222	31.37
549.565	31.7
549.908	32.01
550.25	32.36
550.593	32.65
550.936	32.96
551.278	33.28
551.621	33.6
551.963	33.89
552.306	34.18
552.648	34.49
552.991	34.72
553.333	35.02
553.675	35.29
554.017	35.54
554.36	35.73
554.702	35.97
555.044	36.28
555.386	36.54
555.728	36.78
556.07	37.04
556.412	37.34
556.754	37.65
557.096	37.93
557.438	38.21
557.78	38.5
558.121	38.78
558.463	39.11
558.805	39.42
559.147	39.7
559.488	39.97
559.83	40.21
560.171	40.47
560.513	40.67
560.854	40.87
561.196	41.18
561.537	41.39
561.878	41.67
562.22	41.86
562.561	42.06
562.902	42.31
563.243	42.54
563.584	42.75
563.925	42.95
564.266	43.12
564.607	43.31
564.948	43.51
565.289	43.73
565.63	43.84
565.971	44
566.312	44.18
566.653	44.37
566.993	44.55
567.334	44.7
567.675	44.94
568.015	45.14
568.356	45.22
568.696	45.46
569.037	45.6
569.377	45.75
569.718	45.94
570.058	46.11
570.398	46.23
570.739	46.39
571.079	46.56
571.419	46.78
571.759	46.93
572.099	47.08
572.439	47.22
572.779	47.36
573.119	47.48
573.459	47.62
573.799	47.74
574.139	47.87
574.479	48.02
574.819	48.13
575.158	48.3
575.498	48.52
575.838	48.69
576.177	48.81
576.517	48.96
576.856	49.1
577.196	49.27
577.535	49.4
577.875	49.57
578.214	49.7
578.553	49.8
578.893	49.95
579.232	50.06
579.571	50.19
579.91	50.35
580.25	50.52
580.589	50.65
580.928	50.83
581.267	50.98
581.606	51.12
581.945	51.29
582.283	51.39
582.622	51.52
582.961	51.52
583.3	51.6
583.639	51.64
583.977	51.81
584.316	51.92
584.654	52.13
584.993	52.19
585.332	52.34
585.67	52.44
586.008	52.53
586.347	52.59
586.685	52.7
587.024	52.88
587.362	52.92
587.7	53.05
588.038	53.13
588.376	53.21
588.715	53.36
589.053	53.45
589.391	53.54
589.729	53.58
590.067	53.81
590.404	53.91
590.742	54.15
591.08	54.21
591.418	54.21
591.756	54.19
592.093	54.34
592.431	54.46
592.769	54.58
593.106	54.64
593.444	54.85
593.781	54.93
594.119	54.94
594.456	55.02
594.793	55.08
595.131	55.12
595.468	55.2
595.805	55.26
596.143	55.28
596.48	55.37
596.817	55.45
597.154	55.47
597.491	55.58
597.828	55.57
598.165	55.61
598.502	55.75
598.839	55.83
599.176	55.87
599.512	55.86
599.849	55.91
600.186	56
600.523	55.97
600.859	56
601.196	56.08
601.532	56.15
601.869	56.2
602.205	56.27
602.542	56.34
602.878	56.39
603.215	56.45
603.551	56.47
603.887	56.48
604.223	56.48
604.56	56.53
604.896	56.58
605.232	56.59
605.568	56.69
605.904	56.79
606.24	56.84
606.576	56.89
606.912	56.9
607.248	56.93
607.583	57.02
607.919	57.04
608.255	57.03
608.591	57.14
608.926	57.11
609.262	57.1
609.597	57.11
609.933	57.11
610.268	57.14
610.604	57.15
610.939	57.24
611.275	57.27
611.61	57.24
611.945	57.23
612.281	57.32
612.616	57.29
612.951	57.25
613.286	57.25
613.621	57.29
613.956	57.37
614.291	57.36
614.626	57.28
614.961	57.27
615.296	57.39
615.631	57.29
615.966	57.44
616.3	57.44
616.635	57.49
616.97	57.57
617.304	57.65
617.639	57.66
617.973	57.74
618.308	57.72
618.642	57.79
618.977	57.86
619.311	57.91
619.646	57.99
619.98	58.11
620.314	58.19
620.648	58.16
620.983	58.14
621.317	58.25
621.651	58.41
621.985	58.57
622.319	58.54
622.653	58.59
622.987	58.61
623.321	58.81
623.655	58.85
623.988	58.9
624.322	58.89
624.656	58.97
624.99	58.92
625.323	58.93
625.657	58.96
625.99	59.01
626.324	58.97
626.657	58.95
626.991	58.88
627.324	58.84
627.658	58.84
627.991	58.89
628.324	58.81
628.657	58.86
628.991	58.82
629.324	58.91
629.657	58.9
629.99	58.9
630.323	58.76
630.656	58.76
630.989	58.78
631.322	58.76
631.655	58.74
631.987	58.8
632.32	58.92
632.653	58.88
632.986	58.95
633.318	59.02
633.651	59.03
633.984	59.04
634.316	59
634.649	59.11
634.981	59.09
635.313	59.22
635.646	59.12
635.978	59.16
636.31	59.12
636.643	59.26
636.975	59.21
637.307	59.36
637.639	59.34
637.971	59.36
638.303	59.37
638.635	59.29
638.967	59.26
639.299	59.26
639.631	59.36
639.963	59.24
640.295	59.22
640.626	59.3
640.958	59.33
641.29	59.55
641.621	59.46
641.953	59.46
642.285	59.52
642.616	59.6
642.948	59.58
643.279	59.62
643.61	59.5
643.942	59.62
644.273	59.56
644.604	59.52
644.936	59.53
645.267	59.61
645.598	59.73
645.929	59.75
646.26	59.75
646.591	59.77
646.922	59.93
647.253	59.91
647.584	59.82
647.915	59.94
648.245	59.82
648.576	59.92
648.907	59.99
649.238	60.04
649.568	60.01
649.899	60.03
650.229	60.05
650.56	60.11
650.89	60.03
651.221	60.04
651.551	60.11
651.882	60.04
652.212	60.02
652.542	60.03
652.872	60.05
653.203	60.04
653.533	60.08
653.863	59.99
654.193	60.14
654.523	60.23
654.853	60.18
655.183	60.21
655.513	60.25
655.843	60.38
656.172	60.33
656.502	60.4
656.832	60.47
657.162	60.45
657.491	60.47
657.821	60.56
658.15	60.67
658.48	60.74
658.809	60.83
659.139	60.87
659.468	60.89
659.798	60.93
660.127	60.96
660.456	60.96
660.785	61
661.115	61.02
661.444	61.08
661.773	61.08
662.102	61.05
662.431	61.1
662.76	60.98
663.089	60.92
663.418	60.93
663.747	60.85
664.076	60.8
664.404	60.89
664.733	60.88
665.062	60.76
665.39	60.69
