Data from BU58141_Reflection_00008.txt Node
Date: Mon Nov 18 16:46:49 EST 2019
User: vgr7
Spectrometer: USB2G7710
Scans to average: 3
Trigger mode: 4
Integration Time (sec): 2.000000E-2
Electric dark correction enabled: true
Boxcar width: 10
XAxis mode: Wavelengths
Number of Pixels in Spectrum: 2048
>>>>>Begin Spectral Data<<<<<
177.721	-25.76
178.105	-1.24
178.488	28.2
178.871	52.2
179.254	39.9
179.636	1225
180.019	-80.6
180.402	66.67
180.785	-127.21
181.168	100
181.55	-121.2
181.933	100
182.316	151.53
182.698	85.18
183.081	68.07
183.463	48
183.846	33.74
184.228	16.45
184.611	23.84
184.993	18.39
185.376	33.1
185.758	30.27
186.14	14.24
186.522	23.62
186.904	64.55
187.287	76.42
187.669	79.24
188.051	121.66
188.433	67.26
188.815	4.49
189.197	-131.76
189.579	3940
189.961	762.98
190.342	1055.41
190.724	223.48
191.106	134.04
191.488	97.31
191.869	91.13
192.251	77.69
192.633	82.63
193.014	102.49
193.396	112.1
193.777	141.25
194.159	154.02
194.54	110.49
194.922	105.58
195.303	97.64
195.684	76.93
196.065	89.39
196.447	84.38
196.828	67.75
197.209	60.82
197.59	64.63
197.971	52
198.352	58.94
198.733	57.69
199.114	68.71
199.495	83.03
199.876	68.61
200.257	74.86
200.638	78.32
201.018	67.12
201.399	49.53
201.78	44.66
202.16	42.49
202.541	42.41
202.922	59.76
203.302	52.84
203.683	76.79
204.063	57.66
204.444	57.5
204.824	62.39
205.204	51.71
205.585	17.49
205.965	-3.79
206.345	-47.96
206.725	-66.3
207.106	-94.38
207.486	-125.26
207.866	-144.79
208.246	-148.73
208.626	-136.27
209.006	-79.03
209.386	-100.37
209.766	-104.52
210.145	-91.42
210.525	-60.02
210.905	-51.52
211.285	-60.91
211.664	-54.63
212.044	-60.81
212.424	-62.97
212.803	-60.44
213.183	-56.31
213.562	-43.22
213.942	-18.31
214.321	11.16
214.701	23.4
215.08	26.37
215.459	33.75
215.838	44.62
216.218	59.24
216.597	58.26
216.976	51.85
217.355	52.62
217.734	54.91
218.113	68.24
218.492	58.09
218.871	52.02
219.25	61.14
219.629	55.22
220.008	62.84
220.387	62.32
220.766	75.5
221.144	70.99
221.523	89.11
221.902	75.42
222.28	75.36
222.659	67.1
223.037	76.14
223.416	72.85
223.794	70.52
224.173	48.1
224.551	35.44
224.929	30.19
225.308	25.8
225.686	24.52
226.064	18.38
226.442	18.05
226.821	19.99
227.199	17.73
227.577	16.43
227.955	13.89
228.333	14.91
228.711	13.87
229.089	19.48
229.467	14.97
229.845	17.03
230.222	15.77
230.6	14.36
230.978	13.86
231.356	14.09
231.733	12.42
232.111	13.18
232.488	15.16
232.866	14.7
233.243	14.13
233.621	12.97
233.998	11.88
234.376	12.25
234.753	11.13
235.13	11.35
235.508	12.07
235.885	11.84
236.262	10.51
236.639	9.85
237.016	7.48
237.393	7.17
237.77	6.69
238.147	7.4
238.524	7.35
238.901	6.84
239.278	5.96
239.655	6.33
240.032	6.69
240.409	5.32
240.785	4.99
241.162	5.26
241.539	4.9
241.915	5.06
242.292	4.37
242.668	4.46
243.045	3.99
243.421	3.5
243.798	3.48
244.174	3.21
244.551	3.28
244.927	3.17
245.303	3.58
245.679	3.52
246.056	3.16
246.432	2.94
246.808	2.94
247.184	2.61
247.56	2.74
247.936	2.38
248.312	2.72
248.688	2.91
249.064	2.81
249.44	2.65
249.815	2.63
250.191	2.77
250.567	2.59
250.943	2.57
251.318	2.8
251.694	2.76
252.069	3.16
252.445	2.96
252.82	3.1
253.196	2.76
253.571	2.77
253.947	3.26
254.322	3.65
254.697	3.37
255.073	3.57
255.448	3.16
255.823	3.17
256.198	2.9
256.573	2.83
256.948	2.81
257.323	2.98
257.698	2.83
258.073	2.75
258.448	2.82
258.823	2.71
259.198	2.61
259.573	2.51
259.948	2.43
260.322	2.4
260.697	2.33
261.072	2.37
261.446	2.33
261.821	2.04
262.195	1.99
262.57	2.11
262.944	2.22
263.319	2.2
263.693	2.13
264.067	2.19
264.442	2.17
264.816	2.23
265.19	2.08
265.564	2.11
265.938	2.14
266.313	2.13
266.687	2.37
267.061	2.6
267.435	2.73
267.809	2.63
268.183	2.67
268.556	2.65
268.93	2.65
269.304	2.67
269.678	2.85
270.051	2.75
270.425	2.75
270.799	2.71
271.172	2.76
271.546	2.82
271.919	2.67
272.293	2.72
272.666	2.7
273.04	2.71
273.413	2.63
273.787	2.77
274.16	2.79
274.533	2.72
274.906	2.5
275.279	2.44
275.653	2.33
276.026	2.4
276.399	2.33
276.772	2.33
277.145	2.2
277.518	2.14
277.891	2.14
278.263	2.08
278.636	2.04
279.009	1.91
279.382	2.04
279.755	2.1
280.127	2.19
280.5	2.1
280.872	2.22
281.245	2.34
281.617	2.48
281.99	2.33
282.362	2.23
282.735	2.25
283.107	2.31
283.479	2.37
283.852	2.34
284.224	2.47
284.596	2.51
284.968	2.59
285.34	2.63
285.713	2.69
286.085	2.56
286.457	2.66
286.829	2.72
287.201	2.69
287.572	2.77
287.944	2.6
288.316	2.66
288.688	2.69
289.06	2.67
289.431	2.55
289.803	2.62
290.175	2.57
290.546	2.69
290.918	2.59
291.289	2.6
291.661	2.77
292.032	2.75
292.403	2.76
292.775	2.86
293.146	2.77
293.517	2.62
293.889	2.78
294.26	2.83
294.631	2.84
295.002	2.88
295.373	2.8
295.744	2.92
296.115	3.03
296.486	3
296.857	3.04
297.228	3.14
297.599	3.19
297.97	3.33
298.34	3.28
298.711	3.41
299.082	3.55
299.452	3.48
299.823	3.51
300.194	3.52
300.564	3.49
300.935	3.53
301.305	3.67
301.676	3.74
302.046	3.71
302.416	3.7
302.787	3.71
303.157	3.75
303.527	3.75
303.897	3.67
304.267	3.79
304.637	3.77
305.008	3.7
305.378	3.86
305.748	4.07
306.117	4.1
306.487	4.11
306.857	4.18
307.227	4.28
307.597	4.26
307.967	4.36
308.336	4.43
308.706	4.51
309.076	4.56
309.445	4.44
309.815	4.48
310.184	4.6
310.554	4.64
310.923	4.8
311.293	4.84
311.662	4.9
312.031	4.88
312.401	4.99
312.77	5.03
313.139	5.08
313.508	4.94
313.877	4.97
314.246	4.98
314.616	4.88
314.985	4.83
315.353	4.9
315.722	4.97
316.091	5.04
316.46	5.12
316.829	5.16
317.198	5.39
317.567	5.38
317.935	5.46
318.304	5.47
318.672	5.48
319.041	5.55
319.41	5.52
319.778	5.55
320.147	5.61
320.515	5.65
320.883	5.53
321.252	5.86
321.62	5.95
321.988	5.98
322.357	6.1
322.725	6.2
323.093	6.31
323.461	6.15
323.829	6.27
324.197	6.25
324.565	6.32
324.933	6.49
325.301	6.6
325.669	6.69
326.037	6.77
326.405	6.83
326.772	6.94
327.14	6.92
327.508	7.09
327.875	7.1
328.243	7.18
328.61	7.27
328.978	7.23
329.346	7.16
329.713	7.18
330.08	7.22
330.448	7.07
330.815	6.97
331.182	7.1
331.55	7.05
331.917	7.06
332.284	7.15
332.651	7.05
333.018	7.06
333.385	7.08
333.752	7.18
334.119	7.15
334.486	7.08
334.853	7.12
335.22	6.95
335.587	6.89
335.954	6.9
336.32	6.93
336.687	6.94
337.054	7
337.42	7.07
337.787	7.06
338.153	7.09
338.52	7.2
338.886	7.19
339.253	7.11
339.619	7.23
339.986	7.21
340.352	7.18
340.718	7.22
341.084	7.18
341.451	7.24
341.817	7.27
342.183	7.21
342.549	7.26
342.915	7.37
343.281	7.42
343.647	7.39
344.013	7.35
344.379	7.35
344.745	7.4
345.11	7.41
345.476	7.51
345.842	7.56
346.208	7.52
346.573	7.66
346.939	7.72
347.304	7.64
347.67	7.55
348.035	7.54
348.401	7.48
348.766	7.6
349.132	7.54
349.497	7.52
349.862	7.66
350.228	7.74
350.593	7.75
350.958	7.75
351.323	7.94
351.688	7.96
352.053	7.98
352.418	7.97
352.783	7.95
353.148	7.83
353.513	7.92
353.878	7.91
354.243	7.85
354.608	7.85
354.972	7.79
355.337	7.83
355.702	7.9
356.066	7.99
356.431	7.87
356.795	7.88
357.16	7.88
357.524	7.78
357.889	7.72
358.253	7.72
358.618	7.76
358.982	7.6
359.346	7.57
359.71	7.41
360.075	7.42
360.439	7.4
360.803	7.37
361.167	7.28
361.531	7.26
361.895	7.18
362.259	7.18
362.623	7.23
362.987	7.23
363.351	7.19
363.714	7.17
364.078	7.13
364.442	7.06
364.806	7.04
365.169	7.06
365.533	7.04
365.896	6.99
366.26	6.93
366.623	6.92
366.987	6.92
367.35	6.98
367.714	6.85
368.077	6.84
368.44	6.85
368.803	6.84
369.167	6.79
369.53	6.76
369.893	6.72
370.256	6.7
370.619	6.65
370.982	6.52
371.345	6.39
371.708	6.38
372.071	6.31
372.434	6.25
372.797	6.19
373.159	6.09
373.522	6.03
373.885	5.99
374.247	5.95
374.61	5.94
374.973	5.83
375.335	5.82
375.698	5.78
376.06	5.74
376.423	5.69
376.785	5.67
377.147	5.67
377.51	5.59
377.872	5.56
378.234	5.51
378.596	5.5
378.958	5.41
379.321	5.36
379.683	5.34
380.045	5.31
380.407	5.25
380.769	5.22
381.13	5.16
381.492	5.05
381.854	4.99
382.216	4.87
382.578	4.84
382.939	4.8
383.301	4.72
383.663	4.63
384.024	4.55
384.386	4.53
384.747	4.46
385.109	4.41
385.47	4.35
385.832	4.3
386.193	4.28
386.554	4.24
386.916	4.18
387.277	4.12
387.638	4.09
387.999	4.03
388.36	4.03
388.721	4.01
389.082	3.98
389.443	3.97
389.804	3.94
390.165	3.88
390.526	3.88
390.887	3.86
391.248	3.85
391.609	3.86
391.969	3.8
392.33	3.75
392.691	3.73
393.051	3.67
393.412	3.66
393.772	3.64
394.133	3.64
394.493	3.64
394.854	3.59
395.214	3.53
395.574	3.54
395.935	3.51
396.295	3.49
396.655	3.5
397.015	3.46
397.376	3.44
397.736	3.46
398.096	3.41
398.456	3.39
398.816	3.35
399.176	3.29
399.535	3.3
399.895	3.28
400.255	3.25
400.615	3.26
400.975	3.24
401.334	3.22
401.694	3.19
402.054	3.15
402.413	3.16
402.773	3.12
403.132	3.08
403.492	3.04
403.851	3.01
404.211	2.98
404.57	2.94
404.929	2.93
405.288	2.88
405.648	2.87
406.007	2.86
406.366	2.86
406.725	2.9
407.084	2.88
407.443	2.87
407.802	2.87
408.161	2.83
408.52	2.79
408.879	2.75
409.238	2.77
409.596	2.79
409.955	2.73
410.314	2.81
410.673	2.76
411.031	2.75
411.39	2.74
411.748	2.73
412.107	2.74
412.465	2.71
412.824	2.74
413.182	2.72
413.54	2.69
413.899	2.68
414.257	2.63
414.615	2.58
414.974	2.59
415.332	2.58
415.69	2.55
416.048	2.52
416.406	2.53
416.764	2.5
417.122	2.46
417.48	2.47
417.838	2.43
418.195	2.44
418.553	2.44
418.911	2.43
419.269	2.43
419.626	2.41
419.984	2.4
420.342	2.38
420.699	2.37
421.057	2.36
421.414	2.33
421.772	2.33
422.129	2.33
422.486	2.31
422.844	2.3
423.201	2.29
423.558	2.31
423.915	2.29
424.273	2.3
424.63	2.29
424.987	2.29
425.344	2.28
425.701	2.26
426.058	2.25
426.415	2.24
426.772	2.23
427.128	2.22
427.485	2.22
427.842	2.22
428.199	2.22
428.555	2.22
428.912	2.24
429.269	2.24
429.625	2.22
429.982	2.2
430.338	2.2
430.695	2.21
431.051	2.19
431.407	2.19
431.764	2.17
432.12	2.19
432.476	2.18
432.832	2.17
433.189	2.17
433.545	2.15
433.901	2.14
434.257	2.12
434.613	2.14
434.969	2.13
435.325	2.11
435.681	2.12
436.036	2.12
436.392	2.12
436.748	2.12
437.104	2.11
437.459	2.12
437.815	2.12
438.171	2.12
438.526	2.13
438.882	2.12
439.237	2.1
439.593	2.09
439.948	2.08
440.304	2.08
440.659	2.09
441.014	2.09
441.369	2.08
441.725	2.08
442.08	2.07
442.435	2.07
442.79	2.08
443.145	2.07
443.5	2.06
443.855	2.05
444.21	2.03
444.565	2.05
444.92	2.06
445.275	2.05
445.629	2.03
445.984	2.02
446.339	2.01
446.693	2.02
447.048	2.01
447.403	2.02
447.757	2.03
448.112	2.01
448.466	2
448.82	2.01
449.175	2.03
449.529	2.02
449.883	2.02
450.238	2.01
450.592	2.01
450.946	2.01
451.3	2.01
451.654	2.01
452.008	2.02
452.362	2
452.716	2
453.07	2.02
453.424	2.02
453.778	2.02
454.132	2.01
454.486	2
454.839	1.99
455.193	1.98
455.547	1.98
455.9	1.99
456.254	2
456.607	1.99
456.961	2
457.314	2
457.668	2.01
458.021	1.99
458.375	1.99
458.728	1.99
459.081	2
459.434	1.98
459.787	1.99
460.141	1.97
460.494	1.97
460.847	1.97
461.2	1.97
461.553	1.98
461.906	1.99
462.259	2
462.611	2.03
462.964	2.03
463.317	2.03
463.67	2.03
464.022	2.02
464.375	2
464.728	2
465.08	1.99
465.433	2
465.785	2
466.138	2
466.49	2.01
466.843	2.01
467.195	2.02
467.547	2.04
467.899	2.04
468.252	2.04
468.604	2.06
468.956	2.05
469.308	2.06
469.66	2.06
470.012	2.05
470.364	2.06
470.716	2.07
471.068	2.07
471.42	2.09
471.772	2.12
472.123	2.13
472.475	2.16
472.827	2.16
473.178	2.18
473.53	2.18
473.882	2.18
474.233	2.21
474.585	2.19
474.936	2.18
475.288	2.19
475.639	2.21
475.99	2.2
476.342	2.2
476.693	2.2
477.044	2.21
477.395	2.21
477.746	2.21
478.097	2.2
478.448	2.2
478.8	2.19
479.15	2.16
479.501	2.17
479.852	2.17
480.203	2.18
480.554	2.17
480.905	2.18
481.255	2.18
481.606	2.17
481.957	2.18
482.307	2.19
482.658	2.19
483.009	2.17
483.359	2.18
483.709	2.18
484.06	2.18
484.41	2.17
484.761	2.18
485.111	2.18
485.461	2.18
485.811	2.18
486.162	2.19
486.512	2.2
486.862	2.19
487.212	2.19
487.562	2.18
487.912	2.18
488.262	2.17
488.612	2.17
488.961	2.16
489.311	2.16
489.661	2.16
490.011	2.16
490.36	2.16
490.71	2.17
491.06	2.17
491.409	2.16
491.759	2.16
492.108	2.15
492.458	2.14
492.807	2.13
493.157	2.13
493.506	2.14
493.855	2.12
494.204	2.12
494.554	2.12
494.903	2.12
495.252	2.12
495.601	2.13
495.95	2.15
496.299	2.15
496.648	2.16
496.997	2.16
497.346	2.16
497.695	2.19
498.043	2.19
498.392	2.19
498.741	2.2
499.09	2.22
499.438	2.24
499.787	2.29
500.135	2.32
500.484	2.34
500.832	2.34
501.181	2.38
501.529	2.39
501.878	2.42
502.226	2.45
502.574	2.48
502.923	2.5
503.271	2.52
503.619	2.55
503.967	2.58
504.315	2.6
504.663	2.64
505.011	2.65
505.359	2.68
505.707	2.75
506.055	2.8
506.403	2.84
506.751	2.86
507.098	2.88
507.446	2.92
507.794	2.95
508.141	2.98
508.489	3.03
508.837	3.08
509.184	3.11
509.531	3.18
509.879	3.23
510.226	3.26
510.574	3.3
510.921	3.34
511.268	3.39
511.616	3.46
511.963	3.54
512.31	3.62
512.657	3.7
513.004	3.75
513.351	3.83
513.698	3.93
514.045	4.04
514.392	4.14
514.739	4.24
515.086	4.36
515.432	4.48
515.779	4.58
516.126	4.71
516.473	4.86
516.819	4.97
517.166	5.1
517.512	5.23
517.859	5.37
518.205	5.49
518.552	5.6
518.898	5.7
519.245	5.8
519.591	5.91
519.937	6.04
520.283	6.19
520.629	6.36
520.976	6.52
521.322	6.69
521.668	6.89
522.014	7.08
522.36	7.29
522.706	7.5
523.052	7.77
523.398	8.03
523.743	8.25
524.089	8.49
524.435	8.71
524.781	8.97
525.126	9.17
525.472	9.39
525.817	9.56
526.163	9.77
526.509	9.94
526.854	10.1
527.199	10.25
527.545	10.37
527.89	10.51
528.235	10.67
528.581	10.8
528.926	10.95
529.271	11.09
529.616	11.22
529.961	11.36
530.306	11.51
530.651	11.66
530.996	11.81
531.341	11.96
531.686	12.13
532.031	12.28
532.376	12.44
532.721	12.63
533.065	12.83
533.41	13.01
533.755	13.2
534.099	13.4
534.444	13.58
534.788	13.8
535.133	13.97
535.477	14.15
535.822	14.35
536.166	14.54
536.51	14.73
536.855	14.96
537.199	15.21
537.543	15.41
537.887	15.62
538.231	15.84
538.576	16.07
538.92	16.31
539.264	16.53
539.608	16.76
539.951	16.92
540.295	17.08
540.639	17.25
540.983	17.41
541.327	17.55
541.671	17.71
542.014	17.87
542.358	18.01
542.701	18.17
543.045	18.32
543.389	18.48
543.732	18.66
544.075	18.81
544.419	18.98
544.762	19.13
545.105	19.29
545.449	19.47
545.792	19.69
546.135	19.85
546.478	20.06
546.821	20.26
547.165	20.5
547.508	20.74
547.851	20.99
548.194	21.19
548.536	21.43
548.879	21.68
549.222	21.88
549.565	22.14
549.908	22.36
550.25	22.56
550.593	22.77
550.936	22.94
551.278	23.14
551.621	23.34
551.963	23.62
552.306	23.85
552.648	24.08
552.991	24.3
553.333	24.51
553.675	24.68
554.017	24.84
554.36	24.99
554.702	25.16
555.044	25.28
555.386	25.48
555.728	25.65
556.07	25.81
556.412	25.95
556.754	26.13
557.096	26.3
557.438	26.52
557.78	26.69
558.121	26.9
558.463	27.13
558.805	27.27
559.147	27.4
559.488	27.54
559.83	27.71
560.171	27.89
560.513	28.06
560.854	28.22
561.196	28.42
561.537	28.59
561.878	28.72
562.22	28.89
562.561	29
562.902	29.18
563.243	29.32
563.584	29.51
563.925	29.66
564.266	29.76
564.607	29.9
564.948	30.1
565.289	30.23
565.63	30.33
565.971	30.48
566.312	30.64
566.653	30.78
566.993	30.93
567.334	30.98
567.675	31.05
568.015	31.16
568.356	31.23
568.696	31.37
569.037	31.51
569.377	31.7
569.718	31.88
570.058	32.02
570.398	32.14
570.739	32.26
571.079	32.35
571.419	32.46
571.759	32.56
572.099	32.63
572.439	32.74
572.779	32.82
573.119	32.9
573.459	32.99
573.799	33.12
574.139	33.23
574.479	33.35
574.819	33.49
575.158	33.61
575.498	33.74
575.838	33.82
576.177	33.92
576.517	33.92
576.856	34.05
577.196	34.11
577.535	34.23
577.875	34.33
578.214	34.48
578.553	34.63
578.893	34.73
579.232	34.84
579.571	34.93
579.91	35.08
580.25	35.17
580.589	35.22
580.928	35.29
581.267	35.3
581.606	35.44
581.945	35.48
582.283	35.56
582.622	35.64
582.961	35.77
583.3	35.84
583.639	35.96
583.977	35.95
584.316	35.99
584.654	36
584.993	36.05
585.332	36.11
585.67	36.16
586.008	36.17
586.347	36.21
586.685	36.26
587.024	36.32
587.362	36.38
587.7	36.5
588.038	36.55
588.376	36.65
588.715	36.73
589.053	36.85
589.391	36.9
589.729	36.94
590.067	36.94
590.404	37.01
590.742	37.08
591.08	37.11
591.418	37.24
591.756	37.35
592.093	37.4
592.431	37.42
592.769	37.48
593.106	37.63
593.444	37.65
593.781	37.67
594.119	37.68
594.456	37.75
594.793	37.74
595.131	37.75
595.468	37.76
595.805	37.73
596.143	37.72
596.48	37.75
596.817	37.77
597.154	37.83
597.491	37.86
597.828	37.86
598.165	37.89
598.502	37.91
598.839	37.89
599.176	37.87
599.512	37.89
599.849	37.9
600.186	37.86
600.523	37.91
600.859	38
601.196	38.1
601.532	38.12
601.869	38.15
602.205	38.18
602.542	38.21
602.878	38.24
603.215	38.29
603.551	38.34
603.887	38.36
604.223	38.34
604.56	38.43
604.896	38.46
605.232	38.49
605.568	38.47
605.904	38.52
606.24	38.64
606.576	38.71
606.912	38.75
607.248	38.83
607.583	38.9
607.919	38.92
608.255	38.89
608.591	38.95
608.926	39.03
609.262	39.07
609.597	39.04
609.933	39.05
610.268	39.09
610.604	39.15
610.939	39.16
611.275	39.17
611.61	39.17
611.945	39.19
612.281	39.19
612.616	39.27
612.951	39.31
613.286	39.26
613.621	39.17
613.956	39.15
614.291	39.13
614.626	39.07
614.961	39.17
615.296	39.24
615.631	39.27
615.966	39.28
616.3	39.3
616.635	39.42
616.97	39.54
617.304	39.62
617.639	39.56
617.973	39.61
618.308	39.71
618.642	39.74
618.977	39.69
619.311	39.75
619.646	39.7
619.98	39.78
620.314	39.82
620.648	39.89
620.983	39.99
621.317	39.98
621.651	40.06
621.985	40.08
622.319	40.02
622.653	40.01
622.987	40
623.321	40.03
623.655	40
623.988	39.95
624.322	39.89
624.656	39.92
624.99	39.94
625.323	39.94
625.657	39.89
625.99	40.01
626.324	40.09
626.657	40.16
626.991	40.14
627.324	40.11
627.658	40.14
627.991	40.12
628.324	40.14
628.657	40.17
628.991	40.15
629.324	40.21
629.657	40.23
629.99	40.3
630.323	40.32
630.656	40.4
630.989	40.37
631.322	40.4
631.655	40.36
631.987	40.39
632.32	40.45
632.653	40.49
632.986	40.47
633.318	40.41
633.651	40.34
633.984	40.35
634.316	40.39
634.649	40.38
634.981	40.49
635.313	40.55
635.646	40.51
635.978	40.52
636.31	40.57
636.643	40.62
636.975	40.58
637.307	40.62
637.639	40.61
637.971	40.67
638.303	40.68
638.635	40.76
638.967	40.79
639.299	40.78
639.631	40.72
639.963	40.68
640.295	40.74
640.626	40.86
640.958	40.87
641.29	40.78
641.621	40.84
641.953	40.79
642.285	40.76
642.616	40.78
642.948	40.7
643.279	40.65
643.61	40.65
643.942	40.59
644.273	40.58
644.604	40.61
644.936	40.61
645.267	40.68
645.598	40.66
645.929	40.6
646.26	40.62
646.591	40.67
646.922	40.68
647.253	40.55
647.584	40.47
647.915	40.37
648.245	40.45
648.576	40.46
648.907	40.48
649.238	40.48
649.568	40.49
649.899	40.56
650.229	40.57
650.56	40.61
650.89	40.72
651.221	40.65
651.551	40.6
651.882	40.58
652.212	40.57
652.542	40.62
652.872	40.69
653.203	40.64
653.533	40.65
653.863	40.62
654.193	40.81
654.523	40.88
654.853	41
655.183	41.07
655.513	41.04
655.843	41.02
656.172	41.1
656.502	41.19
656.832	41.07
657.162	41.11
657.491	40.97
657.821	40.91
658.15	40.91
658.48	40.91
658.809	40.99
659.139	40.91
659.468	40.84
659.798	40.84
660.127	40.89
660.456	40.87
660.785	40.97
661.115	40.94
661.444	40.91
661.773	40.91
662.102	40.98
662.431	41.02
662.76	41.01
663.089	40.95
663.418	40.82
663.747	40.9
664.076	40.92
664.404	41.03
664.733	41.26
665.062	41.38
665.39	41.38
665.719	41.28
666.048	41.38
666.376	41.43
666.705	41.37
667.033	41.23
667.362	41.26
667.69	41.32
668.018	41.22
668.347	41.18
668.675	41.2
669.003	41.09
669.331	41.07
669.659	41.08
