Data from BU58140_Reflection_00005.txt Node
Date: Tue Nov 19 10:53:27 EST 2019
User: vgr7
Spectrometer: USB2G7710
Scans to average: 3
Trigger mode: 4
Integration Time (sec): 2.000000E-2
Electric dark correction enabled: true
Boxcar width: 10
XAxis mode: Wavelengths
Number of Pixels in Spectrum: 2048
>>>>>Begin Spectral Data<<<<<
177.721	230.63
178.105	-2.56
178.488	-38
178.871	-223.81
179.254	-22.22
179.636	284.4
180.019	317.95
180.402	366.67
180.785	-16.67
181.168	-332.29
181.55	433.33
181.933	273.61
182.316	172.65
182.698	95.88
183.081	15.3
183.463	34.9
183.846	135.52
184.228	165.1
184.611	843.59
184.993	-223.33
185.376	-179.12
185.758	-130.87
186.14	-441.67
186.522	-240.38
186.904	-155.13
187.287	-192.57
187.669	-156.14
188.051	-147.07
188.433	-172.88
188.815	-155.16
189.197	-133.19
189.579	-138.91
189.961	-142.61
190.342	-111.85
190.724	-142.08
191.106	-135.59
191.488	-126.4
191.869	-107.66
192.251	-87.8
192.633	-74.18
193.014	-103.58
193.396	-93.62
193.777	-87.65
194.159	-76.44
194.54	-70.02
194.922	-60.08
195.303	-47.47
195.684	-23.27
196.065	-19.29
196.447	-5.61
196.828	-13.04
197.209	-26.85
197.59	-17.99
197.971	-24.51
198.352	-24.81
198.733	-22.08
199.114	-29.91
199.495	-27.11
199.876	-30.42
200.257	-39.47
200.638	-45.06
201.018	-36.33
201.399	-31.82
201.78	-26.06
202.16	-40.97
202.541	-44.76
202.922	-47.53
203.302	-57.28
203.683	-69.73
204.063	-80.84
204.444	-73.94
204.824	-65.97
205.204	-59.68
205.585	-55.44
205.965	-58.65
206.345	-57.91
206.725	-51.61
207.106	-35.81
207.486	-34.98
207.866	-38.46
208.246	-31.78
208.626	-32.05
209.006	-30.07
209.386	-38.7
209.766	-33.91
210.145	-23.99
210.525	-21.58
210.905	-3.8
211.285	10.48
211.664	23.54
212.044	14.38
212.424	16.4
212.803	14.29
213.183	12.87
213.562	15.43
213.942	31.8
214.321	24.16
214.701	28.24
215.08	26.26
215.459	26.81
215.838	43.02
216.218	42.06
216.597	36.74
216.976	26.49
217.355	34.31
217.734	20.34
218.113	31.54
218.492	32.16
218.871	16.67
219.25	9.81
219.629	-4.78
220.008	0.47
220.387	-3.62
220.766	-6.56
221.144	-9.72
221.523	-11.72
221.902	-22.68
222.28	-10.91
222.659	-12.22
223.037	-23.37
223.416	-23.88
223.794	-27.95
224.173	-29.47
224.551	-28.38
224.929	-31.41
225.308	-18.53
225.686	-18.26
226.064	-28.44
226.442	-25.81
226.821	-22.63
227.199	-25.46
227.577	-23.11
227.955	-23.85
228.333	-18.09
228.711	-13.72
229.089	-11.53
229.467	-8.56
229.845	-8.52
230.222	-5.44
230.6	-8.81
230.978	-7.1
231.356	-6.2
231.733	-3.53
232.111	-1.64
232.488	-2.31
232.866	-0.59
233.243	-1.79
233.621	-0.76
233.998	-0.44
234.376	0.98
234.753	0.49
235.13	2.21
235.508	2.15
235.885	3.48
236.262	1.59
236.639	1.49
237.016	2.15
237.393	1.55
237.77	1.97
238.147	1.97
238.524	3.58
238.901	3.42
239.278	3
239.655	2.89
240.032	2.67
240.409	3.73
240.785	3.8
241.162	4.21
241.539	3.82
241.915	4.59
242.292	3.92
242.668	3.67
243.045	3.34
243.421	3.63
243.798	3.69
244.174	3.99
244.551	4.13
244.927	4.1
245.303	4.12
245.679	3.92
246.056	3.86
246.432	3.85
246.808	3.95
247.184	4.03
247.56	3.94
247.936	3.85
248.312	3.57
248.688	3.77
249.064	3.6
249.44	3.77
249.815	3.76
250.191	3.94
250.567	4.25
250.943	4.52
251.318	4.62
251.694	4.35
252.069	4.07
252.445	4.12
252.82	4.47
253.196	4.36
253.571	4.83
253.947	4.44
254.322	4.57
254.697	4.58
255.073	4.79
255.448	4.66
255.823	4.99
256.198	5.22
256.573	4.85
256.948	4.89
257.323	5.03
257.698	4.79
258.073	4.74
258.448	4.63
258.823	4.53
259.198	4.48
259.573	4.42
259.948	4.55
260.322	4.36
260.697	4.3
261.072	4.38
261.446	4.18
261.821	4.39
262.195	4.29
262.57	4.42
262.944	4.47
263.319	4.51
263.693	4.25
264.067	4.13
264.442	4.19
264.816	4.1
265.19	3.95
265.564	3.8
265.938	3.7
266.313	3.7
266.687	3.74
267.061	3.79
267.435	4.05
267.809	3.94
268.183	4.01
268.556	3.93
268.93	3.97
269.304	4.06
269.678	4
270.051	3.99
270.425	3.85
270.799	3.74
271.172	3.74
271.546	3.92
271.919	4.06
272.293	4.15
272.666	4.22
273.04	4.16
273.413	4.24
273.787	4.17
274.16	4.08
274.533	4.12
274.906	4.15
275.279	4.09
275.653	4.09
276.026	4.16
276.399	4.09
276.772	4.14
277.145	4.08
277.518	4.13
277.891	4.14
278.263	4.24
278.636	4.43
279.009	4.58
279.382	4.53
279.755	4.39
280.127	4.34
280.5	4.3
280.872	4.19
281.245	4.19
281.617	4.41
281.99	4.39
282.362	4.28
282.735	4.12
283.107	4.1
283.479	4.16
283.852	4.17
284.224	4.17
284.596	3.99
284.968	3.98
285.34	3.9
285.713	3.99
286.085	3.97
286.457	3.84
286.829	3.71
287.201	3.75
287.572	3.77
287.944	3.87
288.316	3.91
288.688	4.01
289.06	4.07
289.431	4.18
289.803	4.27
290.175	4.38
290.546	4.46
290.918	4.47
291.289	4.33
291.661	4.32
292.032	4.31
292.403	4.42
292.775	4.55
293.146	4.62
293.517	4.57
293.889	4.51
294.26	4.53
294.631	4.61
295.002	4.73
295.373	4.72
295.744	4.65
296.115	4.51
296.486	4.62
296.857	4.63
297.228	4.47
297.599	4.45
297.97	4.32
298.34	4.3
298.711	4.31
299.082	4.46
299.452	4.46
299.823	4.47
300.194	4.35
300.564	4.24
300.935	4.3
301.305	4.26
301.676	4.23
302.046	4.19
302.416	4.16
302.787	4
303.157	4
303.527	4.06
303.897	4.11
304.267	3.98
304.637	4.02
305.008	3.88
305.378	3.97
305.748	4.11
306.117	4.16
306.487	4.22
306.857	4.21
307.227	4.19
307.597	4.27
307.967	4.41
308.336	4.5
308.706	4.38
309.076	4.59
309.445	4.76
309.815	4.82
310.184	4.66
310.554	4.61
310.923	4.56
311.293	4.56
311.662	4.66
312.031	4.61
312.401	4.65
312.77	4.7
313.139	4.61
313.508	4.57
313.877	4.51
314.246	4.49
314.616	4.44
314.985	4.47
315.353	4.34
315.722	4.36
316.091	4.48
316.46	4.65
316.829	4.33
317.198	4.23
317.567	4.33
317.935	4.49
318.304	4.64
318.672	4.66
319.041	4.68
319.41	4.49
319.778	4.52
320.147	4.37
320.515	4.49
320.883	4.47
321.252	4.39
321.62	4.39
321.988	4.34
322.357	4.41
322.725	4.5
323.093	4.55
323.461	4.51
323.829	4.39
324.197	4.24
324.565	4.34
324.933	4.31
325.301	4.13
325.669	4.1
326.037	4.08
326.405	4.15
326.772	4.19
327.14	4.39
327.508	4.37
327.875	4.47
328.243	4.41
328.61	4.48
328.978	4.53
329.346	4.54
329.713	4.61
330.08	4.54
330.448	4.43
330.815	4.44
331.182	4.39
331.55	4.42
331.917	4.38
332.284	4.42
332.651	4.45
333.018	4.5
333.385	4.55
333.752	4.6
334.119	4.63
334.486	4.66
334.853	4.47
335.22	4.48
335.587	4.43
335.954	4.34
336.32	4.25
336.687	4.29
337.054	4.31
337.42	4.23
337.787	4.3
338.153	4.37
338.52	4.43
338.886	4.5
339.253	4.54
339.619	4.63
339.986	4.65
340.352	4.66
340.718	4.66
341.084	4.57
341.451	4.53
341.817	4.52
342.183	4.37
342.549	4.48
342.915	4.51
343.281	4.51
343.647	4.58
344.013	4.61
344.379	4.56
344.745	4.62
345.11	4.61
345.476	4.61
345.842	4.58
346.208	4.56
346.573	4.48
346.939	4.34
347.304	4.32
347.67	4.35
348.035	4.35
348.401	4.32
348.766	4.38
349.132	4.39
349.497	4.44
349.862	4.44
350.228	4.36
350.593	4.36
350.958	4.35
351.323	4.37
351.688	4.46
352.053	4.4
352.418	4.38
352.783	4.42
353.148	4.46
353.513	4.44
353.878	4.41
354.243	4.39
354.608	4.44
354.972	4.48
355.337	4.42
355.702	4.4
356.066	4.4
356.431	4.35
356.795	4.27
357.16	4.22
357.524	4.27
357.889	4.31
358.253	4.27
358.618	4.27
358.982	4.31
359.346	4.25
359.71	4.35
360.075	4.34
360.439	4.32
360.803	4.26
361.167	4.25
361.531	4.29
361.895	4.38
362.259	4.41
362.623	4.4
362.987	4.4
363.351	4.42
363.714	4.42
364.078	4.4
364.442	4.43
364.806	4.44
365.169	4.4
365.533	4.37
365.896	4.47
366.26	4.45
366.623	4.39
366.987	4.36
367.35	4.4
367.714	4.37
368.077	4.42
368.44	4.44
368.803	4.47
369.167	4.39
369.53	4.39
369.893	4.35
370.256	4.29
370.619	4.31
370.982	4.26
371.345	4.31
371.708	4.31
372.071	4.37
372.434	4.38
372.797	4.39
373.159	4.34
373.522	4.29
373.885	4.3
374.247	4.34
374.61	4.35
374.973	4.28
375.335	4.27
375.698	4.24
376.06	4.24
376.423	4.24
376.785	4.28
377.147	4.22
377.51	4.21
377.872	4.24
378.234	4.21
378.596	4.2
378.958	4.15
379.321	4.16
379.683	4.17
380.045	4.15
380.407	4.15
380.769	4.16
381.13	4.21
381.492	4.22
381.854	4.21
382.216	4.21
382.578	4.22
382.939	4.27
383.301	4.27
383.663	4.31
384.024	4.32
384.386	4.33
384.747	4.38
385.109	4.35
385.47	4.38
385.832	4.34
386.193	4.33
386.554	4.34
386.916	4.4
387.277	4.33
387.638	4.31
387.999	4.35
388.36	4.39
388.721	4.37
389.082	4.4
389.443	4.39
389.804	4.41
390.165	4.4
390.526	4.37
390.887	4.33
391.248	4.28
391.609	4.27
391.969	4.24
392.33	4.23
392.691	4.26
393.051	4.24
393.412	4.29
393.772	4.3
394.133	4.29
394.493	4.26
394.854	4.29
395.214	4.33
395.574	4.31
395.935	4.31
396.295	4.28
396.655	4.24
397.015	4.25
397.376	4.27
397.736	4.25
398.096	4.26
398.456	4.27
398.816	4.3
399.176	4.26
399.535	4.25
399.895	4.21
400.255	4.26
400.615	4.23
400.975	4.22
401.334	4.22
401.694	4.25
402.054	4.21
402.413	4.19
402.773	4.16
403.132	4.14
403.492	4.13
403.851	4.11
404.211	4.11
404.57	4.1
404.929	4.06
405.288	4.07
405.648	4.05
406.007	4.03
406.366	4.01
406.725	4.03
407.084	4.05
407.443	4.03
407.802	3.97
408.161	3.97
408.52	3.97
408.879	3.96
409.238	3.93
409.596	3.96
409.955	3.95
410.314	3.94
410.673	3.95
411.031	3.96
411.39	3.97
411.748	3.99
412.107	3.99
412.465	4.02
412.824	4.04
413.182	4.06
413.54	4.09
413.899	4.13
414.257	4.12
414.615	4.11
414.974	4.14
415.332	4.16
415.69	4.15
416.048	4.15
416.406	4.15
416.764	4.17
417.122	4.14
417.48	4.14
417.838	4.14
418.195	4.12
418.553	4.11
418.911	4.08
419.269	4.06
419.626	4.06
419.984	4.04
420.342	4.03
420.699	4.01
421.057	4
421.414	3.99
421.772	4
422.129	4
422.486	3.98
422.844	3.98
423.201	3.99
423.558	3.98
423.915	3.98
424.273	3.95
424.63	3.96
424.987	3.96
425.344	3.95
425.701	3.96
426.058	3.96
426.415	3.97
426.772	3.99
427.128	4
427.485	4
427.842	3.99
428.199	4
428.555	3.99
428.912	3.97
429.269	3.97
429.625	3.98
429.982	3.97
430.338	3.98
430.695	3.96
431.051	3.97
431.407	3.97
431.764	3.97
432.12	3.96
432.476	3.95
432.832	3.95
433.189	3.93
433.545	3.94
433.901	3.93
434.257	3.93
434.613	3.93
434.969	3.91
435.325	3.91
435.681	3.91
436.036	3.92
436.392	3.92
436.748	3.91
437.104	3.9
437.459	3.9
437.815	3.9
438.171	3.89
438.526	3.9
438.882	3.91
439.237	3.93
439.593	3.94
439.948	3.96
440.304	3.95
440.659	3.95
441.014	3.92
441.369	3.93
441.725	3.92
442.08	3.91
442.435	3.93
442.79	3.92
443.145	3.92
443.5	3.91
443.855	3.89
444.21	3.89
444.565	3.9
444.92	3.91
445.275	3.92
445.629	3.91
445.984	3.9
446.339	3.9
446.693	3.89
447.048	3.86
447.403	3.85
447.757	3.86
448.112	3.86
448.466	3.88
448.82	3.88
449.175	3.88
449.529	3.87
449.883	3.85
450.238	3.86
450.592	3.86
450.946	3.87
451.3	3.91
451.654	3.89
452.008	3.89
452.362	3.89
452.716	3.88
453.07	3.89
453.424	3.88
453.778	3.87
454.132	3.87
454.486	3.89
454.839	3.89
455.193	3.87
455.547	3.88
455.9	3.87
456.254	3.87
456.607	3.86
456.961	3.87
457.314	3.86
457.668	3.84
458.021	3.83
458.375	3.82
458.728	3.82
459.081	3.81
459.434	3.8
459.787	3.79
460.141	3.78
460.494	3.79
460.847	3.8
461.2	3.79
461.553	3.81
461.906	3.8
462.259	3.81
462.611	3.82
462.964	3.82
463.317	3.82
463.67	3.82
464.022	3.83
464.375	3.82
464.728	3.84
465.08	3.86
465.433	3.87
465.785	3.89
466.138	3.89
466.49	3.91
466.843	3.92
467.195	3.95
467.547	3.95
467.899	3.93
468.252	3.93
468.604	3.93
468.956	3.93
469.308	3.92
469.66	3.92
470.012	3.92
470.364	3.95
470.716	3.97
471.068	3.98
471.42	3.99
471.772	3.98
472.123	3.98
472.475	3.99
472.827	4
473.178	3.97
473.53	3.95
473.882	3.97
474.233	3.98
474.585	3.97
474.936	3.97
475.288	3.97
475.639	4
475.99	4.01
476.342	4.01
476.693	4.02
477.044	4.02
477.395	4.02
477.746	3.98
478.097	3.99
478.448	3.97
478.8	3.96
479.15	3.97
479.501	3.98
479.852	3.97
480.203	3.97
480.554	3.97
480.905	3.98
481.255	3.98
481.606	3.99
481.957	3.99
482.307	3.99
482.658	4
483.009	3.98
483.359	3.98
483.709	3.98
484.06	3.99
484.41	3.99
484.761	3.99
485.111	4
485.461	4
485.811	4
486.162	4
486.512	4
486.862	4
487.212	4
487.562	3.99
487.912	3.99
488.262	3.99
488.612	3.99
488.961	3.98
489.311	3.98
489.661	3.97
490.011	3.96
490.36	3.96
490.71	3.96
491.06	3.97
491.409	3.97
491.759	3.98
492.108	3.98
492.458	3.98
492.807	3.97
493.157	3.96
493.506	3.96
493.855	3.96
494.204	3.97
494.554	3.97
494.903	3.99
495.252	3.99
495.601	4.01
495.95	4.01
496.299	4.02
496.648	4.03
496.997	4.06
497.346	4.08
497.695	4.09
498.043	4.08
498.392	4.08
498.741	4.09
499.09	4.08
499.438	4.08
499.787	4.09
500.135	4.13
500.484	4.15
500.832	4.17
501.181	4.2
501.529	4.23
501.878	4.23
502.226	4.25
502.574	4.26
502.923	4.26
503.271	4.26
503.619	4.26
503.967	4.25
504.315	4.25
504.663	4.24
505.011	4.28
505.359	4.31
505.707	4.31
506.055	4.31
506.403	4.34
506.751	4.35
507.098	4.36
507.446	4.37
507.794	4.37
508.141	4.37
508.489	4.36
508.837	4.37
509.184	4.37
509.531	4.38
509.879	4.39
510.226	4.41
510.574	4.42
510.921	4.44
511.268	4.45
511.616	4.46
511.963	4.48
512.31	4.49
512.657	4.49
513.004	4.5
513.351	4.51
513.698	4.51
514.045	4.52
514.392	4.52
514.739	4.54
515.086	4.56
515.432	4.58
515.779	4.59
516.126	4.62
516.473	4.63
516.819	4.63
517.166	4.63
517.512	4.64
517.859	4.65
518.205	4.64
518.552	4.65
518.898	4.65
519.245	4.66
519.591	4.66
519.937	4.67
520.283	4.68
520.629	4.67
520.976	4.69
521.322	4.7
521.668	4.71
522.014	4.7
522.36	4.72
522.706	4.71
523.052	4.73
523.398	4.73
523.743	4.74
524.089	4.77
524.435	4.78
524.781	4.8
525.126	4.81
525.472	4.85
525.817	4.86
526.163	4.87
526.509	4.88
526.854	4.88
527.199	4.88
527.545	4.89
527.89	4.9
528.235	4.89
528.581	4.89
528.926	4.88
529.271	4.89
529.616	4.88
529.961	4.89
530.306	4.89
530.651	4.89
530.996	4.9
531.341	4.88
531.686	4.9
532.031	4.88
532.376	4.87
532.721	4.86
533.065	4.86
533.41	4.86
533.755	4.85
534.099	4.86
534.444	4.86
534.788	4.85
535.133	4.85
535.477	4.87
535.822	4.86
536.166	4.86
536.51	4.87
536.855	4.87
537.199	4.86
537.543	4.87
537.887	4.91
538.231	4.9
538.576	4.9
538.92	4.89
539.264	4.93
539.608	4.95
539.951	4.95
540.295	4.95
540.639	4.96
540.983	4.96
541.327	4.97
541.671	4.97
542.014	4.98
542.358	4.99
542.701	4.99
543.045	5
543.389	5.01
543.732	5.01
544.075	5.02
544.419	5.04
544.762	5.02
545.105	5.01
545.449	5.02
545.792	5.02
546.135	5.04
546.478	5.03
546.821	5.03
547.165	5.04
547.508	5.04
547.851	5.03
548.194	5.04
548.536	5.03
548.879	5.03
549.222	5.01
549.565	4.98
549.908	4.98
550.25	5
550.593	4.99
550.936	5.02
551.278	5.01
551.621	5.01
551.963	5.03
552.306	5.02
552.648	4.99
552.991	5
553.333	4.98
553.675	4.96
554.017	4.96
554.36	4.94
554.702	4.93
555.044	4.95
555.386	4.96
555.728	4.93
556.07	4.92
556.412	4.96
556.754	4.98
557.096	4.96
557.438	4.92
557.78	4.91
558.121	4.88
558.463	4.88
558.805	4.88
559.147	4.85
559.488	4.84
559.83	4.87
560.171	4.87
560.513	4.86
560.854	4.88
561.196	4.88
561.537	4.89
561.878	4.92
562.22	4.92
562.561	4.95
562.902	4.95
563.243	4.95
563.584	4.93
563.925	4.96
564.266	4.96
564.607	4.98
564.948	4.99
565.289	4.99
565.63	4.98
565.971	4.98
566.312	5.01
566.653	5.03
566.993	5.02
567.334	5.02
567.675	5.05
568.015	5.06
568.356	5.06
568.696	5.05
569.037	5.04
569.377	5
569.718	4.97
570.058	4.98
570.398	4.99
570.739	5
571.079	4.99
571.419	5.03
571.759	5.05
572.099	5.03
572.439	5.03
572.779	5.04
573.119	5.03
573.459	5.03
573.799	5.01
574.139	5
574.479	4.99
574.819	5.01
575.158	4.98
575.498	5
575.838	5
576.177	5.02
576.517	5.04
576.856	5.05
577.196	5.07
577.535	5.09
577.875	5.07
578.214	5.06
578.553	5.02
578.893	5.02
579.232	5.05
579.571	5.08
579.91	5.08
580.25	5.09
580.589	5.07
580.928	5.1
581.267	5.14
581.606	5.13
581.945	5.1
582.283	5.12
582.622	5.14
582.961	5.15
583.3	5.11
583.639	5.16
583.977	5.18
584.316	5.18
584.654	5.17
584.993	5.2
585.332	5.23
585.67	5.25
586.008	5.23
586.347	5.23
586.685	5.2
587.024	5.19
587.362	5.2
587.7	5.23
588.038	5.22
588.376	5.23
588.715	5.24
589.053	5.27
589.391	5.27
589.729	5.25
590.067	5.26
590.404	5.27
590.742	5.22
591.08	5.21
591.418	5.2
591.756	5.2
592.093	5.19
592.431	5.21
592.769	5.23
593.106	5.2
593.444	5.21
593.781	5.22
594.119	5.23
594.456	5.21
594.793	5.22
595.131	5.22
595.468	5.23
595.805	5.26
596.143	5.24
596.48	5.24
596.817	5.26
597.154	5.24
597.491	5.26
597.828	5.28
598.165	5.31
598.502	5.29
598.839	5.3
599.176	5.33
599.512	5.29
599.849	5.33
600.186	5.36
600.523	5.37
600.859	5.36
601.196	5.36
601.532	5.37
601.869	5.35
602.205	5.33
602.542	5.31
602.878	5.28
603.215	5.27
603.551	5.23
603.887	5.24
604.223	5.21
604.56	5.21
604.896	5.21
605.232	5.17
605.568	5.17
605.904	5.14
606.24	5.12
606.576	5.15
606.912	5.09
607.248	5.1
607.583	5.09
607.919	5.08
608.255	5.06
608.591	5.07
608.926	5.08
609.262	5.1
609.597	5.12
609.933	5.14
610.268	5.13
610.604	5.18
610.939	5.15
611.275	5.16
611.61	5.16
611.945	5.14
612.281	5.19
612.616	5.17
612.951	5.22
613.286	5.2
613.621	5.21
613.956	5.27
614.291	5.23
614.626	5.23
614.961	5.25
615.296	5.29
615.631	5.31
615.966	5.3
616.3	5.31
616.635	5.28
616.97	5.29
617.304	5.31
617.639	5.29
617.973	5.28
618.308	5.27
618.642	5.25
618.977	5.26
619.311	5.25
619.646	5.27
619.98	5.26
620.314	5.26
620.648	5.24
620.983	5.18
621.317	5.28
621.651	5.28
621.985	5.27
622.319	5.27
622.653	5.24
622.987	5.23
623.321	5.19
623.655	5.19
623.988	5.21
624.322	5.21
624.656	5.24
624.99	5.25
625.323	5.28
625.657	5.34
625.99	5.33
626.324	5.31
626.657	5.28
626.991	5.28
627.324	5.27
627.658	5.26
627.991	5.26
628.324	5.18
628.657	5.2
628.991	5.22
629.324	5.23
629.657	5.21
629.99	5.24
630.323	5.24
630.656	5.29
630.989	5.27
631.322	5.25
631.655	5.21
631.987	5.22
632.32	5.23
632.653	5.2
632.986	5.22
633.318	5.2
633.651	5.24
633.984	5.25
634.316	5.28
634.649	5.31
634.981	5.29
635.313	5.34
635.646	5.36
635.978	5.38
636.31	5.36
636.643	5.33
636.975	5.34
637.307	5.38
637.639	5.35
637.971	5.38
638.303	5.42
638.635	5.46
638.967	5.5
639.299	5.5
639.631	5.49
639.963	5.53
640.295	5.52
640.626	5.56
640.958	5.54
641.29	5.54
641.621	5.53
641.953	5.55
642.285	5.59
642.616	5.55
642.948	5.52
643.279	5.52
643.61	5.57
643.942	5.6
644.273	5.63
644.604	5.7
644.936	5.67
645.267	5.64
645.598	5.6
645.929	5.52
646.26	5.47
646.591	5.5
646.922	5.48
647.253	5.52
647.584	5.46
647.915	5.5
648.245	5.52
648.576	5.49
648.907	5.56
649.238	5.49
649.568	5.47
649.899	5.48
650.229	5.48
650.56	5.5
650.89	5.49
651.221	5.42
651.551	5.4
651.882	5.43
652.212	5.41
652.542	5.47
652.872	5.47
653.203	5.53
653.533	5.55
653.863	5.55
654.193	5.56
654.523	5.61
654.853	5.57
655.183	5.53
655.513	5.55
655.843	5.54
656.172	5.57
656.502	5.6
656.832	5.61
657.162	5.65
657.491	5.71
657.821	5.68
658.15	5.64
658.48	5.64
658.809	5.65
659.139	5.67
659.468	5.65
659.798	5.67
660.127	5.64
660.456	5.61
660.785	5.58
661.115	5.59
661.444	5.61
661.773	5.68
662.102	5.73
662.431	5.72
662.76	5.63
663.089	5.64
663.418	5.68
663.747	5.67
664.076	5.6
664.404	5.58
664.733	5.6
665.062	5.68
665.39	5.63
665.719	5.61
666.048	5.57
666.376	5.56
666.705	5.61
667.033	5.67
667.362	5.7
667.69	5.75
668.018	5.74
668.347	5.72
668.675	5.66
669.003	5.63
669.331	5.6
669.659	5.64
669.987	5.66
670.315	5.58
670.643	5.56
670.971	5.61
671.299	5.53
671.627	5.55
671.955	5.47
672.283	5.53
672.61	5.55
672.938	5.6
673.266	5.6
673.593	5.56
673.921	5.43
674.249	5.41
674.576	5.48
674.904	5.42
675.231	5.37
675.558	5.39
675.886	5.39
676.213	5.44
676.54	5.44
676.867	5.43
677.195	5.54
677.522	5.49
677.849	5.57
