Data from MVZ_BU8940_Reflection_00011.txt Node
Date: Tue Nov 19 12:16:37 EST 2019
User: vgr7
Spectrometer: USB2G7710
Scans to average: 3
Trigger mode: 4
Integration Time (sec): 2.000000E-2
Electric dark correction enabled: true
Boxcar width: 10
XAxis mode: Wavelengths
Number of Pixels in Spectrum: 2048
>>>>>Begin Spectral Data<<<<<
177.721	98.66
178.105	60.23
178.488	72.08
178.871	135.71
179.254	97.56
179.636	-25
180.019	33.53
180.402	440
180.785	920
181.168	-58.42
181.55	-11.4
181.933	62.93
182.316	28.57
182.698	77.43
183.081	54.27
183.463	50.15
183.846	103.78
184.228	61.54
184.611	65.46
184.993	84.03
185.376	140.73
185.758	185.09
186.14	200
186.522	504.52
186.904	714.29
187.287	479.15
187.669	494.92
188.051	348.22
188.433	552.03
188.815	544.64
189.197	538.11
189.579	5032.43
189.961	-425.5
190.342	-1064.43
190.724	722.99
191.106	5915.79
191.488	-3296.55
191.869	56600
192.251	3984.62
192.633	18.6
193.014	-47.06
193.396	-28.66
193.777	-1372.97
194.159	-893.67
194.54	-588.98
194.922	-192.84
195.303	-235.4
195.684	-392.97
196.065	-720.16
196.447	-381.29
196.828	-532.96
197.209	-857.4
197.59	-787.45
197.971	-388.39
198.352	-393.84
198.733	-586.85
199.114	-527.21
199.495	1877.11
199.876	-1332.04
200.257	-705.73
200.638	-325.8
201.018	-270.43
201.399	627.97
201.78	289
202.16	248.65
202.541	140.98
202.922	206.74
203.302	-108.17
203.683	-280
204.063	-968.42
204.444	-786.14
204.824	905.88
205.204	3753.85
205.585	1922.58
205.965	-1467.8
206.345	-256.29
206.725	-73.27
207.106	17.83
207.486	173.91
207.866	-193.1
208.246	177.41
208.626	-0.99
209.006	20.27
209.386	113.94
209.766	628.57
210.145	-6400
210.525	2942.86
210.905	462.66
211.285	270.43
211.664	282.57
212.044	218.92
212.424	205.22
212.803	160.11
213.183	347.54
213.562	232.97
213.942	181.33
214.321	78.49
214.701	56.18
215.08	42.41
215.459	49.64
215.838	26.65
216.218	-36.61
216.597	-74.55
216.976	-293.4
217.355	-132.59
217.734	358.24
218.113	1021.05
218.492	-169.23
218.871	-79.07
219.25	367.44
219.629	343.8
220.008	154.5
220.387	129.41
220.766	125.29
221.144	18.47
221.523	-14.77
221.902	-5.78
222.28	48.7
222.659	13.42
223.037	16.15
223.416	5.96
223.794	17.23
224.173	-0.74
224.551	34.99
224.929	31.24
225.308	11.87
225.686	6.32
226.064	-3.82
226.442	-1.89
226.821	-7.62
227.199	-5.87
227.577	-2.19
227.955	-3.99
228.333	-4.77
228.711	-6.72
229.089	-2.53
229.467	-1.68
229.845	-0.39
230.222	0.47
230.6	1.81
230.978	2.72
231.356	0.52
231.733	0.67
232.111	4.19
232.488	2.71
232.866	4.81
233.243	4.39
233.621	4.75
233.998	3.96
234.376	6.38
234.753	4.74
235.13	3.82
235.508	4.56
235.885	5.28
236.262	6.3
236.639	7.05
237.016	5.23
237.393	7.88
237.77	6.83
238.147	6.98
238.524	7.15
238.901	6.55
239.278	6.6
239.655	5.99
240.032	5.57
240.409	4.87
240.785	5.27
241.162	5.69
241.539	5.51
241.915	5.66
242.292	5.29
242.668	5.8
243.045	5.89
243.421	5.69
243.798	5.39
244.174	4.98
244.551	4.96
244.927	5.03
245.303	4.72
245.679	5.13
246.056	4.88
246.432	4.73
246.808	4.87
247.184	5.14
247.56	5.44
247.936	5.71
248.312	5.72
248.688	5.51
249.064	5.22
249.44	5.08
249.815	5.33
250.191	5.57
250.567	5.52
250.943	5.44
251.318	5.37
251.694	5.32
252.069	5.22
252.445	5.23
252.82	5.32
253.196	5.33
253.571	5.15
253.947	5.09
254.322	4.95
254.697	4.83
255.073	4.4
255.448	4.39
255.823	4.04
256.198	3.99
256.573	3.96
256.948	4.01
257.323	4.37
257.698	4.1
258.073	3.72
258.448	3.62
258.823	3.59
259.198	3.65
259.573	3.66
259.948	3.74
260.322	3.69
260.697	3.71
261.072	3.89
261.446	3.96
261.821	4.01
262.195	4.09
262.57	4.08
262.944	4.1
263.319	4.03
263.693	4.21
264.067	4.3
264.442	4.26
264.816	4.37
265.19	4.23
265.564	4.39
265.938	4.54
266.313	4.49
266.687	4.57
267.061	4.3
267.435	4.47
267.809	4.38
268.183	4.22
268.556	3.91
268.93	3.76
269.304	3.57
269.678	3.69
270.051	3.73
270.425	3.84
270.799	3.82
271.172	3.82
271.546	3.71
271.919	3.85
272.293	3.83
272.666	4.03
273.04	3.97
273.413	4.02
273.787	3.97
274.16	3.89
274.533	3.85
274.906	4.15
275.279	3.96
275.653	3.99
276.026	3.99
276.399	4.24
276.772	4.23
277.145	4.27
277.518	4.13
277.891	4.02
278.263	4.04
278.636	4.17
279.009	3.97
279.382	4.13
279.755	3.84
280.127	3.87
280.5	3.69
280.872	3.71
281.245	3.43
281.617	3.67
281.99	3.81
282.362	4.12
282.735	3.91
283.107	4.03
283.479	4.16
283.852	4.4
284.224	4.36
284.596	4.22
284.968	4.21
285.34	4.19
285.713	4.38
286.085	4.16
286.457	4
286.829	4.13
287.201	3.97
287.572	4.14
287.944	4.08
288.316	4.09
288.688	4.18
289.06	4.36
289.431	4.31
289.803	4.34
290.175	4.11
290.546	4.19
290.918	4.08
291.289	4.02
291.661	3.91
292.032	3.99
292.403	4.13
292.775	4.16
293.146	4.29
293.517	4.3
293.889	4.57
294.26	4.61
294.631	4.72
295.002	4.78
295.373	4.86
295.744	4.94
296.115	4.94
296.486	5
296.857	5.06
297.228	4.85
297.599	4.82
297.97	4.88
298.34	4.87
298.711	5.03
299.082	4.99
299.452	5
299.823	4.91
300.194	4.91
300.564	4.86
300.935	4.88
301.305	4.87
301.676	4.65
302.046	4.75
302.416	4.61
302.787	4.67
303.157	4.43
303.527	4.47
303.897	4.44
304.267	4.41
304.637	4.28
305.008	4.47
305.378	4.47
305.748	4.62
306.117	4.7
306.487	4.75
306.857	5.02
307.227	5.22
307.597	5.29
307.967	5.39
308.336	5.48
308.706	5.33
309.076	5.32
309.445	5.42
309.815	5.42
310.184	5.38
310.554	5.35
310.923	5.47
311.293	5.45
311.662	5.51
312.031	5.52
312.401	5.55
312.77	5.57
313.139	5.62
313.508	5.55
313.877	5.61
314.246	5.48
314.616	5.4
314.985	5.33
315.353	5.36
315.722	5.35
316.091	5.4
316.46	5.62
316.829	5.68
317.198	5.74
317.567	5.98
317.935	6.25
318.304	6.45
318.672	6.44
319.041	6.62
319.41	6.82
319.778	6.77
320.147	6.91
320.515	7.02
320.883	7.09
321.252	7.04
321.62	6.97
321.988	7.13
322.357	7.29
322.725	7.19
323.093	7.34
323.461	7.42
323.829	7.31
324.197	7.18
324.565	7.12
324.933	7.18
325.301	7.03
325.669	6.95
326.037	6.87
326.405	7.03
326.772	7.03
327.14	6.92
327.508	7.01
327.875	6.97
328.243	6.93
328.61	7.05
328.978	7.05
329.346	7.07
329.713	7.2
330.08	7.16
330.448	7.28
330.815	7.19
331.182	7.12
331.55	7.33
331.917	7.19
332.284	7.21
332.651	7.38
333.018	7.45
333.385	7.43
333.752	7.51
334.119	7.5
334.486	7.34
334.853	7.3
335.22	7.16
335.587	7.1
335.954	7.09
336.32	7.07
336.687	7.14
337.054	7.13
337.42	7.04
337.787	6.98
338.153	6.88
338.52	7.03
338.886	7.12
339.253	6.96
339.619	7.17
339.986	7.21
340.352	7.16
340.718	7.13
341.084	7.27
341.451	7.39
341.817	7.34
342.183	7.41
342.549	7.42
342.915	7.62
343.281	7.75
343.647	7.81
344.013	7.76
344.379	7.86
344.745	7.89
345.11	7.83
345.476	7.9
345.842	7.95
346.208	7.89
346.573	7.79
346.939	7.87
347.304	7.93
347.67	7.91
348.035	7.82
348.401	7.82
348.766	7.73
349.132	7.65
349.497	7.73
349.862	7.76
350.228	7.89
350.593	7.84
350.958	7.91
351.323	7.86
351.688	8
352.053	7.97
352.418	8.05
352.783	8.18
353.148	8.12
353.513	8.19
353.878	8.14
354.243	8.23
354.608	8.23
354.972	8.15
355.337	8.17
355.702	8.16
356.066	8.21
356.431	8.3
356.795	8.27
357.16	8.28
357.524	8.33
357.889	8.26
358.253	8.26
358.618	8.14
358.982	8.1
359.346	8
359.71	7.97
360.075	7.97
360.439	7.9
360.803	7.91
361.167	7.89
361.531	7.9
361.895	7.9
362.259	7.93
362.623	7.92
362.987	7.95
363.351	7.95
363.714	7.96
364.078	7.9
364.442	7.87
364.806	7.92
365.169	7.85
365.533	7.84
365.896	7.89
366.26	7.89
366.623	7.9
366.987	7.86
367.35	7.92
367.714	7.82
368.077	7.85
368.44	7.89
368.803	7.84
369.167	7.8
369.53	7.74
369.893	7.69
370.256	7.69
370.619	7.64
370.982	7.67
371.345	7.67
371.708	7.66
372.071	7.6
372.434	7.47
372.797	7.46
373.159	7.43
373.522	7.37
373.885	7.33
374.247	7.36
374.61	7.4
374.973	7.41
375.335	7.43
375.698	7.37
376.06	7.3
376.423	7.29
376.785	7.28
377.147	7.25
377.51	7.27
377.872	7.27
378.234	7.28
378.596	7.19
378.958	7.14
379.321	7.07
379.683	7.13
380.045	7.14
380.407	7.11
380.769	7.04
381.13	6.99
381.492	6.94
381.854	6.87
382.216	6.85
382.578	6.77
382.939	6.72
383.301	6.73
383.663	6.68
384.024	6.65
384.386	6.6
384.747	6.56
385.109	6.51
385.47	6.54
385.832	6.45
386.193	6.43
386.554	6.35
386.916	6.38
387.277	6.34
387.638	6.27
387.999	6.23
388.36	6.25
388.721	6.22
389.082	6.22
389.443	6.24
389.804	6.19
390.165	6.17
390.526	6.17
390.887	6.1
391.248	6.12
391.609	6.11
391.969	6.08
392.33	6.05
392.691	6.02
393.051	5.91
393.412	5.88
393.772	5.91
394.133	5.92
394.493	5.87
394.854	5.82
395.214	5.84
395.574	5.81
395.935	5.76
396.295	5.77
396.655	5.77
397.015	5.73
397.376	5.68
397.736	5.65
398.096	5.58
398.456	5.59
398.816	5.52
399.176	5.48
399.535	5.47
399.895	5.49
400.255	5.48
400.615	5.49
400.975	5.52
401.334	5.52
401.694	5.47
402.054	5.46
402.413	5.45
402.773	5.47
403.132	5.51
403.492	5.53
403.851	5.49
404.211	5.47
404.57	5.46
404.929	5.45
405.288	5.46
405.648	5.51
406.007	5.5
406.366	5.54
406.725	5.53
407.084	5.53
407.443	5.49
407.802	5.46
408.161	5.47
408.52	5.46
408.879	5.42
409.238	5.46
409.596	5.44
409.955	5.45
410.314	5.4
410.673	5.35
411.031	5.31
411.39	5.32
411.748	5.3
412.107	5.29
412.465	5.31
412.824	5.3
413.182	5.28
413.54	5.26
413.899	5.25
414.257	5.28
414.615	5.27
414.974	5.31
415.332	5.32
415.69	5.3
416.048	5.3
416.406	5.24
416.764	5.22
417.122	5.2
417.48	5.18
417.838	5.17
418.195	5.14
418.553	5.12
418.911	5.12
419.269	5.13
419.626	5.12
419.984	5.09
420.342	5.06
420.699	5.04
421.057	4.99
421.414	4.98
421.772	4.96
422.129	4.94
422.486	4.9
422.844	4.87
423.201	4.86
423.558	4.85
423.915	4.87
424.273	4.87
424.63	4.87
424.987	4.85
425.344	4.84
425.701	4.85
426.058	4.85
426.415	4.81
426.772	4.79
427.128	4.79
427.485	4.79
427.842	4.78
428.199	4.78
428.555	4.81
428.912	4.79
429.269	4.76
429.625	4.77
429.982	4.79
430.338	4.82
430.695	4.8
431.051	4.8
431.407	4.8
431.764	4.79
432.12	4.8
432.476	4.83
432.832	4.85
433.189	4.85
433.545	4.88
433.901	4.88
434.257	4.88
434.613	4.86
434.969	4.86
435.325	4.88
435.681	4.89
436.036	4.89
436.392	4.92
436.748	4.94
437.104	4.95
437.459	4.93
437.815	4.93
438.171	4.93
438.526	4.92
438.882	4.93
439.237	4.91
439.593	4.89
439.948	4.88
440.304	4.85
440.659	4.87
441.014	4.85
441.369	4.87
441.725	4.88
442.08	4.9
442.435	4.89
442.79	4.9
443.145	4.89
443.5	4.89
443.855	4.86
444.21	4.85
444.565	4.84
444.92	4.84
445.275	4.84
445.629	4.82
445.984	4.82
446.339	4.8
446.693	4.82
447.048	4.79
447.403	4.79
447.757	4.78
448.112	4.76
448.466	4.75
448.82	4.74
449.175	4.74
449.529	4.73
449.883	4.73
450.238	4.72
450.592	4.72
450.946	4.7
451.3	4.69
451.654	4.69
452.008	4.69
452.362	4.69
452.716	4.71
453.07	4.76
453.424	4.73
453.778	4.74
454.132	4.74
454.486	4.76
454.839	4.75
455.193	4.78
455.547	4.78
455.9	4.77
456.254	4.79
456.607	4.79
456.961	4.77
457.314	4.76
457.668	4.74
458.021	4.73
458.375	4.76
458.728	4.76
459.081	4.78
459.434	4.78
459.787	4.81
460.141	4.79
460.494	4.77
460.847	4.78
461.2	4.8
461.553	4.83
461.906	4.83
462.259	4.84
462.611	4.84
462.964	4.85
463.317	4.87
463.67	4.87
464.022	4.87
464.375	4.9
464.728	4.92
465.08	4.93
465.433	4.96
465.785	4.98
466.138	5.01
466.49	5.02
466.843	5.04
467.195	5.05
467.547	5.06
467.899	5.08
468.252	5.09
468.604	5.1
468.956	5.07
469.308	5.07
469.66	5.08
470.012	5.1
470.364	5.1
470.716	5.1
471.068	5.11
471.42	5.16
471.772	5.17
472.123	5.19
472.475	5.2
472.827	5.22
473.178	5.2
473.53	5.21
473.882	5.2
474.233	5.17
474.585	5.17
474.936	5.17
475.288	5.17
475.639	5.19
475.99	5.18
476.342	5.19
476.693	5.19
477.044	5.2
477.395	5.19
477.746	5.17
478.097	5.16
478.448	5.14
478.8	5.1
479.15	5.09
479.501	5.06
479.852	5.04
480.203	5.04
480.554	5.03
480.905	5.01
481.255	5.02
481.606	5.02
481.957	5.01
482.307	5.01
482.658	5.01
483.009	5
483.359	4.99
483.709	4.99
484.06	5
484.41	4.99
484.761	5
485.111	5.01
485.461	5.02
485.811	5.02
486.162	5.01
486.512	5.01
486.862	5.03
487.212	5.04
487.562	5.04
487.912	5.05
488.262	5.05
488.612	5.05
488.961	5.06
489.311	5.05
489.661	5.06
490.011	5.06
490.36	5.08
490.71	5.09
491.06	5.09
491.409	5.1
491.759	5.12
492.108	5.13
492.458	5.12
492.807	5.13
493.157	5.16
493.506	5.19
493.855	5.21
494.204	5.22
494.554	5.24
494.903	5.26
495.252	5.28
495.601	5.32
495.95	5.35
496.299	5.38
496.648	5.41
496.997	5.44
497.346	5.47
497.695	5.48
498.043	5.52
498.392	5.58
498.741	5.64
499.09	5.67
499.438	5.69
499.787	5.74
500.135	5.8
500.484	5.81
500.832	5.86
501.181	5.91
501.529	5.95
501.878	6
502.226	6.06
502.574	6.13
502.923	6.19
503.271	6.26
503.619	6.34
503.967	6.41
504.315	6.49
504.663	6.57
505.011	6.67
505.359	6.75
505.707	6.79
506.055	6.86
506.403	6.95
506.751	7.05
507.098	7.14
507.446	7.25
507.794	7.36
508.141	7.5
508.489	7.59
508.837	7.7
509.184	7.78
509.531	7.87
509.879	7.96
510.226	8.06
510.574	8.16
510.921	8.28
511.268	8.41
511.616	8.52
511.963	8.64
512.31	8.74
512.657	8.88
513.004	9.02
513.351	9.15
513.698	9.28
514.045	9.41
514.392	9.57
514.739	9.71
515.086	9.86
515.432	9.99
515.779	10.12
516.126	10.26
516.473	10.38
516.819	10.5
517.166	10.62
517.512	10.75
517.859	10.86
518.205	10.98
518.552	11.1
518.898	11.21
519.245	11.32
519.591	11.44
519.937	11.54
520.283	11.65
520.629	11.77
520.976	11.9
521.322	12.02
521.668	12.14
522.014	12.28
522.36	12.43
522.706	12.57
523.052	12.78
523.398	12.99
523.743	13.2
524.089	13.41
524.435	13.57
524.781	13.73
525.126	13.92
525.472	14.06
525.817	14.2
526.163	14.32
526.509	14.44
526.854	14.55
527.199	14.66
527.545	14.78
527.89	14.89
528.235	15.02
528.581	15.13
528.926	15.23
529.271	15.34
529.616	15.45
529.961	15.57
530.306	15.67
530.651	15.8
530.996	15.92
531.341	16.07
531.686	16.24
532.031	16.39
532.376	16.52
532.721	16.67
533.065	16.83
533.41	17
533.755	17.18
534.099	17.37
534.444	17.56
534.788	17.74
535.133	17.94
535.477	18.11
535.822	18.33
536.166	18.56
536.51	18.76
536.855	19
537.199	19.25
537.543	19.5
537.887	19.75
538.231	20.01
538.576	20.27
538.92	20.5
539.264	20.76
539.608	20.98
539.951	21.2
540.295	21.41
540.639	21.64
540.983	21.85
541.327	22.07
541.671	22.27
542.014	22.47
542.358	22.66
542.701	22.87
543.045	23.03
543.389	23.24
543.732	23.46
544.075	23.65
544.419	23.83
544.762	24.04
545.105	24.25
545.449	24.5
545.792	24.72
546.135	24.98
546.478	25.24
546.821	25.55
547.165	25.84
547.508	26.1
547.851	26.39
548.194	26.67
548.536	26.9
548.879	27.19
549.222	27.5
549.565	27.78
549.908	28.06
550.25	28.36
550.593	28.63
550.936	28.91
551.278	29.25
551.621	29.56
551.963	29.9
552.306	30.2
552.648	30.53
552.991	30.79
553.333	31.02
553.675	31.22
554.017	31.49
554.36	31.76
554.702	32.02
555.044	32.23
555.386	32.53
555.728	32.82
556.07	33.08
556.412	33.3
556.754	33.52
557.096	33.79
557.438	34.04
557.78	34.28
558.121	34.6
558.463	34.82
558.805	35.03
559.147	35.25
559.488	35.51
559.83	35.65
560.171	35.88
560.513	36.19
560.854	36.51
561.196	36.66
561.537	36.87
561.878	37.13
562.22	37.38
562.561	37.53
562.902	37.77
563.243	37.95
563.584	38.21
563.925	38.45
564.266	38.61
564.607	38.83
564.948	39
565.289	39.12
565.63	39.27
565.971	39.5
566.312	39.7
566.653	39.81
566.993	40.02
567.334	40.14
567.675	40.22
568.015	40.4
568.356	40.61
568.696	40.78
569.037	40.92
569.377	41.09
569.718	41.27
570.058	41.37
570.398	41.55
570.739	41.65
571.079	41.79
571.419	41.94
571.759	42.09
572.099	42.27
572.439	42.37
572.779	42.52
573.119	42.62
573.459	42.76
573.799	42.89
574.139	42.97
574.479	43.13
574.819	43.29
575.158	43.34
575.498	43.44
575.838	43.59
576.177	43.68
576.517	43.82
576.856	43.91
577.196	44.04
577.535	44.14
577.875	44.3
578.214	44.4
578.553	44.57
578.893	44.7
579.232	44.88
579.571	45.07
579.91	45.24
580.25	45.34
580.589	45.39
580.928	45.5
581.267	45.61
581.606	45.72
581.945	45.76
582.283	45.86
582.622	45.98
582.961	45.96
583.3	46.07
583.639	46.1
583.977	46.23
584.316	46.29
584.654	46.4
584.993	46.44
585.332	46.62
585.67	46.66
586.008	46.61
586.347	46.64
586.685	46.66
587.024	46.76
587.362	46.88
587.7	47.02
588.038	47.16
588.376	47.27
588.715	47.36
589.053	47.45
589.391	47.52
589.729	47.57
590.067	47.65
590.404	47.75
590.742	47.86
591.08	48.01
591.418	48.16
591.756	48.26
592.093	48.32
592.431	48.34
592.769	48.47
593.106	48.61
593.444	48.66
593.781	48.75
594.119	48.83
594.456	48.78
594.793	48.75
595.131	48.81
595.468	48.85
595.805	48.94
596.143	49.08
596.48	49.17
596.817	49.19
597.154	49.31
597.491	49.31
597.828	49.35
598.165	49.33
598.502	49.31
598.839	49.34
599.176	49.36
599.512	49.47
599.849	49.53
600.186	49.63
600.523	49.65
600.859	49.69
601.196	49.75
601.532	49.88
601.869	50.01
602.205	50.06
602.542	50.09
602.878	50.14
603.215	50.12
603.551	50.15
603.887	50.2
604.223	50.24
604.56	50.31
604.896	50.4
605.232	50.48
605.568	50.52
605.904	50.63
606.24	50.74
606.576	50.79
606.912	50.84
607.248	50.88
607.583	51
607.919	51.04
608.255	51.09
608.591	51.16
608.926	51.18
609.262	51.15
609.597	51.21
609.933	51.19
610.268	51.27
610.604	51.37
610.939	51.48
611.275	51.45
611.61	51.46
611.945	51.43
612.281	51.43
612.616	51.51
612.951	51.49
613.286	51.5
613.621	51.45
613.956	51.4
614.291	51.43
614.626	51.4
614.961	51.44
615.296	51.38
615.631	51.44
615.966	51.38
616.3	51.48
616.635	51.56
616.97	51.59
617.304	51.53
617.639	51.52
617.973	51.4
618.308	51.42
618.642	51.5
618.977	51.48
619.311	51.49
619.646	51.51
619.98	51.54
620.314	51.51
620.648	51.44
620.983	51.51
621.317	51.51
621.651	51.44
621.985	51.57
622.319	51.59
622.653	51.64
622.987	51.71
623.321	51.7
623.655	51.74
623.988	51.76
624.322	51.89
624.656	52.02
624.99	52.16
625.323	52.27
625.657	52.23
625.99	52.34
626.324	52.38
626.657	52.39
626.991	52.33
627.324	52.44
627.658	52.63
627.991	52.71
628.324	52.76
628.657	52.9
628.991	52.83
629.324	52.92
629.657	52.89
629.99	52.93
630.323	53.01
630.656	53
630.989	53.07
631.322	53.04
631.655	52.96
631.987	53
632.32	53.07
632.653	53.23
632.986	53.25
633.318	53.17
633.651	53.24
633.984	53.36
634.316	53.43
634.649	53.42
634.981	53.37
635.313	53.36
635.646	53.37
635.978	53.42
636.31	53.51
636.643	53.49
636.975	53.48
637.307	53.5
637.639	53.65
637.971	53.54
638.303	53.62
638.635	53.62
638.967	53.69
639.299	53.71
639.631	53.61
639.963	53.66
640.295	53.78
640.626	53.74
640.958	53.55
641.29	53.45
641.621	53.34
641.953	53.31
642.285	53.35
642.616	53.45
642.948	53.5
643.279	53.44
643.61	53.61
643.942	53.72
644.273	53.69
644.604	53.53
644.936	53.65
645.267	53.56
645.598	53.63
645.929	53.56
646.26	53.57
646.591	53.64
646.922	53.65
647.253	53.78
647.584	53.79
647.915	53.88
648.245	53.91
648.576	54.01
648.907	54.12
649.238	54.13
649.568	54.04
649.899	54.02
650.229	54.01
650.56	54
650.89	54
651.221	54.11
651.551	54.14
651.882	54.15
652.212	54.14
652.542	54.19
652.872	54.25
653.203	54.25
653.533	54.28
653.863	54.35
654.193	54.32
654.523	54.52
654.853	54.67
655.183	54.78
655.513	54.79
655.843	54.76
656.172	54.87
656.502	54.9
656.832	54.97
657.162	54.94
657.491	54.96
657.821	54.82
658.15	54.77
658.48	54.9
658.809	54.94
659.139	55.04
659.468	55.05
659.798	54.98
660.127	54.89
660.456	54.96
660.785	54.89
661.115	54.83
661.444	54.72
661.773	54.64
662.102	54.59
662.431	54.54
662.76	54.61
663.089	54.56
663.418	54.65
663.747	54.69
664.076	54.79
664.404	54.95
664.733	55.15
665.062	55.24
665.39	55.14
665.719	55.23
666.048	55.35
666.376	55.31
666.705	55.38
667.033	55.54
