Data from MVZ_BU65311_Reflection_00006.txt Node
Date: Tue Nov 19 12:20:11 EST 2019
User: vgr7
Spectrometer: USB2G7710
Scans to average: 3
Trigger mode: 4
Integration Time (sec): 2.000000E-2
Electric dark correction enabled: true
Boxcar width: 10
XAxis mode: Wavelengths
Number of Pixels in Spectrum: 2048
>>>>>Begin Spectral Data<<<<<
177.721	101.32
178.105	461.11
178.488	17.27
178.871	31.11
179.254	53.7
179.636	144.06
180.019	206.48
180.402	116.67
180.785	103.09
181.168	-35.8
181.55	104.63
181.933	-504.17
182.316	1110.42
182.698	-215.97
183.081	-367.26
183.463	-138.3
183.846	-109.92
184.228	-169.35
184.611	-122.51
184.993	-160.83
185.376	-162.94
185.758	-67.94
186.14	-92.74
186.522	-58.08
186.904	-58.72
187.287	-64.28
187.669	-46.89
188.051	-59.36
188.433	-75.02
188.815	-99.69
189.197	-81.05
189.579	-77.77
189.961	-78.88
190.342	-58.72
190.724	-66.17
191.106	-60.23
191.488	-61.49
191.869	-53.54
192.251	-45.83
192.633	-49.16
193.014	-46.74
193.396	-48.49
193.777	-54.6
194.159	-49.89
194.54	-48.54
194.922	-55.11
195.303	-53.56
195.684	-63.32
196.065	-69.33
196.447	-63.76
196.828	-61.3
197.209	-55.64
197.59	-54.72
197.971	-66.18
198.352	-71.01
198.733	-78.46
199.114	-85.86
199.495	-91.51
199.876	-112
200.257	-124.17
200.638	-124.7
201.018	-116.59
201.399	-117.15
201.78	-110.69
202.16	-111.5
202.541	-111.16
202.922	-89.35
203.302	-116.91
203.683	-116.37
204.063	-95.57
204.444	-93.51
204.824	-85.75
205.204	-74.95
205.585	-68.76
205.965	-58.43
206.345	-38.02
206.725	-38.29
207.106	-16.76
207.486	-14.52
207.866	-12.99
208.246	-19.75
208.626	-32.5
209.006	-32.26
209.386	-31.21
209.766	-30.87
210.145	-29.98
210.525	-24.91
210.905	-24.64
211.285	-5.76
211.664	3.45
212.044	4.53
212.424	1.47
212.803	-7.23
213.183	-5.38
213.562	-1.13
213.942	-8.65
214.321	-21.07
214.701	-26.93
215.08	-40.86
215.459	-34.81
215.838	-30.55
216.218	-28.67
216.597	-13.58
216.976	-21.2
217.355	-24.91
217.734	-25.7
218.113	-15.66
218.492	-37.52
218.871	-42.72
219.25	-58.97
219.629	-85.86
220.008	-79.91
220.387	-63.52
220.766	-55.2
221.144	-55.8
221.523	-68.3
221.902	-66.17
222.28	-58.55
222.659	-38.36
223.037	-41.96
223.416	-48.39
223.794	-53.99
224.173	-47.19
224.551	-46.57
224.929	-45.36
225.308	-44.66
225.686	-48.52
226.064	-49.81
226.442	-38.17
226.821	-34.32
227.199	-30.76
227.577	-26.45
227.955	-25.06
228.333	-28.52
228.711	-26.04
229.089	-27.53
229.467	-25.46
229.845	-22.71
230.222	-20.23
230.6	-19.35
230.978	-16.66
231.356	-15.45
231.733	-14.13
232.111	-14.29
232.488	-13.03
232.866	-9.3
233.243	-7.26
233.621	-6.67
233.998	-5.53
234.376	-2.21
234.753	-1.87
235.13	-0.83
235.508	-1.7
235.885	-2.19
236.262	-1.93
236.639	-1.39
237.016	-0.26
237.393	0.46
237.77	0.82
238.147	0.83
238.524	0.19
238.901	-0.21
239.278	-0.27
239.655	-0.09
240.032	0.58
240.409	0.43
240.785	-0.28
241.162	-0.08
241.539	-0.36
241.915	-0.7
242.292	-0.68
242.668	-0.52
243.045	0.08
243.421	0.44
243.798	1.32
244.174	1.62
244.551	2.02
244.927	2.01
245.303	1.8
245.679	2.08
246.056	2.08
246.432	2.22
246.808	2.48
247.184	2.63
247.56	2.42
247.936	2.54
248.312	2.65
248.688	2.56
249.064	2.44
249.44	2.51
249.815	2.76
250.191	2.56
250.567	2.44
250.943	2.14
251.318	2.07
251.694	1.3
252.069	1.37
252.445	1.06
252.82	1.41
253.196	1.41
253.571	1.31
253.947	1.32
254.322	0.86
254.697	1.02
255.073	1.41
255.448	1.75
255.823	1.69
256.198	1.64
256.573	2.07
256.948	2.13
257.323	2.36
257.698	2.7
258.073	2.73
258.448	2.81
258.823	2.8
259.198	2.88
259.573	3.1
259.948	3
260.322	2.89
260.697	2.82
261.072	2.91
261.446	2.83
261.821	2.83
262.195	2.81
262.57	2.86
262.944	2.75
263.319	2.71
263.693	2.72
264.067	2.73
264.442	2.62
264.816	2.51
265.19	2.5
265.564	2.17
265.938	2.05
266.313	1.87
266.687	2
267.061	2.01
267.435	2.3
267.809	2.44
268.183	2.62
268.556	2.39
268.93	2.32
269.304	2.44
269.678	2.39
270.051	2.59
270.425	2.5
270.799	2.2
271.172	2.42
271.546	2.46
271.919	2.35
272.293	2.34
272.666	2.2
273.04	2.33
273.413	2.18
273.787	2.08
274.16	2.09
274.533	1.97
274.906	1.94
275.279	1.68
275.653	1.76
276.026	1.76
276.399	1.81
276.772	1.84
277.145	1.73
277.518	1.72
277.891	1.5
278.263	1.64
278.636	1.98
279.009	1.79
279.382	1.82
279.755	1.89
280.127	1.8
280.5	2.12
280.872	2.22
281.245	2.43
281.617	2.61
281.99	2.78
282.362	2.95
282.735	2.9
283.107	3.06
283.479	3.02
283.852	2.89
284.224	2.84
284.596	2.8
284.968	2.68
285.34	2.82
285.713	2.99
286.085	2.87
286.457	2.81
286.829	2.84
287.201	2.82
287.572	2.92
287.944	3.14
288.316	3.16
288.688	3.08
289.06	3.07
289.431	3.13
289.803	3.19
290.175	3.05
290.546	3.03
290.918	3
291.289	2.89
291.661	3.11
292.032	3.19
292.403	3.18
292.775	3.35
293.146	3.44
293.517	3.42
293.889	3.31
294.26	3.36
294.631	3.37
295.002	3.34
295.373	3.35
295.744	3.33
296.115	3.34
296.486	3.27
296.857	3.37
297.228	3.32
297.599	3.11
297.97	3.33
298.34	3.33
298.711	3.33
299.082	3.41
299.452	3.23
299.823	3.13
300.194	3.15
300.564	3.03
300.935	2.85
301.305	2.81
301.676	2.81
302.046	2.65
302.416	2.64
302.787	2.54
303.157	2.57
303.527	2.44
303.897	2.24
304.267	2.19
304.637	2.05
305.008	1.99
305.378	1.96
305.748	1.71
306.117	1.86
306.487	1.79
306.857	1.74
307.227	1.87
307.597	1.96
307.967	2
308.336	2.02
308.706	1.99
309.076	2.05
309.445	2.05
309.815	2.31
310.184	2.3
310.554	2.44
310.923	2.33
311.293	2.27
311.662	2.41
312.031	2.33
312.401	2.39
312.77	2.37
313.139	2.55
313.508	2.61
313.877	2.57
314.246	2.64
314.616	2.59
314.985	2.36
315.353	2.41
315.722	2.63
316.091	2.68
316.46	2.73
316.829	2.74
317.198	2.95
317.567	2.74
317.935	2.58
318.304	2.47
318.672	2.56
319.041	2.61
319.41	2.53
319.778	2.59
320.147	2.55
320.515	2.61
320.883	2.51
321.252	2.57
321.62	2.64
321.988	2.64
322.357	2.65
322.725	2.91
323.093	2.75
323.461	2.51
323.829	2.5
324.197	2.43
324.565	2.41
324.933	2.34
325.301	2.28
325.669	2.49
326.037	2.69
326.405	2.54
326.772	2.54
327.14	2.46
327.508	2.47
327.875	2.43
328.243	2.26
328.61	2.41
328.978	2.25
329.346	2.05
329.713	2.05
330.08	1.99
330.448	1.91
330.815	2.11
331.182	2.02
331.55	2
331.917	1.91
332.284	2
332.651	2.01
333.018	2.11
333.385	2.16
333.752	1.97
334.119	1.95
334.486	1.98
334.853	2.01
335.22	2.01
335.587	1.94
335.954	2.05
336.32	1.92
336.687	2.05
337.054	2.07
337.42	2
337.787	1.97
338.153	2.1
338.52	2.03
338.886	2.14
339.253	2.14
339.619	2.24
339.986	2.01
340.352	2.05
340.718	2.06
341.084	2.03
341.451	2.09
341.817	2.21
342.183	2.2
342.549	2.36
342.915	2.4
343.281	2.53
343.647	2.41
344.013	2.53
344.379	2.57
344.745	2.69
345.11	2.66
345.476	2.78
345.842	2.63
346.208	2.6
346.573	2.61
346.939	2.62
347.304	2.63
347.67	2.72
348.035	2.62
348.401	2.63
348.766	2.54
349.132	2.44
349.497	2.41
349.862	2.42
350.228	2.29
350.593	2.29
350.958	2.2
351.323	2.28
351.688	2.24
352.053	2.25
352.418	2.3
352.783	2.38
353.148	2.4
353.513	2.45
353.878	2.5
354.243	2.43
354.608	2.47
354.972	2.49
355.337	2.52
355.702	2.57
356.066	2.55
356.431	2.56
356.795	2.58
357.16	2.63
357.524	2.65
357.889	2.68
358.253	2.71
358.618	2.74
358.982	2.81
359.346	2.82
359.71	2.88
360.075	2.89
360.439	2.91
360.803	2.91
361.167	2.91
361.531	2.95
361.895	3.05
362.259	3.05
362.623	3.1
362.987	3.15
363.351	3.15
363.714	3.19
364.078	3.29
364.442	3.33
364.806	3.32
365.169	3.32
365.533	3.38
365.896	3.47
366.26	3.47
366.623	3.42
366.987	3.48
367.35	3.41
367.714	3.38
368.077	3.4
368.44	3.38
368.803	3.37
369.167	3.38
369.53	3.38
369.893	3.44
370.256	3.39
370.619	3.39
370.982	3.34
371.345	3.33
371.708	3.3
372.071	3.25
372.434	3.23
372.797	3.22
373.159	3.16
373.522	3.04
373.885	3.1
374.247	3.15
374.61	3.03
374.973	3.08
375.335	3.09
375.698	3.03
376.06	3.1
376.423	3.13
376.785	3.11
377.147	3.04
377.51	2.99
377.872	2.97
378.234	2.97
378.596	3.01
378.958	3.03
379.321	3.01
379.683	3.14
380.045	3.11
380.407	3.17
380.769	3.15
381.13	3.2
381.492	3.18
381.854	3.2
382.216	3.3
382.578	3.28
382.939	3.27
383.301	3.31
383.663	3.25
384.024	3.27
384.386	3.3
384.747	3.36
385.109	3.39
385.47	3.43
385.832	3.41
386.193	3.4
386.554	3.32
386.916	3.32
387.277	3.27
387.638	3.33
387.999	3.27
388.36	3.3
388.721	3.27
389.082	3.31
389.443	3.31
389.804	3.33
390.165	3.35
390.526	3.37
390.887	3.36
391.248	3.37
391.609	3.39
391.969	3.39
392.33	3.39
392.691	3.37
393.051	3.34
393.412	3.36
393.772	3.37
394.133	3.42
394.493	3.42
394.854	3.4
395.214	3.39
395.574	3.39
395.935	3.42
396.295	3.46
396.655	3.42
397.015	3.38
397.376	3.38
397.736	3.37
398.096	3.3
398.456	3.31
398.816	3.34
399.176	3.32
399.535	3.26
399.895	3.25
400.255	3.28
400.615	3.3
400.975	3.33
401.334	3.3
401.694	3.32
402.054	3.32
402.413	3.35
402.773	3.39
403.132	3.43
403.492	3.41
403.851	3.4
404.211	3.41
404.57	3.42
404.929	3.37
405.288	3.37
405.648	3.41
406.007	3.42
406.366	3.39
406.725	3.4
407.084	3.42
407.443	3.41
407.802	3.38
408.161	3.42
408.52	3.37
408.879	3.41
409.238	3.42
409.596	3.44
409.955	3.43
410.314	3.39
410.673	3.38
411.031	3.38
411.39	3.34
411.748	3.37
412.107	3.39
412.465	3.43
412.824	3.44
413.182	3.44
413.54	3.45
413.899	3.48
414.257	3.48
414.615	3.48
414.974	3.51
415.332	3.54
415.69	3.52
416.048	3.55
416.406	3.56
416.764	3.56
417.122	3.54
417.48	3.54
417.838	3.56
418.195	3.55
418.553	3.57
418.911	3.6
419.269	3.58
419.626	3.6
419.984	3.57
420.342	3.56
420.699	3.57
421.057	3.59
421.414	3.6
421.772	3.6
422.129	3.62
422.486	3.63
422.844	3.64
423.201	3.64
423.558	3.62
423.915	3.63
424.273	3.62
424.63	3.65
424.987	3.66
425.344	3.66
425.701	3.68
426.058	3.67
426.415	3.66
426.772	3.69
427.128	3.69
427.485	3.73
427.842	3.73
428.199	3.75
428.555	3.72
428.912	3.69
429.269	3.66
429.625	3.67
429.982	3.64
430.338	3.62
430.695	3.62
431.051	3.64
431.407	3.63
431.764	3.64
432.12	3.63
432.476	3.65
432.832	3.63
433.189	3.65
433.545	3.62
433.901	3.62
434.257	3.59
434.613	3.59
434.969	3.57
435.325	3.58
435.681	3.58
436.036	3.59
436.392	3.6
436.748	3.63
437.104	3.62
437.459	3.62
437.815	3.63
438.171	3.63
438.526	3.64
438.882	3.64
439.237	3.64
439.593	3.63
439.948	3.61
440.304	3.6
440.659	3.59
441.014	3.6
441.369	3.62
441.725	3.62
442.08	3.62
442.435	3.62
442.79	3.62
443.145	3.61
443.5	3.61
443.855	3.62
444.21	3.62
444.565	3.62
444.92	3.62
445.275	3.61
445.629	3.62
445.984	3.62
446.339	3.62
446.693	3.61
447.048	3.61
447.403	3.63
447.757	3.65
448.112	3.64
448.466	3.66
448.82	3.66
449.175	3.68
449.529	3.67
449.883	3.66
450.238	3.68
450.592	3.68
450.946	3.68
451.3	3.68
451.654	3.66
452.008	3.67
452.362	3.67
452.716	3.69
453.07	3.7
453.424	3.71
453.778	3.69
454.132	3.7
454.486	3.72
454.839	3.72
455.193	3.72
455.547	3.73
455.9	3.72
456.254	3.7
456.607	3.7
456.961	3.71
457.314	3.71
457.668	3.7
458.021	3.7
458.375	3.7
458.728	3.7
459.081	3.72
459.434	3.73
459.787	3.74
460.141	3.73
460.494	3.73
460.847	3.7
461.2	3.71
461.553	3.72
461.906	3.74
462.259	3.73
462.611	3.73
462.964	3.73
463.317	3.75
463.67	3.76
464.022	3.77
464.375	3.76
464.728	3.77
465.08	3.78
465.433	3.8
465.785	3.81
466.138	3.83
466.49	3.8
466.843	3.8
467.195	3.8
467.547	3.81
467.899	3.81
468.252	3.84
468.604	3.84
468.956	3.82
469.308	3.79
469.66	3.78
470.012	3.76
470.364	3.72
470.716	3.72
471.068	3.73
471.42	3.72
471.772	3.75
472.123	3.76
472.475	3.75
472.827	3.74
473.178	3.74
473.53	3.74
473.882	3.75
474.233	3.75
474.585	3.75
474.936	3.74
475.288	3.72
475.639	3.7
475.99	3.71
476.342	3.73
476.693	3.73
477.044	3.71
477.395	3.74
477.746	3.77
478.097	3.77
478.448	3.73
478.8	3.73
479.15	3.73
479.501	3.72
479.852	3.73
480.203	3.74
480.554	3.73
480.905	3.75
481.255	3.76
481.606	3.77
481.957	3.77
482.307	3.77
482.658	3.79
483.009	3.79
483.359	3.8
483.709	3.79
484.06	3.81
484.41	3.82
484.761	3.83
485.111	3.84
485.461	3.85
485.811	3.86
486.162	3.86
486.512	3.88
486.862	3.89
487.212	3.89
487.562	3.89
487.912	3.89
488.262	3.89
488.612	3.88
488.961	3.88
489.311	3.88
489.661	3.88
490.011	3.88
490.36	3.88
490.71	3.89
491.06	3.9
491.409	3.89
491.759	3.89
492.108	3.88
492.458	3.87
492.807	3.85
493.157	3.85
493.506	3.86
493.855	3.85
494.204	3.85
494.554	3.85
494.903	3.86
495.252	3.85
495.601	3.85
495.95	3.86
496.299	3.88
496.648	3.89
496.997	3.89
497.346	3.9
497.695	3.92
498.043	3.92
498.392	3.88
498.741	3.89
499.09	3.89
499.438	3.91
499.787	3.89
500.135	3.91
500.484	3.91
500.832	3.91
501.181	3.91
501.529	3.92
501.878	3.91
502.226	3.93
502.574	3.94
502.923	3.94
503.271	3.93
503.619	3.93
503.967	3.92
504.315	3.91
504.663	3.89
505.011	3.89
505.359	3.88
505.707	3.92
506.055	3.9
506.403	3.88
506.751	3.89
507.098	3.9
507.446	3.89
507.794	3.91
508.141	3.91
508.489	3.9
508.837	3.89
509.184	3.9
509.531	3.89
509.879	3.89
510.226	3.89
510.574	3.9
510.921	3.87
511.268	3.89
511.616	3.91
511.963	3.93
512.31	3.93
512.657	3.93
513.004	3.92
513.351	3.94
513.698	3.97
514.045	3.97
514.392	3.97
514.739	3.99
515.086	3.97
515.432	3.99
515.779	4.01
516.126	4.03
516.473	4.05
516.819	4.04
517.166	4.04
517.512	4.05
517.859	4.08
518.205	4.1
518.552	4.09
518.898	4.09
519.245	4.1
519.591	4.11
519.937	4.11
520.283	4.11
520.629	4.1
520.976	4.07
521.322	4.08
521.668	4.08
522.014	4.1
522.36	4.09
522.706	4.09
523.052	4.09
523.398	4.06
523.743	4.05
524.089	4.05
524.435	4.04
524.781	4.07
525.126	4.03
525.472	4.03
525.817	4.04
526.163	4.04
526.509	4.03
526.854	4.04
527.199	4.05
527.545	4.06
527.89	4.07
528.235	4.06
528.581	4.05
528.926	4.06
529.271	4.05
529.616	4.06
529.961	4.05
530.306	4.06
530.651	4.06
530.996	4.07
531.341	4.09
531.686	4.09
532.031	4.08
532.376	4.11
532.721	4.1
533.065	4.09
533.41	4.1
533.755	4.1
534.099	4.08
534.444	4.09
534.788	4.07
535.133	4.07
535.477	4.09
535.822	4.11
536.166	4.1
536.51	4.1
536.855	4.11
537.199	4.11
537.543	4.08
537.887	4.11
538.231	4.09
538.576	4.06
538.92	4.09
539.264	4.09
539.608	4.09
539.951	4.1
540.295	4.13
540.639	4.14
540.983	4.15
541.327	4.15
541.671	4.14
542.014	4.15
542.358	4.16
542.701	4.15
543.045	4.14
543.389	4.16
543.732	4.14
544.075	4.14
544.419	4.15
544.762	4.17
545.105	4.16
545.449	4.17
545.792	4.19
546.135	4.18
546.478	4.15
546.821	4.16
547.165	4.14
547.508	4.12
547.851	4.09
548.194	4.07
548.536	4.1
548.879	4.1
549.222	4.09
549.565	4.08
549.908	4.1
550.25	4.1
550.593	4.08
550.936	4.14
551.278	4.12
551.621	4.12
551.963	4.12
552.306	4.1
552.648	4.09
552.991	4.09
553.333	4.11
553.675	4.12
554.017	4.11
554.36	4.09
554.702	4.07
555.044	4.1
555.386	4.16
555.728	4.13
556.07	4.12
556.412	4.12
556.754	4.09
557.096	4.07
557.438	4.08
557.78	4.08
558.121	4.05
558.463	4.04
558.805	4.08
559.147	4.08
559.488	4.08
559.83	4.09
560.171	4.06
560.513	4.03
560.854	4.03
561.196	4.01
561.537	4.05
561.878	4.09
562.22	4.1
562.561	4.09
562.902	4.06
563.243	4.06
563.584	4.07
563.925	4.11
564.266	4.13
564.607	4.12
564.948	4.09
565.289	4.11
565.63	4.12
565.971	4.1
566.312	4.11
566.653	4.11
566.993	4.12
567.334	4.16
567.675	4.17
568.015	4.19
568.356	4.19
568.696	4.19
569.037	4.18
569.377	4.16
569.718	4.16
570.058	4.16
570.398	4.17
570.739	4.16
571.079	4.15
571.419	4.17
571.759	4.14
572.099	4.16
572.439	4.14
572.779	4.15
573.119	4.15
573.459	4.15
573.799	4.12
574.139	4.12
574.479	4.1
574.819	4.08
575.158	4.09
575.498	4.12
575.838	4.13
576.177	4.15
576.517	4.12
576.856	4.12
577.196	4.12
577.535	4.09
577.875	4.09
578.214	4.07
578.553	4.05
578.893	4.06
579.232	4.06
579.571	4.08
579.91	4.08
580.25	4.07
580.589	4.04
580.928	4.09
581.267	4.09
581.606	4.11
581.945	4.12
582.283	4.1
582.622	4.04
582.961	3.98
583.3	3.96
583.639	3.99
583.977	3.96
584.316	3.98
584.654	4
584.993	3.99
585.332	4.02
585.67	3.99
586.008	3.97
586.347	4
586.685	3.97
587.024	3.93
587.362	3.97
587.7	4
588.038	3.98
588.376	3.98
588.715	3.95
589.053	3.98
589.391	3.98
589.729	4.03
590.067	4.07
590.404	4.06
590.742	4.05
591.08	4.1
591.418	4.14
591.756	4.16
592.093	4.19
592.431	4.19
592.769	4.25
593.106	4.32
593.444	4.33
593.781	4.35
594.119	4.39
594.456	4.38
594.793	4.37
595.131	4.37
595.468	4.37
595.805	4.38
596.143	4.32
596.48	4.32
596.817	4.31
597.154	4.31
597.491	4.31
597.828	4.29
598.165	4.27
598.502	4.23
598.839	4.22
599.176	4.22
599.512	4.22
599.849	4.23
600.186	4.17
600.523	4.13
600.859	4.12
601.196	4.11
601.532	4.11
601.869	4.1
602.205	4.08
602.542	4.08
602.878	4.11
603.215	4.13
603.551	4.15
603.887	4.12
604.223	4.14
604.56	4.17
604.896	4.18
605.232	4.16
605.568	4.18
605.904	4.16
606.24	4.14
606.576	4.12
606.912	4.06
607.248	4.12
607.583	4.14
607.919	4.12
608.255	4.13
608.591	4.1
608.926	4.13
609.262	4.15
609.597	4.17
609.933	4.16
610.268	4.17
610.604	4.14
610.939	4.15
611.275	4.13
611.61	4.08
611.945	4.09
612.281	4.11
612.616	4.14
612.951	4.19
613.286	4.14
613.621	4.15
613.956	4.22
614.291	4.14
614.626	4.17
614.961	4.19
615.296	4.18
615.631	4.24
615.966	4.22
616.3	4.29
616.635	4.28
616.97	4.22
617.304	4.23
617.639	4.26
617.973	4.33
618.308	4.31
618.642	4.3
618.977	4.27
619.311	4.33
619.646	4.27
619.98	4.27
620.314	4.3
620.648	4.32
620.983	4.25
621.317	4.25
621.651	4.22
621.985	4.27
622.319	4.25
622.653	4.23
622.987	4.27
623.321	4.24
623.655	4.24
623.988	4.28
624.322	4.26
624.656	4.24
624.99	4.21
625.323	4.15
625.657	4.23
625.99	4.26
626.324	4.14
626.657	4.13
626.991	4.08
627.324	4.1
627.658	4.08
627.991	4.15
628.324	4.15
628.657	4.13
628.991	4.11
629.324	4.1
629.657	4.04
629.99	3.98
630.323	4
630.656	3.98
630.989	3.96
631.322	3.99
631.655	4.02
631.987	4.05
632.32	4.11
632.653	4.05
632.986	4.09
633.318	4.16
633.651	4.21
633.984	4.27
634.316	4.31
634.649	4.36
634.981	4.31
635.313	4.36
635.646	4.43
635.978	4.41
636.31	4.44
636.643	4.5
636.975	4.52
637.307	4.46
637.639	4.5
637.971	4.49
638.303	4.45
638.635	4.4
638.967	4.39
639.299	4.39
639.631	4.41
639.963	4.41
640.295	4.5
640.626	4.48
640.958	4.45
641.29	4.44
641.621	4.39
641.953	4.35
642.285	4.39
642.616	4.36
642.948	4.39
643.279	4.39
643.61	4.47
643.942	4.45
644.273	4.5
644.604	4.44
644.936	4.46
645.267	4.49
645.598	4.49
645.929	4.49
646.26	4.45
646.591	4.45
646.922	4.5
647.253	4.37
647.584	4.35
647.915	4.33
648.245	4.35
648.576	4.39
648.907	4.43
649.238	4.35
649.568	4.35
649.899	4.34
650.229	4.29
650.56	4.21
650.89	4.24
651.221	4.16
651.551	4.23
651.882	4.2
652.212	4.19
652.542	4.24
652.872	4.18
653.203	4.26
653.533	4.29
653.863	4.22
654.193	4.21
654.523	4.23
654.853	4.35
655.183	4.38
655.513	4.35
655.843	4.35
656.172	4.45
656.502	4.37
656.832	4.35
657.162	4.37
657.491	4.46
657.821	4.44
658.15	4.47
658.48	4.48
658.809	4.48
659.139	4.5
659.468	4.48
659.798	4.55
660.127	4.5
660.456	4.49
660.785	4.45
661.115	4.52
661.444	4.49
661.773	4.43
662.102	4.38
662.431	4.4
662.76	4.45
663.089	4.43
663.418	4.54
663.747	4.61
664.076	4.61
664.404	4.52
664.733	4.55
665.062	4.54
665.39	4.46
665.719	4.51
666.048	4.53
666.376	4.59
666.705	4.57
667.033	4.56
667.362	4.56
667.69	4.59
668.018	4.58
668.347	4.64
668.675	4.61
669.003	4.56
669.331	4.52
669.659	4.37
669.987	4.4
670.315	4.3
670.643	4.22
670.971	4.24
671.299	4.25
671.627	4.2
671.955	4.25
672.283	4.34
672.61	4.42
672.938	4.37
673.266	4.32
673.593	4.25
673.921	4.31
674.249	4.24
674.576	4.32
674.904	4.33
675.231	4.41
675.558	4.42
675.886	4.47
676.213	4.47
