Data from MVZ_BU136690_Reflection_00003.txt Node
Date: Tue Nov 19 12:07:52 EST 2019
User: vgr7
Spectrometer: USB2G7710
Scans to average: 3
Trigger mode: 4
Integration Time (sec): 2.000000E-2
Electric dark correction enabled: true
Boxcar width: 10
XAxis mode: Wavelengths
Number of Pixels in Spectrum: 2048
>>>>>Begin Spectral Data<<<<<
177.721	134.09
178.105	34.31
178.488	163.56
178.871	-88.57
179.254	-350
179.636	-57.11
180.019	313.3
180.402	140.91
180.785	-821.43
181.168	-75.23
181.55	8.46
181.933	27.13
182.316	33.98
182.698	5.58
183.081	-13.37
183.463	-51.12
183.846	55.28
184.228	140.76
184.611	-209.78
184.993	-90.38
185.376	118.29
185.758	75.27
186.14	-135.71
186.522	-370.93
186.904	-481.25
187.287	-384.76
187.669	-137.8
188.051	-311.59
188.433	-622.56
188.815	-999.14
189.197	-372.4
189.579	-142.33
189.961	-90.23
190.342	-81.85
190.724	-85.43
191.106	-82.05
191.488	-84.49
191.869	-45.81
192.251	-45.36
192.633	-62.02
193.014	-72.19
193.396	-110.37
193.777	-116.45
194.159	-83.58
194.54	-69.88
194.922	-58.18
195.303	-64.55
195.684	-61.52
196.065	-36.46
196.447	-2.32
196.828	-9.78
197.209	-12.33
197.59	-45.46
197.971	-23.51
198.352	-23.12
198.733	-23.57
199.114	-36.8
199.495	-80.08
199.876	-125.59
200.257	-155.12
200.638	-122.3
201.018	-81.88
201.399	-26.33
201.78	-27.51
202.16	-51.63
202.541	-74.74
202.922	-124.73
203.302	-107.56
203.683	-205.17
204.063	-153.45
204.444	-207.58
204.824	-363.04
205.204	-93.21
205.585	-0.22
205.965	-6.28
206.345	53.79
206.725	30.04
207.106	48.99
207.486	63.18
207.866	57.93
208.246	97.96
208.626	155.02
209.006	226.69
209.386	132.45
209.766	255.77
210.145	141.94
210.525	154.26
210.905	64.97
211.285	55.78
211.664	52.05
212.044	45.18
212.424	46.28
212.803	65.53
213.183	46.18
213.562	12.87
213.942	-8.68
214.321	-41.74
214.701	-53.04
215.08	-84.66
215.459	-99.49
215.838	-79.67
216.218	-91.98
216.597	-89.84
216.976	-120.71
217.355	-145.62
217.734	-190.36
218.113	-178.26
218.492	-165.65
218.871	-142.62
219.25	-133.35
219.629	-160.18
220.008	-159.33
220.387	-164.64
220.766	-121.67
221.144	-141.75
221.523	-142.14
221.902	-127.01
222.28	-77.73
222.659	-18.52
223.037	-20.24
223.416	1.67
223.794	1.65
224.173	-10.06
224.551	-5.44
224.929	-4.34
225.308	9.45
225.686	6.35
226.064	3.54
226.442	15.6
226.821	18.62
227.199	16.4
227.577	16.96
227.955	16.13
228.333	11.44
228.711	8.19
229.089	7.83
229.467	8.62
229.845	7.87
230.222	4.81
230.6	-1.46
230.978	4.81
231.356	-1.87
231.733	-1.28
232.111	-0.85
232.488	-1.9
232.866	0.43
233.243	-1.43
233.621	1.35
233.998	0.95
234.376	-2.3
234.753	-3.58
235.13	-4
235.508	-5.02
235.885	-5.57
236.262	-3.27
236.639	-3.18
237.016	-3.78
237.393	-3.48
237.77	-2.72
238.147	-1.6
238.524	-0.24
238.901	-1.24
239.278	-0.92
239.655	-0.59
240.032	0.26
240.409	0.68
240.785	0.98
241.162	1.79
241.539	1.23
241.915	1.3
242.292	2.31
242.668	2.2
243.045	2.06
243.421	2.89
243.798	2.81
244.174	2.89
244.551	3.15
244.927	3.22
245.303	3.44
245.679	3.29
246.056	3.24
246.432	3.02
246.808	3.39
247.184	3.65
247.56	3.6
247.936	3.73
248.312	3.61
248.688	3.47
249.064	3.42
249.44	3.21
249.815	3.49
250.191	3.24
250.567	3.39
250.943	3.59
251.318	3.25
251.694	3.22
252.069	3.13
252.445	2.87
252.82	3.13
253.196	3
253.571	3.32
253.947	3.27
254.322	3.58
254.697	3.27
255.073	3.54
255.448	3.53
255.823	3.53
256.198	3.7
256.573	3.81
256.948	3.68
257.323	3.77
257.698	3.63
258.073	3.61
258.448	3.54
258.823	3.3
259.198	3.41
259.573	3.43
259.948	3.72
260.322	3.75
260.697	3.72
261.072	3.67
261.446	3.55
261.821	3.63
262.195	3.47
262.57	3.6
262.944	3.53
263.319	3.53
263.693	3.46
264.067	3.44
264.442	3.35
264.816	3.29
265.19	3.62
265.564	3.52
265.938	3.62
266.313	3.32
266.687	3.31
267.061	3.26
267.435	3.31
267.809	3.06
268.183	2.95
268.556	3.01
268.93	3.11
269.304	3.1
269.678	3.16
270.051	3.26
270.425	3.07
270.799	2.8
271.172	2.79
271.546	2.86
271.919	2.89
272.293	2.91
272.666	2.99
273.04	2.74
273.413	2.64
273.787	2.46
274.16	2.45
274.533	2.54
274.906	2.5
275.279	2.31
275.653	2.36
276.026	2.3
276.399	2.14
276.772	2.14
277.145	2.27
277.518	2.06
277.891	1.93
278.263	2
278.636	2.28
279.009	2.24
279.382	2.03
279.755	1.99
280.127	2
280.5	1.72
280.872	1.85
281.245	1.92
281.617	2.11
281.99	2.33
282.362	2.36
282.735	2.41
283.107	2.48
283.479	2.57
283.852	2.7
284.224	2.72
284.596	2.68
284.968	2.62
285.34	2.63
285.713	2.72
286.085	2.65
286.457	2.6
286.829	2.65
287.201	2.58
287.572	2.67
287.944	2.73
288.316	2.91
288.688	2.87
289.06	2.97
289.431	2.95
289.803	2.99
290.175	3.02
290.546	2.97
290.918	3.06
291.289	2.82
291.661	2.77
292.032	2.76
292.403	2.83
292.775	2.95
293.146	3.01
293.517	2.96
293.889	3.12
294.26	3.13
294.631	3.21
295.002	3.4
295.373	3.18
295.744	3.29
296.115	3.37
296.486	3.42
296.857	3.38
297.228	3.4
297.599	3.35
297.97	3.4
298.34	3.47
298.711	3.58
299.082	3.74
299.452	3.77
299.823	3.77
300.194	3.67
300.564	3.53
300.935	3.48
301.305	3.48
301.676	3.32
302.046	3.31
302.416	3.09
302.787	3.01
303.157	3.18
303.527	3.05
303.897	3.01
304.267	2.91
304.637	2.97
305.008	2.98
305.378	2.9
305.748	2.82
306.117	2.71
306.487	2.54
306.857	2.36
307.227	2.42
307.597	2.39
307.967	2.39
308.336	2.47
308.706	2.62
309.076	2.79
309.445	2.82
309.815	2.84
310.184	2.97
310.554	3.03
310.923	2.97
311.293	2.92
311.662	2.92
312.031	3.05
312.401	2.97
312.77	2.84
313.139	2.94
313.508	2.9
313.877	2.78
314.246	2.77
314.616	2.91
314.985	2.87
315.353	2.91
315.722	2.92
316.091	2.83
316.46	2.77
316.829	2.58
317.198	2.58
317.567	2.68
317.935	2.7
318.304	2.76
318.672	2.77
319.041	2.79
319.41	2.77
319.778	2.64
320.147	2.61
320.515	2.8
320.883	2.84
321.252	2.92
321.62	3.07
321.988	3.07
322.357	3.02
322.725	2.89
323.093	2.8
323.461	2.92
323.829	2.85
324.197	2.83
324.565	2.91
324.933	2.93
325.301	2.77
325.669	2.67
326.037	2.58
326.405	2.53
326.772	2.51
327.14	2.55
327.508	2.54
327.875	2.58
328.243	2.45
328.61	2.37
328.978	2.26
329.346	2.18
329.713	2.44
330.08	2.38
330.448	2.57
330.815	2.48
331.182	2.28
331.55	2.3
331.917	2.28
332.284	2.24
332.651	2.29
333.018	2.32
333.385	2.49
333.752	2.47
334.119	2.54
334.486	2.43
334.853	2.43
335.22	2.4
335.587	2.26
335.954	2.34
336.32	2.44
336.687	2.59
337.054	2.6
337.42	2.32
337.787	2.4
338.153	2.34
338.52	2.46
338.886	2.63
339.253	2.62
339.619	2.68
339.986	2.69
340.352	2.64
340.718	2.79
341.084	2.7
341.451	2.7
341.817	2.67
342.183	2.75
342.549	2.71
342.915	2.75
343.281	2.83
343.647	2.89
344.013	2.79
344.379	2.69
344.745	2.72
345.11	2.85
345.476	2.83
345.842	2.83
346.208	2.89
346.573	2.81
346.939	2.86
347.304	2.76
347.67	2.65
348.035	2.59
348.401	2.45
348.766	2.44
349.132	2.43
349.497	2.5
349.862	2.58
350.228	2.52
350.593	2.49
350.958	2.54
351.323	2.38
351.688	2.34
352.053	2.39
352.418	2.49
352.783	2.48
353.148	2.47
353.513	2.43
353.878	2.31
354.243	2.24
354.608	2.16
354.972	2.21
355.337	2.27
355.702	2.31
356.066	2.26
356.431	2.27
356.795	2.31
357.16	2.36
357.524	2.35
357.889	2.42
358.253	2.43
358.618	2.41
358.982	2.48
359.346	2.49
359.71	2.44
360.075	2.4
360.439	2.42
360.803	2.43
361.167	2.47
361.531	2.58
361.895	2.67
362.259	2.71
362.623	2.72
362.987	2.74
363.351	2.81
363.714	2.87
364.078	2.9
364.442	2.86
364.806	2.75
365.169	2.76
365.533	2.81
365.896	2.82
366.26	2.76
366.623	2.72
366.987	2.73
367.35	2.8
367.714	2.82
368.077	2.85
368.44	2.81
368.803	2.79
369.167	2.68
369.53	2.63
369.893	2.58
370.256	2.56
370.619	2.6
370.982	2.45
371.345	2.48
371.708	2.44
372.071	2.45
372.434	2.44
372.797	2.51
373.159	2.4
373.522	2.36
373.885	2.41
374.247	2.46
374.61	2.5
374.973	2.49
375.335	2.47
375.698	2.46
376.06	2.5
376.423	2.47
376.785	2.5
377.147	2.52
377.51	2.54
377.872	2.53
378.234	2.52
378.596	2.61
378.958	2.59
379.321	2.58
379.683	2.64
380.045	2.68
380.407	2.64
380.769	2.62
381.13	2.61
381.492	2.6
381.854	2.56
382.216	2.54
382.578	2.55
382.939	2.58
383.301	2.55
383.663	2.56
384.024	2.59
384.386	2.61
384.747	2.6
385.109	2.66
385.47	2.68
385.832	2.67
386.193	2.71
386.554	2.65
386.916	2.66
387.277	2.6
387.638	2.61
387.999	2.6
388.36	2.62
388.721	2.67
389.082	2.69
389.443	2.69
389.804	2.75
390.165	2.71
390.526	2.71
390.887	2.71
391.248	2.71
391.609	2.75
391.969	2.77
392.33	2.78
392.691	2.75
393.051	2.72
393.412	2.75
393.772	2.74
394.133	2.76
394.493	2.72
394.854	2.73
395.214	2.71
395.574	2.7
395.935	2.74
396.295	2.75
396.655	2.77
397.015	2.8
397.376	2.76
397.736	2.78
398.096	2.75
398.456	2.7
398.816	2.73
399.176	2.65
399.535	2.63
399.895	2.63
400.255	2.68
400.615	2.71
400.975	2.68
401.334	2.63
401.694	2.65
402.054	2.71
402.413	2.75
402.773	2.79
403.132	2.78
403.492	2.75
403.851	2.77
404.211	2.74
404.57	2.76
404.929	2.75
405.288	2.76
405.648	2.74
406.007	2.82
406.366	2.84
406.725	2.86
407.084	2.87
407.443	2.9
407.802	2.87
408.161	2.88
408.52	2.89
408.879	2.93
409.238	2.95
409.596	2.92
409.955	2.87
410.314	2.85
410.673	2.85
411.031	2.86
411.39	2.85
411.748	2.86
412.107	2.82
412.465	2.81
412.824	2.8
413.182	2.83
413.54	2.82
413.899	2.77
414.257	2.78
414.615	2.78
414.974	2.79
415.332	2.83
415.69	2.83
416.048	2.84
416.406	2.82
416.764	2.8
417.122	2.8
417.48	2.83
417.838	2.86
418.195	2.87
418.553	2.87
418.911	2.86
419.269	2.87
419.626	2.86
419.984	2.88
420.342	2.88
420.699	2.89
421.057	2.87
421.414	2.9
421.772	2.9
422.129	2.89
422.486	2.89
422.844	2.86
423.201	2.86
423.558	2.85
423.915	2.86
424.273	2.87
424.63	2.88
424.987	2.88
425.344	2.88
425.701	2.87
426.058	2.88
426.415	2.91
426.772	2.9
427.128	2.93
427.485	2.91
427.842	2.9
428.199	2.89
428.555	2.91
428.912	2.88
429.269	2.89
429.625	2.89
429.982	2.92
430.338	2.94
430.695	2.94
431.051	2.94
431.407	2.95
431.764	2.94
432.12	2.95
432.476	2.96
432.832	2.96
433.189	2.96
433.545	2.96
433.901	2.91
434.257	2.91
434.613	2.91
434.969	2.93
435.325	2.96
435.681	2.95
436.036	2.94
436.392	2.96
436.748	2.96
437.104	2.95
437.459	2.93
437.815	2.93
438.171	2.93
438.526	2.92
438.882	2.92
439.237	2.91
439.593	2.91
439.948	2.9
440.304	2.88
440.659	2.88
441.014	2.89
441.369	2.92
441.725	2.94
442.08	2.93
442.435	2.93
442.79	2.92
443.145	2.94
443.5	2.94
443.855	2.94
444.21	2.95
444.565	2.96
444.92	2.96
445.275	2.96
445.629	2.95
445.984	2.98
446.339	2.96
446.693	2.98
447.048	2.97
447.403	2.96
447.757	2.97
448.112	2.98
448.466	2.98
448.82	2.96
449.175	2.95
449.529	2.97
449.883	2.96
450.238	2.98
450.592	2.98
450.946	2.98
451.3	2.98
451.654	2.98
452.008	2.99
452.362	3
452.716	3
453.07	3.02
453.424	2.99
453.778	2.99
454.132	3
454.486	3.01
454.839	3.04
455.193	3.04
455.547	3.03
455.9	3.03
456.254	3.04
456.607	3.04
456.961	3.03
457.314	3.02
457.668	3.02
458.021	3.01
458.375	3
458.728	3.02
459.081	3.03
459.434	3.04
459.787	3.05
460.141	3.05
460.494	3.08
460.847	3.07
461.2	3.08
461.553	3.08
461.906	3.07
462.259	3.04
462.611	3.06
462.964	3.07
463.317	3.08
463.67	3.09
464.022	3.09
464.375	3.1
464.728	3.11
465.08	3.1
465.433	3.1
465.785	3.12
466.138	3.09
466.49	3.09
466.843	3.08
467.195	3.04
467.547	3.04
467.899	3.01
468.252	3.05
468.604	3.04
468.956	3.02
469.308	3.02
469.66	3.05
470.012	3.03
470.364	3.01
470.716	2.98
471.068	2.98
471.42	3.01
471.772	2.98
472.123	2.97
472.475	2.98
472.827	2.99
473.178	3
473.53	3
473.882	2.99
474.233	2.99
474.585	3.02
474.936	3.02
475.288	3.02
475.639	3
475.99	3
476.342	3.01
476.693	3.03
477.044	3.03
477.395	3.02
477.746	3.03
478.097	3.07
478.448	3.06
478.8	3.04
479.15	3.05
479.501	3.07
479.852	3.07
480.203	3.08
480.554	3.08
480.905	3.09
481.255	3.1
481.606	3.11
481.957	3.11
482.307	3.12
482.658	3.12
483.009	3.13
483.359	3.15
483.709	3.16
484.06	3.15
484.41	3.16
484.761	3.17
485.111	3.17
485.461	3.16
485.811	3.17
486.162	3.18
486.512	3.2
486.862	3.21
487.212	3.21
487.562	3.2
487.912	3.21
488.262	3.21
488.612	3.2
488.961	3.2
489.311	3.2
489.661	3.19
490.011	3.2
490.36	3.19
490.71	3.18
491.06	3.17
491.409	3.17
491.759	3.17
492.108	3.17
492.458	3.17
492.807	3.19
493.157	3.19
493.506	3.18
493.855	3.17
494.204	3.15
494.554	3.14
494.903	3.16
495.252	3.15
495.601	3.15
495.95	3.16
496.299	3.15
496.648	3.15
496.997	3.17
497.346	3.2
497.695	3.22
498.043	3.24
498.392	3.24
498.741	3.26
499.09	3.27
499.438	3.28
499.787	3.28
500.135	3.27
500.484	3.26
500.832	3.24
501.181	3.25
501.529	3.27
501.878	3.29
502.226	3.28
502.574	3.29
502.923	3.29
503.271	3.27
503.619	3.3
503.967	3.32
504.315	3.31
504.663	3.28
505.011	3.28
505.359	3.26
505.707	3.25
506.055	3.25
506.403	3.23
506.751	3.21
507.098	3.22
507.446	3.24
507.794	3.23
508.141	3.24
508.489	3.25
508.837	3.25
509.184	3.26
509.531	3.27
509.879	3.27
510.226	3.25
510.574	3.26
510.921	3.26
511.268	3.26
511.616	3.29
511.963	3.29
512.31	3.29
512.657	3.29
513.004	3.29
513.351	3.31
513.698	3.31
514.045	3.32
514.392	3.3
514.739	3.29
515.086	3.32
515.432	3.36
515.779	3.34
516.126	3.34
516.473	3.34
516.819	3.34
517.166	3.37
517.512	3.39
517.859	3.41
518.205	3.37
518.552	3.38
518.898	3.36
519.245	3.37
519.591	3.38
519.937	3.41
520.283	3.42
520.629	3.4
520.976	3.41
521.322	3.42
521.668	3.43
522.014	3.44
522.36	3.44
522.706	3.44
523.052	3.45
523.398	3.45
523.743	3.45
524.089	3.44
524.435	3.43
524.781	3.44
525.126	3.43
525.472	3.45
525.817	3.45
526.163	3.44
526.509	3.43
526.854	3.42
527.199	3.41
527.545	3.42
527.89	3.41
528.235	3.41
528.581	3.41
528.926	3.42
529.271	3.41
529.616	3.41
529.961	3.41
530.306	3.41
530.651	3.41
530.996	3.42
531.341	3.43
531.686	3.44
532.031	3.43
532.376	3.43
532.721	3.42
533.065	3.42
533.41	3.42
533.755	3.44
534.099	3.44
534.444	3.45
534.788	3.43
535.133	3.44
535.477	3.45
535.822	3.44
536.166	3.45
536.51	3.45
536.855	3.46
537.199	3.44
537.543	3.43
537.887	3.43
538.231	3.42
538.576	3.41
538.92	3.42
539.264	3.44
539.608	3.43
539.951	3.43
540.295	3.44
540.639	3.43
540.983	3.42
541.327	3.43
541.671	3.44
542.014	3.47
542.358	3.46
542.701	3.47
543.045	3.48
543.389	3.48
543.732	3.48
544.075	3.48
544.419	3.49
544.762	3.5
545.105	3.52
545.449	3.53
545.792	3.54
546.135	3.52
546.478	3.53
546.821	3.54
547.165	3.55
547.508	3.55
547.851	3.58
548.194	3.57
548.536	3.56
548.879	3.52
549.222	3.5
549.565	3.51
549.908	3.5
550.25	3.48
550.593	3.49
550.936	3.49
551.278	3.48
551.621	3.47
551.963	3.49
552.306	3.46
552.648	3.43
552.991	3.44
553.333	3.45
553.675	3.44
554.017	3.41
554.36	3.39
554.702	3.39
555.044	3.36
555.386	3.37
555.728	3.38
556.07	3.4
556.412	3.39
556.754	3.37
557.096	3.37
557.438	3.33
557.78	3.33
558.121	3.33
558.463	3.33
558.805	3.37
559.147	3.37
559.488	3.36
559.83	3.36
560.171	3.29
560.513	3.28
560.854	3.29
561.196	3.35
561.537	3.37
561.878	3.38
562.22	3.43
562.561	3.46
562.902	3.47
563.243	3.47
563.584	3.5
563.925	3.52
564.266	3.54
564.607	3.57
564.948	3.59
565.289	3.59
565.63	3.56
565.971	3.53
566.312	3.52
566.653	3.54
566.993	3.56
567.334	3.63
567.675	3.64
568.015	3.59
568.356	3.57
568.696	3.56
569.037	3.56
569.377	3.56
569.718	3.55
570.058	3.56
570.398	3.57
570.739	3.53
571.079	3.55
571.419	3.55
571.759	3.52
572.099	3.5
572.439	3.48
572.779	3.52
573.119	3.52
573.459	3.5
573.799	3.48
574.139	3.46
574.479	3.45
574.819	3.44
575.158	3.49
575.498	3.5
575.838	3.48
576.177	3.49
576.517	3.47
576.856	3.45
577.196	3.46
577.535	3.46
577.875	3.44
578.214	3.43
578.553	3.41
578.893	3.48
579.232	3.47
579.571	3.49
579.91	3.47
580.25	3.49
580.589	3.52
580.928	3.54
581.267	3.54
581.606	3.56
581.945	3.53
582.283	3.54
582.622	3.51
582.961	3.55
583.3	3.57
583.639	3.59
583.977	3.61
584.316	3.59
584.654	3.59
584.993	3.58
585.332	3.54
585.67	3.56
586.008	3.51
586.347	3.55
586.685	3.52
587.024	3.55
587.362	3.51
587.7	3.51
588.038	3.6
588.376	3.64
588.715	3.6
589.053	3.62
589.391	3.61
589.729	3.63
590.067	3.63
590.404	3.62
590.742	3.62
591.08	3.63
591.418	3.65
591.756	3.63
592.093	3.68
592.431	3.68
592.769	3.65
593.106	3.68
593.444	3.64
593.781	3.68
594.119	3.67
594.456	3.7
594.793	3.66
595.131	3.54
595.468	3.58
595.805	3.6
596.143	3.63
596.48	3.64
596.817	3.59
597.154	3.62
597.491	3.6
597.828	3.57
598.165	3.51
598.502	3.49
598.839	3.5
599.176	3.48
599.512	3.5
599.849	3.53
600.186	3.51
600.523	3.55
600.859	3.52
601.196	3.51
601.532	3.51
601.869	3.53
602.205	3.6
602.542	3.54
602.878	3.54
603.215	3.52
603.551	3.51
603.887	3.5
604.223	3.49
604.56	3.5
604.896	3.54
605.232	3.58
605.568	3.6
605.904	3.61
606.24	3.63
606.576	3.61
606.912	3.6
607.248	3.65
607.583	3.66
607.919	3.65
608.255	3.63
608.591	3.62
608.926	3.61
609.262	3.61
609.597	3.62
609.933	3.6
610.268	3.62
610.604	3.61
610.939	3.66
611.275	3.67
611.61	3.62
611.945	3.56
612.281	3.55
612.616	3.56
612.951	3.54
613.286	3.5
613.621	3.51
613.956	3.54
614.291	3.47
614.626	3.45
614.961	3.49
615.296	3.57
615.631	3.59
615.966	3.58
616.3	3.6
616.635	3.6
616.97	3.62
617.304	3.56
617.639	3.58
617.973	3.53
618.308	3.52
618.642	3.58
618.977	3.6
619.311	3.65
619.646	3.61
619.98	3.63
620.314	3.67
620.648	3.69
620.983	3.66
621.317	3.68
621.651	3.7
621.985	3.7
622.319	3.69
622.653	3.69
622.987	3.72
623.321	3.64
623.655	3.67
623.988	3.66
624.322	3.68
624.656	3.66
624.99	3.71
625.323	3.71
625.657	3.74
625.99	3.77
626.324	3.74
626.657	3.75
626.991	3.76
627.324	3.76
627.658	3.78
627.991	3.84
628.324	3.86
628.657	3.89
628.991	3.87
629.324	3.82
629.657	3.83
629.99	3.87
630.323	3.92
630.656	3.84
630.989	3.84
631.322	3.85
631.655	3.85
631.987	3.83
632.32	3.87
632.653	3.84
632.986	3.86
633.318	3.86
633.651	3.84
633.984	3.83
634.316	3.83
634.649	3.78
634.981	3.75
635.313	3.71
635.646	3.68
635.978	3.71
636.31	3.71
636.643	3.69
636.975	3.65
637.307	3.7
637.639	3.72
637.971	3.71
638.303	3.7
638.635	3.73
638.967	3.7
639.299	3.58
639.631	3.57
639.963	3.55
640.295	3.62
640.626	3.59
640.958	3.61
641.29	3.65
641.621	3.63
641.953	3.55
642.285	3.56
642.616	3.55
642.948	3.57
643.279	3.58
643.61	3.59
643.942	3.64
644.273	3.58
644.604	3.55
644.936	3.57
645.267	3.6
645.598	3.61
645.929	3.64
646.26	3.67
646.591	3.71
646.922	3.74
647.253	3.67
647.584	3.76
647.915	3.74
648.245	3.67
648.576	3.65
648.907	3.68
649.238	3.63
649.568	3.57
649.899	3.53
650.229	3.5
650.56	3.44
650.89	3.48
651.221	3.46
651.551	3.53
651.882	3.53
652.212	3.54
652.542	3.57
652.872	3.6
653.203	3.63
653.533	3.57
653.863	3.56
654.193	3.5
654.523	3.41
654.853	3.45
655.183	3.5
655.513	3.59
655.843	3.59
656.172	3.65
656.502	3.73
656.832	3.75
657.162	3.74
657.491	3.85
657.821	3.82
658.15	3.88
658.48	3.9
658.809	3.92
659.139	3.91
659.468	3.9
659.798	3.91
660.127	3.97
660.456	3.96
660.785	3.92
661.115	3.96
661.444	4
661.773	4.01
662.102	3.97
662.431	3.97
662.76	3.94
663.089	4.01
663.418	3.95
663.747	3.92
664.076	3.97
664.404	3.93
664.733	3.92
665.062	3.88
665.39	3.8
665.719	3.79
666.048	3.81
666.376	3.8
666.705	3.74
667.033	3.7
667.362	3.73
667.69	3.79
668.018	3.81
668.347	3.81
668.675	3.83
669.003	3.84
669.331	3.85
669.659	3.9
669.987	3.78
670.315	3.84
670.643	3.85
670.971	3.85
671.299	3.82
671.627	3.79
671.955	3.78
672.283	3.75
672.61	3.65
672.938	3.68
673.266	3.64
673.593	3.68
673.921	3.69
674.249	3.66
674.576	3.6
674.904	3.5
675.231	3.47
675.558	3.41
675.886	3.44
676.213	3.39
676.54	3.46
676.867	3.56
