Data from MVZ_BU163024_Reflection_00006.txt Node
Date: Tue Nov 19 12:11:33 EST 2019
User: vgr7
Spectrometer: USB2G7710
Scans to average: 3
Trigger mode: 4
Integration Time (sec): 2.000000E-2
Electric dark correction enabled: true
Boxcar width: 10
XAxis mode: Wavelengths
Number of Pixels in Spectrum: 2048
>>>>>Begin Spectral Data<<<<<
177.721	-304.76
178.105	-42.54
178.488	-43.6
178.871	-49.46
179.254	48.48
179.636	-30.21
180.019	-212.21
180.402	23.08
180.785	-99.05
181.168	-17.23
181.55	21.85
181.933	37.42
182.316	15.18
182.698	38.42
183.081	24.65
183.463	15.76
183.846	8.46
184.228	-6.13
184.611	4.81
184.993	-5.49
185.376	-49.95
185.758	-116.44
186.14	-57.31
186.522	-70.96
186.904	-66.67
187.287	-22.5
187.669	-50.31
188.051	-18.76
188.433	-15.85
188.815	5.01
189.197	-11.6
189.579	-57.1
189.961	-66.67
190.342	-44.12
190.724	-63.99
191.106	-70.12
191.488	-60.52
191.869	-67.79
192.251	-142.17
192.633	-321.92
193.014	-259.94
193.396	-81.89
193.777	-53.8
194.159	-60.41
194.54	-90.98
194.922	-58.02
195.303	-117.17
195.684	-480.46
196.065	165.54
196.447	155.56
196.828	214.89
197.209	124.29
197.59	84.16
197.971	67.38
198.352	70.53
198.733	47.65
199.114	42.59
199.495	76.96
199.876	50.81
200.257	91.73
200.638	15.9
201.018	-51.92
201.399	-31.76
201.78	-25.27
202.16	-41.13
202.541	-88.58
202.922	-20.03
203.302	-52.66
203.683	586.67
204.063	193.94
204.444	408.08
204.824	447.62
205.204	-560.92
205.585	2980.95
205.965	-462.02
206.345	1060.32
206.725	-127.49
207.106	-20.02
207.486	-25.11
207.866	-7.84
208.246	4.8
208.626	6.54
209.006	20.31
209.386	15.05
209.766	2.87
210.145	13.57
210.525	29.77
210.905	25.62
211.285	25.2
211.664	43.46
212.044	37.52
212.424	42.71
212.803	29.58
213.183	36.72
213.562	48.55
213.942	46.24
214.321	44.89
214.701	50.93
215.08	54.13
215.459	56.53
215.838	57.79
216.218	53.24
216.597	46.96
216.976	46.42
217.355	44.12
217.734	40.49
218.113	45.73
218.492	29.53
218.871	16.36
219.25	24.64
219.629	23.91
220.008	33.92
220.387	28.42
220.766	52.71
221.144	38.12
221.523	37.22
221.902	40.58
222.28	48.86
222.659	50.4
223.037	45.26
223.416	37.39
223.794	38.29
224.173	33.3
224.551	32.69
224.929	23.89
225.308	29.6
225.686	24.8
226.064	17.14
226.442	23.24
226.821	21.53
227.199	21.54
227.577	15.03
227.955	10.1
228.333	12.42
228.711	7.86
229.089	3.39
229.467	0.71
229.845	-1.34
230.222	0.55
230.6	-1.51
230.978	0.34
231.356	-1.85
231.733	-5.7
232.111	-4.42
232.488	-4.83
232.866	-2.93
233.243	-4.17
233.621	-1.11
233.998	1.3
234.376	-2.62
234.753	0.08
235.13	-0.59
235.508	-0.75
235.885	2.87
236.262	0.92
236.639	2.13
237.016	3.26
237.393	3.47
237.77	3.95
238.147	3.77
238.524	3.28
238.901	2.19
239.278	2.5
239.655	3.16
240.032	3.49
240.409	3.71
240.785	3.75
241.162	4.11
241.539	3.75
241.915	4.09
242.292	4.54
242.668	4.05
243.045	3.86
243.421	4.28
243.798	3.75
244.174	3.86
244.551	4.07
244.927	4.04
245.303	3.72
245.679	3.92
246.056	3.77
246.432	4.1
246.808	4.5
247.184	4.54
247.56	4.48
247.936	4.49
248.312	4.47
248.688	4.29
249.064	4.31
249.44	4.21
249.815	3.97
250.191	4.15
250.567	3.91
250.943	3.81
251.318	3.58
251.694	3.67
252.069	3.88
252.445	3.57
252.82	3.79
253.196	4.13
253.571	3.96
253.947	4.2
254.322	3.95
254.697	3.94
255.073	4.43
255.448	4.44
255.823	4.45
256.198	4.27
256.573	4.41
256.948	4.53
257.323	4.59
257.698	4.54
258.073	4.38
258.448	4.59
258.823	4.47
259.198	4.37
259.573	4.28
259.948	4.44
260.322	4.43
260.697	4.54
261.072	4.69
261.446	4.66
261.821	4.51
262.195	4.46
262.57	4.28
262.944	4.01
263.319	4.06
263.693	4.12
264.067	4.2
264.442	4.17
264.816	3.9
265.19	3.72
265.564	3.56
265.938	3.57
266.313	3.38
266.687	3.72
267.061	3.8
267.435	3.76
267.809	3.26
268.183	3.17
268.556	2.7
268.93	2.34
269.304	2.44
269.678	2.48
270.051	2.58
270.425	2.69
270.799	2.68
271.172	2.52
271.546	2.51
271.919	2.56
272.293	2.77
272.666	2.85
273.04	2.94
273.413	3.01
273.787	2.99
274.16	3.03
274.533	3.03
274.906	3.06
275.279	3.03
275.653	3.21
276.026	3.35
276.399	3.42
276.772	3.62
277.145	3.56
277.518	3.55
277.891	3.54
278.263	3.61
278.636	3.79
279.009	3.93
279.382	3.8
279.755	3.73
280.127	3.31
280.5	3.41
280.872	3.45
281.245	3.47
281.617	3.6
281.99	3.64
282.362	3.61
282.735	3.48
283.107	3.51
283.479	3.53
283.852	3.52
284.224	3.63
284.596	3.53
284.968	3.44
285.34	3.46
285.713	3.52
286.085	3.41
286.457	3.33
286.829	3.32
287.201	3.36
287.572	3.38
287.944	3.76
288.316	3.64
288.688	3.67
289.06	3.74
289.431	3.72
289.803	3.79
290.175	3.68
290.546	3.81
290.918	3.83
291.289	3.76
291.661	3.76
292.032	3.75
292.403	3.78
292.775	3.93
293.146	3.93
293.517	3.96
293.889	4.03
294.26	4.1
294.631	4.2
295.002	4.29
295.373	4.36
295.744	4.18
296.115	4.33
296.486	4.29
296.857	4.29
297.228	4.37
297.599	4.22
297.97	4.25
298.34	4.27
298.711	4.33
299.082	4.39
299.452	4.37
299.823	4.36
300.194	4.46
300.564	4.44
300.935	4.38
301.305	4.29
301.676	4.09
302.046	3.95
302.416	3.88
302.787	3.76
303.157	3.69
303.527	3.77
303.897	3.66
304.267	3.67
304.637	3.66
305.008	3.49
305.378	3.6
305.748	3.75
306.117	3.87
306.487	3.89
306.857	3.98
307.227	3.91
307.597	4.02
307.967	3.82
308.336	3.81
308.706	3.9
309.076	3.91
309.445	4.13
309.815	4.26
310.184	4.16
310.554	4.26
310.923	4.27
311.293	4.01
311.662	4.08
312.031	4.04
312.401	4.03
312.77	4.13
313.139	4.25
313.508	4.19
313.877	3.95
314.246	3.74
314.616	3.7
314.985	3.68
315.353	3.61
315.722	3.76
316.091	3.77
316.46	3.87
316.829	3.78
317.198	3.77
317.567	3.86
317.935	3.78
318.304	3.66
318.672	3.59
319.041	3.99
319.41	3.98
319.778	4.06
320.147	4.1
320.515	4.05
320.883	3.83
321.252	3.75
321.62	3.91
321.988	4.02
322.357	3.9
322.725	4.04
323.093	4.03
323.461	4.07
323.829	4.13
324.197	4.13
324.565	4.23
324.933	4.23
325.301	3.92
325.669	4.15
326.037	4.23
326.405	4.33
326.772	4.18
327.14	4.16
327.508	4.06
327.875	3.99
328.243	3.94
328.61	4.1
328.978	4.2
329.346	4.13
329.713	4.31
330.08	4.39
330.448	4.37
330.815	4.37
331.182	4.24
331.55	4.16
331.917	4.04
332.284	4.01
332.651	3.97
333.018	4.11
333.385	4.09
333.752	4.13
334.119	4.1
334.486	3.99
334.853	3.86
335.22	3.81
335.587	3.89
335.954	4
336.32	3.84
336.687	3.9
337.054	3.96
337.42	3.78
337.787	3.64
338.153	3.72
338.52	3.86
338.886	3.97
339.253	3.92
339.619	3.85
339.986	3.9
340.352	4.06
340.718	4.21
341.084	4.15
341.451	4.13
341.817	4.17
342.183	4.3
342.549	4.46
342.915	4.6
343.281	4.52
343.647	4.42
344.013	4.56
344.379	4.51
344.745	4.53
345.11	4.61
345.476	4.75
345.842	4.76
346.208	4.56
346.573	4.48
346.939	4.49
347.304	4.66
347.67	4.73
348.035	4.47
348.401	4.38
348.766	4.33
349.132	4.32
349.497	4.21
349.862	4.18
350.228	4.1
350.593	4.11
350.958	4.22
351.323	4.23
351.688	4.21
352.053	4.29
352.418	4.29
352.783	4.13
353.148	4.09
353.513	4.13
353.878	4.2
354.243	4.15
354.608	4.28
354.972	4.11
355.337	3.91
355.702	3.99
356.066	3.99
356.431	4
356.795	4.02
357.16	4.07
357.524	4.05
357.889	4.04
358.253	4.05
358.618	4.06
358.982	4.09
359.346	4.17
359.71	4.14
360.075	4.12
360.439	4.22
360.803	4.33
361.167	4.26
361.531	4.26
361.895	4.34
362.259	4.3
362.623	4.36
362.987	4.46
363.351	4.47
363.714	4.47
364.078	4.47
364.442	4.45
364.806	4.46
365.169	4.44
365.533	4.44
365.896	4.47
366.26	4.44
366.623	4.41
366.987	4.27
367.35	4.31
367.714	4.29
368.077	4.3
368.44	4.21
368.803	4.15
369.167	4.08
369.53	4.03
369.893	4.09
370.256	4.08
370.619	4.05
370.982	4
371.345	3.98
371.708	4.02
372.071	3.98
372.434	3.97
372.797	4.03
373.159	3.99
373.522	3.94
373.885	3.88
374.247	3.88
374.61	3.91
374.973	3.84
375.335	3.83
375.698	3.78
376.06	3.77
376.423	3.81
376.785	3.88
377.147	3.88
377.51	3.79
377.872	3.8
378.234	3.79
378.596	3.83
378.958	3.83
379.321	3.77
379.683	3.82
380.045	3.78
380.407	3.78
380.769	3.78
381.13	3.74
381.492	3.77
381.854	3.78
382.216	3.78
382.578	3.81
382.939	3.79
383.301	3.77
383.663	3.75
384.024	3.74
384.386	3.74
384.747	3.68
385.109	3.69
385.47	3.65
385.832	3.66
386.193	3.67
386.554	3.62
386.916	3.61
387.277	3.56
387.638	3.58
387.999	3.56
388.36	3.52
388.721	3.56
389.082	3.56
389.443	3.56
389.804	3.56
390.165	3.56
390.526	3.58
390.887	3.61
391.248	3.64
391.609	3.66
391.969	3.64
392.33	3.67
392.691	3.7
393.051	3.71
393.412	3.73
393.772	3.74
394.133	3.76
394.493	3.82
394.854	3.85
395.214	3.85
395.574	3.83
395.935	3.85
396.295	3.85
396.655	3.84
397.015	3.83
397.376	3.83
397.736	3.78
398.096	3.81
398.456	3.78
398.816	3.73
399.176	3.69
399.535	3.69
399.895	3.7
400.255	3.71
400.615	3.72
400.975	3.7
401.334	3.67
401.694	3.71
402.054	3.7
402.413	3.68
402.773	3.68
403.132	3.69
403.492	3.69
403.851	3.69
404.211	3.71
404.57	3.75
404.929	3.74
405.288	3.76
405.648	3.72
406.007	3.76
406.366	3.81
406.725	3.85
407.084	3.83
407.443	3.85
407.802	3.81
408.161	3.8
408.52	3.82
408.879	3.86
409.238	3.83
409.596	3.81
409.955	3.8
410.314	3.81
410.673	3.8
411.031	3.79
411.39	3.78
411.748	3.75
412.107	3.72
412.465	3.75
412.824	3.73
413.182	3.75
413.54	3.77
413.899	3.75
414.257	3.72
414.615	3.71
414.974	3.7
415.332	3.71
415.69	3.71
416.048	3.7
416.406	3.66
416.764	3.64
417.122	3.67
417.48	3.68
417.838	3.68
418.195	3.69
418.553	3.7
418.911	3.71
419.269	3.73
419.626	3.72
419.984	3.73
420.342	3.74
420.699	3.71
421.057	3.68
421.414	3.67
421.772	3.68
422.129	3.67
422.486	3.66
422.844	3.66
423.201	3.67
423.558	3.65
423.915	3.67
424.273	3.68
424.63	3.66
424.987	3.66
425.344	3.66
425.701	3.65
426.058	3.66
426.415	3.63
426.772	3.61
427.128	3.61
427.485	3.59
427.842	3.58
428.199	3.59
428.555	3.61
428.912	3.6
429.269	3.59
429.625	3.63
429.982	3.64
430.338	3.63
430.695	3.59
431.051	3.6
431.407	3.58
431.764	3.57
432.12	3.58
432.476	3.58
432.832	3.56
433.189	3.57
433.545	3.56
433.901	3.57
434.257	3.6
434.613	3.59
434.969	3.59
435.325	3.57
435.681	3.56
436.036	3.53
436.392	3.53
436.748	3.53
437.104	3.48
437.459	3.47
437.815	3.49
438.171	3.48
438.526	3.46
438.882	3.46
439.237	3.45
439.593	3.47
439.948	3.45
440.304	3.44
440.659	3.43
441.014	3.44
441.369	3.44
441.725	3.42
442.08	3.41
442.435	3.42
442.79	3.42
443.145	3.42
443.5	3.43
443.855	3.43
444.21	3.44
444.565	3.46
444.92	3.47
445.275	3.46
445.629	3.47
445.984	3.48
446.339	3.5
446.693	3.51
447.048	3.48
447.403	3.5
447.757	3.49
448.112	3.49
448.466	3.47
448.82	3.47
449.175	3.48
449.529	3.5
449.883	3.49
450.238	3.48
450.592	3.47
450.946	3.48
451.3	3.49
451.654	3.47
452.008	3.46
452.362	3.43
452.716	3.43
453.07	3.45
453.424	3.45
453.778	3.42
454.132	3.4
454.486	3.41
454.839	3.4
455.193	3.41
455.547	3.43
455.9	3.43
456.254	3.42
456.607	3.42
456.961	3.41
457.314	3.43
457.668	3.45
458.021	3.45
458.375	3.45
458.728	3.43
459.081	3.44
459.434	3.42
459.787	3.46
460.141	3.46
460.494	3.46
460.847	3.46
461.2	3.48
461.553	3.5
461.906	3.49
462.259	3.48
462.611	3.49
462.964	3.47
463.317	3.48
463.67	3.5
464.022	3.52
464.375	3.5
464.728	3.49
465.08	3.48
465.433	3.46
465.785	3.47
466.138	3.51
466.49	3.53
466.843	3.59
467.195	3.57
467.547	3.57
467.899	3.56
468.252	3.58
468.604	3.58
468.956	3.59
469.308	3.58
469.66	3.6
470.012	3.63
470.364	3.64
470.716	3.64
471.068	3.62
471.42	3.61
471.772	3.62
472.123	3.65
472.475	3.69
472.827	3.71
473.178	3.73
473.53	3.7
473.882	3.73
474.233	3.71
474.585	3.72
474.936	3.73
475.288	3.76
475.639	3.76
475.99	3.74
476.342	3.74
476.693	3.78
477.044	3.77
477.395	3.74
477.746	3.74
478.097	3.74
478.448	3.75
478.8	3.73
479.15	3.73
479.501	3.72
479.852	3.71
480.203	3.7
480.554	3.69
480.905	3.69
481.255	3.67
481.606	3.68
481.957	3.69
482.307	3.67
482.658	3.67
483.009	3.67
483.359	3.69
483.709	3.69
484.06	3.69
484.41	3.7
484.761	3.72
485.111	3.72
485.461	3.72
485.811	3.72
486.162	3.72
486.512	3.73
486.862	3.73
487.212	3.72
487.562	3.71
487.912	3.71
488.262	3.71
488.612	3.71
488.961	3.71
489.311	3.69
489.661	3.7
490.011	3.7
490.36	3.7
490.71	3.68
491.06	3.67
491.409	3.66
491.759	3.64
492.108	3.63
492.458	3.62
492.807	3.62
493.157	3.63
493.506	3.64
493.855	3.64
494.204	3.65
494.554	3.67
494.903	3.69
495.252	3.71
495.601	3.73
495.95	3.73
496.299	3.74
496.648	3.77
496.997	3.78
497.346	3.78
497.695	3.79
498.043	3.81
498.392	3.83
498.741	3.85
499.09	3.88
499.438	3.89
499.787	3.91
500.135	3.89
500.484	3.92
500.832	3.91
501.181	3.91
501.529	3.92
501.878	3.93
502.226	3.95
502.574	3.96
502.923	3.96
503.271	3.98
503.619	4
503.967	3.99
504.315	4
504.663	4.01
505.011	4.02
505.359	4.02
505.707	4.03
506.055	4.05
506.403	4.08
506.751	4.1
507.098	4.13
507.446	4.14
507.794	4.14
508.141	4.18
508.489	4.2
508.837	4.19
509.184	4.19
509.531	4.19
509.879	4.19
510.226	4.22
510.574	4.23
510.921	4.25
511.268	4.29
511.616	4.31
511.963	4.35
512.31	4.37
512.657	4.39
513.004	4.39
513.351	4.39
513.698	4.4
514.045	4.4
514.392	4.41
514.739	4.43
515.086	4.47
515.432	4.49
515.779	4.47
516.126	4.52
516.473	4.54
516.819	4.55
517.166	4.56
517.512	4.56
517.859	4.57
518.205	4.53
518.552	4.53
518.898	4.54
519.245	4.53
519.591	4.55
519.937	4.53
520.283	4.57
520.629	4.57
520.976	4.59
521.322	4.6
521.668	4.59
522.014	4.58
522.36	4.58
522.706	4.57
523.052	4.62
523.398	4.6
523.743	4.6
524.089	4.64
524.435	4.64
524.781	4.64
525.126	4.65
525.472	4.67
525.817	4.68
526.163	4.69
526.509	4.7
526.854	4.71
527.199	4.72
527.545	4.72
527.89	4.74
528.235	4.75
528.581	4.75
528.926	4.75
529.271	4.75
529.616	4.77
529.961	4.77
530.306	4.77
530.651	4.78
530.996	4.79
531.341	4.79
531.686	4.81
532.031	4.82
532.376	4.82
532.721	4.83
533.065	4.82
533.41	4.83
533.755	4.83
534.099	4.82
534.444	4.83
534.788	4.84
535.133	4.84
535.477	4.84
535.822	4.84
536.166	4.86
536.51	4.88
536.855	4.86
537.199	4.87
537.543	4.86
537.887	4.87
538.231	4.88
538.576	4.87
538.92	4.86
539.264	4.86
539.608	4.86
539.951	4.86
540.295	4.86
540.639	4.87
540.983	4.88
541.327	4.89
541.671	4.89
542.014	4.9
542.358	4.89
542.701	4.89
543.045	4.9
543.389	4.9
543.732	4.88
544.075	4.9
544.419	4.9
544.762	4.91
545.105	4.9
545.449	4.91
545.792	4.91
546.135	4.92
546.478	4.91
546.821	4.96
547.165	4.97
547.508	4.98
547.851	4.97
548.194	4.96
548.536	4.96
548.879	4.94
549.222	4.92
549.565	4.93
549.908	4.94
550.25	4.94
550.593	4.93
550.936	4.96
551.278	4.93
551.621	4.95
551.963	4.95
552.306	4.96
552.648	4.97
552.991	4.96
553.333	4.96
553.675	4.96
554.017	4.93
554.36	4.92
554.702	4.94
555.044	4.95
555.386	4.93
555.728	4.94
556.07	4.97
556.412	4.96
556.754	4.96
557.096	4.96
557.438	4.99
557.78	4.99
558.121	4.98
558.463	4.96
558.805	4.96
559.147	4.99
559.488	4.96
559.83	4.95
560.171	5
560.513	5.02
560.854	5.03
561.196	5.07
561.537	5.06
561.878	5.07
562.22	5.08
562.561	5.08
562.902	5.07
563.243	5.09
563.584	5.09
563.925	5.12
564.266	5.12
564.607	5.09
564.948	5.1
565.289	5.14
565.63	5.14
565.971	5.13
566.312	5.09
566.653	5.13
566.993	5.1
567.334	5.11
567.675	5.09
568.015	5.09
568.356	5.07
568.696	5.1
569.037	5.1
569.377	5.09
569.718	5.11
570.058	5.13
570.398	5.12
570.739	5.13
571.079	5.11
571.419	5.09
571.759	5.12
572.099	5.14
572.439	5.14
572.779	5.18
573.119	5.2
573.459	5.22
573.799	5.22
574.139	5.24
574.479	5.24
574.819	5.25
575.158	5.24
575.498	5.25
575.838	5.26
576.177	5.25
576.517	5.27
576.856	5.27
577.196	5.29
577.535	5.31
577.875	5.31
578.214	5.34
578.553	5.37
578.893	5.35
579.232	5.36
579.571	5.34
579.91	5.3
580.25	5.3
580.589	5.3
580.928	5.31
581.267	5.34
581.606	5.32
581.945	5.3
582.283	5.31
582.622	5.3
582.961	5.28
583.3	5.25
583.639	5.28
583.977	5.29
584.316	5.26
584.654	5.26
584.993	5.24
585.332	5.24
585.67	5.2
586.008	5.2
586.347	5.18
586.685	5.17
587.024	5.22
587.362	5.24
587.7	5.31
588.038	5.35
588.376	5.33
588.715	5.32
589.053	5.35
589.391	5.33
589.729	5.35
590.067	5.35
590.404	5.36
590.742	5.35
591.08	5.37
591.418	5.36
591.756	5.37
592.093	5.4
592.431	5.42
592.769	5.44
593.106	5.44
593.444	5.45
593.781	5.48
594.119	5.48
594.456	5.49
594.793	5.45
595.131	5.41
595.468	5.43
595.805	5.43
596.143	5.42
596.48	5.43
596.817	5.41
597.154	5.39
597.491	5.4
597.828	5.38
598.165	5.36
598.502	5.39
598.839	5.39
599.176	5.33
599.512	5.33
599.849	5.38
600.186	5.39
600.523	5.33
600.859	5.37
601.196	5.35
601.532	5.33
601.869	5.33
602.205	5.32
602.542	5.34
602.878	5.39
603.215	5.4
603.551	5.42
603.887	5.41
604.223	5.43
604.56	5.42
604.896	5.43
605.232	5.45
605.568	5.41
605.904	5.4
606.24	5.43
606.576	5.41
606.912	5.38
607.248	5.38
607.583	5.43
607.919	5.36
608.255	5.36
608.591	5.38
608.926	5.41
609.262	5.42
609.597	5.41
609.933	5.38
610.268	5.35
610.604	5.38
610.939	5.41
611.275	5.4
611.61	5.39
611.945	5.37
612.281	5.37
612.616	5.41
612.951	5.45
613.286	5.41
613.621	5.38
613.956	5.41
614.291	5.42
614.626	5.45
614.961	5.55
615.296	5.6
615.631	5.58
615.966	5.55
616.3	5.57
616.635	5.55
616.97	5.5
617.304	5.53
617.639	5.51
617.973	5.48
618.308	5.5
618.642	5.52
618.977	5.55
619.311	5.53
619.646	5.54
619.98	5.52
620.314	5.59
620.648	5.63
620.983	5.58
621.317	5.6
621.651	5.57
621.985	5.56
622.319	5.55
622.653	5.55
622.987	5.57
623.321	5.55
623.655	5.57
623.988	5.64
624.322	5.66
624.656	5.64
624.99	5.64
625.323	5.65
625.657	5.74
625.99	5.75
626.324	5.79
626.657	5.77
626.991	5.8
627.324	5.77
627.658	5.75
627.991	5.8
628.324	5.79
628.657	5.8
628.991	5.8
629.324	5.74
629.657	5.74
629.99	5.74
630.323	5.77
630.656	5.73
630.989	5.75
631.322	5.78
631.655	5.81
631.987	5.81
632.32	5.84
632.653	5.74
632.986	5.76
633.318	5.75
633.651	5.78
633.984	5.82
634.316	5.83
634.649	5.95
634.981	5.96
635.313	5.98
635.646	6
635.978	5.97
636.31	6.06
636.643	6.07
636.975	6.05
637.307	6.07
637.639	6.11
637.971	6.17
638.303	6.18
638.635	6.18
638.967	6.23
639.299	6.18
639.631	6.24
639.963	6.21
640.295	6.21
640.626	6.2
640.958	6.14
641.29	6.16
641.621	6.07
641.953	6.04
642.285	6.08
642.616	6.14
642.948	6.12
643.279	6.01
643.61	6.01
643.942	5.97
644.273	6.04
644.604	6.01
644.936	5.96
645.267	5.87
645.598	5.87
645.929	5.82
646.26	5.81
646.591	5.82
646.922	5.94
647.253	5.9
647.584	5.89
647.915	5.84
648.245	5.84
648.576	5.79
648.907	5.82
649.238	5.72
649.568	5.7
649.899	5.72
650.229	5.77
650.56	5.78
650.89	5.88
651.221	5.79
651.551	5.89
651.882	5.87
652.212	5.97
652.542	6.08
652.872	6.14
653.203	6.24
653.533	6.3
653.863	6.21
654.193	6.24
654.523	6.22
654.853	6.29
655.183	6.35
655.513	6.41
655.843	6.41
656.172	6.54
656.502	6.47
656.832	6.56
657.162	6.56
657.491	6.54
657.821	6.51
658.15	6.56
658.48	6.53
658.809	6.57
659.139	6.6
659.468	6.49
659.798	6.54
660.127	6.49
660.456	6.39
660.785	6.41
661.115	6.46
661.444	6.56
661.773	6.62
662.102	6.56
662.431	6.64
662.76	6.6
663.089	6.54
663.418	6.57
663.747	6.49
664.076	6.54
664.404	6.66
664.733	6.58
665.062	6.59
665.39	6.51
665.719	6.55
666.048	6.46
666.376	6.41
666.705	6.32
667.033	6.34
667.362	6.39
667.69	6.35
668.018	6.34
668.347	6.27
668.675	6.27
669.003	6.28
669.331	6.23
669.659	6.26
669.987	6.28
670.315	6.37
670.643	6.38
670.971	6.35
671.299	6.19
671.627	6.28
671.955	6.21
672.283	6.18
672.61	6.08
672.938	6.16
673.266	6.3
673.593	6.25
673.921	6.22
674.249	6.3
674.576	6.37
674.904	6.31
675.231	6.32
675.558	6.41
675.886	6.41
676.213	6.33
676.54	6.36
676.867	6.35
677.195	6.41
677.522	6.46
677.849	6.49
678.176	6.51
