Data from MVZ_BU163024_Reflection_00010.txt Node
Date: Tue Nov 19 12:11:41 EST 2019
User: vgr7
Spectrometer: USB2G7710
Scans to average: 3
Trigger mode: 4
Integration Time (sec): 2.000000E-2
Electric dark correction enabled: true
Boxcar width: 10
XAxis mode: Wavelengths
Number of Pixels in Spectrum: 2048
>>>>>Begin Spectral Data<<<<<
177.721	-845.05
178.105	-163.16
178.488	-131.5
178.871	-109.68
179.254	-154.55
179.636	443.75
180.019	170.42
180.402	123.08
180.785	-65.71
181.168	-44.07
181.55	0.41
181.933	13.04
182.316	25.27
182.698	-18.86
183.081	-26.95
183.463	-34.49
183.846	-46.61
184.228	-40.44
184.611	-67.73
184.993	-60
185.376	-106.9
185.758	-162.44
186.14	-128.07
186.522	-148.93
186.904	-104.08
187.287	-67.19
187.669	-111.32
188.051	-92.66
188.433	-73.13
188.815	-87.71
189.197	-56.34
189.579	-148.8
189.961	-97.03
190.342	-160.87
190.724	-136.95
191.106	-169.43
191.488	-199.54
191.869	-139.06
192.251	-159.67
192.633	-179.28
193.014	-135.29
193.396	-41.55
193.777	-19.69
194.159	-34.05
194.54	-21.58
194.922	-41.21
195.303	-124.24
195.684	-451.72
196.065	144.94
196.447	75.61
196.828	129.13
197.209	100
197.59	77.19
197.971	89.32
198.352	74.28
198.733	25.07
199.114	33.11
199.495	22.83
199.876	28.37
200.257	199.29
200.638	301.83
201.018	285.84
201.399	293.72
201.78	485.62
202.16	308.51
202.541	344.13
202.922	348.7
203.302	494.96
203.683	-2380
204.063	-1027.27
204.444	-2112.12
204.824	-2100
205.204	2686.21
205.585	-10614.29
205.965	1774.42
206.345	-3757.14
206.725	610.95
207.106	257.43
207.486	227.27
207.866	181.14
208.246	144.41
208.626	146.59
209.006	142.14
209.386	117.64
209.766	97.85
210.145	70.65
210.525	72.82
210.905	72.77
211.285	65.87
211.664	61.33
212.044	57.76
212.424	44.96
212.803	34.55
213.183	42.25
213.562	42.56
213.942	33.27
214.321	39.06
214.701	47.56
215.08	40.53
215.459	53.97
215.838	47.9
216.218	34.6
216.597	38.16
216.976	49.92
217.355	59
217.734	54.92
218.113	65.25
218.492	66.12
218.871	61.96
219.25	77.91
219.629	73.14
220.008	79.13
220.387	89.15
220.766	77.24
221.144	56.11
221.523	53.07
221.902	76.83
222.28	77.64
222.659	71.61
223.037	82.16
223.416	77.78
223.794	83.59
224.173	85.22
224.551	83.72
224.929	72.3
225.308	64.44
225.686	68.31
226.064	60.64
226.442	60.92
226.821	53.95
227.199	51.19
227.577	44.35
227.955	40.99
228.333	40.81
228.711	42.52
229.089	45.2
229.467	41.39
229.845	32.34
230.222	29.24
230.6	24.01
230.978	19.23
231.356	18.84
231.733	18.93
232.111	18.55
232.488	17.78
232.866	15.65
233.243	15.55
233.621	13.55
233.998	15.19
234.376	11.6
234.753	9.5
235.13	6.35
235.508	7.53
235.885	5.79
236.262	2.89
236.639	2.16
237.016	0.88
237.393	1.73
237.77	4.84
238.147	3.79
238.524	5.05
238.901	5.19
239.278	4.45
239.655	3.8
240.032	4
240.409	4.48
240.785	4.9
241.162	5
241.539	4.71
241.915	4.88
242.292	5.67
242.668	5.98
243.045	6.87
243.421	6.91
243.798	7.18
244.174	7.39
244.551	6.96
244.927	6.81
245.303	6.61
245.679	5.96
246.056	6
246.432	5.76
246.808	5.76
247.184	5.6
247.56	5.72
247.936	5.81
248.312	5.6
248.688	5.34
249.064	5.34
249.44	5.64
249.815	5.61
250.191	5.54
250.567	5.25
250.943	5.15
251.318	5.01
251.694	4.88
252.069	4.94
252.445	5.38
252.82	5.78
253.196	5.77
253.571	6.21
253.947	6.26
254.322	6.31
254.697	6.04
255.073	6.32
255.448	6.25
255.823	5.94
256.198	5.59
256.573	5.76
256.948	5.8
257.323	5.69
257.698	5.47
258.073	5.16
258.448	5.29
258.823	4.93
259.198	4.98
259.573	4.83
259.948	4.73
260.322	4.71
260.697	4.52
261.072	4.47
261.446	4.38
261.821	4.34
262.195	4.45
262.57	4.59
262.944	4.49
263.319	4.27
263.693	4.35
264.067	4.53
264.442	4.43
264.816	4.11
265.19	4.07
265.564	3.82
265.938	3.86
266.313	3.84
266.687	3.97
267.061	3.84
267.435	4.12
267.809	4.07
268.183	3.82
268.556	3.68
268.93	3.77
269.304	3.77
269.678	3.92
270.051	3.71
270.425	3.71
270.799	3.54
271.172	3.81
271.546	3.91
271.919	3.82
272.293	4
272.666	4.11
273.04	4.05
273.413	4.22
273.787	4.3
274.16	4.18
274.533	4.23
274.906	4.39
275.279	4.23
275.653	4.19
276.026	4.28
276.399	4.22
276.772	4.04
277.145	4.04
277.518	3.91
277.891	4.12
278.263	4.23
278.636	4.57
279.009	4.44
279.382	4.22
279.755	4.18
280.127	3.89
280.5	3.88
280.872	3.89
281.245	3.93
281.617	4.08
281.99	4.21
282.362	4.16
282.735	4.03
283.107	4.01
283.479	4.17
283.852	4.23
284.224	4.36
284.596	4.55
284.968	4.44
285.34	4.51
285.713	4.53
286.085	4.35
286.457	4.34
286.829	4.36
287.201	4.45
287.572	4.6
287.944	4.79
288.316	4.83
288.688	4.81
289.06	4.78
289.431	4.85
289.803	4.78
290.175	4.76
290.546	4.72
290.918	4.76
291.289	4.73
291.661	4.65
292.032	4.65
292.403	4.46
292.775	4.46
293.146	4.46
293.517	4.34
293.889	4.48
294.26	4.37
294.631	4.36
295.002	4.37
295.373	4.34
295.744	4.26
296.115	4.3
296.486	4.35
296.857	4.53
297.228	4.39
297.599	4.43
297.97	4.53
298.34	4.66
298.711	4.71
299.082	4.7
299.452	4.86
299.823	4.99
300.194	5.26
300.564	5.23
300.935	5.32
301.305	5.35
301.676	5.14
302.046	5.21
302.416	5.15
302.787	5.27
303.157	5.38
303.527	5.67
303.897	5.5
304.267	5.54
304.637	5.53
305.008	5.71
305.378	5.75
305.748	5.72
306.117	5.57
306.487	5.65
306.857	5.63
307.227	5.51
307.597	5.47
307.967	5.22
308.336	5.27
308.706	5.16
309.076	5.39
309.445	5.71
309.815	5.6
310.184	5.62
310.554	5.36
310.923	5.17
311.293	4.92
311.662	5.11
312.031	5.1
312.401	5.02
312.77	4.77
313.139	4.75
313.508	4.74
313.877	4.84
314.246	4.84
314.616	4.84
314.985	4.85
315.353	4.78
315.722	5
316.091	5.15
316.46	5.05
316.829	4.8
317.198	4.62
317.567	4.81
317.935	4.94
318.304	5.19
318.672	5.32
319.041	5.55
319.41	5.58
319.778	5.56
320.147	5.55
320.515	5.73
320.883	5.92
321.252	6
321.62	5.84
321.988	5.78
322.357	5.9
322.725	5.95
323.093	5.99
323.461	6
323.829	5.83
324.197	6.1
324.565	6.18
324.933	6.31
325.301	6.14
325.669	5.99
326.037	6.08
326.405	6.07
326.772	5.94
327.14	5.9
327.508	5.95
327.875	5.97
328.243	5.96
328.61	5.9
328.978	5.88
329.346	6.01
329.713	6.05
330.08	6.04
330.448	6.07
330.815	6.18
331.182	6.13
331.55	6.25
331.917	6.17
332.284	6.25
332.651	6.23
333.018	6.34
333.385	6.53
333.752	6.52
334.119	6.66
334.486	6.67
334.853	6.58
335.22	6.64
335.587	6.68
335.954	6.69
336.32	6.78
336.687	6.84
337.054	7.04
337.42	7.14
337.787	7.09
338.153	7.19
338.52	7.03
338.886	7.05
339.253	7.14
339.619	7.25
339.986	7.17
340.352	7.03
340.718	7.04
341.084	7.08
341.451	7.08
341.817	7.15
342.183	7.27
342.549	7.43
342.915	7.54
343.281	7.59
343.647	7.65
344.013	7.64
344.379	7.69
344.745	7.72
345.11	7.68
345.476	7.75
345.842	7.68
346.208	7.87
346.573	7.83
346.939	7.84
347.304	7.79
347.67	7.85
348.035	7.91
348.401	7.98
348.766	7.89
349.132	7.79
349.497	7.71
349.862	7.62
350.228	7.57
350.593	7.37
350.958	7.4
351.323	7.42
351.688	7.44
352.053	7.45
352.418	7.34
352.783	7.35
353.148	7.38
353.513	7.29
353.878	7.11
354.243	7.09
354.608	7.03
354.972	7.02
355.337	6.99
355.702	7.05
356.066	6.99
356.431	7.04
356.795	7.04
357.16	7.05
357.524	6.99
357.889	6.96
358.253	7.08
358.618	7
358.982	6.9
359.346	6.81
359.71	6.74
360.075	6.74
360.439	6.74
360.803	6.69
361.167	6.73
361.531	6.77
361.895	6.79
362.259	6.8
362.623	6.82
362.987	6.84
363.351	6.8
363.714	6.86
364.078	6.84
364.442	6.8
364.806	6.8
365.169	6.86
365.533	6.96
365.896	6.9
366.26	6.88
366.623	6.91
366.987	6.98
367.35	7.05
367.714	7.07
368.077	7.06
368.44	7.12
368.803	7.08
369.167	7.08
369.53	7.01
369.893	6.95
370.256	6.88
370.619	6.77
370.982	6.71
371.345	6.69
371.708	6.64
372.071	6.63
372.434	6.56
372.797	6.54
373.159	6.48
373.522	6.38
373.885	6.38
374.247	6.36
374.61	6.3
374.973	6.15
375.335	6.14
375.698	6.04
376.06	5.96
376.423	5.95
376.785	5.95
377.147	5.94
377.51	5.95
377.872	5.9
378.234	5.93
378.596	5.9
378.958	5.84
379.321	5.81
379.683	5.82
380.045	5.82
380.407	5.76
380.769	5.71
381.13	5.71
381.492	5.68
381.854	5.58
382.216	5.57
382.578	5.59
382.939	5.5
383.301	5.48
383.663	5.42
384.024	5.36
384.386	5.33
384.747	5.23
385.109	5.18
385.47	5.21
385.832	5.16
386.193	5.16
386.554	5.09
386.916	5.12
387.277	5.1
387.638	5.04
387.999	5.05
388.36	5.01
388.721	5
389.082	5.01
389.443	5.08
389.804	5.04
390.165	5.01
390.526	4.98
390.887	4.96
391.248	4.93
391.609	5
391.969	4.94
392.33	4.96
392.691	4.97
393.051	4.91
393.412	4.91
393.772	4.91
394.133	4.9
394.493	4.85
394.854	4.84
395.214	4.83
395.574	4.79
395.935	4.78
396.295	4.74
396.655	4.66
397.015	4.61
397.376	4.59
397.736	4.55
398.096	4.5
398.456	4.5
398.816	4.5
399.176	4.42
399.535	4.41
399.895	4.42
400.255	4.4
400.615	4.4
400.975	4.39
401.334	4.33
401.694	4.34
402.054	4.31
402.413	4.26
402.773	4.24
403.132	4.24
403.492	4.24
403.851	4.18
404.211	4.19
404.57	4.18
404.929	4.16
405.288	4.17
405.648	4.2
406.007	4.19
406.366	4.16
406.725	4.13
407.084	4.12
407.443	4.08
407.802	4.05
408.161	4.01
408.52	3.96
408.879	3.99
409.238	3.96
409.596	3.96
409.955	3.97
410.314	3.99
410.673	3.99
411.031	3.94
411.39	3.97
411.748	3.96
412.107	3.94
412.465	3.9
412.824	3.88
413.182	3.87
413.54	3.83
413.899	3.85
414.257	3.85
414.615	3.87
414.974	3.85
415.332	3.84
415.69	3.84
416.048	3.87
416.406	3.83
416.764	3.85
417.122	3.83
417.48	3.83
417.838	3.81
418.195	3.78
418.553	3.79
418.911	3.76
419.269	3.75
419.626	3.74
419.984	3.75
420.342	3.75
420.699	3.74
421.057	3.74
421.414	3.72
421.772	3.72
422.129	3.7
422.486	3.7
422.844	3.69
423.201	3.7
423.558	3.67
423.915	3.68
424.273	3.65
424.63	3.66
424.987	3.65
425.344	3.64
425.701	3.63
426.058	3.63
426.415	3.63
426.772	3.63
427.128	3.64
427.485	3.62
427.842	3.6
428.199	3.59
428.555	3.57
428.912	3.56
429.269	3.55
429.625	3.54
429.982	3.53
430.338	3.53
430.695	3.52
431.051	3.52
431.407	3.5
431.764	3.5
432.12	3.5
432.476	3.49
432.832	3.5
433.189	3.51
433.545	3.48
433.901	3.48
434.257	3.46
434.613	3.43
434.969	3.45
435.325	3.46
435.681	3.44
436.036	3.45
436.392	3.48
436.748	3.48
437.104	3.49
437.459	3.51
437.815	3.52
438.171	3.52
438.526	3.51
438.882	3.55
439.237	3.55
439.593	3.53
439.948	3.53
440.304	3.51
440.659	3.49
441.014	3.51
441.369	3.51
441.725	3.51
442.08	3.51
442.435	3.51
442.79	3.52
443.145	3.53
443.5	3.53
443.855	3.51
444.21	3.49
444.565	3.49
444.92	3.46
445.275	3.44
445.629	3.43
445.984	3.44
446.339	3.41
446.693	3.42
447.048	3.41
447.403	3.41
447.757	3.41
448.112	3.42
448.466	3.42
448.82	3.41
449.175	3.43
449.529	3.44
449.883	3.43
450.238	3.41
450.592	3.39
450.946	3.37
451.3	3.37
451.654	3.36
452.008	3.35
452.362	3.36
452.716	3.37
453.07	3.37
453.424	3.35
453.778	3.33
454.132	3.33
454.486	3.35
454.839	3.34
455.193	3.33
455.547	3.32
455.9	3.32
456.254	3.32
456.607	3.3
456.961	3.29
457.314	3.3
457.668	3.31
458.021	3.32
458.375	3.33
458.728	3.32
459.081	3.32
459.434	3.33
459.787	3.34
460.141	3.36
460.494	3.36
460.847	3.37
461.2	3.38
461.553	3.36
461.906	3.36
462.259	3.36
462.611	3.37
462.964	3.38
463.317	3.38
463.67	3.41
464.022	3.42
464.375	3.43
464.728	3.42
465.08	3.42
465.433	3.44
465.785	3.44
466.138	3.46
466.49	3.48
466.843	3.48
467.195	3.49
467.547	3.48
467.899	3.47
468.252	3.49
468.604	3.51
468.956	3.54
469.308	3.55
469.66	3.58
470.012	3.59
470.364	3.6
470.716	3.62
471.068	3.62
471.42	3.64
471.772	3.66
472.123	3.68
472.475	3.7
472.827	3.72
473.178	3.74
473.53	3.74
473.882	3.77
474.233	3.77
474.585	3.76
474.936	3.78
475.288	3.77
475.639	3.79
475.99	3.77
476.342	3.77
476.693	3.79
477.044	3.78
477.395	3.79
477.746	3.75
478.097	3.74
478.448	3.71
478.8	3.67
479.15	3.65
479.501	3.63
479.852	3.61
480.203	3.58
480.554	3.57
480.905	3.56
481.255	3.55
481.606	3.56
481.957	3.56
482.307	3.55
482.658	3.56
483.009	3.53
483.359	3.53
483.709	3.54
484.06	3.53
484.41	3.52
484.761	3.53
485.111	3.53
485.461	3.53
485.811	3.53
486.162	3.53
486.512	3.54
486.862	3.54
487.212	3.54
487.562	3.54
487.912	3.54
488.262	3.53
488.612	3.53
488.961	3.53
489.311	3.52
489.661	3.52
490.011	3.52
490.36	3.53
490.71	3.52
491.06	3.51
491.409	3.5
491.759	3.51
492.108	3.5
492.458	3.51
492.807	3.52
493.157	3.53
493.506	3.54
493.855	3.53
494.204	3.53
494.554	3.54
494.903	3.56
495.252	3.57
495.601	3.58
495.95	3.61
496.299	3.61
496.648	3.64
496.997	3.68
497.346	3.71
497.695	3.75
498.043	3.81
498.392	3.86
498.741	3.9
499.09	3.93
499.438	3.97
499.787	4.01
500.135	4.05
500.484	4.09
500.832	4.13
501.181	4.18
501.529	4.25
501.878	4.29
502.226	4.34
502.574	4.41
502.923	4.48
503.271	4.53
503.619	4.57
503.967	4.63
504.315	4.66
504.663	4.71
505.011	4.77
505.359	4.79
505.707	4.83
506.055	4.88
506.403	4.95
506.751	5.03
507.098	5.09
507.446	5.18
507.794	5.26
508.141	5.32
508.489	5.42
508.837	5.49
509.184	5.56
509.531	5.61
509.879	5.69
510.226	5.77
510.574	5.86
510.921	5.95
511.268	6.04
511.616	6.16
511.963	6.25
512.31	6.35
512.657	6.47
513.004	6.57
513.351	6.68
513.698	6.8
514.045	6.89
514.392	7.02
514.739	7.11
515.086	7.24
515.432	7.38
515.779	7.48
516.126	7.61
516.473	7.72
516.819	7.85
517.166	7.97
517.512	8.06
517.859	8.15
518.205	8.26
518.552	8.36
518.898	8.44
519.245	8.57
519.591	8.68
519.937	8.79
520.283	8.91
520.629	9.02
520.976	9.17
521.322	9.32
521.668	9.47
522.014	9.62
522.36	9.74
522.706	9.86
523.052	10.06
523.398	10.22
523.743	10.4
524.089	10.6
524.435	10.77
524.781	10.95
525.126	11.11
525.472	11.26
525.817	11.4
526.163	11.53
526.509	11.64
526.854	11.75
527.199	11.86
527.545	11.98
527.89	12.11
528.235	12.21
528.581	12.34
528.926	12.45
529.271	12.59
529.616	12.73
529.961	12.88
530.306	13
530.651	13.13
530.996	13.29
531.341	13.45
531.686	13.63
532.031	13.79
532.376	13.97
532.721	14.16
533.065	14.34
533.41	14.53
533.755	14.75
534.099	14.96
534.444	15.18
534.788	15.39
535.133	15.58
535.477	15.82
535.822	16.05
536.166	16.28
536.51	16.54
536.855	16.79
537.199	17.08
537.543	17.38
537.887	17.69
538.231	17.99
538.576	18.29
538.92	18.56
539.264	18.82
539.608	19.1
539.951	19.33
540.295	19.61
540.639	19.87
540.983	20.06
541.327	20.3
541.671	20.52
542.014	20.76
542.358	21.01
542.701	21.21
543.045	21.43
543.389	21.65
543.732	21.87
544.075	22.12
544.419	22.36
544.762	22.58
545.105	22.83
545.449	23.07
545.792	23.37
546.135	23.67
546.478	24.01
546.821	24.35
547.165	24.72
547.508	25.02
547.851	25.33
548.194	25.68
548.536	26.03
548.879	26.37
549.222	26.68
549.565	27
549.908	27.38
550.25	27.69
550.593	28.05
550.936	28.41
551.278	28.77
551.621	29.12
551.963	29.49
552.306	29.85
552.648	30.2
552.991	30.45
553.333	30.75
553.675	31.03
554.017	31.34
554.36	31.63
554.702	31.89
555.044	32.21
555.386	32.53
555.728	32.81
556.07	33.12
556.412	33.38
556.754	33.68
557.096	33.97
557.438	34.33
557.78	34.6
558.121	34.9
558.463	35.2
558.805	35.47
559.147	35.74
559.488	35.97
559.83	36.26
560.171	36.57
560.513	36.89
560.854	37.26
561.196	37.51
561.537	37.72
561.878	38.08
562.22	38.43
562.561	38.72
562.902	38.97
563.243	39.24
563.584	39.54
563.925	39.8
564.266	40.07
564.607	40.29
564.948	40.6
565.289	40.87
565.63	41.09
565.971	41.34
566.312	41.58
566.653	41.84
566.993	42.07
567.334	42.31
567.675	42.51
568.015	42.69
568.356	42.9
568.696	43.23
569.037	43.39
569.377	43.58
569.718	43.81
570.058	43.99
570.398	44.22
570.739	44.39
571.079	44.6
571.419	44.79
571.759	44.98
572.099	45.18
572.439	45.36
572.779	45.56
573.119	45.68
573.459	45.9
573.799	46.02
574.139	46.2
574.479	46.42
574.819	46.63
575.158	46.8
575.498	47
575.838	47.03
576.177	47.23
576.517	47.37
576.856	47.48
577.196	47.71
577.535	47.89
577.875	48.08
578.214	48.32
578.553	48.47
578.893	48.66
579.232	48.78
579.571	48.95
579.91	49.15
580.25	49.37
580.589	49.52
580.928	49.78
581.267	49.92
581.606	49.99
581.945	50.04
582.283	50.13
582.622	50.29
582.961	50.48
583.3	50.6
583.639	50.73
583.977	50.87
584.316	51.03
584.654	51.15
584.993	51.35
585.332	51.43
585.67	51.53
586.008	51.65
586.347	51.79
586.685	51.91
587.024	51.93
587.362	52.09
587.7	52.2
588.038	52.35
588.376	52.44
588.715	52.56
589.053	52.75
589.391	52.89
589.729	52.96
590.067	53.13
590.404	53.28
590.742	53.38
591.08	53.55
591.418	53.65
591.756	53.72
592.093	53.81
592.431	53.92
592.769	54.03
593.106	54.15
593.444	54.19
593.781	54.31
594.119	54.41
594.456	54.52
594.793	54.64
595.131	54.69
595.468	54.83
595.805	54.9
596.143	54.91
596.48	54.95
596.817	55.02
597.154	55.07
597.491	55.13
597.828	55.17
598.165	55.22
598.502	55.3
598.839	55.4
599.176	55.4
599.512	55.45
599.849	55.6
600.186	55.56
600.523	55.69
600.859	55.75
601.196	55.87
601.532	55.88
601.869	55.93
602.205	56.01
602.542	56.17
602.878	56.25
603.215	56.34
603.551	56.39
603.887	56.45
604.223	56.49
604.56	56.51
604.896	56.65
605.232	56.7
605.568	56.78
605.904	56.82
606.24	57
606.576	57.08
606.912	57.12
607.248	57.24
607.583	57.3
607.919	57.45
608.255	57.48
608.591	57.55
608.926	57.56
609.262	57.58
609.597	57.53
609.933	57.62
610.268	57.72
610.604	57.82
610.939	57.95
611.275	58.02
611.61	58
611.945	58.08
612.281	58.18
612.616	58.19
612.951	58.23
613.286	58.21
613.621	58.21
613.956	58.25
614.291	58.39
614.626	58.38
614.961	58.31
615.296	58.4
615.631	58.45
615.966	58.59
616.3	58.73
616.635	58.78
616.97	58.88
617.304	58.9
617.639	58.99
617.973	58.98
618.308	59.03
618.642	59.23
618.977	59.1
619.311	59.08
619.646	59.04
619.98	59.16
620.314	59.23
620.648	59.28
620.983	59.3
621.317	59.25
621.651	59.3
621.985	59.31
622.319	59.33
622.653	59.34
622.987	59.3
623.321	59.3
623.655	59.37
623.988	59.34
624.322	59.4
624.656	59.39
624.99	59.46
625.323	59.46
625.657	59.53
625.99	59.7
626.324	59.74
626.657	59.8
626.991	59.78
627.324	59.69
627.658	59.73
627.991	59.77
628.324	59.85
628.657	59.87
628.991	59.95
629.324	59.94
629.657	60.04
629.99	60.09
630.323	60.02
630.656	60.02
630.989	59.98
631.322	59.95
631.655	59.95
631.987	59.96
632.32	60.08
632.653	60.05
632.986	60.01
633.318	60.05
633.651	60.16
633.984	60.09
634.316	60.18
634.649	60.3
634.981	60.3
635.313	60.28
635.646	60.29
635.978	60.26
636.31	60.36
636.643	60.32
636.975	60.34
637.307	60.52
637.639	60.51
637.971	60.65
638.303	60.68
638.635	60.65
638.967	60.78
639.299	60.76
639.631	60.76
639.963	60.68
640.295	60.64
640.626	60.51
640.958	60.65
641.29	60.78
641.621	60.63
641.953	60.68
642.285	60.74
642.616	60.81
642.948	60.87
643.279	60.82
643.61	60.78
643.942	60.88
644.273	60.85
644.604	61.08
644.936	61.12
645.267	61.07
645.598	61.2
645.929	61.04
646.26	61.02
646.591	61.08
646.922	61.22
647.253	61.17
647.584	61.31
647.915	61.37
648.245	61.31
648.576	61.32
648.907	61.3
649.238	61.42
649.568	61.35
649.899	61.3
650.229	61.34
650.56	61.52
650.89	61.45
651.221	61.37
651.551	61.28
651.882	61.14
652.212	61.17
652.542	61.23
652.872	61.31
653.203	61.3
653.533	61.22
653.863	61.2
654.193	61.31
654.523	61.34
654.853	61.39
655.183	61.52
655.513	61.6
655.843	61.66
656.172	61.64
656.502	61.82
656.832	61.89
657.162	61.94
657.491	61.93
657.821	62.05
658.15	62.14
658.48	62.11
658.809	62.27
659.139	62.34
659.468	62.18
659.798	62.19
660.127	62.28
660.456	62.33
660.785	62.32
661.115	62.47
661.444	62.62
661.773	62.68
662.102	62.51
662.431	62.57
662.76	62.66
663.089	62.66
663.418	62.67
663.747	62.76
664.076	62.8
664.404	62.95
664.733	62.86
665.062	62.89
665.39	62.96
665.719	62.99
666.048	63.02
666.376	63.14
666.705	63.2
667.033	63.22
667.362	63.22
667.69	63.35
