Data from MVZ_BU163024_Reflection_00002.txt Node
Date: Tue Nov 19 12:11:19 EST 2019
User: vgr7
Spectrometer: USB2G7710
Scans to average: 3
Trigger mode: 4
Integration Time (sec): 2.000000E-2
Electric dark correction enabled: true
Boxcar width: 10
XAxis mode: Wavelengths
Number of Pixels in Spectrum: 2048
>>>>>Begin Spectral Data<<<<<
177.721	81.68
178.105	51.75
178.488	84.88
178.871	52.69
179.254	124.24
179.636	-19.79
180.019	24.88
180.402	-30.77
180.785	79.05
181.168	18.08
181.55	14.25
181.933	42.03
182.316	90.51
182.698	67.27
183.081	65.11
183.463	35.65
183.846	52.59
184.228	62.07
184.611	60.37
184.993	53.73
185.376	85.37
185.758	133.18
186.14	111.7
186.522	148.64
186.904	109.52
187.287	126.29
187.669	142.77
188.051	97.96
188.433	106.03
188.815	118.2
189.197	103.93
189.579	182.93
189.961	134.7
190.342	140.26
190.724	145.52
191.106	200.17
191.488	166.05
191.869	107.86
192.251	168.14
192.633	256.16
193.014	228.85
193.396	179.15
193.777	132.18
194.159	98.21
194.54	101.01
194.922	98.08
195.303	95.96
195.684	801.15
196.065	-252.06
196.447	-130.35
196.828	-175.08
197.209	-112.73
197.59	-68.57
197.971	-72
198.352	-39.34
198.733	-13.35
199.114	11.93
199.495	2.47
199.876	-1.24
200.257	-51.3
200.638	-104.89
201.018	-124.19
201.399	-16.93
201.78	-0.22
202.16	-37.59
202.541	-79.97
202.922	-114.16
203.302	-213.73
203.683	873.33
204.063	469.7
204.444	625.25
204.824	538.1
205.204	-497.7
205.585	1576.19
205.965	-210.08
206.345	592.06
206.725	-63.02
207.106	-35.08
207.486	-41.13
207.866	-34.55
208.246	-21.49
208.626	-35.33
209.006	-28.58
209.386	-39.92
209.766	-53.41
210.145	-18.07
210.525	-15.21
210.905	-15.48
211.285	-10.41
211.664	2.39
212.044	-4.89
212.424	-8.34
212.803	-18.7
213.183	-19.07
213.562	-19.32
213.942	-19.65
214.321	-29.2
214.701	-48.19
215.08	-70.59
215.459	-53.88
215.838	-61.12
216.218	-74.41
216.597	-51.33
216.976	-71.78
217.355	-48.37
217.734	-40.37
218.113	-56.16
218.492	-48.47
218.871	-37.83
219.25	-47.77
219.629	-63.24
220.008	-56.23
220.387	-36.95
220.766	-26.45
221.144	-20.21
221.523	-31.57
221.902	-23.98
222.28	-4.76
222.659	13.42
223.037	18.85
223.416	28.75
223.794	35.04
224.173	31.01
224.551	34.55
224.929	33.57
225.308	33.8
225.686	28.83
226.064	24.23
226.442	21.58
226.821	15.23
227.199	17.58
227.577	17.74
227.955	15.23
228.333	9.25
228.711	8.75
229.089	4.31
229.467	6.63
229.845	1.21
230.222	0.48
230.6	-2.36
230.978	-1.17
231.356	-4.95
231.733	-7.03
232.111	-2.97
232.488	-4.58
232.866	-2.4
233.243	-2.85
233.621	0.41
233.998	0.28
234.376	1.6
234.753	4.49
235.13	2.49
235.508	2.25
235.885	4.07
236.262	5.35
236.639	4.13
237.016	3.06
237.393	3.29
237.77	4.65
238.147	4.53
238.524	5.25
238.901	5.16
239.278	4.81
239.655	5.11
240.032	5.12
240.409	4.91
240.785	4.52
241.162	4.31
241.539	3.55
241.915	3.78
242.292	3.85
242.668	3.37
243.045	3.42
243.421	3.09
243.798	3.13
244.174	2.96
244.551	3.3
244.927	3.65
245.303	3.74
245.679	3.85
246.056	3.71
246.432	3.63
246.808	3.7
247.184	3.67
247.56	3.56
247.936	3.22
248.312	3.39
248.688	3.5
249.064	3.48
249.44	3.44
249.815	3.59
250.191	3.61
250.567	3.78
250.943	3.75
251.318	3.76
251.694	3.74
252.069	3.85
252.445	3.97
252.82	4.23
253.196	4.4
253.571	4.31
253.947	4.43
254.322	3.95
254.697	4.1
255.073	4.26
255.448	4.18
255.823	4.57
256.198	4.57
256.573	4.61
256.948	4.72
257.323	5.13
257.698	5.03
258.073	4.87
258.448	4.69
258.823	4.53
259.198	4.65
259.573	4.39
259.948	4.42
260.322	4.2
260.697	4.18
261.072	4.15
261.446	4.06
261.821	3.94
262.195	3.95
262.57	3.97
262.944	3.92
263.319	4.03
263.693	3.77
264.067	3.59
264.442	3.32
264.816	3.22
265.19	2.97
265.564	2.79
265.938	2.82
266.313	2.84
266.687	2.81
267.061	2.91
267.435	3.13
267.809	2.85
268.183	3.05
268.556	2.91
268.93	2.9
269.304	3.09
269.678	3.14
270.051	3.3
270.425	3.07
270.799	2.84
271.172	2.85
271.546	3.01
271.919	3.06
272.293	3.26
272.666	3.31
273.04	3.29
273.413	3.39
273.787	3.34
274.16	3.28
274.533	3.46
274.906	3.42
275.279	3.19
275.653	3.34
276.026	3.35
276.399	3.41
276.772	3.39
277.145	3.38
277.518	3.41
277.891	3.39
278.263	3.63
278.636	3.84
279.009	3.89
279.382	3.75
279.755	3.69
280.127	3.6
280.5	3.58
280.872	3.63
281.245	3.59
281.617	3.69
281.99	3.7
282.362	3.54
282.735	3.51
283.107	3.57
283.479	3.65
283.852	3.68
284.224	3.77
284.596	3.87
284.968	3.79
285.34	3.7
285.713	3.84
286.085	3.64
286.457	3.63
286.829	3.65
287.201	3.75
287.572	3.79
287.944	3.93
288.316	3.85
288.688	3.84
289.06	3.86
289.431	3.73
289.803	3.83
290.175	3.88
290.546	3.94
290.918	4.14
291.289	3.87
291.661	3.9
292.032	3.71
292.403	3.59
292.775	3.71
293.146	3.87
293.517	3.65
293.889	3.77
294.26	3.87
294.631	3.87
295.002	3.88
295.373	3.94
295.744	3.86
296.115	3.99
296.486	4.11
296.857	4.17
297.228	4.16
297.599	4.02
297.97	4.16
298.34	4.09
298.711	4.13
299.082	4.29
299.452	4.29
299.823	4.26
300.194	4.35
300.564	4.31
300.935	4.29
301.305	4.33
301.676	4.11
302.046	4.04
302.416	4
302.787	4.03
303.157	4.14
303.527	4.2
303.897	4.1
304.267	3.91
304.637	4.04
305.008	4.09
305.378	4.36
305.748	4.24
306.117	4.34
306.487	4.24
306.857	4.31
307.227	4.4
307.597	4.63
307.967	4.59
308.336	4.5
308.706	4.41
309.076	4.52
309.445	4.84
309.815	4.86
310.184	4.84
310.554	4.87
310.923	4.82
311.293	4.76
311.662	4.84
312.031	4.91
312.401	4.78
312.77	4.86
313.139	4.81
313.508	4.79
313.877	4.99
314.246	5.02
314.616	5.08
314.985	4.96
315.353	4.86
315.722	4.99
316.091	5
316.46	5.21
316.829	5.11
317.198	5.16
317.567	5.25
317.935	5.25
318.304	5.3
318.672	5.36
319.041	5.56
319.41	5.42
319.778	5.49
320.147	5.53
320.515	5.46
320.883	5.47
321.252	5.7
321.62	5.49
321.988	5.43
322.357	5.38
322.725	5.45
323.093	5.41
323.461	5.18
323.829	5.37
324.197	5.27
324.565	5.4
324.933	5.19
325.301	5.02
325.669	4.97
326.037	4.85
326.405	4.82
326.772	4.73
327.14	4.81
327.508	4.67
327.875	4.64
328.243	4.67
328.61	4.55
328.978	4.33
329.346	4.24
329.713	4.36
330.08	4.24
330.448	4.24
330.815	4.17
331.182	4.32
331.55	4.2
331.917	4.19
332.284	4.04
332.651	4.1
333.018	4.23
333.385	4.39
333.752	4.53
334.119	4.46
334.486	4.46
334.853	4.44
335.22	4.54
335.587	4.55
335.954	4.57
336.32	4.67
336.687	4.77
337.054	4.84
337.42	4.71
337.787	4.78
338.153	4.85
338.52	5.07
338.886	4.98
339.253	4.98
339.619	5.03
339.986	5.19
340.352	5.28
340.718	5.35
341.084	5.41
341.451	5.32
341.817	5.2
342.183	5.2
342.549	5.39
342.915	5.37
343.281	5.45
343.647	5.48
344.013	5.52
344.379	5.55
344.745	5.58
345.11	5.63
345.476	5.77
345.842	5.67
346.208	5.62
346.573	5.67
346.939	5.67
347.304	5.69
347.67	5.71
348.035	5.56
348.401	5.61
348.766	5.56
349.132	5.57
349.497	5.76
349.862	5.8
350.228	5.69
350.593	5.63
350.958	5.58
351.323	5.55
351.688	5.51
352.053	5.54
352.418	5.51
352.783	5.58
353.148	5.49
353.513	5.59
353.878	5.57
354.243	5.57
354.608	5.62
354.972	5.63
355.337	5.62
355.702	5.63
356.066	5.55
356.431	5.54
356.795	5.49
357.16	5.41
357.524	5.34
357.889	5.33
358.253	5.34
358.618	5.36
358.982	5.38
359.346	5.33
359.71	5.25
360.075	5.27
360.439	5.19
360.803	5.24
361.167	5.15
361.531	5.14
361.895	5.13
362.259	5.16
362.623	5.11
362.987	5.12
363.351	5.09
363.714	5.11
364.078	5.08
364.442	5.06
364.806	5.11
365.169	5.08
365.533	5.08
365.896	5.13
366.26	5.06
366.623	4.99
366.987	5.02
367.35	5.11
367.714	5.1
368.077	5.12
368.44	5.1
368.803	5.11
369.167	5.19
369.53	5.21
369.893	5.17
370.256	5.2
370.619	5.18
370.982	5.21
371.345	5.23
371.708	5.26
372.071	5.2
372.434	5.16
372.797	5.25
373.159	5.18
373.522	5.15
373.885	5.18
374.247	5.21
374.61	5.29
374.973	5.16
375.335	5.18
375.698	5.15
376.06	5.14
376.423	5.14
376.785	5.14
377.147	5.19
377.51	5.15
377.872	5.09
378.234	5.1
378.596	5.2
378.958	5.13
379.321	5.1
379.683	5.26
380.045	5.25
380.407	5.24
380.769	5.25
381.13	5.27
381.492	5.25
381.854	5.29
382.216	5.26
382.578	5.36
382.939	5.34
383.301	5.33
383.663	5.31
384.024	5.34
384.386	5.33
384.747	5.26
385.109	5.3
385.47	5.34
385.832	5.29
386.193	5.21
386.554	5.22
386.916	5.3
387.277	5.3
387.638	5.37
387.999	5.39
388.36	5.41
388.721	5.41
389.082	5.44
389.443	5.43
389.804	5.42
390.165	5.4
390.526	5.41
390.887	5.47
391.248	5.46
391.609	5.47
391.969	5.44
392.33	5.41
392.691	5.41
393.051	5.43
393.412	5.44
393.772	5.54
394.133	5.54
394.493	5.48
394.854	5.42
395.214	5.36
395.574	5.32
395.935	5.34
396.295	5.3
396.655	5.29
397.015	5.29
397.376	5.28
397.736	5.25
398.096	5.28
398.456	5.26
398.816	5.27
399.176	5.27
399.535	5.25
399.895	5.23
400.255	5.23
400.615	5.19
400.975	5.21
401.334	5.19
401.694	5.22
402.054	5.24
402.413	5.24
402.773	5.26
403.132	5.23
403.492	5.27
403.851	5.28
404.211	5.28
404.57	5.28
404.929	5.32
405.288	5.34
405.648	5.29
406.007	5.29
406.366	5.29
406.725	5.29
407.084	5.31
407.443	5.33
407.802	5.33
408.161	5.35
408.52	5.34
408.879	5.34
409.238	5.29
409.596	5.31
409.955	5.34
410.314	5.32
410.673	5.35
411.031	5.32
411.39	5.32
411.748	5.33
412.107	5.3
412.465	5.26
412.824	5.25
413.182	5.29
413.54	5.28
413.899	5.27
414.257	5.27
414.615	5.27
414.974	5.29
415.332	5.28
415.69	5.27
416.048	5.29
416.406	5.23
416.764	5.27
417.122	5.25
417.48	5.27
417.838	5.28
418.195	5.28
418.553	5.28
418.911	5.27
419.269	5.28
419.626	5.29
419.984	5.29
420.342	5.29
420.699	5.26
421.057	5.25
421.414	5.25
421.772	5.23
422.129	5.23
422.486	5.21
422.844	5.21
423.201	5.22
423.558	5.2
423.915	5.24
424.273	5.23
424.63	5.23
424.987	5.22
425.344	5.21
425.701	5.22
426.058	5.2
426.415	5.19
426.772	5.17
427.128	5.17
427.485	5.15
427.842	5.15
428.199	5.17
428.555	5.18
428.912	5.19
429.269	5.2
429.625	5.19
429.982	5.21
430.338	5.22
430.695	5.18
431.051	5.18
431.407	5.16
431.764	5.16
432.12	5.16
432.476	5.17
432.832	5.17
433.189	5.15
433.545	5.17
433.901	5.18
434.257	5.18
434.613	5.17
434.969	5.19
435.325	5.18
435.681	5.17
436.036	5.19
436.392	5.16
436.748	5.16
437.104	5.15
437.459	5.15
437.815	5.15
438.171	5.19
438.526	5.19
438.882	5.2
439.237	5.19
439.593	5.19
439.948	5.17
440.304	5.17
440.659	5.16
441.014	5.16
441.369	5.16
441.725	5.17
442.08	5.18
442.435	5.19
442.79	5.19
443.145	5.2
443.5	5.17
443.855	5.19
444.21	5.19
444.565	5.18
444.92	5.18
445.275	5.17
445.629	5.17
445.984	5.15
446.339	5.15
446.693	5.16
447.048	5.14
447.403	5.14
447.757	5.13
448.112	5.14
448.466	5.15
448.82	5.15
449.175	5.16
449.529	5.16
449.883	5.13
450.238	5.13
450.592	5.13
450.946	5.13
451.3	5.14
451.654	5.12
452.008	5.14
452.362	5.14
452.716	5.13
453.07	5.12
453.424	5.12
453.778	5.09
454.132	5.07
454.486	5.09
454.839	5.09
455.193	5.11
455.547	5.13
455.9	5.1
456.254	5.09
456.607	5.08
456.961	5.07
457.314	5.08
457.668	5.1
458.021	5.09
458.375	5.09
458.728	5.1
459.081	5.11
459.434	5.1
459.787	5.11
460.141	5.1
460.494	5.1
460.847	5.1
461.2	5.11
461.553	5.12
461.906	5.13
462.259	5.12
462.611	5.11
462.964	5.1
463.317	5.12
463.67	5.14
464.022	5.14
464.375	5.15
464.728	5.15
465.08	5.12
465.433	5.13
465.785	5.16
466.138	5.15
466.49	5.15
466.843	5.19
467.195	5.18
467.547	5.2
467.899	5.22
468.252	5.23
468.604	5.22
468.956	5.22
469.308	5.22
469.66	5.24
470.012	5.23
470.364	5.24
470.716	5.22
471.068	5.2
471.42	5.22
471.772	5.25
472.123	5.27
472.475	5.29
472.827	5.28
473.178	5.27
473.53	5.27
473.882	5.27
474.233	5.25
474.585	5.26
474.936	5.29
475.288	5.3
475.639	5.33
475.99	5.32
476.342	5.33
476.693	5.33
477.044	5.31
477.395	5.33
477.746	5.31
478.097	5.31
478.448	5.32
478.8	5.31
479.15	5.3
479.501	5.29
479.852	5.3
480.203	5.31
480.554	5.32
480.905	5.3
481.255	5.32
481.606	5.34
481.957	5.35
482.307	5.34
482.658	5.34
483.009	5.33
483.359	5.34
483.709	5.35
484.06	5.35
484.41	5.34
484.761	5.35
485.111	5.36
485.461	5.37
485.811	5.38
486.162	5.38
486.512	5.37
486.862	5.39
487.212	5.39
487.562	5.39
487.912	5.39
488.262	5.4
488.612	5.4
488.961	5.39
489.311	5.38
489.661	5.38
490.011	5.38
490.36	5.38
490.71	5.4
491.06	5.4
491.409	5.4
491.759	5.42
492.108	5.41
492.458	5.42
492.807	5.4
493.157	5.4
493.506	5.41
493.855	5.43
494.204	5.43
494.554	5.42
494.903	5.42
495.252	5.42
495.601	5.43
495.95	5.43
496.299	5.43
496.648	5.44
496.997	5.48
497.346	5.47
497.695	5.45
498.043	5.46
498.392	5.48
498.741	5.5
499.09	5.51
499.438	5.53
499.787	5.52
500.135	5.52
500.484	5.54
500.832	5.55
501.181	5.58
501.529	5.6
501.878	5.62
502.226	5.64
502.574	5.68
502.923	5.7
503.271	5.71
503.619	5.75
503.967	5.77
504.315	5.78
504.663	5.81
505.011	5.86
505.359	5.84
505.707	5.82
506.055	5.82
506.403	5.86
506.751	5.87
507.098	5.89
507.446	5.91
507.794	5.94
508.141	5.95
508.489	5.94
508.837	5.93
509.184	5.96
509.531	5.95
509.879	5.94
510.226	5.95
510.574	5.98
510.921	5.97
511.268	5.96
511.616	5.95
511.963	5.98
512.31	5.98
512.657	5.99
513.004	5.97
513.351	5.99
513.698	5.96
514.045	5.98
514.392	5.97
514.739	5.97
515.086	5.98
515.432	5.99
515.779	5.98
516.126	6.02
516.473	6.01
516.819	6.04
517.166	6.03
517.512	6.04
517.859	6.03
518.205	6.02
518.552	6.05
518.898	6.02
519.245	6.01
519.591	6.02
519.937	6
520.283	6.04
520.629	6.06
520.976	6.06
521.322	6.04
521.668	6.08
522.014	6.1
522.36	6.08
522.706	6.07
523.052	6.08
523.398	6.06
523.743	6.08
524.089	6.1
524.435	6.11
524.781	6.12
525.126	6.14
525.472	6.16
525.817	6.16
526.163	6.19
526.509	6.19
526.854	6.21
527.199	6.24
527.545	6.25
527.89	6.26
528.235	6.28
528.581	6.28
528.926	6.27
529.271	6.29
529.616	6.29
529.961	6.3
530.306	6.3
530.651	6.31
530.996	6.32
531.341	6.33
531.686	6.33
532.031	6.33
532.376	6.34
532.721	6.34
533.065	6.34
533.41	6.34
533.755	6.34
534.099	6.34
534.444	6.35
534.788	6.34
535.133	6.32
535.477	6.32
535.822	6.34
536.166	6.36
536.51	6.34
536.855	6.35
537.199	6.36
537.543	6.37
537.887	6.38
538.231	6.37
538.576	6.36
538.92	6.37
539.264	6.39
539.608	6.39
539.951	6.38
540.295	6.39
540.639	6.38
540.983	6.4
541.327	6.39
541.671	6.39
542.014	6.41
542.358	6.44
542.701	6.45
543.045	6.46
543.389	6.45
543.732	6.45
544.075	6.46
544.419	6.47
544.762	6.47
545.105	6.47
545.449	6.46
545.792	6.45
546.135	6.47
546.478	6.47
546.821	6.46
547.165	6.47
547.508	6.49
547.851	6.5
548.194	6.47
548.536	6.47
548.879	6.49
549.222	6.5
549.565	6.46
549.908	6.44
550.25	6.42
550.593	6.44
550.936	6.46
551.278	6.46
551.621	6.48
551.963	6.48
552.306	6.49
552.648	6.52
552.991	6.52
553.333	6.48
553.675	6.49
554.017	6.49
554.36	6.51
554.702	6.52
555.044	6.57
555.386	6.62
555.728	6.63
556.07	6.57
556.412	6.53
556.754	6.55
557.096	6.53
557.438	6.53
557.78	6.52
558.121	6.52
558.463	6.5
558.805	6.49
559.147	6.5
559.488	6.48
559.83	6.49
560.171	6.53
560.513	6.6
560.854	6.59
561.196	6.59
561.537	6.6
561.878	6.61
562.22	6.59
562.561	6.57
562.902	6.58
563.243	6.62
563.584	6.64
563.925	6.65
564.266	6.69
564.607	6.69
564.948	6.68
565.289	6.7
565.63	6.71
565.971	6.7
566.312	6.69
566.653	6.68
566.993	6.66
567.334	6.65
567.675	6.62
568.015	6.66
568.356	6.66
568.696	6.68
569.037	6.69
569.377	6.67
569.718	6.66
570.058	6.68
570.398	6.69
570.739	6.69
571.079	6.7
571.419	6.7
571.759	6.69
572.099	6.71
572.439	6.68
572.779	6.67
573.119	6.7
573.459	6.72
573.799	6.72
574.139	6.71
574.479	6.71
574.819	6.71
575.158	6.69
575.498	6.71
575.838	6.64
576.177	6.63
576.517	6.65
576.856	6.68
577.196	6.65
577.535	6.65
577.875	6.61
578.214	6.63
578.553	6.61
578.893	6.65
579.232	6.63
579.571	6.7
579.91	6.74
580.25	6.73
580.589	6.68
580.928	6.71
581.267	6.72
581.606	6.72
581.945	6.72
582.283	6.71
582.622	6.7
582.961	6.75
583.3	6.72
583.639	6.7
583.977	6.65
584.316	6.7
584.654	6.69
584.993	6.74
585.332	6.75
585.67	6.77
586.008	6.77
586.347	6.76
586.685	6.73
587.024	6.74
587.362	6.74
587.7	6.82
588.038	6.84
588.376	6.88
588.715	6.95
589.053	6.97
589.391	6.98
589.729	7.02
590.067	7.03
590.404	7.06
590.742	7.06
591.08	7.09
591.418	7.09
591.756	7.07
592.093	7.12
592.431	7.1
592.769	7.11
593.106	7.1
593.444	7.15
593.781	7.14
594.119	7.15
594.456	7.16
594.793	7.15
595.131	7.12
595.468	7.16
595.805	7.14
596.143	7.17
596.48	7.14
596.817	7.12
597.154	7.14
597.491	7.17
597.828	7.2
598.165	7.24
598.502	7.22
598.839	7.22
599.176	7.2
599.512	7.18
599.849	7.21
600.186	7.22
600.523	7.21
600.859	7.2
601.196	7.18
601.532	7.17
601.869	7.16
602.205	7.16
602.542	7.14
602.878	7.17
603.215	7.14
603.551	7.16
603.887	7.17
604.223	7.13
604.56	7.09
604.896	7.12
605.232	7.08
605.568	7.12
605.904	7.13
606.24	7.16
606.576	7.2
606.912	7.16
607.248	7.18
607.583	7.18
607.919	7.25
608.255	7.24
608.591	7.28
608.926	7.29
609.262	7.32
609.597	7.29
609.933	7.26
610.268	7.26
610.604	7.27
610.939	7.25
611.275	7.33
611.61	7.33
611.945	7.28
612.281	7.34
612.616	7.33
612.951	7.37
613.286	7.36
613.621	7.37
613.956	7.42
614.291	7.39
614.626	7.48
614.961	7.44
615.296	7.52
615.631	7.5
615.966	7.48
616.3	7.47
616.635	7.49
616.97	7.53
617.304	7.52
617.639	7.56
617.973	7.6
618.308	7.53
618.642	7.58
618.977	7.57
619.311	7.58
619.646	7.59
619.98	7.58
620.314	7.59
620.648	7.56
620.983	7.56
621.317	7.53
621.651	7.46
621.985	7.45
622.319	7.42
622.653	7.43
622.987	7.5
623.321	7.51
623.655	7.56
623.988	7.52
624.322	7.55
624.656	7.54
624.99	7.57
625.323	7.51
625.657	7.51
625.99	7.58
626.324	7.59
626.657	7.51
626.991	7.53
627.324	7.48
627.658	7.47
627.991	7.5
628.324	7.52
628.657	7.54
628.991	7.56
629.324	7.53
629.657	7.49
629.99	7.5
630.323	7.5
630.656	7.48
630.989	7.52
631.322	7.47
631.655	7.42
631.987	7.43
632.32	7.49
632.653	7.47
632.986	7.45
633.318	7.45
633.651	7.48
633.984	7.5
634.316	7.48
634.649	7.55
634.981	7.54
635.313	7.54
635.646	7.57
635.978	7.58
636.31	7.61
636.643	7.62
636.975	7.6
637.307	7.64
637.639	7.61
637.971	7.6
638.303	7.59
638.635	7.63
638.967	7.62
639.299	7.67
639.631	7.66
639.963	7.56
640.295	7.57
640.626	7.59
640.958	7.56
641.29	7.57
641.621	7.48
641.953	7.42
642.285	7.45
642.616	7.42
642.948	7.45
643.279	7.42
643.61	7.48
643.942	7.49
644.273	7.46
644.604	7.46
644.936	7.43
645.267	7.48
645.598	7.51
645.929	7.48
646.26	7.45
646.591	7.49
646.922	7.62
647.253	7.63
647.584	7.66
647.915	7.72
648.245	7.83
648.576	7.86
648.907	7.89
649.238	7.88
649.568	7.97
649.899	7.93
650.229	7.93
650.56	7.89
650.89	7.89
651.221	7.88
651.551	7.98
651.882	8.03
652.212	8.13
652.542	8.13
652.872	8.09
653.203	8.09
653.533	8.14
653.863	8.13
654.193	8.03
654.523	7.95
654.853	7.98
655.183	7.99
655.513	7.98
655.843	8.04
656.172	8.07
656.502	7.97
656.832	7.95
657.162	7.96
657.491	8.1
657.821	8.09
658.15	8.1
658.48	8.06
658.809	8.1
659.139	8.1
659.468	8.13
659.798	8.19
660.127	8.19
660.456	8.19
660.785	8.14
661.115	8.22
661.444	8.33
661.773	8.28
662.102	8.23
662.431	8.26
662.76	8.22
663.089	8.23
663.418	8.26
663.747	8.34
664.076	8.4
664.404	8.37
664.733	8.38
665.062	8.37
665.39	8.28
665.719	8.24
666.048	8.13
666.376	8.11
666.705	8.12
667.033	8.13
667.362	8.08
667.69	8.05
668.018	8.09
668.347	8.02
668.675	7.98
669.003	8.01
669.331	8.1
669.659	8.09
669.987	8.1
670.315	8.04
670.643	8.04
670.971	8.07
671.299	7.92
671.627	7.98
671.955	8.04
672.283	8.16
672.61	8.14
672.938	8.29
673.266	8.26
673.593	8.13
673.921	8.1
674.249	8.12
674.576	8.26
674.904	8.19
675.231	8.22
675.558	8.28
675.886	8.21
676.213	8.12
676.54	8.22
676.867	8.15
677.195	8.32
677.522	8.26
