Data from MVZ_BU65311_Reflection_00015.txt Node
Date: Tue Nov 19 12:20:28 EST 2019
User: vgr7
Spectrometer: USB2G7710
Scans to average: 3
Trigger mode: 4
Integration Time (sec): 2.000000E-2
Electric dark correction enabled: true
Boxcar width: 10
XAxis mode: Wavelengths
Number of Pixels in Spectrum: 2048
>>>>>Begin Spectral Data<<<<<
177.721	-520.37
178.105	-2011.11
178.488	258.82
178.871	158.89
179.254	79.63
179.636	176.63
180.019	1160.19
180.402	283.33
180.785	-3.09
181.168	124.69
181.55	-265.74
181.933	-670.83
182.316	-785.42
182.698	415.97
183.081	424.4
183.463	285.67
183.846	208.65
184.228	288.99
184.611	136.94
184.993	125.83
185.376	129.94
185.758	102.96
186.14	92.74
186.522	77.02
186.904	67.95
187.287	57.27
187.669	56.22
188.051	60.11
188.433	37.23
188.815	46.32
189.197	38.73
189.579	20.89
189.961	28.88
190.342	27.2
190.724	22.63
191.106	22.94
191.488	23.01
191.869	30.64
192.251	33.43
192.633	32.82
193.014	32.08
193.396	26.85
193.777	32.08
194.159	30.58
194.54	22.57
194.922	17.95
195.303	20.74
195.684	19.87
196.065	12.75
196.447	14.68
196.828	6.94
197.209	4.78
197.59	4.29
197.971	-1.19
198.352	-7.95
198.733	-3.52
199.114	-11.86
199.495	-13.99
199.876	-25.96
200.257	-28.13
200.638	-28.61
201.018	-28.16
201.399	-25.44
201.78	-33.95
202.16	-22.3
202.541	-32.5
202.922	-37.3
203.302	-42.3
203.683	-49.7
204.063	-37.24
204.444	-19.38
204.824	-25.54
205.204	-24.76
205.585	-15.37
205.965	-25.47
206.345	-30.45
206.725	-30.11
207.106	-16.27
207.486	-14.05
207.866	-2.55
208.246	-1.33
208.626	-12.21
209.006	-9.32
209.386	-11.58
209.766	-20.27
210.145	-21.71
210.525	-11.05
210.905	-6.8
211.285	-12.66
211.664	-6.16
212.044	-0.57
212.424	2.68
212.803	4.25
213.183	19.97
213.562	23.46
213.942	30.14
214.321	32.55
214.701	25.72
215.08	30.33
215.459	21.06
215.838	18.54
216.218	11.98
216.597	21.71
216.976	20.08
217.355	24.51
217.734	24.23
218.113	46.38
218.492	41.51
218.871	50.77
219.25	48.06
219.629	60.93
220.008	62.31
220.387	42.41
220.766	46.78
221.144	26.23
221.523	27.04
221.902	28.03
222.28	36.43
222.659	41.68
223.037	39.24
223.416	54.53
223.794	52.28
224.173	53.69
224.551	46.3
224.929	41.88
225.308	38.78
225.686	38.06
226.064	21.32
226.442	21.51
226.821	15.14
227.199	14.91
227.577	13.7
227.955	13.12
228.333	12.68
228.711	12.41
229.089	17.23
229.467	16.12
229.845	13.07
230.222	11.19
230.6	7.09
230.978	5.91
231.356	4.1
231.733	3.82
232.111	2.04
232.488	1.4
232.866	0.13
233.243	0.36
233.621	2.94
233.998	4.26
234.376	3.09
234.753	3.5
235.13	3.61
235.508	3.48
235.885	1.28
236.262	0.82
236.639	0.24
237.016	-0.54
237.393	-0.56
237.77	0.73
238.147	0.88
238.524	0.83
238.901	1.12
239.278	0.16
239.655	0.58
240.032	1.47
240.409	0.85
240.785	1.25
241.162	1.64
241.539	1.4
241.915	1.52
242.292	1.94
242.668	2.37
243.045	2.33
243.421	2.67
243.798	3.08
244.174	3.4
244.551	3.31
244.927	3.33
245.303	3.35
245.679	3.43
246.056	3.41
246.432	3.6
246.808	3.78
247.184	4.09
247.56	3.9
247.936	3.83
248.312	4.09
248.688	4.38
249.064	4.05
249.44	4.03
249.815	3.78
250.191	3.83
250.567	3.89
250.943	3.86
251.318	3.68
251.694	3.67
252.069	3.83
252.445	3.86
252.82	4.05
253.196	4.08
253.571	3.83
253.947	4
254.322	4.03
254.697	3.76
255.073	3.69
255.448	3.68
255.823	3.66
256.198	3.67
256.573	3.78
256.948	3.99
257.323	3.87
257.698	3.97
258.073	3.82
258.448	3.86
258.823	3.64
259.198	3.75
259.573	3.31
259.948	3.12
260.322	3
260.697	2.94
261.072	2.95
261.446	3.25
261.821	3.1
262.195	3.09
262.57	3.39
262.944	3.48
263.319	3.4
263.693	3.25
264.067	3.43
264.442	3.19
264.816	3.16
265.19	3.05
265.564	3
265.938	2.94
266.313	2.76
266.687	3.1
267.061	2.98
267.435	3.32
267.809	3.28
268.183	3.54
268.556	3.34
268.93	3.4
269.304	3.22
269.678	3.33
270.051	3.45
270.425	3.11
270.799	2.83
271.172	3.22
271.546	3.41
271.919	3.11
272.293	3.23
272.666	3.3
273.04	3.57
273.413	3.58
273.787	3.63
274.16	3.66
274.533	3.61
274.906	3.51
275.279	3.48
275.653	3.63
276.026	3.7
276.399	3.79
276.772	3.79
277.145	3.63
277.518	3.6
277.891	3.48
278.263	3.56
278.636	3.73
279.009	3.51
279.382	3.57
279.755	3.59
280.127	3.63
280.5	3.4
280.872	3.39
281.245	3.47
281.617	3.34
281.99	3.48
282.362	3.33
282.735	3.49
283.107	3.57
283.479	3.59
283.852	3.53
284.224	3.55
284.596	3.53
284.968	3.63
285.34	3.52
285.713	3.58
286.085	3.53
286.457	3.59
286.829	3.52
287.201	3.33
287.572	3.51
287.944	3.52
288.316	3.74
288.688	3.62
289.06	3.6
289.431	3.82
289.803	3.59
290.175	3.63
290.546	3.5
290.918	3.56
291.289	3.27
291.661	3.21
292.032	3.02
292.403	2.98
292.775	3.03
293.146	3.14
293.517	3.11
293.889	3.18
294.26	3.25
294.631	3.36
295.002	3.61
295.373	3.55
295.744	3.42
296.115	3.33
296.486	3.32
296.857	3.36
297.228	3.22
297.599	3.34
297.97	3.44
298.34	3.45
298.711	3.52
299.082	3.89
299.452	3.86
299.823	3.92
300.194	3.93
300.564	3.89
300.935	3.99
301.305	4.09
301.676	4.14
302.046	4.02
302.416	4.03
302.787	3.86
303.157	3.89
303.527	3.89
303.897	3.91
304.267	4
304.637	4.21
305.008	4.34
305.378	4.37
305.748	4.35
306.117	4.41
306.487	4.25
306.857	4.05
307.227	4.2
307.597	4.37
307.967	4.51
308.336	4.44
308.706	4.37
309.076	4.35
309.445	4.3
309.815	4.4
310.184	4.36
310.554	4.44
310.923	4.47
311.293	4.46
311.662	4.44
312.031	4.49
312.401	4.48
312.77	4.48
313.139	4.44
313.508	4.5
313.877	4.33
314.246	4.4
314.616	4.31
314.985	4.18
315.353	4.29
315.722	4.27
316.091	4.39
316.46	4.42
316.829	4.43
317.198	4.48
317.567	4.46
317.935	4.5
318.304	4.48
318.672	4.43
319.041	4.7
319.41	4.76
319.778	4.66
320.147	4.53
320.515	4.52
320.883	4.63
321.252	4.7
321.62	4.85
321.988	4.91
322.357	5.18
322.725	5.33
323.093	5.2
323.461	5.12
323.829	4.99
324.197	5.05
324.565	4.84
324.933	4.74
325.301	4.67
325.669	4.72
326.037	4.84
326.405	4.9
326.772	4.83
327.14	4.74
327.508	4.76
327.875	4.85
328.243	4.86
328.61	4.67
328.978	4.59
329.346	4.75
329.713	4.76
330.08	4.66
330.448	4.79
330.815	4.76
331.182	4.7
331.55	4.8
331.917	4.62
332.284	4.82
332.651	4.95
333.018	5.03
333.385	5.11
333.752	5.03
334.119	5.13
334.486	5.05
334.853	5.07
335.22	5.15
335.587	4.98
335.954	4.97
336.32	5.21
336.687	5.35
337.054	5.24
337.42	5.19
337.787	5.11
338.153	5.01
338.52	5.15
338.886	5.34
339.253	5.28
339.619	5.46
339.986	5.36
340.352	5.31
340.718	5.25
341.084	5.16
341.451	5.2
341.817	5.15
342.183	5.24
342.549	5.31
342.915	5.27
343.281	5.24
343.647	5.19
344.013	5.01
344.379	4.86
344.745	4.84
345.11	4.85
345.476	5.05
345.842	4.97
346.208	4.81
346.573	4.77
346.939	4.9
347.304	4.78
347.67	4.94
348.035	4.93
348.401	5.03
348.766	4.96
349.132	4.9
349.497	4.88
349.862	4.84
350.228	4.84
350.593	4.86
350.958	4.98
351.323	5.06
351.688	5.13
352.053	5.16
352.418	5.25
352.783	5.31
353.148	5.29
353.513	5.3
353.878	5.36
354.243	5.47
354.608	5.46
354.972	5.64
355.337	5.6
355.702	5.61
356.066	5.53
356.431	5.59
356.795	5.59
357.16	5.55
357.524	5.6
357.889	5.61
358.253	5.54
358.618	5.5
358.982	5.44
359.346	5.49
359.71	5.44
360.075	5.4
360.439	5.43
360.803	5.41
361.167	5.43
361.531	5.41
361.895	5.37
362.259	5.39
362.623	5.31
362.987	5.29
363.351	5.31
363.714	5.36
364.078	5.36
364.442	5.39
364.806	5.5
365.169	5.42
365.533	5.42
365.896	5.43
366.26	5.44
366.623	5.47
366.987	5.46
367.35	5.54
367.714	5.63
368.077	5.58
368.44	5.58
368.803	5.52
369.167	5.51
369.53	5.48
369.893	5.35
370.256	5.31
370.619	5.27
370.982	5.24
371.345	5.31
371.708	5.22
372.071	5.1
372.434	4.95
372.797	4.95
373.159	4.98
373.522	5.01
373.885	4.97
374.247	4.94
374.61	4.94
374.973	4.9
375.335	4.84
375.698	4.8
376.06	4.77
376.423	4.77
376.785	4.83
377.147	4.75
377.51	4.85
377.872	4.89
378.234	4.88
378.596	4.88
378.958	4.82
379.321	4.85
379.683	4.93
380.045	4.91
380.407	4.89
380.769	4.81
381.13	4.78
381.492	4.76
381.854	4.73
382.216	4.71
382.578	4.7
382.939	4.71
383.301	4.66
383.663	4.61
384.024	4.61
384.386	4.58
384.747	4.54
385.109	4.47
385.47	4.47
385.832	4.46
386.193	4.43
386.554	4.37
386.916	4.35
387.277	4.26
387.638	4.27
387.999	4.28
388.36	4.27
388.721	4.26
389.082	4.23
389.443	4.26
389.804	4.23
390.165	4.2
390.526	4.15
390.887	4.15
391.248	4.2
391.609	4.23
391.969	4.2
392.33	4.25
392.691	4.21
393.051	4.19
393.412	4.19
393.772	4.21
394.133	4.22
394.493	4.18
394.854	4.2
395.214	4.22
395.574	4.16
395.935	4.16
396.295	4.2
396.655	4.21
397.015	4.2
397.376	4.2
397.736	4.18
398.096	4.15
398.456	4.14
398.816	4.1
399.176	4
399.535	3.97
399.895	3.89
400.255	3.9
400.615	3.88
400.975	3.89
401.334	3.83
401.694	3.85
402.054	3.85
402.413	3.81
402.773	3.81
403.132	3.82
403.492	3.8
403.851	3.77
404.211	3.74
404.57	3.74
404.929	3.72
405.288	3.74
405.648	3.76
406.007	3.77
406.366	3.74
406.725	3.76
407.084	3.76
407.443	3.79
407.802	3.8
408.161	3.8
408.52	3.78
408.879	3.81
409.238	3.8
409.596	3.79
409.955	3.81
410.314	3.79
410.673	3.78
411.031	3.79
411.39	3.77
411.748	3.8
412.107	3.77
412.465	3.78
412.824	3.75
413.182	3.73
413.54	3.72
413.899	3.73
414.257	3.72
414.615	3.72
414.974	3.71
415.332	3.71
415.69	3.67
416.048	3.66
416.406	3.64
416.764	3.59
417.122	3.6
417.48	3.62
417.838	3.61
418.195	3.6
418.553	3.6
418.911	3.59
419.269	3.58
419.626	3.56
419.984	3.53
420.342	3.51
420.699	3.52
421.057	3.5
421.414	3.52
421.772	3.52
422.129	3.51
422.486	3.5
422.844	3.49
423.201	3.51
423.558	3.52
423.915	3.52
424.273	3.53
424.63	3.51
424.987	3.5
425.344	3.5
425.701	3.5
426.058	3.47
426.415	3.47
426.772	3.48
427.128	3.46
427.485	3.48
427.842	3.48
428.199	3.47
428.555	3.46
428.912	3.43
429.269	3.42
429.625	3.43
429.982	3.44
430.338	3.44
430.695	3.43
431.051	3.41
431.407	3.41
431.764	3.4
432.12	3.43
432.476	3.43
432.832	3.44
433.189	3.43
433.545	3.46
433.901	3.47
434.257	3.45
434.613	3.47
434.969	3.47
435.325	3.48
435.681	3.49
436.036	3.49
436.392	3.49
436.748	3.51
437.104	3.49
437.459	3.48
437.815	3.48
438.171	3.48
438.526	3.49
438.882	3.47
439.237	3.46
439.593	3.47
439.948	3.47
440.304	3.46
440.659	3.46
441.014	3.45
441.369	3.46
441.725	3.47
442.08	3.45
442.435	3.46
442.79	3.44
443.145	3.45
443.5	3.42
443.855	3.43
444.21	3.42
444.565	3.43
444.92	3.41
445.275	3.42
445.629	3.4
445.984	3.39
446.339	3.4
446.693	3.41
447.048	3.39
447.403	3.38
447.757	3.38
448.112	3.38
448.466	3.37
448.82	3.36
449.175	3.34
449.529	3.36
449.883	3.35
450.238	3.36
450.592	3.36
450.946	3.37
451.3	3.38
451.654	3.38
452.008	3.36
452.362	3.38
452.716	3.36
453.07	3.37
453.424	3.39
453.778	3.35
454.132	3.35
454.486	3.38
454.839	3.37
455.193	3.35
455.547	3.36
455.9	3.37
456.254	3.34
456.607	3.33
456.961	3.32
457.314	3.32
457.668	3.33
458.021	3.36
458.375	3.36
458.728	3.36
459.081	3.36
459.434	3.37
459.787	3.38
460.141	3.39
460.494	3.42
460.847	3.42
461.2	3.46
461.553	3.46
461.906	3.45
462.259	3.46
462.611	3.48
462.964	3.5
463.317	3.51
463.67	3.56
464.022	3.59
464.375	3.6
464.728	3.61
465.08	3.59
465.433	3.57
465.785	3.59
466.138	3.6
466.49	3.61
466.843	3.63
467.195	3.64
467.547	3.61
467.899	3.58
468.252	3.59
468.604	3.59
468.956	3.6
469.308	3.61
469.66	3.65
470.012	3.62
470.364	3.62
470.716	3.62
471.068	3.61
471.42	3.62
471.772	3.66
472.123	3.69
472.475	3.71
472.827	3.72
473.178	3.73
473.53	3.72
473.882	3.7
474.233	3.71
474.585	3.69
474.936	3.72
475.288	3.75
475.639	3.77
475.99	3.76
476.342	3.77
476.693	3.78
477.044	3.76
477.395	3.77
477.746	3.74
478.097	3.74
478.448	3.74
478.8	3.72
479.15	3.68
479.501	3.68
479.852	3.67
480.203	3.66
480.554	3.64
480.905	3.65
481.255	3.65
481.606	3.65
481.957	3.66
482.307	3.65
482.658	3.64
483.009	3.62
483.359	3.62
483.709	3.62
484.06	3.62
484.41	3.61
484.761	3.62
485.111	3.62
485.461	3.61
485.811	3.6
486.162	3.61
486.512	3.6
486.862	3.59
487.212	3.6
487.562	3.61
487.912	3.61
488.262	3.62
488.612	3.63
488.961	3.62
489.311	3.61
489.661	3.62
490.011	3.63
490.36	3.63
490.71	3.65
491.06	3.64
491.409	3.63
491.759	3.64
492.108	3.65
492.458	3.66
492.807	3.67
493.157	3.69
493.506	3.7
493.855	3.71
494.204	3.72
494.554	3.72
494.903	3.73
495.252	3.74
495.601	3.75
495.95	3.74
496.299	3.76
496.648	3.79
496.997	3.81
497.346	3.84
497.695	3.86
498.043	3.85
498.392	3.89
498.741	3.92
499.09	3.93
499.438	3.94
499.787	3.96
500.135	4
500.484	4.01
500.832	4.05
501.181	4.09
501.529	4.12
501.878	4.16
502.226	4.19
502.574	4.22
502.923	4.22
503.271	4.25
503.619	4.29
503.967	4.3
504.315	4.33
504.663	4.35
505.011	4.42
505.359	4.47
505.707	4.51
506.055	4.56
506.403	4.6
506.751	4.67
507.098	4.74
507.446	4.79
507.794	4.84
508.141	4.91
508.489	5
508.837	5.05
509.184	5.13
509.531	5.18
509.879	5.27
510.226	5.36
510.574	5.44
510.921	5.51
511.268	5.61
511.616	5.69
511.963	5.78
512.31	5.86
512.657	5.98
513.004	6.08
513.351	6.19
513.698	6.35
514.045	6.46
514.392	6.58
514.739	6.7
515.086	6.89
515.432	7.04
515.779	7.18
516.126	7.36
516.473	7.48
516.819	7.64
517.166	7.78
517.512	7.92
517.859	8.1
518.205	8.25
518.552	8.4
518.898	8.58
519.245	8.73
519.591	8.9
519.937	9.06
520.283	9.26
520.629	9.46
520.976	9.67
521.322	9.91
521.668	10.15
522.014	10.39
522.36	10.61
522.706	10.86
523.052	11.16
523.398	11.46
523.743	11.79
524.089	12.09
524.435	12.4
524.781	12.69
525.126	12.92
525.472	13.18
525.817	13.41
526.163	13.63
526.509	13.84
526.854	14.04
527.199	14.23
527.545	14.38
527.89	14.55
528.235	14.71
528.581	14.89
528.926	15.05
529.271	15.24
529.616	15.42
529.961	15.6
530.306	15.76
530.651	15.93
530.996	16.12
531.341	16.33
531.686	16.53
532.031	16.73
532.376	16.93
532.721	17.15
533.065	17.39
533.41	17.62
533.755	17.83
534.099	18.07
534.444	18.29
534.788	18.54
535.133	18.77
535.477	18.99
535.822	19.21
536.166	19.47
536.51	19.72
536.855	19.99
537.199	20.25
537.543	20.56
537.887	20.85
538.231	21.12
538.576	21.4
538.92	21.68
539.264	21.93
539.608	22.22
539.951	22.43
540.295	22.62
540.639	22.84
540.983	23.07
541.327	23.27
541.671	23.46
542.014	23.66
542.358	23.86
542.701	24.07
543.045	24.26
543.389	24.43
543.732	24.62
544.075	24.82
544.419	25.02
544.762	25.18
545.105	25.41
545.449	25.64
545.792	25.88
546.135	26.12
546.478	26.4
546.821	26.6
547.165	26.88
547.508	27.16
547.851	27.33
548.194	27.57
548.536	27.8
548.879	28.07
549.222	28.27
549.565	28.55
549.908	28.79
550.25	29.04
550.593	29.32
550.936	29.51
551.278	29.75
551.621	30
551.963	30.29
552.306	30.52
552.648	30.76
552.991	30.99
553.333	31.17
553.675	31.39
554.017	31.62
554.36	31.85
554.702	32.02
555.044	32.24
555.386	32.44
555.728	32.62
556.07	32.81
556.412	32.97
556.754	33.11
557.096	33.29
557.438	33.46
557.78	33.65
558.121	33.9
558.463	34.11
558.805	34.35
559.147	34.57
559.488	34.76
559.83	34.95
560.171	35.15
560.513	35.31
560.854	35.44
561.196	35.68
561.537	35.83
561.878	36.03
562.22	36.24
562.561	36.44
562.902	36.64
563.243	36.81
563.584	37.03
563.925	37.24
564.266	37.41
564.607	37.59
564.948	37.77
565.289	37.99
565.63	38.08
565.971	38.19
566.312	38.31
566.653	38.46
566.993	38.57
567.334	38.69
567.675	38.88
568.015	39.06
568.356	39.15
568.696	39.29
569.037	39.44
569.377	39.57
569.718	39.7
570.058	39.81
570.398	40.01
570.739	40.14
571.079	40.3
571.419	40.43
571.759	40.54
572.099	40.65
572.439	40.76
572.779	41
573.119	41.07
573.459	41.15
573.799	41.26
574.139	41.42
574.479	41.52
574.819	41.61
575.158	41.7
575.498	41.86
575.838	41.92
576.177	42.04
576.517	42.2
576.856	42.28
577.196	42.4
577.535	42.49
577.875	42.64
578.214	42.7
578.553	42.86
578.893	43.02
579.232	43.1
579.571	43.21
579.91	43.25
580.25	43.41
580.589	43.51
580.928	43.61
581.267	43.72
581.606	43.87
581.945	43.92
582.283	44.03
582.622	44.12
582.961	44.26
583.3	44.36
583.639	44.46
583.977	44.59
584.316	44.73
584.654	44.82
584.993	44.84
585.332	44.99
585.67	45.06
586.008	45.12
586.347	45.27
586.685	45.31
587.024	45.33
587.362	45.4
587.7	45.56
588.038	45.66
588.376	45.7
588.715	45.81
589.053	45.94
589.391	46.04
589.729	46.08
590.067	46.25
590.404	46.35
590.742	46.44
591.08	46.57
591.418	46.66
591.756	46.67
592.093	46.83
592.431	46.94
592.769	47
593.106	47.08
593.444	47.2
593.781	47.32
594.119	47.36
594.456	47.42
594.793	47.49
595.131	47.49
595.468	47.58
595.805	47.59
596.143	47.59
596.48	47.63
596.817	47.71
597.154	47.78
597.491	47.8
597.828	47.87
598.165	47.91
598.502	48
598.839	48.08
599.176	48.13
599.512	48.22
599.849	48.33
600.186	48.44
600.523	48.53
600.859	48.55
601.196	48.74
601.532	48.79
601.869	48.82
602.205	48.93
602.542	48.95
602.878	48.99
603.215	49.1
603.551	49.15
603.887	49.22
604.223	49.23
604.56	49.3
604.896	49.37
605.232	49.42
605.568	49.41
605.904	49.48
606.24	49.57
606.576	49.58
606.912	49.62
607.248	49.67
607.583	49.66
607.919	49.72
608.255	49.78
608.591	49.89
608.926	49.97
609.262	50.05
609.597	50.15
609.933	50.23
610.268	50.33
610.604	50.45
610.939	50.53
611.275	50.56
611.61	50.6
611.945	50.61
612.281	50.6
612.616	50.69
612.951	50.72
613.286	50.74
613.621	50.85
613.956	50.82
614.291	50.85
614.626	50.92
614.961	50.97
615.296	50.96
615.631	51.03
615.966	51.05
616.3	51.08
616.635	51.15
616.97	51.25
617.304	51.17
617.639	51.21
617.973	51.23
618.308	51.25
618.642	51.25
618.977	51.26
619.311	51.46
619.646	51.58
619.98	51.6
620.314	51.59
620.648	51.58
620.983	51.69
621.317	51.75
621.651	51.82
621.985	51.92
622.319	52.07
622.653	52.16
622.987	52.26
623.321	52.34
623.655	52.34
623.988	52.41
624.322	52.53
624.656	52.5
624.99	52.46
625.323	52.49
625.657	52.58
625.99	52.72
626.324	52.71
626.657	52.59
626.991	52.66
627.324	52.73
627.658	52.76
627.991	52.88
628.324	52.88
628.657	52.86
628.991	52.95
629.324	52.91
629.657	52.95
629.99	52.94
630.323	53.05
630.656	53.13
630.989	53.16
631.322	53.12
631.655	53.2
631.987	53.3
632.32	53.37
632.653	53.43
632.986	53.37
633.318	53.39
633.651	53.5
633.984	53.64
634.316	53.68
634.649	53.7
634.981	53.64
635.313	53.62
635.646	53.73
635.978	53.69
636.31	53.62
636.643	53.58
636.975	53.67
637.307	53.71
637.639	53.71
637.971	53.67
638.303	53.82
638.635	53.87
638.967	53.83
639.299	53.96
639.631	54.03
639.963	54.05
640.295	54.09
640.626	54.2
640.958	54.15
641.29	54.21
641.621	54.21
641.953	54.3
642.285	54.45
642.616	54.43
642.948	54.47
643.279	54.56
643.61	54.6
643.942	54.62
644.273	54.57
644.604	54.6
644.936	54.49
645.267	54.49
645.598	54.48
645.929	54.56
646.26	54.48
646.591	54.53
646.922	54.58
647.253	54.53
647.584	54.43
647.915	54.5
648.245	54.46
648.576	54.66
648.907	54.61
649.238	54.62
649.568	54.64
649.899	54.7
650.229	54.82
650.56	54.84
650.89	54.82
651.221	54.76
651.551	54.73
651.882	54.92
652.212	54.89
652.542	54.97
652.872	55.05
653.203	55.12
653.533	55.07
653.863	55.14
654.193	55.18
654.523	55.21
654.853	55.28
655.183	55.27
655.513	55.15
655.843	55.18
656.172	55.18
656.502	55.22
656.832	55.27
657.162	55.26
657.491	55.3
657.821	55.35
658.15	55.41
658.48	55.47
658.809	55.5
659.139	55.48
659.468	55.42
659.798	55.29
660.127	55.32
660.456	55.27
660.785	55.23
661.115	55.37
661.444	55.34
661.773	55.31
662.102	55.31
662.431	55.3
662.76	55.32
663.089	55.38
663.418	55.3
663.747	55.37
664.076	55.33
664.404	55.33
664.733	55.45
665.062	55.5
665.39	55.45
665.719	55.47
666.048	55.6
666.376	55.51
666.705	55.58
667.033	55.6
667.362	55.71
667.69	55.71
668.018	55.67
668.347	55.83
668.675	55.76
669.003	55.83
