Data from MVZ_BU136690_Reflection_00013.txt Node
Date: Tue Nov 19 12:08:12 EST 2019
User: vgr7
Spectrometer: USB2G7710
Scans to average: 3
Trigger mode: 4
Integration Time (sec): 2.000000E-2
Electric dark correction enabled: true
Boxcar width: 10
XAxis mode: Wavelengths
Number of Pixels in Spectrum: 2048
>>>>>Begin Spectral Data<<<<<
177.721	25.7
178.105	30.66
178.488	104.24
178.871	60
179.254	95.45
179.636	13.04
180.019	-39.91
180.402	18.18
180.785	535.71
181.168	158.41
181.55	83.27
181.933	40.17
182.316	106.16
182.698	57.73
183.081	225
183.463	57.09
183.846	32.34
184.228	86.41
184.611	-101.09
184.993	75
185.376	-259.76
185.758	80.77
186.14	72.86
186.522	198.84
186.904	431.25
187.287	206.71
187.669	76.83
188.051	188.41
188.433	206.71
188.815	431.9
189.197	195.78
189.579	49.88
189.961	34.17
190.342	47.99
190.724	49.93
191.106	45.13
191.488	61.01
191.869	38.69
192.251	26.58
192.633	40.56
193.014	64.95
193.396	78.66
193.777	107.81
194.159	86.92
194.54	76.5
194.922	80.27
195.303	90.67
195.684	72.52
196.065	66.35
196.447	70.39
196.828	49.16
197.209	61.04
197.59	115.57
197.971	86.84
198.352	58.96
198.733	57.99
199.114	102.68
199.495	75.59
199.876	99.02
200.257	117.42
200.638	53.6
201.018	-6.95
201.399	-12.47
201.78	-21.12
202.16	-11.41
202.541	-38.09
202.922	-106.68
203.302	-138.93
203.683	-243.1
204.063	-212.07
204.444	-255.34
204.824	-306.52
205.204	-37.81
205.585	-140.3
205.965	-113.56
206.345	-128.67
206.725	-158.4
207.106	-81.99
207.486	-61.36
207.866	-51.35
208.246	-88.69
208.626	-155.79
209.006	-205.74
209.386	-139.18
209.766	-328.85
210.145	-88.32
210.525	-111.7
210.905	-94.37
211.285	-77.48
211.664	-33.2
212.044	-31.03
212.424	-18.33
212.803	-7.37
213.183	-44.66
213.562	-9.88
213.942	-17.82
214.321	-20.46
214.701	-17.58
215.08	-50.96
215.459	-37.72
215.838	-38.51
216.218	-13.73
216.597	2.43
216.976	-2.2
217.355	0.61
217.734	13.1
218.113	4.06
218.492	12.16
218.871	37.25
219.25	38.22
219.629	32.23
220.008	45.84
220.387	43.93
220.766	40.13
221.144	52.4
221.523	64.82
221.902	77.01
222.28	74.37
222.659	58.08
223.037	67.77
223.416	59.57
223.794	68.63
224.173	35.19
224.551	27.36
224.929	24.4
225.308	20.2
225.686	16.71
226.064	17.42
226.442	21.74
226.821	17.55
227.199	17.2
227.577	16.61
227.955	13.86
228.333	15.42
228.711	10.5
229.089	8.82
229.467	7.14
229.845	6.81
230.222	6.76
230.6	8.79
230.978	7.72
231.356	3.88
231.733	3.58
232.111	7.94
232.488	8.55
232.866	7.73
233.243	7.58
233.621	8.23
233.998	9.21
234.376	5.2
234.753	6
235.13	7.74
235.508	7.47
235.885	6.17
236.262	5.36
236.639	5.68
237.016	5
237.393	4.94
237.77	5.41
238.147	5.62
238.524	6.05
238.901	5.93
239.278	5.83
239.655	5.65
240.032	5.64
240.409	5.88
240.785	5.58
241.162	5.44
241.539	5.79
241.915	5.42
242.292	6.24
242.668	6.19
243.045	5.81
243.421	6.37
243.798	6.7
244.174	6.63
244.551	6.66
244.927	6.6
245.303	6.12
245.679	6.27
246.056	6.12
246.432	5.9
246.808	6.25
247.184	6.38
247.56	6.32
247.936	6.39
248.312	6.29
248.688	6.41
249.064	6.25
249.44	5.95
249.815	5.85
250.191	5.67
250.567	5.55
250.943	5.35
251.318	5.08
251.694	4.83
252.069	5.08
252.445	4.88
252.82	5.3
253.196	5.47
253.571	4.94
253.947	5.19
254.322	5.33
254.697	5.07
255.073	5.26
255.448	4.9
255.823	4.9
256.198	4.88
256.573	4.79
256.948	4.86
257.323	5.04
257.698	4.89
258.073	4.81
258.448	4.81
258.823	4.86
259.198	4.82
259.573	4.55
259.948	4.34
260.322	4.42
260.697	4.4
261.072	4.51
261.446	4.6
261.821	4.6
262.195	4.55
262.57	4.45
262.944	4.51
263.319	4.83
263.693	4.72
264.067	4.67
264.442	4.73
264.816	4.76
265.19	4.78
265.564	4.91
265.938	5.02
266.313	4.78
266.687	4.87
267.061	5.04
267.435	5.36
267.809	5.49
268.183	5.55
268.556	5.42
268.93	5.49
269.304	5.41
269.678	5.44
270.051	5.28
270.425	5.48
270.799	5.12
271.172	4.95
271.546	5.04
271.919	5.05
272.293	5.05
272.666	5.08
273.04	5.04
273.413	5.07
273.787	5.03
274.16	5.01
274.533	5.14
274.906	4.94
275.279	4.93
275.653	5.12
276.026	5.1
276.399	5.08
276.772	4.94
277.145	5.03
277.518	5.03
277.891	5.2
278.263	5.26
278.636	5.44
279.009	5.67
279.382	5.56
279.755	5.47
280.127	5.47
280.5	5.47
280.872	5.46
281.245	5.43
281.617	5.36
281.99	5.54
282.362	5.34
282.735	5.37
283.107	5.3
283.479	5.26
283.852	5.15
284.224	5.28
284.596	5.33
284.968	5.25
285.34	5.27
285.713	5.28
286.085	5.13
286.457	5.14
286.829	5.03
287.201	5.1
287.572	5.16
287.944	5.27
288.316	5.26
288.688	5.42
289.06	5.58
289.431	5.74
289.803	5.82
290.175	5.86
290.546	6.02
290.918	6.09
291.289	5.93
291.661	6.02
292.032	5.99
292.403	5.99
292.775	6.3
293.146	6.4
293.517	6.33
293.889	6.45
294.26	6.65
294.631	6.79
295.002	6.76
295.373	6.87
295.744	6.85
296.115	6.88
296.486	6.79
296.857	6.65
297.228	6.46
297.599	6.52
297.97	6.63
298.34	6.63
298.711	6.82
299.082	6.92
299.452	6.92
299.823	7.08
300.194	7.31
300.564	7.25
300.935	7.39
301.305	7.53
301.676	7.55
302.046	7.5
302.416	7.52
302.787	7.62
303.157	7.72
303.527	7.91
303.897	8.2
304.267	8.37
304.637	8.64
305.008	8.91
305.378	8.91
305.748	8.94
306.117	8.99
306.487	8.89
306.857	9.22
307.227	9.4
307.597	9.23
307.967	9.16
308.336	9.24
308.706	9.19
309.076	9.47
309.445	9.62
309.815	9.7
310.184	9.67
310.554	9.7
310.923	9.75
311.293	9.68
311.662	9.67
312.031	9.78
312.401	9.71
312.77	9.78
313.139	9.95
313.508	9.98
313.877	10.14
314.246	10.23
314.616	10.2
314.985	10.14
315.353	10.43
315.722	10.56
316.091	10.54
316.46	10.65
316.829	10.56
317.198	10.63
317.567	10.68
317.935	10.81
318.304	11.11
318.672	11.33
319.041	11.49
319.41	11.5
319.778	11.56
320.147	11.83
320.515	11.94
320.883	11.9
321.252	12.19
321.62	12.1
321.988	12.17
322.357	12.12
322.725	12.38
323.093	12.32
323.461	12.47
323.829	12.73
324.197	12.84
324.565	12.86
324.933	12.7
325.301	12.7
325.669	12.74
326.037	12.79
326.405	12.81
326.772	12.8
327.14	12.99
327.508	13.01
327.875	13.04
328.243	13.08
328.61	13.16
328.978	13.15
329.346	13.28
329.713	13.41
330.08	13.63
330.448	13.67
330.815	13.71
331.182	13.69
331.55	13.73
331.917	13.8
332.284	13.89
332.651	14.13
333.018	14.3
333.385	14.44
333.752	14.42
334.119	14.44
334.486	14.63
334.853	14.61
335.22	14.58
335.587	14.53
335.954	14.59
336.32	14.75
336.687	14.83
337.054	14.87
337.42	14.88
337.787	14.89
338.153	14.93
338.52	15.11
338.886	15.1
339.253	15
339.619	15.01
339.986	14.98
340.352	15
340.718	15.01
341.084	15.08
341.451	15.17
341.817	15.28
342.183	15.21
342.549	15.21
342.915	15.44
343.281	15.58
343.647	15.72
344.013	15.57
344.379	15.62
344.745	15.81
345.11	15.84
345.476	15.84
345.842	15.85
346.208	15.9
346.573	15.91
346.939	16.05
347.304	16.03
347.67	16.18
348.035	16.26
348.401	16.34
348.766	16.37
349.132	16.41
349.497	16.39
349.862	16.44
350.228	16.55
350.593	16.46
350.958	16.44
351.323	16.54
351.688	16.79
352.053	16.76
352.418	16.62
352.783	16.59
353.148	16.59
353.513	16.62
353.878	16.54
354.243	16.62
354.608	16.62
354.972	16.67
355.337	16.67
355.702	16.56
356.066	16.54
356.431	16.5
356.795	16.38
357.16	16.26
357.524	16.21
357.889	16.16
358.253	16.15
358.618	16.15
358.982	16.08
359.346	15.95
359.71	15.82
360.075	15.9
360.439	15.92
360.803	15.92
361.167	15.84
361.531	15.84
361.895	15.88
362.259	15.91
362.623	15.85
362.987	15.77
363.351	15.81
363.714	15.82
364.078	15.76
364.442	15.84
364.806	15.92
365.169	15.95
365.533	15.85
365.896	15.78
366.26	15.76
366.623	15.61
366.987	15.64
367.35	15.71
367.714	15.61
368.077	15.64
368.44	15.59
368.803	15.58
369.167	15.48
369.53	15.33
369.893	15.15
370.256	15.13
370.619	15.09
370.982	14.98
371.345	14.84
371.708	14.88
372.071	14.75
372.434	14.57
372.797	14.45
373.159	14.48
373.522	14.44
373.885	14.28
374.247	14.22
374.61	14.05
374.973	13.98
375.335	13.9
375.698	13.73
376.06	13.66
376.423	13.6
376.785	13.55
377.147	13.46
377.51	13.46
377.872	13.33
378.234	13.31
378.596	13.29
378.958	13.24
379.321	13.16
379.683	13.12
380.045	13.08
380.407	13.1
380.769	13.02
381.13	12.91
381.492	12.83
381.854	12.79
382.216	12.78
382.578	12.77
382.939	12.65
383.301	12.62
383.663	12.55
384.024	12.52
384.386	12.48
384.747	12.43
385.109	12.33
385.47	12.29
385.832	12.15
386.193	12.03
386.554	11.89
386.916	11.73
387.277	11.62
387.638	11.54
387.999	11.41
388.36	11.29
388.721	11.24
389.082	11.23
389.443	11.21
389.804	11.07
390.165	10.94
390.526	10.9
390.887	10.78
391.248	10.72
391.609	10.64
391.969	10.55
392.33	10.46
392.691	10.44
393.051	10.35
393.412	10.33
393.772	10.32
394.133	10.33
394.493	10.3
394.854	10.22
395.214	10.22
395.574	10.14
395.935	10.08
396.295	10.02
396.655	9.93
397.015	9.85
397.376	9.83
397.736	9.76
398.096	9.68
398.456	9.62
398.816	9.53
399.176	9.4
399.535	9.3
399.895	9.27
400.255	9.19
400.615	9.09
400.975	9.01
401.334	8.92
401.694	8.8
402.054	8.74
402.413	8.69
402.773	8.62
403.132	8.6
403.492	8.52
403.851	8.47
404.211	8.41
404.57	8.35
404.929	8.31
405.288	8.3
405.648	8.25
406.007	8.24
406.366	8.2
406.725	8.19
407.084	8.17
407.443	8.15
407.802	8.08
408.161	8.08
408.52	8.03
408.879	8.01
409.238	8.03
409.596	8.01
409.955	7.98
410.314	7.96
410.673	7.9
411.031	7.88
411.39	7.85
411.748	7.85
412.107	7.81
412.465	7.79
412.824	7.73
413.182	7.7
413.54	7.64
413.899	7.64
414.257	7.61
414.615	7.59
414.974	7.53
415.332	7.51
415.69	7.46
416.048	7.42
416.406	7.37
416.764	7.3
417.122	7.23
417.48	7.18
417.838	7.13
418.195	7.09
418.553	7.06
418.911	7.01
419.269	6.98
419.626	6.94
419.984	6.87
420.342	6.85
420.699	6.83
421.057	6.8
421.414	6.76
421.772	6.72
422.129	6.68
422.486	6.64
422.844	6.59
423.201	6.55
423.558	6.52
423.915	6.49
424.273	6.48
424.63	6.46
424.987	6.45
425.344	6.43
425.701	6.41
426.058	6.4
426.415	6.37
426.772	6.32
427.128	6.3
427.485	6.3
427.842	6.26
428.199	6.23
428.555	6.2
428.912	6.14
429.269	6.11
429.625	6.1
429.982	6.1
430.338	6.11
430.695	6.11
431.051	6.1
431.407	6.07
431.764	6.03
432.12	6.03
432.476	6.01
432.832	5.99
433.189	5.96
433.545	5.96
433.901	5.97
434.257	5.99
434.613	5.99
434.969	5.98
435.325	5.98
435.681	5.98
436.036	5.99
436.392	6.02
436.748	6.04
437.104	6.03
437.459	6
437.815	6
438.171	5.99
438.526	5.99
438.882	5.99
439.237	5.98
439.593	5.99
439.948	5.98
440.304	5.97
440.659	5.97
441.014	5.96
441.369	5.96
441.725	5.93
442.08	5.87
442.435	5.88
442.79	5.88
443.145	5.86
443.5	5.83
443.855	5.81
444.21	5.81
444.565	5.81
444.92	5.81
445.275	5.8
445.629	5.77
445.984	5.76
446.339	5.76
446.693	5.75
447.048	5.72
447.403	5.71
447.757	5.71
448.112	5.69
448.466	5.68
448.82	5.64
449.175	5.63
449.529	5.66
449.883	5.63
450.238	5.59
450.592	5.58
450.946	5.55
451.3	5.54
451.654	5.49
452.008	5.47
452.362	5.43
452.716	5.42
453.07	5.43
453.424	5.39
453.778	5.38
454.132	5.38
454.486	5.38
454.839	5.36
455.193	5.35
455.547	5.35
455.9	5.34
456.254	5.35
456.607	5.34
456.961	5.34
457.314	5.35
457.668	5.36
458.021	5.34
458.375	5.35
458.728	5.35
459.081	5.37
459.434	5.38
459.787	5.41
460.141	5.41
460.494	5.41
460.847	5.41
461.2	5.4
461.553	5.38
461.906	5.41
462.259	5.42
462.611	5.44
462.964	5.45
463.317	5.47
463.67	5.52
464.022	5.55
464.375	5.57
464.728	5.58
465.08	5.59
465.433	5.64
465.785	5.66
466.138	5.69
466.49	5.69
466.843	5.72
467.195	5.77
467.547	5.79
467.899	5.83
468.252	5.9
468.604	5.96
468.956	6.01
469.308	6.02
469.66	6.06
470.012	6.08
470.364	6.09
470.716	6.11
471.068	6.1
471.42	6.12
471.772	6.14
472.123	6.16
472.475	6.2
472.827	6.23
473.178	6.26
473.53	6.29
473.882	6.33
474.233	6.32
474.585	6.31
474.936	6.33
475.288	6.33
475.639	6.3
475.99	6.28
476.342	6.3
476.693	6.32
477.044	6.3
477.395	6.31
477.746	6.34
478.097	6.35
478.448	6.32
478.8	6.31
479.15	6.3
479.501	6.28
479.852	6.28
480.203	6.27
480.554	6.24
480.905	6.23
481.255	6.21
481.606	6.2
481.957	6.19
482.307	6.17
482.658	6.16
483.009	6.15
483.359	6.13
483.709	6.12
484.06	6.1
484.41	6.11
484.761	6.09
485.111	6.08
485.461	6.08
485.811	6.08
486.162	6.07
486.512	6.06
486.862	6.06
487.212	6.06
487.562	6.04
487.912	6.04
488.262	6.01
488.612	6.01
488.961	6
489.311	6
489.661	6.01
490.011	6
490.36	6.02
490.71	6.03
491.06	6.05
491.409	6.06
491.759	6.08
492.108	6.1
492.458	6.11
492.807	6.13
493.157	6.16
493.506	6.2
493.855	6.23
494.204	6.26
494.554	6.3
494.903	6.37
495.252	6.44
495.601	6.53
495.95	6.58
496.299	6.65
496.648	6.73
496.997	6.8
497.346	6.89
497.695	6.98
498.043	7.09
498.392	7.13
498.741	7.21
499.09	7.31
499.438	7.42
499.787	7.54
500.135	7.62
500.484	7.7
500.832	7.82
501.181	7.97
501.529	8.11
501.878	8.23
502.226	8.38
502.574	8.52
502.923	8.67
503.271	8.87
503.619	9.03
503.967	9.19
504.315	9.35
504.663	9.49
505.011	9.65
505.359	9.8
505.707	9.99
506.055	10.18
506.403	10.32
506.751	10.46
507.098	10.62
507.446	10.82
507.794	11
508.141	11.2
508.489	11.39
508.837	11.57
509.184	11.77
509.531	11.91
509.879	12.07
510.226	12.23
510.574	12.38
510.921	12.57
511.268	12.75
511.616	12.96
511.963	13.17
512.31	13.36
512.657	13.56
513.004	13.77
513.351	13.98
513.698	14.19
514.045	14.45
514.392	14.67
514.739	14.89
515.086	15.12
515.432	15.33
515.779	15.51
516.126	15.74
516.473	15.95
516.819	16.16
517.166	16.36
517.512	16.56
517.859	16.77
518.205	16.93
518.552	17.09
518.898	17.23
519.245	17.4
519.591	17.58
519.937	17.76
520.283	17.94
520.629	18.12
520.976	18.3
521.322	18.53
521.668	18.75
522.014	18.95
522.36	19.16
522.706	19.38
523.052	19.67
523.398	19.88
523.743	20.13
524.089	20.39
524.435	20.65
524.781	20.88
525.126	21.08
525.472	21.3
525.817	21.49
526.163	21.69
526.509	21.86
526.854	22
527.199	22.13
527.545	22.27
527.89	22.41
528.235	22.56
528.581	22.66
528.926	22.83
529.271	22.97
529.616	23.13
529.961	23.3
530.306	23.44
530.651	23.64
530.996	23.82
531.341	24.01
531.686	24.19
532.031	24.38
532.376	24.57
532.721	24.79
533.065	25.02
533.41	25.24
533.755	25.47
534.099	25.72
534.444	25.98
534.788	26.21
535.133	26.49
535.477	26.74
535.822	27.03
536.166	27.29
536.51	27.61
536.855	27.92
537.199	28.19
537.543	28.53
537.887	28.84
538.231	29.18
538.576	29.48
538.92	29.8
539.264	30.11
539.608	30.42
539.951	30.65
540.295	30.93
540.639	31.18
540.983	31.43
541.327	31.65
541.671	31.84
542.014	32.1
542.358	32.32
542.701	32.57
543.045	32.8
543.389	33.01
543.732	33.22
544.075	33.47
544.419	33.74
544.762	33.97
545.105	34.23
545.449	34.47
545.792	34.76
546.135	35.03
546.478	35.34
546.821	35.66
547.165	35.97
547.508	36.27
547.851	36.62
548.194	36.92
548.536	37.28
548.879	37.66
549.222	38.03
549.565	38.34
549.908	38.68
550.25	39.03
550.593	39.37
550.936	39.78
551.278	40.09
551.621	40.45
551.963	40.85
552.306	41.16
552.648	41.51
552.991	41.89
553.333	42.2
553.675	42.53
554.017	42.84
554.36	43.22
554.702	43.55
555.044	43.82
555.386	44.15
555.728	44.47
556.07	44.77
556.412	45.01
556.754	45.28
557.096	45.63
557.438	45.89
557.78	46.23
558.121	46.53
558.463	46.79
558.805	47
559.147	47.25
559.488	47.57
559.83	47.78
560.171	47.98
560.513	48.24
560.854	48.46
561.196	48.72
561.537	48.91
561.878	49.18
562.22	49.39
562.561	49.63
562.902	49.85
563.243	50.07
563.584	50.32
563.925	50.53
564.266	50.64
564.607	50.86
564.948	51.13
565.289	51.32
565.63	51.54
565.971	51.73
566.312	51.88
566.653	52.06
566.993	52.3
567.334	52.5
567.675	52.76
568.015	52.96
568.356	53.16
568.696	53.32
569.037	53.41
569.377	53.6
569.718	53.76
570.058	53.9
570.398	54.15
570.739	54.33
571.079	54.6
571.419	54.82
571.759	55.01
572.099	55.08
572.439	55.18
572.779	55.31
573.119	55.45
573.459	55.62
573.799	55.73
574.139	55.84
574.479	55.96
574.819	56.05
575.158	56.15
575.498	56.21
575.838	56.44
576.177	56.59
576.517	56.71
576.856	56.82
577.196	57.02
577.535	57.12
577.875	57.17
578.214	57.2
578.553	57.33
578.893	57.36
579.232	57.53
579.571	57.76
579.91	57.94
580.25	58.12
580.589	58.29
580.928	58.41
581.267	58.56
581.606	58.68
581.945	58.79
582.283	58.99
582.622	59.15
582.961	59.13
583.3	59.27
583.639	59.41
583.977	59.57
584.316	59.7
584.654	59.77
584.993	59.98
585.332	60.07
585.67	60.2
586.008	60.35
586.347	60.38
586.685	60.45
587.024	60.47
587.362	60.54
587.7	60.67
588.038	60.75
588.376	60.83
588.715	60.9
589.053	61.02
589.391	61.02
589.729	61.06
590.067	61.1
590.404	61.14
590.742	61.26
591.08	61.32
591.418	61.33
591.756	61.4
592.093	61.47
592.431	61.6
592.769	61.63
593.106	61.73
593.444	61.83
593.781	61.71
594.119	61.77
594.456	61.79
594.793	61.74
595.131	61.79
595.468	61.83
595.805	61.89
596.143	61.91
596.48	62.01
596.817	62.11
597.154	62.34
597.491	62.42
597.828	62.43
598.165	62.44
598.502	62.53
598.839	62.58
599.176	62.59
599.512	62.57
599.849	62.7
600.186	62.75
600.523	62.77
600.859	62.92
601.196	63.12
601.532	63.25
601.869	63.24
602.205	63.38
602.542	63.4
602.878	63.49
603.215	63.53
603.551	63.51
603.887	63.49
604.223	63.47
604.56	63.5
604.896	63.4
605.232	63.49
605.568	63.44
605.904	63.52
606.24	63.55
606.576	63.62
606.912	63.56
607.248	63.66
607.583	63.72
607.919	63.76
608.255	63.72
608.591	63.69
608.926	63.8
609.262	63.79
609.597	63.88
609.933	63.94
610.268	63.98
610.604	64.03
610.939	64.14
611.275	64.2
611.61	64.25
611.945	64.42
612.281	64.44
612.616	64.54
612.951	64.56
613.286	64.69
613.621	64.72
613.956	64.75
614.291	64.65
614.626	64.64
614.961	64.72
615.296	64.77
615.631	64.71
615.966	64.74
616.3	64.73
616.635	64.71
616.97	64.74
617.304	64.76
617.639	64.72
617.973	64.66
618.308	64.66
618.642	64.68
618.977	64.72
619.311	64.71
619.646	64.77
619.98	64.78
620.314	64.78
620.648	64.85
620.983	64.96
621.317	65.07
621.651	65.15
621.985	65.17
622.319	65.13
622.653	65.23
622.987	65.27
623.321	65.27
623.655	65.26
623.988	65.22
624.322	65.22
624.656	65.42
624.99	65.47
625.323	65.5
625.657	65.54
625.99	65.52
626.324	65.58
626.657	65.62
626.991	65.68
627.324	65.64
627.658	65.62
627.991	65.6
628.324	65.61
628.657	65.68
628.991	65.77
629.324	65.77
629.657	65.67
629.99	65.66
630.323	65.7
630.656	65.75
630.989	65.76
631.322	65.83
631.655	65.67
631.987	65.62
632.32	65.61
632.653	65.61
632.986	65.62
633.318	65.57
633.651	65.51
633.984	65.47
634.316	65.55
634.649	65.54
634.981	65.45
635.313	65.4
635.646	65.37
635.978	65.31
636.31	65.24
636.643	65.44
636.975	65.44
637.307	65.5
637.639	65.44
637.971	65.45
638.303	65.4
638.635	65.48
638.967	65.58
639.299	65.62
639.631	65.71
639.963	65.73
640.295	65.83
640.626	65.8
640.958	65.77
641.29	65.69
641.621	65.68
641.953	65.95
642.285	66.03
642.616	65.98
642.948	66
643.279	66.15
643.61	66.07
643.942	66.06
644.273	65.99
644.604	66.14
644.936	66.12
645.267	66.18
645.598	66.29
645.929	66.21
646.26	66.18
646.591	65.98
646.922	66.07
647.253	66
647.584	65.99
647.915	66.02
648.245	66.03
648.576	66.03
648.907	65.94
649.238	65.85
649.568	65.85
649.899	65.78
650.229	65.77
650.56	65.84
650.89	65.92
651.221	66.02
651.551	65.85
651.882	65.91
652.212	65.88
652.542	65.75
652.872	65.9
653.203	65.88
653.533	66.13
653.863	66.08
654.193	66.17
654.523	66.21
654.853	66.24
655.183	66.25
655.513	66.44
655.843	66.39
656.172	66.49
656.502	66.58
656.832	66.66
657.162	66.72
657.491	66.75
657.821	66.75
658.15	66.79
658.48	66.93
658.809	66.89
659.139	66.88
659.468	66.94
659.798	66.82
660.127	66.8
660.456	66.62
660.785	66.64
661.115	66.5
661.444	66.51
661.773	66.52
662.102	66.48
662.431	66.41
662.76	66.4
