Data from MVZ_BU62167_Reflection_00015.txt Node
Date: Tue Nov 19 12:14:47 EST 2019
User: vgr7
Spectrometer: USB2G7710
Scans to average: 3
Trigger mode: 4
Integration Time (sec): 2.000000E-2
Electric dark correction enabled: true
Boxcar width: 10
XAxis mode: Wavelengths
Number of Pixels in Spectrum: 2048
>>>>>Begin Spectral Data<<<<<
177.721	-45.48
178.105	-435.71
178.488	-371.83
178.871	-157.89
179.254	-117.65
179.636	-64.95
180.019	-119.01
180.402	125
180.785	1200
181.168	-228.95
181.55	136.23
181.933	94.25
182.316	49.44
182.698	41.86
183.081	-2511.11
183.463	-439.22
183.846	-881.48
184.228	423.53
184.611	14.2
184.993	6.78
185.376	2.3
185.758	-2.87
186.14	-160
186.522	-20.69
186.904	35.29
187.287	10.96
187.669	145.45
188.051	128.3
188.433	2600
188.815	-105.88
189.197	-17.28
189.579	89.8
189.961	23.73
190.342	33.96
190.724	-66.67
191.106	-94.27
191.488	-31.18
191.869	-4.1
192.251	36.29
192.633	65.61
193.014	87.56
193.396	70.12
193.777	87.54
194.159	67.79
194.54	28.22
194.922	-7.88
195.303	-9.76
195.684	-26.97
196.065	-42.49
196.447	-34.8
196.828	-21.83
197.209	-1.4
197.59	1.4
197.971	5.62
198.352	4.55
198.733	0.31
199.114	22.37
199.495	15.06
199.876	17.12
200.257	8.5
200.638	-5.91
201.018	-9.49
201.399	-7.7
201.78	-10.39
202.16	-22.22
202.541	-19.9
202.922	-14.31
203.302	-9.84
203.683	-1.42
204.063	7.41
204.444	12.48
204.824	5.23
205.204	7.36
205.585	2.11
205.965	-13.03
206.345	-14.89
206.725	-5.73
207.106	-12.4
207.486	-13.87
207.866	-21.5
208.246	-4.65
208.626	-4.53
209.006	-12.63
209.386	-6.69
209.766	-2.68
210.145	15.05
210.525	9.82
210.905	27.07
211.285	28.38
211.664	54.42
212.044	73.54
212.424	57.56
212.803	46.96
213.183	46.98
213.562	44.97
213.942	45.64
214.321	44.33
214.701	44.89
215.08	49.61
215.459	55.83
215.838	44.44
216.218	26.42
216.597	28.26
216.976	24.11
217.355	8.54
217.734	6.09
218.113	15.4
218.492	18.76
218.871	16.58
219.25	15.34
219.629	-1.31
220.008	-10.17
220.387	-5.85
220.766	8.16
221.144	6.06
221.523	2.45
221.902	1.25
222.28	7.96
222.659	5.94
223.037	-1.1
223.416	-6.22
223.794	6.51
224.173	11.71
224.551	11.81
224.929	12.7
225.308	28.19
225.686	25.56
226.064	14.08
226.442	16.79
226.821	11.76
227.199	9.8
227.577	10.83
227.955	10.25
228.333	8.16
228.711	5.93
229.089	5.2
229.467	3.63
229.845	4.21
230.222	0.65
230.6	-1.65
230.978	-0.12
231.356	-1.62
231.733	-1.13
232.111	-1.06
232.488	-3.01
232.866	1.08
233.243	-1.56
233.621	-0.37
233.998	2.02
234.376	3.04
234.753	6.47
235.13	7.24
235.508	6.2
235.885	7.92
236.262	7.88
236.639	5.84
237.016	6.06
237.393	8.22
237.77	9.24
238.147	8.6
238.524	8.9
238.901	8.21
239.278	8.99
239.655	8.42
240.032	7.57
240.409	7.77
240.785	6.82
241.162	7.42
241.539	6.7
241.915	6.47
242.292	6.02
242.668	5.6
243.045	5.83
243.421	5.69
243.798	5.57
244.174	5.33
244.551	5.7
244.927	5.67
245.303	5.37
245.679	5.11
246.056	5.17
246.432	5.02
246.808	5.13
247.184	5.03
247.56	4.65
247.936	4.99
248.312	4.95
248.688	4.91
249.064	4.58
249.44	4.76
249.815	4.91
250.191	4.86
250.567	4.8
250.943	4.79
251.318	4.7
251.694	4.45
252.069	4.73
252.445	4.53
252.82	4.62
253.196	4.78
253.571	4.71
253.947	4.64
254.322	4.98
254.697	4.9
255.073	4.98
255.448	5.3
255.823	4.9
256.198	4.86
256.573	4.93
256.948	4.8
257.323	4.66
257.698	4.44
258.073	4.33
258.448	4.23
258.823	4.12
259.198	4.13
259.573	4.17
259.948	4.18
260.322	4.18
260.697	4.08
261.072	4.18
261.446	4.24
261.821	4.32
262.195	4.14
262.57	4.14
262.944	4.06
263.319	3.85
263.693	3.86
264.067	3.95
264.442	3.93
264.816	3.81
265.19	3.62
265.564	3.54
265.938	3.55
266.313	3.32
266.687	3.3
267.061	3.22
267.435	3.16
267.809	2.98
268.183	3.06
268.556	3.16
268.93	3.09
269.304	2.86
269.678	3.03
270.051	3.26
270.425	3.31
270.799	3.12
271.172	3.34
271.546	3.55
271.919	3.56
272.293	3.56
272.666	3.75
273.04	3.78
273.413	3.9
273.787	3.89
274.16	3.88
274.533	3.87
274.906	3.97
275.279	3.76
275.653	3.91
276.026	3.78
276.399	3.8
276.772	3.64
277.145	3.65
277.518	3.36
277.891	3.04
278.263	2.94
278.636	3.07
279.009	3.01
279.382	2.86
279.755	2.7
280.127	2.88
280.5	2.82
280.872	3.02
281.245	3.06
281.617	3.17
281.99	3.33
282.362	3.26
282.735	3.36
283.107	3.71
283.479	3.6
283.852	3.73
284.224	3.65
284.596	3.48
284.968	3.46
285.34	3.43
285.713	3.7
286.085	3.74
286.457	3.74
286.829	3.78
287.201	3.71
287.572	3.82
287.944	3.75
288.316	3.71
288.688	3.83
289.06	3.85
289.431	4.01
289.803	4.1
290.175	4.19
290.546	4.08
290.918	3.98
291.289	3.96
291.661	3.88
292.032	3.93
292.403	4.2
292.775	4.5
293.146	4.68
293.517	4.55
293.889	4.54
294.26	4.56
294.631	4.47
295.002	4.48
295.373	4.49
295.744	4.45
296.115	4.48
296.486	4.48
296.857	4.49
297.228	4.43
297.599	4.37
297.97	4.45
298.34	4.62
298.711	4.66
299.082	4.82
299.452	4.93
299.823	5.1
300.194	5.05
300.564	4.9
300.935	4.96
301.305	5.01
301.676	4.97
302.046	5.05
302.416	5.19
302.787	5.31
303.157	5.31
303.527	5.41
303.897	5.57
304.267	5.42
304.637	5.44
305.008	5.41
305.378	5.5
305.748	5.45
306.117	5.4
306.487	5.34
306.857	5.36
307.227	5.49
307.597	5.35
307.967	5.39
308.336	5.33
308.706	5.29
309.076	5.45
309.445	5.66
309.815	5.62
310.184	5.7
310.554	5.68
310.923	5.68
311.293	5.54
311.662	5.58
312.031	5.64
312.401	5.66
312.77	5.72
313.139	5.66
313.508	5.57
313.877	5.62
314.246	5.71
314.616	5.8
314.985	5.71
315.353	5.74
315.722	5.88
316.091	6.07
316.46	6.12
316.829	6.03
317.198	6.08
317.567	6.31
317.935	6.31
318.304	6.51
318.672	6.62
319.041	6.58
319.41	6.55
319.778	6.68
320.147	6.71
320.515	6.76
320.883	6.86
321.252	7.1
321.62	6.97
321.988	7
322.357	6.98
322.725	7.12
323.093	7.16
323.461	7.21
323.829	7.38
324.197	7.52
324.565	7.7
324.933	7.64
325.301	7.52
325.669	7.47
326.037	7.42
326.405	7.42
326.772	7.69
327.14	7.79
327.508	7.74
327.875	7.69
328.243	7.65
328.61	7.59
328.978	7.61
329.346	7.63
329.713	7.77
330.08	7.82
330.448	7.76
330.815	7.79
331.182	7.85
331.55	7.75
331.917	7.76
332.284	7.69
332.651	7.72
333.018	7.8
333.385	7.99
333.752	8.13
334.119	8.14
334.486	8.23
334.853	8.16
335.22	8.2
335.587	8.2
335.954	8.18
336.32	8.32
336.687	8.35
337.054	8.46
337.42	8.33
337.787	8.37
338.153	8.43
338.52	8.51
338.886	8.47
339.253	8.4
339.619	8.29
339.986	8.32
340.352	8.4
340.718	8.46
341.084	8.44
341.451	8.38
341.817	8.48
342.183	8.31
342.549	8.42
342.915	8.36
343.281	8.52
343.647	8.56
344.013	8.53
344.379	8.58
344.745	8.58
345.11	8.64
345.476	8.68
345.842	8.57
346.208	8.48
346.573	8.45
346.939	8.62
347.304	8.66
347.67	8.64
348.035	8.57
348.401	8.62
348.766	8.53
349.132	8.55
349.497	8.6
349.862	8.65
350.228	8.67
350.593	8.75
350.958	8.72
351.323	8.73
351.688	8.86
352.053	8.8
352.418	8.86
352.783	8.88
353.148	8.76
353.513	8.87
353.878	8.81
354.243	8.8
354.608	8.8
354.972	8.83
355.337	8.8
355.702	8.79
356.066	8.8
356.431	8.82
356.795	8.88
357.16	8.91
357.524	8.87
357.889	8.7
358.253	8.71
358.618	8.65
358.982	8.56
359.346	8.49
359.71	8.48
360.075	8.57
360.439	8.62
360.803	8.73
361.167	8.59
361.531	8.7
361.895	8.72
362.259	8.73
362.623	8.74
362.987	8.77
363.351	8.75
363.714	8.75
364.078	8.75
364.442	8.64
364.806	8.47
365.169	8.56
365.533	8.65
365.896	8.67
366.26	8.72
366.623	8.75
366.987	8.77
367.35	8.79
367.714	8.65
368.077	8.58
368.44	8.4
368.803	8.45
369.167	8.3
369.53	8.24
369.893	8.13
370.256	7.99
370.619	7.89
370.982	7.89
371.345	7.78
371.708	7.78
372.071	7.79
372.434	7.77
372.797	7.58
373.159	7.53
373.522	7.43
373.885	7.37
374.247	7.32
374.61	7.19
374.973	7.13
375.335	7.11
375.698	6.98
376.06	6.96
376.423	6.99
376.785	6.99
377.147	6.94
377.51	6.91
377.872	6.9
378.234	6.92
378.596	6.9
378.958	6.88
379.321	6.76
379.683	6.68
380.045	6.65
380.407	6.65
380.769	6.58
381.13	6.51
381.492	6.44
381.854	6.45
382.216	6.47
382.578	6.47
382.939	6.41
383.301	6.4
383.663	6.36
384.024	6.28
384.386	6.26
384.747	6.22
385.109	6.16
385.47	6.18
385.832	6.15
386.193	6.08
386.554	5.99
386.916	5.96
387.277	5.96
387.638	5.96
387.999	5.92
388.36	5.87
388.721	5.83
389.082	5.81
389.443	5.77
389.804	5.7
390.165	5.63
390.526	5.58
390.887	5.55
391.248	5.52
391.609	5.48
391.969	5.43
392.33	5.38
392.691	5.35
393.051	5.25
393.412	5.21
393.772	5.19
394.133	5.2
394.493	5.14
394.854	5.12
395.214	5.07
395.574	5.04
395.935	5.05
396.295	5.04
396.655	5.01
397.015	4.95
397.376	4.89
397.736	4.84
398.096	4.81
398.456	4.79
398.816	4.74
399.176	4.7
399.535	4.66
399.895	4.67
400.255	4.62
400.615	4.64
400.975	4.62
401.334	4.58
401.694	4.56
402.054	4.55
402.413	4.51
402.773	4.45
403.132	4.44
403.492	4.41
403.851	4.38
404.211	4.38
404.57	4.43
404.929	4.44
405.288	4.45
405.648	4.43
406.007	4.42
406.366	4.42
406.725	4.39
407.084	4.37
407.443	4.34
407.802	4.37
408.161	4.32
408.52	4.33
408.879	4.31
409.238	4.3
409.596	4.3
409.955	4.27
410.314	4.3
410.673	4.27
411.031	4.27
411.39	4.27
411.748	4.26
412.107	4.2
412.465	4.19
412.824	4.15
413.182	4.16
413.54	4.15
413.899	4.13
414.257	4.14
414.615	4.14
414.974	4.11
415.332	4.09
415.69	4.08
416.048	4.03
416.406	4.02
416.764	3.97
417.122	3.97
417.48	3.94
417.838	3.93
418.195	3.91
418.553	3.9
418.911	3.87
419.269	3.84
419.626	3.83
419.984	3.81
420.342	3.8
420.699	3.76
421.057	3.73
421.414	3.71
421.772	3.7
422.129	3.67
422.486	3.66
422.844	3.64
423.201	3.64
423.558	3.63
423.915	3.62
424.273	3.6
424.63	3.57
424.987	3.58
425.344	3.57
425.701	3.56
426.058	3.53
426.415	3.52
426.772	3.49
427.128	3.48
427.485	3.45
427.842	3.43
428.199	3.44
428.555	3.45
428.912	3.43
429.269	3.44
429.625	3.44
429.982	3.46
430.338	3.46
430.695	3.42
431.051	3.44
431.407	3.45
431.764	3.47
432.12	3.49
432.476	3.49
432.832	3.48
433.189	3.48
433.545	3.49
433.901	3.5
434.257	3.5
434.613	3.5
434.969	3.51
435.325	3.53
435.681	3.53
436.036	3.54
436.392	3.55
436.748	3.55
437.104	3.54
437.459	3.51
437.815	3.51
438.171	3.53
438.526	3.53
438.882	3.53
439.237	3.52
439.593	3.52
439.948	3.52
440.304	3.52
440.659	3.52
441.014	3.52
441.369	3.53
441.725	3.56
442.08	3.54
442.435	3.55
442.79	3.54
443.145	3.52
443.5	3.52
443.855	3.52
444.21	3.51
444.565	3.51
444.92	3.53
445.275	3.53
445.629	3.51
445.984	3.49
446.339	3.48
446.693	3.49
447.048	3.47
447.403	3.46
447.757	3.44
448.112	3.43
448.466	3.43
448.82	3.4
449.175	3.38
449.529	3.38
449.883	3.37
450.238	3.37
450.592	3.37
450.946	3.35
451.3	3.36
451.654	3.35
452.008	3.32
452.362	3.31
452.716	3.31
453.07	3.33
453.424	3.32
453.778	3.31
454.132	3.29
454.486	3.31
454.839	3.32
455.193	3.33
455.547	3.34
455.9	3.34
456.254	3.37
456.607	3.39
456.961	3.39
457.314	3.39
457.668	3.4
458.021	3.39
458.375	3.41
458.728	3.41
459.081	3.43
459.434	3.47
459.787	3.47
460.141	3.47
460.494	3.47
460.847	3.5
461.2	3.53
461.553	3.54
461.906	3.54
462.259	3.54
462.611	3.56
462.964	3.57
463.317	3.58
463.67	3.57
464.022	3.58
464.375	3.62
464.728	3.64
465.08	3.63
465.433	3.67
465.785	3.68
466.138	3.69
466.49	3.69
466.843	3.68
467.195	3.69
467.547	3.71
467.899	3.71
468.252	3.73
468.604	3.73
468.956	3.76
469.308	3.77
469.66	3.79
470.012	3.81
470.364	3.83
470.716	3.83
471.068	3.85
471.42	3.88
471.772	3.86
472.123	3.83
472.475	3.85
472.827	3.82
473.178	3.81
473.53	3.81
473.882	3.82
474.233	3.84
474.585	3.84
474.936	3.82
475.288	3.82
475.639	3.82
475.99	3.79
476.342	3.79
476.693	3.77
477.044	3.76
477.395	3.73
477.746	3.71
478.097	3.7
478.448	3.68
478.8	3.65
479.15	3.64
479.501	3.66
479.852	3.64
480.203	3.64
480.554	3.63
480.905	3.63
481.255	3.62
481.606	3.61
481.957	3.61
482.307	3.61
482.658	3.61
483.009	3.59
483.359	3.59
483.709	3.59
484.06	3.6
484.41	3.6
484.761	3.6
485.111	3.61
485.461	3.61
485.811	3.61
486.162	3.61
486.512	3.61
486.862	3.62
487.212	3.63
487.562	3.63
487.912	3.65
488.262	3.65
488.612	3.65
488.961	3.65
489.311	3.66
489.661	3.66
490.011	3.66
490.36	3.67
490.71	3.68
491.06	3.69
491.409	3.7
491.759	3.72
492.108	3.72
492.458	3.73
492.807	3.76
493.157	3.79
493.506	3.81
493.855	3.83
494.204	3.85
494.554	3.87
494.903	3.9
495.252	3.92
495.601	3.96
495.95	4.01
496.299	4.06
496.648	4.13
496.997	4.18
497.346	4.27
497.695	4.31
498.043	4.38
498.392	4.41
498.741	4.46
499.09	4.49
499.438	4.55
499.787	4.61
500.135	4.67
500.484	4.73
500.832	4.79
501.181	4.87
501.529	4.95
501.878	5.03
502.226	5.11
502.574	5.21
502.923	5.29
503.271	5.37
503.619	5.46
503.967	5.51
504.315	5.62
504.663	5.69
505.011	5.81
505.359	5.87
505.707	6
506.055	6.1
506.403	6.23
506.751	6.35
507.098	6.47
507.446	6.59
507.794	6.74
508.141	6.88
508.489	7.03
508.837	7.14
509.184	7.27
509.531	7.4
509.879	7.51
510.226	7.65
510.574	7.78
510.921	7.91
511.268	8.07
511.616	8.23
511.963	8.38
512.31	8.53
512.657	8.71
513.004	8.84
513.351	9.03
513.698	9.19
514.045	9.34
514.392	9.49
514.739	9.67
515.086	9.83
515.432	9.98
515.779	10.13
516.126	10.31
516.473	10.46
516.819	10.63
517.166	10.79
517.512	10.91
517.859	11.07
518.205	11.2
518.552	11.33
518.898	11.45
519.245	11.58
519.591	11.72
519.937	11.86
520.283	12.02
520.629	12.16
520.976	12.32
521.322	12.51
521.668	12.7
522.014	12.85
522.36	13.01
522.706	13.21
523.052	13.42
523.398	13.63
523.743	13.86
524.089	14.08
524.435	14.3
524.781	14.53
525.126	14.71
525.472	14.91
525.817	15.1
526.163	15.26
526.509	15.4
526.854	15.55
527.199	15.66
527.545	15.82
527.89	15.96
528.235	16.1
528.581	16.25
528.926	16.37
529.271	16.53
529.616	16.7
529.961	16.87
530.306	17
530.651	17.15
530.996	17.34
531.341	17.54
531.686	17.71
532.031	17.92
532.376	18.12
532.721	18.31
533.065	18.5
533.41	18.71
533.755	18.93
534.099	19.15
534.444	19.41
534.788	19.62
535.133	19.85
535.477	20.1
535.822	20.34
536.166	20.65
536.51	20.93
536.855	21.25
537.199	21.55
537.543	21.92
537.887	22.27
538.231	22.6
538.576	22.92
538.92	23.24
539.264	23.52
539.608	23.81
539.951	24.08
540.295	24.4
540.639	24.69
540.983	24.98
541.327	25.28
541.671	25.54
542.014	25.81
542.358	26.06
542.701	26.31
543.045	26.58
543.389	26.84
543.732	27.08
544.075	27.35
544.419	27.62
544.762	27.9
545.105	28.19
545.449	28.5
545.792	28.84
546.135	29.22
546.478	29.59
546.821	30
547.165	30.42
547.508	30.77
547.851	31.16
548.194	31.54
548.536	31.9
548.879	32.26
549.222	32.65
549.565	33.06
549.908	33.49
550.25	33.88
550.593	34.28
550.936	34.7
551.278	35.12
551.621	35.51
551.963	35.94
552.306	36.33
552.648	36.7
552.991	37.03
553.333	37.36
553.675	37.73
554.017	38.07
554.36	38.45
554.702	38.8
555.044	39.15
555.386	39.47
555.728	39.89
556.07	40.25
556.412	40.58
556.754	40.93
557.096	41.25
557.438	41.66
557.78	41.99
558.121	42.33
558.463	42.65
558.805	42.99
559.147	43.34
559.488	43.69
559.83	44.09
560.171	44.37
560.513	44.69
560.854	44.98
561.196	45.28
561.537	45.63
561.878	45.9
562.22	46.18
562.561	46.51
562.902	46.83
563.243	47.08
563.584	47.36
563.925	47.59
564.266	47.81
564.607	48.05
564.948	48.32
565.289	48.57
565.63	48.78
565.971	49.01
566.312	49.21
566.653	49.47
566.993	49.65
567.334	49.94
567.675	50.23
568.015	50.45
568.356	50.65
568.696	50.8
569.037	50.99
569.377	51.2
569.718	51.39
570.058	51.51
570.398	51.84
570.739	52
571.079	52.23
571.419	52.44
571.759	52.65
572.099	52.83
572.439	53.08
572.779	53.28
573.119	53.47
573.459	53.59
573.799	53.7
574.139	53.86
574.479	54.08
574.819	54.24
575.158	54.49
575.498	54.65
575.838	54.78
576.177	55.05
576.517	55.25
576.856	55.41
577.196	55.59
577.535	55.63
577.875	55.93
578.214	56.12
578.553	56.29
578.893	56.45
579.232	56.62
579.571	56.76
579.91	56.96
580.25	57.07
580.589	57.31
580.928	57.48
581.267	57.69
581.606	57.7
581.945	57.81
582.283	57.86
582.622	58.03
582.961	58.19
583.3	58.23
583.639	58.32
583.977	58.5
584.316	58.71
584.654	58.89
584.993	58.9
585.332	59.04
585.67	59.11
586.008	59.21
586.347	59.29
586.685	59.38
587.024	59.39
587.362	59.47
587.7	59.53
588.038	59.6
588.376	59.67
588.715	59.81
589.053	59.98
589.391	60.16
589.729	60.26
590.067	60.48
590.404	60.65
590.742	60.71
591.08	60.76
591.418	60.79
591.756	60.88
592.093	61.07
592.431	61.16
592.769	61.31
593.106	61.42
593.444	61.54
593.781	61.72
594.119	61.87
594.456	62
594.793	62.11
595.131	62.2
595.468	62.26
595.805	62.3
596.143	62.35
596.48	62.28
596.817	62.38
597.154	62.35
597.491	62.37
597.828	62.52
598.165	62.59
598.502	62.66
598.839	62.69
599.176	62.67
599.512	62.79
599.849	62.91
600.186	62.97
600.523	63.09
600.859	63.05
601.196	63.13
601.532	63.31
601.869	63.43
602.205	63.49
602.542	63.59
602.878	63.72
603.215	63.72
603.551	63.82
603.887	63.88
604.223	63.9
604.56	63.94
604.896	63.99
605.232	64.09
605.568	64.15
605.904	64.23
606.24	64.37
606.576	64.39
606.912	64.3
607.248	64.32
607.583	64.3
607.919	64.41
608.255	64.41
608.591	64.38
608.926	64.39
609.262	64.52
609.597	64.57
609.933	64.51
610.268	64.53
610.604	64.57
610.939	64.57
611.275	64.72
611.61	64.82
611.945	64.89
612.281	64.98
612.616	64.94
612.951	65.02
613.286	64.98
613.621	64.95
613.956	65.05
614.291	65.15
614.626	65.23
614.961	65.28
615.296	65.35
615.631	65.4
615.966	65.44
616.3	65.42
616.635	65.42
616.97	65.57
617.304	65.68
617.639	65.75
617.973	65.82
618.308	65.76
618.642	65.74
618.977	65.76
619.311	65.67
619.646	65.9
619.98	66.01
620.314	66
620.648	66.08
620.983	66.16
621.317	66.14
621.651	66.14
621.985	66.19
622.319	66.28
622.653	66.26
622.987	66.35
623.321	66.43
623.655	66.55
623.988	66.56
624.322	66.63
624.656	66.7
624.99	66.68
625.323	66.75
625.657	66.82
625.99	66.83
626.324	66.95
626.657	66.85
626.991	66.83
627.324	66.92
627.658	66.97
627.991	66.99
628.324	66.99
628.657	67.09
628.991	67.11
629.324	67.13
629.657	67.22
629.99	67.2
630.323	67.22
630.656	67.18
630.989	67.14
631.322	67.1
631.655	67.06
631.987	67.17
632.32	67.2
632.653	67.1
632.986	67.21
633.318	67.18
633.651	67.24
633.984	67.19
634.316	67.18
634.649	67.21
634.981	67.33
635.313	67.45
635.646	67.55
635.978	67.65
636.31	67.62
636.643	67.51
636.975	67.59
637.307	67.6
637.639	67.52
637.971	67.56
638.303	67.75
638.635	67.8
638.967	67.76
639.299	67.75
639.631	67.85
639.963	67.68
640.295	67.73
640.626	67.62
640.958	67.71
641.29	67.81
641.621	67.81
641.953	67.73
642.285	67.75
642.616	67.66
642.948	67.55
643.279	67.65
643.61	67.62
643.942	67.58
644.273	67.57
644.604	67.68
644.936	67.76
645.267	67.56
645.598	67.59
645.929	67.72
646.26	67.73
646.591	67.87
646.922	68.05
647.253	68.11
647.584	68.21
647.915	68.23
648.245	68.2
648.576	68.33
648.907	68.48
649.238	68.51
649.568	68.58
649.899	68.7
650.229	68.61
650.56	68.84
650.89	68.75
651.221	68.73
651.551	68.7
651.882	68.78
652.212	68.78
652.542	68.75
652.872	68.66
653.203	68.72
653.533	68.57
653.863	68.53
654.193	68.29
654.523	68.42
654.853	68.48
655.183	68.61
655.513	68.45
655.843	68.42
656.172	68.37
656.502	68.54
656.832	68.53
657.162	68.64
657.491	68.54
657.821	68.55
658.15	68.59
658.48	68.7
658.809	68.71
659.139	68.74
659.468	68.69
659.798	68.69
660.127	68.56
660.456	68.68
660.785	68.81
661.115	68.97
661.444	68.8
661.773	68.75
662.102	68.67
662.431	68.81
662.76	68.76
663.089	68.75
663.418	68.63
663.747	68.54
664.076	68.55
664.404	68.59
664.733	68.7
665.062	68.88
665.39	68.76
665.719	68.61
666.048	68.64
666.376	68.78
666.705	68.87
667.033	69.13
667.362	69.1
667.69	68.91
668.018	68.91
668.347	69.12
668.675	69.15
669.003	69.2
