Data from MVZ_BU165823_Reflection_00005.txt Node
Date: Tue Nov 19 12:10:23 EST 2019
User: vgr7
Spectrometer: USB2G7710
Scans to average: 3
Trigger mode: 4
Integration Time (sec): 2.000000E-2
Electric dark correction enabled: true
Boxcar width: 10
XAxis mode: Wavelengths
Number of Pixels in Spectrum: 2048
>>>>>Begin Spectral Data<<<<<
177.721	1.11
178.105	-19.82
178.488	-35.73
178.871	-28.1
179.254	-138.3
179.636	-156.16
180.019	-47.94
180.402	337.5
180.785	-90.16
181.168	1.11
181.55	-7.3
181.933	63.79
182.316	24.86
182.698	1918.18
183.081	114.6
183.463	-137.11
183.846	59.18
184.228	-50.78
184.611	9.09
184.993	-11.68
185.376	7.02
185.758	13.61
186.14	16.72
186.522	13.27
186.904	31.59
187.287	12.52
187.669	8.58
188.051	43.03
188.433	56.23
188.815	41.28
189.197	30.9
189.579	17.87
189.961	20.39
190.342	5.78
190.724	-6.67
191.106	-17.5
191.488	-25.69
191.869	-17.28
192.251	2.17
192.633	-4.04
193.014	15
193.396	9.7
193.777	22.02
194.159	-4.97
194.54	-20.32
194.922	-46.07
195.303	-49.68
195.684	-110.33
196.065	-164.99
196.447	-119.44
196.828	-60.2
197.209	-53.24
197.59	4.09
197.971	31.96
198.352	29.55
198.733	43.49
199.114	41.43
199.495	38.6
199.876	47.57
200.257	30.83
200.638	43.44
201.018	13.39
201.399	25.71
201.78	18.86
202.16	35.26
202.541	40.33
202.922	22.36
203.302	21.29
203.683	25.44
204.063	16.42
204.444	7.66
204.824	-6.1
205.204	6.34
205.585	-1.57
205.965	-11.05
206.345	0.99
206.725	-4.39
207.106	3.04
207.486	-2.78
207.866	-5.09
208.246	-11.79
208.626	-19.12
209.006	-16.22
209.386	-20.03
209.766	-23.72
210.145	-22.85
210.525	-25.57
210.905	-17.83
211.285	-23.62
211.664	-18.66
212.044	-14.18
212.424	-4.71
212.803	-11.91
213.183	-20.32
213.562	-42.12
213.942	-47.6
214.321	-63.99
214.701	-62.77
215.08	-72.62
215.459	-53.47
215.838	-50.81
216.218	-50.93
216.597	-41.4
216.976	-87.77
217.355	-82.97
217.734	-132.88
218.113	-76.91
218.492	-68.21
218.871	-80.33
219.25	-66.57
219.629	-81.41
220.008	-87.22
220.387	-110.24
220.766	-80.79
221.144	-76.31
221.523	-50.03
221.902	-26.81
222.28	-3.06
222.659	5.58
223.037	11.12
223.416	7.89
223.794	15.04
224.173	10.93
224.551	9.17
224.929	16.69
225.308	16.08
225.686	12.37
226.064	16.25
226.442	16.78
226.821	15.32
227.199	14.25
227.577	15.42
227.955	14.61
228.333	16.26
228.711	17.71
229.089	17.07
229.467	12.09
229.845	11.05
230.222	9.7
230.6	9.43
230.978	8.72
231.356	9.96
231.733	8.55
232.111	12.13
232.488	10.81
232.866	11.28
233.243	11.27
233.621	13.35
233.998	12.26
234.376	10.64
234.753	8.21
235.13	8.55
235.508	6.02
235.885	5.02
236.262	3.12
236.639	1.67
237.016	2.45
237.393	4.18
237.77	5.1
238.147	5.01
238.524	5.13
238.901	4.63
239.278	3.93
239.655	3.21
240.032	2.88
240.409	3.26
240.785	2.54
241.162	3.24
241.539	2.4
241.915	2.27
242.292	2.63
242.668	3.48
243.045	4.51
243.421	4.94
243.798	5.13
244.174	5.64
244.551	5.48
244.927	5.46
245.303	5.13
245.679	4.88
246.056	4.71
246.432	4.69
246.808	4.56
247.184	4.61
247.56	4.3
247.936	4.26
248.312	4.08
248.688	4.38
249.064	3.89
249.44	4.05
249.815	4.24
250.191	4.09
250.567	3.95
250.943	3.69
251.318	3.49
251.694	3.4
252.069	3.24
252.445	3.43
252.82	3.51
253.196	3.37
253.571	3.39
253.947	3.12
254.322	2.72
254.697	2.78
255.073	2.65
255.448	2.96
255.823	3.16
256.198	3.34
256.573	3.23
256.948	3.5
257.323	3.65
257.698	3.49
258.073	3.39
258.448	3.49
258.823	3.19
259.198	3.29
259.573	3.12
259.948	3.12
260.322	2.99
260.697	3.14
261.072	3.28
261.446	3.12
261.821	3.21
262.195	3.29
262.57	3.45
262.944	3.6
263.319	3.57
263.693	3.36
264.067	3.46
264.442	3.38
264.816	3.39
265.19	3.39
265.564	3.45
265.938	3.65
266.313	3.63
266.687	3.7
267.061	3.55
267.435	3.8
267.809	3.78
268.183	3.84
268.556	3.5
268.93	3.52
269.304	3.56
269.678	3.65
270.051	3.68
270.425	3.58
270.799	3.43
271.172	3.55
271.546	3.7
271.919	3.66
272.293	3.87
272.666	3.93
273.04	3.76
273.413	3.74
273.787	3.75
274.16	3.69
274.533	3.8
274.906	4.02
275.279	3.92
275.653	3.99
276.026	4.1
276.399	4.35
276.772	4.28
277.145	4.43
277.518	4.3
277.891	4.14
278.263	4.23
278.636	4.27
279.009	4.24
279.382	3.93
279.755	3.95
280.127	3.81
280.5	3.6
280.872	3.63
281.245	3.74
281.617	3.65
281.99	3.57
282.362	3.47
282.735	3.5
283.107	3.52
283.479	3.45
283.852	3.39
284.224	3.29
284.596	3.27
284.968	3.21
285.34	3.22
285.713	3.42
286.085	3.26
286.457	3.14
286.829	3.01
287.201	3.24
287.572	3.15
287.944	3.23
288.316	3.35
288.688	3.59
289.06	3.53
289.431	3.6
289.803	3.59
290.175	3.63
290.546	3.67
290.918	3.67
291.289	3.71
291.661	3.74
292.032	3.59
292.403	3.61
292.775	3.62
293.146	3.71
293.517	3.57
293.889	3.51
294.26	3.65
294.631	3.78
295.002	3.7
295.373	3.74
295.744	3.69
296.115	3.68
296.486	3.48
296.857	3.59
297.228	3.59
297.599	3.58
297.97	3.6
298.34	3.4
298.711	3.31
299.082	3.33
299.452	3.27
299.823	3.32
300.194	3.28
300.564	3.13
300.935	3.19
301.305	3.22
301.676	3.34
302.046	3.25
302.416	3.2
302.787	3.2
303.157	3.04
303.527	2.97
303.897	2.92
304.267	2.91
304.637	2.54
305.008	2.41
305.378	2.39
305.748	2.26
306.117	2.19
306.487	2.37
306.857	2.38
307.227	2.52
307.597	2.58
307.967	2.51
308.336	2.69
308.706	2.47
309.076	2.58
309.445	2.63
309.815	2.71
310.184	2.78
310.554	2.68
310.923	2.63
311.293	2.64
311.662	2.5
312.031	2.55
312.401	2.77
312.77	2.81
313.139	2.88
313.508	2.91
313.877	3.04
314.246	2.93
314.616	2.93
314.985	2.81
315.353	2.74
315.722	3.03
316.091	3.05
316.46	3.1
316.829	3.02
317.198	2.93
317.567	3.12
317.935	3.04
318.304	3.22
318.672	3.32
319.041	3.29
319.41	3.34
319.778	3.37
320.147	3.3
320.515	3.21
320.883	3.23
321.252	3.36
321.62	3.15
321.988	3.3
322.357	3.25
322.725	3.11
323.093	3.03
323.461	2.82
323.829	2.72
324.197	2.64
324.565	2.61
324.933	2.64
325.301	2.4
325.669	2.49
326.037	2.29
326.405	2.39
326.772	2.38
327.14	2.37
327.508	2.27
327.875	2.35
328.243	2.33
328.61	2.4
328.978	2.25
329.346	2.38
329.713	2.41
330.08	2.42
330.448	2.47
330.815	2.63
331.182	2.6
331.55	2.61
331.917	2.57
332.284	2.61
332.651	2.56
333.018	2.47
333.385	2.48
333.752	2.7
334.119	2.68
334.486	2.66
334.853	2.9
335.22	2.87
335.587	2.9
335.954	2.92
336.32	2.83
336.687	2.91
337.054	2.98
337.42	2.95
337.787	2.83
338.153	2.88
338.52	2.81
338.886	2.9
339.253	2.85
339.619	2.89
339.986	2.77
340.352	2.79
340.718	2.81
341.084	2.8
341.451	2.77
341.817	2.73
342.183	2.68
342.549	2.59
342.915	2.72
343.281	2.73
343.647	2.7
344.013	2.82
344.379	2.81
344.745	2.68
345.11	2.64
345.476	2.73
345.842	2.73
346.208	2.71
346.573	2.72
346.939	2.82
347.304	2.89
347.67	2.87
348.035	2.83
348.401	2.85
348.766	2.81
349.132	2.78
349.497	2.87
349.862	2.92
350.228	2.92
350.593	2.94
350.958	2.95
351.323	2.99
351.688	2.95
352.053	2.98
352.418	3.04
352.783	3.01
353.148	2.97
353.513	3.07
353.878	3.17
354.243	2.95
354.608	2.99
354.972	2.95
355.337	2.96
355.702	3.02
356.066	3.11
356.431	3.09
356.795	3.09
357.16	3.02
357.524	3.06
357.889	3.07
358.253	2.95
358.618	2.94
358.982	2.99
359.346	2.96
359.71	2.96
360.075	2.96
360.439	3
360.803	3.09
361.167	3.01
361.531	2.88
361.895	3.02
362.259	2.91
362.623	2.9
362.987	2.93
363.351	2.89
363.714	2.88
364.078	2.92
364.442	2.89
364.806	2.91
365.169	2.87
365.533	2.88
365.896	2.95
366.26	2.88
366.623	2.92
366.987	2.94
367.35	2.99
367.714	3.04
368.077	3.07
368.44	3.02
368.803	2.96
369.167	2.99
369.53	2.92
369.893	2.97
370.256	3.11
370.619	3.06
370.982	3.07
371.345	3.13
371.708	3.11
372.071	3.14
372.434	3.12
372.797	3.13
373.159	3.08
373.522	3.03
373.885	3.07
374.247	2.95
374.61	2.95
374.973	2.9
375.335	2.88
375.698	2.82
376.06	2.81
376.423	2.84
376.785	2.93
377.147	2.98
377.51	2.95
377.872	2.85
378.234	2.92
378.596	2.93
378.958	2.89
379.321	2.82
379.683	2.84
380.045	2.85
380.407	2.89
380.769	2.92
381.13	2.97
381.492	2.95
381.854	2.98
382.216	3.03
382.578	3.05
382.939	3
383.301	3.05
383.663	2.99
384.024	3.03
384.386	3.01
384.747	2.98
385.109	2.99
385.47	3.03
385.832	3.02
386.193	3
386.554	2.95
386.916	3
387.277	2.96
387.638	2.97
387.999	2.94
388.36	2.91
388.721	2.95
389.082	2.97
389.443	3.02
389.804	2.98
390.165	2.95
390.526	2.98
390.887	2.94
391.248	2.99
391.609	2.96
391.969	2.93
392.33	2.96
392.691	2.98
393.051	2.95
393.412	2.95
393.772	2.98
394.133	2.97
394.493	2.94
394.854	2.98
395.214	2.99
395.574	3.02
395.935	3.01
396.295	2.97
396.655	2.98
397.015	2.97
397.376	2.98
397.736	2.97
398.096	2.94
398.456	2.92
398.816	2.94
399.176	2.95
399.535	2.96
399.895	2.94
400.255	2.95
400.615	2.95
400.975	2.94
401.334	2.92
401.694	2.94
402.054	2.99
402.413	2.95
402.773	2.96
403.132	2.97
403.492	2.98
403.851	2.98
404.211	2.97
404.57	3
404.929	3
405.288	3.03
405.648	3.09
406.007	3.13
406.366	3.09
406.725	3.14
407.084	3.15
407.443	3.13
407.802	3.14
408.161	3.17
408.52	3.19
408.879	3.21
409.238	3.24
409.596	3.23
409.955	3.24
410.314	3.24
410.673	3.2
411.031	3.22
411.39	3.22
411.748	3.24
412.107	3.2
412.465	3.18
412.824	3.18
413.182	3.13
413.54	3.12
413.899	3.13
414.257	3.07
414.615	3.11
414.974	3.16
415.332	3.15
415.69	3.15
416.048	3.14
416.406	3.12
416.764	3.12
417.122	3.11
417.48	3.09
417.838	3.09
418.195	3.1
418.553	3.1
418.911	3.11
419.269	3.1
419.626	3.1
419.984	3.1
420.342	3.11
420.699	3.11
421.057	3.12
421.414	3.14
421.772	3.15
422.129	3.13
422.486	3.12
422.844	3.11
423.201	3.11
423.558	3.1
423.915	3.11
424.273	3.1
424.63	3.11
424.987	3.14
425.344	3.14
425.701	3.16
426.058	3.16
426.415	3.16
426.772	3.17
427.128	3.17
427.485	3.16
427.842	3.15
428.199	3.15
428.555	3.14
428.912	3.13
429.269	3.13
429.625	3.15
429.982	3.14
430.338	3.14
430.695	3.14
431.051	3.17
431.407	3.16
431.764	3.18
432.12	3.17
432.476	3.17
432.832	3.16
433.189	3.14
433.545	3.13
433.901	3.14
434.257	3.12
434.613	3.12
434.969	3.14
435.325	3.14
435.681	3.13
436.036	3.12
436.392	3.12
436.748	3.12
437.104	3.11
437.459	3.12
437.815	3.11
438.171	3.11
438.526	3.08
438.882	3.09
439.237	3.07
439.593	3.08
439.948	3.08
440.304	3.07
440.659	3.08
441.014	3.09
441.369	3.07
441.725	3.08
442.08	3.09
442.435	3.09
442.79	3.09
443.145	3.12
443.5	3.11
443.855	3.12
444.21	3.12
444.565	3.12
444.92	3.11
445.275	3.13
445.629	3.13
445.984	3.13
446.339	3.15
446.693	3.16
447.048	3.15
447.403	3.15
447.757	3.15
448.112	3.15
448.466	3.15
448.82	3.15
449.175	3.16
449.529	3.16
449.883	3.15
450.238	3.15
450.592	3.14
450.946	3.14
451.3	3.14
451.654	3.13
452.008	3.13
452.362	3.14
452.716	3.13
453.07	3.13
453.424	3.11
453.778	3.1
454.132	3.09
454.486	3.1
454.839	3.09
455.193	3.1
455.547	3.1
455.9	3.09
456.254	3.11
456.607	3.11
456.961	3.1
457.314	3.12
457.668	3.12
458.021	3.13
458.375	3.13
458.728	3.13
459.081	3.13
459.434	3.14
459.787	3.13
460.141	3.13
460.494	3.12
460.847	3.13
461.2	3.12
461.553	3.13
461.906	3.13
462.259	3.12
462.611	3.13
462.964	3.13
463.317	3.13
463.67	3.12
464.022	3.12
464.375	3.11
464.728	3.1
465.08	3.1
465.433	3.1
465.785	3.09
466.138	3.1
466.49	3.11
466.843	3.1
467.195	3.09
467.547	3.08
467.899	3.09
468.252	3.1
468.604	3.13
468.956	3.16
469.308	3.13
469.66	3.13
470.012	3.14
470.364	3.15
470.716	3.13
471.068	3.13
471.42	3.11
471.772	3.14
472.123	3.15
472.475	3.14
472.827	3.13
473.178	3.14
473.53	3.14
473.882	3.15
474.233	3.16
474.585	3.19
474.936	3.21
475.288	3.22
475.639	3.21
475.99	3.2
476.342	3.19
476.693	3.21
477.044	3.21
477.395	3.2
477.746	3.2
478.097	3.22
478.448	3.23
478.8	3.24
479.15	3.21
479.501	3.21
479.852	3.21
480.203	3.2
480.554	3.2
480.905	3.2
481.255	3.18
481.606	3.18
481.957	3.17
482.307	3.18
482.658	3.19
483.009	3.19
483.359	3.19
483.709	3.18
484.06	3.19
484.41	3.19
484.761	3.19
485.111	3.19
485.461	3.19
485.811	3.18
486.162	3.18
486.512	3.19
486.862	3.2
487.212	3.2
487.562	3.2
487.912	3.21
488.262	3.21
488.612	3.21
488.961	3.22
489.311	3.21
489.661	3.2
490.011	3.2
490.36	3.19
490.71	3.18
491.06	3.18
491.409	3.18
491.759	3.18
492.108	3.2
492.458	3.18
492.807	3.18
493.157	3.19
493.506	3.19
493.855	3.19
494.204	3.18
494.554	3.19
494.903	3.2
495.252	3.21
495.601	3.22
495.95	3.24
496.299	3.25
496.648	3.25
496.997	3.27
497.346	3.27
497.695	3.26
498.043	3.27
498.392	3.28
498.741	3.26
499.09	3.27
499.438	3.27
499.787	3.28
500.135	3.28
500.484	3.27
500.832	3.26
501.181	3.27
501.529	3.28
501.878	3.29
502.226	3.29
502.574	3.28
502.923	3.26
503.271	3.26
503.619	3.27
503.967	3.28
504.315	3.26
504.663	3.26
505.011	3.28
505.359	3.27
505.707	3.26
506.055	3.28
506.403	3.29
506.751	3.28
507.098	3.3
507.446	3.28
507.794	3.3
508.141	3.31
508.489	3.29
508.837	3.29
509.184	3.3
509.531	3.29
509.879	3.3
510.226	3.33
510.574	3.34
510.921	3.34
511.268	3.35
511.616	3.36
511.963	3.39
512.31	3.41
512.657	3.43
513.004	3.44
513.351	3.45
513.698	3.43
514.045	3.42
514.392	3.41
514.739	3.45
515.086	3.43
515.432	3.44
515.779	3.45
516.126	3.45
516.473	3.44
516.819	3.44
517.166	3.43
517.512	3.4
517.859	3.38
518.205	3.38
518.552	3.37
518.898	3.35
519.245	3.33
519.591	3.33
519.937	3.32
520.283	3.32
520.629	3.32
520.976	3.34
521.322	3.35
521.668	3.36
522.014	3.36
522.36	3.36
522.706	3.36
523.052	3.38
523.398	3.39
523.743	3.39
524.089	3.41
524.435	3.4
524.781	3.41
525.126	3.42
525.472	3.41
525.817	3.43
526.163	3.44
526.509	3.43
526.854	3.44
527.199	3.44
527.545	3.45
527.89	3.45
528.235	3.45
528.581	3.45
528.926	3.43
529.271	3.43
529.616	3.44
529.961	3.44
530.306	3.44
530.651	3.44
530.996	3.46
531.341	3.46
531.686	3.46
532.031	3.45
532.376	3.46
532.721	3.46
533.065	3.46
533.41	3.45
533.755	3.45
534.099	3.44
534.444	3.44
534.788	3.42
535.133	3.43
535.477	3.42
535.822	3.42
536.166	3.43
536.51	3.43
536.855	3.43
537.199	3.43
537.543	3.43
537.887	3.43
538.231	3.42
538.576	3.43
538.92	3.45
539.264	3.46
539.608	3.45
539.951	3.46
540.295	3.45
540.639	3.48
540.983	3.48
541.327	3.49
541.671	3.51
542.014	3.51
542.358	3.52
542.701	3.53
543.045	3.54
543.389	3.56
543.732	3.56
544.075	3.58
544.419	3.59
544.762	3.59
545.105	3.59
545.449	3.57
545.792	3.57
546.135	3.57
546.478	3.58
546.821	3.59
547.165	3.58
547.508	3.61
547.851	3.58
548.194	3.6
548.536	3.6
548.879	3.6
549.222	3.61
549.565	3.58
549.908	3.56
550.25	3.53
550.593	3.52
550.936	3.52
551.278	3.48
551.621	3.46
551.963	3.46
552.306	3.46
552.648	3.48
552.991	3.48
553.333	3.47
553.675	3.46
554.017	3.44
554.36	3.44
554.702	3.41
555.044	3.42
555.386	3.43
555.728	3.42
556.07	3.39
556.412	3.4
556.754	3.41
557.096	3.44
557.438	3.45
557.78	3.45
558.121	3.45
558.463	3.45
558.805	3.47
559.147	3.45
559.488	3.45
559.83	3.44
560.171	3.43
560.513	3.45
560.854	3.45
561.196	3.47
561.537	3.48
561.878	3.49
562.22	3.49
562.561	3.5
562.902	3.51
563.243	3.51
563.584	3.51
563.925	3.52
564.266	3.51
564.607	3.54
564.948	3.55
565.289	3.57
565.63	3.57
565.971	3.57
566.312	3.54
566.653	3.56
566.993	3.57
567.334	3.56
567.675	3.56
568.015	3.55
568.356	3.52
568.696	3.54
569.037	3.49
569.377	3.51
569.718	3.51
570.058	3.51
570.398	3.53
570.739	3.51
571.079	3.52
571.419	3.54
571.759	3.51
572.099	3.5
572.439	3.47
572.779	3.47
573.119	3.48
573.459	3.52
573.799	3.46
574.139	3.45
574.479	3.47
574.819	3.45
575.158	3.47
575.498	3.47
575.838	3.45
576.177	3.47
576.517	3.46
576.856	3.42
577.196	3.41
577.535	3.44
577.875	3.44
578.214	3.4
578.553	3.39
578.893	3.43
579.232	3.44
579.571	3.47
579.91	3.48
580.25	3.46
580.589	3.43
580.928	3.47
581.267	3.47
581.606	3.44
581.945	3.46
582.283	3.48
582.622	3.47
582.961	3.47
583.3	3.51
583.639	3.52
583.977	3.49
584.316	3.5
584.654	3.49
584.993	3.47
585.332	3.49
585.67	3.46
586.008	3.41
586.347	3.42
586.685	3.39
587.024	3.4
587.362	3.39
587.7	3.44
588.038	3.49
588.376	3.52
588.715	3.55
589.053	3.52
589.391	3.54
589.729	3.57
590.067	3.57
590.404	3.58
590.742	3.6
591.08	3.65
591.418	3.64
591.756	3.63
592.093	3.64
592.431	3.68
592.769	3.69
593.106	3.74
593.444	3.76
593.781	3.77
594.119	3.79
594.456	3.8
594.793	3.78
595.131	3.75
595.468	3.75
595.805	3.75
596.143	3.78
596.48	3.75
596.817	3.76
597.154	3.74
597.491	3.72
597.828	3.72
598.165	3.7
598.502	3.71
598.839	3.69
599.176	3.7
599.512	3.64
599.849	3.66
600.186	3.62
600.523	3.6
600.859	3.62
601.196	3.6
601.532	3.59
601.869	3.62
602.205	3.65
602.542	3.64
602.878	3.64
603.215	3.63
603.551	3.64
603.887	3.63
604.223	3.65
604.56	3.63
604.896	3.62
605.232	3.66
605.568	3.69
605.904	3.7
606.24	3.74
606.576	3.8
606.912	3.77
607.248	3.76
607.583	3.79
607.919	3.77
608.255	3.75
608.591	3.78
608.926	3.75
609.262	3.71
609.597	3.7
609.933	3.69
610.268	3.69
610.604	3.65
610.939	3.69
611.275	3.7
611.61	3.76
611.945	3.68
612.281	3.66
612.616	3.65
612.951	3.68
613.286	3.65
613.621	3.65
613.956	3.69
614.291	3.71
614.626	3.69
614.961	3.72
615.296	3.77
615.631	3.72
615.966	3.7
616.3	3.72
616.635	3.67
616.97	3.7
617.304	3.72
617.639	3.79
617.973	3.74
618.308	3.77
618.642	3.74
618.977	3.83
619.311	3.84
619.646	3.82
619.98	3.84
620.314	3.81
620.648	3.79
620.983	3.76
621.317	3.79
621.651	3.73
621.985	3.69
622.319	3.69
622.653	3.7
622.987	3.7
623.321	3.7
623.655	3.73
623.988	3.75
624.322	3.74
624.656	3.75
624.99	3.73
625.323	3.69
625.657	3.7
625.99	3.67
626.324	3.65
626.657	3.65
626.991	3.63
627.324	3.65
627.658	3.67
627.991	3.66
628.324	3.65
628.657	3.72
628.991	3.75
629.324	3.73
629.657	3.72
629.99	3.72
630.323	3.69
630.656	3.75
630.989	3.73
631.322	3.75
631.655	3.71
631.987	3.77
632.32	3.83
632.653	3.78
632.986	3.83
633.318	3.83
633.651	3.84
633.984	3.84
634.316	3.82
634.649	3.79
634.981	3.78
635.313	3.76
635.646	3.72
635.978	3.77
636.31	3.77
636.643	3.79
636.975	3.83
637.307	3.92
637.639	3.83
637.971	3.83
638.303	3.79
638.635	3.81
638.967	3.8
639.299	3.77
639.631	3.83
639.963	3.77
640.295	3.77
640.626	3.71
640.958	3.71
641.29	3.71
641.621	3.7
641.953	3.71
642.285	3.77
642.616	3.79
642.948	3.74
643.279	3.65
643.61	3.75
643.942	3.76
644.273	3.67
644.604	3.71
644.936	3.75
645.267	3.74
645.598	3.66
645.929	3.61
646.26	3.64
646.591	3.65
646.922	3.76
647.253	3.75
647.584	3.87
647.915	3.91
648.245	3.96
648.576	3.96
648.907	3.99
649.238	4.02
649.568	3.99
649.899	3.95
650.229	4.04
650.56	3.92
650.89	3.89
651.221	3.93
651.551	3.88
651.882	3.85
652.212	3.87
652.542	4
652.872	4.03
653.203	4
653.533	3.96
653.863	3.89
654.193	3.89
654.523	3.8
654.853	3.75
655.183	3.72
655.513	3.82
655.843	3.76
656.172	3.8
656.502	3.81
656.832	3.81
657.162	3.83
657.491	3.95
657.821	3.99
658.15	4.02
658.48	4.14
658.809	4.15
659.139	4.18
659.468	4.13
659.798	4.12
660.127	4.12
660.456	4.15
660.785	4.15
661.115	4.19
661.444	4.22
661.773	4.3
662.102	4.31
662.431	4.26
662.76	4.33
663.089	4.28
663.418	4.27
663.747	4.34
664.076	4.43
664.404	4.44
664.733	4.39
665.062	4.36
665.39	4.21
665.719	4.15
666.048	4.07
666.376	4.12
666.705	4.12
667.033	4.19
667.362	4.24
667.69	4.2
668.018	4.22
668.347	4.22
668.675	4.15
669.003	4.24
669.331	4.29
669.659	4.25
669.987	4.36
670.315	4.36
670.643	4.44
670.971	4.32
671.299	4.28
671.627	4.31
671.955	4.29
672.283	4.47
672.61	4.54
672.938	4.64
673.266	4.56
673.593	4.5
673.921	4.44
674.249	4.34
674.576	4.49
674.904	4.41
675.231	4.44
675.558	4.52
675.886	4.49
676.213	4.37
676.54	4.43
676.867	4.3
677.195	4.28
677.522	4.1
677.849	4.1
678.176	4.07
678.503	4.09
678.83	4.1
