Data from MVZ_BU8940_Reflection_00004.txt Node
Date: Tue Nov 19 12:16:23 EST 2019
User: vgr7
Spectrometer: USB2G7710
Scans to average: 3
Trigger mode: 4
Integration Time (sec): 2.000000E-2
Electric dark correction enabled: true
Boxcar width: 10
XAxis mode: Wavelengths
Number of Pixels in Spectrum: 2048
>>>>>Begin Spectral Data<<<<<
177.721	365.42
178.105	219.32
178.488	465.48
178.871	100
179.254	85.37
179.636	260.71
180.019	-212.14
180.402	-140
180.785	-620
181.168	144.55
181.55	6.74
181.933	-14.23
182.316	-4.96
182.698	7.36
183.081	37.03
183.463	16.75
183.846	4.69
184.228	2
184.611	18.46
184.993	14.29
185.376	42.81
185.758	-3.25
186.14	15.89
186.522	-35.68
186.904	-157.14
187.287	-54.08
187.669	-215.25
188.051	-78.15
188.433	-154.61
188.815	-128.37
189.197	-36.81
189.579	-1278.38
189.961	49.01
190.342	100
190.724	67.91
191.106	-373.68
191.488	-3.45
191.869	-29900
192.251	-2438.46
192.633	-527.91
193.014	-76.47
193.396	2.28
193.777	262.16
194.159	-127.85
194.54	-136.22
194.922	-38.11
195.303	-48.67
195.684	15.69
196.065	-42.29
196.447	-30.98
196.828	-32.96
197.209	-209.42
197.59	-176.75
197.971	-108.9
198.352	-140.25
198.733	-201.04
199.114	-271.02
199.495	1039.76
199.876	-511.65
200.257	-454.14
200.638	-218.02
201.018	-258.8
201.399	519.58
201.78	229.19
202.16	229.73
202.541	-490.16
202.922	437.08
203.302	228.4
203.683	296.36
204.063	952.63
204.444	961.39
204.824	-888.24
205.204	-5438.46
205.585	-1932.26
205.965	1167.8
206.345	369.46
206.725	1169.31
207.106	292.2
207.486	-969.57
207.866	3720.69
208.246	363.6
208.626	366.01
209.006	91.06
209.386	267.33
209.766	2071.43
210.145	-7614.29
210.525	1557.14
210.905	267.38
211.285	32.28
211.664	39.45
212.044	13.27
212.424	-21.92
212.803	23.62
213.183	21.31
213.562	34.07
213.942	27.86
214.321	37.04
214.701	-7.71
215.08	-19.48
215.459	-28.12
215.838	-57.89
216.218	-81.7
216.597	-62.73
216.976	-493.91
217.355	-225.91
217.734	594.51
218.113	1047.37
218.492	-90.05
218.871	-39.53
219.25	-597.67
219.629	-172.73
220.008	-56.4
220.387	-252.94
220.766	64.98
221.144	29.27
221.523	-20.39
221.902	-6.44
222.28	-14.78
222.659	29.28
223.037	23.62
223.416	10.64
223.794	24.31
224.173	28.98
224.551	42
224.929	58.31
225.308	50.63
225.686	32.44
226.064	25.51
226.442	20.66
226.821	18.39
227.199	14.22
227.577	12.11
227.955	11.59
228.333	12.27
228.711	15.67
229.089	15.17
229.467	14.83
229.845	10.51
230.222	11.71
230.6	9.18
230.978	8.83
231.356	11.22
231.733	12.57
232.111	10.86
232.488	7.94
232.866	9.13
233.243	7.08
233.621	8.32
233.998	9.65
234.376	9.54
234.753	10.26
235.13	9.28
235.508	8.76
235.885	9.53
236.262	7.81
236.639	4.64
237.016	4.69
237.393	6.29
237.77	6.25
238.147	4.67
238.524	5.06
238.901	4.96
239.278	4.47
239.655	3.75
240.032	3.57
240.409	3.85
240.785	2.65
241.162	2.67
241.539	1.98
241.915	1.83
242.292	2.49
242.668	2.32
243.045	2.65
243.421	2.9
243.798	2.81
244.174	3.42
244.551	3.86
244.927	3.66
245.303	3.33
245.679	3.54
246.056	4.1
246.432	4.14
246.808	4.18
247.184	4.27
247.56	4.12
247.936	4.3
248.312	4.64
248.688	5.11
249.064	5.5
249.44	5.79
249.815	5.91
250.191	5.84
250.567	5.74
250.943	6
251.318	5.66
251.694	5.65
252.069	5.67
252.445	5.57
252.82	5.89
253.196	6.01
253.571	6.33
253.947	5.93
254.322	5.36
254.697	5.4
255.073	5.47
255.448	5.61
255.823	5.53
256.198	4.99
256.573	4.88
256.948	4.61
257.323	4.72
257.698	4.55
258.073	4.4
258.448	4.6
258.823	4.26
259.198	4.42
259.573	4.33
259.948	4.29
260.322	4.22
260.697	4.34
261.072	4.26
261.446	4.29
261.821	4.25
262.195	4.33
262.57	4.37
262.944	4.2
263.319	4.22
263.693	4.05
264.067	4.12
264.442	4.05
264.816	4.03
265.19	3.79
265.564	3.65
265.938	3.88
266.313	3.66
266.687	3.73
267.061	3.83
267.435	3.94
267.809	3.91
268.183	3.97
268.556	3.8
268.93	3.87
269.304	3.66
269.678	4.05
270.051	4.17
270.425	4.22
270.799	4.16
271.172	4.2
271.546	4.38
271.919	4.41
272.293	4.49
272.666	4.65
273.04	4.67
273.413	4.89
273.787	4.82
274.16	4.77
274.533	4.89
274.906	5.07
275.279	5.08
275.653	5.07
276.026	5.31
276.399	5.28
276.772	5.44
277.145	5.67
277.518	5.32
277.891	5.2
278.263	5.33
278.636	5.57
279.009	5.81
279.382	5.79
279.755	5.76
280.127	5.89
280.5	5.55
280.872	5.38
281.245	5.18
281.617	4.98
281.99	4.84
282.362	4.66
282.735	4.43
283.107	4.51
283.479	4.42
283.852	4.23
284.224	4.19
284.596	4.07
284.968	4
285.34	3.98
285.713	4.14
286.085	3.92
286.457	3.84
286.829	3.69
287.201	3.69
287.572	3.79
287.944	3.56
288.316	3.71
288.688	3.85
289.06	4.08
289.431	4.16
289.803	4.24
290.175	4.24
290.546	4.24
290.918	4.18
291.289	4.13
291.661	4.05
292.032	4.14
292.403	4.22
292.775	4.27
293.146	4.24
293.517	4.1
293.889	4.15
294.26	4.13
294.631	4.06
295.002	4.1
295.373	4.06
295.744	4.23
296.115	4.27
296.486	4.42
296.857	4.45
297.228	4.52
297.599	4.5
297.97	4.63
298.34	4.66
298.711	4.75
299.082	4.89
299.452	5.03
299.823	5.03
300.194	4.99
300.564	5.06
300.935	5.21
301.305	5.21
301.676	5.17
302.046	5.21
302.416	5.27
302.787	5.37
303.157	5.38
303.527	5.46
303.897	5.48
304.267	5.42
304.637	5.13
305.008	5.02
305.378	5.13
305.748	4.99
306.117	5.22
306.487	5.16
306.857	5.14
307.227	5.28
307.597	5.13
307.967	5.2
308.336	4.94
308.706	4.96
309.076	5.18
309.445	5.23
309.815	5.26
310.184	5.27
310.554	5.12
310.923	5.1
311.293	4.91
311.662	4.88
312.031	4.8
312.401	4.79
312.77	4.69
313.139	4.77
313.508	4.87
313.877	4.76
314.246	4.76
314.616	4.82
314.985	4.69
315.353	4.8
315.722	4.83
316.091	4.98
316.46	4.86
316.829	4.74
317.198	4.99
317.567	4.96
317.935	5.01
318.304	5.1
318.672	5.04
319.041	5.27
319.41	5.35
319.778	5.41
320.147	5.37
320.515	5.49
320.883	5.47
321.252	5.57
321.62	5.45
321.988	5.38
322.357	5.38
322.725	5.33
323.093	5.35
323.461	5.22
323.829	5.18
324.197	5.11
324.565	5.16
324.933	5
325.301	4.9
325.669	4.91
326.037	5.01
326.405	5.11
326.772	4.84
327.14	4.77
327.508	4.72
327.875	4.79
328.243	4.89
328.61	4.91
328.978	4.67
329.346	4.71
329.713	4.84
330.08	4.76
330.448	4.72
330.815	4.75
331.182	4.62
331.55	4.53
331.917	4.55
332.284	4.51
332.651	4.48
333.018	4.53
333.385	4.57
333.752	4.34
334.119	4.3
334.486	4.43
334.853	4.41
335.22	4.38
335.587	4.38
335.954	4.29
336.32	4.1
336.687	4.15
337.054	4.16
337.42	4.05
337.787	4.12
338.153	4.2
338.52	4.21
338.886	4.4
339.253	4.47
339.619	4.72
339.986	4.68
340.352	4.64
340.718	4.77
341.084	4.81
341.451	4.88
341.817	4.82
342.183	4.78
342.549	4.85
342.915	4.97
343.281	5.01
343.647	5.01
344.013	5.16
344.379	5.27
344.745	5.3
345.11	5.38
345.476	5.42
345.842	5.37
346.208	5.41
346.573	5.43
346.939	5.46
347.304	5.34
347.67	5.36
348.035	5.35
348.401	5.26
348.766	5.12
349.132	5.12
349.497	5.17
349.862	5.26
350.228	5.11
350.593	5.04
350.958	5.11
351.323	5.2
351.688	5.19
352.053	5.08
352.418	5.06
352.783	5.06
353.148	4.94
353.513	4.97
353.878	4.85
354.243	4.73
354.608	4.82
354.972	4.75
355.337	4.76
355.702	4.69
356.066	4.72
356.431	4.73
356.795	4.77
357.16	4.86
357.524	4.81
357.889	4.93
358.253	4.94
358.618	4.85
358.982	4.85
359.346	4.81
359.71	4.86
360.075	4.89
360.439	4.86
360.803	4.98
361.167	5.02
361.531	5.1
361.895	5.15
362.259	5.07
362.623	5.09
362.987	5.1
363.351	5.2
363.714	5.2
364.078	5.26
364.442	5.24
364.806	5.21
365.169	5.23
365.533	5.23
365.896	5.3
366.26	5.29
366.623	5.21
366.987	5.26
367.35	5.23
367.714	5.2
368.077	5.29
368.44	5.19
368.803	5.17
369.167	5.12
369.53	5.14
369.893	5.14
370.256	5.11
370.619	5.09
370.982	5.06
371.345	5.07
371.708	5.09
372.071	5.09
372.434	5.02
372.797	5
373.159	4.99
373.522	4.9
373.885	4.93
374.247	4.91
374.61	4.89
374.973	4.93
375.335	4.94
375.698	4.9
376.06	4.96
376.423	4.98
376.785	5.04
377.147	5.07
377.51	5.07
377.872	5.09
378.234	5.16
378.596	5.17
378.958	5.16
379.321	5.15
379.683	5.16
380.045	5.19
380.407	5.21
380.769	5.18
381.13	5.23
381.492	5.2
381.854	5.25
382.216	5.27
382.578	5.28
382.939	5.29
383.301	5.28
383.663	5.25
384.024	5.22
384.386	5.21
384.747	5.2
385.109	5.23
385.47	5.3
385.832	5.31
386.193	5.33
386.554	5.28
386.916	5.28
387.277	5.23
387.638	5.25
387.999	5.22
388.36	5.26
388.721	5.26
389.082	5.3
389.443	5.32
389.804	5.31
390.165	5.32
390.526	5.29
390.887	5.24
391.248	5.22
391.609	5.19
391.969	5.18
392.33	5.16
392.691	5.14
393.051	5.08
393.412	5.03
393.772	5.03
394.133	5.07
394.493	5.05
394.854	5.11
395.214	5.09
395.574	5.11
395.935	5.07
396.295	5.07
396.655	5.05
397.015	5.07
397.376	5.05
397.736	5
398.096	5.02
398.456	5.07
398.816	5.13
399.176	5.12
399.535	5.12
399.895	5.14
400.255	5.1
400.615	5.09
400.975	5.12
401.334	5.12
401.694	5.12
402.054	5.12
402.413	5.1
402.773	5.09
403.132	5.1
403.492	5.13
403.851	5.12
404.211	5.11
404.57	5.09
404.929	5.06
405.288	5.11
405.648	5.11
406.007	5.11
406.366	5.1
406.725	5.14
407.084	5.14
407.443	5.12
407.802	5.14
408.161	5.17
408.52	5.19
408.879	5.17
409.238	5.18
409.596	5.17
409.955	5.15
410.314	5.18
410.673	5.16
411.031	5.14
411.39	5.13
411.748	5.15
412.107	5.17
412.465	5.24
412.824	5.22
413.182	5.21
413.54	5.2
413.899	5.18
414.257	5.16
414.615	5.14
414.974	5.15
415.332	5.16
415.69	5.14
416.048	5.13
416.406	5.11
416.764	5.12
417.122	5.11
417.48	5.14
417.838	5.14
418.195	5.14
418.553	5.16
418.911	5.16
419.269	5.17
419.626	5.16
419.984	5.12
420.342	5.11
420.699	5.1
421.057	5.1
421.414	5.12
421.772	5.13
422.129	5.13
422.486	5.13
422.844	5.13
423.201	5.14
423.558	5.14
423.915	5.16
424.273	5.13
424.63	5.14
424.987	5.14
425.344	5.14
425.701	5.14
426.058	5.13
426.415	5.13
426.772	5.11
427.128	5.13
427.485	5.15
427.842	5.15
428.199	5.13
428.555	5.13
428.912	5.11
429.269	5.07
429.625	5.08
429.982	5.1
430.338	5.08
430.695	5.07
431.051	5.04
431.407	5.02
431.764	5.03
432.12	5.04
432.476	5.02
432.832	5.01
433.189	4.98
433.545	4.99
433.901	4.99
434.257	4.99
434.613	4.98
434.969	4.99
435.325	4.99
435.681	5.01
436.036	5.03
436.392	5.03
436.748	5.06
437.104	5.05
437.459	5.04
437.815	5.05
438.171	5.07
438.526	5.08
438.882	5.08
439.237	5.1
439.593	5.11
439.948	5.1
440.304	5.09
440.659	5.11
441.014	5.12
441.369	5.12
441.725	5.12
442.08	5.13
442.435	5.14
442.79	5.14
443.145	5.14
443.5	5.13
443.855	5.12
444.21	5.12
444.565	5.12
444.92	5.13
445.275	5.12
445.629	5.11
445.984	5.1
446.339	5.12
446.693	5.12
447.048	5.1
447.403	5.1
447.757	5.11
448.112	5.12
448.466	5.12
448.82	5.11
449.175	5.12
449.529	5.11
449.883	5.09
450.238	5.09
450.592	5.09
450.946	5.08
451.3	5.1
451.654	5.1
452.008	5.13
452.362	5.13
452.716	5.14
453.07	5.15
453.424	5.16
453.778	5.14
454.132	5.13
454.486	5.12
454.839	5.13
455.193	5.14
455.547	5.12
455.9	5.1
456.254	5.14
456.607	5.13
456.961	5.15
457.314	5.14
457.668	5.15
458.021	5.14
458.375	5.14
458.728	5.11
459.081	5.11
459.434	5.09
459.787	5.09
460.141	5.09
460.494	5.09
460.847	5.09
461.2	5.08
461.553	5.1
461.906	5.11
462.259	5.11
462.611	5.1
462.964	5.12
463.317	5.12
463.67	5.11
464.022	5.11
464.375	5.11
464.728	5.12
465.08	5.12
465.433	5.16
465.785	5.16
466.138	5.19
466.49	5.21
466.843	5.22
467.195	5.24
467.547	5.25
467.899	5.25
468.252	5.27
468.604	5.27
468.956	5.3
469.308	5.28
469.66	5.35
470.012	5.35
470.364	5.34
470.716	5.36
471.068	5.37
471.42	5.37
471.772	5.37
472.123	5.36
472.475	5.38
472.827	5.37
473.178	5.38
473.53	5.39
473.882	5.37
474.233	5.35
474.585	5.35
474.936	5.36
475.288	5.35
475.639	5.36
475.99	5.36
476.342	5.38
476.693	5.37
477.044	5.35
477.395	5.37
477.746	5.35
478.097	5.35
478.448	5.33
478.8	5.34
479.15	5.34
479.501	5.35
479.852	5.35
480.203	5.37
480.554	5.39
480.905	5.4
481.255	5.4
481.606	5.43
481.957	5.43
482.307	5.42
482.658	5.44
483.009	5.44
483.359	5.45
483.709	5.44
484.06	5.45
484.41	5.45
484.761	5.45
485.111	5.46
485.461	5.47
485.811	5.48
486.162	5.48
486.512	5.48
486.862	5.48
487.212	5.49
487.562	5.48
487.912	5.47
488.262	5.46
488.612	5.46
488.961	5.45
489.311	5.45
489.661	5.46
490.011	5.45
490.36	5.45
490.71	5.44
491.06	5.44
491.409	5.45
491.759	5.44
492.108	5.44
492.458	5.42
492.807	5.43
493.157	5.43
493.506	5.46
493.855	5.46
494.204	5.46
494.554	5.46
494.903	5.48
495.252	5.48
495.601	5.52
495.95	5.53
496.299	5.55
496.648	5.57
496.997	5.55
497.346	5.57
497.695	5.59
498.043	5.6
498.392	5.61
498.741	5.61
499.09	5.65
499.438	5.68
499.787	5.7
500.135	5.69
500.484	5.68
500.832	5.65
501.181	5.65
501.529	5.67
501.878	5.7
502.226	5.73
502.574	5.72
502.923	5.69
503.271	5.69
503.619	5.69
503.967	5.66
504.315	5.69
504.663	5.69
505.011	5.66
505.359	5.66
505.707	5.68
506.055	5.7
506.403	5.68
506.751	5.67
507.098	5.68
507.446	5.67
507.794	5.7
508.141	5.73
508.489	5.74
508.837	5.75
509.184	5.74
509.531	5.73
509.879	5.74
510.226	5.77
510.574	5.79
510.921	5.8
511.268	5.82
511.616	5.85
511.963	5.88
512.31	5.89
512.657	5.9
513.004	5.89
513.351	5.87
513.698	5.88
514.045	5.89
514.392	5.9
514.739	5.93
515.086	5.92
515.432	5.91
515.779	5.94
516.126	5.97
516.473	5.98
516.819	5.99
517.166	6
517.512	5.98
517.859	6.01
518.205	6
518.552	6.01
518.898	6
519.245	5.99
519.591	6.02
519.937	6.03
520.283	6.04
520.629	6.08
520.976	6.1
521.322	6.1
521.668	6.09
522.014	6.09
522.36	6.11
522.706	6.1
523.052	6.1
523.398	6.08
523.743	6.08
524.089	6.08
524.435	6.08
524.781	6.09
525.126	6.08
525.472	6.09
525.817	6.1
526.163	6.09
526.509	6.1
526.854	6.11
527.199	6.1
527.545	6.11
527.89	6.09
528.235	6.09
528.581	6.1
528.926	6.1
529.271	6.11
529.616	6.11
529.961	6.12
530.306	6.11
530.651	6.11
530.996	6.12
531.341	6.12
531.686	6.14
532.031	6.14
532.376	6.16
532.721	6.18
533.065	6.16
533.41	6.17
533.755	6.18
534.099	6.17
534.444	6.19
534.788	6.17
535.133	6.19
535.477	6.2
535.822	6.2
536.166	6.22
536.51	6.21
536.855	6.19
537.199	6.2
537.543	6.2
537.887	6.22
538.231	6.22
538.576	6.21
538.92	6.19
539.264	6.19
539.608	6.18
539.951	6.16
540.295	6.19
540.639	6.19
540.983	6.17
541.327	6.17
541.671	6.16
542.014	6.18
542.358	6.18
542.701	6.18
543.045	6.19
543.389	6.2
543.732	6.21
544.075	6.24
544.419	6.26
544.762	6.27
545.105	6.26
545.449	6.26
545.792	6.28
546.135	6.29
546.478	6.32
546.821	6.33
547.165	6.36
547.508	6.36
547.851	6.36
548.194	6.35
548.536	6.33
548.879	6.37
549.222	6.38
549.565	6.37
549.908	6.36
550.25	6.37
550.593	6.36
550.936	6.36
551.278	6.34
551.621	6.33
551.963	6.33
552.306	6.32
552.648	6.33
552.991	6.33
553.333	6.31
553.675	6.28
554.017	6.23
554.36	6.24
554.702	6.24
555.044	6.24
555.386	6.27
555.728	6.29
556.07	6.27
556.412	6.23
556.754	6.2
557.096	6.23
557.438	6.23
557.78	6.22
558.121	6.23
558.463	6.19
558.805	6.22
559.147	6.25
559.488	6.26
559.83	6.29
560.171	6.27
560.513	6.31
560.854	6.35
561.196	6.4
561.537	6.39
561.878	6.37
562.22	6.39
562.561	6.38
562.902	6.39
563.243	6.42
563.584	6.42
563.925	6.46
564.266	6.44
564.607	6.43
564.948	6.47
565.289	6.49
565.63	6.52
565.971	6.5
566.312	6.48
566.653	6.49
566.993	6.47
567.334	6.51
567.675	6.48
568.015	6.47
568.356	6.43
568.696	6.43
569.037	6.44
569.377	6.42
569.718	6.43
570.058	6.43
570.398	6.45
570.739	6.44
571.079	6.42
571.419	6.41
571.759	6.39
572.099	6.34
572.439	6.32
572.779	6.32
573.119	6.34
573.459	6.35
573.799	6.34
574.139	6.31
574.479	6.34
574.819	6.34
575.158	6.36
575.498	6.39
575.838	6.37
576.177	6.36
576.517	6.37
576.856	6.34
577.196	6.36
577.535	6.33
577.875	6.36
578.214	6.36
578.553	6.39
578.893	6.4
579.232	6.42
579.571	6.43
579.91	6.43
580.25	6.41
580.589	6.43
580.928	6.43
581.267	6.47
581.606	6.4
581.945	6.43
582.283	6.42
582.622	6.4
582.961	6.44
583.3	6.46
583.639	6.46
583.977	6.5
584.316	6.49
584.654	6.46
584.993	6.47
585.332	6.47
585.67	6.47
586.008	6.48
586.347	6.52
586.685	6.49
587.024	6.52
587.362	6.55
587.7	6.51
588.038	6.52
588.376	6.51
588.715	6.49
589.053	6.42
589.391	6.4
589.729	6.42
590.067	6.41
590.404	6.42
590.742	6.44
591.08	6.44
591.418	6.46
591.756	6.5
592.093	6.52
592.431	6.54
592.769	6.52
593.106	6.54
593.444	6.53
593.781	6.56
594.119	6.55
594.456	6.52
594.793	6.52
595.131	6.55
595.468	6.57
595.805	6.59
596.143	6.63
596.48	6.64
596.817	6.61
597.154	6.61
597.491	6.6
597.828	6.6
598.165	6.6
598.502	6.56
598.839	6.53
599.176	6.5
599.512	6.49
599.849	6.53
600.186	6.5
600.523	6.53
600.859	6.52
601.196	6.53
601.532	6.52
601.869	6.55
602.205	6.51
602.542	6.5
602.878	6.52
603.215	6.57
603.551	6.57
603.887	6.61
604.223	6.59
604.56	6.56
604.896	6.59
605.232	6.62
605.568	6.65
605.904	6.66
606.24	6.68
606.576	6.69
606.912	6.64
607.248	6.69
607.583	6.67
607.919	6.64
608.255	6.69
608.591	6.73
608.926	6.72
609.262	6.75
609.597	6.76
609.933	6.75
610.268	6.7
610.604	6.69
610.939	6.69
611.275	6.73
611.61	6.78
611.945	6.71
612.281	6.67
612.616	6.74
612.951	6.78
613.286	6.76
613.621	6.78
613.956	6.83
614.291	6.81
614.626	6.83
614.961	6.85
615.296	6.8
615.631	6.81
615.966	6.81
616.3	6.81
616.635	6.79
616.97	6.8
617.304	6.87
617.639	6.93
617.973	6.88
618.308	6.91
618.642	6.91
618.977	6.91
619.311	6.92
619.646	6.88
619.98	6.86
620.314	6.87
620.648	6.83
620.983	6.78
621.317	6.77
621.651	6.72
621.985	6.74
622.319	6.72
622.653	6.76
622.987	6.73
623.321	6.71
623.655	6.72
623.988	6.71
624.322	6.69
624.656	6.64
624.99	6.65
625.323	6.58
625.657	6.64
625.99	6.69
626.324	6.68
626.657	6.66
626.991	6.63
627.324	6.63
627.658	6.69
627.991	6.75
628.324	6.75
628.657	6.8
628.991	6.83
629.324	6.85
629.657	6.8
629.99	6.85
630.323	6.88
630.656	6.98
630.989	6.98
631.322	6.94
631.655	6.96
631.987	7.02
632.32	7.04
632.653	6.98
632.986	6.9
633.318	6.88
633.651	6.9
633.984	6.92
634.316	6.89
634.649	6.84
634.981	6.84
635.313	6.88
635.646	6.86
635.978	6.87
636.31	6.79
636.643	6.83
636.975	6.79
637.307	6.81
637.639	6.75
637.971	6.79
638.303	6.83
638.635	6.88
638.967	6.84
639.299	6.82
639.631	6.78
639.963	6.87
640.295	6.89
640.626	6.87
640.958	6.89
641.29	6.94
641.621	6.93
641.953	6.9
642.285	6.91
642.616	7
642.948	6.94
643.279	7.01
643.61	7.01
643.942	7.06
644.273	7.09
644.604	7.03
644.936	6.91
645.267	6.94
645.598	6.92
645.929	6.89
646.26	6.92
646.591	6.99
646.922	7.02
647.253	7.01
647.584	7.03
647.915	7.05
648.245	7.03
648.576	7.03
648.907	7.05
649.238	7
649.568	6.95
649.899	7
650.229	7.06
650.56	7.02
650.89	7.05
651.221	6.98
651.551	7.09
651.882	7.14
652.212	7.13
652.542	7.07
652.872	7.14
653.203	7.2
653.533	7.19
653.863	7.15
654.193	7.13
654.523	7.08
654.853	7.11
655.183	7.13
655.513	7.16
655.843	7.15
656.172	7.23
656.502	7.16
656.832	7.16
657.162	7.11
657.491	7.22
657.821	7.13
658.15	7.16
658.48	7.18
658.809	7.21
659.139	7.23
659.468	7.28
659.798	7.27
660.127	7.25
660.456	7.24
660.785	7.25
661.115	7.29
661.444	7.39
661.773	7.4
662.102	7.48
662.431	7.45
662.76	7.41
663.089	7.45
663.418	7.57
663.747	7.55
664.076	7.55
664.404	7.52
664.733	7.56
665.062	7.54
665.39	7.43
665.719	7.34
666.048	7.36
666.376	7.36
666.705	7.34
667.033	7.35
667.362	7.41
667.69	7.46
668.018	7.47
668.347	7.48
668.675	7.45
669.003	7.35
669.331	7.35
669.659	7.46
669.987	7.42
670.315	7.34
670.643	7.36
670.971	7.32
671.299	7.32
671.627	7.34
671.955	7.42
672.283	7.41
672.61	7.53
672.938	7.55
673.266	7.5
673.593	7.57
673.921	7.53
674.249	7.53
674.576	7.52
674.904	7.5
675.231	7.44
675.558	7.49
675.886	7.58
676.213	7.64
676.54	7.6
676.867	7.62
677.195	7.65
677.522	7.54
