Data from MVZ_BU34099_Reflection_00001.txt Node
Date: Tue Nov 19 12:15:21 EST 2019
User: vgr7
Spectrometer: USB2G7710
Scans to average: 3
Trigger mode: 4
Integration Time (sec): 2.000000E-2
Electric dark correction enabled: true
Boxcar width: 10
XAxis mode: Wavelengths
Number of Pixels in Spectrum: 2048
>>>>>Begin Spectral Data<<<<<
177.721	35.8
178.105	74.14
178.488	-54.21
178.871	-41.51
179.254	-309.09
179.636	382.18
180.019	129.75
180.402	-600
180.785	11.51
181.168	-127.75
181.55	2523.08
181.933	436.73
182.316	553.49
182.698	174.59
183.081	614.93
183.463	3907.69
183.846	288.74
184.228	681.63
184.611	5061.54
184.993	-1057.14
185.376	-38.23
185.758	-11.01
186.14	-112.73
186.522	-35.73
186.904	-22.07
187.287	-2.54
187.669	-15.95
188.051	-31.95
188.433	-50.2
188.815	-42.23
189.197	-12.13
189.579	3.45
189.961	-19.95
190.342	-2.84
190.724	-21.42
191.106	-13.97
191.488	-13.25
191.869	-11.69
192.251	-14.08
192.633	-2.37
193.014	2.84
193.396	4.55
193.777	-5.2
194.159	11.92
194.54	9.64
194.922	20.34
195.303	22.72
195.684	29.68
196.065	30.91
196.447	29.23
196.828	37.07
197.209	44.61
197.59	42
197.971	50.43
198.352	50.47
198.733	52
199.114	66.69
199.495	72.44
199.876	61.78
200.257	57.28
200.638	51.18
201.018	36.78
201.399	37.78
201.78	47.57
202.16	31.44
202.541	39.84
202.922	31.58
203.302	36.71
203.683	42.9
204.063	44.32
204.444	34.46
204.824	22.34
205.204	20.21
205.585	26.39
205.965	24.23
206.345	25.21
206.725	32.62
207.106	27.08
207.486	24.36
207.866	30.93
208.246	45.86
208.626	52.34
209.006	60.05
209.386	65.09
209.766	56.19
210.145	75.58
210.525	68.81
210.905	64.06
211.285	66.13
211.664	57.62
212.044	64.64
212.424	59.2
212.803	64.06
213.183	61.18
213.562	56.49
213.942	57.76
214.321	65.49
214.701	71.09
215.08	76.87
215.459	97.07
215.838	96.66
216.218	82.34
216.597	84.02
216.976	73.78
217.355	68.17
217.734	59.62
218.113	58.5
218.492	56.9
218.871	65.26
219.25	59.88
219.629	63.87
220.008	68.98
220.387	64.27
220.766	57.76
221.144	54.36
221.523	60.01
221.902	50.94
222.28	45.51
222.659	44.92
223.037	32.55
223.416	31.84
223.794	31.95
224.173	34.91
224.551	29
224.929	27.75
225.308	22.03
225.686	20.09
226.064	13.52
226.442	12.34
226.821	10.34
227.199	10.41
227.577	13.42
227.955	13.18
228.333	12.26
228.711	11.55
229.089	8.99
229.467	6.98
229.845	6.53
230.222	8.05
230.6	5.3
230.978	7.48
231.356	5.35
231.733	6.31
232.111	4.17
232.488	5.53
232.866	4.5
233.243	5.68
233.621	7.77
233.998	8.27
234.376	9.86
234.753	8.14
235.13	9.3
235.508	9.3
235.885	6.38
236.262	6.1
236.639	5.99
237.016	7.23
237.393	6.85
237.77	6.4
238.147	5.42
238.524	4.34
238.901	3.47
239.278	2.63
239.655	2.56
240.032	2.65
240.409	2.65
240.785	2.53
241.162	2.07
241.539	1.95
241.915	2.17
242.292	1.62
242.668	2.05
243.045	1.83
243.421	1.52
243.798	2.01
244.174	2.08
244.551	2.24
244.927	2
245.303	1.84
245.679	2
246.056	2.29
246.432	2.79
246.808	3.02
247.184	3.1
247.56	2.85
247.936	2.95
248.312	3.01
248.688	2.97
249.064	3.09
249.44	2.63
249.815	2.55
250.191	2.66
250.567	2.5
250.943	2.64
251.318	2.58
251.694	2.47
252.069	2.85
252.445	2.6
252.82	2.78
253.196	3.32
253.571	3.39
253.947	3.2
254.322	2.5
254.697	2.29
255.073	2.52
255.448	2.72
255.823	3.02
256.198	2.93
256.573	3.16
256.948	3.35
257.323	3.79
257.698	3.69
258.073	3.47
258.448	3.38
258.823	3.18
259.198	3.4
259.573	3.46
259.948	3.34
260.322	3.33
260.697	3.23
261.072	3.07
261.446	3.03
261.821	2.9
262.195	3.08
262.57	3.15
262.944	3.13
263.319	3.23
263.693	2.92
264.067	2.94
264.442	2.73
264.816	2.55
265.19	2.43
265.564	2.53
265.938	2.75
266.313	2.76
266.687	2.79
267.061	2.75
267.435	2.69
267.809	2.57
268.183	2.67
268.556	2.76
268.93	2.88
269.304	2.9
269.678	3.19
270.051	3.15
270.425	3.12
270.799	3.06
271.172	2.97
271.546	3.12
271.919	3.09
272.293	3.23
272.666	3.27
273.04	3.23
273.413	3.18
273.787	3.04
274.16	3.01
274.533	3.09
274.906	3.08
275.279	3.04
275.653	3.18
276.026	3.12
276.399	3.04
276.772	3.07
277.145	3.05
277.518	2.72
277.891	2.8
278.263	3.03
278.636	3.1
279.009	3.16
279.382	3.17
279.755	3.11
280.127	3.09
280.5	3.1
280.872	3.07
281.245	2.97
281.617	3.22
281.99	3.25
282.362	3.39
282.735	3.33
283.107	3.33
283.479	3.28
283.852	3.3
284.224	3.36
284.596	3.18
284.968	3.05
285.34	3.11
285.713	3.15
286.085	2.96
286.457	2.89
286.829	2.8
287.201	2.74
287.572	2.82
287.944	2.94
288.316	2.93
288.688	2.99
289.06	3.09
289.431	3.06
289.803	3.21
290.175	3.13
290.546	3.05
290.918	3.12
291.289	3.03
291.661	3.02
292.032	3.07
292.403	3.16
292.775	3.33
293.146	3.4
293.517	3.14
293.889	3.15
294.26	3.18
294.631	3.38
295.002	3.41
295.373	3.29
295.744	3.27
296.115	3.25
296.486	3.24
296.857	3.2
297.228	3.18
297.599	3.01
297.97	3
298.34	3.03
298.711	3.09
299.082	3.11
299.452	3.2
299.823	3.16
300.194	3.12
300.564	3.04
300.935	3.11
301.305	3.3
301.676	3.27
302.046	3.22
302.416	3.06
302.787	2.88
303.157	2.93
303.527	2.96
303.897	2.99
304.267	3.05
304.637	3.14
305.008	2.98
305.378	2.97
305.748	2.9
306.117	2.95
306.487	2.83
306.857	2.88
307.227	2.88
307.597	2.92
307.967	2.98
308.336	3
308.706	2.85
309.076	2.88
309.445	2.98
309.815	3.1
310.184	3.07
310.554	3.26
310.923	3.22
311.293	3.13
311.662	3.05
312.031	3.04
312.401	2.96
312.77	3
313.139	3.15
313.508	3.17
313.877	3.25
314.246	3.28
314.616	3.39
314.985	3.38
315.353	3.3
315.722	3.26
316.091	3.31
316.46	3.44
316.829	3.34
317.198	3.22
317.567	3.29
317.935	3.3
318.304	3.25
318.672	3.33
319.041	3.33
319.41	3.37
319.778	3.4
320.147	3.38
320.515	3.5
320.883	3.35
321.252	3.33
321.62	3.28
321.988	3.34
322.357	3.19
322.725	3.14
323.093	3.1
323.461	3.1
323.829	3.1
324.197	3.06
324.565	3.11
324.933	3.13
325.301	3.03
325.669	3.14
326.037	3.19
326.405	3.16
326.772	3.16
327.14	3.17
327.508	2.97
327.875	2.92
328.243	2.9
328.61	2.95
328.978	3
329.346	2.94
329.713	2.8
330.08	2.89
330.448	3.04
330.815	3.03
331.182	3.01
331.55	3.03
331.917	2.97
332.284	2.98
332.651	3.1
333.018	3.16
333.385	2.98
333.752	3.02
334.119	3.06
334.486	3.04
334.853	3.06
335.22	3.11
335.587	3.03
335.954	2.94
336.32	2.99
336.687	2.98
337.054	2.99
337.42	3.06
337.787	3.04
338.153	2.93
338.52	3.02
338.886	3.1
339.253	2.99
339.619	3.02
339.986	3.01
340.352	2.93
340.718	2.83
341.084	2.98
341.451	2.89
341.817	2.9
342.183	2.84
342.549	2.84
342.915	2.89
343.281	3.01
343.647	3.09
344.013	2.95
344.379	2.8
344.745	2.77
345.11	2.7
345.476	2.66
345.842	2.67
346.208	2.69
346.573	2.59
346.939	2.69
347.304	2.64
347.67	2.53
348.035	2.49
348.401	2.57
348.766	2.52
349.132	2.64
349.497	2.64
349.862	2.6
350.228	2.54
350.593	2.49
350.958	2.54
351.323	2.46
351.688	2.57
352.053	2.69
352.418	2.66
352.783	2.73
353.148	2.79
353.513	2.8
353.878	2.8
354.243	2.82
354.608	2.81
354.972	2.86
355.337	2.96
355.702	2.98
356.066	3.02
356.431	2.91
356.795	2.85
357.16	2.84
357.524	2.99
357.889	2.97
358.253	2.97
358.618	2.96
358.982	2.94
359.346	2.97
359.71	2.95
360.075	3.02
360.439	3.07
360.803	3.06
361.167	3.03
361.531	3.03
361.895	3.03
362.259	3
362.623	3.01
362.987	3.02
363.351	3
363.714	2.94
364.078	3.01
364.442	2.92
364.806	2.95
365.169	2.87
365.533	2.9
365.896	3.01
366.26	2.94
366.623	2.93
366.987	2.9
367.35	2.92
367.714	2.9
368.077	2.9
368.44	2.91
368.803	2.88
369.167	2.81
369.53	2.8
369.893	2.77
370.256	2.72
370.619	2.71
370.982	2.63
371.345	2.62
371.708	2.64
372.071	2.7
372.434	2.66
372.797	2.73
373.159	2.75
373.522	2.66
373.885	2.73
374.247	2.77
374.61	2.76
374.973	2.79
375.335	2.82
375.698	2.81
376.06	2.76
376.423	2.78
376.785	2.85
377.147	2.87
377.51	2.91
377.872	2.92
378.234	2.9
378.596	3.02
378.958	3.04
379.321	3.02
379.683	3.03
380.045	3.04
380.407	3.05
380.769	3.01
381.13	2.96
381.492	3
381.854	3.02
382.216	3.04
382.578	3.06
382.939	3.04
383.301	2.98
383.663	3.02
384.024	3.02
384.386	2.94
384.747	2.94
385.109	2.93
385.47	2.97
385.832	2.99
386.193	2.94
386.554	2.93
386.916	2.91
387.277	2.87
387.638	2.91
387.999	2.89
388.36	2.97
388.721	3.05
389.082	3.04
389.443	3.04
389.804	3.03
390.165	3.03
390.526	2.99
390.887	3.04
391.248	3.04
391.609	3.06
391.969	3.09
392.33	3.07
392.691	3.1
393.051	3.09
393.412	3.03
393.772	3.06
394.133	3.02
394.493	3.03
394.854	3.06
395.214	3.01
395.574	2.97
395.935	2.97
396.295	2.93
396.655	2.91
397.015	2.9
397.376	2.92
397.736	2.92
398.096	2.94
398.456	2.93
398.816	2.94
399.176	2.93
399.535	2.93
399.895	2.93
400.255	2.88
400.615	2.86
400.975	2.91
401.334	2.93
401.694	2.99
402.054	2.98
402.413	2.98
402.773	2.99
403.132	2.99
403.492	2.98
403.851	2.98
404.211	2.95
404.57	2.98
404.929	2.98
405.288	2.96
405.648	2.95
406.007	2.95
406.366	2.94
406.725	2.93
407.084	2.95
407.443	3
407.802	3.01
408.161	3.05
408.52	3.06
408.879	3.04
409.238	3.06
409.596	3.09
409.955	3.08
410.314	3.11
410.673	3.11
411.031	3.1
411.39	3.13
411.748	3.15
412.107	3.15
412.465	3.13
412.824	3.11
413.182	3.14
413.54	3.13
413.899	3.11
414.257	3.11
414.615	3.1
414.974	3.09
415.332	3.1
415.69	3.09
416.048	3.09
416.406	3.08
416.764	3.04
417.122	3.02
417.48	3.03
417.838	3.01
418.195	2.99
418.553	3
418.911	2.98
419.269	2.99
419.626	2.97
419.984	2.98
420.342	2.98
420.699	2.96
421.057	2.95
421.414	2.96
421.772	2.95
422.129	2.95
422.486	2.96
422.844	2.95
423.201	2.94
423.558	2.94
423.915	2.95
424.273	2.96
424.63	2.97
424.987	2.98
425.344	2.99
425.701	3.01
426.058	3.03
426.415	3.03
426.772	3.02
427.128	3.03
427.485	3.03
427.842	3.03
428.199	3.06
428.555	3.08
428.912	3.08
429.269	3.07
429.625	3.09
429.982	3.06
430.338	3.07
430.695	3.07
431.051	3.09
431.407	3.09
431.764	3.08
432.12	3.09
432.476	3.06
432.832	3.06
433.189	3.07
433.545	3.03
433.901	3.04
434.257	3.03
434.613	3.04
434.969	3.05
435.325	3.07
435.681	3.07
436.036	3.06
436.392	3.08
436.748	3.09
437.104	3.09
437.459	3.1
437.815	3.09
438.171	3.1
438.526	3.08
438.882	3.08
439.237	3.09
439.593	3.1
439.948	3.1
440.304	3.1
440.659	3.09
441.014	3.11
441.369	3.1
441.725	3.12
442.08	3.11
442.435	3.1
442.79	3.09
443.145	3.08
443.5	3.08
443.855	3.07
444.21	3.08
444.565	3.09
444.92	3.09
445.275	3.09
445.629	3.07
445.984	3.08
446.339	3.09
446.693	3.08
447.048	3.08
447.403	3.07
447.757	3.07
448.112	3.08
448.466	3.08
448.82	3.09
449.175	3.09
449.529	3.09
449.883	3.08
450.238	3.09
450.592	3.06
450.946	3.07
451.3	3.07
451.654	3.05
452.008	3.06
452.362	3.06
452.716	3.06
453.07	3.07
453.424	3.05
453.778	3.07
454.132	3.05
454.486	3.04
454.839	3.06
455.193	3.07
455.547	3.06
455.9	3.06
456.254	3.04
456.607	3.05
456.961	3.06
457.314	3.08
457.668	3.09
458.021	3.1
458.375	3.07
458.728	3.07
459.081	3.08
459.434	3.05
459.787	3.06
460.141	3.07
460.494	3.07
460.847	3.08
461.2	3.07
461.553	3.09
461.906	3.11
462.259	3.08
462.611	3.06
462.964	3.08
463.317	3.07
463.67	3.09
464.022	3.08
464.375	3.1
464.728	3.08
465.08	3.07
465.433	3.08
465.785	3.11
466.138	3.12
466.49	3.14
466.843	3.17
467.195	3.18
467.547	3.2
467.899	3.2
468.252	3.22
468.604	3.2
468.956	3.21
469.308	3.23
469.66	3.25
470.012	3.27
470.364	3.24
470.716	3.25
471.068	3.25
471.42	3.26
471.772	3.25
472.123	3.28
472.475	3.28
472.827	3.27
473.178	3.28
473.53	3.29
473.882	3.27
474.233	3.25
474.585	3.26
474.936	3.24
475.288	3.24
475.639	3.23
475.99	3.25
476.342	3.24
476.693	3.23
477.044	3.22
477.395	3.23
477.746	3.23
478.097	3.23
478.448	3.22
478.8	3.22
479.15	3.21
479.501	3.22
479.852	3.23
480.203	3.23
480.554	3.22
480.905	3.21
481.255	3.23
481.606	3.25
481.957	3.24
482.307	3.23
482.658	3.25
483.009	3.26
483.359	3.26
483.709	3.27
484.06	3.28
484.41	3.29
484.761	3.3
485.111	3.3
485.461	3.3
485.811	3.3
486.162	3.31
486.512	3.32
486.862	3.31
487.212	3.31
487.562	3.32
487.912	3.32
488.262	3.33
488.612	3.32
488.961	3.32
489.311	3.32
489.661	3.33
490.011	3.32
490.36	3.31
490.71	3.31
491.06	3.31
491.409	3.31
491.759	3.31
492.108	3.29
492.458	3.29
492.807	3.28
493.157	3.29
493.506	3.28
493.855	3.28
494.204	3.28
494.554	3.28
494.903	3.28
495.252	3.28
495.601	3.29
495.95	3.29
496.299	3.29
496.648	3.3
496.997	3.32
497.346	3.34
497.695	3.34
498.043	3.35
498.392	3.35
498.741	3.35
499.09	3.36
499.438	3.39
499.787	3.4
500.135	3.41
500.484	3.42
500.832	3.42
501.181	3.44
501.529	3.46
501.878	3.48
502.226	3.52
502.574	3.54
502.923	3.54
503.271	3.54
503.619	3.55
503.967	3.55
504.315	3.55
504.663	3.54
505.011	3.55
505.359	3.55
505.707	3.55
506.055	3.56
506.403	3.54
506.751	3.54
507.098	3.55
507.446	3.56
507.794	3.56
508.141	3.58
508.489	3.6
508.837	3.57
509.184	3.56
509.531	3.54
509.879	3.51
510.226	3.51
510.574	3.52
510.921	3.51
511.268	3.52
511.616	3.5
511.963	3.52
512.31	3.52
512.657	3.54
513.004	3.52
513.351	3.54
513.698	3.54
514.045	3.53
514.392	3.53
514.739	3.54
515.086	3.55
515.432	3.55
515.779	3.52
516.126	3.55
516.473	3.56
516.819	3.57
517.166	3.59
517.512	3.6
517.859	3.62
518.205	3.6
518.552	3.61
518.898	3.61
519.245	3.61
519.591	3.62
519.937	3.6
520.283	3.6
520.629	3.6
520.976	3.6
521.322	3.61
521.668	3.61
522.014	3.6
522.36	3.59
522.706	3.59
523.052	3.62
523.398	3.61
523.743	3.6
524.089	3.6
524.435	3.61
524.781	3.59
525.126	3.58
525.472	3.6
525.817	3.59
526.163	3.61
526.509	3.61
526.854	3.63
527.199	3.62
527.545	3.64
527.89	3.65
528.235	3.65
528.581	3.64
528.926	3.64
529.271	3.66
529.616	3.66
529.961	3.67
530.306	3.66
530.651	3.67
530.996	3.68
531.341	3.69
531.686	3.69
532.031	3.71
532.376	3.72
532.721	3.72
533.065	3.74
533.41	3.74
533.755	3.73
534.099	3.74
534.444	3.74
534.788	3.73
535.133	3.73
535.477	3.76
535.822	3.77
536.166	3.78
536.51	3.78
536.855	3.79
537.199	3.79
537.543	3.8
537.887	3.8
538.231	3.79
538.576	3.8
538.92	3.81
539.264	3.81
539.608	3.8
539.951	3.8
540.295	3.8
540.639	3.81
540.983	3.82
541.327	3.83
541.671	3.85
542.014	3.86
542.358	3.87
542.701	3.87
543.045	3.86
543.389	3.87
543.732	3.85
544.075	3.84
544.419	3.85
544.762	3.85
545.105	3.86
545.449	3.88
545.792	3.88
546.135	3.88
546.478	3.88
546.821	3.89
547.165	3.91
547.508	3.89
547.851	3.89
548.194	3.88
548.536	3.88
548.879	3.88
549.222	3.88
549.565	3.85
549.908	3.85
550.25	3.86
550.593	3.87
550.936	3.9
551.278	3.92
551.621	3.92
551.963	3.94
552.306	3.95
552.648	3.95
552.991	3.92
553.333	3.93
553.675	3.93
554.017	3.93
554.36	3.93
554.702	3.94
555.044	3.94
555.386	3.95
555.728	3.94
556.07	3.93
556.412	3.97
556.754	3.96
557.096	3.95
557.438	3.94
557.78	3.93
558.121	3.93
558.463	3.92
558.805	3.92
559.147	3.89
559.488	3.85
559.83	3.85
560.171	3.85
560.513	3.83
560.854	3.84
561.196	3.87
561.537	3.88
561.878	3.89
562.22	3.9
562.561	3.91
562.902	3.9
563.243	3.92
563.584	3.88
563.925	3.91
564.266	3.93
564.607	3.92
564.948	3.94
565.289	3.93
565.63	3.93
565.971	3.94
566.312	3.95
566.653	3.96
566.993	3.96
567.334	4.02
567.675	4
568.015	3.97
568.356	3.95
568.696	3.94
569.037	3.96
569.377	3.96
569.718	3.95
570.058	3.96
570.398	3.95
570.739	3.96
571.079	3.97
571.419	3.97
571.759	3.99
572.099	3.97
572.439	3.97
572.779	3.99
573.119	3.98
573.459	3.96
573.799	3.98
574.139	3.98
574.479	3.96
574.819	4.01
575.158	4.06
575.498	4.09
575.838	4.08
576.177	4.05
576.517	4.06
576.856	4.06
577.196	4.07
577.535	4.06
577.875	4.07
578.214	4.05
578.553	4.07
578.893	4.1
579.232	4.13
579.571	4.15
579.91	4.13
580.25	4.14
580.589	4.15
580.928	4.19
581.267	4.19
581.606	4.17
581.945	4.14
582.283	4.1
582.622	4.07
582.961	4.13
583.3	4.15
583.639	4.17
583.977	4.2
584.316	4.19
584.654	4.2
584.993	4.18
585.332	4.18
585.67	4.16
586.008	4.12
586.347	4.13
586.685	4.09
587.024	4.11
587.362	4.12
587.7	4.16
588.038	4.16
588.376	4.16
588.715	4.15
589.053	4.19
589.391	4.2
589.729	4.24
590.067	4.16
590.404	4.18
590.742	4.13
591.08	4.14
591.418	4.15
591.756	4.2
592.093	4.18
592.431	4.23
592.769	4.23
593.106	4.24
593.444	4.22
593.781	4.25
594.119	4.21
594.456	4.2
594.793	4.22
595.131	4.23
595.468	4.23
595.805	4.3
596.143	4.29
596.48	4.3
596.817	4.29
597.154	4.33
597.491	4.34
597.828	4.37
598.165	4.36
598.502	4.36
598.839	4.29
599.176	4.32
599.512	4.3
599.849	4.31
600.186	4.32
600.523	4.3
600.859	4.31
601.196	4.35
601.532	4.37
601.869	4.36
602.205	4.34
602.542	4.31
602.878	4.29
603.215	4.31
603.551	4.29
603.887	4.3
604.223	4.26
604.56	4.24
604.896	4.26
605.232	4.26
605.568	4.28
605.904	4.3
606.24	4.3
606.576	4.31
606.912	4.3
607.248	4.32
607.583	4.38
607.919	4.36
608.255	4.38
608.591	4.39
608.926	4.38
609.262	4.41
609.597	4.4
609.933	4.41
610.268	4.42
610.604	4.44
610.939	4.47
611.275	4.48
611.61	4.49
611.945	4.45
612.281	4.48
612.616	4.53
612.951	4.58
613.286	4.58
613.621	4.6
613.956	4.6
614.291	4.59
614.626	4.6
614.961	4.66
615.296	4.66
615.631	4.69
615.966	4.68
616.3	4.63
616.635	4.63
616.97	4.62
617.304	4.61
617.639	4.6
617.973	4.57
618.308	4.64
618.642	4.63
618.977	4.68
619.311	4.65
619.646	4.63
619.98	4.6
620.314	4.59
620.648	4.55
620.983	4.57
621.317	4.56
621.651	4.5
621.985	4.49
622.319	4.43
622.653	4.39
622.987	4.44
623.321	4.48
623.655	4.48
623.988	4.47
624.322	4.39
624.656	4.37
624.99	4.34
625.323	4.29
625.657	4.33
625.99	4.29
626.324	4.27
626.657	4.22
626.991	4.22
627.324	4.19
627.658	4.21
627.991	4.22
628.324	4.18
628.657	4.17
628.991	4.15
629.324	4.19
629.657	4.21
629.99	4.2
630.323	4.18
630.656	4.2
630.989	4.18
631.322	4.24
631.655	4.31
631.987	4.35
632.32	4.38
632.653	4.37
632.986	4.39
633.318	4.44
633.651	4.46
633.984	4.5
634.316	4.54
634.649	4.56
634.981	4.54
635.313	4.58
635.646	4.68
635.978	4.73
636.31	4.68
636.643	4.65
636.975	4.63
637.307	4.69
637.639	4.67
637.971	4.66
638.303	4.67
638.635	4.6
638.967	4.59
639.299	4.62
639.631	4.62
639.963	4.63
640.295	4.62
640.626	4.64
640.958	4.64
641.29	4.65
641.621	4.64
641.953	4.66
642.285	4.67
642.616	4.64
642.948	4.64
643.279	4.68
643.61	4.7
643.942	4.69
644.273	4.68
644.604	4.68
644.936	4.7
645.267	4.71
645.598	4.79
645.929	4.76
646.26	4.68
646.591	4.68
646.922	4.72
647.253	4.72
647.584	4.78
647.915	4.8
648.245	4.77
648.576	4.8
648.907	4.78
649.238	4.78
649.568	4.77
649.899	4.75
650.229	4.82
650.56	4.82
650.89	4.89
651.221	4.77
651.551	4.83
651.882	4.85
652.212	4.83
652.542	4.85
652.872	4.9
653.203	4.98
653.533	5.03
653.863	5.02
654.193	4.98
654.523	4.9
654.853	4.88
655.183	4.94
655.513	4.93
655.843	4.91
656.172	5
656.502	4.94
656.832	4.94
657.162	4.88
657.491	4.93
657.821	4.88
658.15	4.95
658.48	5.01
658.809	5.01
659.139	5.05
659.468	5.08
659.798	5.11
660.127	5.06
660.456	5.05
660.785	4.98
661.115	5.02
661.444	5.07
661.773	5.13
662.102	5.12
662.431	5.11
662.76	5.16
663.089	5.05
663.418	5.13
663.747	5.12
664.076	5.18
664.404	5.11
664.733	5.12
665.062	5.23
665.39	5.17
665.719	5.25
666.048	5.16
666.376	5.02
666.705	5.02
667.033	5.06
667.362	5.04
667.69	5.13
668.018	5.18
668.347	5.22
668.675	5.14
669.003	5.14
669.331	5.1
669.659	5.04
669.987	5.06
670.315	5.07
670.643	5.08
670.971	4.99
671.299	5.05
671.627	5.06
671.955	4.94
672.283	4.93
672.61	4.88
672.938	4.95
673.266	5.01
673.593	4.95
673.921	4.91
674.249	4.92
674.576	4.92
674.904	4.84
675.231	4.8
675.558	4.83
675.886	4.79
676.213	4.8
676.54	4.9
676.867	4.9
677.195	4.93
677.522	4.95
677.849	4.94
678.176	4.96
678.503	4.98
678.83	5.01
679.157	4.98
679.484	4.97
679.81	4.99
680.137	5.02
