Data from MVZ_BU57658_Reflection_00009.txt Node
Date: Tue Nov 19 12:13:34 EST 2019
User: vgr7
Spectrometer: USB2G7710
Scans to average: 3
Trigger mode: 4
Integration Time (sec): 2.000000E-2
Electric dark correction enabled: true
Boxcar width: 10
XAxis mode: Wavelengths
Number of Pixels in Spectrum: 2048
>>>>>Begin Spectral Data<<<<<
177.721	80.23
178.105	64.91
178.488	54.75
178.871	81.67
179.254	173.33
179.636	707.84
180.019	-202.72
180.402	125
180.785	-16.26
181.168	-79.2
181.55	-7.19
181.933	-24.77
182.316	12.05
182.698	9.06
183.081	36.95
183.463	44.44
183.846	62.61
184.228	79.6
184.611	97.4
184.993	158.52
185.376	162.42
185.758	117.29
186.14	100.78
186.522	255.83
186.904	1146.67
187.287	266.67
187.669	221.33
188.051	220.76
188.433	1212.61
188.815	-545.59
189.197	-638.1
189.579	-192.91
189.961	-214.81
190.342	-101.17
190.724	-111.79
191.106	-94.92
191.488	-82.98
191.869	-78.55
192.251	-63.11
192.633	-49.76
193.014	-53.54
193.396	-51.27
193.777	-52.4
194.159	-65.8
194.54	-54.3
194.922	-69.03
195.303	-106.96
195.684	-123.67
196.065	-124.08
196.447	-161.76
196.828	-186.81
197.209	-152.97
197.59	-159.19
197.971	-271.09
198.352	5562.96
198.733	-1116.31
199.114	722.07
199.495	-5006.06
199.876	-2908.77
200.257	-54066.67
200.638	2822.22
201.018	1374.77
201.399	573.78
201.78	673.59
202.16	2106.67
202.541	3580.39
202.922	-4912.82
203.302	-297.82
203.683	-137.78
204.063	-115.09
204.444	-73.49
204.824	-81.62
205.204	-95.29
205.585	-135.14
205.965	-137.4
206.345	-118.05
206.725	-116.28
207.106	-109.71
207.486	-117.68
207.866	-110.07
208.246	-119.02
208.626	-160.75
209.006	-220.37
209.386	-367.85
209.766	-560.49
210.145	-579.06
210.525	-955.56
210.905	-454.37
211.285	-397.93
211.664	-713.73
212.044	-842.79
212.424	8266.67
212.803	774.86
213.183	1161.9
213.562	-197.53
213.942	-181.77
214.321	-261.86
214.701	-116.92
215.08	-19.36
215.459	-16.13
215.838	-65.01
216.218	-70.82
216.597	-46.65
216.976	-54.23
217.355	-47.55
217.734	-66.67
218.113	-61.96
218.492	-49.43
218.871	-53.63
219.25	-70.21
219.629	-89.67
220.008	-93
220.387	-111.85
220.766	-103.34
221.144	-102.14
221.523	-123.11
221.902	-104.98
222.28	-78.23
222.659	-75.57
223.037	-108.72
223.416	-87.78
223.794	-71.16
224.173	-88.01
224.551	-71.21
224.929	-61.95
225.308	-57.99
225.686	-44.59
226.064	-52.25
226.442	-40.04
226.821	-36.54
227.199	-32.55
227.577	-26.58
227.955	-22.79
228.333	-22.82
228.711	-21.86
229.089	-22.25
229.467	-21.41
229.845	-21.96
230.222	-22.53
230.6	-23.87
230.978	-20.27
231.356	-21.88
231.733	-17.78
232.111	-12.91
232.488	-13.77
232.866	-12.12
233.243	-9.69
233.621	-8.55
233.998	-7.25
234.376	-8.17
234.753	-6.37
235.13	-3.95
235.508	-4.13
235.885	-2.86
236.262	-2.93
236.639	-2.67
237.016	-1.98
237.393	-2.22
237.77	-1.93
238.147	-2.59
238.524	-0.92
238.901	-0.37
239.278	-0.81
239.655	-0.22
240.032	0.2
240.409	0.78
240.785	0.2
241.162	1.21
241.539	1.45
241.915	2.06
242.292	2.25
242.668	1.88
243.045	2.33
243.421	2.58
243.798	2.09
244.174	2.46
244.551	2.57
244.927	2.64
245.303	2.74
245.679	2.99
246.056	3.13
246.432	3.14
246.808	3.03
247.184	3.16
247.56	2.7
247.936	2.7
248.312	2.76
248.688	3.11
249.064	3.13
249.44	3.12
249.815	3.11
250.191	3.21
250.567	3.24
250.943	3.2
251.318	2.94
251.694	2.94
252.069	3.01
252.445	3.29
252.82	3.5
253.196	3.71
253.571	3.6
253.947	3.6
254.322	3.69
254.697	3.68
255.073	3.81
255.448	3.78
255.823	3.85
256.198	3.7
256.573	3.44
256.948	2.97
257.323	3.11
257.698	2.88
258.073	2.7
258.448	2.8
258.823	2.46
259.198	2.56
259.573	2.43
259.948	2.7
260.322	2.37
260.697	2.46
261.072	2.34
261.446	2.44
261.821	2.49
262.195	2.29
262.57	2.37
262.944	2.4
263.319	2.63
263.693	2.64
264.067	2.77
264.442	2.84
264.816	2.76
265.19	2.85
265.564	3.23
265.938	3.29
266.313	3.28
266.687	3.48
267.061	3.51
267.435	3.87
267.809	3.59
268.183	3.79
268.556	3.53
268.93	3.79
269.304	3.66
269.678	3.46
270.051	3.45
270.425	3.34
270.799	3.12
271.172	2.97
271.546	3.09
271.919	2.9
272.293	2.78
272.666	2.94
273.04	2.75
273.413	2.65
273.787	2.77
274.16	2.63
274.533	2.46
274.906	2.31
275.279	2.18
275.653	2.1
276.026	2
276.399	1.98
276.772	1.95
277.145	1.92
277.518	2.06
277.891	2.11
278.263	2.14
278.636	2.32
279.009	2.39
279.382	2.26
279.755	2.2
280.127	2.48
280.5	2.28
280.872	2.18
281.245	2.13
281.617	1.98
281.99	1.96
282.362	2.18
282.735	2.35
283.107	2.35
283.479	2.48
283.852	2.46
284.224	2.64
284.596	2.46
284.968	2.43
285.34	2.39
285.713	2.49
286.085	2.42
286.457	2.45
286.829	2.4
287.201	2.42
287.572	2.58
287.944	2.5
288.316	2.52
288.688	2.71
289.06	2.73
289.431	2.82
289.803	2.92
290.175	2.85
290.546	2.74
290.918	2.83
291.289	2.69
291.661	2.83
292.032	2.83
292.403	2.93
292.775	2.97
293.146	3.13
293.517	3.04
293.889	3.16
294.26	3.19
294.631	3.36
295.002	3.3
295.373	3.15
295.744	3.18
296.115	3.38
296.486	3.29
296.857	3.28
297.228	3.22
297.599	3.12
297.97	3.21
298.34	3.31
298.711	3.4
299.082	3.41
299.452	3.35
299.823	3.36
300.194	3.35
300.564	3.31
300.935	3.18
301.305	3.35
301.676	3.37
302.046	3.44
302.416	3.25
302.787	3.4
303.157	3.45
303.527	3.71
303.897	3.54
304.267	3.69
304.637	3.63
305.008	3.74
305.378	4
305.748	4.06
306.117	4.2
306.487	4.38
306.857	4.69
307.227	4.92
307.597	5.03
307.967	5.11
308.336	5.34
308.706	5.41
309.076	5.49
309.445	5.56
309.815	5.5
310.184	5.66
310.554	5.56
310.923	5.63
311.293	5.68
311.662	5.86
312.031	5.83
312.401	5.84
312.77	5.71
313.139	5.77
313.508	5.85
313.877	5.84
314.246	5.79
314.616	5.78
314.985	5.69
315.353	5.72
315.722	5.72
316.091	5.73
316.46	5.81
316.829	5.72
317.198	5.59
317.567	5.79
317.935	5.9
318.304	6.12
318.672	6.28
319.041	6.01
319.41	6.01
319.778	6.02
320.147	6.27
320.515	6.33
320.883	6.31
321.252	6.31
321.62	6.27
321.988	6.32
322.357	6.3
322.725	6.41
323.093	6.55
323.461	6.82
323.829	6.76
324.197	6.9
324.565	6.97
324.933	7.01
325.301	6.94
325.669	6.83
326.037	6.89
326.405	6.91
326.772	6.97
327.14	6.96
327.508	7.28
327.875	7.28
328.243	7.61
328.61	7.62
328.978	7.73
329.346	7.89
329.713	7.89
330.08	8.04
330.448	7.88
330.815	7.83
331.182	7.69
331.55	7.77
331.917	7.72
332.284	7.76
332.651	8.01
333.018	8.2
333.385	8.41
333.752	8.29
334.119	8.41
334.486	8.51
334.853	8.46
335.22	8.19
335.587	8.18
335.954	8.11
336.32	8.08
336.687	8.09
337.054	8.07
337.42	8.02
337.787	7.93
338.153	8.12
338.52	8.07
338.886	8.15
339.253	8.11
339.619	8.2
339.986	8.08
340.352	8.04
340.718	7.91
341.084	7.87
341.451	8
341.817	7.86
342.183	7.78
342.549	7.94
342.915	8.1
343.281	8.08
343.647	7.99
344.013	8.08
344.379	8.05
344.745	8.12
345.11	8.14
345.476	8.17
345.842	8.16
346.208	8.15
346.573	8.17
346.939	8.14
347.304	8.09
347.67	8.21
348.035	8.25
348.401	8.26
348.766	8.21
349.132	8.12
349.497	8.33
349.862	8.35
350.228	8.32
350.593	8.29
350.958	8.45
351.323	8.6
351.688	8.57
352.053	8.66
352.418	8.62
352.783	8.61
353.148	8.63
353.513	8.64
353.878	8.62
354.243	8.58
354.608	8.68
354.972	8.62
355.337	8.59
355.702	8.56
356.066	8.65
356.431	8.74
356.795	8.75
357.16	8.68
357.524	8.66
357.889	8.67
358.253	8.57
358.618	8.46
358.982	8.41
359.346	8.35
359.71	8.29
360.075	8.3
360.439	8.34
360.803	8.3
361.167	8.24
361.531	8.26
361.895	8.19
362.259	8.2
362.623	8.16
362.987	8.23
363.351	8.21
363.714	8.15
364.078	8.1
364.442	8.08
364.806	8.11
365.169	8.12
365.533	8.11
365.896	8.19
366.26	8.14
366.623	8.08
366.987	8.18
367.35	8.15
367.714	8.14
368.077	8.07
368.44	8.08
368.803	8.08
369.167	8
369.53	8.1
369.893	8.01
370.256	7.98
370.619	7.85
370.982	7.7
371.345	7.68
371.708	7.65
372.071	7.64
372.434	7.51
372.797	7.46
373.159	7.39
373.522	7.25
373.885	7.26
374.247	7.24
374.61	7.17
374.973	7.13
375.335	7.08
375.698	7.03
376.06	6.93
376.423	6.89
376.785	6.92
377.147	6.76
377.51	6.71
377.872	6.7
378.234	6.68
378.596	6.7
378.958	6.64
379.321	6.55
379.683	6.49
380.045	6.41
380.407	6.42
380.769	6.33
381.13	6.34
381.492	6.29
381.854	6.25
382.216	6.2
382.578	6.17
382.939	6.11
383.301	6.07
383.663	6.01
384.024	5.98
384.386	5.93
384.747	5.93
385.109	5.92
385.47	5.88
385.832	5.81
386.193	5.76
386.554	5.7
386.916	5.71
387.277	5.65
387.638	5.65
387.999	5.59
388.36	5.62
388.721	5.6
389.082	5.56
389.443	5.57
389.804	5.54
390.165	5.49
390.526	5.48
390.887	5.48
391.248	5.47
391.609	5.45
391.969	5.42
392.33	5.35
392.691	5.37
393.051	5.35
393.412	5.35
393.772	5.37
394.133	5.33
394.493	5.27
394.854	5.26
395.214	5.2
395.574	5.14
395.935	5.09
396.295	5.08
396.655	5.05
397.015	5.01
397.376	4.92
397.736	4.87
398.096	4.84
398.456	4.77
398.816	4.74
399.176	4.63
399.535	4.59
399.895	4.6
400.255	4.5
400.615	4.46
400.975	4.42
401.334	4.34
401.694	4.32
402.054	4.32
402.413	4.31
402.773	4.29
403.132	4.3
403.492	4.29
403.851	4.26
404.211	4.23
404.57	4.23
404.929	4.26
405.288	4.24
405.648	4.24
406.007	4.25
406.366	4.23
406.725	4.27
407.084	4.32
407.443	4.3
407.802	4.29
408.161	4.28
408.52	4.29
408.879	4.28
409.238	4.32
409.596	4.31
409.955	4.29
410.314	4.29
410.673	4.26
411.031	4.24
411.39	4.22
411.748	4.25
412.107	4.2
412.465	4.18
412.824	4.19
413.182	4.15
413.54	4.15
413.899	4.16
414.257	4.17
414.615	4.12
414.974	4.11
415.332	4.13
415.69	4.12
416.048	4.12
416.406	4.08
416.764	4.05
417.122	4.01
417.48	4
417.838	4
418.195	4
418.553	3.99
418.911	3.97
419.269	3.94
419.626	3.95
419.984	3.93
420.342	3.9
420.699	3.9
421.057	3.88
421.414	3.87
421.772	3.84
422.129	3.83
422.486	3.83
422.844	3.81
423.201	3.8
423.558	3.78
423.915	3.81
424.273	3.81
424.63	3.82
424.987	3.81
425.344	3.79
425.701	3.79
426.058	3.78
426.415	3.78
426.772	3.78
427.128	3.77
427.485	3.75
427.842	3.75
428.199	3.74
428.555	3.75
428.912	3.73
429.269	3.74
429.625	3.72
429.982	3.71
430.338	3.72
430.695	3.69
431.051	3.7
431.407	3.67
431.764	3.65
432.12	3.66
432.476	3.67
432.832	3.68
433.189	3.65
433.545	3.66
433.901	3.67
434.257	3.67
434.613	3.66
434.969	3.66
435.325	3.66
435.681	3.66
436.036	3.65
436.392	3.67
436.748	3.67
437.104	3.66
437.459	3.66
437.815	3.65
438.171	3.68
438.526	3.69
438.882	3.69
439.237	3.69
439.593	3.7
439.948	3.67
440.304	3.66
440.659	3.67
441.014	3.67
441.369	3.66
441.725	3.66
442.08	3.66
442.435	3.67
442.79	3.67
443.145	3.67
443.5	3.66
443.855	3.65
444.21	3.65
444.565	3.66
444.92	3.65
445.275	3.64
445.629	3.62
445.984	3.62
446.339	3.64
446.693	3.64
447.048	3.61
447.403	3.61
447.757	3.6
448.112	3.59
448.466	3.59
448.82	3.58
449.175	3.59
449.529	3.59
449.883	3.58
450.238	3.57
450.592	3.57
450.946	3.57
451.3	3.55
451.654	3.53
452.008	3.52
452.362	3.5
452.716	3.5
453.07	3.51
453.424	3.5
453.778	3.48
454.132	3.5
454.486	3.51
454.839	3.55
455.193	3.56
455.547	3.59
455.9	3.58
456.254	3.58
456.607	3.55
456.961	3.55
457.314	3.56
457.668	3.57
458.021	3.57
458.375	3.57
458.728	3.59
459.081	3.6
459.434	3.6
459.787	3.61
460.141	3.61
460.494	3.6
460.847	3.61
461.2	3.61
461.553	3.62
461.906	3.62
462.259	3.6
462.611	3.59
462.964	3.58
463.317	3.59
463.67	3.59
464.022	3.6
464.375	3.61
464.728	3.63
465.08	3.64
465.433	3.69
465.785	3.7
466.138	3.7
466.49	3.72
466.843	3.72
467.195	3.76
467.547	3.78
467.899	3.79
468.252	3.8
468.604	3.79
468.956	3.81
469.308	3.83
469.66	3.85
470.012	3.88
470.364	3.91
470.716	3.94
471.068	3.97
471.42	3.99
471.772	4.01
472.123	4.02
472.475	4.03
472.827	4
473.178	4.02
473.53	4.04
473.882	4.05
474.233	4.08
474.585	4.07
474.936	4.06
475.288	4.06
475.639	4.06
475.99	4.07
476.342	4.03
476.693	4.02
477.044	4.01
477.395	4
477.746	4
478.097	3.99
478.448	3.97
478.8	3.96
479.15	3.93
479.501	3.92
479.852	3.91
480.203	3.9
480.554	3.89
480.905	3.88
481.255	3.88
481.606	3.87
481.957	3.87
482.307	3.88
482.658	3.89
483.009	3.88
483.359	3.88
483.709	3.89
484.06	3.88
484.41	3.88
484.761	3.88
485.111	3.87
485.461	3.86
485.811	3.86
486.162	3.85
486.512	3.86
486.862	3.86
487.212	3.86
487.562	3.85
487.912	3.86
488.262	3.86
488.612	3.86
488.961	3.86
489.311	3.86
489.661	3.83
490.011	3.81
490.36	3.81
490.71	3.81
491.06	3.81
491.409	3.82
491.759	3.83
492.108	3.84
492.458	3.83
492.807	3.85
493.157	3.87
493.506	3.88
493.855	3.89
494.204	3.91
494.554	3.91
494.903	3.94
495.252	3.94
495.601	3.97
495.95	3.99
496.299	4.03
496.648	4.06
496.997	4.12
497.346	4.16
497.695	4.22
498.043	4.27
498.392	4.32
498.741	4.37
499.09	4.4
499.438	4.45
499.787	4.51
500.135	4.55
500.484	4.59
500.832	4.64
501.181	4.71
501.529	4.78
501.878	4.86
502.226	4.94
502.574	5.03
502.923	5.13
503.271	5.23
503.619	5.31
503.967	5.39
504.315	5.48
504.663	5.58
505.011	5.67
505.359	5.77
505.707	5.86
506.055	5.98
506.403	6.11
506.751	6.22
507.098	6.36
507.446	6.48
507.794	6.63
508.141	6.8
508.489	6.94
508.837	7.08
509.184	7.25
509.531	7.38
509.879	7.53
510.226	7.67
510.574	7.82
510.921	7.99
511.268	8.17
511.616	8.35
511.963	8.55
512.31	8.73
512.657	8.91
513.004	9.13
513.351	9.34
513.698	9.58
514.045	9.83
514.392	10.06
514.739	10.32
515.086	10.54
515.432	10.78
515.779	11.02
516.126	11.27
516.473	11.48
516.819	11.72
517.166	11.94
517.512	12.13
517.859	12.36
518.205	12.53
518.552	12.73
518.898	12.97
519.245	13.17
519.591	13.39
519.937	13.61
520.283	13.82
520.629	14.04
520.976	14.27
521.322	14.52
521.668	14.76
522.014	14.96
522.36	15.21
522.706	15.46
523.052	15.74
523.398	15.98
523.743	16.3
524.089	16.59
524.435	16.88
524.781	17.18
525.126	17.44
525.472	17.72
525.817	17.95
526.163	18.12
526.509	18.29
526.854	18.46
527.199	18.61
527.545	18.77
527.89	18.94
528.235	19.11
528.581	19.28
528.926	19.45
529.271	19.65
529.616	19.85
529.961	20.04
530.306	20.21
530.651	20.41
530.996	20.61
531.341	20.83
531.686	21.02
532.031	21.22
532.376	21.43
532.721	21.65
533.065	21.88
533.41	22.14
533.755	22.4
534.099	22.68
534.444	22.95
534.788	23.2
535.133	23.44
535.477	23.69
535.822	23.95
536.166	24.24
536.51	24.51
536.855	24.78
537.199	25.08
537.543	25.39
537.887	25.73
538.231	26.01
538.576	26.32
538.92	26.62
539.264	26.94
539.608	27.24
539.951	27.48
540.295	27.73
540.639	28.01
540.983	28.27
541.327	28.49
541.671	28.72
542.014	28.98
542.358	29.2
542.701	29.4
543.045	29.64
543.389	29.83
543.732	30.07
544.075	30.33
544.419	30.54
544.762	30.79
545.105	31.04
545.449	31.31
545.792	31.62
546.135	31.93
546.478	32.18
546.821	32.46
547.165	32.77
547.508	33.07
547.851	33.34
548.194	33.62
548.536	33.94
548.879	34.22
549.222	34.49
549.565	34.78
549.908	35.09
550.25	35.32
550.593	35.59
550.936	35.85
551.278	36.1
551.621	36.41
551.963	36.7
552.306	36.93
552.648	37.18
552.991	37.37
553.333	37.6
553.675	37.94
554.017	38.18
554.36	38.39
554.702	38.59
555.044	38.75
555.386	38.94
555.728	39.14
556.07	39.41
556.412	39.65
556.754	39.89
557.096	40.12
557.438	40.4
557.78	40.69
558.121	40.95
558.463	41.22
558.805	41.47
559.147	41.65
559.488	41.88
559.83	42.09
560.171	42.3
560.513	42.47
560.854	42.63
561.196	42.86
561.537	43.07
561.878	43.28
562.22	43.43
562.561	43.61
562.902	43.77
563.243	43.87
563.584	43.99
563.925	44.14
564.266	44.25
564.607	44.35
564.948	44.47
565.289	44.61
565.63	44.7
565.971	44.81
566.312	44.97
566.653	45.12
566.993	45.29
567.334	45.47
567.675	45.62
568.015	45.7
568.356	45.88
568.696	46
569.037	46.13
569.377	46.32
569.718	46.47
570.058	46.56
570.398	46.76
570.739	46.89
571.079	47.08
571.419	47.35
571.759	47.47
572.099	47.59
572.439	47.71
572.779	47.83
573.119	48.05
573.459	48.18
573.799	48.24
574.139	48.36
574.479	48.39
574.819	48.49
575.158	48.65
575.498	48.74
575.838	48.86
576.177	48.98
576.517	49.09
576.856	49.16
577.196	49.41
577.535	49.49
577.875	49.65
578.214	49.63
578.553	49.62
578.893	49.79
579.232	49.94
579.571	50.06
579.91	50.23
580.25	50.14
580.589	50.16
580.928	50.28
581.267	50.35
581.606	50.52
581.945	50.59
582.283	50.62
582.622	50.6
582.961	50.65
583.3	50.71
583.639	50.79
583.977	50.93
584.316	50.92
584.654	51.09
584.993	51.2
585.332	51.35
585.67	51.47
586.008	51.56
586.347	51.6
586.685	51.65
587.024	51.62
587.362	51.72
587.7	51.89
588.038	52.01
588.376	52.1
588.715	52.13
589.053	52.28
589.391	52.39
589.729	52.34
590.067	52.38
590.404	52.44
590.742	52.52
591.08	52.57
591.418	52.66
591.756	52.6
592.093	52.6
592.431	52.63
592.769	52.63
593.106	52.73
593.444	52.85
593.781	52.93
594.119	52.97
594.456	53.11
594.793	53.08
595.131	53.22
595.468	53.26
595.805	53.36
596.143	53.39
596.48	53.37
596.817	53.54
597.154	53.61
597.491	53.62
597.828	53.68
598.165	53.78
598.502	53.81
598.839	53.94
599.176	54.04
599.512	54.17
599.849	54.29
600.186	54.31
600.523	54.35
600.859	54.43
601.196	54.51
601.532	54.52
601.869	54.71
602.205	54.68
602.542	54.68
602.878	54.68
603.215	54.7
603.551	54.78
603.887	54.79
604.223	54.85
604.56	54.89
604.896	54.85
605.232	54.92
605.568	54.95
605.904	54.98
606.24	54.99
606.576	54.93
606.912	54.96
607.248	55.04
607.583	55.02
607.919	54.98
608.255	55.02
608.591	55.03
608.926	55
609.262	55.04
609.597	55.14
609.933	55.25
610.268	55.25
610.604	55.28
610.939	55.41
611.275	55.35
611.61	55.4
611.945	55.44
612.281	55.46
612.616	55.55
612.951	55.58
613.286	55.57
613.621	55.68
613.956	55.73
614.291	55.63
614.626	55.71
614.961	55.82
615.296	55.8
615.631	55.85
615.966	55.79
616.3	55.77
616.635	55.82
616.97	55.81
617.304	55.87
617.639	55.98
617.973	55.91
618.308	56.03
618.642	56.1
618.977	56.22
619.311	56.14
619.646	56.08
619.98	56.07
620.314	56.08
620.648	56.05
620.983	56.01
621.317	56.1
621.651	56.09
621.985	56.16
622.319	56.25
622.653	56.24
622.987	56.25
623.321	56.35
623.655	56.4
623.988	56.42
624.322	56.44
624.656	56.43
624.99	56.5
625.323	56.51
625.657	56.56
625.99	56.48
626.324	56.53
626.657	56.64
626.991	56.62
627.324	56.65
627.658	56.72
627.991	56.75
628.324	56.77
628.657	56.78
628.991	56.78
629.324	56.88
629.657	56.9
629.99	57.01
630.323	56.95
630.656	56.88
630.989	56.94
631.322	57
631.655	57.1
631.987	57.11
632.32	57.12
632.653	57.08
632.986	57.15
633.318	57.15
633.651	57.04
633.984	57.07
634.316	57.16
634.649	57.13
634.981	57.18
635.313	57.1
635.646	57.13
635.978	57.02
636.31	56.97
636.643	57.07
636.975	57.1
637.307	57.09
637.639	57.1
637.971	57.02
638.303	57.1
638.635	56.97
638.967	56.9
639.299	57.01
639.631	56.98
639.963	57.11
640.295	57.19
640.626	57.25
640.958	57.31
641.29	57.2
641.621	57.28
641.953	57.33
642.285	57.42
642.616	57.44
642.948	57.44
643.279	57.57
643.61	57.56
643.942	57.47
644.273	57.6
644.604	57.64
644.936	57.64
645.267	57.43
645.598	57.36
645.929	57.48
646.26	57.35
646.591	57.39
646.922	57.3
647.253	57.11
647.584	57.19
647.915	57.28
648.245	57.4
648.576	57.42
648.907	57.43
649.238	57.38
649.568	57.5
649.899	57.64
650.229	57.53
650.56	57.51
650.89	57.61
651.221	57.64
651.551	57.6
651.882	57.59
652.212	57.68
652.542	57.87
652.872	57.8
653.203	57.93
653.533	57.98
653.863	57.95
654.193	58.2
654.523	58.2
654.853	58.21
655.183	58.22
655.513	58.24
655.843	58.15
656.172	58.3
656.502	58.26
656.832	58.17
657.162	58.33
657.491	58.42
657.821	58.41
658.15	58.42
658.48	58.49
658.809	58.5
659.139	58.56
659.468	58.52
659.798	58.53
660.127	58.53
660.456	58.45
660.785	58.52
661.115	58.55
661.444	58.62
661.773	58.67
662.102	58.69
662.431	58.64
662.76	58.68
663.089	58.77
663.418	58.68
663.747	58.75
664.076	58.66
664.404	58.76
664.733	58.74
