Data from MVZ_BU163026_Reflection_00003.txt Node
Date: Tue Nov 19 12:05:54 EST 2019
User: vgr7
Spectrometer: USB2G7710
Scans to average: 3
Trigger mode: 4
Integration Time (sec): 2.000000E-2
Electric dark correction enabled: true
Boxcar width: 10
XAxis mode: Wavelengths
Number of Pixels in Spectrum: 2048
>>>>>Begin Spectral Data<<<<<
177.721	141.04
178.105	491.89
178.488	362.8
178.871	173.13
179.254	10.77
179.636	-22.92
180.019	28.22
180.402	266.67
180.785	-536.36
181.168	135.71
181.55	95.07
181.933	-46.07
182.316	-35.31
182.698	-8.79
183.081	-55.58
183.463	-43.95
183.846	-45.39
184.228	-6.77
184.611	-20.04
184.993	-34.86
185.376	4.17
185.758	19.57
186.14	48.09
186.522	56.98
186.904	68.38
187.287	87.98
187.669	109.61
188.051	91.74
188.433	72.49
188.815	77.56
189.197	87.22
189.579	99.28
189.961	127.57
190.342	176.72
190.724	225.66
191.106	227.22
191.488	132.26
191.869	193.3
192.251	242.1
192.633	250.12
193.014	313.26
193.396	185.18
193.777	146.68
194.159	363.94
194.54	1177.92
194.922	-3952.63
195.303	812
195.684	612.69
196.065	612.32
196.447	-678.89
196.828	11190.91
197.209	1100
197.59	3148.78
197.971	2631.91
198.352	493
198.733	427.76
199.114	715.76
199.495	439.52
199.876	468.04
200.257	390.11
200.638	592.6
201.018	681.05
201.399	3281.82
201.78	3846.48
202.16	529.13
202.541	398.06
202.922	411.48
203.302	366.47
203.683	325.17
204.063	259.36
204.444	307.89
204.824	471.76
205.204	3307.55
205.585	4319.51
205.965	2494.37
206.345	-673.28
206.725	-376.72
207.106	-290.49
207.486	-213.51
207.866	-245.15
208.246	-79.25
208.626	-79.21
209.006	-95.18
209.386	-123.3
209.766	-126.97
210.145	-35.4
210.525	-100
210.905	9.09
211.285	2.16
211.664	9.97
212.044	6.47
212.424	7
212.803	-9.39
213.183	-20.7
213.562	3
213.942	9.47
214.321	30.49
214.701	40.2
215.08	61.18
215.459	79.86
215.838	53.99
216.218	50.14
216.597	60.63
216.976	43.6
217.355	-0.11
217.734	-46.68
218.113	-32.63
218.492	-25.58
218.871	-49.07
219.25	-59.45
219.629	-110.08
220.008	-71.45
220.387	-102.39
220.766	-68.67
221.144	-84.04
221.523	-121.11
221.902	-122.03
222.28	-158.15
222.659	-85.02
223.037	-105.52
223.416	-108.22
223.794	-95.7
224.173	-104.86
224.551	-84.48
224.929	-68.48
225.308	-51.42
225.686	-42.47
226.064	-49.2
226.442	-43.25
226.821	-36.61
227.199	-33.48
227.577	-29.04
227.955	-36.49
228.333	-36.96
228.711	-34.22
229.089	-29.21
229.467	-26.05
229.845	-28.71
230.222	-25.76
230.6	-26.88
230.978	-22.36
231.356	-23.54
231.733	-23.24
232.111	-18.08
232.488	-18.03
232.866	-14.8
233.243	-15.62
233.621	-12.51
233.998	-10.76
234.376	-10.46
234.753	-9.36
235.13	-9.9
235.508	-7.46
235.885	-6.07
236.262	-4.99
236.639	-5.69
237.016	-5.76
237.393	-3.79
237.77	-2.08
238.147	-1.99
238.524	-1.78
238.901	-2.36
239.278	-1.83
239.655	-1.69
240.032	-1.58
240.409	-0.56
240.785	-1.11
241.162	-0.67
241.539	-1.09
241.915	-1.31
242.292	-0.74
242.668	-0.42
243.045	0.28
243.421	0.42
243.798	0.82
244.174	0.94
244.551	1.3
244.927	1.39
245.303	1.62
245.679	1.87
246.056	1.83
246.432	1.86
246.808	2.32
247.184	2.43
247.56	2.36
247.936	2.55
248.312	2.4
248.688	2.66
249.064	2.85
249.44	3.17
249.815	3.73
250.191	3.8
250.567	3.76
250.943	3.77
251.318	3.98
251.694	3.73
252.069	3.89
252.445	3.85
252.82	4.13
253.196	3.83
253.571	3.83
253.947	3.94
254.322	4.09
254.697	3.96
255.073	3.58
255.448	3.82
255.823	3.57
256.198	3.32
256.573	3.21
256.948	3.31
257.323	2.94
257.698	2.7
258.073	2.79
258.448	3
258.823	2.84
259.198	2.8
259.573	2.86
259.948	2.75
260.322	2.8
260.697	2.75
261.072	2.66
261.446	2.43
261.821	2.51
262.195	2.32
262.57	2.35
262.944	2.54
263.319	2.58
263.693	2.68
264.067	2.76
264.442	2.9
264.816	2.51
265.19	2.53
265.564	2.47
265.938	2.24
266.313	1.8
266.687	2.04
267.061	1.81
267.435	2.16
267.809	2.17
268.183	2.08
268.556	2
268.93	2.35
269.304	2.52
269.678	2.46
270.051	2.77
270.425	2.69
270.799	2.56
271.172	2.38
271.546	2.29
271.919	2.08
272.293	2.09
272.666	2.26
273.04	2.38
273.413	2.36
273.787	2.36
274.16	2.39
274.533	2.4
274.906	2.66
275.279	2.54
275.653	2.64
276.026	2.65
276.399	2.78
276.772	2.74
277.145	2.81
277.518	2.81
277.891	2.64
278.263	2.78
278.636	2.96
279.009	3.06
279.382	3.05
279.755	3.19
280.127	3.09
280.5	2.92
280.872	3.02
281.245	3.08
281.617	3.31
281.99	3.39
282.362	3.21
282.735	3.08
283.107	3.12
283.479	2.98
283.852	2.95
284.224	2.94
284.596	2.88
284.968	2.74
285.34	2.74
285.713	2.9
286.085	2.83
286.457	2.78
286.829	2.68
287.201	2.69
287.572	2.92
287.944	3.01
288.316	3.27
288.688	3.25
289.06	3.33
289.431	3.19
289.803	3.21
290.175	3.18
290.546	3.2
290.918	3.12
291.289	3.03
291.661	3.11
292.032	3.09
292.403	3.09
292.775	3.26
293.146	3.36
293.517	3.32
293.889	3.29
294.26	3.36
294.631	3.47
295.002	3.54
295.373	3.41
295.744	3.3
296.115	3.31
296.486	3.27
296.857	3.19
297.228	3.22
297.599	3.16
297.97	3.25
298.34	3.18
298.711	3.28
299.082	3.49
299.452	3.46
299.823	3.4
300.194	3.43
300.564	3.25
300.935	3.23
301.305	3.09
301.676	2.97
302.046	3.02
302.416	2.98
302.787	2.88
303.157	2.82
303.527	2.78
303.897	2.61
304.267	2.55
304.637	2.62
305.008	2.57
305.378	2.61
305.748	2.53
306.117	2.66
306.487	2.56
306.857	2.57
307.227	2.55
307.597	2.56
307.967	2.55
308.336	2.8
308.706	2.76
309.076	2.97
309.445	3.23
309.815	3.03
310.184	3.06
310.554	2.99
310.923	2.99
311.293	2.93
311.662	3.08
312.031	3.03
312.401	2.89
312.77	2.99
313.139	3.04
313.508	3.06
313.877	3.17
314.246	3.1
314.616	3.19
314.985	3.25
315.353	3.4
315.722	3.4
316.091	3.32
316.46	3.35
316.829	3.24
317.198	3.26
317.567	3.5
317.935	3.52
318.304	3.74
318.672	3.82
319.041	3.98
319.41	3.88
319.778	4.04
320.147	4.16
320.515	4.24
320.883	4.21
321.252	4.2
321.62	3.95
321.988	4.13
322.357	3.95
322.725	3.99
323.093	3.92
323.461	4.06
323.829	4.07
324.197	4.11
324.565	4.24
324.933	4.16
325.301	3.91
325.669	3.91
326.037	3.92
326.405	4.09
326.772	4.26
327.14	4.25
327.508	4.19
327.875	4.05
328.243	3.93
328.61	4.01
328.978	3.99
329.346	4.02
329.713	4.08
330.08	4.1
330.448	4.02
330.815	4.07
331.182	3.99
331.55	3.8
331.917	3.61
332.284	3.61
332.651	3.49
333.018	3.57
333.385	3.64
333.752	3.61
334.119	3.55
334.486	3.33
334.853	3.32
335.22	3.36
335.587	3.38
335.954	3.4
336.32	3.32
336.687	3.55
337.054	3.64
337.42	3.58
337.787	3.63
338.153	3.67
338.52	3.71
338.886	3.62
339.253	3.74
339.619	3.94
339.986	3.72
340.352	3.8
340.718	3.8
341.084	3.67
341.451	3.58
341.817	3.55
342.183	3.65
342.549	3.73
342.915	3.73
343.281	3.89
343.647	3.85
344.013	3.84
344.379	3.75
344.745	3.7
345.11	3.65
345.476	3.63
345.842	3.55
346.208	3.47
346.573	3.52
346.939	3.39
347.304	3.44
347.67	3.57
348.035	3.5
348.401	3.44
348.766	3.42
349.132	3.5
349.497	3.49
349.862	3.4
350.228	3.4
350.593	3.4
350.958	3.37
351.323	3.38
351.688	3.41
352.053	3.48
352.418	3.49
352.783	3.44
353.148	3.39
353.513	3.43
353.878	3.43
354.243	3.46
354.608	3.59
354.972	3.48
355.337	3.4
355.702	3.28
356.066	3.3
356.431	3.35
356.795	3.38
357.16	3.4
357.524	3.47
357.889	3.46
358.253	3.48
358.618	3.48
358.982	3.52
359.346	3.59
359.71	3.48
360.075	3.51
360.439	3.55
360.803	3.62
361.167	3.61
361.531	3.6
361.895	3.59
362.259	3.55
362.623	3.56
362.987	3.68
363.351	3.8
363.714	3.81
364.078	3.82
364.442	3.8
364.806	3.76
365.169	3.74
365.533	3.79
365.896	3.8
366.26	3.8
366.623	3.81
366.987	3.76
367.35	3.88
367.714	3.89
368.077	4.01
368.44	4.03
368.803	3.99
369.167	3.99
369.53	3.98
369.893	4.04
370.256	4.01
370.619	3.93
370.982	3.94
371.345	3.98
371.708	3.94
372.071	3.87
372.434	3.85
372.797	3.86
373.159	3.79
373.522	3.74
373.885	3.68
374.247	3.68
374.61	3.68
374.973	3.62
375.335	3.66
375.698	3.6
376.06	3.54
376.423	3.56
376.785	3.6
377.147	3.6
377.51	3.59
377.872	3.66
378.234	3.69
378.596	3.71
378.958	3.72
379.321	3.76
379.683	3.82
380.045	3.9
380.407	3.85
380.769	3.82
381.13	3.85
381.492	3.84
381.854	3.85
382.216	3.86
382.578	3.85
382.939	3.77
383.301	3.76
383.663	3.77
384.024	3.84
384.386	3.83
384.747	3.84
385.109	3.83
385.47	3.86
385.832	3.88
386.193	3.87
386.554	3.88
386.916	3.91
387.277	3.9
387.638	3.84
387.999	3.91
388.36	3.94
388.721	3.97
389.082	3.99
389.443	3.99
389.804	4.01
390.165	4.02
390.526	4.04
390.887	4.06
391.248	4.06
391.609	4.05
391.969	4.06
392.33	4.05
392.691	4.02
393.051	4
393.412	3.96
393.772	3.99
394.133	3.98
394.493	3.92
394.854	3.91
395.214	3.96
395.574	3.89
395.935	3.89
396.295	3.87
396.655	3.89
397.015	3.89
397.376	3.87
397.736	3.87
398.096	3.89
398.456	3.89
398.816	3.91
399.176	3.87
399.535	3.84
399.895	3.83
400.255	3.86
400.615	3.8
400.975	3.81
401.334	3.8
401.694	3.79
402.054	3.83
402.413	3.9
402.773	3.87
403.132	3.93
403.492	3.96
403.851	3.99
404.211	4
404.57	3.99
404.929	3.99
405.288	4.01
405.648	3.99
406.007	3.98
406.366	3.97
406.725	3.97
407.084	4
407.443	4
407.802	4.03
408.161	4.11
408.52	4.12
408.879	4.14
409.238	4.18
409.596	4.19
409.955	4.18
410.314	4.22
410.673	4.23
411.031	4.22
411.39	4.22
411.748	4.22
412.107	4.21
412.465	4.2
412.824	4.22
413.182	4.24
413.54	4.25
413.899	4.27
414.257	4.3
414.615	4.3
414.974	4.36
415.332	4.36
415.69	4.36
416.048	4.36
416.406	4.36
416.764	4.34
417.122	4.36
417.48	4.34
417.838	4.32
418.195	4.29
418.553	4.28
418.911	4.29
419.269	4.3
419.626	4.3
419.984	4.29
420.342	4.28
420.699	4.28
421.057	4.3
421.414	4.29
421.772	4.29
422.129	4.29
422.486	4.28
422.844	4.28
423.201	4.27
423.558	4.27
423.915	4.29
424.273	4.29
424.63	4.25
424.987	4.26
425.344	4.25
425.701	4.26
426.058	4.28
426.415	4.28
426.772	4.27
427.128	4.26
427.485	4.27
427.842	4.27
428.199	4.28
428.555	4.26
428.912	4.27
429.269	4.28
429.625	4.29
429.982	4.27
430.338	4.28
430.695	4.24
431.051	4.24
431.407	4.24
431.764	4.22
432.12	4.26
432.476	4.27
432.832	4.28
433.189	4.27
433.545	4.26
433.901	4.22
434.257	4.23
434.613	4.23
434.969	4.23
435.325	4.23
435.681	4.21
436.036	4.2
436.392	4.2
436.748	4.21
437.104	4.22
437.459	4.25
437.815	4.25
438.171	4.31
438.526	4.3
438.882	4.29
439.237	4.29
439.593	4.28
439.948	4.28
440.304	4.27
440.659	4.28
441.014	4.28
441.369	4.31
441.725	4.31
442.08	4.33
442.435	4.34
442.79	4.35
443.145	4.36
443.5	4.37
443.855	4.36
444.21	4.36
444.565	4.35
444.92	4.33
445.275	4.34
445.629	4.31
445.984	4.31
446.339	4.31
446.693	4.3
447.048	4.31
447.403	4.33
447.757	4.32
448.112	4.33
448.466	4.34
448.82	4.34
449.175	4.34
449.529	4.35
449.883	4.34
450.238	4.32
450.592	4.3
450.946	4.29
451.3	4.29
451.654	4.27
452.008	4.28
452.362	4.27
452.716	4.24
453.07	4.24
453.424	4.25
453.778	4.26
454.132	4.29
454.486	4.3
454.839	4.28
455.193	4.31
455.547	4.32
455.9	4.31
456.254	4.3
456.607	4.3
456.961	4.28
457.314	4.29
457.668	4.29
458.021	4.32
458.375	4.32
458.728	4.33
459.081	4.32
459.434	4.32
459.787	4.3
460.141	4.32
460.494	4.32
460.847	4.32
461.2	4.31
461.553	4.29
461.906	4.3
462.259	4.3
462.611	4.28
462.964	4.26
463.317	4.26
463.67	4.27
464.022	4.28
464.375	4.29
464.728	4.32
465.08	4.31
465.433	4.31
465.785	4.33
466.138	4.33
466.49	4.34
466.843	4.37
467.195	4.42
467.547	4.4
467.899	4.42
468.252	4.43
468.604	4.44
468.956	4.46
469.308	4.44
469.66	4.44
470.012	4.45
470.364	4.46
470.716	4.45
471.068	4.45
471.42	4.45
471.772	4.45
472.123	4.44
472.475	4.46
472.827	4.43
473.178	4.44
473.53	4.43
473.882	4.43
474.233	4.4
474.585	4.41
474.936	4.41
475.288	4.38
475.639	4.4
475.99	4.39
476.342	4.39
476.693	4.4
477.044	4.4
477.395	4.4
477.746	4.39
478.097	4.41
478.448	4.39
478.8	4.39
479.15	4.4
479.501	4.41
479.852	4.42
480.203	4.44
480.554	4.44
480.905	4.48
481.255	4.49
481.606	4.51
481.957	4.51
482.307	4.53
482.658	4.55
483.009	4.53
483.359	4.56
483.709	4.56
484.06	4.56
484.41	4.56
484.761	4.56
485.111	4.57
485.461	4.58
485.811	4.59
486.162	4.59
486.512	4.6
486.862	4.61
487.212	4.61
487.562	4.59
487.912	4.6
488.262	4.58
488.612	4.58
488.961	4.59
489.311	4.59
489.661	4.58
490.011	4.58
490.36	4.59
490.71	4.57
491.06	4.56
491.409	4.56
491.759	4.57
492.108	4.56
492.458	4.56
492.807	4.56
493.157	4.56
493.506	4.56
493.855	4.56
494.204	4.54
494.554	4.54
494.903	4.57
495.252	4.56
495.601	4.57
495.95	4.58
496.299	4.58
496.648	4.57
496.997	4.57
497.346	4.58
497.695	4.58
498.043	4.59
498.392	4.59
498.741	4.58
499.09	4.59
499.438	4.63
499.787	4.63
500.135	4.63
500.484	4.62
500.832	4.65
501.181	4.67
501.529	4.69
501.878	4.7
502.226	4.71
502.574	4.76
502.923	4.75
503.271	4.72
503.619	4.73
503.967	4.72
504.315	4.73
504.663	4.71
505.011	4.7
505.359	4.7
505.707	4.7
506.055	4.73
506.403	4.74
506.751	4.75
507.098	4.79
507.446	4.82
507.794	4.83
508.141	4.82
508.489	4.82
508.837	4.82
509.184	4.83
509.531	4.82
509.879	4.79
510.226	4.8
510.574	4.84
510.921	4.84
511.268	4.87
511.616	4.88
511.963	4.89
512.31	4.92
512.657	4.94
513.004	4.94
513.351	4.94
513.698	4.93
514.045	4.93
514.392	4.92
514.739	4.93
515.086	4.94
515.432	4.96
515.779	4.94
516.126	4.96
516.473	4.96
516.819	4.99
517.166	5.01
517.512	5
517.859	5.05
518.205	5.02
518.552	5.04
518.898	5.03
519.245	5.05
519.591	5.06
519.937	5.06
520.283	5.09
520.629	5.09
520.976	5.11
521.322	5.13
521.668	5.12
522.014	5.12
522.36	5.12
522.706	5.13
523.052	5.15
523.398	5.14
523.743	5.15
524.089	5.16
524.435	5.15
524.781	5.17
525.126	5.14
525.472	5.18
525.817	5.18
526.163	5.19
526.509	5.18
526.854	5.19
527.199	5.2
527.545	5.2
527.89	5.2
528.235	5.19
528.581	5.19
528.926	5.2
529.271	5.2
529.616	5.2
529.961	5.19
530.306	5.21
530.651	5.22
530.996	5.22
531.341	5.21
531.686	5.23
532.031	5.24
532.376	5.25
532.721	5.24
533.065	5.24
533.41	5.25
533.755	5.27
534.099	5.26
534.444	5.25
534.788	5.24
535.133	5.24
535.477	5.25
535.822	5.25
536.166	5.26
536.51	5.25
536.855	5.26
537.199	5.26
537.543	5.25
537.887	5.26
538.231	5.28
538.576	5.28
538.92	5.3
539.264	5.31
539.608	5.29
539.951	5.29
540.295	5.29
540.639	5.29
540.983	5.29
541.327	5.3
541.671	5.33
542.014	5.33
542.358	5.33
542.701	5.34
543.045	5.34
543.389	5.34
543.732	5.35
544.075	5.36
544.419	5.37
544.762	5.36
545.105	5.35
545.449	5.33
545.792	5.33
546.135	5.3
546.478	5.26
546.821	5.27
547.165	5.27
547.508	5.29
547.851	5.25
548.194	5.24
548.536	5.25
548.879	5.2
549.222	5.21
549.565	5.22
549.908	5.2
550.25	5.2
550.593	5.19
550.936	5.2
551.278	5.18
551.621	5.18
551.963	5.2
552.306	5.2
552.648	5.2
552.991	5.22
553.333	5.25
553.675	5.3
554.017	5.29
554.36	5.29
554.702	5.26
555.044	5.31
555.386	5.32
555.728	5.29
556.07	5.3
556.412	5.3
556.754	5.29
557.096	5.29
557.438	5.29
557.78	5.27
558.121	5.27
558.463	5.3
558.805	5.31
559.147	5.31
559.488	5.28
559.83	5.31
560.171	5.3
560.513	5.3
560.854	5.27
561.196	5.29
561.537	5.34
561.878	5.37
562.22	5.36
562.561	5.37
562.902	5.4
563.243	5.4
563.584	5.4
563.925	5.42
564.266	5.44
564.607	5.46
564.948	5.44
565.289	5.47
565.63	5.44
565.971	5.42
566.312	5.42
566.653	5.44
566.993	5.45
567.334	5.5
567.675	5.5
568.015	5.52
568.356	5.49
568.696	5.48
569.037	5.44
569.377	5.46
569.718	5.44
570.058	5.42
570.398	5.41
570.739	5.41
571.079	5.44
571.419	5.45
571.759	5.45
572.099	5.47
572.439	5.47
572.779	5.5
573.119	5.53
573.459	5.5
573.799	5.5
574.139	5.49
574.479	5.42
574.819	5.43
575.158	5.43
575.498	5.42
575.838	5.43
576.177	5.44
576.517	5.47
576.856	5.5
577.196	5.53
577.535	5.57
577.875	5.55
578.214	5.55
578.553	5.53
578.893	5.53
579.232	5.53
579.571	5.49
579.91	5.48
580.25	5.47
580.589	5.5
580.928	5.51
581.267	5.48
581.606	5.55
581.945	5.52
582.283	5.54
582.622	5.54
582.961	5.51
583.3	5.51
583.639	5.46
583.977	5.44
584.316	5.41
584.654	5.4
584.993	5.46
585.332	5.44
585.67	5.48
586.008	5.53
586.347	5.54
586.685	5.51
587.024	5.51
587.362	5.5
587.7	5.53
588.038	5.54
588.376	5.56
588.715	5.56
589.053	5.62
589.391	5.63
589.729	5.65
590.067	5.62
590.404	5.64
590.742	5.68
591.08	5.7
591.418	5.73
591.756	5.75
592.093	5.75
592.431	5.76
592.769	5.74
593.106	5.69
593.444	5.69
593.781	5.71
594.119	5.71
594.456	5.75
594.793	5.72
595.131	5.71
595.468	5.74
595.805	5.73
596.143	5.66
596.48	5.64
596.817	5.63
597.154	5.66
597.491	5.66
597.828	5.67
598.165	5.65
598.502	5.63
598.839	5.65
599.176	5.67
599.512	5.68
599.849	5.7
600.186	5.71
600.523	5.72
600.859	5.76
601.196	5.79
601.532	5.78
601.869	5.74
602.205	5.74
602.542	5.76
602.878	5.78
603.215	5.83
603.551	5.81
603.887	5.81
604.223	5.82
604.56	5.82
604.896	5.81
605.232	5.8
605.568	5.81
605.904	5.78
606.24	5.76
606.576	5.75
606.912	5.73
607.248	5.78
607.583	5.81
607.919	5.8
608.255	5.74
608.591	5.71
608.926	5.74
609.262	5.72
609.597	5.68
609.933	5.67
610.268	5.67
610.604	5.7
610.939	5.69
611.275	5.73
611.61	5.73
611.945	5.69
612.281	5.77
612.616	5.79
612.951	5.85
613.286	5.83
613.621	5.81
613.956	5.85
614.291	5.8
614.626	5.74
614.961	5.78
615.296	5.89
615.631	5.87
615.966	5.89
616.3	5.97
616.635	6.06
616.97	6.05
617.304	6.03
617.639	6.01
617.973	6.07
618.308	6.05
618.642	6.09
618.977	6.13
619.311	6.11
619.646	6.15
619.98	6.08
620.314	6.09
620.648	6.14
620.983	6.14
621.317	6.16
621.651	6.19
621.985	6.2
622.319	6.16
622.653	6.24
622.987	6.25
623.321	6.2
623.655	6.14
623.988	6.13
624.322	6.14
624.656	6.16
624.99	6.11
625.323	6.06
625.657	6.05
625.99	6.07
626.324	5.99
626.657	5.92
626.991	5.95
627.324	5.94
627.658	5.92
627.991	5.93
628.324	5.9
628.657	5.92
628.991	5.86
629.324	5.86
629.657	5.83
629.99	5.84
630.323	5.82
630.656	5.82
630.989	5.77
631.322	5.82
631.655	5.84
631.987	5.87
632.32	5.93
632.653	5.95
632.986	5.92
633.318	5.99
633.651	6
633.984	5.98
634.316	5.95
634.649	5.95
634.981	5.95
635.313	5.98
635.646	5.95
635.978	6.02
636.31	6
636.643	5.98
636.975	5.97
637.307	6.02
637.639	6.02
637.971	6.1
638.303	6
638.635	6
638.967	6.01
639.299	6
639.631	5.97
639.963	5.95
640.295	5.94
640.626	6
640.958	5.99
641.29	6.03
641.621	6.07
641.953	5.97
642.285	5.98
642.616	6
642.948	5.96
643.279	5.99
643.61	5.97
643.942	5.9
644.273	5.84
644.604	5.89
644.936	5.95
645.267	6
645.598	5.99
645.929	5.97
646.26	5.92
646.591	5.9
646.922	5.95
647.253	5.91
647.584	5.88
647.915	5.92
648.245	5.99
648.576	5.93
648.907	6.06
649.238	6.06
649.568	6.07
649.899	6.04
650.229	5.99
650.56	6.02
650.89	6.13
651.221	6.12
651.551	6.13
651.882	6.05
652.212	6.05
652.542	6.08
652.872	6.04
653.203	6.14
653.533	6.21
653.863	6.21
654.193	6.27
654.523	6.27
654.853	6.28
655.183	6.2
655.513	6.25
655.843	6.19
656.172	6.22
656.502	6.21
656.832	6.27
657.162	6.33
657.491	6.42
657.821	6.42
658.15	6.44
658.48	6.39
658.809	6.4
659.139	6.4
659.468	6.33
659.798	6.38
660.127	6.3
660.456	6.27
660.785	6.31
661.115	6.34
661.444	6.32
661.773	6.33
662.102	6.34
662.431	6.36
662.76	6.39
663.089	6.41
663.418	6.38
663.747	6.38
664.076	6.36
664.404	6.33
664.733	6.27
665.062	6.37
665.39	6.38
665.719	6.41
666.048	6.41
666.376	6.52
666.705	6.51
667.033	6.63
667.362	6.58
667.69	6.57
668.018	6.46
668.347	6.46
668.675	6.42
669.003	6.46
669.331	6.5
669.659	6.52
669.987	6.46
670.315	6.45
670.643	6.41
670.971	6.34
671.299	6.31
671.627	6.35
671.955	6.32
672.283	6.34
672.61	6.36
672.938	6.36
673.266	6.29
673.593	6.31
673.921	6.22
674.249	6.29
674.576	6.32
674.904	6.39
675.231	6.39
675.558	6.49
675.886	6.5
676.213	6.44
676.54	6.44
676.867	6.38
677.195	6.54
