Data from MVZ_BU136690_Reflection_00007.txt Node
Date: Tue Nov 19 12:08:00 EST 2019
User: vgr7
Spectrometer: USB2G7710
Scans to average: 3
Trigger mode: 4
Integration Time (sec): 2.000000E-2
Electric dark correction enabled: true
Boxcar width: 10
XAxis mode: Wavelengths
Number of Pixels in Spectrum: 2048
>>>>>Begin Spectral Data<<<<<
177.721	-11.89
178.105	-5.84
178.488	83.05
178.871	-74.29
179.254	-45.45
179.636	20.95
180.019	329.36
180.402	-45.45
180.785	-228.57
181.168	-112.62
181.55	48.82
181.933	30.09
182.316	11.97
182.698	-0.72
183.081	-51.16
183.463	25.37
183.846	-14.68
184.228	40.22
184.611	-106.52
184.993	-88.46
185.376	478.05
185.758	-284.62
186.14	-228.57
186.522	-958.14
186.904	-1000
187.287	-509.76
187.669	-165.85
188.051	-326.83
188.433	-418.29
188.815	-451.72
189.197	-244.16
189.579	-32.08
189.961	-24.39
190.342	-62.12
190.724	-62.29
191.106	-48.98
191.488	-45.5
191.869	-30.24
192.251	-25.45
192.633	-39.27
193.014	-44.07
193.396	-39.37
193.777	-27.76
194.159	-26.57
194.54	-16.33
194.922	-25.54
195.303	-30.6
195.684	-29.52
196.065	-33.88
196.447	-49.18
196.828	-25
197.209	-27.84
197.59	-42.35
197.971	-53.65
198.352	-13.7
198.733	-42.74
199.114	-94.21
199.495	-126.91
199.876	-235.94
200.257	-252.46
200.638	-179.78
201.018	-203.81
201.399	-198.51
201.78	-153.2
202.16	-155.43
202.541	-180.1
202.922	-259.21
203.302	-278.23
203.683	-524.14
204.063	-637.93
204.444	-450.56
204.824	-869.57
205.204	-246.26
205.585	-341.81
205.965	-266.4
206.345	-314.69
206.725	-215.3
207.106	-124.18
207.486	-83.64
207.866	-72.15
208.246	-56.68
208.626	-87.26
209.006	-187.16
209.386	-10.58
209.766	-30.77
210.145	4.61
210.525	34.04
210.905	36.81
211.285	59.91
211.664	40.16
212.044	73.56
212.424	50.84
212.803	35.02
213.183	12.21
213.562	4.19
213.942	-16.19
214.321	-22.65
214.701	-33.14
215.08	-34.8
215.459	-16.28
215.838	-46.19
216.218	-63.79
216.597	-70.82
216.976	-54.46
217.355	-62.4
217.734	-100.99
218.113	-106.21
218.492	-107.68
218.871	-93.96
219.25	-90.78
219.629	-124.02
220.008	-128.84
220.387	-117.14
220.766	-81.07
221.144	-87.41
221.523	-111.92
221.902	-121.57
222.28	-117.65
222.659	-67.07
223.037	-77.13
223.416	-72.73
223.794	-37.74
224.173	-42.79
224.551	-20.4
224.929	-21.82
225.308	-19.79
225.686	-12.82
226.064	-19.26
226.442	-22.6
226.821	-20.21
227.199	-24.85
227.577	-16.8
227.955	-17.34
228.333	-19.51
228.711	-20.68
229.089	-22.05
229.467	-18.34
229.845	-18.33
230.222	-14.49
230.6	-12.61
230.978	-6.66
231.356	-8.77
231.733	-11.37
232.111	-11.89
232.488	-11.62
232.866	-10.32
233.243	-8.73
233.621	-10.26
233.998	-8.11
234.376	-7.44
234.753	-6.72
235.13	-4.86
235.508	-4.76
235.885	-3.62
236.262	-3.64
236.639	-1.43
237.016	-0.9
237.393	0.73
237.77	1.63
238.147	1.17
238.524	0.13
238.901	-0.26
239.278	0.27
239.655	0.85
240.032	1.84
240.409	2.55
240.785	1.65
241.162	1.39
241.539	1.82
241.915	1.98
242.292	2.66
242.668	2.52
243.045	2.45
243.421	2.72
243.798	3.06
244.174	3.68
244.551	3.61
244.927	3.88
245.303	3.79
245.679	4
246.056	4.06
246.432	4.38
246.808	4.4
247.184	4.65
247.56	4.37
247.936	4.44
248.312	4.24
248.688	4.35
249.064	4.57
249.44	4.6
249.815	4.77
250.191	4.7
250.567	4.79
250.943	5.17
251.318	5.08
251.694	4.83
252.069	4.77
252.445	4.76
252.82	4.7
253.196	4.35
253.571	4.22
253.947	4.33
254.322	4.25
254.697	4.4
255.073	4.09
255.448	4.25
255.823	4.28
256.198	4.18
256.573	4.6
256.948	4.63
257.323	4.85
257.698	4.71
258.073	4.74
258.448	4.68
258.823	4.35
259.198	4.45
259.573	4.25
259.948	4.25
260.322	4.2
260.697	4.07
261.072	4.07
261.446	4.22
261.821	4.2
262.195	4.14
262.57	4.11
262.944	4.21
263.319	4.2
263.693	4.21
264.067	4.18
264.442	4.01
264.816	3.71
265.19	3.6
265.564	3.62
265.938	3.62
266.313	3.51
266.687	3.65
267.061	3.6
267.435	3.91
267.809	3.87
268.183	4.11
268.556	4.27
268.93	4.38
269.304	4.31
269.678	4.35
270.051	4.37
270.425	4.41
270.799	4.17
271.172	4.33
271.546	4.3
271.919	4.34
272.293	4.35
272.666	4.45
273.04	4.24
273.413	4.18
273.787	4.23
274.16	4.17
274.533	4.28
274.906	4.33
275.279	4.35
275.653	4.41
276.026	4.22
276.399	4.19
276.772	4.21
277.145	4.21
277.518	4.08
277.891	4.01
278.263	3.99
278.636	4.17
279.009	4.05
279.382	4.03
279.755	4.11
280.127	4.08
280.5	4.12
280.872	4.2
281.245	4.25
281.617	4.31
281.99	4.35
282.362	4.19
282.735	4.18
283.107	4.19
283.479	3.86
283.852	3.84
284.224	3.76
284.596	3.66
284.968	3.7
285.34	3.82
285.713	3.97
286.085	3.93
286.457	4.05
286.829	4.07
287.201	4.12
287.572	4.1
287.944	4.14
288.316	4.29
288.688	4.57
289.06	4.73
289.431	4.69
289.803	4.84
290.175	4.83
290.546	4.83
290.918	4.87
291.289	5.09
291.661	5.25
292.032	5.32
292.403	5.52
292.775	5.6
293.146	5.53
293.517	5.59
293.889	5.68
294.26	5.68
294.631	5.78
295.002	5.77
295.373	5.86
295.744	6.05
296.115	5.98
296.486	5.85
296.857	5.9
297.228	5.93
297.599	5.77
297.97	5.97
298.34	6.15
298.711	6.24
299.082	6.35
299.452	6.4
299.823	6.56
300.194	6.65
300.564	6.71
300.935	6.83
301.305	6.86
301.676	6.96
302.046	7.02
302.416	7.13
302.787	7.35
303.157	7.46
303.527	7.26
303.897	7.32
304.267	7.48
304.637	7.46
305.008	7.66
305.378	7.98
305.748	8.08
306.117	8.14
306.487	8.03
306.857	8.02
307.227	8.03
307.597	8.15
307.967	8.13
308.336	8.17
308.706	8.27
309.076	8.31
309.445	8.38
309.815	8.53
310.184	8.58
310.554	8.51
310.923	8.46
311.293	8.65
311.662	8.8
312.031	8.84
312.401	8.91
312.77	8.88
313.139	8.73
313.508	8.78
313.877	8.73
314.246	8.91
314.616	9.06
314.985	9.23
315.353	9.28
315.722	9.56
316.091	9.74
316.46	9.77
316.829	9.86
317.198	9.93
317.567	9.89
317.935	9.84
318.304	10.11
318.672	10.26
319.041	10.53
319.41	10.58
319.778	10.69
320.147	10.68
320.515	10.81
320.883	10.99
321.252	11.06
321.62	11.21
321.988	11.28
322.357	11.29
322.725	11.44
323.093	11.4
323.461	11.35
323.829	11.26
324.197	11.43
324.565	11.61
324.933	11.75
325.301	11.91
325.669	12.12
326.037	12.08
326.405	12.03
326.772	11.86
327.14	11.9
327.508	11.94
327.875	12.09
328.243	12.16
328.61	12.17
328.978	12.15
329.346	12.27
329.713	12.26
330.08	12.47
330.448	12.37
330.815	12.42
331.182	12.55
331.55	12.86
331.917	12.84
332.284	12.96
332.651	12.77
333.018	12.88
333.385	12.88
333.752	12.96
334.119	13.15
334.486	13.33
334.853	13.29
335.22	13.29
335.587	13.34
335.954	13.38
336.32	13.66
336.687	13.78
337.054	13.68
337.42	13.9
337.787	13.96
338.153	14.09
338.52	14.14
338.886	14.04
339.253	13.9
339.619	14.08
339.986	13.99
340.352	14.26
340.718	14.21
341.084	14.24
341.451	14.07
341.817	14.08
342.183	14.14
342.549	14.26
342.915	14.31
343.281	14.36
343.647	14.37
344.013	14.28
344.379	14.26
344.745	14.52
345.11	14.52
345.476	14.42
345.842	14.48
346.208	14.67
346.573	14.74
346.939	14.71
347.304	14.69
347.67	14.65
348.035	14.66
348.401	14.58
348.766	14.61
349.132	14.75
349.497	14.85
349.862	14.88
350.228	14.73
350.593	14.72
350.958	14.76
351.323	14.76
351.688	14.7
352.053	14.76
352.418	14.55
352.783	14.42
353.148	14.46
353.513	14.37
353.878	14.18
354.243	14.19
354.608	14.31
354.972	14.15
355.337	14.12
355.702	13.96
356.066	14.07
356.431	14.03
356.795	14
357.16	13.89
357.524	13.81
357.889	13.87
358.253	13.81
358.618	13.71
358.982	13.64
359.346	13.63
359.71	13.5
360.075	13.51
360.439	13.52
360.803	13.51
361.167	13.47
361.531	13.55
361.895	13.46
362.259	13.42
362.623	13.37
362.987	13.42
363.351	13.44
363.714	13.35
364.078	13.28
364.442	13.24
364.806	13.2
365.169	13.15
365.533	13.08
365.896	13.1
366.26	12.99
366.623	12.9
366.987	12.81
367.35	12.81
367.714	12.68
368.077	12.63
368.44	12.47
368.803	12.34
369.167	12.21
369.53	12.19
369.893	12.04
370.256	12.04
370.619	11.92
370.982	11.8
371.345	11.69
371.708	11.71
372.071	11.67
372.434	11.56
372.797	11.5
373.159	11.39
373.522	11.26
373.885	11.12
374.247	11.1
374.61	11.14
374.973	11.05
375.335	11
375.698	10.84
376.06	10.83
376.423	10.78
376.785	10.71
377.147	10.61
377.51	10.55
377.872	10.54
378.234	10.46
378.596	10.41
378.958	10.33
379.321	10.23
379.683	10.13
380.045	9.99
380.407	9.85
380.769	9.85
381.13	9.79
381.492	9.84
381.854	9.74
382.216	9.59
382.578	9.51
382.939	9.41
383.301	9.4
383.663	9.28
384.024	9.24
384.386	9.18
384.747	9.14
385.109	9.05
385.47	8.89
385.832	8.81
386.193	8.76
386.554	8.66
386.916	8.58
387.277	8.52
387.638	8.52
387.999	8.5
388.36	8.38
388.721	8.34
389.082	8.27
389.443	8.25
389.804	8.18
390.165	8.12
390.526	8.07
390.887	7.95
391.248	7.94
391.609	7.85
391.969	7.76
392.33	7.69
392.691	7.64
393.051	7.63
393.412	7.58
393.772	7.56
394.133	7.55
394.493	7.46
394.854	7.41
395.214	7.35
395.574	7.29
395.935	7.23
396.295	7.16
396.655	7.05
397.015	6.96
397.376	6.95
397.736	6.88
398.096	6.82
398.456	6.81
398.816	6.75
399.176	6.68
399.535	6.6
399.895	6.51
400.255	6.44
400.615	6.36
400.975	6.31
401.334	6.22
401.694	6.16
402.054	6.13
402.413	6.06
402.773	6.05
403.132	6.06
403.492	6.01
403.851	5.97
404.211	5.97
404.57	5.95
404.929	5.94
405.288	5.93
405.648	5.91
406.007	5.87
406.366	5.81
406.725	5.79
407.084	5.79
407.443	5.79
407.802	5.82
408.161	5.79
408.52	5.76
408.879	5.75
409.238	5.73
409.596	5.73
409.955	5.72
410.314	5.69
410.673	5.63
411.031	5.63
411.39	5.6
411.748	5.61
412.107	5.6
412.465	5.56
412.824	5.52
413.182	5.52
413.54	5.54
413.899	5.52
414.257	5.52
414.615	5.49
414.974	5.45
415.332	5.4
415.69	5.35
416.048	5.32
416.406	5.29
416.764	5.28
417.122	5.23
417.48	5.22
417.838	5.19
418.195	5.16
418.553	5.13
418.911	5.12
419.269	5.08
419.626	5.05
419.984	5.01
420.342	4.98
420.699	4.93
421.057	4.89
421.414	4.87
421.772	4.84
422.129	4.83
422.486	4.82
422.844	4.8
423.201	4.8
423.558	4.8
423.915	4.78
424.273	4.75
424.63	4.74
424.987	4.72
425.344	4.7
425.701	4.69
426.058	4.68
426.415	4.65
426.772	4.62
427.128	4.61
427.485	4.6
427.842	4.59
428.199	4.59
428.555	4.58
428.912	4.53
429.269	4.54
429.625	4.52
429.982	4.49
430.338	4.46
430.695	4.46
431.051	4.45
431.407	4.44
431.764	4.42
432.12	4.42
432.476	4.4
432.832	4.41
433.189	4.4
433.545	4.4
433.901	4.39
434.257	4.39
434.613	4.38
434.969	4.38
435.325	4.41
435.681	4.38
436.036	4.38
436.392	4.43
436.748	4.43
437.104	4.42
437.459	4.44
437.815	4.46
438.171	4.47
438.526	4.46
438.882	4.45
439.237	4.45
439.593	4.47
439.948	4.49
440.304	4.47
440.659	4.48
441.014	4.46
441.369	4.48
441.725	4.48
442.08	4.48
442.435	4.48
442.79	4.46
443.145	4.47
443.5	4.47
443.855	4.44
444.21	4.44
444.565	4.45
444.92	4.43
445.275	4.4
445.629	4.38
445.984	4.36
446.339	4.34
446.693	4.33
447.048	4.29
447.403	4.26
447.757	4.25
448.112	4.24
448.466	4.24
448.82	4.21
449.175	4.19
449.529	4.19
449.883	4.14
450.238	4.14
450.592	4.15
450.946	4.14
451.3	4.11
451.654	4.09
452.008	4.07
452.362	4.06
452.716	4.06
453.07	4.05
453.424	4.05
453.778	4.07
454.132	4.07
454.486	4.07
454.839	4.06
455.193	4.07
455.547	4.05
455.9	4.06
456.254	4.08
456.607	4.08
456.961	4.07
457.314	4.09
457.668	4.08
458.021	4.06
458.375	4.05
458.728	4.06
459.081	4.07
459.434	4.07
459.787	4.07
460.141	4.07
460.494	4.08
460.847	4.09
461.2	4.08
461.553	4.1
461.906	4.09
462.259	4.09
462.611	4.09
462.964	4.11
463.317	4.09
463.67	4.09
464.022	4.11
464.375	4.1
464.728	4.12
465.08	4.13
465.433	4.14
465.785	4.17
466.138	4.17
466.49	4.2
466.843	4.22
467.195	4.26
467.547	4.28
467.899	4.32
468.252	4.33
468.604	4.34
468.956	4.34
469.308	4.4
469.66	4.43
470.012	4.47
470.364	4.48
470.716	4.5
471.068	4.54
471.42	4.55
471.772	4.57
472.123	4.59
472.475	4.58
472.827	4.6
473.178	4.61
473.53	4.64
473.882	4.63
474.233	4.64
474.585	4.64
474.936	4.64
475.288	4.63
475.639	4.64
475.99	4.64
476.342	4.66
476.693	4.66
477.044	4.66
477.395	4.64
477.746	4.64
478.097	4.66
478.448	4.64
478.8	4.6
479.15	4.59
479.501	4.57
479.852	4.57
480.203	4.56
480.554	4.55
480.905	4.54
481.255	4.53
481.606	4.52
481.957	4.52
482.307	4.51
482.658	4.5
483.009	4.49
483.359	4.48
483.709	4.48
484.06	4.47
484.41	4.46
484.761	4.46
485.111	4.47
485.461	4.45
485.811	4.44
486.162	4.45
486.512	4.45
486.862	4.44
487.212	4.45
487.562	4.45
487.912	4.45
488.262	4.45
488.612	4.45
488.961	4.45
489.311	4.44
489.661	4.45
490.011	4.46
490.36	4.45
490.71	4.46
491.06	4.45
491.409	4.46
491.759	4.48
492.108	4.5
492.458	4.5
492.807	4.53
493.157	4.55
493.506	4.58
493.855	4.62
494.204	4.65
494.554	4.67
494.903	4.71
495.252	4.75
495.601	4.8
495.95	4.84
496.299	4.9
496.648	4.97
496.997	5.02
497.346	5.12
497.695	5.18
498.043	5.27
498.392	5.36
498.741	5.42
499.09	5.51
499.438	5.55
499.787	5.63
500.135	5.7
500.484	5.8
500.832	5.88
501.181	5.96
501.529	6.08
501.878	6.17
502.226	6.28
502.574	6.39
502.923	6.47
503.271	6.59
503.619	6.73
503.967	6.86
504.315	6.97
504.663	7.09
505.011	7.22
505.359	7.38
505.707	7.52
506.055	7.69
506.403	7.83
506.751	8
507.098	8.2
507.446	8.38
507.794	8.56
508.141	8.75
508.489	8.94
508.837	9.1
509.184	9.3
509.531	9.49
509.879	9.66
510.226	9.86
510.574	10.06
510.921	10.24
511.268	10.42
511.616	10.66
511.963	10.86
512.31	11.09
512.657	11.28
513.004	11.49
513.351	11.71
513.698	11.98
514.045	12.23
514.392	12.45
514.739	12.7
515.086	12.94
515.432	13.19
515.779	13.41
516.126	13.66
516.473	13.87
516.819	14.1
517.166	14.32
517.512	14.53
517.859	14.73
518.205	14.91
518.552	15.1
518.898	15.26
519.245	15.46
519.591	15.65
519.937	15.86
520.283	16.07
520.629	16.26
520.976	16.47
521.322	16.7
521.668	16.91
522.014	17.13
522.36	17.39
522.706	17.62
523.052	17.93
523.398	18.22
523.743	18.55
524.089	18.84
524.435	19.12
524.781	19.37
525.126	19.6
525.472	19.85
525.817	20.08
526.163	20.32
526.509	20.5
526.854	20.68
527.199	20.85
527.545	21.01
527.89	21.21
528.235	21.42
528.581	21.6
528.926	21.8
529.271	22
529.616	22.19
529.961	22.38
530.306	22.59
530.651	22.81
530.996	23.03
531.341	23.26
531.686	23.52
532.031	23.81
532.376	24.08
532.721	24.36
533.065	24.64
533.41	24.92
533.755	25.23
534.099	25.56
534.444	25.84
534.788	26.16
535.133	26.44
535.477	26.73
535.822	27.04
536.166	27.39
536.51	27.77
536.855	28.16
537.199	28.54
537.543	28.96
537.887	29.33
538.231	29.69
538.576	30.08
538.92	30.47
539.264	30.8
539.608	31.16
539.951	31.47
540.295	31.75
540.639	32.05
540.983	32.36
541.327	32.64
541.671	32.98
542.014	33.28
542.358	33.59
542.701	33.84
543.045	34.11
543.389	34.35
543.732	34.62
544.075	34.91
544.419	35.19
544.762	35.47
545.105	35.82
545.449	36.16
545.792	36.49
546.135	36.79
546.478	37.17
546.821	37.57
547.165	37.97
547.508	38.38
547.851	38.79
548.194	39.13
548.536	39.56
548.879	39.91
549.222	40.31
549.565	40.68
549.908	41.09
550.25	41.52
550.593	41.95
550.936	42.35
551.278	42.68
551.621	43.14
551.963	43.49
552.306	43.81
552.648	44.17
552.991	44.62
553.333	44.95
553.675	45.32
554.017	45.63
554.36	45.99
554.702	46.31
555.044	46.6
555.386	46.95
555.728	47.22
556.07	47.59
556.412	47.88
556.754	48.13
557.096	48.41
557.438	48.75
557.78	49.13
558.121	49.45
558.463	49.68
558.805	49.88
559.147	50.19
559.488	50.55
559.83	50.87
560.171	51.05
560.513	51.36
560.854	51.59
561.196	51.79
561.537	52.05
561.878	52.37
562.22	52.66
562.561	52.86
562.902	53.15
563.243	53.44
563.584	53.67
563.925	53.88
564.266	54.13
564.607	54.3
564.948	54.44
565.289	54.64
565.63	54.98
565.971	55.19
566.312	55.35
566.653	55.56
566.993	55.73
567.334	55.94
567.675	56.13
568.015	56.36
568.356	56.63
568.696	56.86
569.037	57.02
569.377	57.12
569.718	57.37
570.058	57.53
570.398	57.64
570.739	57.78
571.079	58.02
571.419	58.14
571.759	58.36
572.099	58.53
572.439	58.63
572.779	58.76
573.119	58.92
573.459	59.11
573.799	59.2
574.139	59.33
574.479	59.41
574.819	59.56
575.158	59.65
575.498	59.75
575.838	59.83
576.177	59.92
576.517	60.06
576.856	60.19
577.196	60.34
577.535	60.53
577.875	60.64
578.214	60.72
578.553	60.96
578.893	61.07
579.232	61.24
579.571	61.44
579.91	61.52
580.25	61.63
580.589	61.7
580.928	61.81
581.267	61.86
581.606	62.03
581.945	62.14
582.283	62.26
582.622	62.37
582.961	62.48
583.3	62.5
583.639	62.7
583.977	62.82
584.316	62.88
584.654	63.02
584.993	63.16
585.332	63.25
585.67	63.33
586.008	63.35
586.347	63.34
586.685	63.38
587.024	63.47
587.362	63.64
587.7	63.79
588.038	63.87
588.376	64.05
588.715	64.11
589.053	64.19
589.391	64.27
589.729	64.28
590.067	64.33
590.404	64.41
590.742	64.42
591.08	64.54
591.418	64.64
591.756	64.6
592.093	64.68
592.431	64.82
592.769	64.91
593.106	65.04
593.444	65.14
593.781	65.21
594.119	65.32
594.456	65.35
594.793	65.37
595.131	65.38
595.468	65.41
595.805	65.49
596.143	65.53
596.48	65.59
596.817	65.67
597.154	65.8
597.491	65.96
597.828	66.03
598.165	66.04
598.502	66.06
598.839	66.18
599.176	66.22
599.512	66.21
599.849	66.22
600.186	66.24
600.523	66.35
600.859	66.47
601.196	66.54
601.532	66.67
601.869	66.58
602.205	66.73
602.542	66.83
602.878	66.86
603.215	66.94
603.551	66.98
603.887	67.03
604.223	66.99
604.56	66.92
604.896	66.84
605.232	66.84
605.568	66.82
605.904	66.81
606.24	66.91
606.576	66.96
606.912	66.98
607.248	67
607.583	66.98
607.919	66.94
608.255	66.95
608.591	66.87
608.926	67.02
609.262	66.96
609.597	66.98
609.933	67.06
610.268	67.03
610.604	67.09
610.939	67.08
611.275	67.21
611.61	67.31
611.945	67.45
612.281	67.43
612.616	67.53
612.951	67.66
613.286	67.71
613.621	67.75
613.956	67.63
614.291	67.7
614.626	67.7
614.961	67.74
615.296	67.71
615.631	67.75
615.966	67.74
616.3	67.87
616.635	67.85
616.97	67.88
617.304	67.91
617.639	67.84
617.973	67.95
618.308	67.87
618.642	67.87
618.977	67.89
619.311	67.91
619.646	67.95
619.98	67.92
620.314	67.85
620.648	67.82
620.983	68.02
621.317	68.11
621.651	68.15
621.985	68.22
622.319	68.16
622.653	68.14
622.987	68.24
623.321	68.17
623.655	68.32
623.988	68.24
624.322	68.28
624.656	68.43
624.99	68.49
625.323	68.5
625.657	68.55
625.99	68.53
626.324	68.57
626.657	68.55
626.991	68.55
627.324	68.53
627.658	68.58
627.991	68.51
628.324	68.45
628.657	68.53
628.991	68.52
629.324	68.61
629.657	68.63
629.99	68.64
630.323	68.59
630.656	68.56
630.989	68.61
631.322	68.64
631.655	68.46
631.987	68.4
632.32	68.44
632.653	68.47
632.986	68.48
633.318	68.53
633.651	68.58
633.984	68.57
634.316	68.58
634.649	68.53
634.981	68.59
635.313	68.56
635.646	68.58
635.978	68.63
636.31	68.63
636.643	68.79
636.975	68.7
637.307	68.89
637.639	68.72
637.971	68.76
638.303	68.71
638.635	68.91
638.967	69.02
639.299	69.04
639.631	69.04
639.963	69.02
640.295	69.09
640.626	69.03
640.958	68.98
641.29	68.95
641.621	68.9
641.953	68.94
642.285	69.04
642.616	68.99
642.948	69
643.279	69.02
643.61	68.87
643.942	68.89
644.273	68.87
644.604	69.03
644.936	69.04
645.267	69.05
645.598	68.95
645.929	68.83
646.26	68.81
646.591	68.75
646.922	68.93
647.253	68.95
647.584	68.96
647.915	69.08
648.245	69.21
648.576	69.38
648.907	69.46
649.238	69.42
649.568	69.5
649.899	69.44
650.229	69.47
650.56	69.46
650.89	69.62
651.221	69.61
651.551	69.51
651.882	69.48
652.212	69.39
652.542	69.46
652.872	69.63
653.203	69.67
653.533	69.78
653.863	69.68
654.193	69.56
654.523	69.49
654.853	69.48
655.183	69.37
655.513	69.45
655.843	69.44
656.172	69.43
656.502	69.44
656.832	69.47
657.162	69.52
657.491	69.59
657.821	69.43
658.15	69.47
658.48	69.55
658.809	69.67
659.139	69.77
659.468	69.62
659.798	69.55
660.127	69.57
660.456	69.45
660.785	69.54
