Data from MVZ_BU62167_Reflection_00009.txt Node
Date: Tue Nov 19 12:14:34 EST 2019
User: vgr7
Spectrometer: USB2G7710
Scans to average: 3
Trigger mode: 4
Integration Time (sec): 2.000000E-2
Electric dark correction enabled: true
Boxcar width: 10
XAxis mode: Wavelengths
Number of Pixels in Spectrum: 2048
>>>>>Begin Spectral Data<<<<<
177.721	61.29
178.105	254.76
178.488	224.41
178.871	77.19
179.254	101.96
179.636	173.88
180.019	134.44
180.402	150
180.785	-333.33
181.168	266.67
181.55	-143.96
181.933	-93.49
182.316	23.22
182.698	173.64
183.081	-1140.74
183.463	-236.6
183.846	56.79
184.228	-184.31
184.611	-11.44
184.993	25.99
185.376	66.16
185.758	62.52
186.14	168.89
186.522	136.4
186.904	101.96
187.287	129.68
187.669	157.58
188.051	216.35
188.433	2155.56
188.815	521.57
189.197	114.4
189.579	-311.56
189.961	-89.27
190.342	-123.27
190.724	-844.44
191.106	-153.72
191.488	-78.07
191.869	-18.89
192.251	-46.07
192.633	-15.52
193.014	6.3
193.396	-2.92
193.777	50.77
194.159	24.84
194.54	20.11
194.922	10.26
195.303	-2.17
195.684	-8.29
196.065	-10.25
196.447	-4.84
196.828	2.86
197.209	4.82
197.59	-6.17
197.971	-5.82
198.352	12.73
198.733	10.78
199.114	30.16
199.495	31.99
199.876	7.41
200.257	11.58
200.638	-3.17
201.018	-11.54
201.399	-6.75
201.78	-32.52
202.16	-24.2
202.541	-43.28
202.922	-20.13
203.302	-10.43
203.683	-8.98
204.063	-22.72
204.444	-27.32
204.824	-30.5
205.204	-17.18
205.585	-2.97
205.965	8.26
206.345	0.09
206.725	11.79
207.106	3.84
207.486	8.86
207.866	15.08
208.246	14.91
208.626	11.01
209.006	18.46
209.386	19.34
209.766	25.06
210.145	21.1
210.525	20.45
210.905	16.12
211.285	27.95
211.664	43.08
212.044	40.52
212.424	53.46
212.803	44.18
213.183	46.53
213.562	39.84
213.942	38.82
214.321	38.78
214.701	32.42
215.08	47.03
215.459	38.02
215.838	41.83
216.218	44.33
216.597	47.61
216.976	47.43
217.355	45.42
217.734	36.17
218.113	35.33
218.492	51.11
218.871	35.92
219.25	23.5
219.629	12.56
220.008	11.43
220.387	9.43
220.766	23.39
221.144	20.01
221.523	4.96
221.902	-6.41
222.28	4.64
222.659	13.74
223.037	0.43
223.416	5.93
223.794	11.78
224.173	13.19
224.551	9.46
224.929	4.19
225.308	6.38
225.686	5.47
226.064	6.84
226.442	2.88
226.821	10.2
227.199	9.24
227.577	15.05
227.955	16.95
228.333	14.39
228.711	12.57
229.089	11.58
229.467	12.42
229.845	10.45
230.222	7.05
230.6	4.6
230.978	6.59
231.356	6.67
231.733	8.72
232.111	8.37
232.488	8.57
232.866	9.36
233.243	6.4
233.621	9.7
233.998	9.13
234.376	10.8
234.753	8.99
235.13	8.66
235.508	8.04
235.885	9.09
236.262	8.4
236.639	5.96
237.016	4.64
237.393	6.91
237.77	8.76
238.147	9.46
238.524	9.34
238.901	9.38
239.278	7.95
239.655	6.11
240.032	5.08
240.409	5.2
240.785	5.08
241.162	5.16
241.539	4.88
241.915	4.56
242.292	4.94
242.668	5.14
243.045	5.62
243.421	5.13
243.798	4.42
244.174	4.19
244.551	4.93
244.927	5.15
245.303	4.84
245.679	4.73
246.056	4.44
246.432	4.61
246.808	4.72
247.184	4.85
247.56	4.84
247.936	4.98
248.312	4.92
248.688	5.14
249.064	5.32
249.44	5.04
249.815	5.11
250.191	4.72
250.567	4.5
250.943	4.54
251.318	4.33
251.694	4.39
252.069	4.69
252.445	4.34
252.82	4.7
253.196	4.64
253.571	4.83
253.947	4.63
254.322	4.1
254.697	3.81
255.073	3.52
255.448	3.48
255.823	3.62
256.198	3.39
256.573	3.24
256.948	3.1
257.323	3.52
257.698	3.5
258.073	3.16
258.448	3.18
258.823	2.99
259.198	3.16
259.573	3.1
259.948	2.94
260.322	3.01
260.697	3.05
261.072	3.06
261.446	2.75
261.821	2.73
262.195	2.81
262.57	2.84
262.944	2.96
263.319	2.99
263.693	2.88
264.067	3.09
264.442	2.98
264.816	3.15
265.19	2.81
265.564	3.19
265.938	3.54
266.313	3.68
266.687	3.75
267.061	3.78
267.435	3.95
267.809	3.91
268.183	3.85
268.556	3.54
268.93	3.64
269.304	3.81
269.678	3.93
270.051	3.97
270.425	3.97
270.799	3.79
271.172	3.73
271.546	3.78
271.919	3.82
272.293	3.91
272.666	3.73
273.04	3.91
273.413	3.59
273.787	3.61
274.16	3.42
274.533	3.36
274.906	3.35
275.279	3.26
275.653	3.32
276.026	3.25
276.399	3.31
276.772	3.35
277.145	3.48
277.518	3.48
277.891	3.58
278.263	3.57
278.636	3.85
279.009	3.95
279.382	3.82
279.755	3.66
280.127	3.56
280.5	3.66
280.872	3.58
281.245	3.49
281.617	3.51
281.99	3.69
282.362	3.84
282.735	3.82
283.107	3.89
283.479	3.93
283.852	3.79
284.224	3.7
284.596	3.54
284.968	3.4
285.34	3.4
285.713	3.31
286.085	3.3
286.457	3.13
286.829	3.11
287.201	3.14
287.572	3.2
287.944	3.33
288.316	3.36
288.688	3.5
289.06	3.63
289.431	3.6
289.803	3.53
290.175	3.43
290.546	3.47
290.918	3.57
291.289	3.49
291.661	3.61
292.032	3.64
292.403	3.56
292.775	3.61
293.146	3.64
293.517	3.68
293.889	3.72
294.26	3.77
294.631	3.72
295.002	3.58
295.373	3.51
295.744	3.49
296.115	3.35
296.486	3.17
296.857	3.11
297.228	3.03
297.599	3.09
297.97	3.32
298.34	3.44
298.711	3.5
299.082	3.55
299.452	3.53
299.823	3.61
300.194	3.87
300.564	3.82
300.935	3.85
301.305	3.76
301.676	3.83
302.046	3.86
302.416	3.92
302.787	4.15
303.157	4.18
303.527	4.22
303.897	4.35
304.267	4.51
304.637	4.49
305.008	4.64
305.378	4.62
305.748	4.55
306.117	4.48
306.487	4.35
306.857	4.45
307.227	4.69
307.597	4.62
307.967	4.6
308.336	4.82
308.706	4.89
309.076	5.13
309.445	5.04
309.815	5.13
310.184	5.06
310.554	5.11
310.923	5.21
311.293	5.12
311.662	5.1
312.031	5.07
312.401	5.22
312.77	5.13
313.139	5.2
313.508	5.32
313.877	5.39
314.246	5.36
314.616	5.38
314.985	5.29
315.353	5.26
315.722	5.37
316.091	5.31
316.46	5.29
316.829	5.25
317.198	5.31
317.567	5.32
317.935	5.46
318.304	5.56
318.672	5.59
319.041	5.76
319.41	5.91
319.778	6
320.147	5.92
320.515	6.17
320.883	6.04
321.252	5.87
321.62	5.85
321.988	5.94
322.357	5.92
322.725	5.91
323.093	6.08
323.461	6.05
323.829	5.99
324.197	5.97
324.565	6.07
324.933	6.01
325.301	5.91
325.669	5.9
326.037	5.88
326.405	5.89
326.772	5.94
327.14	5.87
327.508	5.76
327.875	5.63
328.243	5.66
328.61	5.74
328.978	5.76
329.346	5.64
329.713	5.86
330.08	5.94
330.448	5.95
330.815	5.92
331.182	5.82
331.55	5.87
331.917	6.03
332.284	5.96
332.651	6.14
333.018	6.26
333.385	6.31
333.752	6.3
334.119	6.31
334.486	6.27
334.853	6.27
335.22	6.22
335.587	6.46
335.954	6.33
336.32	6.44
336.687	6.53
337.054	6.6
337.42	6.48
337.787	6.45
338.153	6.56
338.52	6.63
338.886	6.65
339.253	6.68
339.619	6.59
339.986	6.53
340.352	6.48
340.718	6.52
341.084	6.54
341.451	6.63
341.817	6.62
342.183	6.53
342.549	6.6
342.915	6.76
343.281	6.76
343.647	6.84
344.013	6.84
344.379	6.7
344.745	6.89
345.11	6.87
345.476	6.89
345.842	6.93
346.208	6.99
346.573	7.05
346.939	7.05
347.304	7.05
347.67	7.06
348.035	7
348.401	7.06
348.766	6.99
349.132	7.02
349.497	7.06
349.862	7.13
350.228	7.21
350.593	7.21
350.958	7.28
351.323	7.21
351.688	7.28
352.053	7.32
352.418	7.21
352.783	7.14
353.148	7.21
353.513	7.1
353.878	7.01
354.243	6.98
354.608	7.07
354.972	7.12
355.337	7.17
355.702	7.16
356.066	7.1
356.431	7.17
356.795	7.1
357.16	7.1
357.524	7.07
357.889	6.99
358.253	6.98
358.618	6.91
358.982	6.89
359.346	6.82
359.71	6.85
360.075	6.87
360.439	6.91
360.803	6.92
361.167	6.9
361.531	6.88
361.895	6.88
362.259	6.84
362.623	6.79
362.987	6.81
363.351	6.81
363.714	6.8
364.078	6.81
364.442	6.81
364.806	6.76
365.169	6.77
365.533	6.76
365.896	6.8
366.26	6.72
366.623	6.73
366.987	6.69
367.35	6.73
367.714	6.64
368.077	6.66
368.44	6.54
368.803	6.52
369.167	6.41
369.53	6.42
369.893	6.32
370.256	6.28
370.619	6.23
370.982	6.14
371.345	6.12
371.708	6.05
372.071	5.99
372.434	5.94
372.797	5.95
373.159	5.87
373.522	5.72
373.885	5.74
374.247	5.73
374.61	5.73
374.973	5.64
375.335	5.65
375.698	5.56
376.06	5.53
376.423	5.55
376.785	5.62
377.147	5.57
377.51	5.58
377.872	5.54
378.234	5.52
378.596	5.54
378.958	5.47
379.321	5.44
379.683	5.44
380.045	5.39
380.407	5.37
380.769	5.36
381.13	5.38
381.492	5.32
381.854	5.36
382.216	5.36
382.578	5.34
382.939	5.3
383.301	5.29
383.663	5.24
384.024	5.2
384.386	5.2
384.747	5.12
385.109	5.1
385.47	5.07
385.832	5
386.193	4.98
386.554	4.96
386.916	4.94
387.277	4.9
387.638	4.92
387.999	4.85
388.36	4.8
388.721	4.76
389.082	4.78
389.443	4.72
389.804	4.69
390.165	4.63
390.526	4.62
390.887	4.59
391.248	4.59
391.609	4.58
391.969	4.53
392.33	4.53
392.691	4.5
393.051	4.48
393.412	4.49
393.772	4.5
394.133	4.45
394.493	4.4
394.854	4.38
395.214	4.32
395.574	4.32
395.935	4.28
396.295	4.27
396.655	4.19
397.015	4.16
397.376	4.12
397.736	4.12
398.096	4.08
398.456	4.06
398.816	4.04
399.176	3.96
399.535	3.92
399.895	3.94
400.255	3.91
400.615	3.89
400.975	3.85
401.334	3.81
401.694	3.8
402.054	3.77
402.413	3.77
402.773	3.76
403.132	3.73
403.492	3.75
403.851	3.72
404.211	3.72
404.57	3.69
404.929	3.67
405.288	3.65
405.648	3.65
406.007	3.65
406.366	3.63
406.725	3.65
407.084	3.67
407.443	3.63
407.802	3.65
408.161	3.64
408.52	3.64
408.879	3.63
409.238	3.65
409.596	3.68
409.955	3.65
410.314	3.67
410.673	3.65
411.031	3.64
411.39	3.67
411.748	3.7
412.107	3.69
412.465	3.67
412.824	3.66
413.182	3.64
413.54	3.65
413.899	3.66
414.257	3.67
414.615	3.63
414.974	3.61
415.332	3.6
415.69	3.56
416.048	3.53
416.406	3.5
416.764	3.47
417.122	3.44
417.48	3.43
417.838	3.41
418.195	3.41
418.553	3.38
418.911	3.36
419.269	3.33
419.626	3.31
419.984	3.32
420.342	3.3
420.699	3.3
421.057	3.27
421.414	3.25
421.772	3.22
422.129	3.21
422.486	3.22
422.844	3.2
423.201	3.21
423.558	3.22
423.915	3.22
424.273	3.22
424.63	3.23
424.987	3.24
425.344	3.24
425.701	3.24
426.058	3.25
426.415	3.24
426.772	3.23
427.128	3.24
427.485	3.21
427.842	3.21
428.199	3.21
428.555	3.21
428.912	3.2
429.269	3.2
429.625	3.21
429.982	3.19
430.338	3.19
430.695	3.2
431.051	3.18
431.407	3.18
431.764	3.19
432.12	3.19
432.476	3.16
432.832	3.16
433.189	3.14
433.545	3.13
433.901	3.15
434.257	3.14
434.613	3.16
434.969	3.16
435.325	3.17
435.681	3.15
436.036	3.14
436.392	3.16
436.748	3.18
437.104	3.16
437.459	3.16
437.815	3.16
438.171	3.17
438.526	3.18
438.882	3.18
439.237	3.16
439.593	3.16
439.948	3.17
440.304	3.15
440.659	3.17
441.014	3.17
441.369	3.17
441.725	3.17
442.08	3.15
442.435	3.16
442.79	3.14
443.145	3.15
443.5	3.15
443.855	3.14
444.21	3.13
444.565	3.14
444.92	3.15
445.275	3.14
445.629	3.13
445.984	3.12
446.339	3.11
446.693	3.1
447.048	3.06
447.403	3.05
447.757	3.06
448.112	3.05
448.466	3.04
448.82	3.02
449.175	3.02
449.529	3.02
449.883	3.01
450.238	3.03
450.592	3
450.946	3
451.3	3
451.654	2.98
452.008	3
452.362	2.99
452.716	2.98
453.07	2.96
453.424	2.94
453.778	2.94
454.132	2.94
454.486	2.97
454.839	2.97
455.193	2.97
455.547	2.98
455.9	2.99
456.254	3.02
456.607	3.01
456.961	3.02
457.314	3.02
457.668	3.01
458.021	3.05
458.375	3.06
458.728	3.05
459.081	3.07
459.434	3.07
459.787	3.06
460.141	3.06
460.494	3.08
460.847	3.1
461.2	3.11
461.553	3.13
461.906	3.14
462.259	3.14
462.611	3.13
462.964	3.15
463.317	3.15
463.67	3.14
464.022	3.16
464.375	3.15
464.728	3.19
465.08	3.2
465.433	3.2
465.785	3.21
466.138	3.23
466.49	3.25
466.843	3.25
467.195	3.29
467.547	3.31
467.899	3.32
468.252	3.33
468.604	3.36
468.956	3.36
469.308	3.37
469.66	3.39
470.012	3.39
470.364	3.39
470.716	3.42
471.068	3.44
471.42	3.44
471.772	3.45
472.123	3.45
472.475	3.45
472.827	3.45
473.178	3.45
473.53	3.44
473.882	3.41
474.233	3.4
474.585	3.37
474.936	3.36
475.288	3.35
475.639	3.36
475.99	3.32
476.342	3.3
476.693	3.3
477.044	3.3
477.395	3.32
477.746	3.3
478.097	3.29
478.448	3.28
478.8	3.27
479.15	3.27
479.501	3.26
479.852	3.25
480.203	3.26
480.554	3.25
480.905	3.26
481.255	3.27
481.606	3.27
481.957	3.28
482.307	3.26
482.658	3.28
483.009	3.27
483.359	3.28
483.709	3.29
484.06	3.3
484.41	3.3
484.761	3.3
485.111	3.3
485.461	3.31
485.811	3.3
486.162	3.31
486.512	3.32
486.862	3.33
487.212	3.33
487.562	3.32
487.912	3.32
488.262	3.33
488.612	3.34
488.961	3.34
489.311	3.34
489.661	3.37
490.011	3.37
490.36	3.38
490.71	3.38
491.06	3.39
491.409	3.38
491.759	3.37
492.108	3.38
492.458	3.39
492.807	3.4
493.157	3.44
493.506	3.42
493.855	3.43
494.204	3.43
494.554	3.44
494.903	3.48
495.252	3.5
495.601	3.52
495.95	3.53
496.299	3.56
496.648	3.61
496.997	3.62
497.346	3.64
497.695	3.69
498.043	3.72
498.392	3.74
498.741	3.77
499.09	3.82
499.438	3.87
499.787	3.91
500.135	3.95
500.484	3.98
500.832	4.04
501.181	4.1
501.529	4.16
501.878	4.19
502.226	4.26
502.574	4.31
502.923	4.35
503.271	4.42
503.619	4.49
503.967	4.52
504.315	4.59
504.663	4.68
505.011	4.74
505.359	4.77
505.707	4.86
506.055	4.94
506.403	5.03
506.751	5.1
507.098	5.18
507.446	5.25
507.794	5.34
508.141	5.43
508.489	5.52
508.837	5.6
509.184	5.71
509.531	5.77
509.879	5.83
510.226	5.93
510.574	6.02
510.921	6.1
511.268	6.21
511.616	6.32
511.963	6.42
512.31	6.5
512.657	6.63
513.004	6.72
513.351	6.78
513.698	6.89
514.045	6.98
514.392	7.07
514.739	7.18
515.086	7.29
515.432	7.39
515.779	7.47
516.126	7.59
516.473	7.69
516.819	7.78
517.166	7.91
517.512	7.98
517.859	8.07
518.205	8.16
518.552	8.24
518.898	8.3
519.245	8.39
519.591	8.48
519.937	8.57
520.283	8.69
520.629	8.81
520.976	8.89
521.322	9.03
521.668	9.14
522.014	9.25
522.36	9.37
522.706	9.48
523.052	9.65
523.398	9.76
523.743	9.89
524.089	10.06
524.435	10.21
524.781	10.34
525.126	10.47
525.472	10.6
525.817	10.72
526.163	10.82
526.509	10.89
526.854	10.99
527.199	11.08
527.545	11.16
527.89	11.25
528.235	11.36
528.581	11.45
528.926	11.55
529.271	11.65
529.616	11.74
529.961	11.84
530.306	11.93
530.651	12.04
530.996	12.18
531.341	12.29
531.686	12.44
532.031	12.6
532.376	12.72
532.721	12.85
533.065	13
533.41	13.15
533.755	13.33
534.099	13.49
534.444	13.66
534.788	13.83
535.133	14
535.477	14.16
535.822	14.34
536.166	14.53
536.51	14.74
536.855	14.97
537.199	15.2
537.543	15.44
537.887	15.69
538.231	15.9
538.576	16.13
538.92	16.34
539.264	16.54
539.608	16.78
539.951	16.99
540.295	17.18
540.639	17.4
540.983	17.58
541.327	17.77
541.671	17.95
542.014	18.15
542.358	18.33
542.701	18.54
543.045	18.72
543.389	18.92
543.732	19.1
544.075	19.28
544.419	19.51
544.762	19.72
545.105	19.96
545.449	20.19
545.792	20.45
546.135	20.7
546.478	20.97
546.821	21.27
547.165	21.57
547.508	21.86
547.851	22.13
548.194	22.45
548.536	22.75
548.879	23.09
549.222	23.4
549.565	23.73
549.908	24.02
550.25	24.36
550.593	24.68
550.936	25.03
551.278	25.39
551.621	25.69
551.963	26.07
552.306	26.35
552.648	26.71
552.991	26.97
553.333	27.26
553.675	27.58
554.017	27.79
554.36	28.12
554.702	28.39
555.044	28.67
555.386	28.92
555.728	29.24
556.07	29.47
556.412	29.75
556.754	29.99
557.096	30.29
557.438	30.61
557.78	30.89
558.121	31.17
558.463	31.5
558.805	31.8
559.147	32.06
559.488	32.37
559.83	32.61
560.171	32.91
560.513	33.16
560.854	33.41
561.196	33.72
561.537	33.96
561.878	34.27
562.22	34.54
562.561	34.87
562.902	35.15
563.243	35.44
563.584	35.62
563.925	35.89
564.266	36.15
564.607	36.35
564.948	36.61
565.289	36.83
565.63	37.02
565.971	37.28
566.312	37.46
566.653	37.65
566.993	37.88
567.334	38.1
567.675	38.39
568.015	38.62
568.356	38.82
568.696	39
569.037	39.17
569.377	39.36
569.718	39.51
570.058	39.65
570.398	39.86
570.739	40.05
571.079	40.24
571.419	40.4
571.759	40.6
572.099	40.7
572.439	40.95
572.779	41.07
573.119	41.19
573.459	41.37
573.799	41.59
574.139	41.76
574.479	41.96
574.819	42.12
575.158	42.29
575.498	42.41
575.838	42.59
576.177	42.79
576.517	42.93
576.856	43.11
577.196	43.28
577.535	43.42
577.875	43.65
578.214	43.8
578.553	43.95
578.893	44.12
579.232	44.35
579.571	44.46
579.91	44.63
580.25	44.74
580.589	44.83
580.928	44.84
581.267	44.9
581.606	45
581.945	45.04
582.283	45.14
582.622	45.27
582.961	45.35
583.3	45.42
583.639	45.6
583.977	45.74
584.316	45.9
584.654	46.05
584.993	46.14
585.332	46.29
585.67	46.41
586.008	46.47
586.347	46.53
586.685	46.59
587.024	46.74
587.362	46.94
587.7	47.11
588.038	47.26
588.376	47.43
588.715	47.52
589.053	47.56
589.391	47.71
589.729	47.83
590.067	47.98
590.404	48.17
590.742	48.25
591.08	48.32
591.418	48.34
591.756	48.31
592.093	48.4
592.431	48.49
592.769	48.62
593.106	48.69
593.444	48.86
593.781	48.98
594.119	49.08
594.456	49.15
594.793	49.22
595.131	49.3
595.468	49.35
595.805	49.46
596.143	49.58
596.48	49.58
596.817	49.61
597.154	49.67
597.491	49.64
597.828	49.7
598.165	49.73
598.502	49.83
598.839	50
599.176	50.09
599.512	50.15
599.849	50.18
600.186	50.32
600.523	50.35
600.859	50.42
601.196	50.5
601.532	50.62
601.869	50.76
602.205	50.77
602.542	50.85
602.878	50.91
603.215	50.94
603.551	51.03
603.887	51.15
604.223	51.19
604.56	51.28
604.896	51.32
605.232	51.41
605.568	51.49
605.904	51.49
606.24	51.54
606.576	51.51
606.912	51.55
607.248	51.62
607.583	51.64
607.919	51.72
608.255	51.73
608.591	51.72
608.926	51.68
609.262	51.72
609.597	51.76
609.933	51.72
610.268	51.83
610.604	51.88
610.939	51.87
611.275	51.86
611.61	51.86
611.945	51.88
612.281	51.95
612.616	51.91
612.951	52.01
613.286	51.98
613.621	52.04
613.956	52.11
614.291	52.04
614.626	52.14
614.961	52.14
615.296	52.18
615.631	52.23
615.966	52.3
616.3	52.37
616.635	52.43
616.97	52.47
617.304	52.42
617.639	52.41
617.973	52.42
618.308	52.47
618.642	52.52
618.977	52.62
619.311	52.56
619.646	52.7
619.98	52.68
620.314	52.78
620.648	52.9
620.983	52.91
621.317	52.98
621.651	52.89
621.985	52.86
622.319	52.86
622.653	52.85
622.987	52.89
623.321	52.91
623.655	52.95
623.988	52.99
624.322	53.06
624.656	53.08
624.99	53.08
625.323	53.16
625.657	53.17
625.99	53.11
626.324	53.15
626.657	53.04
626.991	53.16
627.324	53.11
627.658	53.11
627.991	53.19
628.324	53.17
628.657	53.23
628.991	53.35
629.324	53.34
629.657	53.43
629.99	53.39
630.323	53.47
630.656	53.42
630.989	53.36
631.322	53.43
631.655	53.5
631.987	53.59
632.32	53.58
632.653	53.62
632.986	53.71
633.318	53.73
633.651	53.88
633.984	53.79
634.316	53.94
634.649	53.96
634.981	53.97
635.313	54.02
635.646	54.1
635.978	54.11
636.31	54.2
636.643	54.16
636.975	54.33
637.307	54.29
637.639	54.32
637.971	54.46
638.303	54.44
638.635	54.45
638.967	54.53
639.299	54.56
639.631	54.59
639.963	54.57
640.295	54.54
640.626	54.49
640.958	54.56
641.29	54.48
641.621	54.51
641.953	54.51
642.285	54.59
642.616	54.6
642.948	54.45
643.279	54.38
643.61	54.39
643.942	54.27
644.273	54.39
644.604	54.44
644.936	54.5
645.267	54.38
645.598	54.34
645.929	54.35
646.26	54.3
646.591	54.4
646.922	54.45
647.253	54.56
647.584	54.62
647.915	54.58
648.245	54.61
648.576	54.6
648.907	54.68
649.238	54.65
649.568	54.63
649.899	54.82
650.229	54.87
650.56	54.92
650.89	54.96
651.221	54.97
651.551	54.94
651.882	54.95
652.212	55.07
652.542	55.09
652.872	55.02
653.203	55.08
653.533	55.01
653.863	54.94
654.193	54.95
654.523	55.03
654.853	55.11
655.183	55.12
655.513	55.19
655.843	55.11
656.172	55.17
656.502	55.35
656.832	55.29
657.162	55.46
657.491	55.49
657.821	55.48
658.15	55.41
658.48	55.47
658.809	55.47
659.139	55.49
659.468	55.57
659.798	55.68
660.127	55.59
660.456	55.57
660.785	55.68
661.115	55.78
661.444	55.73
661.773	55.67
662.102	55.74
662.431	55.76
662.76	55.76
663.089	55.88
663.418	55.67
663.747	55.58
664.076	55.43
664.404	55.54
664.733	55.55
665.062	55.65
665.39	55.6
665.719	55.54
666.048	55.55
666.376	55.53
666.705	55.42
667.033	55.58
667.362	55.68
667.69	55.66
668.018	55.6
668.347	55.52
668.675	55.59
669.003	55.52
669.331	55.49
