Data from MVZ_BU8942_Reflection_00005.txt Node
Date: Tue Nov 19 12:03:56 EST 2019
User: vgr7
Spectrometer: USB2G7710
Scans to average: 3
Trigger mode: 4
Integration Time (sec): 2.000000E-2
Electric dark correction enabled: true
Boxcar width: 10
XAxis mode: Wavelengths
Number of Pixels in Spectrum: 2048
>>>>>Begin Spectral Data<<<<<
177.721	114.91
178.105	35.06
178.488	296.63
178.871	-1200
179.254	660
179.636	-155.47
180.019	-68.32
180.402	127.27
180.785	24
181.168	129.07
181.55	-1007.14
181.933	-35.59
182.316	-87.85
182.698	-107.75
183.081	-133.81
183.463	-156.2
183.846	-52.4
184.228	-52.47
184.611	-16.18
184.993	47.37
185.376	18.69
185.758	59.79
186.14	-25.53
186.522	53.39
186.904	56.25
187.287	60.83
187.669	15.79
188.051	-74.09
188.433	-82.31
188.815	-144.4
189.197	-111.49
189.579	-132.31
189.961	-210.81
190.342	-90.74
190.724	-84.43
191.106	-56.7
191.488	-29.12
191.869	-24.56
192.251	-33.14
192.633	-8.83
193.014	-12.49
193.396	1.01
193.777	-0.56
194.159	9.41
194.54	11.43
194.922	18.7
195.303	4.64
195.684	15.02
196.065	37.5
196.447	42.91
196.828	62.52
197.209	79.46
197.59	84.18
197.971	102.29
198.352	81.51
198.733	103.72
199.114	86.94
199.495	136.68
199.876	162.73
200.257	160.86
200.638	153.8
201.018	159.16
201.399	89.85
201.78	80.09
202.16	58.16
202.541	-0.7
202.922	-44.4
203.302	-13.3
203.683	-18.75
204.063	-35.06
204.444	-32.75
204.824	8.11
205.204	41.24
205.585	17.33
205.965	-42.12
206.345	-2.49
206.725	26.13
207.106	22.67
207.486	32.34
207.866	27.55
208.246	39.56
208.626	8.88
209.006	14.91
209.386	-12.8
209.766	-51.22
210.145	-1.58
210.525	40.54
210.905	54.55
211.285	88.64
211.664	87.93
212.044	71.12
212.424	84.18
212.803	45.65
213.183	26.58
213.562	46.45
213.942	53.66
214.321	41.81
214.701	41.79
215.08	68.66
215.459	75.94
215.838	52.14
216.218	23.42
216.597	40.03
216.976	63.39
217.355	73.64
217.734	91.56
218.113	119.89
218.492	127.73
218.871	114.84
219.25	84.71
219.629	60.3
220.008	72.53
220.387	24.71
220.766	28.03
221.144	15.69
221.523	0.98
221.902	-10.82
222.28	-5.43
222.659	7.31
223.037	6.77
223.416	-1.84
223.794	-0.9
224.173	3.53
224.551	4.31
224.929	-6.84
225.308	-10.27
225.686	-12.2
226.064	-14.94
226.442	-9.42
226.821	-8.89
227.199	-3.42
227.577	0.59
227.955	2.31
228.333	3.09
228.711	3.75
229.089	8.97
229.467	12.02
229.845	13.24
230.222	15.45
230.6	13.22
230.978	13.51
231.356	15.88
231.733	16.42
232.111	17.28
232.488	16.27
232.866	16.07
233.243	19.42
233.621	19.63
233.998	18.59
234.376	17.74
234.753	19.03
235.13	19.73
235.508	16.81
235.885	13.72
236.262	12.44
236.639	11.46
237.016	8.35
237.393	7.71
237.77	7.99
238.147	8.21
238.524	8.44
238.901	7.4
239.278	5.75
239.655	4.44
240.032	3.96
240.409	4.01
240.785	4.7
241.162	3.92
241.539	3.4
241.915	3.57
242.292	3.08
242.668	3.05
243.045	3.34
243.421	4.1
243.798	4.13
244.174	4.77
244.551	5.11
244.927	5.2
245.303	4.9
245.679	4.75
246.056	4.6
246.432	4.5
246.808	4.52
247.184	4.77
247.56	5.1
247.936	5.01
248.312	5.25
248.688	5.11
249.064	5.15
249.44	5.03
249.815	4.99
250.191	5.26
250.567	5.17
250.943	4.96
251.318	4.8
251.694	4.9
252.069	4.56
252.445	4.51
252.82	4.75
253.196	5.06
253.571	5.04
253.947	4.99
254.322	4.99
254.697	4.91
255.073	4.62
255.448	4.34
255.823	4.75
256.198	4.07
256.573	3.86
256.948	3.93
257.323	4.26
257.698	4.23
258.073	3.82
258.448	3.85
258.823	3.75
259.198	3.75
259.573	3.54
259.948	3.72
260.322	3.68
260.697	3.63
261.072	3.5
261.446	3.75
261.821	3.59
262.195	3.49
262.57	3.58
262.944	3.53
263.319	3.68
263.693	3.53
264.067	3.76
264.442	3.94
264.816	4.08
265.19	4.15
265.564	4.05
265.938	4.26
266.313	4.17
266.687	4.09
267.061	4.23
267.435	4.5
267.809	4.33
268.183	4.36
268.556	4.16
268.93	4.19
269.304	3.87
269.678	3.93
270.051	4.06
270.425	4.18
270.799	4.21
271.172	4.05
271.546	4.05
271.919	4.16
272.293	4.22
272.666	4.02
273.04	3.96
273.413	3.95
273.787	3.94
274.16	3.86
274.533	4.05
274.906	3.95
275.279	3.98
275.653	4.02
276.026	3.91
276.399	3.98
276.772	4.19
277.145	4.22
277.518	4.21
277.891	4.18
278.263	4.16
278.636	4.25
279.009	4.27
279.382	4.04
279.755	3.94
280.127	3.88
280.5	4.09
280.872	4.16
281.245	4.28
281.617	4.17
281.99	4.39
282.362	4.32
282.735	4.15
283.107	4.01
283.479	3.98
283.852	4
284.224	4.06
284.596	3.76
284.968	3.77
285.34	3.83
285.713	3.74
286.085	3.6
286.457	3.42
286.829	3.33
287.201	3.38
287.572	3.39
287.944	3.36
288.316	3.36
288.688	3.23
289.06	3.11
289.431	3.26
289.803	3.18
290.175	3.13
290.546	3.13
290.918	3.23
291.289	3.13
291.661	3.14
292.032	3.18
292.403	3.14
292.775	3.23
293.146	3.17
293.517	3.36
293.889	3.54
294.26	3.79
294.631	3.96
295.002	4.14
295.373	4.06
295.744	4.09
296.115	3.95
296.486	3.89
296.857	4
297.228	3.95
297.599	3.93
297.97	4.01
298.34	4.07
298.711	4.05
299.082	4.27
299.452	4.35
299.823	4.28
300.194	4.42
300.564	4.28
300.935	4.45
301.305	4.36
301.676	4.16
302.046	3.98
302.416	3.94
302.787	3.91
303.157	3.94
303.527	4.07
303.897	4.02
304.267	4.01
304.637	3.98
305.008	3.95
305.378	4.03
305.748	4.02
306.117	4.05
306.487	4.09
306.857	4.03
307.227	4.09
307.597	4.09
307.967	4.12
308.336	4.2
308.706	4.02
309.076	4.12
309.445	4.25
309.815	4.25
310.184	4.17
310.554	4.04
310.923	4.08
311.293	3.97
311.662	4.11
312.031	4.22
312.401	4.19
312.77	4.27
313.139	4.18
313.508	4.14
313.877	4.16
314.246	4.02
314.616	4
314.985	3.88
315.353	3.83
315.722	4.03
316.091	4.11
316.46	4.22
316.829	4.03
317.198	4.06
317.567	4.34
317.935	4.46
318.304	4.65
318.672	4.63
319.041	4.71
319.41	4.61
319.778	4.57
320.147	4.63
320.515	4.45
320.883	4.51
321.252	4.57
321.62	4.61
321.988	4.64
322.357	4.55
322.725	4.59
323.093	4.65
323.461	4.39
323.829	4.39
324.197	4.4
324.565	4.38
324.933	4.26
325.301	4.01
325.669	3.9
326.037	3.81
326.405	3.67
326.772	3.57
327.14	3.63
327.508	3.58
327.875	3.52
328.243	3.58
328.61	3.64
328.978	3.62
329.346	3.52
329.713	3.73
330.08	3.85
330.448	3.74
330.815	3.73
331.182	3.69
331.55	3.65
331.917	3.52
332.284	3.68
332.651	3.63
333.018	3.73
333.385	3.83
333.752	3.84
334.119	3.97
334.486	4.03
334.853	4.04
335.22	4.02
335.587	3.95
335.954	4
336.32	3.99
336.687	4.01
337.054	4.1
337.42	4
337.787	3.81
338.153	3.86
338.52	3.97
338.886	4.08
339.253	4.07
339.619	4.17
339.986	4.14
340.352	4.29
340.718	4.27
341.084	4.3
341.451	4.31
341.817	4.44
342.183	4.43
342.549	4.58
342.915	4.71
343.281	4.78
343.647	4.7
344.013	4.68
344.379	4.61
344.745	4.6
345.11	4.56
345.476	4.64
345.842	4.66
346.208	4.67
346.573	4.63
346.939	4.59
347.304	4.59
347.67	4.54
348.035	4.39
348.401	4.5
348.766	4.44
349.132	4.44
349.497	4.37
349.862	4.46
350.228	4.28
350.593	4.25
350.958	4.23
351.323	4.21
351.688	4.17
352.053	4.19
352.418	4.2
352.783	4.22
353.148	4.31
353.513	4.31
353.878	4.21
354.243	4.16
354.608	4.3
354.972	4.3
355.337	4.2
355.702	4.19
356.066	4.2
356.431	4.25
356.795	4.31
357.16	4.25
357.524	4.13
357.889	4.16
358.253	4.1
358.618	4.11
358.982	4.15
359.346	4.17
359.71	4.2
360.075	4.21
360.439	4.25
360.803	4.18
361.167	4.16
361.531	4.21
361.895	4.24
362.259	4.17
362.623	4.19
362.987	4.31
363.351	4.39
363.714	4.28
364.078	4.25
364.442	4.22
364.806	4.23
365.169	4.25
365.533	4.29
365.896	4.4
366.26	4.4
366.623	4.4
366.987	4.41
367.35	4.44
367.714	4.4
368.077	4.37
368.44	4.41
368.803	4.42
369.167	4.3
369.53	4.39
369.893	4.38
370.256	4.32
370.619	4.25
370.982	4.19
371.345	4.28
371.708	4.32
372.071	4.3
372.434	4.27
372.797	4.28
373.159	4.23
373.522	4.11
373.885	4.14
374.247	4.17
374.61	4.17
374.973	4.15
375.335	4.22
375.698	4.23
376.06	4.21
376.423	4.24
376.785	4.26
377.147	4.16
377.51	4.18
377.872	4.21
378.234	4.26
378.596	4.29
378.958	4.27
379.321	4.24
379.683	4.28
380.045	4.35
380.407	4.36
380.769	4.34
381.13	4.39
381.492	4.36
381.854	4.34
382.216	4.43
382.578	4.47
382.939	4.4
383.301	4.43
383.663	4.46
384.024	4.43
384.386	4.45
384.747	4.42
385.109	4.41
385.47	4.43
385.832	4.41
386.193	4.38
386.554	4.37
386.916	4.34
387.277	4.33
387.638	4.31
387.999	4.31
388.36	4.37
388.721	4.36
389.082	4.39
389.443	4.4
389.804	4.33
390.165	4.31
390.526	4.35
390.887	4.33
391.248	4.34
391.609	4.35
391.969	4.35
392.33	4.4
392.691	4.42
393.051	4.37
393.412	4.42
393.772	4.46
394.133	4.47
394.493	4.49
394.854	4.5
395.214	4.5
395.574	4.49
395.935	4.45
396.295	4.44
396.655	4.42
397.015	4.42
397.376	4.43
397.736	4.42
398.096	4.4
398.456	4.39
398.816	4.38
399.176	4.36
399.535	4.37
399.895	4.4
400.255	4.39
400.615	4.39
400.975	4.33
401.334	4.34
401.694	4.34
402.054	4.33
402.413	4.33
402.773	4.31
403.132	4.31
403.492	4.35
403.851	4.35
404.211	4.38
404.57	4.36
404.929	4.31
405.288	4.32
405.648	4.31
406.007	4.34
406.366	4.31
406.725	4.32
407.084	4.32
407.443	4.31
407.802	4.31
408.161	4.35
408.52	4.38
408.879	4.38
409.238	4.39
409.596	4.37
409.955	4.37
410.314	4.38
410.673	4.41
411.031	4.38
411.39	4.39
411.748	4.36
412.107	4.36
412.465	4.38
412.824	4.37
413.182	4.37
413.54	4.35
413.899	4.36
414.257	4.36
414.615	4.36
414.974	4.32
415.332	4.33
415.69	4.35
416.048	4.34
416.406	4.3
416.764	4.31
417.122	4.33
417.48	4.32
417.838	4.32
418.195	4.31
418.553	4.32
418.911	4.31
419.269	4.32
419.626	4.34
419.984	4.33
420.342	4.33
420.699	4.34
421.057	4.34
421.414	4.36
421.772	4.36
422.129	4.35
422.486	4.37
422.844	4.36
423.201	4.35
423.558	4.34
423.915	4.36
424.273	4.37
424.63	4.36
424.987	4.35
425.344	4.37
425.701	4.35
426.058	4.35
426.415	4.36
426.772	4.35
427.128	4.35
427.485	4.36
427.842	4.37
428.199	4.35
428.555	4.35
428.912	4.34
429.269	4.36
429.625	4.37
429.982	4.37
430.338	4.38
430.695	4.37
431.051	4.36
431.407	4.35
431.764	4.34
432.12	4.35
432.476	4.36
432.832	4.36
433.189	4.37
433.545	4.37
433.901	4.38
434.257	4.38
434.613	4.39
434.969	4.36
435.325	4.39
435.681	4.41
436.036	4.41
436.392	4.4
436.748	4.39
437.104	4.4
437.459	4.38
437.815	4.38
438.171	4.38
438.526	4.39
438.882	4.39
439.237	4.39
439.593	4.41
439.948	4.41
440.304	4.39
440.659	4.39
441.014	4.39
441.369	4.38
441.725	4.38
442.08	4.36
442.435	4.37
442.79	4.33
443.145	4.33
443.5	4.33
443.855	4.32
444.21	4.32
444.565	4.32
444.92	4.33
445.275	4.33
445.629	4.32
445.984	4.33
446.339	4.35
446.693	4.33
447.048	4.3
447.403	4.32
447.757	4.32
448.112	4.32
448.466	4.31
448.82	4.33
449.175	4.33
449.529	4.34
449.883	4.35
450.238	4.37
450.592	4.37
450.946	4.37
451.3	4.4
451.654	4.39
452.008	4.41
452.362	4.4
452.716	4.4
453.07	4.43
453.424	4.44
453.778	4.43
454.132	4.45
454.486	4.46
454.839	4.46
455.193	4.47
455.547	4.47
455.9	4.49
456.254	4.48
456.607	4.5
456.961	4.49
457.314	4.48
457.668	4.5
458.021	4.51
458.375	4.48
458.728	4.47
459.081	4.47
459.434	4.48
459.787	4.48
460.141	4.48
460.494	4.47
460.847	4.45
461.2	4.46
461.553	4.47
461.906	4.48
462.259	4.45
462.611	4.46
462.964	4.44
463.317	4.46
463.67	4.49
464.022	4.51
464.375	4.49
464.728	4.5
465.08	4.48
465.433	4.48
465.785	4.51
466.138	4.51
466.49	4.54
466.843	4.54
467.195	4.53
467.547	4.53
467.899	4.51
468.252	4.52
468.604	4.52
468.956	4.5
469.308	4.5
469.66	4.55
470.012	4.53
470.364	4.55
470.716	4.52
471.068	4.5
471.42	4.5
471.772	4.52
472.123	4.53
472.475	4.54
472.827	4.54
473.178	4.54
473.53	4.54
473.882	4.53
474.233	4.51
474.585	4.51
474.936	4.52
475.288	4.54
475.639	4.53
475.99	4.5
476.342	4.52
476.693	4.55
477.044	4.53
477.395	4.53
477.746	4.54
478.097	4.55
478.448	4.53
478.8	4.52
479.15	4.53
479.501	4.53
479.852	4.53
480.203	4.54
480.554	4.56
480.905	4.55
481.255	4.57
481.606	4.58
481.957	4.59
482.307	4.59
482.658	4.61
483.009	4.61
483.359	4.61
483.709	4.61
484.06	4.6
484.41	4.61
484.761	4.62
485.111	4.62
485.461	4.61
485.811	4.61
486.162	4.6
486.512	4.61
486.862	4.62
487.212	4.62
487.562	4.61
487.912	4.61
488.262	4.63
488.612	4.62
488.961	4.62
489.311	4.62
489.661	4.61
490.011	4.59
490.36	4.6
490.71	4.6
491.06	4.6
491.409	4.61
491.759	4.6
492.108	4.58
492.458	4.58
492.807	4.6
493.157	4.62
493.506	4.62
493.855	4.61
494.204	4.6
494.554	4.59
494.903	4.6
495.252	4.6
495.601	4.58
495.95	4.59
496.299	4.57
496.648	4.57
496.997	4.59
497.346	4.62
497.695	4.61
498.043	4.64
498.392	4.65
498.741	4.67
499.09	4.68
499.438	4.69
499.787	4.7
500.135	4.69
500.484	4.69
500.832	4.69
501.181	4.7
501.529	4.75
501.878	4.75
502.226	4.79
502.574	4.77
502.923	4.78
503.271	4.77
503.619	4.81
503.967	4.8
504.315	4.8
504.663	4.79
505.011	4.8
505.359	4.78
505.707	4.75
506.055	4.75
506.403	4.75
506.751	4.75
507.098	4.76
507.446	4.79
507.794	4.8
508.141	4.82
508.489	4.83
508.837	4.8
509.184	4.83
509.531	4.83
509.879	4.85
510.226	4.83
510.574	4.84
510.921	4.82
511.268	4.84
511.616	4.86
511.963	4.87
512.31	4.9
512.657	4.92
513.004	4.94
513.351	4.95
513.698	4.96
514.045	4.97
514.392	4.96
514.739	4.95
515.086	4.96
515.432	4.98
515.779	4.95
516.126	4.98
516.473	4.96
516.819	4.95
517.166	4.95
517.512	4.97
517.859	4.97
518.205	4.99
518.552	4.99
518.898	4.98
519.245	4.97
519.591	4.97
519.937	4.98
520.283	4.98
520.629	4.97
520.976	4.97
521.322	4.99
521.668	4.97
522.014	4.97
522.36	4.97
522.706	4.95
523.052	4.98
523.398	4.97
523.743	5
524.089	5.02
524.435	5.01
524.781	5.02
525.126	5.02
525.472	5.05
525.817	5.05
526.163	5.05
526.509	5.07
526.854	5.05
527.199	5.04
527.545	5.04
527.89	5.05
528.235	5.05
528.581	5.03
528.926	5.05
529.271	5.05
529.616	5.06
529.961	5.07
530.306	5.05
530.651	5.04
530.996	5.03
531.341	5.03
531.686	5.04
532.031	5.04
532.376	5.03
532.721	5.02
533.065	5.02
533.41	5.02
533.755	5.01
534.099	5.01
534.444	5.02
534.788	5.02
535.133	5.02
535.477	5.02
535.822	5.04
536.166	5.03
536.51	5.05
536.855	5.05
537.199	5.05
537.543	5.08
537.887	5.09
538.231	5.09
538.576	5.1
538.92	5.11
539.264	5.11
539.608	5.13
539.951	5.14
540.295	5.14
540.639	5.14
540.983	5.15
541.327	5.16
541.671	5.17
542.014	5.17
542.358	5.17
542.701	5.17
543.045	5.16
543.389	5.18
543.732	5.16
544.075	5.17
544.419	5.15
544.762	5.14
545.105	5.12
545.449	5.13
545.792	5.13
546.135	5.12
546.478	5.11
546.821	5.13
547.165	5.1
547.508	5.1
547.851	5.13
548.194	5.13
548.536	5.14
548.879	5.11
549.222	5.12
549.565	5.13
549.908	5.13
550.25	5.14
550.593	5.12
550.936	5.11
551.278	5.08
551.621	5.12
551.963	5.17
552.306	5.18
552.648	5.17
552.991	5.16
553.333	5.15
553.675	5.2
554.017	5.17
554.36	5.18
554.702	5.16
555.044	5.13
555.386	5.15
555.728	5.17
556.07	5.16
556.412	5.16
556.754	5.13
557.096	5.13
557.438	5.11
557.78	5.14
558.121	5.16
558.463	5.19
558.805	5.18
559.147	5.16
559.488	5.16
559.83	5.15
560.171	5.14
560.513	5.11
560.854	5.09
561.196	5.13
561.537	5.18
561.878	5.22
562.22	5.23
562.561	5.21
562.902	5.19
563.243	5.23
563.584	5.19
563.925	5.22
564.266	5.21
564.607	5.22
564.948	5.19
565.289	5.2
565.63	5.18
565.971	5.18
566.312	5.18
566.653	5.2
566.993	5.24
567.334	5.25
567.675	5.3
568.015	5.28
568.356	5.23
568.696	5.22
569.037	5.21
569.377	5.2
569.718	5.22
570.058	5.21
570.398	5.18
570.739	5.17
571.079	5.19
571.419	5.18
571.759	5.19
572.099	5.18
572.439	5.16
572.779	5.19
573.119	5.21
573.459	5.22
573.799	5.21
574.139	5.18
574.479	5.19
574.819	5.17
575.158	5.17
575.498	5.21
575.838	5.19
576.177	5.2
576.517	5.21
576.856	5.2
577.196	5.18
577.535	5.18
577.875	5.21
578.214	5.2
578.553	5.21
578.893	5.2
579.232	5.24
579.571	5.27
579.91	5.27
580.25	5.24
580.589	5.21
580.928	5.2
581.267	5.17
581.606	5.15
581.945	5.11
582.283	5.12
582.622	5.07
582.961	5.08
583.3	5.06
583.639	5.01
583.977	5.01
584.316	5.03
584.654	5.07
584.993	5.04
585.332	5.05
585.67	5.09
586.008	5.15
586.347	5.11
586.685	5.06
587.024	5.03
587.362	5.07
587.7	5.09
588.038	5.13
588.376	5.21
588.715	5.25
589.053	5.29
589.391	5.3
589.729	5.32
590.067	5.29
590.404	5.34
590.742	5.38
591.08	5.4
591.418	5.42
591.756	5.37
592.093	5.45
592.431	5.43
592.769	5.39
593.106	5.33
593.444	5.39
593.781	5.46
594.119	5.52
594.456	5.45
594.793	5.46
595.131	5.44
595.468	5.43
595.805	5.41
596.143	5.43
596.48	5.42
596.817	5.43
597.154	5.43
597.491	5.41
597.828	5.38
598.165	5.39
598.502	5.36
598.839	5.43
599.176	5.4
599.512	5.41
599.849	5.42
600.186	5.42
600.523	5.4
600.859	5.4
601.196	5.36
601.532	5.37
601.869	5.38
602.205	5.37
602.542	5.39
602.878	5.4
603.215	5.42
603.551	5.4
603.887	5.41
604.223	5.42
604.56	5.4
604.896	5.46
605.232	5.42
605.568	5.45
605.904	5.43
606.24	5.45
606.576	5.46
606.912	5.48
607.248	5.52
607.583	5.53
607.919	5.5
608.255	5.51
608.591	5.55
608.926	5.52
609.262	5.52
609.597	5.52
609.933	5.5
610.268	5.5
610.604	5.59
610.939	5.62
611.275	5.63
611.61	5.63
611.945	5.58
612.281	5.64
612.616	5.65
612.951	5.66
613.286	5.66
613.621	5.67
613.956	5.66
614.291	5.64
614.626	5.62
614.961	5.64
615.296	5.65
615.631	5.66
615.966	5.71
616.3	5.78
616.635	5.78
616.97	5.77
617.304	5.76
617.639	5.71
617.973	5.66
618.308	5.7
618.642	5.71
618.977	5.74
619.311	5.73
619.646	5.78
619.98	5.76
620.314	5.77
620.648	5.76
620.983	5.75
621.317	5.77
621.651	5.79
621.985	5.74
622.319	5.67
622.653	5.67
622.987	5.63
623.321	5.62
623.655	5.61
623.988	5.63
624.322	5.64
624.656	5.65
624.99	5.64
625.323	5.62
625.657	5.67
625.99	5.67
626.324	5.66
626.657	5.61
626.991	5.63
627.324	5.59
627.658	5.58
627.991	5.64
628.324	5.63
628.657	5.62
628.991	5.67
629.324	5.7
629.657	5.7
629.99	5.73
630.323	5.73
630.656	5.68
630.989	5.69
631.322	5.67
631.655	5.61
631.987	5.69
632.32	5.7
632.653	5.68
632.986	5.64
633.318	5.69
633.651	5.71
633.984	5.68
634.316	5.73
634.649	5.72
634.981	5.64
635.313	5.67
635.646	5.64
635.978	5.67
636.31	5.69
636.643	5.67
636.975	5.68
637.307	5.63
637.639	5.69
637.971	5.71
638.303	5.65
638.635	5.67
638.967	5.62
639.299	5.61
639.631	5.57
639.963	5.61
640.295	5.55
640.626	5.5
640.958	5.55
641.29	5.53
641.621	5.62
641.953	5.63
642.285	5.61
642.616	5.68
642.948	5.62
643.279	5.63
643.61	5.66
643.942	5.66
644.273	5.74
644.604	5.76
644.936	5.8
645.267	5.87
645.598	5.94
645.929	5.87
646.26	5.88
646.591	5.93
646.922	5.94
647.253	5.99
647.584	6.05
647.915	5.92
648.245	5.98
648.576	5.92
648.907	5.96
649.238	5.95
649.568	5.94
649.899	5.9
650.229	5.94
650.56	5.95
650.89	5.97
651.221	5.97
651.551	5.9
651.882	5.83
652.212	5.85
652.542	5.86
652.872	5.97
653.203	6.01
653.533	6
653.863	5.99
654.193	5.95
654.523	5.89
654.853	6.03
655.183	6
655.513	6.06
655.843	6.06
656.172	6.15
656.502	6.07
656.832	6.09
657.162	6.06
657.491	6.09
657.821	6.06
658.15	6.05
658.48	6.11
658.809	6.16
659.139	6.21
659.468	6.2
659.798	6.22
660.127	6.15
660.456	6.08
660.785	6.1
661.115	6.18
661.444	6.26
661.773	6.31
662.102	6.3
662.431	6.28
662.76	6.25
663.089	6.16
663.418	6.31
663.747	6.39
664.076	6.39
664.404	6.41
664.733	6.43
665.062	6.43
665.39	6.41
665.719	6.38
666.048	6.35
666.376	6.33
666.705	6.3
667.033	6.41
667.362	6.48
667.69	6.53
668.018	6.46
668.347	6.44
668.675	6.35
669.003	6.39
669.331	6.37
669.659	6.34
669.987	6.37
670.315	6.38
670.643	6.36
670.971	6.39
671.299	6.36
671.627	6.38
671.955	6.33
672.283	6.41
672.61	6.37
672.938	6.35
673.266	6.43
673.593	6.37
673.921	6.28
674.249	6.31
674.576	6.26
674.904	6.26
675.231	6.22
675.558	6.33
675.886	6.29
676.213	6.25
676.54	6.26
676.867	6.22
677.195	6.23
677.522	6.2
677.849	6.26
678.176	6.28
678.503	6.23
678.83	6.28
