Data from MVZ_BU8943_Reflection_00002.txt Node
Date: Tue Nov 19 12:08:55 EST 2019
User: vgr7
Spectrometer: USB2G7710
Scans to average: 3
Trigger mode: 4
Integration Time (sec): 2.000000E-2
Electric dark correction enabled: true
Boxcar width: 10
XAxis mode: Wavelengths
Number of Pixels in Spectrum: 2048
>>>>>Begin Spectral Data<<<<<
177.721	-103.4
178.105	-208.51
178.488	57.81
178.871	15.07
179.254	-47.06
179.636	-98.22
180.019	-108.01
180.402	230
180.785	59.74
181.168	140.61
181.55	79.48
181.933	98.68
182.316	98.76
182.698	32600
183.081	-146.99
183.463	254.14
183.846	196.03
184.228	359.49
184.611	-119.84
184.993	-46.36
185.376	-71.81
185.758	-25.44
186.14	-50.33
186.522	-27.28
186.904	-8.29
187.287	14.61
187.669	21.73
188.051	33.65
188.433	-1.61
188.815	-2.35
189.197	-1.65
189.579	-12.94
189.961	-8.22
190.342	-8.7
190.724	-22.06
191.106	-23.96
191.488	-25.25
191.869	-38.67
192.251	-46.52
192.633	-62.28
193.014	-78.47
193.396	-94.09
193.777	-97.38
194.159	-73.98
194.54	-87.57
194.922	-126.57
195.303	-179.86
195.684	-1223.01
196.065	-1035.04
196.447	101600
196.828	918.68
197.209	-4635.29
197.59	115.24
197.971	131.34
198.352	98.97
198.733	218.09
199.114	592.48
199.495	-538.73
199.876	-579.64
200.257	-203
200.638	-208.35
201.018	-272.34
201.399	-152.35
201.78	-187.06
202.16	-210.13
202.541	-312.13
202.922	-702.52
203.302	-618.98
203.683	-545.95
204.063	-196.12
204.444	-245.09
204.824	-193.1
205.204	-200.72
205.585	-130.97
205.965	-175.7
206.345	-195.79
206.725	-174.28
207.106	-158.96
207.486	-132.48
207.866	-122.31
208.246	-81.09
208.626	-114.49
209.006	-219.03
209.386	-317.71
209.766	-294.51
210.145	-287.43
210.525	-498.51
210.905	-696.14
211.285	-710.34
211.664	-266.02
212.044	-1231.68
212.424	-702.01
212.803	479.86
213.183	1027.59
213.562	1006.9
213.942	2312.33
214.321	-1050.25
214.701	5251.16
215.08	7051.61
215.459	-1974.26
215.838	1702.36
216.218	348.82
216.597	504.66
216.976	565.15
217.355	2501.64
217.734	-3044.07
218.113	895.86
218.492	-14309.09
218.871	-772.97
219.25	-902.54
219.629	-1534.45
220.008	-275.99
220.387	-220.38
220.766	-134.63
221.144	-124.77
221.523	-154.76
221.902	-75.43
222.28	-58.31
222.659	-25.21
223.037	-10.25
223.416	-23.33
223.794	-18.4
224.173	-17.2
224.551	-14.67
224.929	-14.53
225.308	-21.28
225.686	-15.02
226.064	-20.02
226.442	-13.69
226.821	-11.8
227.199	-10.32
227.577	-8.75
227.955	-9.25
228.333	-8.49
228.711	-8.48
229.089	-8.65
229.467	-9.18
229.845	-10.41
230.222	-5.75
230.6	-9.8
230.978	-10.06
231.356	-11.11
231.733	-8.74
232.111	-7.51
232.488	-7.4
232.866	-6.46
233.243	-6.31
233.621	-4.88
233.998	-3.24
234.376	-3.89
234.753	-5.32
235.13	-4.82
235.508	-3.66
235.885	-5.75
236.262	-6.2
236.639	-5.94
237.016	-5.19
237.393	-3.86
237.77	-2.65
238.147	-2.63
238.524	-1.62
238.901	-2.79
239.278	-1.83
239.655	-1.22
240.032	-1.61
240.409	-1.2
240.785	-1.7
241.162	-1.25
241.539	-0.7
241.915	-0.71
242.292	0.18
242.668	0.8
243.045	1.53
243.421	1.93
243.798	2.5
244.174	2.88
244.551	3.44
244.927	3.11
245.303	2.94
245.679	2.94
246.056	2.9
246.432	3.03
246.808	3.54
247.184	3.76
247.56	3.51
247.936	3.77
248.312	3.48
248.688	3.64
249.064	3.51
249.44	3.49
249.815	3.7
250.191	3.75
250.567	3.75
250.943	3.62
251.318	3.49
251.694	3.44
252.069	3.33
252.445	2.83
252.82	3.36
253.196	3.46
253.571	3.66
253.947	3.86
254.322	3.73
254.697	3.33
255.073	3.26
255.448	3.19
255.823	2.99
256.198	3.5
256.573	3.91
256.948	4.17
257.323	4.24
257.698	4.03
258.073	3.92
258.448	3.96
258.823	3.76
259.198	3.75
259.573	3.59
259.948	3.63
260.322	3.75
260.697	3.74
261.072	3.55
261.446	3.26
261.821	3.17
262.195	3.31
262.57	3.36
262.944	3.4
263.319	3.62
263.693	3.7
264.067	3.51
264.442	3.4
264.816	3.22
265.19	2.86
265.564	2.82
265.938	2.91
266.313	2.82
266.687	2.99
267.061	2.92
267.435	3.13
267.809	3.14
268.183	3.24
268.556	3.21
268.93	3.42
269.304	3.4
269.678	3.49
270.051	3.24
270.425	3.24
270.799	3.05
271.172	3.15
271.546	3.26
271.919	3.37
272.293	3.29
272.666	3.27
273.04	3.27
273.413	3.48
273.787	3.37
274.16	3.19
274.533	3.24
274.906	3.32
275.279	3.18
275.653	3.32
276.026	3.33
276.399	3.13
276.772	3.36
277.145	3.44
277.518	3.53
277.891	3.6
278.263	3.74
278.636	3.92
279.009	3.69
279.382	3.6
279.755	3.72
280.127	3.72
280.5	3.62
280.872	3.96
281.245	3.9
281.617	3.83
281.99	3.98
282.362	3.81
282.735	3.65
283.107	3.65
283.479	3.68
283.852	3.63
284.224	3.69
284.596	3.47
284.968	3.49
285.34	3.31
285.713	3.46
286.085	3.33
286.457	3.2
286.829	3.14
287.201	3.13
287.572	3.06
287.944	3.22
288.316	3.33
288.688	3.36
289.06	3.31
289.431	3.36
289.803	3.59
290.175	3.62
290.546	3.85
290.918	3.97
291.289	3.69
291.661	3.74
292.032	3.86
292.403	3.83
292.775	3.78
293.146	3.94
293.517	3.87
293.889	3.88
294.26	4.02
294.631	4.03
295.002	4.06
295.373	4.06
295.744	3.89
296.115	3.79
296.486	3.74
296.857	3.79
297.228	3.71
297.599	3.53
297.97	3.63
298.34	3.55
298.711	3.54
299.082	3.63
299.452	3.66
299.823	3.6
300.194	3.63
300.564	3.66
300.935	3.55
301.305	3.51
301.676	3.54
302.046	3.55
302.416	3.79
302.787	3.68
303.157	3.52
303.527	3.65
303.897	3.62
304.267	3.61
304.637	3.48
305.008	3.7
305.378	3.56
305.748	3.51
306.117	3.47
306.487	3.49
306.857	3.51
307.227	3.5
307.597	3.42
307.967	3.4
308.336	3.42
308.706	3.57
309.076	3.56
309.445	3.66
309.815	3.76
310.184	3.56
310.554	3.57
310.923	3.57
311.293	3.41
311.662	3.47
312.031	3.42
312.401	3.36
312.77	3.33
313.139	3.53
313.508	3.49
313.877	3.56
314.246	3.5
314.616	3.59
314.985	3.56
315.353	3.65
315.722	3.8
316.091	3.66
316.46	3.45
316.829	3.42
317.198	3.36
317.567	3.21
317.935	3.19
318.304	3.53
318.672	3.68
319.041	3.86
319.41	3.95
319.778	3.99
320.147	4.09
320.515	4.11
320.883	4.12
321.252	4.11
321.62	3.93
321.988	3.96
322.357	3.85
322.725	3.86
323.093	3.86
323.461	3.87
323.829	3.98
324.197	4.06
324.565	4.16
324.933	4.04
325.301	3.96
325.669	3.99
326.037	3.93
326.405	3.95
326.772	3.94
327.14	3.96
327.508	3.83
327.875	3.93
328.243	3.7
328.61	3.56
328.978	3.59
329.346	3.74
329.713	3.81
330.08	4.01
330.448	4.15
330.815	4.13
331.182	4.04
331.55	4.1
331.917	4.07
332.284	4.15
332.651	4.28
333.018	4.21
333.385	4.28
333.752	4.14
334.119	4.12
334.486	4.07
334.853	3.93
335.22	4.03
335.587	3.98
335.954	4.08
336.32	4.1
336.687	4.22
337.054	4.18
337.42	4.18
337.787	4.06
338.153	3.93
338.52	4
338.886	3.95
339.253	3.99
339.619	4.01
339.986	3.85
340.352	3.84
340.718	4.02
341.084	3.98
341.451	4.22
341.817	4.26
342.183	4.15
342.549	4.18
342.915	4.27
343.281	4.27
343.647	4.28
344.013	4.37
344.379	4.27
344.745	4.36
345.11	4.35
345.476	4.43
345.842	4.42
346.208	4.33
346.573	4.4
346.939	4.32
347.304	4.45
347.67	4.49
348.035	4.37
348.401	4.4
348.766	4.42
349.132	4.28
349.497	4.26
349.862	4.41
350.228	4.45
350.593	4.37
350.958	4.45
351.323	4.49
351.688	4.43
352.053	4.5
352.418	4.45
352.783	4.41
353.148	4.35
353.513	4.35
353.878	4.39
354.243	4.3
354.608	4.42
354.972	4.35
355.337	4.35
355.702	4.46
356.066	4.4
356.431	4.43
356.795	4.45
357.16	4.48
357.524	4.53
357.889	4.52
358.253	4.54
358.618	4.47
358.982	4.43
359.346	4.49
359.71	4.52
360.075	4.6
360.439	4.6
360.803	4.64
361.167	4.63
361.531	4.55
361.895	4.57
362.259	4.6
362.623	4.61
362.987	4.67
363.351	4.6
363.714	4.58
364.078	4.54
364.442	4.59
364.806	4.63
365.169	4.52
365.533	4.56
365.896	4.6
366.26	4.65
366.623	4.6
366.987	4.63
367.35	4.61
367.714	4.49
368.077	4.54
368.44	4.51
368.803	4.46
369.167	4.54
369.53	4.61
369.893	4.55
370.256	4.54
370.619	4.47
370.982	4.51
371.345	4.58
371.708	4.58
372.071	4.53
372.434	4.44
372.797	4.52
373.159	4.46
373.522	4.44
373.885	4.39
374.247	4.44
374.61	4.34
374.973	4.32
375.335	4.34
375.698	4.27
376.06	4.2
376.423	4.22
376.785	4.18
377.147	4.13
377.51	4.11
377.872	4.12
378.234	4.2
378.596	4.21
378.958	4.16
379.321	4.18
379.683	4.2
380.045	4.23
380.407	4.22
380.769	4.21
381.13	4.19
381.492	4.21
381.854	4.24
382.216	4.35
382.578	4.36
382.939	4.39
383.301	4.45
383.663	4.51
384.024	4.56
384.386	4.64
384.747	4.7
385.109	4.7
385.47	4.69
385.832	4.63
386.193	4.66
386.554	4.63
386.916	4.67
387.277	4.65
387.638	4.66
387.999	4.67
388.36	4.67
388.721	4.69
389.082	4.75
389.443	4.75
389.804	4.74
390.165	4.74
390.526	4.71
390.887	4.71
391.248	4.73
391.609	4.76
391.969	4.7
392.33	4.72
392.691	4.69
393.051	4.68
393.412	4.71
393.772	4.71
394.133	4.71
394.493	4.68
394.854	4.71
395.214	4.72
395.574	4.71
395.935	4.79
396.295	4.8
396.655	4.78
397.015	4.74
397.376	4.73
397.736	4.7
398.096	4.72
398.456	4.7
398.816	4.67
399.176	4.64
399.535	4.63
399.895	4.6
400.255	4.61
400.615	4.64
400.975	4.62
401.334	4.6
401.694	4.61
402.054	4.65
402.413	4.64
402.773	4.64
403.132	4.61
403.492	4.53
403.851	4.51
404.211	4.49
404.57	4.54
404.929	4.49
405.288	4.54
405.648	4.54
406.007	4.54
406.366	4.55
406.725	4.54
407.084	4.59
407.443	4.59
407.802	4.61
408.161	4.6
408.52	4.64
408.879	4.63
409.238	4.64
409.596	4.61
409.955	4.62
410.314	4.64
410.673	4.65
411.031	4.67
411.39	4.67
411.748	4.7
412.107	4.66
412.465	4.71
412.824	4.66
413.182	4.67
413.54	4.7
413.899	4.7
414.257	4.73
414.615	4.71
414.974	4.68
415.332	4.7
415.69	4.7
416.048	4.68
416.406	4.67
416.764	4.67
417.122	4.67
417.48	4.67
417.838	4.69
418.195	4.73
418.553	4.75
418.911	4.74
419.269	4.75
419.626	4.75
419.984	4.74
420.342	4.76
420.699	4.74
421.057	4.73
421.414	4.74
421.772	4.75
422.129	4.73
422.486	4.75
422.844	4.75
423.201	4.76
423.558	4.75
423.915	4.77
424.273	4.79
424.63	4.79
424.987	4.76
425.344	4.75
425.701	4.72
426.058	4.72
426.415	4.72
426.772	4.7
427.128	4.69
427.485	4.68
427.842	4.68
428.199	4.69
428.555	4.69
428.912	4.68
429.269	4.66
429.625	4.67
429.982	4.67
430.338	4.68
430.695	4.68
431.051	4.68
431.407	4.66
431.764	4.65
432.12	4.66
432.476	4.7
432.832	4.71
433.189	4.71
433.545	4.71
433.901	4.73
434.257	4.74
434.613	4.74
434.969	4.77
435.325	4.78
435.681	4.77
436.036	4.77
436.392	4.75
436.748	4.74
437.104	4.74
437.459	4.71
437.815	4.69
438.171	4.68
438.526	4.68
438.882	4.72
439.237	4.74
439.593	4.75
439.948	4.73
440.304	4.7
440.659	4.69
441.014	4.67
441.369	4.68
441.725	4.67
442.08	4.68
442.435	4.69
442.79	4.69
443.145	4.7
443.5	4.71
443.855	4.73
444.21	4.74
444.565	4.75
444.92	4.78
445.275	4.79
445.629	4.8
445.984	4.8
446.339	4.8
446.693	4.77
447.048	4.74
447.403	4.74
447.757	4.75
448.112	4.78
448.466	4.78
448.82	4.77
449.175	4.78
449.529	4.78
449.883	4.76
450.238	4.75
450.592	4.75
450.946	4.76
451.3	4.77
451.654	4.76
452.008	4.74
452.362	4.75
452.716	4.74
453.07	4.72
453.424	4.72
453.778	4.71
454.132	4.74
454.486	4.78
454.839	4.81
455.193	4.83
455.547	4.81
455.9	4.82
456.254	4.83
456.607	4.83
456.961	4.82
457.314	4.82
457.668	4.83
458.021	4.81
458.375	4.79
458.728	4.78
459.081	4.8
459.434	4.81
459.787	4.8
460.141	4.78
460.494	4.81
460.847	4.8
461.2	4.8
461.553	4.8
461.906	4.8
462.259	4.77
462.611	4.76
462.964	4.76
463.317	4.77
463.67	4.78
464.022	4.78
464.375	4.8
464.728	4.79
465.08	4.81
465.433	4.85
465.785	4.83
466.138	4.86
466.49	4.88
466.843	4.87
467.195	4.88
467.547	4.91
467.899	4.91
468.252	4.93
468.604	4.94
468.956	4.95
469.308	4.96
469.66	4.99
470.012	5.01
470.364	5.02
470.716	5.02
471.068	5.02
471.42	5.01
471.772	4.99
472.123	4.98
472.475	4.96
472.827	4.97
473.178	5
473.53	4.97
473.882	4.95
474.233	4.95
474.585	4.95
474.936	4.95
475.288	4.93
475.639	4.93
475.99	4.91
476.342	4.9
476.693	4.89
477.044	4.88
477.395	4.88
477.746	4.87
478.097	4.88
478.448	4.89
478.8	4.89
479.15	4.9
479.501	4.92
479.852	4.94
480.203	4.95
480.554	4.95
480.905	4.95
481.255	4.95
481.606	4.96
481.957	4.96
482.307	4.96
482.658	4.98
483.009	4.98
483.359	4.99
483.709	5
484.06	5.01
484.41	5.01
484.761	5.01
485.111	5.01
485.461	5.01
485.811	5.02
486.162	5.02
486.512	5.03
486.862	5.04
487.212	5.03
487.562	5.02
487.912	5.02
488.262	5.02
488.612	5.02
488.961	5.03
489.311	5.04
489.661	5.05
490.011	5.04
490.36	5.05
490.71	5.04
491.06	5.03
491.409	5.01
491.759	5.02
492.108	5.02
492.458	5.03
492.807	5.01
493.157	5
493.506	5.01
493.855	5.01
494.204	5
494.554	5.03
494.903	5.04
495.252	5.04
495.601	5.07
495.95	5.08
496.299	5.09
496.648	5.1
496.997	5.11
497.346	5.12
497.695	5.13
498.043	5.16
498.392	5.19
498.741	5.2
499.09	5.21
499.438	5.24
499.787	5.25
500.135	5.3
500.484	5.32
500.832	5.3
501.181	5.31
501.529	5.34
501.878	5.3
502.226	5.32
502.574	5.34
502.923	5.33
503.271	5.35
503.619	5.34
503.967	5.32
504.315	5.32
504.663	5.32
505.011	5.33
505.359	5.32
505.707	5.34
506.055	5.37
506.403	5.38
506.751	5.37
507.098	5.38
507.446	5.4
507.794	5.41
508.141	5.45
508.489	5.46
508.837	5.46
509.184	5.49
509.531	5.5
509.879	5.5
510.226	5.5
510.574	5.52
510.921	5.51
511.268	5.54
511.616	5.55
511.963	5.56
512.31	5.57
512.657	5.57
513.004	5.55
513.351	5.56
513.698	5.56
514.045	5.58
514.392	5.59
514.739	5.59
515.086	5.62
515.432	5.64
515.779	5.63
516.126	5.66
516.473	5.65
516.819	5.67
517.166	5.69
517.512	5.72
517.859	5.73
518.205	5.75
518.552	5.76
518.898	5.74
519.245	5.77
519.591	5.79
519.937	5.79
520.283	5.82
520.629	5.84
520.976	5.82
521.322	5.82
521.668	5.83
522.014	5.84
522.36	5.83
522.706	5.82
523.052	5.84
523.398	5.83
523.743	5.84
524.089	5.84
524.435	5.86
524.781	5.86
525.126	5.85
525.472	5.87
525.817	5.87
526.163	5.92
526.509	5.92
526.854	5.93
527.199	5.94
527.545	5.94
527.89	5.94
528.235	5.96
528.581	5.97
528.926	5.96
529.271	5.95
529.616	5.96
529.961	5.97
530.306	5.98
530.651	5.99
530.996	6
531.341	6.02
531.686	6.02
532.031	6.02
532.376	6.05
532.721	6.06
533.065	6.08
533.41	6.05
533.755	6.04
534.099	6.03
534.444	6.03
534.788	6.04
535.133	6.04
535.477	6.06
535.822	6.06
536.166	6.08
536.51	6.1
536.855	6.1
537.199	6.12
537.543	6.13
537.887	6.13
538.231	6.14
538.576	6.15
538.92	6.15
539.264	6.16
539.608	6.17
539.951	6.17
540.295	6.17
540.639	6.19
540.983	6.22
541.327	6.22
541.671	6.25
542.014	6.25
542.358	6.24
542.701	6.25
543.045	6.27
543.389	6.26
543.732	6.26
544.075	6.27
544.419	6.28
544.762	6.27
545.105	6.28
545.449	6.28
545.792	6.28
546.135	6.29
546.478	6.28
546.821	6.27
547.165	6.26
547.508	6.25
547.851	6.24
548.194	6.25
548.536	6.26
548.879	6.22
549.222	6.24
549.565	6.24
549.908	6.21
550.25	6.2
550.593	6.21
550.936	6.22
551.278	6.24
551.621	6.24
551.963	6.27
552.306	6.24
552.648	6.23
552.991	6.22
553.333	6.21
553.675	6.24
554.017	6.21
554.36	6.22
554.702	6.23
555.044	6.22
555.386	6.18
555.728	6.22
556.07	6.23
556.412	6.21
556.754	6.23
557.096	6.24
557.438	6.24
557.78	6.23
558.121	6.24
558.463	6.26
558.805	6.24
559.147	6.2
559.488	6.2
559.83	6.22
560.171	6.21
560.513	6.21
560.854	6.2
561.196	6.23
561.537	6.22
561.878	6.26
562.22	6.28
562.561	6.3
562.902	6.29
563.243	6.29
563.584	6.3
563.925	6.32
564.266	6.34
564.607	6.34
564.948	6.35
565.289	6.35
565.63	6.31
565.971	6.33
566.312	6.34
566.653	6.39
566.993	6.37
567.334	6.39
567.675	6.41
568.015	6.43
568.356	6.42
568.696	6.45
569.037	6.47
569.377	6.48
569.718	6.46
570.058	6.43
570.398	6.4
570.739	6.42
571.079	6.4
571.419	6.41
571.759	6.39
572.099	6.4
572.439	6.38
572.779	6.43
573.119	6.4
573.459	6.42
573.799	6.38
574.139	6.38
574.479	6.37
574.819	6.35
575.158	6.33
575.498	6.33
575.838	6.31
576.177	6.27
576.517	6.28
576.856	6.33
577.196	6.35
577.535	6.38
577.875	6.34
578.214	6.33
578.553	6.28
578.893	6.3
579.232	6.32
579.571	6.36
579.91	6.33
580.25	6.34
580.589	6.31
580.928	6.36
581.267	6.36
581.606	6.37
581.945	6.36
582.283	6.4
582.622	6.38
582.961	6.36
583.3	6.4
583.639	6.4
583.977	6.35
584.316	6.36
584.654	6.37
584.993	6.43
585.332	6.43
585.67	6.47
586.008	6.47
586.347	6.47
586.685	6.39
587.024	6.38
587.362	6.42
587.7	6.51
588.038	6.53
588.376	6.57
588.715	6.58
589.053	6.63
589.391	6.6
589.729	6.62
590.067	6.67
590.404	6.61
590.742	6.61
591.08	6.64
591.418	6.66
591.756	6.67
592.093	6.66
592.431	6.71
592.769	6.7
593.106	6.75
593.444	6.75
593.781	6.81
594.119	6.83
594.456	6.84
594.793	6.76
595.131	6.73
595.468	6.72
595.805	6.71
596.143	6.72
596.48	6.75
596.817	6.76
597.154	6.76
597.491	6.8
597.828	6.81
598.165	6.78
598.502	6.71
598.839	6.72
599.176	6.73
599.512	6.71
599.849	6.76
600.186	6.71
600.523	6.71
600.859	6.73
601.196	6.74
601.532	6.7
601.869	6.74
602.205	6.73
602.542	6.73
602.878	6.77
603.215	6.76
603.551	6.75
603.887	6.74
604.223	6.7
604.56	6.69
604.896	6.68
605.232	6.69
605.568	6.76
605.904	6.74
606.24	6.73
606.576	6.76
606.912	6.71
607.248	6.75
607.583	6.77
607.919	6.72
608.255	6.69
608.591	6.73
608.926	6.74
609.262	6.76
609.597	6.74
609.933	6.7
610.268	6.73
610.604	6.72
610.939	6.77
611.275	6.78
611.61	6.8
611.945	6.77
612.281	6.86
612.616	6.8
612.951	6.86
613.286	6.83
613.621	6.8
613.956	6.81
614.291	6.76
614.626	6.72
614.961	6.76
615.296	6.81
615.631	6.78
615.966	6.75
616.3	6.81
616.635	6.86
616.97	6.86
617.304	6.84
617.639	6.82
617.973	6.73
618.308	6.79
618.642	6.75
618.977	6.74
619.311	6.64
619.646	6.67
619.98	6.59
620.314	6.62
620.648	6.62
620.983	6.63
621.317	6.66
621.651	6.65
621.985	6.68
622.319	6.65
622.653	6.68
622.987	6.69
623.321	6.63
623.655	6.63
623.988	6.64
624.322	6.68
624.656	6.74
624.99	6.75
625.323	6.72
625.657	6.76
625.99	6.85
626.324	6.85
626.657	6.84
626.991	6.85
627.324	6.83
627.658	6.83
627.991	6.83
628.324	6.77
628.657	6.76
628.991	6.75
629.324	6.76
629.657	6.75
629.99	6.75
630.323	6.77
630.656	6.78
630.989	6.74
631.322	6.71
631.655	6.65
631.987	6.67
632.32	6.72
632.653	6.74
632.986	6.72
633.318	6.8
633.651	6.83
633.984	6.88
634.316	6.88
634.649	6.87
634.981	6.89
635.313	6.96
635.646	7.01
635.978	6.99
636.31	6.95
636.643	6.93
636.975	6.96
637.307	6.95
637.639	6.98
637.971	7.08
638.303	7.04
638.635	7.04
638.967	7.08
639.299	7.04
639.631	7.01
639.963	6.96
640.295	6.95
640.626	6.93
640.958	6.95
641.29	6.97
641.621	7.03
641.953	6.95
642.285	6.96
642.616	6.96
642.948	6.96
643.279	7.02
643.61	7.09
643.942	7
644.273	7.04
644.604	7
644.936	6.95
645.267	6.98
645.598	7.07
645.929	7.09
646.26	7.07
646.591	7.08
646.922	7.16
647.253	7.18
647.584	7.13
647.915	7.08
648.245	7.13
648.576	7.1
648.907	7.16
649.238	7.12
649.568	7.09
649.899	7.11
650.229	7.12
650.56	7.13
650.89	7.19
651.221	7.12
651.551	7.13
651.882	7.1
652.212	7.18
652.542	7.12
652.872	7.04
653.203	7.09
653.533	7.13
653.863	7.12
654.193	7.03
654.523	7.04
654.853	7.07
655.183	7.11
655.513	7.17
655.843	7.17
656.172	7.23
656.502	7.2
656.832	7.21
657.162	7.12
657.491	7.18
657.821	7.13
658.15	7.15
658.48	7.21
658.809	7.25
659.139	7.18
659.468	7.14
659.798	7.2
660.127	7.18
660.456	7.14
660.785	7.13
661.115	7.21
661.444	7.29
661.773	7.25
662.102	7.14
662.431	7.1
662.76	7.16
663.089	7.22
663.418	7.33
663.747	7.36
664.076	7.48
664.404	7.4
664.733	7.58
665.062	7.49
665.39	7.4
665.719	7.44
666.048	7.39
666.376	7.52
666.705	7.53
667.033	7.48
667.362	7.5
667.69	7.53
668.018	7.54
668.347	7.52
668.675	7.6
669.003	7.69
669.331	7.69
669.659	7.61
669.987	7.56
670.315	7.51
670.643	7.5
670.971	7.46
671.299	7.47
671.627	7.38
671.955	7.49
672.283	7.52
672.61	7.45
672.938	7.55
673.266	7.49
673.593	7.45
673.921	7.56
674.249	7.5
674.576	7.47
674.904	7.45
675.231	7.36
