Data from MVZ_BU8943_Reflection_00001.txt Node
Date: Tue Nov 19 12:08:53 EST 2019
User: vgr7
Spectrometer: USB2G7710
Scans to average: 3
Trigger mode: 4
Integration Time (sec): 2.000000E-2
Electric dark correction enabled: true
Boxcar width: 10
XAxis mode: Wavelengths
Number of Pixels in Spectrum: 2048
>>>>>Begin Spectral Data<<<<<
177.721	-217.67
178.105	-687.23
178.488	238.24
178.871	167.12
179.254	111.76
179.636	-0.59
180.019	30.93
180.402	-30
180.785	-14.29
181.168	-34.52
181.55	-1.51
181.933	23.48
182.316	13.15
182.698	43100
183.081	-815.66
183.463	513.53
183.846	225.83
184.228	340.51
184.611	-184.05
184.993	-72.19
185.376	-94.95
185.758	-118.2
186.14	-151.66
186.522	-94.88
186.904	-103.11
187.287	-74.74
187.669	-57.83
188.051	-96.44
188.433	-76.65
188.815	-64.08
189.197	-74.99
189.579	-53.45
189.961	-68.55
190.342	-77.71
190.724	-93.41
191.106	-91.05
191.488	-98.82
191.869	-115.57
192.251	-171.61
192.633	-181.84
193.014	-202.89
193.396	-252.26
193.777	-218.8
194.159	-187.6
194.54	-210.19
194.922	-201.67
195.303	-233.81
195.684	-1501.77
196.065	-958.39
196.447	136100
196.828	1462.64
197.209	-6664.71
197.59	352.08
197.971	225.34
198.352	120.53
198.733	421.61
199.114	513.53
199.495	-478.03
199.876	-588.62
200.257	-160.79
200.638	-175.18
201.018	-286.02
201.399	-127.02
201.78	-158.87
202.16	-297.47
202.541	-418.83
202.922	-790.76
203.302	-520.44
203.683	-424.32
204.063	-152.43
204.444	-165.06
204.824	-137.24
205.204	-192.64
205.585	-91.87
205.965	-149.67
206.345	-188.49
206.725	-147.61
207.106	-116.32
207.486	-100
207.866	-106.37
208.246	-64.4
208.626	-112.3
209.006	-97.22
209.386	-186.78
209.766	-198.9
210.145	-93.25
210.525	-225.37
210.905	-316.31
211.285	-318.72
211.664	-105.83
212.044	-563.37
212.424	-389.93
212.803	315.55
213.183	686.21
213.562	748.28
213.942	1510.96
214.321	-629.06
214.701	2913.95
215.08	4003.23
215.459	-1157.43
215.838	981.89
216.218	195.76
216.597	221.95
216.976	311.8
217.355	1985.25
217.734	-2459.32
218.113	922.49
218.492	-14718.18
218.871	-1056.76
219.25	-1092.89
219.629	-2000.84
220.008	-345.15
220.387	-233.76
220.766	-135.89
221.144	-123.52
221.523	-179.96
221.902	-103.61
222.28	-91.86
222.659	-74.57
223.037	-84.17
223.416	-86.6
223.794	-58.9
224.173	-56.78
224.551	-58.6
224.929	-57.91
225.308	-51.44
225.686	-37.27
226.064	-32.75
226.442	-22.85
226.821	-15.18
227.199	-13.59
227.577	-8.54
227.955	-8.61
228.333	-15.97
228.711	-13.16
229.089	-15.05
229.467	-14.77
229.845	-17.86
230.222	-14.38
230.6	-14.09
230.978	-11.79
231.356	-10.96
231.733	-12.29
232.111	-9.06
232.488	-5.63
232.866	-1
233.243	0.06
233.621	-1.46
233.998	-3.6
234.376	-4.98
234.753	-8.02
235.13	-9.39
235.508	-9.12
235.885	-10.32
236.262	-8.08
236.639	-10.19
237.016	-7.96
237.393	-4.44
237.77	-3.32
238.147	-1.6
238.524	-0.42
238.901	-0.57
239.278	-0.4
239.655	0.2
240.032	-0.47
240.409	0.04
240.785	0.18
241.162	0.51
241.539	0.89
241.915	1.32
242.292	0.95
242.668	1.8
243.045	3.14
243.421	3.8
243.798	3.77
244.174	4.39
244.551	5.15
244.927	4.86
245.303	4.18
245.679	4.48
246.056	4.2
246.432	4.14
246.808	4.41
247.184	4.39
247.56	4.39
247.936	4.64
248.312	4.82
248.688	4.94
249.064	4.79
249.44	4.52
249.815	4.61
250.191	4.86
250.567	4.59
250.943	4.56
251.318	4.36
251.694	4.24
252.069	3.89
252.445	3.79
252.82	3.9
253.196	3.91
253.571	3.89
253.947	3.81
254.322	3.46
254.697	3.17
255.073	3.38
255.448	3.54
255.823	3.42
256.198	2.86
256.573	2.99
256.948	3.12
257.323	3.24
257.698	3.32
258.073	3.22
258.448	3.49
258.823	2.99
259.198	3.03
259.573	3.14
259.948	3.39
260.322	3.32
260.697	3.46
261.072	3.48
261.446	3.38
261.821	3.25
262.195	3.43
262.57	3.58
262.944	3.48
263.319	3.44
263.693	3.44
264.067	3.38
264.442	3.18
264.816	3.21
265.19	3.22
265.564	2.98
265.938	3.27
266.313	3.23
266.687	3.43
267.061	3.23
267.435	3.43
267.809	3.22
268.183	2.97
268.556	2.98
268.93	3.24
269.304	3.21
269.678	3.3
270.051	3.27
270.425	2.89
270.799	2.68
271.172	2.69
271.546	2.77
271.919	2.82
272.293	2.83
272.666	2.69
273.04	2.73
273.413	2.87
273.787	2.81
274.16	2.69
274.533	2.95
274.906	3.17
275.279	3.02
275.653	3.26
276.026	3.39
276.399	3.35
276.772	3.31
277.145	3.22
277.518	3.27
277.891	3.2
278.263	3.47
278.636	3.6
279.009	3.83
279.382	3.65
279.755	3.72
280.127	3.71
280.5	3.8
280.872	3.76
281.245	3.76
281.617	3.6
281.99	3.88
282.362	3.76
282.735	3.71
283.107	3.46
283.479	3.36
283.852	3.45
284.224	3.34
284.596	3.31
284.968	3.32
285.34	3.3
285.713	3.31
286.085	3.23
286.457	3.41
286.829	3.29
287.201	3.28
287.572	3.3
287.944	3.34
288.316	3.23
288.688	3.26
289.06	3.29
289.431	3.46
289.803	3.35
290.175	3.36
290.546	3.32
290.918	3.62
291.289	3.58
291.661	3.59
292.032	3.58
292.403	3.45
292.775	3.58
293.146	3.74
293.517	3.79
293.889	3.74
294.26	3.53
294.631	3.71
295.002	3.93
295.373	3.97
295.744	3.92
296.115	4.07
296.486	4.12
296.857	4.11
297.228	4.01
297.599	3.89
297.97	3.94
298.34	3.85
298.711	3.83
299.082	3.77
299.452	3.69
299.823	3.83
300.194	3.91
300.564	3.96
300.935	3.91
301.305	3.95
301.676	4.04
302.046	4.25
302.416	4
302.787	4.03
303.157	4.08
303.527	4.22
303.897	3.99
304.267	4.08
304.637	4.21
305.008	4.23
305.378	4.43
305.748	4.22
306.117	4.29
306.487	4.13
306.857	4.22
307.227	4.33
307.597	4.28
307.967	4.37
308.336	4.24
308.706	4.17
309.076	4.2
309.445	4.41
309.815	4.38
310.184	4.42
310.554	4.25
310.923	4.09
311.293	4.01
311.662	4.33
312.031	4.17
312.401	4.03
312.77	4.02
313.139	3.9
313.508	4.02
313.877	4.08
314.246	4.09
314.616	4.09
314.985	3.99
315.353	3.97
315.722	3.99
316.091	4.1
316.46	4.1
316.829	4.21
317.198	4.11
317.567	4.12
317.935	4.11
318.304	4.21
318.672	4.43
319.041	4.28
319.41	4.18
319.778	4.12
320.147	4.15
320.515	4.02
320.883	4.07
321.252	3.97
321.62	4.02
321.988	4.2
322.357	4.19
322.725	4.11
323.093	4.13
323.461	4.14
323.829	4.13
324.197	4.17
324.565	4.07
324.933	4.01
325.301	3.95
325.669	3.98
326.037	3.88
326.405	3.9
326.772	4.02
327.14	3.87
327.508	3.95
327.875	4.03
328.243	4.15
328.61	4.15
328.978	4.2
329.346	4.21
329.713	4.24
330.08	4.22
330.448	4.42
330.815	4.34
331.182	4.25
331.55	4.15
331.917	4.02
332.284	4.04
332.651	3.99
333.018	3.99
333.385	3.96
333.752	3.99
334.119	3.85
334.486	3.87
334.853	3.98
335.22	3.86
335.587	3.86
335.954	3.87
336.32	3.84
336.687	3.84
337.054	3.87
337.42	3.74
337.787	3.85
338.153	3.75
338.52	3.87
338.886	4.04
339.253	4.02
339.619	4.21
339.986	4.19
340.352	4.23
340.718	4.27
341.084	4.37
341.451	4.48
341.817	4.56
342.183	4.41
342.549	4.46
342.915	4.6
343.281	4.62
343.647	4.61
344.013	4.74
344.379	4.73
344.745	4.7
345.11	4.87
345.476	4.79
345.842	4.92
346.208	4.87
346.573	4.68
346.939	4.64
347.304	4.67
347.67	4.67
348.035	4.64
348.401	4.61
348.766	4.56
349.132	4.48
349.497	4.47
349.862	4.59
350.228	4.54
350.593	4.57
350.958	4.63
351.323	4.63
351.688	4.61
352.053	4.7
352.418	4.72
352.783	4.72
353.148	4.74
353.513	4.67
353.878	4.77
354.243	4.86
354.608	4.98
354.972	4.92
355.337	4.91
355.702	4.98
356.066	4.96
356.431	4.94
356.795	5.02
357.16	4.94
357.524	4.94
357.889	4.89
358.253	4.88
358.618	4.87
358.982	4.92
359.346	4.9
359.71	4.88
360.075	4.89
360.439	4.92
360.803	4.98
361.167	5
361.531	4.93
361.895	4.88
362.259	4.93
362.623	4.93
362.987	4.94
363.351	4.91
363.714	5.02
364.078	5.1
364.442	5.09
364.806	5.17
365.169	5.14
365.533	5.18
365.896	5.19
366.26	5.11
366.623	5.04
366.987	5.06
367.35	5.03
367.714	5.04
368.077	4.99
368.44	4.97
368.803	4.89
369.167	4.87
369.53	4.9
369.893	4.87
370.256	4.9
370.619	4.89
370.982	4.94
371.345	4.92
371.708	4.84
372.071	4.76
372.434	4.71
372.797	4.79
373.159	4.75
373.522	4.75
373.885	4.82
374.247	4.9
374.61	4.89
374.973	4.93
375.335	4.93
375.698	4.87
376.06	4.81
376.423	4.83
376.785	4.89
377.147	4.88
377.51	4.89
377.872	4.87
378.234	4.88
378.596	4.82
378.958	4.77
379.321	4.75
379.683	4.78
380.045	4.82
380.407	4.83
380.769	4.85
381.13	4.89
381.492	4.8
381.854	4.77
382.216	4.8
382.578	4.83
382.939	4.82
383.301	4.81
383.663	4.85
384.024	4.9
384.386	4.88
384.747	4.88
385.109	4.88
385.47	4.91
385.832	4.93
386.193	4.97
386.554	4.91
386.916	4.9
387.277	4.92
387.638	4.93
387.999	4.87
388.36	4.84
388.721	4.82
389.082	4.89
389.443	4.92
389.804	4.94
390.165	4.96
390.526	4.93
390.887	4.95
391.248	4.95
391.609	4.98
391.969	5.02
392.33	5.03
392.691	5.01
393.051	4.95
393.412	4.94
393.772	4.94
394.133	5.01
394.493	5.03
394.854	5.02
395.214	5.02
395.574	5.04
395.935	5.08
396.295	5.1
396.655	5.07
397.015	5.08
397.376	5.01
397.736	4.98
398.096	5.01
398.456	4.99
398.816	5.02
399.176	5.01
399.535	4.96
399.895	5
400.255	5.01
400.615	5.1
400.975	5.08
401.334	5.11
401.694	5.06
402.054	5.06
402.413	5.05
402.773	5.08
403.132	5.09
403.492	5.1
403.851	5.08
404.211	5.09
404.57	5.08
404.929	5.11
405.288	5.12
405.648	5.13
406.007	5.13
406.366	5.12
406.725	5.1
407.084	5.13
407.443	5.09
407.802	5.08
408.161	5.03
408.52	5.04
408.879	5.02
409.238	5.03
409.596	5.09
409.955	5.13
410.314	5.09
410.673	5.08
411.031	5.1
411.39	5.1
411.748	5.09
412.107	5.09
412.465	5.08
412.824	5.08
413.182	5.05
413.54	5.05
413.899	5.01
414.257	5
414.615	4.97
414.974	4.99
415.332	4.99
415.69	5
416.048	5.03
416.406	5
416.764	5.03
417.122	4.99
417.48	4.97
417.838	4.98
418.195	5
418.553	4.97
418.911	4.98
419.269	4.98
419.626	4.98
419.984	4.98
420.342	4.99
420.699	4.99
421.057	4.99
421.414	5
421.772	5
422.129	5
422.486	5
422.844	5
423.201	5
423.558	4.99
423.915	5
424.273	4.99
424.63	4.99
424.987	5
425.344	4.98
425.701	4.99
426.058	5
426.415	4.98
426.772	4.99
427.128	4.97
427.485	4.99
427.842	4.98
428.199	4.99
428.555	4.98
428.912	4.98
429.269	4.96
429.625	4.99
429.982	4.99
430.338	4.99
430.695	4.96
431.051	4.97
431.407	4.95
431.764	4.94
432.12	4.94
432.476	4.95
432.832	4.96
433.189	4.93
433.545	4.89
433.901	4.92
434.257	4.91
434.613	4.92
434.969	4.92
435.325	4.9
435.681	4.89
436.036	4.9
436.392	4.88
436.748	4.91
437.104	4.89
437.459	4.9
437.815	4.91
438.171	4.92
438.526	4.92
438.882	4.91
439.237	4.92
439.593	4.93
439.948	4.92
440.304	4.92
440.659	4.93
441.014	4.97
441.369	4.98
441.725	4.98
442.08	5
442.435	5
442.79	5.01
443.145	5.02
443.5	5.03
443.855	5.06
444.21	5.06
444.565	5.06
444.92	5.07
445.275	5.06
445.629	5.05
445.984	5.06
446.339	5.08
446.693	5.08
447.048	5.07
447.403	5.06
447.757	5.05
448.112	5.05
448.466	5.02
448.82	5.03
449.175	5.02
449.529	5
449.883	5
450.238	4.99
450.592	4.98
450.946	4.98
451.3	4.98
451.654	4.97
452.008	4.97
452.362	4.97
452.716	4.96
453.07	4.98
453.424	4.96
453.778	4.97
454.132	4.95
454.486	4.95
454.839	4.98
455.193	4.99
455.547	5.01
455.9	5.02
456.254	5.02
456.607	5.03
456.961	5.05
457.314	5.06
457.668	5.07
458.021	5.06
458.375	5.05
458.728	5.03
459.081	5.03
459.434	5.01
459.787	5
460.141	5.02
460.494	5.01
460.847	5.02
461.2	4.99
461.553	5.01
461.906	5.02
462.259	4.99
462.611	4.99
462.964	4.99
463.317	4.99
463.67	4.99
464.022	5.01
464.375	4.98
464.728	4.97
465.08	4.98
465.433	5
465.785	5.01
466.138	5.03
466.49	5.04
466.843	5.06
467.195	5.08
467.547	5.06
467.899	5.07
468.252	5.08
468.604	5.11
468.956	5.12
469.308	5.11
469.66	5.15
470.012	5.19
470.364	5.2
470.716	5.23
471.068	5.23
471.42	5.23
471.772	5.24
472.123	5.24
472.475	5.25
472.827	5.24
473.178	5.25
473.53	5.26
473.882	5.26
474.233	5.25
474.585	5.25
474.936	5.28
475.288	5.27
475.639	5.29
475.99	5.31
476.342	5.3
476.693	5.31
477.044	5.32
477.395	5.29
477.746	5.27
478.097	5.25
478.448	5.24
478.8	5.22
479.15	5.24
479.501	5.26
479.852	5.26
480.203	5.28
480.554	5.27
480.905	5.29
481.255	5.31
481.606	5.31
481.957	5.32
482.307	5.31
482.658	5.33
483.009	5.33
483.359	5.33
483.709	5.34
484.06	5.34
484.41	5.34
484.761	5.35
485.111	5.36
485.461	5.37
485.811	5.38
486.162	5.39
486.512	5.38
486.862	5.38
487.212	5.39
487.562	5.38
487.912	5.39
488.262	5.39
488.612	5.37
488.961	5.37
489.311	5.38
489.661	5.38
490.011	5.37
490.36	5.37
490.71	5.37
491.06	5.35
491.409	5.36
491.759	5.37
492.108	5.35
492.458	5.35
492.807	5.33
493.157	5.34
493.506	5.35
493.855	5.36
494.204	5.37
494.554	5.36
494.903	5.37
495.252	5.37
495.601	5.38
495.95	5.4
496.299	5.42
496.648	5.42
496.997	5.45
497.346	5.47
497.695	5.47
498.043	5.51
498.392	5.52
498.741	5.55
499.09	5.54
499.438	5.58
499.787	5.59
500.135	5.6
500.484	5.61
500.832	5.61
501.181	5.61
501.529	5.65
501.878	5.68
502.226	5.7
502.574	5.7
502.923	5.69
503.271	5.71
503.619	5.7
503.967	5.7
504.315	5.71
504.663	5.69
505.011	5.71
505.359	5.7
505.707	5.73
506.055	5.75
506.403	5.78
506.751	5.78
507.098	5.82
507.446	5.84
507.794	5.85
508.141	5.88
508.489	5.93
508.837	5.93
509.184	5.93
509.531	5.95
509.879	5.95
510.226	5.98
510.574	6
510.921	6.01
511.268	6.03
511.616	6.03
511.963	6.07
512.31	6.09
512.657	6.09
513.004	6.07
513.351	6.06
513.698	6.07
514.045	6.09
514.392	6.09
514.739	6.09
515.086	6.1
515.432	6.11
515.779	6.09
516.126	6.11
516.473	6.12
516.819	6.12
517.166	6.15
517.512	6.14
517.859	6.16
518.205	6.18
518.552	6.18
518.898	6.2
519.245	6.2
519.591	6.22
519.937	6.24
520.283	6.27
520.629	6.29
520.976	6.29
521.322	6.29
521.668	6.29
522.014	6.31
522.36	6.33
522.706	6.32
523.052	6.35
523.398	6.37
523.743	6.37
524.089	6.4
524.435	6.4
524.781	6.41
525.126	6.44
525.472	6.45
525.817	6.46
526.163	6.49
526.509	6.5
526.854	6.52
527.199	6.53
527.545	6.53
527.89	6.54
528.235	6.55
528.581	6.58
528.926	6.58
529.271	6.59
529.616	6.59
529.961	6.6
530.306	6.61
530.651	6.61
530.996	6.62
531.341	6.63
531.686	6.63
532.031	6.64
532.376	6.63
532.721	6.65
533.065	6.66
533.41	6.66
533.755	6.66
534.099	6.64
534.444	6.64
534.788	6.65
535.133	6.64
535.477	6.64
535.822	6.63
536.166	6.65
536.51	6.65
536.855	6.65
537.199	6.65
537.543	6.66
537.887	6.64
538.231	6.65
538.576	6.65
538.92	6.66
539.264	6.7
539.608	6.72
539.951	6.71
540.295	6.72
540.639	6.72
540.983	6.72
541.327	6.74
541.671	6.75
542.014	6.76
542.358	6.77
542.701	6.76
543.045	6.77
543.389	6.76
543.732	6.77
544.075	6.79
544.419	6.8
544.762	6.79
545.105	6.82
545.449	6.84
545.792	6.84
546.135	6.86
546.478	6.85
546.821	6.86
547.165	6.88
547.508	6.88
547.851	6.89
548.194	6.87
548.536	6.84
548.879	6.85
549.222	6.85
549.565	6.87
549.908	6.89
550.25	6.89
550.593	6.91
550.936	6.92
551.278	6.92
551.621	6.94
551.963	6.97
552.306	6.99
552.648	6.96
552.991	6.98
553.333	6.96
553.675	6.95
554.017	6.91
554.36	6.9
554.702	6.86
555.044	6.84
555.386	6.89
555.728	6.94
556.07	6.89
556.412	6.91
556.754	6.9
557.096	6.89
557.438	6.9
557.78	6.87
558.121	6.87
558.463	6.85
558.805	6.84
559.147	6.82
559.488	6.79
559.83	6.79
560.171	6.78
560.513	6.79
560.854	6.82
561.196	6.8
561.537	6.84
561.878	6.9
562.22	6.93
562.561	6.95
562.902	6.94
563.243	7.01
563.584	7.02
563.925	7.04
564.266	7.03
564.607	7.03
564.948	7
565.289	7.03
565.63	7.01
565.971	7.03
566.312	7.02
566.653	7.04
566.993	7.04
567.334	7.05
567.675	7.06
568.015	7.03
568.356	7.08
568.696	7.1
569.037	7.07
569.377	7.04
569.718	7
570.058	7.01
570.398	6.98
570.739	6.93
571.079	6.92
571.419	6.91
571.759	6.9
572.099	6.94
572.439	6.91
572.779	6.94
573.119	6.96
573.459	6.98
573.799	6.98
574.139	6.96
574.479	6.97
574.819	6.98
575.158	7.01
575.498	6.98
575.838	6.93
576.177	6.93
576.517	6.96
576.856	6.99
577.196	6.98
577.535	6.99
577.875	7.02
578.214	7.03
578.553	7.06
578.893	7.1
579.232	7.08
579.571	7.14
579.91	7.15
580.25	7.13
580.589	7.11
580.928	7.09
581.267	7.11
581.606	7.12
581.945	7.08
582.283	7.08
582.622	7.05
582.961	7.05
583.3	7.08
583.639	7.05
583.977	7.07
584.316	7.08
584.654	7.1
584.993	7.11
585.332	7.11
585.67	7.11
586.008	7.08
586.347	7.11
586.685	7.02
587.024	7.04
587.362	7.05
587.7	7.08
588.038	7.11
588.376	7.13
588.715	7.1
589.053	7.14
589.391	7.13
589.729	7.18
590.067	7.23
590.404	7.17
590.742	7.18
591.08	7.18
591.418	7.2
591.756	7.15
592.093	7.17
592.431	7.16
592.769	7.18
593.106	7.17
593.444	7.2
593.781	7.24
594.119	7.19
594.456	7.22
594.793	7.22
595.131	7.23
595.468	7.19
595.805	7.22
596.143	7.21
596.48	7.23
596.817	7.21
597.154	7.22
597.491	7.26
597.828	7.26
598.165	7.28
598.502	7.25
598.839	7.3
599.176	7.27
599.512	7.25
599.849	7.23
600.186	7.27
600.523	7.23
600.859	7.26
601.196	7.29
601.532	7.25
601.869	7.26
602.205	7.24
602.542	7.27
602.878	7.29
603.215	7.31
603.551	7.27
603.887	7.31
604.223	7.26
604.56	7.27
604.896	7.29
605.232	7.25
605.568	7.27
605.904	7.24
606.24	7.29
606.576	7.35
606.912	7.31
607.248	7.28
607.583	7.31
607.919	7.3
608.255	7.31
608.591	7.32
608.926	7.27
609.262	7.3
609.597	7.29
609.933	7.26
610.268	7.23
610.604	7.21
610.939	7.24
611.275	7.27
611.61	7.28
611.945	7.22
612.281	7.28
612.616	7.3
612.951	7.36
613.286	7.39
613.621	7.34
613.956	7.39
614.291	7.37
614.626	7.45
614.961	7.38
615.296	7.39
615.631	7.4
615.966	7.5
616.3	7.49
616.635	7.49
616.97	7.53
617.304	7.56
617.639	7.68
617.973	7.61
618.308	7.63
618.642	7.59
618.977	7.58
619.311	7.52
619.646	7.44
619.98	7.4
620.314	7.35
620.648	7.4
620.983	7.4
621.317	7.51
621.651	7.43
621.985	7.54
622.319	7.48
622.653	7.49
622.987	7.44
623.321	7.4
623.655	7.39
623.988	7.39
624.322	7.35
624.656	7.26
624.99	7.26
625.323	7.2
625.657	7.2
625.99	7.25
626.324	7.27
626.657	7.31
626.991	7.31
627.324	7.28
627.658	7.29
627.991	7.31
628.324	7.27
628.657	7.31
628.991	7.27
629.324	7.29
629.657	7.3
629.99	7.32
630.323	7.34
630.656	7.34
630.989	7.37
631.322	7.39
631.655	7.42
631.987	7.47
632.32	7.54
632.653	7.53
632.986	7.54
633.318	7.64
633.651	7.66
633.984	7.65
634.316	7.69
634.649	7.64
634.981	7.63
635.313	7.58
635.646	7.52
635.978	7.54
636.31	7.48
636.643	7.46
636.975	7.42
637.307	7.47
637.639	7.51
637.971	7.41
638.303	7.37
638.635	7.37
638.967	7.35
639.299	7.36
639.631	7.35
639.963	7.31
640.295	7.25
640.626	7.21
640.958	7.23
641.29	7.14
641.621	7.13
641.953	7.11
642.285	7.17
642.616	7.23
642.948	7.21
643.279	7.25
643.61	7.27
643.942	7.28
644.273	7.3
644.604	7.2
644.936	7.22
645.267	7.22
645.598	7.24
645.929	7.3
646.26	7.25
646.591	7.31
646.922	7.38
647.253	7.33
647.584	7.43
647.915	7.44
648.245	7.49
648.576	7.52
648.907	7.59
649.238	7.56
649.568	7.53
649.899	7.48
650.229	7.55
650.56	7.51
650.89	7.57
651.221	7.55
651.551	7.68
651.882	7.65
652.212	7.68
652.542	7.7
652.872	7.69
653.203	7.79
653.533	7.87
653.863	7.89
654.193	7.85
654.523	7.72
654.853	7.75
655.183	7.86
655.513	7.93
655.843	7.87
656.172	7.95
656.502	7.86
656.832	7.89
657.162	7.88
657.491	7.94
657.821	7.99
658.15	7.96
658.48	8.01
658.809	8.09
659.139	8.1
659.468	8.09
659.798	8.07
660.127	7.98
660.456	7.92
660.785	7.86
661.115	7.89
661.444	8.04
661.773	8
662.102	7.94
662.431	7.93
662.76	7.91
663.089	7.88
663.418	7.99
663.747	7.99
664.076	7.99
664.404	8.05
664.733	8.01
665.062	8.08
665.39	7.99
665.719	7.91
666.048	7.91
666.376	7.94
666.705	7.93
667.033	8.03
667.362	7.97
667.69	7.97
668.018	8.11
668.347	8.02
668.675	8.08
669.003	8.02
669.331	8.03
669.659	8.04
669.987	8.04
670.315	8.07
670.643	8.04
670.971	8.04
671.299	8.02
671.627	8.02
671.955	7.89
672.283	7.89
672.61	7.97
672.938	8
673.266	7.92
673.593	7.84
673.921	7.84
674.249	7.89
674.576	7.9
674.904	7.76
675.231	7.65
675.558	7.67
