Data from MVZ_BU8940_Reflection_00013.txt Node
Date: Tue Nov 19 12:16:41 EST 2019
User: vgr7
Spectrometer: USB2G7710
Scans to average: 3
Trigger mode: 4
Integration Time (sec): 2.000000E-2
Electric dark correction enabled: true
Boxcar width: 10
XAxis mode: Wavelengths
Number of Pixels in Spectrum: 2048
>>>>>Begin Spectral Data<<<<<
177.721	-166.76
178.105	-76.14
178.488	254.82
178.871	7.14
179.254	141.46
179.636	-25
180.019	-70.52
180.402	180
180.785	560
181.168	-325.74
181.55	237.31
181.933	141.08
182.316	264.72
182.698	276.96
183.081	189.21
183.463	136.49
183.846	217.25
184.228	153.21
184.611	177.58
184.993	215.13
185.376	229.12
185.758	265.39
186.14	317.76
186.522	1032.16
186.904	1057.14
187.287	596.98
187.669	535.59
188.051	405.23
188.433	729.15
188.815	741.87
189.197	616.29
189.579	4951.35
189.961	-544.48
190.342	-1185.23
190.724	899.47
191.106	9231.58
191.488	-6503.45
191.869	164600
192.251	14138.46
192.633	3786.05
193.014	931.55
193.396	557.65
193.777	4059.46
194.159	1688.61
194.54	1017.32
194.922	397.95
195.303	300.88
195.684	436.07
196.065	607.91
196.447	292.31
196.828	372.85
197.209	689.69
197.59	507.75
197.971	232.5
198.352	246.82
198.733	461.59
199.114	426.86
199.495	-978.31
199.876	1056.31
200.257	612.74
200.638	352.65
201.018	307.64
201.399	-504.9
201.78	-328.23
202.16	-464.86
202.541	1518.03
202.922	-973.03
203.302	-329.96
203.683	-312.73
204.063	-1063.16
204.444	-756.44
204.824	517.65
205.204	1676.92
205.585	1148.39
205.965	-603.39
206.345	-346.11
206.725	-251.49
207.106	-23.96
207.486	95.65
207.866	117.24
208.246	227.62
208.626	132.02
209.006	20.27
209.386	-29.48
209.766	-400
210.145	-4685.71
210.525	1142.86
210.905	321.03
211.285	209.48
211.664	205.5
212.044	120.37
212.424	131.2
212.803	134.65
213.183	327.87
213.562	246.15
213.942	189.82
214.321	154.04
214.701	148.05
215.08	139.29
215.459	95.57
215.838	97.2
216.218	68.37
216.597	96.52
216.976	239.59
217.355	159.89
217.734	-630.77
218.113	-2768.42
218.492	224.43
218.871	186.05
219.25	-51.16
219.629	21.49
220.008	-186.73
220.387	-470.59
220.766	66.93
221.144	-40.47
221.523	-9.95
221.902	-37.32
222.28	-29.57
222.659	-16.5
223.037	-18.09
223.416	11.06
223.794	24.62
224.173	22.94
224.551	17.59
224.929	28.37
225.308	23.56
225.686	14.76
226.064	3.55
226.442	5.9
226.821	3.48
227.199	3.1
227.577	-0.14
227.955	-2.61
228.333	-5.64
228.711	-6.3
229.089	-3.34
229.467	-4.32
229.845	-2.95
230.222	-2.35
230.6	-2.43
230.978	-3.45
231.356	-4.53
231.733	-4.68
232.111	-0.19
232.488	2.43
232.866	2.24
233.243	2.16
233.621	3.55
233.998	6.71
234.376	7.52
234.753	7.85
235.13	7.34
235.508	9.43
235.885	7.73
236.262	8.42
236.639	8.15
237.016	7.26
237.393	8.35
237.77	8.53
238.147	8.13
238.524	7.84
238.901	8.01
239.278	7.08
239.655	7.14
240.032	5.82
240.409	5.26
240.785	5.13
241.162	5.89
241.539	5.64
241.915	5.29
242.292	4.84
242.668	4.59
243.045	5.31
243.421	5.21
243.798	5.27
244.174	5.25
244.551	5.17
244.927	5.19
245.303	4.59
245.679	4.51
246.056	4.45
246.432	4.36
246.808	4.43
247.184	4.3
247.56	4.18
247.936	4.17
248.312	4.25
248.688	3.92
249.064	3.52
249.44	3.56
249.815	3.37
250.191	3.28
250.567	3.17
250.943	2.82
251.318	2.69
251.694	2.6
252.069	2.63
252.445	3.03
252.82	2.86
253.196	3.12
253.571	3.26
253.947	3.37
254.322	3.36
254.697	2.88
255.073	2.83
255.448	2.73
255.823	2.57
256.198	2.64
256.573	3.06
256.948	3.08
257.323	3.13
257.698	3.2
258.073	3.22
258.448	3.43
258.823	3.49
259.198	3.45
259.573	3.25
259.948	3.18
260.322	3.06
260.697	3.18
261.072	3.06
261.446	2.94
261.821	2.65
262.195	2.59
262.57	2.66
262.944	2.71
263.319	3
263.693	2.95
264.067	2.8
264.442	2.75
264.816	2.75
265.19	2.76
265.564	2.71
265.938	2.89
266.313	2.8
266.687	2.66
267.061	2.69
267.435	3.13
267.809	3.01
268.183	2.81
268.556	2.86
268.93	3.07
269.304	3.05
269.678	3.39
270.051	3.47
270.425	3.68
270.799	3.81
271.172	3.57
271.546	3.85
271.919	3.84
272.293	3.9
272.666	3.89
273.04	3.85
273.413	3.94
273.787	3.74
274.16	3.57
274.533	3.72
274.906	3.85
275.279	3.78
275.653	3.74
276.026	3.76
276.399	3.61
276.772	3.48
277.145	3.52
277.518	3.3
277.891	3.37
278.263	3.29
278.636	3.29
279.009	3.5
279.382	3.29
279.755	3.43
280.127	3.36
280.5	3.26
280.872	3.21
281.245	3.22
281.617	3.39
281.99	3.44
282.362	3.31
282.735	3.19
283.107	3.05
283.479	3.23
283.852	3.18
284.224	3.38
284.596	3.52
284.968	3.5
285.34	3.61
285.713	3.61
286.085	3.61
286.457	3.51
286.829	3.47
287.201	3.42
287.572	3.45
287.944	3.43
288.316	3.63
288.688	3.69
289.06	3.6
289.431	3.7
289.803	3.83
290.175	3.83
290.546	3.84
290.918	3.83
291.289	3.8
291.661	3.91
292.032	3.84
292.403	3.74
292.775	3.71
293.146	3.74
293.517	3.65
293.889	3.59
294.26	3.73
294.631	3.81
295.002	3.96
295.373	3.96
295.744	3.98
296.115	4.01
296.486	4.03
296.857	4.15
297.228	3.91
297.599	3.85
297.97	3.94
298.34	3.87
298.711	4.01
299.082	4.06
299.452	4.07
299.823	3.93
300.194	4.05
300.564	4.12
300.935	4.09
301.305	4.13
301.676	4.14
302.046	4
302.416	3.84
302.787	3.67
303.157	3.63
303.527	3.75
303.897	3.66
304.267	3.61
304.637	3.68
305.008	3.89
305.378	3.99
305.748	4.06
306.117	4.12
306.487	4.1
306.857	4.07
307.227	4.19
307.597	4.44
307.967	4.41
308.336	4.42
308.706	4.35
309.076	4.47
309.445	4.59
309.815	4.63
310.184	4.71
310.554	4.69
310.923	4.64
311.293	4.56
311.662	4.61
312.031	4.67
312.401	4.55
312.77	4.52
313.139	4.44
313.508	4.35
313.877	4.26
314.246	4.28
314.616	4.43
314.985	4.47
315.353	4.55
315.722	4.65
316.091	4.82
316.46	4.92
316.829	4.92
317.198	5.02
317.567	5.1
317.935	5.12
318.304	5.47
318.672	5.34
319.041	5.42
319.41	5.39
319.778	5.46
320.147	5.59
320.515	5.64
320.883	5.62
321.252	5.76
321.62	5.95
321.988	6.02
322.357	5.89
322.725	5.81
323.093	5.67
323.461	5.61
323.829	5.49
324.197	5.67
324.565	5.82
324.933	5.82
325.301	5.8
325.669	5.74
326.037	5.67
326.405	5.98
326.772	5.91
327.14	5.93
327.508	5.89
327.875	5.91
328.243	5.89
328.61	6.04
328.978	6.09
329.346	6.09
329.713	6.23
330.08	6.42
330.448	6.55
330.815	6.68
331.182	6.6
331.55	6.57
331.917	6.43
332.284	6.44
332.651	6.38
333.018	6.38
333.385	6.45
333.752	6.52
334.119	6.59
334.486	6.66
334.853	6.68
335.22	6.62
335.587	6.59
335.954	6.53
336.32	6.63
336.687	6.7
337.054	6.82
337.42	6.57
337.787	6.45
338.153	6.41
338.52	6.31
338.886	6.44
339.253	6.46
339.619	6.42
339.986	6.27
340.352	6.34
340.718	6.43
341.084	6.52
341.451	6.54
341.817	6.5
342.183	6.51
342.549	6.61
342.915	6.72
343.281	6.72
343.647	6.76
344.013	6.69
344.379	6.66
344.745	6.65
345.11	6.82
345.476	6.91
345.842	6.95
346.208	7.09
346.573	7.11
346.939	7.07
347.304	7.22
347.67	7.24
348.035	7.15
348.401	7.18
348.766	7.17
349.132	7.21
349.497	7.26
349.862	7.23
350.228	7.16
350.593	7.2
350.958	7.33
351.323	7.33
351.688	7.35
352.053	7.31
352.418	7.29
352.783	7.3
353.148	7.22
353.513	7.13
353.878	7.07
354.243	6.96
354.608	6.99
354.972	6.99
355.337	7.14
355.702	7.22
356.066	7.23
356.431	7.2
356.795	7.15
357.16	7.13
357.524	7.26
357.889	7.23
358.253	7.19
358.618	7.14
358.982	7.21
359.346	7.24
359.71	7.29
360.075	7.22
360.439	7.18
360.803	7.29
361.167	7.3
361.531	7.3
361.895	7.33
362.259	7.41
362.623	7.38
362.987	7.29
363.351	7.28
363.714	7.24
364.078	7.21
364.442	7.19
364.806	7.19
365.169	7.1
365.533	7.17
365.896	7.25
366.26	7.18
366.623	7.12
366.987	7.14
367.35	7.11
367.714	7.12
368.077	7.17
368.44	7.05
368.803	6.95
369.167	6.95
369.53	6.92
369.893	6.9
370.256	6.79
370.619	6.79
370.982	6.67
371.345	6.62
371.708	6.67
372.071	6.58
372.434	6.53
372.797	6.52
373.159	6.5
373.522	6.39
373.885	6.39
374.247	6.37
374.61	6.25
374.973	6.25
375.335	6.27
375.698	6.21
376.06	6.21
376.423	6.24
376.785	6.18
377.147	6.19
377.51	6.17
377.872	6.19
378.234	6.17
378.596	6.29
378.958	6.31
379.321	6.28
379.683	6.35
380.045	6.31
380.407	6.33
380.769	6.31
381.13	6.29
381.492	6.36
381.854	6.37
382.216	6.4
382.578	6.44
382.939	6.42
383.301	6.43
383.663	6.41
384.024	6.47
384.386	6.46
384.747	6.39
385.109	6.36
385.47	6.42
385.832	6.35
386.193	6.29
386.554	6.2
386.916	6.2
387.277	6.18
387.638	6.16
387.999	6.08
388.36	6.01
388.721	5.97
389.082	5.95
389.443	5.98
389.804	5.98
390.165	5.9
390.526	5.9
390.887	5.9
391.248	5.9
391.609	5.85
391.969	5.86
392.33	5.87
392.691	5.87
393.051	5.81
393.412	5.82
393.772	5.8
394.133	5.83
394.493	5.82
394.854	5.79
395.214	5.79
395.574	5.83
395.935	5.85
396.295	5.88
396.655	5.83
397.015	5.81
397.376	5.72
397.736	5.72
398.096	5.61
398.456	5.55
398.816	5.53
399.176	5.46
399.535	5.47
399.895	5.48
400.255	5.45
400.615	5.47
400.975	5.47
401.334	5.45
401.694	5.45
402.054	5.43
402.413	5.39
402.773	5.38
403.132	5.33
403.492	5.36
403.851	5.32
404.211	5.31
404.57	5.26
404.929	5.29
405.288	5.31
405.648	5.31
406.007	5.3
406.366	5.28
406.725	5.29
407.084	5.28
407.443	5.25
407.802	5.21
408.161	5.17
408.52	5.18
408.879	5.16
409.238	5.12
409.596	5.11
409.955	5.11
410.314	5.11
410.673	5.1
411.031	5.04
411.39	5.05
411.748	5.05
412.107	5.04
412.465	5.06
412.824	5
413.182	5.01
413.54	5.03
413.899	5.02
414.257	5.02
414.615	5
414.974	5.03
415.332	5.05
415.69	5.05
416.048	5.03
416.406	5
416.764	5.01
417.122	4.97
417.48	4.98
417.838	4.97
418.195	4.97
418.553	4.96
418.911	4.96
419.269	4.96
419.626	4.96
419.984	4.92
420.342	4.94
420.699	4.93
421.057	4.92
421.414	4.92
421.772	4.92
422.129	4.9
422.486	4.9
422.844	4.88
423.201	4.86
423.558	4.87
423.915	4.89
424.273	4.9
424.63	4.91
424.987	4.92
425.344	4.94
425.701	4.93
426.058	4.93
426.415	4.92
426.772	4.91
427.128	4.93
427.485	4.94
427.842	4.91
428.199	4.93
428.555	4.92
428.912	4.89
429.269	4.87
429.625	4.88
429.982	4.84
430.338	4.85
430.695	4.85
431.051	4.83
431.407	4.8
431.764	4.79
432.12	4.79
432.476	4.79
432.832	4.76
433.189	4.76
433.545	4.77
433.901	4.74
434.257	4.73
434.613	4.72
434.969	4.71
435.325	4.71
435.681	4.69
436.036	4.71
436.392	4.72
436.748	4.73
437.104	4.73
437.459	4.75
437.815	4.76
438.171	4.76
438.526	4.78
438.882	4.8
439.237	4.79
439.593	4.8
439.948	4.8
440.304	4.81
440.659	4.82
441.014	4.81
441.369	4.83
441.725	4.84
442.08	4.84
442.435	4.86
442.79	4.86
443.145	4.88
443.5	4.86
443.855	4.86
444.21	4.86
444.565	4.88
444.92	4.88
445.275	4.87
445.629	4.85
445.984	4.83
446.339	4.83
446.693	4.84
447.048	4.82
447.403	4.8
447.757	4.79
448.112	4.78
448.466	4.78
448.82	4.79
449.175	4.78
449.529	4.77
449.883	4.75
450.238	4.74
450.592	4.72
450.946	4.72
451.3	4.72
451.654	4.69
452.008	4.67
452.362	4.66
452.716	4.67
453.07	4.67
453.424	4.69
453.778	4.68
454.132	4.65
454.486	4.67
454.839	4.67
455.193	4.68
455.547	4.69
455.9	4.69
456.254	4.7
456.607	4.7
456.961	4.71
457.314	4.72
457.668	4.73
458.021	4.76
458.375	4.77
458.728	4.77
459.081	4.8
459.434	4.79
459.787	4.8
460.141	4.8
460.494	4.81
460.847	4.81
461.2	4.8
461.553	4.82
461.906	4.84
462.259	4.83
462.611	4.82
462.964	4.84
463.317	4.83
463.67	4.83
464.022	4.85
464.375	4.85
464.728	4.89
465.08	4.9
465.433	4.92
465.785	4.92
466.138	4.97
466.49	4.97
466.843	5.04
467.195	5.06
467.547	5.09
467.899	5.1
468.252	5.11
468.604	5.15
468.956	5.16
469.308	5.16
469.66	5.18
470.012	5.21
470.364	5.21
470.716	5.23
471.068	5.24
471.42	5.26
471.772	5.29
472.123	5.27
472.475	5.28
472.827	5.28
473.178	5.31
473.53	5.28
473.882	5.29
474.233	5.26
474.585	5.24
474.936	5.22
475.288	5.25
475.639	5.27
475.99	5.25
476.342	5.26
476.693	5.26
477.044	5.28
477.395	5.26
477.746	5.24
478.097	5.23
478.448	5.21
478.8	5.2
479.15	5.19
479.501	5.2
479.852	5.19
480.203	5.2
480.554	5.18
480.905	5.2
481.255	5.18
481.606	5.21
481.957	5.23
482.307	5.22
482.658	5.22
483.009	5.23
483.359	5.23
483.709	5.22
484.06	5.23
484.41	5.23
484.761	5.24
485.111	5.25
485.461	5.26
485.811	5.26
486.162	5.27
486.512	5.26
486.862	5.26
487.212	5.27
487.562	5.27
487.912	5.28
488.262	5.28
488.612	5.29
488.961	5.29
489.311	5.29
489.661	5.29
490.011	5.29
490.36	5.29
490.71	5.3
491.06	5.32
491.409	5.3
491.759	5.31
492.108	5.3
492.458	5.31
492.807	5.32
493.157	5.31
493.506	5.34
493.855	5.36
494.204	5.36
494.554	5.39
494.903	5.41
495.252	5.41
495.601	5.43
495.95	5.45
496.299	5.46
496.648	5.48
496.997	5.5
497.346	5.55
497.695	5.61
498.043	5.64
498.392	5.66
498.741	5.71
499.09	5.76
499.438	5.83
499.787	5.87
500.135	5.91
500.484	6
500.832	6.03
501.181	6.08
501.529	6.18
501.878	6.2
502.226	6.28
502.574	6.38
502.923	6.47
503.271	6.52
503.619	6.62
503.967	6.69
504.315	6.79
504.663	6.86
505.011	6.94
505.359	7.04
505.707	7.13
506.055	7.23
506.403	7.3
506.751	7.39
507.098	7.49
507.446	7.59
507.794	7.71
508.141	7.85
508.489	7.96
508.837	8.05
509.184	8.17
509.531	8.3
509.879	8.41
510.226	8.52
510.574	8.66
510.921	8.76
511.268	8.91
511.616	9.03
511.963	9.15
512.31	9.3
512.657	9.45
513.004	9.59
513.351	9.78
513.698	9.97
514.045	10.15
514.392	10.33
514.739	10.53
515.086	10.71
515.432	10.87
515.779	11.06
516.126	11.25
516.473	11.42
516.819	11.59
517.166	11.78
517.512	11.94
517.859	12.14
518.205	12.3
518.552	12.46
518.898	12.6
519.245	12.79
519.591	12.95
519.937	13.11
520.283	13.28
520.629	13.45
520.976	13.63
521.322	13.83
521.668	14.04
522.014	14.25
522.36	14.44
522.706	14.69
523.052	14.94
523.398	15.19
523.743	15.46
524.089	15.72
524.435	15.98
524.781	16.22
525.126	16.46
525.472	16.67
525.817	16.87
526.163	17.05
526.509	17.2
526.854	17.35
527.199	17.5
527.545	17.67
527.89	17.82
528.235	17.97
528.581	18.11
528.926	18.26
529.271	18.41
529.616	18.57
529.961	18.72
530.306	18.87
530.651	19.02
530.996	19.18
531.341	19.36
531.686	19.52
532.031	19.7
532.376	19.86
532.721	20.03
533.065	20.23
533.41	20.43
533.755	20.65
534.099	20.85
534.444	21.06
534.788	21.24
535.133	21.44
535.477	21.63
535.822	21.87
536.166	22.06
536.51	22.29
536.855	22.54
537.199	22.76
537.543	23.06
537.887	23.35
538.231	23.61
538.576	23.87
538.92	24.11
539.264	24.34
539.608	24.57
539.951	24.76
540.295	25
540.639	25.21
540.983	25.41
541.327	25.62
541.671	25.82
542.014	26.02
542.358	26.22
542.701	26.4
543.045	26.57
543.389	26.78
543.732	26.96
544.075	27.15
544.419	27.36
544.762	27.51
545.105	27.72
545.449	27.93
545.792	28.16
546.135	28.41
546.478	28.7
546.821	28.93
547.165	29.24
547.508	29.46
547.851	29.68
548.194	29.9
548.536	30.14
548.879	30.4
549.222	30.6
549.565	30.84
549.908	31.1
550.25	31.34
550.593	31.56
550.936	31.82
551.278	32.01
551.621	32.21
551.963	32.43
552.306	32.61
552.648	32.86
552.991	33.05
553.333	33.28
553.675	33.4
554.017	33.64
554.36	33.81
554.702	33.92
555.044	34.14
555.386	34.35
555.728	34.56
556.07	34.76
556.412	34.97
556.754	35.13
557.096	35.35
557.438	35.55
557.78	35.75
558.121	35.96
558.463	36.19
558.805	36.41
559.147	36.64
559.488	36.89
559.83	37.06
560.171	37.2
560.513	37.38
560.854	37.6
561.196	37.71
561.537	37.91
561.878	38.14
562.22	38.34
562.561	38.48
562.902	38.61
563.243	38.71
563.584	38.85
563.925	39.04
564.266	39.14
564.607	39.28
564.948	39.38
565.289	39.48
565.63	39.59
565.971	39.76
566.312	39.93
566.653	39.99
566.993	40.19
567.334	40.33
567.675	40.43
568.015	40.61
568.356	40.78
568.696	40.9
569.037	41
569.377	41.07
569.718	41.2
570.058	41.32
570.398	41.51
570.739	41.64
571.079	41.74
571.419	41.89
571.759	42.02
572.099	42.15
572.439	42.29
572.779	42.48
573.119	42.59
573.459	42.64
573.799	42.74
574.139	42.79
574.479	42.88
574.819	43.02
575.158	43.02
575.498	43.1
575.838	43.18
576.177	43.31
576.517	43.48
576.856	43.63
577.196	43.74
577.535	43.8
577.875	43.92
578.214	44.03
578.553	44.09
578.893	44.18
579.232	44.35
579.571	44.43
579.91	44.54
580.25	44.63
580.589	44.77
580.928	44.86
581.267	44.92
581.606	45
581.945	45.04
582.283	45.17
582.622	45.3
582.961	45.4
583.3	45.49
583.639	45.53
583.977	45.58
584.316	45.63
584.654	45.72
584.993	45.77
585.332	45.85
585.67	45.93
586.008	45.96
586.347	45.98
586.685	46.07
587.024	45.96
587.362	46.01
587.7	46.07
588.038	46.19
588.376	46.28
588.715	46.34
589.053	46.39
589.391	46.43
589.729	46.42
590.067	46.5
590.404	46.54
590.742	46.68
591.08	46.8
591.418	46.94
591.756	47.05
592.093	47.07
592.431	47.18
592.769	47.22
593.106	47.3
593.444	47.44
593.781	47.54
594.119	47.75
594.456	47.77
594.793	47.83
595.131	47.86
595.468	47.89
595.805	48.03
596.143	48.11
596.48	48.21
596.817	48.22
597.154	48.26
597.491	48.32
597.828	48.33
598.165	48.37
598.502	48.34
598.839	48.3
599.176	48.39
599.512	48.4
599.849	48.54
600.186	48.62
600.523	48.6
600.859	48.57
601.196	48.52
601.532	48.6
601.869	48.61
602.205	48.64
602.542	48.69
602.878	48.78
603.215	48.82
603.551	48.81
603.887	48.88
604.223	48.87
604.56	48.9
604.896	48.92
605.232	48.92
605.568	49.06
605.904	49.11
606.24	49.17
606.576	49.26
606.912	49.29
607.248	49.34
607.583	49.37
607.919	49.44
608.255	49.48
608.591	49.55
608.926	49.65
609.262	49.79
609.597	49.81
609.933	49.72
610.268	49.71
610.604	49.82
610.939	49.96
611.275	50.06
611.61	50.08
611.945	50.07
612.281	50.07
612.616	49.95
612.951	50.06
613.286	50.09
613.621	50.08
613.956	50.06
614.291	50.08
614.626	50.07
614.961	50.11
615.296	50.17
615.631	50.2
615.966	50.15
616.3	50.1
616.635	50.14
616.97	50.27
617.304	50.37
617.639	50.39
617.973	50.26
618.308	50.24
618.642	50.31
618.977	50.38
619.311	50.42
619.646	50.6
619.98	50.52
620.314	50.56
620.648	50.48
620.983	50.47
621.317	50.48
621.651	50.59
621.985	50.66
622.319	50.67
622.653	50.75
622.987	50.75
623.321	50.75
623.655	50.85
623.988	50.82
624.322	50.93
624.656	50.95
624.99	50.99
625.323	51
625.657	51.04
625.99	51.08
626.324	51.13
626.657	51.14
626.991	51.22
627.324	51.23
627.658	51.34
627.991	51.52
628.324	51.55
628.657	51.58
628.991	51.59
629.324	51.64
629.657	51.61
629.99	51.67
630.323	51.71
630.656	51.68
630.989	51.73
631.322	51.67
631.655	51.58
631.987	51.62
632.32	51.64
632.653	51.7
632.986	51.68
633.318	51.67
633.651	51.63
633.984	51.62
634.316	51.68
634.649	51.64
634.981	51.54
635.313	51.55
635.646	51.66
635.978	51.62
636.31	51.67
636.643	51.61
636.975	51.56
637.307	51.67
637.639	51.7
637.971	51.68
638.303	51.71
638.635	51.77
638.967	51.83
639.299	52.01
639.631	52.01
639.963	52.12
640.295	52.16
640.626	52.2
640.958	52.18
641.29	52.24
641.621	52.34
641.953	52.36
642.285	52.38
642.616	52.3
642.948	52.31
643.279	52.3
643.61	52.4
643.942	52.53
644.273	52.47
644.604	52.58
644.936	52.55
645.267	52.56
645.598	52.66
645.929	52.69
646.26	52.53
646.591	52.57
646.922	52.68
647.253	52.79
647.584	52.84
647.915	52.88
648.245	52.88
648.576	52.86
648.907	52.88
649.238	53.03
649.568	53.02
649.899	53.21
650.229	53.17
650.56	53.27
650.89	53.14
651.221	53.19
651.551	53.19
651.882	53.3
652.212	53.33
652.542	53.41
652.872	53.44
653.203	53.58
653.533	53.53
653.863	53.37
654.193	53.42
654.523	53.42
654.853	53.4
655.183	53.37
655.513	53.49
655.843	53.56
656.172	53.54
656.502	53.6
656.832	53.55
657.162	53.71
657.491	53.72
657.821	53.8
658.15	53.77
658.48	53.8
658.809	53.79
659.139	53.84
659.468	53.72
659.798	53.67
660.127	53.65
660.456	53.67
660.785	53.7
661.115	53.66
661.444	53.73
661.773	53.86
662.102	53.95
662.431	53.93
662.76	53.92
663.089	53.85
663.418	53.91
663.747	53.88
664.076	53.75
664.404	53.81
664.733	53.9
665.062	54.02
665.39	53.98
665.719	54.09
666.048	54.04
