Data from MVZ_BU95633_Reflection_00009.txt Node
Date: Tue Nov 19 12:21:12 EST 2019
User: vgr7
Spectrometer: USB2G7710
Scans to average: 3
Trigger mode: 4
Integration Time (sec): 2.000000E-2
Electric dark correction enabled: true
Boxcar width: 10
XAxis mode: Wavelengths
Number of Pixels in Spectrum: 2048
>>>>>Begin Spectral Data<<<<<
177.721	-47.32
178.105	-20.77
178.488	6.88
178.871	-73.33
179.254	6.06
179.636	102.49
180.019	101.83
180.402	110.71
180.785	35.09
181.168	67.37
181.55	88.03
181.933	22.59
182.316	91.73
182.698	18.35
183.081	-39.41
183.463	21.73
183.846	23.9
184.228	16.94
184.611	-12.84
184.993	-36.56
185.376	-186.32
185.758	-241.27
186.14	-38.1
186.522	19.24
186.904	-29.89
187.287	-198.45
187.669	-23.42
188.051	-63.02
188.433	-106.74
188.815	-69.07
189.197	-45.63
189.579	-8.26
189.961	-106.51
190.342	-76.52
190.724	-120.06
191.106	-135.58
191.488	-86.1
191.869	-40.75
192.251	-49.23
192.633	-79.19
193.014	-67.78
193.396	-120.51
193.777	-85.88
194.159	-101.18
194.54	-98.74
194.922	-112.78
195.303	-77.25
195.684	-118.11
196.065	-89.53
196.447	-64.97
196.828	-64.47
197.209	-63.15
197.59	-61.15
197.971	-34.04
198.352	-42.81
198.733	-34.35
199.114	-35.54
199.495	-42.82
199.876	-50.85
200.257	-50.43
200.638	-61.69
201.018	-54.93
201.399	-32.39
201.78	-36.45
202.16	-23.58
202.541	-28.42
202.922	-21.96
203.302	-29.36
203.683	-4.94
204.063	2.95
204.444	10.95
204.824	3.44
205.204	11.64
205.585	15.15
205.965	13.6
206.345	12.04
206.725	21.5
207.106	19.6
207.486	28.22
207.866	36.66
208.246	26.59
208.626	20.99
209.006	15.3
209.386	26.82
209.766	14.77
210.145	16.58
210.525	10.8
210.905	7.64
211.285	9.96
211.664	12.15
212.044	16.45
212.424	10.59
212.803	-1.97
213.183	-9.29
213.562	-5.41
213.942	-4.99
214.321	-12.76
214.701	-38.53
215.08	-49.1
215.459	-50.4
215.838	-65.18
216.218	-52.55
216.597	-41.53
216.976	-64.15
217.355	-68.27
217.734	-57.97
218.113	-62.41
218.492	-69.02
218.871	-68.73
219.25	-67.24
219.629	-98.48
220.008	-103.9
220.387	-90.44
220.766	-66.2
221.144	-72.79
221.523	-90.92
221.902	-61.01
222.28	-38.36
222.659	-21.08
223.037	-9.64
223.416	-3.07
223.794	-1.09
224.173	-4.18
224.551	-3.53
224.929	-0.6
225.308	2.11
225.686	1.22
226.064	-2.44
226.442	-2.17
226.821	2.93
227.199	-1.48
227.577	2.13
227.955	6.2
228.333	4.85
228.711	5.52
229.089	9.7
229.467	6.02
229.845	-0.25
230.222	-2.05
230.6	-2.72
230.978	-3.87
231.356	-6.08
231.733	-3.86
232.111	-3.03
232.488	0.02
232.866	1.01
233.243	-0.96
233.621	0.25
233.998	1.76
234.376	1.38
234.753	0.14
235.13	1.93
235.508	0.96
235.885	-0.71
236.262	0.38
236.639	1.36
237.016	1.52
237.393	4.99
237.77	5.73
238.147	5.34
238.524	4.75
238.901	4.4
239.278	4.72
239.655	4.7
240.032	4.22
240.409	2.76
240.785	3
241.162	3.93
241.539	3.12
241.915	3.16
242.292	4.05
242.668	4.3
243.045	4.36
243.421	4.46
243.798	4.75
244.174	4.55
244.551	4.55
244.927	4.22
245.303	3.84
245.679	4.07
246.056	4.3
246.432	4.37
246.808	4.4
247.184	4.35
247.56	4
247.936	4.36
248.312	4.62
248.688	4.53
249.064	4.07
249.44	4.25
249.815	4.43
250.191	4.26
250.567	4.38
250.943	4.41
251.318	4.42
251.694	3.99
252.069	3.77
252.445	3.54
252.82	3.68
253.196	3.7
253.571	3.54
253.947	3.32
254.322	3.09
254.697	3.18
255.073	3.13
255.448	3.52
255.823	3.26
256.198	3.24
256.573	3.23
256.948	3.59
257.323	3.68
257.698	3.73
258.073	3.75
258.448	3.84
258.823	3.51
259.198	3.45
259.573	3.55
259.948	3.77
260.322	3.88
260.697	3.9
261.072	3.78
261.446	3.72
261.821	3.68
262.195	3.76
262.57	3.72
262.944	3.88
263.319	3.87
263.693	3.75
264.067	3.73
264.442	3.61
264.816	3.43
265.19	3.39
265.564	3.32
265.938	3.33
266.313	3.07
266.687	3.29
267.061	3.23
267.435	3.35
267.809	3.23
268.183	3
268.556	3.01
268.93	3.37
269.304	3.4
269.678	3.53
270.051	3.57
270.425	3.77
270.799	3.52
271.172	3.39
271.546	3.58
271.919	3.72
272.293	3.89
272.666	3.87
273.04	3.75
273.413	3.68
273.787	3.6
274.16	3.47
274.533	3.57
274.906	3.73
275.279	3.73
275.653	3.92
276.026	3.98
276.399	3.9
276.772	3.74
277.145	3.82
277.518	3.65
277.891	3.57
278.263	3.38
278.636	3.56
279.009	3.66
279.382	3.49
279.755	3.34
280.127	3.42
280.5	3.49
280.872	3.7
281.245	3.72
281.617	3.71
281.99	3.77
282.362	3.74
282.735	3.71
283.107	3.64
283.479	3.5
283.852	3.62
284.224	3.62
284.596	3.52
284.968	3.28
285.34	3.46
285.713	3.53
286.085	3.55
286.457	3.5
286.829	3.55
287.201	3.63
287.572	3.74
287.944	3.52
288.316	3.43
288.688	3.38
289.06	3.3
289.431	3.42
289.803	3.61
290.175	3.5
290.546	3.42
290.918	3.46
291.289	3.36
291.661	3.46
292.032	3.56
292.403	3.81
292.775	3.96
293.146	3.87
293.517	4.04
293.889	3.95
294.26	3.99
294.631	3.91
295.002	3.96
295.373	3.95
295.744	4.06
296.115	4.15
296.486	4.21
296.857	4.27
297.228	4.29
297.599	4.16
297.97	4.3
298.34	4.25
298.711	4.22
299.082	4.36
299.452	4.32
299.823	4.23
300.194	4.14
300.564	4.12
300.935	4.12
301.305	3.92
301.676	4.1
302.046	4.05
302.416	4.12
302.787	4.13
303.157	4.1
303.527	4.11
303.897	4.27
304.267	4.27
304.637	4.48
305.008	4.48
305.378	4.59
305.748	4.58
306.117	4.75
306.487	4.93
306.857	5.03
307.227	5.01
307.597	5.09
307.967	5.1
308.336	5.19
308.706	5.32
309.076	5.52
309.445	5.58
309.815	5.78
310.184	5.72
310.554	5.8
310.923	5.74
311.293	5.87
311.662	5.94
312.031	5.85
312.401	5.86
312.77	5.88
313.139	5.92
313.508	5.89
313.877	6.02
314.246	6.01
314.616	5.99
314.985	5.98
315.353	5.94
315.722	6.13
316.091	6.2
316.46	6.06
316.829	6.06
317.198	5.96
317.567	5.9
317.935	5.94
318.304	6.02
318.672	6.2
319.041	6.18
319.41	6.24
319.778	6.4
320.147	6.18
320.515	6.16
320.883	6.03
321.252	6.1
321.62	6.09
321.988	6.23
322.357	6.34
322.725	6.5
323.093	6.54
323.461	6.49
323.829	6.57
324.197	6.75
324.565	6.77
324.933	6.83
325.301	6.69
325.669	6.85
326.037	6.8
326.405	6.87
326.772	7.04
327.14	6.89
327.508	6.91
327.875	7.11
328.243	7.03
328.61	7.04
328.978	7.19
329.346	7.23
329.713	7.25
330.08	7.3
330.448	7.14
330.815	7.23
331.182	7.21
331.55	7.23
331.917	7.35
332.284	7.33
332.651	7.48
333.018	7.59
333.385	7.55
333.752	7.51
334.119	7.53
334.486	7.44
334.853	7.54
335.22	7.5
335.587	7.34
335.954	7.49
336.32	7.79
336.687	7.78
337.054	7.73
337.42	7.63
337.787	7.49
338.153	7.65
338.52	7.63
338.886	7.73
339.253	7.81
339.619	7.78
339.986	7.74
340.352	7.76
340.718	7.73
341.084	7.83
341.451	7.86
341.817	7.88
342.183	7.85
342.549	7.86
342.915	7.89
343.281	7.97
343.647	7.9
344.013	7.85
344.379	7.73
344.745	7.68
345.11	7.78
345.476	7.96
345.842	7.9
346.208	8.01
346.573	7.97
346.939	7.76
347.304	7.81
347.67	7.8
348.035	7.64
348.401	7.75
348.766	7.69
349.132	7.7
349.497	7.63
349.862	7.57
350.228	7.6
350.593	7.69
350.958	7.84
351.323	7.89
351.688	7.8
352.053	7.88
352.418	7.99
352.783	7.98
353.148	7.84
353.513	7.88
353.878	7.81
354.243	7.64
354.608	7.82
354.972	7.71
355.337	7.74
355.702	7.84
356.066	7.85
356.431	7.86
356.795	8
357.16	7.98
357.524	7.97
357.889	7.91
358.253	7.82
358.618	7.72
358.982	7.67
359.346	7.61
359.71	7.62
360.075	7.55
360.439	7.51
360.803	7.5
361.167	7.48
361.531	7.54
361.895	7.62
362.259	7.56
362.623	7.56
362.987	7.57
363.351	7.49
363.714	7.41
364.078	7.41
364.442	7.29
364.806	7.3
365.169	7.37
365.533	7.38
365.896	7.44
366.26	7.43
366.623	7.42
366.987	7.43
367.35	7.38
367.714	7.36
368.077	7.41
368.44	7.45
368.803	7.38
369.167	7.22
369.53	7.24
369.893	7.21
370.256	7.16
370.619	7.02
370.982	7
371.345	7
371.708	6.94
372.071	6.79
372.434	6.72
372.797	6.67
373.159	6.53
373.522	6.47
373.885	6.51
374.247	6.47
374.61	6.38
374.973	6.39
375.335	6.36
375.698	6.26
376.06	6.19
376.423	6.2
376.785	6.26
377.147	6.2
377.51	6.18
377.872	6.11
378.234	6.15
378.596	6.19
378.958	6.18
379.321	6.11
379.683	6.16
380.045	6.17
380.407	6.07
380.769	6.07
381.13	5.91
381.492	5.75
381.854	5.76
382.216	5.77
382.578	5.69
382.939	5.63
383.301	5.57
383.663	5.59
384.024	5.53
384.386	5.49
384.747	5.41
385.109	5.41
385.47	5.4
385.832	5.35
386.193	5.25
386.554	5.15
386.916	5.2
387.277	5.14
387.638	5.12
387.999	5.11
388.36	5.09
388.721	5.16
389.082	5.16
389.443	5.14
389.804	5.13
390.165	5.11
390.526	5.12
390.887	5.12
391.248	5.04
391.609	5.03
391.969	5
392.33	4.97
392.691	4.89
393.051	4.93
393.412	4.93
393.772	4.91
394.133	4.93
394.493	4.86
394.854	4.86
395.214	4.81
395.574	4.8
395.935	4.8
396.295	4.79
396.655	4.79
397.015	4.74
397.376	4.72
397.736	4.68
398.096	4.61
398.456	4.56
398.816	4.52
399.176	4.47
399.535	4.4
399.895	4.42
400.255	4.41
400.615	4.36
400.975	4.33
401.334	4.31
401.694	4.29
402.054	4.26
402.413	4.22
402.773	4.21
403.132	4.19
403.492	4.18
403.851	4.13
404.211	4.06
404.57	4.03
404.929	3.97
405.288	3.99
405.648	3.99
406.007	4
406.366	4.02
406.725	4.02
407.084	4.04
407.443	4.02
407.802	3.99
408.161	3.98
408.52	3.98
408.879	3.98
409.238	4.01
409.596	3.98
409.955	4.01
410.314	3.98
410.673	3.99
411.031	3.96
411.39	3.94
411.748	3.97
412.107	3.94
412.465	3.96
412.824	3.94
413.182	3.94
413.54	3.93
413.899	3.93
414.257	3.96
414.615	3.94
414.974	3.92
415.332	3.94
415.69	3.94
416.048	3.92
416.406	3.9
416.764	3.87
417.122	3.86
417.48	3.85
417.838	3.85
418.195	3.84
418.553	3.83
418.911	3.81
419.269	3.83
419.626	3.82
419.984	3.8
420.342	3.79
420.699	3.77
421.057	3.77
421.414	3.76
421.772	3.73
422.129	3.72
422.486	3.71
422.844	3.69
423.201	3.66
423.558	3.66
423.915	3.65
424.273	3.64
424.63	3.64
424.987	3.63
425.344	3.62
425.701	3.61
426.058	3.61
426.415	3.62
426.772	3.57
427.128	3.57
427.485	3.57
427.842	3.56
428.199	3.57
428.555	3.54
428.912	3.51
429.269	3.52
429.625	3.52
429.982	3.52
430.338	3.55
430.695	3.53
431.051	3.54
431.407	3.54
431.764	3.52
432.12	3.54
432.476	3.53
432.832	3.53
433.189	3.53
433.545	3.52
433.901	3.52
434.257	3.53
434.613	3.55
434.969	3.55
435.325	3.56
435.681	3.56
436.036	3.55
436.392	3.57
436.748	3.57
437.104	3.6
437.459	3.6
437.815	3.59
438.171	3.62
438.526	3.62
438.882	3.63
439.237	3.61
439.593	3.62
439.948	3.61
440.304	3.61
440.659	3.59
441.014	3.57
441.369	3.58
441.725	3.59
442.08	3.6
442.435	3.6
442.79	3.6
443.145	3.59
443.5	3.6
443.855	3.59
444.21	3.59
444.565	3.57
444.92	3.57
445.275	3.55
445.629	3.54
445.984	3.53
446.339	3.52
446.693	3.55
447.048	3.52
447.403	3.51
447.757	3.5
448.112	3.51
448.466	3.52
448.82	3.53
449.175	3.52
449.529	3.52
449.883	3.48
450.238	3.49
450.592	3.5
450.946	3.49
451.3	3.5
451.654	3.47
452.008	3.48
452.362	3.47
452.716	3.47
453.07	3.47
453.424	3.48
453.778	3.49
454.132	3.5
454.486	3.52
454.839	3.52
455.193	3.54
455.547	3.53
455.9	3.54
456.254	3.53
456.607	3.48
456.961	3.46
457.314	3.48
457.668	3.45
458.021	3.43
458.375	3.42
458.728	3.43
459.081	3.44
459.434	3.43
459.787	3.45
460.141	3.47
460.494	3.48
460.847	3.47
461.2	3.46
461.553	3.46
461.906	3.47
462.259	3.48
462.611	3.47
462.964	3.51
463.317	3.49
463.67	3.51
464.022	3.56
464.375	3.58
464.728	3.58
465.08	3.59
465.433	3.62
465.785	3.64
466.138	3.63
466.49	3.64
466.843	3.67
467.195	3.64
467.547	3.65
467.899	3.67
468.252	3.7
468.604	3.71
468.956	3.72
469.308	3.72
469.66	3.73
470.012	3.74
470.364	3.72
470.716	3.74
471.068	3.73
471.42	3.72
471.772	3.74
472.123	3.76
472.475	3.8
472.827	3.81
473.178	3.84
473.53	3.86
473.882	3.88
474.233	3.89
474.585	3.9
474.936	3.9
475.288	3.87
475.639	3.88
475.99	3.88
476.342	3.87
476.693	3.88
477.044	3.89
477.395	3.88
477.746	3.87
478.097	3.9
478.448	3.9
478.8	3.87
479.15	3.86
479.501	3.84
479.852	3.82
480.203	3.8
480.554	3.79
480.905	3.79
481.255	3.77
481.606	3.76
481.957	3.76
482.307	3.74
482.658	3.75
483.009	3.75
483.359	3.76
483.709	3.75
484.06	3.76
484.41	3.76
484.761	3.76
485.111	3.76
485.461	3.76
485.811	3.75
486.162	3.77
486.512	3.76
486.862	3.77
487.212	3.78
487.562	3.78
487.912	3.79
488.262	3.8
488.612	3.8
488.961	3.8
489.311	3.8
489.661	3.8
490.011	3.8
490.36	3.8
490.71	3.79
491.06	3.8
491.409	3.79
491.759	3.8
492.108	3.81
492.458	3.82
492.807	3.83
493.157	3.83
493.506	3.84
493.855	3.86
494.204	3.86
494.554	3.87
494.903	3.89
495.252	3.89
495.601	3.89
495.95	3.92
496.299	3.94
496.648	3.99
496.997	4.07
497.346	4.09
497.695	4.12
498.043	4.19
498.392	4.22
498.741	4.28
499.09	4.31
499.438	4.33
499.787	4.37
500.135	4.42
500.484	4.49
500.832	4.55
501.181	4.64
501.529	4.7
501.878	4.78
502.226	4.86
502.574	4.97
502.923	5.06
503.271	5.14
503.619	5.26
503.967	5.33
504.315	5.43
504.663	5.53
505.011	5.64
505.359	5.72
505.707	5.84
506.055	5.96
506.403	6.08
506.751	6.21
507.098	6.38
507.446	6.51
507.794	6.66
508.141	6.79
508.489	6.9
508.837	7.05
509.184	7.2
509.531	7.34
509.879	7.47
510.226	7.63
510.574	7.83
510.921	8.01
511.268	8.21
511.616	8.4
511.963	8.61
512.31	8.81
512.657	9.03
513.004	9.23
513.351	9.45
513.698	9.69
514.045	9.96
514.392	10.18
514.739	10.47
515.086	10.72
515.432	11
515.779	11.3
516.126	11.59
516.473	11.84
516.819	12.12
517.166	12.39
517.512	12.62
517.859	12.81
518.205	13.01
518.552	13.19
518.898	13.4
519.245	13.62
519.591	13.85
519.937	14.09
520.283	14.36
520.629	14.59
520.976	14.86
521.322	15.14
521.668	15.42
522.014	15.68
522.36	15.98
522.706	16.29
523.052	16.58
523.398	16.88
523.743	17.21
524.089	17.51
524.435	17.81
524.781	18.14
525.126	18.42
525.472	18.68
525.817	18.94
526.163	19.15
526.509	19.39
526.854	19.57
527.199	19.75
527.545	19.91
527.89	20.11
528.235	20.28
528.581	20.46
528.926	20.65
529.271	20.85
529.616	21.02
529.961	21.22
530.306	21.4
530.651	21.62
530.996	21.81
531.341	22.07
531.686	22.3
532.031	22.53
532.376	22.81
532.721	23.04
533.065	23.29
533.41	23.55
533.755	23.77
534.099	24.05
534.444	24.32
534.788	24.58
535.133	24.83
535.477	25.08
535.822	25.33
536.166	25.58
536.51	25.85
536.855	26.12
537.199	26.38
537.543	26.66
537.887	26.97
538.231	27.3
538.576	27.6
538.92	27.88
539.264	28.14
539.608	28.38
539.951	28.63
540.295	28.83
540.639	29.08
540.983	29.32
541.327	29.53
541.671	29.73
542.014	29.94
542.358	30.14
542.701	30.33
543.045	30.55
543.389	30.76
543.732	30.97
544.075	31.18
544.419	31.39
544.762	31.61
545.105	31.8
545.449	32.05
545.792	32.26
546.135	32.48
546.478	32.68
546.821	32.92
547.165	33.13
547.508	33.43
547.851	33.65
548.194	33.89
548.536	34.08
548.879	34.32
549.222	34.55
549.565	34.83
549.908	35.07
550.25	35.28
550.593	35.47
550.936	35.65
551.278	35.87
551.621	36.15
551.963	36.38
552.306	36.62
552.648	36.74
552.991	36.92
553.333	37.13
553.675	37.37
554.017	37.61
554.36	37.89
554.702	38.05
555.044	38.19
555.386	38.35
555.728	38.6
556.07	38.81
556.412	38.98
556.754	39.14
557.096	39.34
557.438	39.53
557.78	39.71
558.121	39.96
558.463	40.2
558.805	40.36
559.147	40.52
559.488	40.66
559.83	40.8
560.171	40.95
560.513	41.15
560.854	41.37
561.196	41.47
561.537	41.58
561.878	41.75
562.22	41.97
562.561	42.08
562.902	42.24
563.243	42.35
563.584	42.47
563.925	42.63
564.266	42.71
564.607	42.78
564.948	42.87
565.289	42.99
565.63	43.11
565.971	43.22
566.312	43.38
566.653	43.45
566.993	43.6
567.334	43.7
567.675	43.78
568.015	43.75
568.356	43.81
568.696	43.93
569.037	44.04
569.377	44.05
569.718	44.12
570.058	44.17
570.398	44.25
570.739	44.34
571.079	44.34
571.419	44.48
571.759	44.61
572.099	44.72
572.439	44.76
572.779	44.8
573.119	44.9
573.459	44.93
573.799	45.05
574.139	45.11
574.479	45.21
574.819	45.24
575.158	45.34
575.498	45.43
575.838	45.47
576.177	45.48
576.517	45.63
576.856	45.69
577.196	45.82
577.535	45.86
577.875	45.89
578.214	45.95
578.553	46.02
578.893	46.1
579.232	46.2
579.571	46.26
579.91	46.29
580.25	46.37
580.589	46.49
580.928	46.51
581.267	46.6
581.606	46.68
581.945	46.81
582.283	46.98
582.622	47.05
582.961	47.13
583.3	47.28
583.639	47.28
583.977	47.44
584.316	47.48
584.654	47.66
584.993	47.82
585.332	47.88
585.67	47.88
586.008	47.94
586.347	47.99
586.685	48.04
587.024	48.22
587.362	48.21
587.7	48.25
588.038	48.38
588.376	48.45
588.715	48.49
589.053	48.48
589.391	48.53
589.729	48.61
590.067	48.63
590.404	48.66
590.742	48.65
591.08	48.67
591.418	48.74
591.756	48.74
592.093	48.77
592.431	48.89
592.769	48.96
593.106	49.02
593.444	49.05
593.781	49.12
594.119	49.15
594.456	49.23
594.793	49.25
595.131	49.3
595.468	49.33
595.805	49.36
596.143	49.46
596.48	49.48
596.817	49.5
597.154	49.57
597.491	49.63
597.828	49.72
598.165	49.73
598.502	49.73
598.839	49.77
599.176	49.85
599.512	49.9
599.849	50.02
600.186	50.1
600.523	50.14
600.859	50.23
601.196	50.23
601.532	50.31
601.869	50.44
602.205	50.52
602.542	50.61
602.878	50.64
603.215	50.63
603.551	50.63
603.887	50.67
604.223	50.74
604.56	50.78
604.896	50.84
605.232	50.91
605.568	50.95
605.904	51
606.24	50.95
606.576	51
606.912	50.97
607.248	50.97
607.583	51
607.919	50.97
608.255	51.05
608.591	50.98
608.926	50.96
609.262	50.92
609.597	50.93
609.933	50.99
610.268	51.09
610.604	51.19
610.939	51.21
611.275	51.23
611.61	51.25
611.945	51.24
612.281	51.21
612.616	51.25
612.951	51.22
613.286	51.22
613.621	51.22
613.956	51.26
614.291	51.28
614.626	51.36
614.961	51.45
615.296	51.44
615.631	51.53
615.966	51.48
616.3	51.55
616.635	51.53
616.97	51.5
617.304	51.56
617.639	51.53
617.973	51.55
618.308	51.55
618.642	51.6
618.977	51.71
619.311	51.73
619.646	51.65
619.98	51.77
620.314	51.78
620.648	51.79
620.983	51.78
621.317	51.88
621.651	51.9
621.985	51.77
622.319	51.83
622.653	51.8
622.987	51.9
623.321	51.88
623.655	51.91
623.988	52
624.322	51.99
624.656	51.97
624.99	52.02
625.323	52
625.657	51.97
625.99	51.91
626.324	52.05
626.657	52.2
626.991	52.22
627.324	52.27
627.658	52.29
627.991	52.46
628.324	52.38
628.657	52.42
628.991	52.54
629.324	52.53
629.657	52.6
629.99	52.55
630.323	52.65
630.656	52.66
630.989	52.65
631.322	52.74
631.655	52.83
631.987	52.79
632.32	52.89
632.653	52.92
632.986	52.91
633.318	52.88
633.651	52.9
633.984	52.86
634.316	52.81
634.649	52.77
634.981	52.7
635.313	52.71
635.646	52.7
635.978	52.74
636.31	52.66
636.643	52.69
636.975	52.74
637.307	52.72
637.639	52.72
637.971	52.58
638.303	52.46
638.635	52.47
638.967	52.56
639.299	52.47
639.631	52.43
639.963	52.52
640.295	52.51
640.626	52.37
640.958	52.4
641.29	52.51
641.621	52.63
641.953	52.53
642.285	52.58
642.616	52.7
642.948	52.7
643.279	52.82
643.61	52.86
643.942	52.89
644.273	52.86
644.604	52.82
644.936	52.93
645.267	52.97
645.598	53.04
645.929	52.98
646.26	53.02
646.591	52.94
646.922	52.93
647.253	52.88
647.584	52.94
647.915	52.93
648.245	52.94
648.576	52.78
648.907	52.89
649.238	52.83
649.568	52.73
649.899	52.72
650.229	52.73
650.56	52.68
650.89	52.67
651.221	52.68
651.551	52.69
651.882	52.64
652.212	52.67
652.542	52.63
652.872	52.66
653.203	52.6
653.533	52.74
653.863	52.61
654.193	52.71
654.523	52.74
654.853	52.77
655.183	52.87
655.513	52.92
655.843	52.92
656.172	53.04
656.502	53.07
656.832	53.18
657.162	53.19
657.491	53.25
657.821	53.23
658.15	53.26
658.48	53.38
658.809	53.38
659.139	53.36
659.468	53.33
659.798	53.32
660.127	53.48
660.456	53.43
660.785	53.54
661.115	53.41
661.444	53.59
661.773	53.7
662.102	53.68
662.431	53.84
662.76	53.89
663.089	53.81
663.418	53.81
663.747	53.65
664.076	53.72
664.404	53.74
664.733	53.91
665.062	53.77
665.39	53.72
665.719	53.8
666.048	53.86
666.376	53.77
666.705	53.88
667.033	53.94
667.362	54.03
667.69	54.02
668.018	54.08
