Data from MVZ_BU57658_Reflection_00005.txt Node
Date: Tue Nov 19 12:13:24 EST 2019
User: vgr7
Spectrometer: USB2G7710
Scans to average: 3
Trigger mode: 4
Integration Time (sec): 2.000000E-2
Electric dark correction enabled: true
Boxcar width: 10
XAxis mode: Wavelengths
Number of Pixels in Spectrum: 2048
>>>>>Begin Spectral Data<<<<<
177.721	303.39
178.105	100
178.488	-39.07
178.871	-50
179.254	-260
179.636	276.47
180.019	-22.45
180.402	125
180.785	12.2
181.168	88.72
181.55	21.16
181.933	61.75
182.316	40.96
182.698	3.98
183.081	24.34
183.463	32.14
183.846	22.43
184.228	37.64
184.611	28.35
184.993	73.33
185.376	65.25
185.758	29.46
186.14	2.33
186.522	43.09
186.904	180
187.287	110.31
187.669	36
188.051	70.06
188.433	775.68
188.815	-302.3
189.197	-284.62
189.579	-122.59
189.961	-126.05
190.342	-49.07
190.724	-64.13
191.106	-63.27
191.488	-56.61
191.869	-54.53
192.251	-41.52
192.633	-40.44
193.014	-30.8
193.396	-33.58
193.777	-26.04
194.159	-42.11
194.54	-51.21
194.922	-63.41
195.303	-91.21
195.684	-92.4
196.065	-108.23
196.447	-65.17
196.828	-83.75
197.209	-84.47
197.59	-63.5
197.971	-109.94
198.352	2655.56
198.733	-431.91
199.114	212.68
199.495	-627.27
199.876	-426.32
200.257	-12900
200.638	671.43
201.018	532.43
201.399	268.54
201.78	398.7
202.16	1420
202.541	1805.88
202.922	-2823.08
203.302	-131.16
203.683	-60
204.063	-45.26
204.444	-50.84
204.824	-53.27
205.204	-25.22
205.585	-24.15
205.965	-42.21
206.345	-48.36
206.725	-38.36
207.106	-37.87
207.486	-56.52
207.866	-51.9
208.246	-41.15
208.626	-87.35
209.006	-110.37
209.386	-128.43
209.766	-218.52
210.145	-205.79
210.525	-313.33
210.905	-98.58
211.285	-67.7
211.664	-123.53
212.044	-19.4
212.424	-1185.71
212.803	-178.69
213.183	100
213.562	-18.52
213.942	-0.72
214.321	-17.12
214.701	-60.8
215.08	-25.41
215.459	-8.3
215.838	-39.3
216.218	-61.83
216.597	-4.44
216.976	4.43
217.355	-10.9
217.734	-26.2
218.113	-9.89
218.492	-21.12
218.871	-29.32
219.25	-27.47
219.629	-44.46
220.008	-43.76
220.387	-58.68
220.766	-46.69
221.144	-40.52
221.523	-57.74
221.902	-25.5
222.28	-1.73
222.659	15.21
223.037	26.96
223.416	24.22
223.794	23.32
224.173	21.02
224.551	20.25
224.929	16.08
225.308	20.21
225.686	29.27
226.064	22.01
226.442	15.51
226.821	10.79
227.199	6.95
227.577	9.28
227.955	8.67
228.333	2.33
228.711	0.97
229.089	3.12
229.467	3.3
229.845	-1.76
230.222	-1.2
230.6	-3.5
230.978	-5.66
231.356	-4.99
231.733	-4.29
232.111	-2.63
232.488	-2.61
232.866	-3.88
233.243	-5.42
233.621	-4.61
233.998	-3.12
234.376	0.23
234.753	1.35
235.13	1.11
235.508	0.9
235.885	0.02
236.262	1.96
236.639	0.81
237.016	1
237.393	2.25
237.77	3.17
238.147	1.56
238.524	1.21
238.901	1.34
239.278	0.48
239.655	-0.12
240.032	0.13
240.409	0.87
240.785	1.56
241.162	1.5
241.539	0.81
241.915	0.59
242.292	0.87
242.668	0.71
243.045	1.1
243.421	1.96
243.798	1.97
244.174	2.28
244.551	2.9
244.927	2.75
245.303	2.75
245.679	2.64
246.056	2.61
246.432	2.74
246.808	2.7
247.184	3.02
247.56	3.31
247.936	3.54
248.312	3.3
248.688	3.3
249.064	3.21
249.44	3.23
249.815	3.45
250.191	3.27
250.567	3.38
250.943	3.42
251.318	3.08
251.694	3.02
252.069	2.96
252.445	2.87
252.82	2.97
253.196	3.06
253.571	3.17
253.947	3.43
254.322	3.35
254.697	3.28
255.073	3.18
255.448	3.21
255.823	2.77
256.198	2.48
256.573	2.42
256.948	2.78
257.323	2.95
257.698	2.95
258.073	3.13
258.448	3.36
258.823	3.14
259.198	3.08
259.573	3.09
259.948	3.13
260.322	2.92
260.697	3.01
261.072	2.96
261.446	2.92
261.821	2.8
262.195	2.88
262.57	3.04
262.944	2.91
263.319	2.86
263.693	2.91
264.067	3.18
264.442	3.12
264.816	3.06
265.19	2.83
265.564	2.87
265.938	2.81
266.313	2.6
266.687	2.75
267.061	2.9
267.435	3.09
267.809	2.95
268.183	3.02
268.556	2.92
268.93	2.95
269.304	2.98
269.678	3.1
270.051	3.28
270.425	3.31
270.799	3.3
271.172	3.35
271.546	3.62
271.919	3.5
272.293	3.6
272.666	3.43
273.04	3.6
273.413	3.63
273.787	3.51
274.16	3.31
274.533	3.22
274.906	3.25
275.279	3.06
275.653	3.34
276.026	3.26
276.399	3.24
276.772	3.26
277.145	3.26
277.518	3.08
277.891	2.92
278.263	3.02
278.636	3.11
279.009	2.94
279.382	2.69
279.755	2.82
280.127	2.93
280.5	3.16
280.872	3.19
281.245	3.09
281.617	3.04
281.99	3.35
282.362	3.43
282.735	3.31
283.107	3.38
283.479	3.17
283.852	3.25
284.224	3.32
284.596	3.27
284.968	3.27
285.34	3.34
285.713	3.54
286.085	3.34
286.457	3.36
286.829	3.48
287.201	3.48
287.572	3.45
287.944	3.5
288.316	3.36
288.688	3.32
289.06	3.39
289.431	3.66
289.803	3.66
290.175	3.64
290.546	3.69
290.918	3.84
291.289	3.78
291.661	3.85
292.032	3.89
292.403	3.83
292.775	3.97
293.146	3.91
293.517	3.64
293.889	3.62
294.26	3.52
294.631	3.41
295.002	3.37
295.373	3.33
295.744	3.28
296.115	3.38
296.486	3.43
296.857	3.31
297.228	3.14
297.599	2.95
297.97	3.08
298.34	3.07
298.711	3.03
299.082	2.96
299.452	2.89
299.823	2.91
300.194	2.95
300.564	2.73
300.935	2.8
301.305	2.82
301.676	2.7
302.046	2.87
302.416	2.89
302.787	2.81
303.157	2.78
303.527	2.83
303.897	2.7
304.267	2.67
304.637	2.49
305.008	2.39
305.378	2.51
305.748	2.32
306.117	2.31
306.487	2.29
306.857	2.59
307.227	2.77
307.597	2.65
307.967	2.65
308.336	2.75
308.706	2.79
309.076	2.91
309.445	3.13
309.815	3.08
310.184	3.1
310.554	3.29
310.923	3.33
311.293	3.38
311.662	3.44
312.031	3.47
312.401	3.68
312.77	3.69
313.139	3.71
313.508	3.66
313.877	3.67
314.246	3.59
314.616	3.64
314.985	3.57
315.353	3.69
315.722	3.72
316.091	3.62
316.46	3.56
316.829	3.54
317.198	3.51
317.567	3.48
317.935	3.46
318.304	3.45
318.672	3.54
319.041	3.49
319.41	3.59
319.778	3.66
320.147	3.75
320.515	3.8
320.883	3.87
321.252	4.05
321.62	4.02
321.988	4.21
322.357	4.05
322.725	4.05
323.093	4
323.461	4.03
323.829	4.21
324.197	4.22
324.565	4.17
324.933	4.14
325.301	3.99
325.669	4.22
326.037	4.24
326.405	4.13
326.772	4.15
327.14	3.92
327.508	3.85
327.875	3.87
328.243	3.92
328.61	3.83
328.978	3.82
329.346	3.91
329.713	3.96
330.08	4.03
330.448	3.99
330.815	3.94
331.182	3.95
331.55	3.93
331.917	3.82
332.284	3.93
332.651	4.12
333.018	4.3
333.385	4.15
333.752	4.16
334.119	4.24
334.486	4.08
334.853	4.18
335.22	4.21
335.587	4.06
335.954	3.93
336.32	3.8
336.687	3.88
337.054	3.73
337.42	3.77
337.787	3.81
338.153	3.82
338.52	3.91
338.886	3.9
339.253	3.73
339.619	3.87
339.986	3.81
340.352	3.67
340.718	3.6
341.084	3.57
341.451	3.62
341.817	3.72
342.183	3.8
342.549	3.82
342.915	3.79
343.281	3.84
343.647	3.95
344.013	4.08
344.379	4
344.745	4.04
345.11	3.92
345.476	3.91
345.842	3.82
346.208	3.76
346.573	3.76
346.939	3.96
347.304	3.97
347.67	3.93
348.035	3.82
348.401	3.89
348.766	3.95
349.132	3.97
349.497	3.88
349.862	3.77
350.228	3.89
350.593	3.86
350.958	3.93
351.323	3.91
351.688	3.92
352.053	3.93
352.418	3.98
352.783	3.97
353.148	4.01
353.513	4.08
353.878	4.19
354.243	4.08
354.608	4.11
354.972	4.16
355.337	4.2
355.702	4.31
356.066	4.31
356.431	4.32
356.795	4.29
357.16	4.33
357.524	4.36
357.889	4.2
358.253	4.17
358.618	4.15
358.982	4.19
359.346	4.15
359.71	4.07
360.075	4.07
360.439	4.1
360.803	4.06
361.167	4.08
361.531	4.05
361.895	4.18
362.259	4.13
362.623	4.07
362.987	4.05
363.351	4.04
363.714	4.05
364.078	4.05
364.442	4.01
364.806	3.95
365.169	3.96
365.533	4.08
365.896	4.13
366.26	4.13
366.623	4.18
366.987	4.22
367.35	4.34
367.714	4.36
368.077	4.41
368.44	4.46
368.803	4.41
369.167	4.33
369.53	4.32
369.893	4.24
370.256	4.21
370.619	4.21
370.982	4.15
371.345	4.13
371.708	4.09
372.071	4.04
372.434	4.04
372.797	4.09
373.159	4.11
373.522	4.05
373.885	4.05
374.247	4.02
374.61	3.98
374.973	3.95
375.335	3.91
375.698	3.85
376.06	3.8
376.423	3.78
376.785	3.87
377.147	3.88
377.51	3.89
377.872	3.92
378.234	3.97
378.596	4.05
378.958	4.1
379.321	4.14
379.683	4.18
380.045	4.19
380.407	4.11
380.769	4.05
381.13	4.08
381.492	4
381.854	3.96
382.216	4
382.578	4
382.939	3.99
383.301	3.98
383.663	3.96
384.024	4
384.386	3.91
384.747	3.9
385.109	3.88
385.47	3.9
385.832	3.83
386.193	3.76
386.554	3.69
386.916	3.7
387.277	3.71
387.638	3.69
387.999	3.7
388.36	3.7
388.721	3.72
389.082	3.8
389.443	3.82
389.804	3.85
390.165	3.88
390.526	3.93
390.887	3.93
391.248	3.94
391.609	3.99
391.969	4.07
392.33	4.08
392.691	4.16
393.051	4.13
393.412	4.16
393.772	4.19
394.133	4.19
394.493	4.14
394.854	4.18
395.214	4.22
395.574	4.24
395.935	4.22
396.295	4.24
396.655	4.21
397.015	4.22
397.376	4.18
397.736	4.1
398.096	4.06
398.456	4.07
398.816	4.05
399.176	3.96
399.535	3.89
399.895	3.85
400.255	3.79
400.615	3.82
400.975	3.85
401.334	3.85
401.694	3.88
402.054	3.91
402.413	3.91
402.773	3.9
403.132	3.85
403.492	3.9
403.851	3.84
404.211	3.81
404.57	3.8
404.929	3.83
405.288	3.84
405.648	3.87
406.007	3.87
406.366	3.88
406.725	3.9
407.084	3.92
407.443	3.92
407.802	3.92
408.161	3.94
408.52	3.92
408.879	3.93
409.238	3.93
409.596	3.91
409.955	3.88
410.314	3.89
410.673	3.94
411.031	3.92
411.39	3.97
411.748	4.01
412.107	3.97
412.465	3.96
412.824	3.97
413.182	3.95
413.54	3.94
413.899	3.94
414.257	3.95
414.615	3.96
414.974	3.96
415.332	3.96
415.69	3.91
416.048	3.88
416.406	3.85
416.764	3.86
417.122	3.83
417.48	3.83
417.838	3.8
418.195	3.79
418.553	3.78
418.911	3.76
419.269	3.76
419.626	3.77
419.984	3.77
420.342	3.78
420.699	3.77
421.057	3.77
421.414	3.77
421.772	3.76
422.129	3.75
422.486	3.75
422.844	3.73
423.201	3.73
423.558	3.74
423.915	3.76
424.273	3.73
424.63	3.73
424.987	3.73
425.344	3.74
425.701	3.75
426.058	3.74
426.415	3.74
426.772	3.71
427.128	3.7
427.485	3.71
427.842	3.71
428.199	3.7
428.555	3.69
428.912	3.69
429.269	3.68
429.625	3.67
429.982	3.67
430.338	3.68
430.695	3.69
431.051	3.7
431.407	3.68
431.764	3.69
432.12	3.71
432.476	3.69
432.832	3.71
433.189	3.7
433.545	3.71
433.901	3.7
434.257	3.72
434.613	3.72
434.969	3.71
435.325	3.69
435.681	3.7
436.036	3.72
436.392	3.72
436.748	3.71
437.104	3.71
437.459	3.71
437.815	3.72
438.171	3.75
438.526	3.73
438.882	3.75
439.237	3.75
439.593	3.75
439.948	3.75
440.304	3.73
440.659	3.73
441.014	3.73
441.369	3.75
441.725	3.74
442.08	3.74
442.435	3.76
442.79	3.77
443.145	3.78
443.5	3.77
443.855	3.76
444.21	3.79
444.565	3.8
444.92	3.8
445.275	3.79
445.629	3.75
445.984	3.76
446.339	3.74
446.693	3.75
447.048	3.75
447.403	3.75
447.757	3.76
448.112	3.77
448.466	3.79
448.82	3.79
449.175	3.8
449.529	3.78
449.883	3.78
450.238	3.74
450.592	3.73
450.946	3.75
451.3	3.75
451.654	3.72
452.008	3.72
452.362	3.71
452.716	3.71
453.07	3.73
453.424	3.69
453.778	3.72
454.132	3.71
454.486	3.7
454.839	3.7
455.193	3.7
455.547	3.69
455.9	3.69
456.254	3.69
456.607	3.69
456.961	3.7
457.314	3.71
457.668	3.73
458.021	3.74
458.375	3.74
458.728	3.76
459.081	3.77
459.434	3.77
459.787	3.79
460.141	3.81
460.494	3.8
460.847	3.83
461.2	3.83
461.553	3.85
461.906	3.87
462.259	3.84
462.611	3.84
462.964	3.85
463.317	3.84
463.67	3.84
464.022	3.85
464.375	3.84
464.728	3.84
465.08	3.82
465.433	3.85
465.785	3.85
466.138	3.83
466.49	3.84
466.843	3.85
467.195	3.84
467.547	3.82
467.899	3.87
468.252	3.87
468.604	3.86
468.956	3.86
469.308	3.83
469.66	3.85
470.012	3.85
470.364	3.85
470.716	3.87
471.068	3.87
471.42	3.89
471.772	3.9
472.123	3.91
472.475	3.91
472.827	3.9
473.178	3.9
473.53	3.92
473.882	3.93
474.233	3.91
474.585	3.91
474.936	3.9
475.288	3.88
475.639	3.86
475.99	3.87
476.342	3.86
476.693	3.89
477.044	3.89
477.395	3.87
477.746	3.88
478.097	3.89
478.448	3.89
478.8	3.87
479.15	3.88
479.501	3.88
479.852	3.88
480.203	3.88
480.554	3.89
480.905	3.9
481.255	3.88
481.606	3.88
481.957	3.91
482.307	3.91
482.658	3.92
483.009	3.92
483.359	3.92
483.709	3.93
484.06	3.93
484.41	3.94
484.761	3.95
485.111	3.96
485.461	3.94
485.811	3.94
486.162	3.94
486.512	3.94
486.862	3.94
487.212	3.95
487.562	3.95
487.912	3.97
488.262	3.96
488.612	3.98
488.961	3.98
489.311	3.96
489.661	3.97
490.011	3.96
490.36	3.96
490.71	3.96
491.06	3.95
491.409	3.94
491.759	3.94
492.108	3.94
492.458	3.93
492.807	3.96
493.157	3.97
493.506	3.99
493.855	4.01
494.204	4.03
494.554	4.01
494.903	4.02
495.252	4.02
495.601	4.03
495.95	4.03
496.299	4.07
496.648	4.1
496.997	4.13
497.346	4.15
497.695	4.16
498.043	4.17
498.392	4.23
498.741	4.28
499.09	4.3
499.438	4.32
499.787	4.32
500.135	4.3
500.484	4.31
500.832	4.3
501.181	4.32
501.529	4.34
501.878	4.37
502.226	4.39
502.574	4.39
502.923	4.42
503.271	4.44
503.619	4.44
503.967	4.42
504.315	4.43
504.663	4.46
505.011	4.48
505.359	4.49
505.707	4.5
506.055	4.5
506.403	4.51
506.751	4.55
507.098	4.59
507.446	4.6
507.794	4.62
508.141	4.65
508.489	4.67
508.837	4.69
509.184	4.71
509.531	4.72
509.879	4.75
510.226	4.75
510.574	4.77
510.921	4.8
511.268	4.81
511.616	4.81
511.963	4.85
512.31	4.86
512.657	4.88
513.004	4.9
513.351	4.91
513.698	4.93
514.045	4.92
514.392	4.94
514.739	4.97
515.086	4.99
515.432	4.98
515.779	4.99
516.126	5.02
516.473	5.04
516.819	5.05
517.166	5.05
517.512	5.07
517.859	5.07
518.205	5.07
518.552	5.1
518.898	5.13
519.245	5.14
519.591	5.15
519.937	5.18
520.283	5.17
520.629	5.2
520.976	5.2
521.322	5.22
521.668	5.21
522.014	5.21
522.36	5.19
522.706	5.22
523.052	5.25
523.398	5.26
523.743	5.28
524.089	5.33
524.435	5.36
524.781	5.37
525.126	5.39
525.472	5.42
525.817	5.42
526.163	5.43
526.509	5.43
526.854	5.44
527.199	5.43
527.545	5.46
527.89	5.46
528.235	5.48
528.581	5.48
528.926	5.5
529.271	5.51
529.616	5.54
529.961	5.55
530.306	5.56
530.651	5.55
530.996	5.55
531.341	5.54
531.686	5.54
532.031	5.55
532.376	5.55
532.721	5.55
533.065	5.57
533.41	5.55
533.755	5.57
534.099	5.58
534.444	5.59
534.788	5.59
535.133	5.59
535.477	5.59
535.822	5.6
536.166	5.61
536.51	5.63
536.855	5.63
537.199	5.64
537.543	5.64
537.887	5.66
538.231	5.66
538.576	5.67
538.92	5.69
539.264	5.71
539.608	5.74
539.951	5.76
540.295	5.77
540.639	5.82
540.983	5.83
541.327	5.83
541.671	5.85
542.014	5.87
542.358	5.88
542.701	5.89
543.045	5.9
543.389	5.9
543.732	5.9
544.075	5.91
544.419	5.92
544.762	5.92
545.105	5.95
545.449	5.97
545.792	5.98
546.135	5.99
546.478	5.99
546.821	5.97
547.165	5.98
547.508	5.98
547.851	5.95
548.194	5.93
548.536	5.91
548.879	5.9
549.222	5.89
549.565	5.9
549.908	5.9
550.25	5.91
550.593	5.89
550.936	5.92
551.278	5.91
551.621	5.94
551.963	5.96
552.306	5.96
552.648	5.94
552.991	5.96
553.333	5.92
553.675	5.96
554.017	5.98
554.36	5.99
554.702	5.95
555.044	5.99
555.386	6.03
555.728	6.06
556.07	6.05
556.412	6.08
556.754	6.08
557.096	6.06
557.438	6.05
557.78	6.09
558.121	6.08
558.463	6.07
558.805	6.06
559.147	6.06
559.488	6.05
559.83	6.07
560.171	6.08
560.513	6.12
560.854	6.11
561.196	6.12
561.537	6.11
561.878	6.13
562.22	6.15
562.561	6.14
562.902	6.15
563.243	6.16
563.584	6.12
563.925	6.14
564.266	6.16
564.607	6.17
564.948	6.17
565.289	6.17
565.63	6.17
565.971	6.18
566.312	6.2
566.653	6.22
566.993	6.19
567.334	6.21
567.675	6.23
568.015	6.23
568.356	6.23
568.696	6.24
569.037	6.23
569.377	6.21
569.718	6.23
570.058	6.23
570.398	6.24
570.739	6.24
571.079	6.22
571.419	6.25
571.759	6.26
572.099	6.27
572.439	6.26
572.779	6.27
573.119	6.25
573.459	6.26
573.799	6.24
574.139	6.26
574.479	6.26
574.819	6.25
575.158	6.24
575.498	6.23
575.838	6.23
576.177	6.25
576.517	6.24
576.856	6.22
577.196	6.22
577.535	6.24
577.875	6.3
578.214	6.31
578.553	6.27
578.893	6.31
579.232	6.33
579.571	6.34
579.91	6.35
580.25	6.35
580.589	6.3
580.928	6.31
581.267	6.32
581.606	6.34
581.945	6.34
582.283	6.33
582.622	6.33
582.961	6.34
583.3	6.32
583.639	6.31
583.977	6.33
584.316	6.39
584.654	6.42
584.993	6.4
585.332	6.36
585.67	6.39
586.008	6.37
586.347	6.34
586.685	6.31
587.024	6.29
587.362	6.27
587.7	6.33
588.038	6.37
588.376	6.39
588.715	6.35
589.053	6.38
589.391	6.4
589.729	6.43
590.067	6.45
590.404	6.48
590.742	6.5
591.08	6.52
591.418	6.47
591.756	6.46
592.093	6.47
592.431	6.51
592.769	6.51
593.106	6.47
593.444	6.48
593.781	6.5
594.119	6.49
594.456	6.54
594.793	6.51
595.131	6.47
595.468	6.46
595.805	6.49
596.143	6.46
596.48	6.47
596.817	6.48
597.154	6.48
597.491	6.48
597.828	6.52
598.165	6.46
598.502	6.5
598.839	6.5
599.176	6.5
599.512	6.48
599.849	6.5
600.186	6.52
600.523	6.53
600.859	6.54
601.196	6.58
601.532	6.58
601.869	6.61
602.205	6.6
602.542	6.57
602.878	6.58
603.215	6.61
603.551	6.62
603.887	6.62
604.223	6.61
604.56	6.57
604.896	6.52
605.232	6.59
605.568	6.55
605.904	6.55
606.24	6.57
606.576	6.59
606.912	6.57
607.248	6.61
607.583	6.61
607.919	6.62
608.255	6.6
608.591	6.6
608.926	6.59
609.262	6.64
609.597	6.67
609.933	6.69
610.268	6.68
610.604	6.64
610.939	6.63
611.275	6.66
611.61	6.66
611.945	6.69
612.281	6.67
612.616	6.69
612.951	6.69
613.286	6.69
613.621	6.7
613.956	6.72
614.291	6.7
614.626	6.68
614.961	6.71
615.296	6.78
615.631	6.82
615.966	6.86
616.3	6.88
616.635	6.91
616.97	6.88
617.304	6.85
617.639	6.87
617.973	6.89
618.308	6.86
618.642	6.89
618.977	6.91
619.311	6.91
619.646	6.87
619.98	6.86
620.314	6.87
620.648	6.85
620.983	6.87
621.317	6.87
621.651	6.83
621.985	6.81
622.319	6.78
622.653	6.74
622.987	6.7
623.321	6.64
623.655	6.6
623.988	6.62
624.322	6.66
624.656	6.7
624.99	6.66
625.323	6.68
625.657	6.7
625.99	6.64
626.324	6.64
626.657	6.64
626.991	6.66
627.324	6.62
627.658	6.63
627.991	6.66
628.324	6.62
628.657	6.64
628.991	6.68
629.324	6.72
629.657	6.68
629.99	6.72
630.323	6.74
630.656	6.69
630.989	6.63
631.322	6.6
631.655	6.58
631.987	6.61
632.32	6.65
632.653	6.64
632.986	6.7
633.318	6.7
633.651	6.76
633.984	6.76
634.316	6.76
634.649	6.78
634.981	6.72
635.313	6.78
635.646	6.8
635.978	6.8
636.31	6.77
636.643	6.78
636.975	6.75
637.307	6.71
637.639	6.81
637.971	6.85
638.303	6.87
638.635	6.87
638.967	6.85
639.299	6.82
639.631	6.85
639.963	6.83
640.295	6.83
640.626	6.82
640.958	6.81
641.29	6.86
641.621	6.79
641.953	6.79
642.285	6.78
642.616	6.8
642.948	6.78
643.279	6.82
643.61	6.87
643.942	6.86
644.273	6.95
644.604	6.84
644.936	6.88
645.267	6.88
645.598	6.88
645.929	6.84
646.26	6.85
646.591	6.83
646.922	6.91
647.253	6.96
647.584	6.95
647.915	6.95
648.245	6.91
648.576	6.94
648.907	6.95
649.238	6.99
649.568	6.96
649.899	6.96
650.229	6.89
650.56	6.95
650.89	7
651.221	6.98
651.551	7.1
651.882	7.06
652.212	7.1
652.542	7.21
652.872	7.31
653.203	7.35
653.533	7.36
653.863	7.28
654.193	7.2
654.523	7.18
654.853	7.28
655.183	7.28
655.513	7.35
655.843	7.37
656.172	7.38
656.502	7.36
656.832	7.37
657.162	7.41
657.491	7.36
657.821	7.38
658.15	7.39
658.48	7.39
658.809	7.4
659.139	7.41
659.468	7.29
659.798	7.31
660.127	7.27
660.456	7.22
660.785	7.26
661.115	7.33
661.444	7.37
661.773	7.33
662.102	7.4
662.431	7.38
662.76	7.33
663.089	7.37
663.418	7.42
663.747	7.44
664.076	7.43
664.404	7.49
664.733	7.41
665.062	7.38
665.39	7.37
665.719	7.35
666.048	7.29
666.376	7.39
666.705	7.36
667.033	7.42
667.362	7.44
667.69	7.49
668.018	7.48
668.347	7.42
668.675	7.37
669.003	7.26
669.331	7.27
669.659	7.31
669.987	7.29
670.315	7.28
670.643	7.3
670.971	7.36
671.299	7.25
671.627	7.37
671.955	7.32
672.283	7.31
672.61	7.41
672.938	7.49
673.266	7.43
673.593	7.38
673.921	7.34
674.249	7.36
674.576	7.35
674.904	7.33
675.231	7.35
675.558	7.42
675.886	7.46
676.213	7.46
676.54	7.5
676.867	7.45
677.195	7.58
677.522	7.6
677.849	7.52
678.176	7.58
