Data from MVZ_BU57658_Reflection_00014.txt Node
Date: Tue Nov 19 12:13:44 EST 2019
User: vgr7
Spectrometer: USB2G7710
Scans to average: 3
Trigger mode: 4
Integration Time (sec): 2.000000E-2
Electric dark correction enabled: true
Boxcar width: 10
XAxis mode: Wavelengths
Number of Pixels in Spectrum: 2048
>>>>>Begin Spectral Data<<<<<
177.721	173.45
178.105	-66.67
178.488	-100.88
178.871	71.67
179.254	113.33
179.636	590.2
180.019	-498.64
180.402	137.5
180.785	30.08
181.168	-30.33
181.55	-63.21
181.933	-43.9
182.316	-37.76
182.698	-38.95
183.081	-25.43
183.463	-24.42
183.846	-36.97
184.228	-48.58
184.611	-78.61
184.993	-150.37
185.376	-152.25
185.758	-108.85
186.14	-73.64
186.522	-130.35
186.904	-1273.33
187.287	-315.81
187.669	-382.67
188.051	-291.22
188.433	-963.06
188.815	494.64
189.197	367.4
189.579	87.82
189.961	112.77
190.342	69.63
190.724	34.57
191.106	36.16
191.488	66.29
191.869	66.32
192.251	56.39
192.633	58.82
193.014	59.68
193.396	42.99
193.777	46.89
194.159	66.54
194.54	71.94
194.922	89.93
195.303	111.72
195.684	79.41
196.065	80.29
196.447	128.03
196.828	115.31
197.209	97.84
197.59	78.45
197.971	107.37
198.352	-1270.37
198.733	490.07
199.114	-242.72
199.495	857.58
199.876	380.7
200.257	8433.33
200.638	-868.25
201.018	-449.55
201.399	-150.94
201.78	-293.94
202.16	-593.33
202.541	-566.67
202.922	587.18
203.302	11.22
203.683	-5.78
204.063	16.49
204.444	-5.52
204.824	12.77
205.204	14.73
205.585	44.32
205.965	62.38
206.345	60.18
206.725	56.67
207.106	63.93
207.486	74.49
207.866	80.71
208.246	106.63
208.626	69.18
209.006	72.14
209.386	116.92
209.766	80.25
210.145	111.02
210.525	184.44
210.905	102.36
211.285	139.34
211.664	386.27
212.044	448.26
212.424	-6804.76
212.803	-790.71
213.183	-1652.38
213.562	450.62
213.942	397.36
214.321	436.34
214.701	202.18
215.08	104.4
215.459	119.25
215.838	136.48
216.218	76.49
216.597	77.37
216.976	65.81
217.355	60.48
217.734	87.25
218.113	83.25
218.492	93.11
218.871	99
219.25	95.95
219.629	103.75
220.008	97.37
220.387	82.37
220.766	66.62
221.144	56.8
221.523	39.7
221.902	35.71
222.28	48.36
222.659	57.41
223.037	72.55
223.416	63.15
223.794	53.71
224.173	53.4
224.551	48.93
224.929	47.76
225.308	39.58
225.686	31.78
226.064	29.99
226.442	23.65
226.821	19.14
227.199	16.99
227.577	12.04
227.955	15.38
228.333	13.92
228.711	15.44
229.089	12.75
229.467	13.66
229.845	10.22
230.222	11.61
230.6	10.03
230.978	9.31
231.356	7.36
231.733	8.36
232.111	7.7
232.488	8.85
232.866	12.83
233.243	14.61
233.621	15.19
233.998	14.17
234.376	13.48
234.753	13.26
235.13	12.83
235.508	14.63
235.885	13.55
236.262	12.84
236.639	11.05
237.016	11.89
237.393	14.1
237.77	14.78
238.147	12.33
238.524	12.85
238.901	11.2
239.278	11.83
239.655	10.79
240.032	10.16
240.409	10.65
240.785	8.59
241.162	8.16
241.539	7.07
241.915	6.42
242.292	6.85
242.668	6.52
243.045	6.62
243.421	6.37
243.798	6.13
244.174	6.35
244.551	6.4
244.927	6.2
245.303	5.4
245.679	5.56
246.056	5.51
246.432	5.66
246.808	5.85
247.184	5.8
247.56	5.8
247.936	6.03
248.312	5.85
248.688	6.13
249.064	5.85
249.44	6.01
249.815	6.07
250.191	5.81
250.567	5.71
250.943	5.43
251.318	5.28
251.694	5.4
252.069	5.24
252.445	4.97
252.82	5.43
253.196	5.62
253.571	5.46
253.947	5.63
254.322	5.09
254.697	4.9
255.073	4.53
255.448	4.49
255.823	4.45
256.198	4.18
256.573	4.12
256.948	4.25
257.323	4.27
257.698	4.09
258.073	4.37
258.448	4.5
258.823	4.44
259.198	4.57
259.573	4.32
259.948	4.33
260.322	4.44
260.697	4.34
261.072	4.28
261.446	4.23
261.821	4.12
262.195	4.13
262.57	4.05
262.944	4.05
263.319	4.21
263.693	4.1
264.067	4.07
264.442	4.09
264.816	4.01
265.19	4.01
265.564	4.09
265.938	3.55
266.313	3.44
266.687	3.86
267.061	3.82
267.435	4.14
267.809	4.05
268.183	3.93
268.556	3.85
268.93	4.12
269.304	4.18
269.678	4.17
270.051	4.17
270.425	4.43
270.799	4.39
271.172	4.34
271.546	4.45
271.919	4.5
272.293	4.42
272.666	4.47
273.04	4.31
273.413	4.36
273.787	4.72
274.16	4.59
274.533	4.57
274.906	4.46
275.279	4.24
275.653	4.41
276.026	4.61
276.399	4.57
276.772	4.43
277.145	4.46
277.518	4.44
277.891	4.57
278.263	4.5
278.636	4.42
279.009	4.49
279.382	4.36
279.755	4.38
280.127	4.44
280.5	4.49
280.872	4.69
281.245	4.65
281.617	4.64
281.99	4.71
282.362	4.63
282.735	4.49
283.107	4.46
283.479	4.63
283.852	4.53
284.224	4.62
284.596	4.6
284.968	4.58
285.34	4.61
285.713	4.56
286.085	4.51
286.457	4.6
286.829	4.5
287.201	4.48
287.572	4.58
287.944	4.58
288.316	4.54
288.688	4.54
289.06	4.63
289.431	4.6
289.803	4.73
290.175	4.59
290.546	4.68
290.918	4.76
291.289	4.28
291.661	4.34
292.032	4.23
292.403	4.28
292.775	4.29
293.146	4.46
293.517	4.57
293.889	4.73
294.26	4.81
294.631	4.89
295.002	4.98
295.373	5.01
295.744	5.11
296.115	5.23
296.486	5.25
296.857	5.24
297.228	5.26
297.599	5.26
297.97	5.41
298.34	5.51
298.711	5.64
299.082	5.9
299.452	5.91
299.823	5.89
300.194	6.01
300.564	6.02
300.935	5.95
301.305	5.98
301.676	5.9
302.046	5.79
302.416	5.81
302.787	6.06
303.157	6.1
303.527	6.09
303.897	6.05
304.267	6.23
304.637	6.37
305.008	6.33
305.378	6.39
305.748	6.43
306.117	6.56
306.487	6.52
306.857	6.71
307.227	6.78
307.597	7.03
307.967	7.01
308.336	7.06
308.706	7.08
309.076	7.16
309.445	7.23
309.815	7.41
310.184	7.48
310.554	7.43
310.923	7.43
311.293	7.48
311.662	7.73
312.031	7.66
312.401	7.69
312.77	7.77
313.139	7.9
313.508	7.94
313.877	7.97
314.246	8.12
314.616	8.12
314.985	8.26
315.353	8.38
315.722	8.43
316.091	8.59
316.46	8.82
316.829	8.88
317.198	9
317.567	9.12
317.935	9.2
318.304	9.32
318.672	9.51
319.041	9.58
319.41	9.42
319.778	9.69
320.147	9.68
320.515	9.73
320.883	9.71
321.252	9.79
321.62	9.77
321.988	9.76
322.357	9.49
322.725	9.5
323.093	9.52
323.461	9.65
323.829	9.67
324.197	9.54
324.565	9.65
324.933	9.51
325.301	9.5
325.669	9.53
326.037	9.59
326.405	9.55
326.772	9.47
327.14	9.42
327.508	9.18
327.875	9.45
328.243	9.46
328.61	9.51
328.978	9.57
329.346	9.85
329.713	10.03
330.08	10.36
330.448	10.36
330.815	10.29
331.182	10.31
331.55	10.33
331.917	10.38
332.284	10.29
332.651	10.4
333.018	10.32
333.385	10.38
333.752	10.15
334.119	10.28
334.486	10.49
334.853	10.72
335.22	10.81
335.587	10.56
335.954	10.7
336.32	10.72
336.687	10.75
337.054	10.51
337.42	10.52
337.787	10.45
338.153	10.51
338.52	10.55
338.886	10.58
339.253	10.54
339.619	10.77
339.986	10.81
340.352	10.88
340.718	10.97
341.084	10.89
341.451	10.93
341.817	10.89
342.183	10.9
342.549	10.69
342.915	10.86
343.281	10.88
343.647	10.86
344.013	10.79
344.379	10.66
344.745	10.75
345.11	10.63
345.476	10.63
345.842	10.63
346.208	10.71
346.573	10.71
346.939	10.74
347.304	10.71
347.67	10.68
348.035	10.67
348.401	10.69
348.766	10.8
349.132	10.97
349.497	10.96
349.862	10.85
350.228	11.02
350.593	10.78
350.958	10.93
351.323	10.97
351.688	10.98
352.053	11.06
352.418	10.99
352.783	11.03
353.148	11.01
353.513	11.03
353.878	10.98
354.243	10.93
354.608	10.93
354.972	10.82
355.337	10.79
355.702	10.79
356.066	10.79
356.431	10.79
356.795	10.65
357.16	10.58
357.524	10.61
357.889	10.56
358.253	10.61
358.618	10.51
358.982	10.45
359.346	10.43
359.71	10.41
360.075	10.4
360.439	10.3
360.803	10.36
361.167	10.27
361.531	10.21
361.895	10.12
362.259	10.07
362.623	10.08
362.987	10.05
363.351	10.03
363.714	9.97
364.078	9.9
364.442	9.88
364.806	9.87
365.169	9.79
365.533	9.81
365.896	9.8
366.26	9.78
366.623	9.74
366.987	9.69
367.35	9.67
367.714	9.62
368.077	9.7
368.44	9.56
368.803	9.5
369.167	9.4
369.53	9.44
369.893	9.37
370.256	9.2
370.619	9.11
370.982	8.85
371.345	8.82
371.708	8.72
372.071	8.64
372.434	8.59
372.797	8.55
373.159	8.38
373.522	8.28
373.885	8.18
374.247	8.11
374.61	8.03
374.973	8.03
375.335	7.97
375.698	7.76
376.06	7.72
376.423	7.65
376.785	7.63
377.147	7.55
377.51	7.54
377.872	7.55
378.234	7.61
378.596	7.74
378.958	7.6
379.321	7.52
379.683	7.55
380.045	7.49
380.407	7.48
380.769	7.41
381.13	7.33
381.492	7.29
381.854	7.21
382.216	7.16
382.578	7.06
382.939	6.95
383.301	6.99
383.663	6.96
384.024	6.91
384.386	6.88
384.747	6.84
385.109	6.77
385.47	6.73
385.832	6.63
386.193	6.5
386.554	6.53
386.916	6.55
387.277	6.42
387.638	6.39
387.999	6.32
388.36	6.28
388.721	6.29
389.082	6.27
389.443	6.27
389.804	6.27
390.165	6.24
390.526	6.27
390.887	6.22
391.248	6.14
391.609	6.17
391.969	6.15
392.33	6.09
392.691	6.08
393.051	6.01
393.412	5.94
393.772	5.94
394.133	5.87
394.493	5.8
394.854	5.79
395.214	5.72
395.574	5.66
395.935	5.63
396.295	5.56
396.655	5.52
397.015	5.48
397.376	5.4
397.736	5.31
398.096	5.22
398.456	5.18
398.816	5.15
399.176	5.07
399.535	4.99
399.895	4.95
400.255	4.88
400.615	4.85
400.975	4.8
401.334	4.78
401.694	4.75
402.054	4.76
402.413	4.75
402.773	4.71
403.132	4.75
403.492	4.74
403.851	4.7
404.211	4.67
404.57	4.64
404.929	4.64
405.288	4.65
405.648	4.63
406.007	4.6
406.366	4.57
406.725	4.54
407.084	4.54
407.443	4.53
407.802	4.52
408.161	4.54
408.52	4.57
408.879	4.6
409.238	4.57
409.596	4.52
409.955	4.45
410.314	4.46
410.673	4.4
411.031	4.38
411.39	4.39
411.748	4.4
412.107	4.36
412.465	4.32
412.824	4.27
413.182	4.31
413.54	4.33
413.899	4.35
414.257	4.35
414.615	4.31
414.974	4.32
415.332	4.31
415.69	4.25
416.048	4.23
416.406	4.16
416.764	4.15
417.122	4.15
417.48	4.15
417.838	4.16
418.195	4.13
418.553	4.1
418.911	4.08
419.269	4.05
419.626	4.04
419.984	4.05
420.342	4.03
420.699	4
421.057	3.97
421.414	3.95
421.772	3.94
422.129	3.95
422.486	3.93
422.844	3.93
423.201	3.94
423.558	3.91
423.915	3.92
424.273	3.9
424.63	3.9
424.987	3.91
425.344	3.88
425.701	3.88
426.058	3.89
426.415	3.89
426.772	3.88
427.128	3.88
427.485	3.86
427.842	3.86
428.199	3.85
428.555	3.84
428.912	3.82
429.269	3.79
429.625	3.75
429.982	3.72
430.338	3.71
430.695	3.69
431.051	3.72
431.407	3.7
431.764	3.66
432.12	3.66
432.476	3.67
432.832	3.67
433.189	3.65
433.545	3.64
433.901	3.62
434.257	3.62
434.613	3.63
434.969	3.64
435.325	3.67
435.681	3.67
436.036	3.68
436.392	3.7
436.748	3.72
437.104	3.74
437.459	3.75
437.815	3.74
438.171	3.75
438.526	3.75
438.882	3.75
439.237	3.78
439.593	3.75
439.948	3.73
440.304	3.71
440.659	3.73
441.014	3.74
441.369	3.76
441.725	3.76
442.08	3.74
442.435	3.73
442.79	3.7
443.145	3.7
443.5	3.7
443.855	3.69
444.21	3.69
444.565	3.69
444.92	3.69
445.275	3.69
445.629	3.7
445.984	3.69
446.339	3.69
446.693	3.69
447.048	3.68
447.403	3.68
447.757	3.7
448.112	3.7
448.466	3.68
448.82	3.66
449.175	3.64
449.529	3.66
449.883	3.66
450.238	3.66
450.592	3.65
450.946	3.63
451.3	3.63
451.654	3.59
452.008	3.54
452.362	3.52
452.716	3.51
453.07	3.49
453.424	3.47
453.778	3.47
454.132	3.45
454.486	3.46
454.839	3.46
455.193	3.45
455.547	3.46
455.9	3.48
456.254	3.49
456.607	3.5
456.961	3.49
457.314	3.48
457.668	3.5
458.021	3.5
458.375	3.51
458.728	3.51
459.081	3.53
459.434	3.55
459.787	3.56
460.141	3.56
460.494	3.55
460.847	3.56
461.2	3.57
461.553	3.59
461.906	3.61
462.259	3.62
462.611	3.65
462.964	3.66
463.317	3.67
463.67	3.69
464.022	3.69
464.375	3.72
464.728	3.73
465.08	3.75
465.433	3.76
465.785	3.79
466.138	3.81
466.49	3.82
466.843	3.86
467.195	3.88
467.547	3.87
467.899	3.9
468.252	3.93
468.604	3.95
468.956	3.94
469.308	3.93
469.66	3.94
470.012	3.95
470.364	3.95
470.716	3.93
471.068	3.97
471.42	3.98
471.772	3.97
472.123	3.97
472.475	3.98
472.827	4.01
473.178	4.02
473.53	4.02
473.882	4.01
474.233	4
474.585	4.02
474.936	4.06
475.288	4.07
475.639	4.07
475.99	4.06
476.342	4.09
476.693	4.08
477.044	4.09
477.395	4.07
477.746	4.04
478.097	4.04
478.448	3.99
478.8	4
479.15	3.97
479.501	3.96
479.852	3.96
480.203	3.93
480.554	3.9
480.905	3.9
481.255	3.89
481.606	3.89
481.957	3.87
482.307	3.85
482.658	3.83
483.009	3.82
483.359	3.82
483.709	3.82
484.06	3.82
484.41	3.82
484.761	3.82
485.111	3.83
485.461	3.82
485.811	3.82
486.162	3.82
486.512	3.82
486.862	3.82
487.212	3.81
487.562	3.82
487.912	3.82
488.262	3.82
488.612	3.83
488.961	3.83
489.311	3.83
489.661	3.84
490.011	3.84
490.36	3.85
490.71	3.85
491.06	3.85
491.409	3.85
491.759	3.85
492.108	3.86
492.458	3.85
492.807	3.89
493.157	3.89
493.506	3.91
493.855	3.92
494.204	3.95
494.554	3.97
494.903	3.99
495.252	4.02
495.601	4.06
495.95	4.09
496.299	4.13
496.648	4.17
496.997	4.2
497.346	4.27
497.695	4.3
498.043	4.38
498.392	4.43
498.741	4.49
499.09	4.55
499.438	4.63
499.787	4.69
500.135	4.71
500.484	4.79
500.832	4.85
501.181	4.94
501.529	5.02
501.878	5.13
502.226	5.21
502.574	5.3
502.923	5.38
503.271	5.47
503.619	5.55
503.967	5.66
504.315	5.8
504.663	5.89
505.011	5.99
505.359	6.08
505.707	6.21
506.055	6.34
506.403	6.46
506.751	6.59
507.098	6.75
507.446	6.9
507.794	7.05
508.141	7.21
508.489	7.36
508.837	7.5
509.184	7.62
509.531	7.78
509.879	7.92
510.226	8.08
510.574	8.26
510.921	8.43
511.268	8.58
511.616	8.75
511.963	8.97
512.31	9.17
512.657	9.39
513.004	9.57
513.351	9.79
513.698	9.99
514.045	10.18
514.392	10.37
514.739	10.6
515.086	10.83
515.432	11.06
515.779	11.27
516.126	11.52
516.473	11.76
516.819	11.95
517.166	12.16
517.512	12.37
517.859	12.57
518.205	12.75
518.552	12.92
518.898	13.09
519.245	13.24
519.591	13.41
519.937	13.59
520.283	13.79
520.629	13.99
520.976	14.17
521.322	14.38
521.668	14.62
522.014	14.84
522.36	15.05
522.706	15.28
523.052	15.54
523.398	15.75
523.743	16
524.089	16.28
524.435	16.52
524.781	16.76
525.126	17
525.472	17.2
525.817	17.4
526.163	17.55
526.509	17.72
526.854	17.87
527.199	18.03
527.545	18.18
527.89	18.3
528.235	18.47
528.581	18.64
528.926	18.77
529.271	18.95
529.616	19.11
529.961	19.27
530.306	19.44
530.651	19.61
530.996	19.79
531.341	19.98
531.686	20.19
532.031	20.37
532.376	20.55
532.721	20.76
533.065	20.98
533.41	21.24
533.755	21.46
534.099	21.72
534.444	21.94
534.788	22.19
535.133	22.43
535.477	22.66
535.822	22.89
536.166	23.17
536.51	23.43
536.855	23.7
537.199	23.98
537.543	24.26
537.887	24.58
538.231	24.88
538.576	25.17
538.92	25.46
539.264	25.74
539.608	26.03
539.951	26.29
540.295	26.52
540.639	26.78
540.983	27.02
541.327	27.22
541.671	27.47
542.014	27.69
542.358	27.97
542.701	28.17
543.045	28.39
543.389	28.62
543.732	28.84
544.075	29.08
544.419	29.32
544.762	29.58
545.105	29.82
545.449	30.1
545.792	30.4
546.135	30.65
546.478	30.95
546.821	31.2
547.165	31.51
547.508	31.84
547.851	32.13
548.194	32.44
548.536	32.74
548.879	33
549.222	33.28
549.565	33.52
549.908	33.82
550.25	34.13
550.593	34.41
550.936	34.69
551.278	34.99
551.621	35.3
551.963	35.59
552.306	35.83
552.648	36.06
552.991	36.33
553.333	36.65
553.675	36.9
554.017	37.19
554.36	37.48
554.702	37.66
555.044	37.87
555.386	38.11
555.728	38.34
556.07	38.6
556.412	38.85
556.754	39.06
557.096	39.32
557.438	39.57
557.78	39.85
558.121	40.11
558.463	40.4
558.805	40.69
559.147	40.92
559.488	41.24
559.83	41.48
560.171	41.66
560.513	41.85
560.854	42.22
561.196	42.47
561.537	42.69
561.878	42.91
562.22	43.1
562.561	43.33
562.902	43.56
563.243	43.75
563.584	43.91
563.925	44.14
564.266	44.33
564.607	44.43
564.948	44.58
565.289	44.78
565.63	44.92
565.971	45.06
566.312	45.17
566.653	45.31
566.993	45.43
567.334	45.63
567.675	45.75
568.015	45.77
568.356	45.92
568.696	46
569.037	46.15
569.377	46.35
569.718	46.48
570.058	46.61
570.398	46.82
570.739	46.95
571.079	47.12
571.419	47.32
571.759	47.47
572.099	47.58
572.439	47.66
572.779	47.74
573.119	47.91
573.459	48.09
573.799	48.23
574.139	48.44
574.479	48.55
574.819	48.73
575.158	48.91
575.498	49.07
575.838	49.22
576.177	49.38
576.517	49.44
576.856	49.56
577.196	49.72
577.535	49.79
577.875	49.92
578.214	50.02
578.553	50.12
578.893	50.36
579.232	50.52
579.571	50.73
579.91	50.9
580.25	51.02
580.589	51.06
580.928	51.1
581.267	51.21
581.606	51.25
581.945	51.32
582.283	51.38
582.622	51.35
582.961	51.46
583.3	51.49
583.639	51.65
583.977	51.75
584.316	51.88
584.654	52.06
584.993	52.23
585.332	52.35
585.67	52.46
586.008	52.49
586.347	52.6
586.685	52.66
587.024	52.76
587.362	52.77
587.7	52.87
588.038	53.06
588.376	53.18
588.715	53.23
589.053	53.27
589.391	53.38
589.729	53.46
590.067	53.57
590.404	53.64
590.742	53.73
591.08	53.79
591.418	53.82
591.756	53.77
592.093	53.82
592.431	53.9
592.769	53.94
593.106	54.06
593.444	54.1
593.781	54.2
594.119	54.25
594.456	54.33
594.793	54.39
595.131	54.4
595.468	54.46
595.805	54.57
596.143	54.71
596.48	54.75
596.817	54.9
597.154	54.92
597.491	54.95
597.828	55.06
598.165	55.15
598.502	55.25
598.839	55.38
599.176	55.5
599.512	55.55
599.849	55.63
600.186	55.67
600.523	55.71
600.859	55.78
601.196	55.82
601.532	55.87
601.869	56
602.205	56.14
602.542	56.06
602.878	56.1
603.215	56.13
603.551	56.17
603.887	56.17
604.223	56.14
604.56	56.22
604.896	56.18
605.232	56.26
605.568	56.27
605.904	56.3
606.24	56.25
606.576	56.22
606.912	56.31
607.248	56.36
607.583	56.39
607.919	56.37
608.255	56.34
608.591	56.38
608.926	56.41
609.262	56.38
609.597	56.56
609.933	56.61
610.268	56.56
610.604	56.59
610.939	56.66
611.275	56.78
611.61	56.85
611.945	56.84
612.281	56.86
612.616	56.9
612.951	56.97
613.286	57.07
613.621	57.18
613.956	57.11
614.291	57.06
614.626	57.19
614.961	57.26
615.296	57.32
615.631	57.44
615.966	57.39
616.3	57.42
616.635	57.44
616.97	57.46
617.304	57.6
617.639	57.62
617.973	57.67
618.308	57.81
618.642	57.81
618.977	57.91
619.311	57.92
619.646	57.93
619.98	58
620.314	57.96
620.648	58.01
620.983	57.97
621.317	58.16
621.651	58.26
621.985	58.29
622.319	58.37
622.653	58.39
622.987	58.44
623.321	58.52
623.655	58.54
623.988	58.57
624.322	58.6
624.656	58.7
624.99	58.66
625.323	58.59
625.657	58.6
625.99	58.63
626.324	58.62
626.657	58.64
626.991	58.62
627.324	58.62
627.658	58.6
627.991	58.75
628.324	58.74
628.657	58.67
628.991	58.74
629.324	58.85
629.657	58.81
629.99	58.86
630.323	58.81
630.656	58.76
630.989	58.79
631.322	58.81
631.655	58.81
631.987	58.83
632.32	58.91
632.653	58.88
632.986	58.86
633.318	58.92
633.651	58.98
633.984	59
634.316	59.08
634.649	59.12
634.981	59.11
635.313	58.99
635.646	59.05
635.978	59.02
636.31	58.97
636.643	59.06
636.975	59.07
637.307	59.09
637.639	59.15
637.971	59.13
638.303	59.14
638.635	59.11
638.967	59.16
639.299	59.14
639.631	59.25
639.963	59.38
640.295	59.49
640.626	59.49
640.958	59.47
641.29	59.42
641.621	59.43
641.953	59.52
642.285	59.69
642.616	59.7
642.948	59.75
643.279	59.82
643.61	59.81
643.942	59.83
644.273	59.99
644.604	60.03
644.936	60.08
645.267	59.98
645.598	60.05
645.929	60.23
646.26	60.1
646.591	60.2
646.922	60.18
647.253	60.09
647.584	60.17
647.915	60.21
648.245	60.37
648.576	60.35
648.907	60.22
649.238	60.17
649.568	60.18
649.899	60.19
650.229	60.1
650.56	60.1
650.89	60.13
651.221	60.01
651.551	59.93
651.882	59.9
652.212	60.04
652.542	60.19
652.872	60.1
653.203	60.23
653.533	60.17
653.863	60.28
654.193	60.37
654.523	60.37
654.853	60.52
655.183	60.46
655.513	60.51
655.843	60.62
656.172	60.66
656.502	60.63
656.832	60.59
657.162	60.61
657.491	60.66
657.821	60.72
658.15	60.69
658.48	60.75
658.809	60.82
659.139	60.96
659.468	60.9
659.798	60.91
660.127	60.91
660.456	60.76
660.785	60.69
661.115	60.64
661.444	60.64
661.773	60.56
662.102	60.6
662.431	60.62
662.76	60.67
663.089	60.84
663.418	60.94
663.747	61.07
664.076	61.23
664.404	61.34
664.733	61.29
