Data from MVZ_BU88648_Reflection_00003.txt Node
Date: Tue Nov 19 12:01:56 EST 2019
User: vgr7
Spectrometer: USB2G7710
Scans to average: 3
Trigger mode: 4
Integration Time (sec): 2.000000E-2
Electric dark correction enabled: true
Boxcar width: 10
XAxis mode: Wavelengths
Number of Pixels in Spectrum: 2048
>>>>>Begin Spectral Data<<<<<
177.721	107.35
178.105	106.02
178.488	-16.58
178.871	-215.38
179.254	9.62
179.636	127.03
180.019	-15.65
180.402	262.5
180.785	22.09
181.168	45.8
181.55	68.75
181.933	133.65
182.316	-199.11
182.698	-20.13
183.081	4.05
183.463	17.2
183.846	32.97
184.228	48.43
184.611	77.27
184.993	38.83
185.376	76.22
185.758	34.38
186.14	0.63
186.522	14.3
186.904	48.58
187.287	45.03
187.669	34.35
188.051	39.71
188.433	21.28
188.815	12.92
189.197	15.2
189.579	21.61
189.961	27.96
190.342	42.6
190.724	4.92
191.106	8.29
191.488	2.6
191.869	-0.09
192.251	-22.35
192.633	-22.04
193.014	-34.4
193.396	-30.85
193.777	-38.82
194.159	-13.82
194.54	5.53
194.922	-39.93
195.303	-11.17
195.684	-60.27
196.065	-45.89
196.447	-8.43
196.828	12.19
197.209	-16.56
197.59	-36.32
197.971	-6.75
198.352	-22.05
198.733	2.88
199.114	-34.58
199.495	-76.62
199.876	-107.48
200.257	-115.76
200.638	-60.94
201.018	-34.02
201.399	-35.22
201.78	-21.29
202.16	-12.87
202.541	-19.17
202.922	-26
203.302	-51.1
203.683	-25.94
204.063	-26.88
204.444	-30.42
204.824	-35.71
205.204	-32.22
205.585	-35.36
205.965	-55.1
206.345	-47.43
206.725	-43.49
207.106	-29.16
207.486	-17.04
207.866	-31.32
208.246	-16.85
208.626	-18.67
209.006	-22.85
209.386	-16.13
209.766	-20.47
210.145	-29.28
210.525	-36.21
210.905	-23.31
211.285	-7.25
211.664	-12.68
212.044	-9.78
212.424	-14.16
212.803	-7.24
213.183	-7.97
213.562	4.81
213.942	9.9
214.321	5.11
214.701	4.28
215.08	15.1
215.459	30.38
215.838	36.42
216.218	23.09
216.597	18.99
216.976	10.19
217.355	-3.95
217.734	-10.44
218.113	2.33
218.492	10.11
218.871	16.61
219.25	21.71
219.629	21.52
220.008	20.97
220.387	32.9
220.766	26.18
221.144	26.75
221.523	21.33
221.902	10.44
222.28	9.91
222.659	4.43
223.037	-5.78
223.416	-17.92
223.794	-13.1
224.173	-6.22
224.551	5.39
224.929	15.15
225.308	18.7
225.686	19.12
226.064	1.64
226.442	0.79
226.821	-1.12
227.199	-14.43
227.577	-8.73
227.955	-3.94
228.333	-5.38
228.711	-6.51
229.089	-5.6
229.467	-4.55
229.845	-4.56
230.222	1.36
230.6	0.95
230.978	2.56
231.356	0.39
231.733	1.08
232.111	3.13
232.488	3.34
232.866	4.36
233.243	5.43
233.621	5.35
233.998	6.51
234.376	9.04
234.753	6.28
235.13	8.83
235.508	8.14
235.885	9.13
236.262	7.34
236.639	8.71
237.016	8.79
237.393	9.12
237.77	9.49
238.147	6.93
238.524	6.75
238.901	5.89
239.278	6.23
239.655	6.03
240.032	5.08
240.409	4.09
240.785	3.82
241.162	3.71
241.539	3.6
241.915	3.97
242.292	3.16
242.668	4.3
243.045	4.59
243.421	4.73
243.798	4.13
244.174	4.58
244.551	4.24
244.927	4.04
245.303	3.73
245.679	3.85
246.056	4.09
246.432	4.22
246.808	4.33
247.184	4.3
247.56	3.95
247.936	4.05
248.312	4.13
248.688	4.04
249.064	3.99
249.44	4.11
249.815	4.14
250.191	4.28
250.567	4.06
250.943	4.11
251.318	3.74
251.694	3.7
252.069	3.75
252.445	4.09
252.82	4.34
253.196	4.5
253.571	4.44
253.947	4.55
254.322	4.88
254.697	4.64
255.073	4.57
255.448	4.79
255.823	4.7
256.198	4.41
256.573	4.31
256.948	4.31
257.323	4.15
257.698	4.14
258.073	3.95
258.448	3.91
258.823	3.82
259.198	4.15
259.573	4.25
259.948	4.21
260.322	3.91
260.697	4
261.072	3.97
261.446	3.87
261.821	3.58
262.195	3.23
262.57	3.41
262.944	3.44
263.319	3.45
263.693	3.39
264.067	3.6
264.442	3.81
264.816	3.86
265.19	3.97
265.564	3.66
265.938	3.87
266.313	3.78
266.687	3.66
267.061	3.29
267.435	3.31
267.809	3.35
268.183	3.38
268.556	3.17
268.93	3.34
269.304	3.21
269.678	3.43
270.051	3.67
270.425	3.59
270.799	3.54
271.172	3.44
271.546	3.63
271.919	3.49
272.293	3.52
272.666	3.54
273.04	3.55
273.413	3.71
273.787	3.55
274.16	3.51
274.533	3.75
274.906	3.83
275.279	3.78
275.653	3.62
276.026	3.71
276.399	3.66
276.772	3.51
277.145	3.66
277.518	3.57
277.891	3.53
278.263	3.62
278.636	3.72
279.009	3.81
279.382	3.49
279.755	3.6
280.127	3.46
280.5	3.42
280.872	3.36
281.245	3.34
281.617	3.56
281.99	3.57
282.362	3.46
282.735	3.38
283.107	3.3
283.479	3.37
283.852	3.4
284.224	3.44
284.596	3.58
284.968	3.45
285.34	3.52
285.713	3.64
286.085	3.38
286.457	3.2
286.829	3.09
287.201	3.17
287.572	3.11
287.944	3.1
288.316	3.06
288.688	3.06
289.06	3.1
289.431	2.89
289.803	2.99
290.175	2.9
290.546	2.93
290.918	3.06
291.289	2.93
291.661	2.91
292.032	2.93
292.403	2.71
292.775	2.85
293.146	2.89
293.517	2.75
293.889	2.86
294.26	2.94
294.631	3.22
295.002	3.35
295.373	3.46
295.744	3.49
296.115	3.51
296.486	3.64
296.857	3.72
297.228	3.65
297.599	3.68
297.97	3.82
298.34	3.91
298.711	3.79
299.082	3.87
299.452	3.75
299.823	3.76
300.194	3.91
300.564	3.88
300.935	3.85
301.305	3.92
301.676	3.95
302.046	3.94
302.416	3.83
302.787	3.79
303.157	3.81
303.527	3.92
303.897	3.88
304.267	3.73
304.637	3.63
305.008	3.69
305.378	3.73
305.748	3.71
306.117	3.67
306.487	3.68
306.857	3.77
307.227	3.88
307.597	3.74
307.967	3.64
308.336	3.68
308.706	3.61
309.076	3.68
309.445	3.78
309.815	3.81
310.184	3.78
310.554	3.74
310.923	3.7
311.293	3.57
311.662	3.63
312.031	3.63
312.401	3.64
312.77	3.66
313.139	3.57
313.508	3.6
313.877	3.59
314.246	3.53
314.616	3.51
314.985	3.48
315.353	3.56
315.722	3.65
316.091	3.65
316.46	3.67
316.829	3.53
317.198	3.58
317.567	3.67
317.935	3.63
318.304	3.74
318.672	3.81
319.041	3.79
319.41	3.7
319.778	3.72
320.147	3.86
320.515	3.94
320.883	3.9
321.252	3.81
321.62	3.78
321.988	3.72
322.357	3.62
322.725	3.65
323.093	3.49
323.461	3.36
323.829	3.43
324.197	3.47
324.565	3.48
324.933	3.35
325.301	3.08
325.669	3.1
326.037	3.19
326.405	3.16
326.772	3.26
327.14	3.24
327.508	3.24
327.875	3.13
328.243	3.04
328.61	3
328.978	2.86
329.346	2.91
329.713	3.09
330.08	3.22
330.448	3.23
330.815	3.35
331.182	3.35
331.55	3.31
331.917	3.4
332.284	3.29
332.651	3.39
333.018	3.51
333.385	3.63
333.752	3.31
334.119	3.3
334.486	3.32
334.853	3.24
335.22	3.29
335.587	3.21
335.954	3.15
336.32	3.29
336.687	3.41
337.054	3.34
337.42	3.33
337.787	3.3
338.153	3.32
338.52	3.41
338.886	3.5
339.253	3.43
339.619	3.42
339.986	3.46
340.352	3.35
340.718	3.31
341.084	3.27
341.451	3.31
341.817	3.3
342.183	3.13
342.549	3.26
342.915	3.2
343.281	3.19
343.647	3.31
344.013	3.19
344.379	3.19
344.745	3.23
345.11	3.13
345.476	3.13
345.842	3.02
346.208	2.96
346.573	2.88
346.939	2.91
347.304	2.9
347.67	2.9
348.035	2.9
348.401	2.95
348.766	2.85
349.132	2.95
349.497	3.03
349.862	3.09
350.228	3.14
350.593	3.17
350.958	3.28
351.323	3.24
351.688	3.29
352.053	3.29
352.418	3.3
352.783	3.37
353.148	3.43
353.513	3.49
353.878	3.4
354.243	3.39
354.608	3.44
354.972	3.37
355.337	3.32
355.702	3.31
356.066	3.41
356.431	3.39
356.795	3.34
357.16	3.34
357.524	3.42
357.889	3.41
358.253	3.37
358.618	3.32
358.982	3.32
359.346	3.33
359.71	3.33
360.075	3.39
360.439	3.33
360.803	3.3
361.167	3.33
361.531	3.42
361.895	3.48
362.259	3.46
362.623	3.44
362.987	3.48
363.351	3.49
363.714	3.36
364.078	3.43
364.442	3.43
364.806	3.37
365.169	3.35
365.533	3.27
365.896	3.34
366.26	3.43
366.623	3.41
366.987	3.4
367.35	3.39
367.714	3.37
368.077	3.43
368.44	3.41
368.803	3.36
369.167	3.36
369.53	3.34
369.893	3.35
370.256	3.39
370.619	3.42
370.982	3.37
371.345	3.45
371.708	3.52
372.071	3.51
372.434	3.5
372.797	3.51
373.159	3.5
373.522	3.47
373.885	3.45
374.247	3.45
374.61	3.47
374.973	3.45
375.335	3.4
375.698	3.41
376.06	3.45
376.423	3.43
376.785	3.4
377.147	3.46
377.51	3.45
377.872	3.47
378.234	3.51
378.596	3.59
378.958	3.63
379.321	3.57
379.683	3.66
380.045	3.72
380.407	3.7
380.769	3.74
381.13	3.73
381.492	3.67
381.854	3.72
382.216	3.74
382.578	3.74
382.939	3.79
383.301	3.77
383.663	3.76
384.024	3.8
384.386	3.78
384.747	3.73
385.109	3.72
385.47	3.75
385.832	3.73
386.193	3.69
386.554	3.64
386.916	3.67
387.277	3.61
387.638	3.57
387.999	3.54
388.36	3.53
388.721	3.56
389.082	3.63
389.443	3.61
389.804	3.57
390.165	3.6
390.526	3.57
390.887	3.6
391.248	3.56
391.609	3.57
391.969	3.63
392.33	3.62
392.691	3.66
393.051	3.62
393.412	3.67
393.772	3.7
394.133	3.68
394.493	3.64
394.854	3.69
395.214	3.74
395.574	3.75
395.935	3.76
396.295	3.74
396.655	3.72
397.015	3.73
397.376	3.74
397.736	3.75
398.096	3.75
398.456	3.76
398.816	3.8
399.176	3.8
399.535	3.77
399.895	3.78
400.255	3.76
400.615	3.74
400.975	3.72
401.334	3.71
401.694	3.75
402.054	3.73
402.413	3.72
402.773	3.66
403.132	3.67
403.492	3.66
403.851	3.67
404.211	3.65
404.57	3.68
404.929	3.68
405.288	3.67
405.648	3.64
406.007	3.64
406.366	3.62
406.725	3.62
407.084	3.6
407.443	3.6
407.802	3.6
408.161	3.62
408.52	3.63
408.879	3.64
409.238	3.65
409.596	3.69
409.955	3.68
410.314	3.7
410.673	3.71
411.031	3.72
411.39	3.69
411.748	3.72
412.107	3.71
412.465	3.7
412.824	3.7
413.182	3.72
413.54	3.7
413.899	3.72
414.257	3.75
414.615	3.76
414.974	3.77
415.332	3.78
415.69	3.8
416.048	3.78
416.406	3.77
416.764	3.77
417.122	3.74
417.48	3.73
417.838	3.72
418.195	3.69
418.553	3.72
418.911	3.72
419.269	3.72
419.626	3.71
419.984	3.74
420.342	3.72
420.699	3.71
421.057	3.72
421.414	3.73
421.772	3.72
422.129	3.7
422.486	3.69
422.844	3.68
423.201	3.68
423.558	3.68
423.915	3.68
424.273	3.67
424.63	3.69
424.987	3.71
425.344	3.73
425.701	3.73
426.058	3.73
426.415	3.72
426.772	3.7
427.128	3.71
427.485	3.7
427.842	3.72
428.199	3.73
428.555	3.73
428.912	3.7
429.269	3.71
429.625	3.73
429.982	3.77
430.338	3.79
430.695	3.76
431.051	3.77
431.407	3.78
431.764	3.77
432.12	3.77
432.476	3.77
432.832	3.76
433.189	3.77
433.545	3.77
433.901	3.78
434.257	3.79
434.613	3.79
434.969	3.79
435.325	3.78
435.681	3.8
436.036	3.8
436.392	3.81
436.748	3.81
437.104	3.81
437.459	3.8
437.815	3.79
438.171	3.81
438.526	3.8
438.882	3.79
439.237	3.81
439.593	3.81
439.948	3.81
440.304	3.81
440.659	3.8
441.014	3.79
441.369	3.79
441.725	3.79
442.08	3.79
442.435	3.8
442.79	3.79
443.145	3.79
443.5	3.77
443.855	3.76
444.21	3.76
444.565	3.76
444.92	3.77
445.275	3.77
445.629	3.76
445.984	3.76
446.339	3.76
446.693	3.76
447.048	3.74
447.403	3.73
447.757	3.74
448.112	3.75
448.466	3.76
448.82	3.77
449.175	3.76
449.529	3.77
449.883	3.77
450.238	3.78
450.592	3.78
450.946	3.78
451.3	3.8
451.654	3.8
452.008	3.79
452.362	3.78
452.716	3.79
453.07	3.79
453.424	3.79
453.778	3.81
454.132	3.81
454.486	3.82
454.839	3.82
455.193	3.82
455.547	3.83
455.9	3.84
456.254	3.85
456.607	3.88
456.961	3.89
457.314	3.88
457.668	3.86
458.021	3.87
458.375	3.87
458.728	3.87
459.081	3.89
459.434	3.9
459.787	3.92
460.141	3.93
460.494	3.94
460.847	3.94
461.2	3.94
461.553	3.95
461.906	3.95
462.259	3.94
462.611	3.94
462.964	3.94
463.317	3.95
463.67	3.96
464.022	3.96
464.375	3.95
464.728	3.97
465.08	4
465.433	4
465.785	4.02
466.138	4.05
466.49	4.05
466.843	4.06
467.195	4.05
467.547	4.05
467.899	4.06
468.252	4.07
468.604	4.08
468.956	4.07
469.308	4.09
469.66	4.12
470.012	4.14
470.364	4.15
470.716	4.13
471.068	4.13
471.42	4.13
471.772	4.13
472.123	4.13
472.475	4.14
472.827	4.13
473.178	4.11
473.53	4.09
473.882	4.05
474.233	4.04
474.585	4.03
474.936	4.03
475.288	4.01
475.639	4.02
475.99	3.99
476.342	3.99
476.693	3.97
477.044	3.96
477.395	3.95
477.746	3.95
478.097	3.96
478.448	3.95
478.8	3.96
479.15	3.96
479.501	3.96
479.852	3.97
480.203	3.99
480.554	4
480.905	4.01
481.255	4.03
481.606	4.04
481.957	4.05
482.307	4.05
482.658	4.07
483.009	4.08
483.359	4.1
483.709	4.11
484.06	4.12
484.41	4.12
484.761	4.12
485.111	4.12
485.461	4.12
485.811	4.12
486.162	4.12
486.512	4.13
486.862	4.13
487.212	4.13
487.562	4.12
487.912	4.13
488.262	4.13
488.612	4.14
488.961	4.15
489.311	4.15
489.661	4.13
490.011	4.12
490.36	4.1
490.71	4.1
491.06	4.09
491.409	4.09
491.759	4.1
492.108	4.1
492.458	4.09
492.807	4.09
493.157	4.08
493.506	4.07
493.855	4.06
494.204	4.06
494.554	4.07
494.903	4.07
495.252	4.06
495.601	4.06
495.95	4.06
496.299	4.04
496.648	4.04
496.997	4.07
497.346	4.07
497.695	4.08
498.043	4.1
498.392	4.11
498.741	4.11
499.09	4.11
499.438	4.12
499.787	4.14
500.135	4.13
500.484	4.16
500.832	4.17
501.181	4.18
501.529	4.2
501.878	4.18
502.226	4.19
502.574	4.17
502.923	4.14
503.271	4.13
503.619	4.13
503.967	4.12
504.315	4.12
504.663	4.13
505.011	4.14
505.359	4.11
505.707	4.1
506.055	4.08
506.403	4.1
506.751	4.09
507.098	4.09
507.446	4.1
507.794	4.12
508.141	4.13
508.489	4.13
508.837	4.13
509.184	4.15
509.531	4.16
509.879	4.17
510.226	4.18
510.574	4.2
510.921	4.21
511.268	4.21
511.616	4.22
511.963	4.24
512.31	4.24
512.657	4.26
513.004	4.25
513.351	4.26
513.698	4.24
514.045	4.24
514.392	4.24
514.739	4.23
515.086	4.22
515.432	4.23
515.779	4.24
516.126	4.26
516.473	4.26
516.819	4.27
517.166	4.27
517.512	4.29
517.859	4.29
518.205	4.28
518.552	4.29
518.898	4.3
519.245	4.3
519.591	4.3
519.937	4.3
520.283	4.32
520.629	4.32
520.976	4.32
521.322	4.35
521.668	4.36
522.014	4.36
522.36	4.36
522.706	4.35
523.052	4.35
523.398	4.35
523.743	4.34
524.089	4.36
524.435	4.36
524.781	4.36
525.126	4.36
525.472	4.37
525.817	4.38
526.163	4.38
526.509	4.39
526.854	4.39
527.199	4.4
527.545	4.41
527.89	4.42
528.235	4.42
528.581	4.42
528.926	4.41
529.271	4.43
529.616	4.42
529.961	4.44
530.306	4.43
530.651	4.43
530.996	4.43
531.341	4.43
531.686	4.43
532.031	4.43
532.376	4.43
532.721	4.44
533.065	4.44
533.41	4.43
533.755	4.42
534.099	4.42
534.444	4.42
534.788	4.42
535.133	4.42
535.477	4.43
535.822	4.41
536.166	4.41
536.51	4.41
536.855	4.41
537.199	4.4
537.543	4.41
537.887	4.43
538.231	4.42
538.576	4.42
538.92	4.45
539.264	4.44
539.608	4.46
539.951	4.44
540.295	4.45
540.639	4.46
540.983	4.47
541.327	4.46
541.671	4.47
542.014	4.46
542.358	4.47
542.701	4.47
543.045	4.5
543.389	4.51
543.732	4.49
544.075	4.49
544.419	4.49
544.762	4.49
545.105	4.48
545.449	4.49
545.792	4.5
546.135	4.49
546.478	4.48
546.821	4.5
547.165	4.53
547.508	4.52
547.851	4.53
548.194	4.51
548.536	4.51
548.879	4.52
549.222	4.55
549.565	4.55
549.908	4.56
550.25	4.54
550.593	4.53
550.936	4.55
551.278	4.56
551.621	4.58
551.963	4.59
552.306	4.61
552.648	4.63
552.991	4.61
553.333	4.55
553.675	4.6
554.017	4.55
554.36	4.54
554.702	4.55
555.044	4.53
555.386	4.55
555.728	4.59
556.07	4.58
556.412	4.56
556.754	4.53
557.096	4.53
557.438	4.53
557.78	4.57
558.121	4.56
558.463	4.55
558.805	4.54
559.147	4.55
559.488	4.5
559.83	4.51
560.171	4.52
560.513	4.55
560.854	4.52
561.196	4.54
561.537	4.54
561.878	4.56
562.22	4.56
562.561	4.54
562.902	4.5
563.243	4.5
563.584	4.5
563.925	4.56
564.266	4.56
564.607	4.55
564.948	4.53
565.289	4.52
565.63	4.53
565.971	4.54
566.312	4.53
566.653	4.57
566.993	4.55
567.334	4.59
567.675	4.61
568.015	4.61
568.356	4.58
568.696	4.59
569.037	4.58
569.377	4.57
569.718	4.59
570.058	4.62
570.398	4.59
570.739	4.58
571.079	4.57
571.419	4.56
571.759	4.57
572.099	4.58
572.439	4.62
572.779	4.63
573.119	4.61
573.459	4.61
573.799	4.61
574.139	4.62
574.479	4.59
574.819	4.61
575.158	4.63
575.498	4.66
575.838	4.67
576.177	4.66
576.517	4.69
576.856	4.67
577.196	4.66
577.535	4.7
577.875	4.69
578.214	4.68
578.553	4.68
578.893	4.7
579.232	4.65
579.571	4.65
579.91	4.65
580.25	4.68
580.589	4.69
580.928	4.7
581.267	4.71
581.606	4.74
581.945	4.71
582.283	4.67
582.622	4.65
582.961	4.67
583.3	4.68
583.639	4.69
583.977	4.73
584.316	4.75
584.654	4.75
584.993	4.77
585.332	4.8
585.67	4.81
586.008	4.79
586.347	4.84
586.685	4.8
587.024	4.85
587.362	4.84
587.7	4.86
588.038	4.88
588.376	4.85
588.715	4.84
589.053	4.83
589.391	4.89
589.729	4.91
590.067	4.84
590.404	4.83
590.742	4.8
591.08	4.81
591.418	4.83
591.756	4.81
592.093	4.83
592.431	4.82
592.769	4.82
593.106	4.85
593.444	4.82
593.781	4.85
594.119	4.81
594.456	4.8
594.793	4.77
595.131	4.76
595.468	4.77
595.805	4.75
596.143	4.76
596.48	4.73
596.817	4.72
597.154	4.74
597.491	4.73
597.828	4.74
598.165	4.72
598.502	4.68
598.839	4.71
599.176	4.72
599.512	4.7
599.849	4.7
600.186	4.67
600.523	4.69
600.859	4.69
601.196	4.67
601.532	4.68
601.869	4.68
602.205	4.68
602.542	4.69
602.878	4.69
603.215	4.71
603.551	4.71
603.887	4.72
604.223	4.72
604.56	4.76
604.896	4.76
605.232	4.78
605.568	4.78
605.904	4.76
606.24	4.77
606.576	4.81
606.912	4.78
607.248	4.85
607.583	4.87
607.919	4.84
608.255	4.87
608.591	4.92
608.926	4.94
609.262	4.94
609.597	4.92
609.933	4.92
610.268	4.94
610.604	4.99
610.939	5.01
611.275	5.03
611.61	4.99
611.945	4.92
612.281	4.95
612.616	4.97
612.951	4.97
613.286	4.91
613.621	4.88
613.956	4.93
614.291	4.88
614.626	4.86
614.961	4.91
615.296	4.89
615.631	4.86
615.966	4.85
616.3	4.88
616.635	4.89
616.97	4.88
617.304	4.84
617.639	4.79
617.973	4.74
618.308	4.71
618.642	4.74
618.977	4.86
619.311	4.82
619.646	4.81
619.98	4.84
620.314	4.88
620.648	4.91
620.983	4.92
621.317	4.91
621.651	4.92
621.985	4.96
622.319	4.99
622.653	5
622.987	4.99
623.321	5
623.655	4.99
623.988	4.97
624.322	5.01
624.656	5.03
624.99	5.06
625.323	5.07
625.657	5.08
625.99	5.01
626.324	4.96
626.657	4.98
626.991	4.96
627.324	4.95
627.658	4.92
627.991	4.89
628.324	4.89
628.657	4.89
628.991	4.86
629.324	4.86
629.657	4.85
629.99	4.85
630.323	4.82
630.656	4.82
630.989	4.85
631.322	4.84
631.655	4.85
631.987	4.81
632.32	4.86
632.653	4.88
632.986	4.94
633.318	5
633.651	4.97
633.984	4.99
634.316	4.93
634.649	4.96
634.981	5.04
635.313	5.06
635.646	5.08
635.978	5.07
636.31	5.09
636.643	5.09
636.975	5.15
637.307	5.18
637.639	5.18
637.971	5.16
638.303	5.09
638.635	5.07
638.967	5.11
639.299	5.07
639.631	5.08
639.963	5.09
640.295	5.16
640.626	5.19
640.958	5.17
641.29	5.26
641.621	5.2
641.953	5.1
642.285	5.08
642.616	5.06
642.948	4.97
643.279	4.92
643.61	4.94
643.942	4.89
644.273	4.89
644.604	4.88
644.936	4.93
645.267	4.98
645.598	5.04
645.929	5.03
646.26	5.03
646.591	5.05
646.922	5.04
647.253	4.92
647.584	4.87
647.915	4.89
648.245	4.93
648.576	4.87
648.907	4.93
649.238	4.91
649.568	5
649.899	5.03
650.229	5.1
650.56	5.05
650.89	5.06
651.221	5.1
651.551	5.21
651.882	5.15
652.212	5.19
652.542	5.2
652.872	5.2
653.203	5.24
653.533	5.19
653.863	5.19
654.193	5.19
654.523	5.17
654.853	5.19
655.183	5.12
655.513	5.24
655.843	5.24
656.172	5.32
656.502	5.22
656.832	5.28
657.162	5.26
657.491	5.3
657.821	5.29
658.15	5.22
658.48	5.22
658.809	5.22
659.139	5.15
659.468	5.1
659.798	5.11
660.127	5.08
660.456	5.07
660.785	5.1
661.115	5.17
661.444	5.25
661.773	5.29
662.102	5.36
662.431	5.37
662.76	5.41
663.089	5.39
663.418	5.37
663.747	5.37
664.076	5.4
664.404	5.4
664.733	5.36
665.062	5.39
665.39	5.31
665.719	5.34
666.048	5.4
666.376	5.37
666.705	5.36
667.033	5.35
667.362	5.38
667.69	5.34
668.018	5.42
668.347	5.38
668.675	5.31
669.003	5.3
669.331	5.35
669.659	5.26
669.987	5.27
670.315	5.38
670.643	5.35
670.971	5.31
671.299	5.34
671.627	5.42
671.955	5.43
672.283	5.43
672.61	5.51
672.938	5.48
673.266	5.53
673.593	5.51
673.921	5.59
674.249	5.65
674.576	5.66
674.904	5.52
675.231	5.63
675.558	5.7
675.886	5.61
676.213	5.62
676.54	5.66
676.867	5.61
677.195	5.61
677.522	5.6
677.849	5.75
678.176	5.77
678.503	5.73
678.83	5.72
679.157	5.73
