Data from MVZ_BU78245_Reflection_00004.txt Node
Date: Tue Nov 19 12:01:05 EST 2019
User: vgr7
Spectrometer: USB2G7710
Scans to average: 3
Trigger mode: 4
Integration Time (sec): 2.000000E-2
Electric dark correction enabled: true
Boxcar width: 10
XAxis mode: Wavelengths
Number of Pixels in Spectrum: 2048
>>>>>Begin Spectral Data<<<<<
177.721	270.45
178.105	-122.22
178.488	54.27
178.871	1300
179.254	-106.25
179.636	-40.19
180.019	-29.7
180.402	-62.5
180.785	39.06
181.168	50.82
181.55	-7.14
181.933	-196.87
182.316	-52.78
182.698	405.56
183.081	84.37
183.463	-20.13
183.846	-29.39
184.228	-12.13
184.611	2.28
184.993	13.75
185.376	55.08
185.758	16.67
186.14	-25
186.522	-13.37
186.904	6.25
187.287	-5.7
187.669	7.58
188.051	16.29
188.433	14.8
188.815	20.81
189.197	26.06
189.579	32.4
189.961	32.4
190.342	49.8
190.724	15.57
191.106	17.33
191.488	27.7
191.869	22.01
192.251	32.19
192.633	36.42
193.014	21.22
193.396	-1.44
193.777	6.75
194.159	17.88
194.54	30.66
194.922	24.14
195.303	22.84
195.684	26.24
196.065	33
196.447	41.52
196.828	41.06
197.209	36.52
197.59	26.93
197.971	21.22
198.352	1.24
198.733	8.93
199.114	5.67
199.495	17.7
199.876	29.76
200.257	25.86
200.638	39.45
201.018	30.93
201.399	41.58
201.78	51.75
202.16	35.51
202.541	21.79
202.922	36.02
203.302	29.27
203.683	28.67
204.063	31.69
204.444	33.28
204.824	31.16
205.204	34.54
205.585	28.68
205.965	47.13
206.345	62.79
206.725	64.16
207.106	63.26
207.486	50
207.866	19.59
208.246	21.22
208.626	8.64
209.006	17.12
209.386	0.94
209.766	-16.04
210.145	14.09
210.525	0.77
210.905	-2.62
211.285	9.65
211.664	12.18
212.044	5.79
212.424	12.27
212.803	3.9
213.183	-11.36
213.562	3.97
213.942	-0.17
214.321	0.17
214.701	-1.82
215.08	-4.93
215.459	3.02
215.838	7.64
216.218	-11.96
216.597	-16.03
216.976	-9.87
217.355	41.09
217.734	31.7
218.113	18.51
218.492	37.5
218.871	31.67
219.25	21.7
219.629	-2.27
220.008	-5.03
220.387	-21.11
220.766	5.87
221.144	23.98
221.523	13.27
221.902	13.57
222.28	23.3
222.659	20.2
223.037	19.05
223.416	6.77
223.794	8.88
224.173	7.75
224.551	10.57
224.929	9.67
225.308	6.95
225.686	3.8
226.064	-0.28
226.442	1.79
226.821	-3.1
227.199	-5.51
227.577	-3.87
227.955	-1.82
228.333	-1.85
228.711	-3.29
229.089	-4.41
229.467	-2.22
229.845	-4.2
230.222	-7.19
230.6	-6.28
230.978	-3.86
231.356	-3.26
231.733	-1.85
232.111	-0.39
232.488	-0.82
232.866	0.46
233.243	-0.49
233.621	2.02
233.998	3.44
234.376	3.95
234.753	7.17
235.13	8.68
235.508	8.86
235.885	7.55
236.262	8.11
236.639	8.52
237.016	8.93
237.393	8.18
237.77	9.27
238.147	10.56
238.524	10.68
238.901	9.2
239.278	7.81
239.655	7.94
240.032	6.67
240.409	7.21
240.785	6.85
241.162	6.7
241.539	5.98
241.915	5.09
242.292	4.89
242.668	4.37
243.045	4.42
243.421	5.16
243.798	5.5
244.174	5.6
244.551	5.63
244.927	5.15
245.303	5.08
245.679	4.67
246.056	4.45
246.432	4.59
246.808	4.64
247.184	5.02
247.56	4.77
247.936	5.28
248.312	4.96
248.688	4.94
249.064	4.95
249.44	4.81
249.815	5.4
250.191	5.41
250.567	5.58
250.943	5.67
251.318	5.13
251.694	4.81
252.069	4.49
252.445	4.3
252.82	4.36
253.196	4.47
253.571	4.84
253.947	4.63
254.322	4.27
254.697	4.48
255.073	4.35
255.448	4.57
255.823	4.34
256.198	4.69
256.573	4.65
256.948	4.52
257.323	4.79
257.698	4.3
258.073	4.08
258.448	3.81
258.823	3.58
259.198	3.64
259.573	3.64
259.948	3.89
260.322	3.75
260.697	3.92
261.072	3.94
261.446	3.93
261.821	3.92
262.195	4.01
262.57	3.97
262.944	4
263.319	3.94
263.693	3.87
264.067	3.69
264.442	3.73
264.816	3.86
265.19	3.74
265.564	3.83
265.938	4.03
266.313	4.18
266.687	4.32
267.061	4.22
267.435	4.36
267.809	4.16
268.183	4.14
268.556	4.02
268.93	3.9
269.304	3.69
269.678	3.88
270.051	3.95
270.425	4.04
270.799	4.05
271.172	3.93
271.546	4.06
271.919	4.08
272.293	3.93
272.666	4.05
273.04	4.19
273.413	4.32
273.787	4.3
274.16	4.22
274.533	4.16
274.906	4.39
275.279	4.33
275.653	4.49
276.026	4.44
276.399	4.65
276.772	4.8
277.145	5.02
277.518	4.86
277.891	4.72
278.263	4.58
278.636	4.57
279.009	4.6
279.382	4.55
279.755	4.63
280.127	4.67
280.5	4.5
280.872	4.53
281.245	4.47
281.617	4.38
281.99	4.44
282.362	4.45
282.735	4.15
283.107	4.16
283.479	4.1
283.852	4.19
284.224	4.05
284.596	3.88
284.968	3.83
285.34	3.88
285.713	4.01
286.085	3.89
286.457	3.91
286.829	3.96
287.201	3.85
287.572	3.76
287.944	3.82
288.316	3.79
288.688	3.75
289.06	3.81
289.431	3.91
289.803	3.92
290.175	3.92
290.546	3.99
290.918	4.04
291.289	3.86
291.661	3.85
292.032	3.8
292.403	3.87
292.775	3.93
293.146	4
293.517	3.77
293.889	3.79
294.26	3.78
294.631	3.85
295.002	4.04
295.373	4.02
295.744	4.07
296.115	4.08
296.486	3.99
296.857	4.05
297.228	3.83
297.599	3.72
297.97	3.81
298.34	3.83
298.711	3.85
299.082	3.9
299.452	3.85
299.823	3.9
300.194	3.95
300.564	3.79
300.935	3.8
301.305	3.9
301.676	4
302.046	3.93
302.416	3.98
302.787	3.87
303.157	3.89
303.527	3.8
303.897	3.72
304.267	3.83
304.637	3.63
305.008	3.7
305.378	3.71
305.748	3.65
306.117	3.76
306.487	3.72
306.857	3.63
307.227	3.65
307.597	3.68
307.967	3.63
308.336	3.65
308.706	3.6
309.076	3.67
309.445	3.82
309.815	3.9
310.184	3.72
310.554	3.73
310.923	3.71
311.293	3.71
311.662	3.82
312.031	3.79
312.401	3.81
312.77	3.84
313.139	3.99
313.508	3.92
313.877	3.84
314.246	3.81
314.616	3.86
314.985	4
315.353	4.04
315.722	4.18
316.091	4.26
316.46	4.12
316.829	4.3
317.198	4.13
317.567	4.08
317.935	4.11
318.304	4.24
318.672	4.37
319.041	4.35
319.41	4.32
319.778	4.38
320.147	4.31
320.515	4.47
320.883	4.4
321.252	4.41
321.62	4.35
321.988	4.36
322.357	4.3
322.725	4.25
323.093	4.19
323.461	4.06
323.829	4.02
324.197	4.06
324.565	3.78
324.933	3.73
325.301	3.65
325.669	3.66
326.037	3.56
326.405	3.5
326.772	3.43
327.14	3.38
327.508	3.31
327.875	3.48
328.243	3.29
328.61	3.19
328.978	3.08
329.346	3.2
329.713	3.24
330.08	3.4
330.448	3.3
330.815	3.31
331.182	3.43
331.55	3.41
331.917	3.42
332.284	3.52
332.651	3.59
333.018	3.56
333.385	3.61
333.752	3.58
334.119	3.53
334.486	3.7
334.853	3.79
335.22	3.67
335.587	3.45
335.954	3.41
336.32	3.37
336.687	3.44
337.054	3.47
337.42	3.36
337.787	3.21
338.153	3.25
338.52	3.31
338.886	3.27
339.253	3.26
339.619	3.33
339.986	3.18
340.352	3.17
340.718	3.22
341.084	3.19
341.451	3.21
341.817	3.31
342.183	3.31
342.549	3.31
342.915	3.43
343.281	3.51
343.647	3.69
344.013	3.82
344.379	3.83
344.745	3.67
345.11	3.66
345.476	3.67
345.842	3.69
346.208	3.62
346.573	3.57
346.939	3.59
347.304	3.53
347.67	3.62
348.035	3.68
348.401	3.74
348.766	3.75
349.132	3.84
349.497	3.72
349.862	3.61
350.228	3.56
350.593	3.54
350.958	3.56
351.323	3.4
351.688	3.31
352.053	3.33
352.418	3.47
352.783	3.59
353.148	3.66
353.513	3.59
353.878	3.49
354.243	3.45
354.608	3.46
354.972	3.43
355.337	3.41
355.702	3.39
356.066	3.38
356.431	3.33
356.795	3.28
357.16	3.35
357.524	3.36
357.889	3.38
358.253	3.36
358.618	3.37
358.982	3.41
359.346	3.41
359.71	3.39
360.075	3.4
360.439	3.37
360.803	3.41
361.167	3.38
361.531	3.45
361.895	3.46
362.259	3.52
362.623	3.6
362.987	3.54
363.351	3.44
363.714	3.45
364.078	3.53
364.442	3.5
364.806	3.5
365.169	3.51
365.533	3.46
365.896	3.51
366.26	3.47
366.623	3.42
366.987	3.42
367.35	3.48
367.714	3.42
368.077	3.43
368.44	3.44
368.803	3.49
369.167	3.46
369.53	3.5
369.893	3.43
370.256	3.46
370.619	3.59
370.982	3.68
371.345	3.75
371.708	3.62
372.071	3.56
372.434	3.53
372.797	3.61
373.159	3.6
373.522	3.53
373.885	3.55
374.247	3.61
374.61	3.59
374.973	3.52
375.335	3.53
375.698	3.47
376.06	3.38
376.423	3.4
376.785	3.44
377.147	3.43
377.51	3.37
377.872	3.28
378.234	3.26
378.596	3.28
378.958	3.21
379.321	3.21
379.683	3.33
380.045	3.33
380.407	3.29
380.769	3.28
381.13	3.3
381.492	3.3
381.854	3.34
382.216	3.38
382.578	3.42
382.939	3.42
383.301	3.41
383.663	3.44
384.024	3.41
384.386	3.4
384.747	3.35
385.109	3.35
385.47	3.41
385.832	3.36
386.193	3.34
386.554	3.3
386.916	3.33
387.277	3.26
387.638	3.27
387.999	3.27
388.36	3.31
388.721	3.32
389.082	3.37
389.443	3.36
389.804	3.41
390.165	3.4
390.526	3.41
390.887	3.41
391.248	3.39
391.609	3.44
391.969	3.44
392.33	3.45
392.691	3.47
393.051	3.43
393.412	3.47
393.772	3.47
394.133	3.47
394.493	3.46
394.854	3.48
395.214	3.48
395.574	3.48
395.935	3.46
396.295	3.47
396.655	3.44
397.015	3.41
397.376	3.37
397.736	3.33
398.096	3.32
398.456	3.36
398.816	3.39
399.176	3.36
399.535	3.36
399.895	3.39
400.255	3.4
400.615	3.38
400.975	3.36
401.334	3.38
401.694	3.41
402.054	3.43
402.413	3.44
402.773	3.43
403.132	3.42
403.492	3.39
403.851	3.39
404.211	3.39
404.57	3.4
404.929	3.42
405.288	3.46
405.648	3.47
406.007	3.46
406.366	3.43
406.725	3.43
407.084	3.44
407.443	3.44
407.802	3.46
408.161	3.46
408.52	3.47
408.879	3.46
409.238	3.49
409.596	3.49
409.955	3.48
410.314	3.5
410.673	3.47
411.031	3.48
411.39	3.5
411.748	3.51
412.107	3.49
412.465	3.48
412.824	3.48
413.182	3.48
413.54	3.47
413.899	3.48
414.257	3.48
414.615	3.47
414.974	3.5
415.332	3.46
415.69	3.47
416.048	3.5
416.406	3.47
416.764	3.47
417.122	3.47
417.48	3.49
417.838	3.48
418.195	3.5
418.553	3.5
418.911	3.47
419.269	3.46
419.626	3.47
419.984	3.46
420.342	3.45
420.699	3.45
421.057	3.48
421.414	3.47
421.772	3.47
422.129	3.45
422.486	3.43
422.844	3.45
423.201	3.46
423.558	3.44
423.915	3.46
424.273	3.46
424.63	3.45
424.987	3.44
425.344	3.44
425.701	3.45
426.058	3.45
426.415	3.46
426.772	3.44
427.128	3.47
427.485	3.48
427.842	3.5
428.199	3.5
428.555	3.48
428.912	3.48
429.269	3.49
429.625	3.5
429.982	3.51
430.338	3.52
430.695	3.5
431.051	3.5
431.407	3.5
431.764	3.48
432.12	3.49
432.476	3.53
432.832	3.55
433.189	3.52
433.545	3.51
433.901	3.52
434.257	3.55
434.613	3.51
434.969	3.51
435.325	3.52
435.681	3.49
436.036	3.48
436.392	3.48
436.748	3.49
437.104	3.51
437.459	3.51
437.815	3.51
438.171	3.53
438.526	3.52
438.882	3.51
439.237	3.5
439.593	3.49
439.948	3.46
440.304	3.46
440.659	3.47
441.014	3.47
441.369	3.49
441.725	3.47
442.08	3.49
442.435	3.49
442.79	3.47
443.145	3.49
443.5	3.5
443.855	3.5
444.21	3.5
444.565	3.5
444.92	3.5
445.275	3.48
445.629	3.46
445.984	3.48
446.339	3.48
446.693	3.5
447.048	3.5
447.403	3.51
447.757	3.5
448.112	3.51
448.466	3.52
448.82	3.49
449.175	3.5
449.529	3.51
449.883	3.51
450.238	3.51
450.592	3.51
450.946	3.49
451.3	3.49
451.654	3.48
452.008	3.48
452.362	3.48
452.716	3.51
453.07	3.49
453.424	3.48
453.778	3.49
454.132	3.48
454.486	3.5
454.839	3.51
455.193	3.52
455.547	3.51
455.9	3.51
456.254	3.53
456.607	3.52
456.961	3.5
457.314	3.48
457.668	3.48
458.021	3.47
458.375	3.46
458.728	3.46
459.081	3.46
459.434	3.46
459.787	3.47
460.141	3.47
460.494	3.5
460.847	3.49
461.2	3.48
461.553	3.5
461.906	3.5
462.259	3.47
462.611	3.46
462.964	3.46
463.317	3.45
463.67	3.45
464.022	3.47
464.375	3.49
464.728	3.48
465.08	3.49
465.433	3.51
465.785	3.53
466.138	3.56
466.49	3.6
466.843	3.6
467.195	3.6
467.547	3.57
467.899	3.55
468.252	3.55
468.604	3.57
468.956	3.57
469.308	3.57
469.66	3.59
470.012	3.6
470.364	3.59
470.716	3.59
471.068	3.58
471.42	3.59
471.772	3.58
472.123	3.59
472.475	3.6
472.827	3.6
473.178	3.6
473.53	3.58
473.882	3.54
474.233	3.53
474.585	3.52
474.936	3.54
475.288	3.55
475.639	3.56
475.99	3.55
476.342	3.56
476.693	3.54
477.044	3.53
477.395	3.53
477.746	3.53
478.097	3.56
478.448	3.54
478.8	3.54
479.15	3.53
479.501	3.54
479.852	3.53
480.203	3.53
480.554	3.54
480.905	3.55
481.255	3.57
481.606	3.57
481.957	3.58
482.307	3.57
482.658	3.57
483.009	3.57
483.359	3.57
483.709	3.57
484.06	3.58
484.41	3.58
484.761	3.59
485.111	3.59
485.461	3.59
485.811	3.6
486.162	3.59
486.512	3.6
486.862	3.6
487.212	3.61
487.562	3.61
487.912	3.61
488.262	3.61
488.612	3.61
488.961	3.61
489.311	3.6
489.661	3.61
490.011	3.61
490.36	3.6
490.71	3.6
491.06	3.59
491.409	3.58
491.759	3.58
492.108	3.57
492.458	3.58
492.807	3.58
493.157	3.57
493.506	3.58
493.855	3.56
494.204	3.55
494.554	3.53
494.903	3.54
495.252	3.56
495.601	3.56
495.95	3.55
496.299	3.55
496.648	3.56
496.997	3.56
497.346	3.58
497.695	3.57
498.043	3.58
498.392	3.6
498.741	3.59
499.09	3.6
499.438	3.6
499.787	3.58
500.135	3.59
500.484	3.6
500.832	3.61
501.181	3.63
501.529	3.65
501.878	3.69
502.226	3.67
502.574	3.66
502.923	3.64
503.271	3.66
503.619	3.65
503.967	3.63
504.315	3.64
504.663	3.66
505.011	3.68
505.359	3.66
505.707	3.65
506.055	3.66
506.403	3.68
506.751	3.7
507.098	3.73
507.446	3.72
507.794	3.72
508.141	3.73
508.489	3.74
508.837	3.72
509.184	3.71
509.531	3.72
509.879	3.71
510.226	3.72
510.574	3.72
510.921	3.72
511.268	3.73
511.616	3.74
511.963	3.74
512.31	3.72
512.657	3.73
513.004	3.73
513.351	3.71
513.698	3.71
514.045	3.71
514.392	3.69
514.739	3.67
515.086	3.68
515.432	3.66
515.779	3.65
516.126	3.67
516.473	3.64
516.819	3.65
517.166	3.64
517.512	3.63
517.859	3.65
518.205	3.65
518.552	3.65
518.898	3.65
519.245	3.66
519.591	3.68
519.937	3.7
520.283	3.71
520.629	3.71
520.976	3.68
521.322	3.69
521.668	3.68
522.014	3.7
522.36	3.68
522.706	3.69
523.052	3.69
523.398	3.68
523.743	3.7
524.089	3.71
524.435	3.71
524.781	3.7
525.126	3.7
525.472	3.69
525.817	3.7
526.163	3.68
526.509	3.69
526.854	3.69
527.199	3.69
527.545	3.7
527.89	3.72
528.235	3.74
528.581	3.74
528.926	3.74
529.271	3.74
529.616	3.74
529.961	3.75
530.306	3.76
530.651	3.74
530.996	3.75
531.341	3.74
531.686	3.76
532.031	3.78
532.376	3.78
532.721	3.8
533.065	3.79
533.41	3.81
533.755	3.81
534.099	3.8
534.444	3.81
534.788	3.81
535.133	3.8
535.477	3.79
535.822	3.78
536.166	3.79
536.51	3.79
536.855	3.8
537.199	3.78
537.543	3.77
537.887	3.77
538.231	3.76
538.576	3.77
538.92	3.76
539.264	3.75
539.608	3.76
539.951	3.76
540.295	3.75
540.639	3.77
540.983	3.77
541.327	3.77
541.671	3.76
542.014	3.77
542.358	3.78
542.701	3.77
543.045	3.79
543.389	3.8
543.732	3.79
544.075	3.79
544.419	3.79
544.762	3.8
545.105	3.83
545.449	3.85
545.792	3.85
546.135	3.86
546.478	3.86
546.821	3.87
547.165	3.87
547.508	3.88
547.851	3.86
548.194	3.85
548.536	3.84
548.879	3.82
549.222	3.8
549.565	3.8
549.908	3.8
550.25	3.79
550.593	3.77
550.936	3.81
551.278	3.82
551.621	3.83
551.963	3.85
552.306	3.84
552.648	3.84
552.991	3.85
553.333	3.83
553.675	3.84
554.017	3.81
554.36	3.82
554.702	3.82
555.044	3.83
555.386	3.85
555.728	3.9
556.07	3.91
556.412	3.91
556.754	3.88
557.096	3.88
557.438	3.89
557.78	3.89
558.121	3.87
558.463	3.84
558.805	3.85
559.147	3.81
559.488	3.76
559.83	3.81
560.171	3.78
560.513	3.78
560.854	3.76
561.196	3.79
561.537	3.78
561.878	3.79
562.22	3.8
562.561	3.81
562.902	3.75
563.243	3.77
563.584	3.77
563.925	3.8
564.266	3.79
564.607	3.79
564.948	3.82
565.289	3.83
565.63	3.84
565.971	3.84
566.312	3.88
566.653	3.91
566.993	3.86
567.334	3.87
567.675	3.88
568.015	3.88
568.356	3.86
568.696	3.87
569.037	3.88
569.377	3.88
569.718	3.85
570.058	3.85
570.398	3.84
570.739	3.83
571.079	3.8
571.419	3.81
571.759	3.81
572.099	3.78
572.439	3.75
572.779	3.74
573.119	3.75
573.459	3.75
573.799	3.75
574.139	3.75
574.479	3.76
574.819	3.77
575.158	3.79
575.498	3.8
575.838	3.78
576.177	3.75
576.517	3.74
576.856	3.77
577.196	3.76
577.535	3.78
577.875	3.78
578.214	3.79
578.553	3.78
578.893	3.81
579.232	3.82
579.571	3.87
579.91	3.89
580.25	3.87
580.589	3.82
580.928	3.83
581.267	3.86
581.606	3.86
581.945	3.87
582.283	3.85
582.622	3.82
582.961	3.85
583.3	3.87
583.639	3.9
583.977	3.88
584.316	3.94
584.654	3.93
584.993	3.99
585.332	3.99
585.67	3.98
586.008	3.96
586.347	3.99
586.685	3.94
587.024	3.95
587.362	3.94
587.7	3.97
588.038	3.99
588.376	3.97
588.715	3.93
589.053	3.89
589.391	3.87
589.729	3.9
590.067	3.88
590.404	3.87
590.742	3.88
591.08	3.92
591.418	3.9
591.756	3.9
592.093	3.9
592.431	3.92
592.769	3.93
593.106	3.9
593.444	3.88
593.781	3.91
594.119	3.9
594.456	3.89
594.793	3.92
595.131	3.89
595.468	3.93
595.805	3.97
596.143	3.98
596.48	3.99
596.817	3.99
597.154	4.04
597.491	4.01
597.828	4
598.165	3.96
598.502	3.97
598.839	3.98
599.176	3.96
599.512	3.98
599.849	4.01
600.186	3.99
600.523	4
600.859	4.01
601.196	3.98
601.532	3.99
601.869	3.96
602.205	3.94
602.542	3.91
602.878	3.92
603.215	3.92
603.551	3.93
603.887	3.92
604.223	3.86
604.56	3.89
604.896	3.9
605.232	3.9
605.568	3.91
605.904	3.86
606.24	3.86
606.576	3.85
606.912	3.83
607.248	3.88
607.583	3.86
607.919	3.83
608.255	3.85
608.591	3.86
608.926	3.91
609.262	3.93
609.597	3.91
609.933	3.91
610.268	3.91
610.604	3.89
610.939	3.94
611.275	3.95
611.61	3.92
611.945	3.9
612.281	3.9
612.616	3.91
612.951	3.98
613.286	3.98
613.621	3.98
613.956	4
614.291	3.95
614.626	3.95
614.961	4.02
615.296	4.04
615.631	4.05
615.966	4.03
616.3	4.08
616.635	4.07
616.97	4.06
617.304	4.04
617.639	4.06
617.973	4.01
618.308	4.05
618.642	4.05
618.977	4.03
619.311	4.05
619.646	4
619.98	3.99
620.314	4.01
620.648	4.09
620.983	4.14
621.317	4.18
621.651	4.14
621.985	4.09
622.319	4.01
622.653	4.05
622.987	4.04
623.321	4.01
623.655	4.05
623.988	4.06
624.322	4.07
624.656	4.09
624.99	4.13
625.323	4.11
625.657	4.19
625.99	4.23
626.324	4.2
626.657	4.19
626.991	4.17
627.324	4.09
627.658	4
627.991	3.97
628.324	3.95
628.657	4
628.991	4.03
629.324	4.09
629.657	4.04
629.99	4.06
630.323	4.05
630.656	4
630.989	3.97
631.322	3.98
631.655	3.99
631.987	3.91
632.32	3.89
632.653	3.92
632.986	3.93
633.318	3.91
633.651	3.94
633.984	3.96
634.316	4.02
634.649	4.01
634.981	4.02
635.313	4.07
635.646	4.07
635.978	4.08
636.31	4.1
636.643	4.1
636.975	4.07
637.307	4.08
637.639	4.1
637.971	4.12
638.303	4.08
638.635	4.07
638.967	4.12
639.299	4.19
639.631	4.09
639.963	4.05
640.295	4.11
640.626	4.05
640.958	4.03
641.29	4.03
641.621	4.1
641.953	4
642.285	3.98
642.616	3.99
642.948	3.98
643.279	3.95
643.61	4.03
643.942	4.03
644.273	4.05
644.604	4.05
644.936	4.1
645.267	4.14
645.598	4.16
645.929	4.13
646.26	4.03
646.591	4.05
646.922	4.09
647.253	4.09
647.584	4.13
647.915	4.15
648.245	4.2
648.576	4.18
648.907	4.24
649.238	4.17
649.568	4.16
649.899	4.2
650.229	4.19
650.56	4.1
650.89	4.13
651.221	4.08
651.551	4.14
651.882	4.04
652.212	4.03
652.542	4.02
652.872	4.04
653.203	4.19
653.533	4.22
653.863	4.17
654.193	4.2
654.523	4.16
654.853	4.2
655.183	4.15
655.513	4.2
655.843	4.18
656.172	4.35
656.502	4.27
656.832	4.25
657.162	4.23
657.491	4.3
657.821	4.29
658.15	4.33
658.48	4.35
658.809	4.33
659.139	4.33
659.468	4.28
659.798	4.29
660.127	4.19
660.456	4.12
660.785	4.18
661.115	4.2
661.444	4.27
661.773	4.32
662.102	4.37
662.431	4.3
662.76	4.34
663.089	4.25
663.418	4.29
663.747	4.28
664.076	4.31
664.404	4.3
664.733	4.27
665.062	4.29
665.39	4.25
665.719	4.29
666.048	4.31
666.376	4.41
666.705	4.45
667.033	4.46
667.362	4.48
667.69	4.52
668.018	4.48
668.347	4.43
668.675	4.39
669.003	4.35
669.331	4.47
669.659	4.51
669.987	4.47
670.315	4.53
670.643	4.55
670.971	4.54
671.299	4.48
671.627	4.47
671.955	4.48
672.283	4.5
672.61	4.58
672.938	4.62
673.266	4.52
673.593	4.4
673.921	4.41
674.249	4.41
674.576	4.32
674.904	4.32
675.231	4.32
675.558	4.35
675.886	4.3
676.213	4.19
676.54	4.17
676.867	4.19
677.195	4.18
677.522	4.14
677.849	4.14
678.176	4.21
678.503	4.27
678.83	4.3
679.157	4.24
679.484	4.17
679.81	4.21
680.137	4.33
680.464	4.39
680.791	4.36
681.117	4.37
681.444	4.41
