Data from MVZ_BU165823_Reflection_00011.txt Node
Date: Tue Nov 19 12:10:35 EST 2019
User: vgr7
Spectrometer: USB2G7710
Scans to average: 3
Trigger mode: 4
Integration Time (sec): 2.000000E-2
Electric dark correction enabled: true
Boxcar width: 10
XAxis mode: Wavelengths
Number of Pixels in Spectrum: 2048
>>>>>Begin Spectral Data<<<<<
177.721	95.12
178.105	93.09
178.488	55.26
178.871	52.89
179.254	55.32
179.636	103.69
180.019	89.33
180.402	475
180.785	36.07
181.168	-4.46
181.55	80.69
181.933	87.47
182.316	108.67
182.698	1600
183.081	-86.13
183.463	-8.25
183.846	8.16
184.228	-82.93
184.611	-8.03
184.993	4.06
185.376	25.19
185.758	30.55
186.14	25.26
186.522	15.12
186.904	5.22
187.287	3.35
187.669	6.03
188.051	-2.68
188.433	-15.12
188.815	-2.48
189.197	-12.87
189.579	-4.29
189.961	-0.09
190.342	-5.63
190.724	-20.6
191.106	-33.56
191.488	-38.19
191.869	-21.35
192.251	-18.37
192.633	-33.65
193.014	-37.76
193.396	-53.95
193.777	-54.4
194.159	-53.68
194.54	-70.58
194.922	-112.97
195.303	-172.9
195.684	-315.87
196.065	-303.29
196.447	-233.58
196.828	-209.76
197.209	-191.28
197.59	-189.84
197.971	-156.99
198.352	-82.53
198.733	-74.07
199.114	-53.49
199.495	-46.2
199.876	-65.38
200.257	-60.02
200.638	-77.69
201.018	-63.67
201.399	-84.99
201.78	-34.35
202.16	-47.4
202.541	-22.71
202.922	-5.24
203.302	24.19
203.683	34.15
204.063	43.58
204.444	58.8
204.824	43.5
205.204	45.76
205.585	35.25
205.965	20.64
206.345	22.25
206.725	30.87
207.106	45.07
207.486	65.82
207.866	65.62
208.246	54.98
208.626	50.96
209.006	20.86
209.386	30.75
209.766	34.54
210.145	46.31
210.525	61.27
210.905	52.59
211.285	37.99
211.664	42.83
212.044	33.56
212.424	25.85
212.803	32.48
213.183	26.96
213.562	37.18
213.942	52.3
214.321	40.25
214.701	40.39
215.08	13.41
215.459	-7.32
215.838	-9.56
216.218	-39.81
216.597	-10.55
216.976	22.26
217.355	9.26
217.734	-28.03
218.113	-14.59
218.492	-35.17
218.871	-42.62
219.25	-27.46
219.629	-50.1
220.008	-30.73
220.387	-27.99
220.766	-16.48
221.144	-9.52
221.523	-21.38
221.902	-37.83
222.28	-19.5
222.659	3.43
223.037	11.33
223.416	13.58
223.794	21.16
224.173	37.04
224.551	31.42
224.929	21.69
225.308	24.25
225.686	20.69
226.064	22.17
226.442	27.61
226.821	25.2
227.199	23.88
227.577	24.41
227.955	21.53
228.333	18
228.711	14.48
229.089	13.22
229.467	12.15
229.845	15.06
230.222	13.74
230.6	7.8
230.978	8.14
231.356	7.02
231.733	5.35
232.111	2.06
232.488	2.33
232.866	2.72
233.243	1.39
233.621	1.62
233.998	1.46
234.376	-0.7
234.753	0.74
235.13	2.69
235.508	3.93
235.885	2.62
236.262	2.77
236.639	2.77
237.016	1.65
237.393	2.38
237.77	1.83
238.147	1.5
238.524	2.3
238.901	1.93
239.278	1.91
239.655	1.9
240.032	1.99
240.409	2.2
240.785	2.41
241.162	2.51
241.539	2.22
241.915	1.68
242.292	2.2
242.668	2
243.045	2.26
243.421	2.77
243.798	3.21
244.174	3.41
244.551	3.58
244.927	3.96
245.303	3.71
245.679	4.09
246.056	4.06
246.432	3.81
246.808	3.99
247.184	3.84
247.56	3.85
247.936	3.84
248.312	3.85
248.688	3.95
249.064	3.84
249.44	3.85
249.815	3.99
250.191	4.04
250.567	3.98
250.943	3.98
251.318	3.63
251.694	3.32
252.069	2.93
252.445	2.77
252.82	2.64
253.196	2.88
253.571	2.71
253.947	2.8
254.322	2.82
254.697	2.82
255.073	3.01
255.448	3.15
255.823	3.2
256.198	2.87
256.573	2.97
256.948	3.11
257.323	3.35
257.698	3.5
258.073	3.37
258.448	3.43
258.823	3.2
259.198	3.29
259.573	3.16
259.948	3.25
260.322	3.26
260.697	3.33
261.072	3.29
261.446	3.12
261.821	3.11
262.195	3.17
262.57	3.15
262.944	3.2
263.319	3.07
263.693	3.1
264.067	3.25
264.442	3.27
264.816	3.32
265.19	3.34
265.564	3.12
265.938	3.06
266.313	2.86
266.687	2.94
267.061	2.91
267.435	3.36
267.809	3.45
268.183	3.5
268.556	3.31
268.93	3.33
269.304	3.39
269.678	3.34
270.051	3.31
270.425	3.13
270.799	2.93
271.172	2.98
271.546	3.01
271.919	2.99
272.293	2.9
272.666	2.86
273.04	2.73
273.413	2.75
273.787	2.88
274.16	2.98
274.533	2.87
274.906	2.85
275.279	2.48
275.653	2.6
276.026	2.46
276.399	2.49
276.772	2.44
277.145	2.39
277.518	2.44
277.891	2.43
278.263	2.46
278.636	2.78
279.009	2.87
279.382	2.7
279.755	2.84
280.127	2.87
280.5	2.9
280.872	2.91
281.245	2.92
281.617	2.77
281.99	2.82
282.362	2.97
282.735	3.03
283.107	3.15
283.479	3.01
283.852	3.2
284.224	3.16
284.596	3.08
284.968	3.11
285.34	2.95
285.713	3.06
286.085	3.05
286.457	2.89
286.829	2.83
287.201	2.84
287.572	2.81
287.944	2.86
288.316	2.86
288.688	3.01
289.06	3.05
289.431	3.17
289.803	3.23
290.175	3.11
290.546	3.19
290.918	3.14
291.289	2.98
291.661	2.96
292.032	3.1
292.403	3.24
292.775	3.25
293.146	3.34
293.517	3.22
293.889	3.21
294.26	3.35
294.631	3.36
295.002	3.45
295.373	3.46
295.744	3.39
296.115	3.44
296.486	3.33
296.857	3.38
297.228	3.28
297.599	3.12
297.97	3.28
298.34	3.24
298.711	3.45
299.082	3.56
299.452	3.38
299.823	3.41
300.194	3.37
300.564	3.45
300.935	3.53
301.305	3.48
301.676	3.53
302.046	3.46
302.416	3.55
302.787	3.66
303.157	3.64
303.527	3.69
303.897	3.69
304.267	3.55
304.637	3.49
305.008	3.57
305.378	3.71
305.748	3.65
306.117	3.67
306.487	3.62
306.857	3.83
307.227	4.16
307.597	4.35
307.967	4.41
308.336	4.42
308.706	4.59
309.076	4.85
309.445	5.11
309.815	5.2
310.184	5.21
310.554	5.22
310.923	5.32
311.293	5.33
311.662	5.34
312.031	5.41
312.401	5.5
312.77	5.62
313.139	5.71
313.508	5.73
313.877	5.74
314.246	5.79
314.616	5.93
314.985	5.92
315.353	5.84
315.722	6.09
316.091	6.1
316.46	5.98
316.829	5.94
317.198	5.83
317.567	6.02
317.935	6.13
318.304	6.22
318.672	6.3
319.041	6.46
319.41	6.49
319.778	6.62
320.147	6.75
320.515	6.71
320.883	6.69
321.252	6.76
321.62	6.73
321.988	6.76
322.357	6.57
322.725	6.63
323.093	6.57
323.461	6.49
323.829	6.69
324.197	6.78
324.565	6.77
324.933	6.63
325.301	6.38
325.669	6.2
326.037	6.29
326.405	6.23
326.772	6.19
327.14	6.19
327.508	6.22
327.875	6.1
328.243	6.13
328.61	6.18
328.978	6.12
329.346	6.09
329.713	6.21
330.08	6.41
330.448	6.24
330.815	6.26
331.182	6.14
331.55	6.02
331.917	5.97
332.284	6.02
332.651	6.19
333.018	6.3
333.385	6.43
333.752	6.28
334.119	6.21
334.486	6.2
334.853	6.11
335.22	6.13
335.587	6.18
335.954	6.2
336.32	6.27
336.687	6.36
337.054	6.43
337.42	6.28
337.787	6.27
338.153	6.37
338.52	6.48
338.886	6.48
339.253	6.51
339.619	6.53
339.986	6.47
340.352	6.5
340.718	6.56
341.084	6.65
341.451	6.77
341.817	6.84
342.183	6.95
342.549	7.16
342.915	7.23
343.281	7.24
343.647	7.27
344.013	7.18
344.379	7.14
344.745	7.28
345.11	7.4
345.476	7.26
345.842	7.22
346.208	7.16
346.573	7.25
346.939	7.31
347.304	7.28
347.67	7.34
348.035	7.27
348.401	7.3
348.766	7.25
349.132	7.19
349.497	7.28
349.862	7.1
350.228	7.01
350.593	7.05
350.958	7.23
351.323	7.3
351.688	7.29
352.053	7.35
352.418	7.31
352.783	7.24
353.148	7.36
353.513	7.43
353.878	7.45
354.243	7.47
354.608	7.39
354.972	7.4
355.337	7.41
355.702	7.48
356.066	7.47
356.431	7.5
356.795	7.58
357.16	7.48
357.524	7.51
357.889	7.57
358.253	7.51
358.618	7.38
358.982	7.26
359.346	7.3
359.71	7.29
360.075	7.26
360.439	7.3
360.803	7.25
361.167	7.21
361.531	7.17
361.895	7.1
362.259	7.16
362.623	7.16
362.987	7.17
363.351	7.05
363.714	6.98
364.078	6.92
364.442	6.8
364.806	6.86
365.169	6.89
365.533	6.82
365.896	6.8
366.26	6.76
366.623	6.73
366.987	6.7
367.35	6.68
367.714	6.63
368.077	6.55
368.44	6.57
368.803	6.6
369.167	6.49
369.53	6.52
369.893	6.44
370.256	6.33
370.619	6.26
370.982	6.26
371.345	6.25
371.708	6.25
372.071	6.29
372.434	6.2
372.797	6.16
373.159	6.1
373.522	6.06
373.885	6.01
374.247	6.02
374.61	5.93
374.973	5.86
375.335	5.84
375.698	5.77
376.06	5.68
376.423	5.56
376.785	5.55
377.147	5.48
377.51	5.41
377.872	5.4
378.234	5.36
378.596	5.35
378.958	5.35
379.321	5.25
379.683	5.17
380.045	5.15
380.407	5.05
380.769	5.03
381.13	4.93
381.492	4.89
381.854	4.83
382.216	4.83
382.578	4.8
382.939	4.71
383.301	4.67
383.663	4.66
384.024	4.68
384.386	4.67
384.747	4.58
385.109	4.57
385.47	4.58
385.832	4.52
386.193	4.46
386.554	4.35
386.916	4.29
387.277	4.25
387.638	4.24
387.999	4.27
388.36	4.24
388.721	4.25
389.082	4.2
389.443	4.22
389.804	4.22
390.165	4.16
390.526	4.17
390.887	4.16
391.248	4.17
391.609	4.13
391.969	4.13
392.33	4.1
392.691	4.04
393.051	4
393.412	4
393.772	3.98
394.133	4
394.493	4.05
394.854	4.05
395.214	4
395.574	3.97
395.935	3.96
396.295	3.95
396.655	3.94
397.015	3.89
397.376	3.84
397.736	3.83
398.096	3.78
398.456	3.77
398.816	3.71
399.176	3.66
399.535	3.62
399.895	3.64
400.255	3.67
400.615	3.64
400.975	3.6
401.334	3.6
401.694	3.56
402.054	3.54
402.413	3.48
402.773	3.46
403.132	3.45
403.492	3.43
403.851	3.41
404.211	3.41
404.57	3.38
404.929	3.35
405.288	3.35
405.648	3.32
406.007	3.3
406.366	3.24
406.725	3.24
407.084	3.24
407.443	3.25
407.802	3.2
408.161	3.21
408.52	3.23
408.879	3.26
409.238	3.26
409.596	3.24
409.955	3.25
410.314	3.25
410.673	3.21
411.031	3.2
411.39	3.17
411.748	3.19
412.107	3.2
412.465	3.22
412.824	3.22
413.182	3.21
413.54	3.22
413.899	3.26
414.257	3.25
414.615	3.26
414.974	3.28
415.332	3.28
415.69	3.26
416.048	3.25
416.406	3.2
416.764	3.19
417.122	3.17
417.48	3.17
417.838	3.15
418.195	3.16
418.553	3.14
418.911	3.13
419.269	3.1
419.626	3.08
419.984	3.06
420.342	3.05
420.699	3.07
421.057	3.08
421.414	3.07
421.772	3.06
422.129	3.03
422.486	3.01
422.844	2.98
423.201	2.99
423.558	2.99
423.915	2.98
424.273	2.98
424.63	2.98
424.987	2.98
425.344	2.98
425.701	2.95
426.058	2.96
426.415	2.95
426.772	2.94
427.128	2.93
427.485	2.95
427.842	2.94
428.199	2.92
428.555	2.88
428.912	2.87
429.269	2.85
429.625	2.86
429.982	2.85
430.338	2.87
430.695	2.82
431.051	2.81
431.407	2.81
431.764	2.8
432.12	2.79
432.476	2.79
432.832	2.8
433.189	2.8
433.545	2.79
433.901	2.81
434.257	2.82
434.613	2.82
434.969	2.82
435.325	2.82
435.681	2.82
436.036	2.82
436.392	2.83
436.748	2.84
437.104	2.84
437.459	2.83
437.815	2.84
438.171	2.85
438.526	2.86
438.882	2.86
439.237	2.87
439.593	2.88
439.948	2.87
440.304	2.86
440.659	2.86
441.014	2.86
441.369	2.87
441.725	2.88
442.08	2.87
442.435	2.87
442.79	2.87
443.145	2.87
443.5	2.89
443.855	2.88
444.21	2.87
444.565	2.89
444.92	2.91
445.275	2.89
445.629	2.88
445.984	2.89
446.339	2.88
446.693	2.87
447.048	2.85
447.403	2.84
447.757	2.83
448.112	2.83
448.466	2.83
448.82	2.82
449.175	2.81
449.529	2.83
449.883	2.81
450.238	2.8
450.592	2.78
450.946	2.76
451.3	2.78
451.654	2.79
452.008	2.77
452.362	2.75
452.716	2.74
453.07	2.74
453.424	2.72
453.778	2.74
454.132	2.76
454.486	2.81
454.839	2.82
455.193	2.83
455.547	2.81
455.9	2.82
456.254	2.81
456.607	2.82
456.961	2.81
457.314	2.83
457.668	2.83
458.021	2.84
458.375	2.84
458.728	2.8
459.081	2.81
459.434	2.8
459.787	2.82
460.141	2.84
460.494	2.85
460.847	2.86
461.2	2.86
461.553	2.85
461.906	2.81
462.259	2.81
462.611	2.81
462.964	2.82
463.317	2.82
463.67	2.81
464.022	2.79
464.375	2.8
464.728	2.8
465.08	2.8
465.433	2.79
465.785	2.8
466.138	2.83
466.49	2.83
466.843	2.84
467.195	2.82
467.547	2.83
467.899	2.82
468.252	2.81
468.604	2.81
468.956	2.81
469.308	2.82
469.66	2.8
470.012	2.82
470.364	2.85
470.716	2.85
471.068	2.88
471.42	2.91
471.772	2.9
472.123	2.92
472.475	2.94
472.827	2.96
473.178	2.96
473.53	2.95
473.882	2.95
474.233	2.96
474.585	2.99
474.936	2.98
475.288	3.01
475.639	3.02
475.99	3.03
476.342	3.02
476.693	3
477.044	3.05
477.395	3.02
477.746	2.98
478.097	3
478.448	2.97
478.8	2.95
479.15	2.94
479.501	2.92
479.852	2.92
480.203	2.92
480.554	2.93
480.905	2.92
481.255	2.93
481.606	2.94
481.957	2.93
482.307	2.93
482.658	2.93
483.009	2.94
483.359	2.94
483.709	2.95
484.06	2.96
484.41	2.95
484.761	2.96
485.111	2.96
485.461	2.95
485.811	2.96
486.162	2.96
486.512	2.97
486.862	2.97
487.212	2.96
487.562	2.96
487.912	2.96
488.262	2.97
488.612	2.96
488.961	2.95
489.311	2.95
489.661	2.94
490.011	2.94
490.36	2.94
490.71	2.92
491.06	2.93
491.409	2.92
491.759	2.94
492.108	2.92
492.458	2.94
492.807	2.94
493.157	2.95
493.506	2.96
493.855	2.96
494.204	2.97
494.554	2.97
494.903	2.99
495.252	2.98
495.601	3
495.95	3.02
496.299	3.03
496.648	3.05
496.997	3.08
497.346	3.1
497.695	3.09
498.043	3.11
498.392	3.12
498.741	3.14
499.09	3.15
499.438	3.17
499.787	3.17
500.135	3.2
500.484	3.19
500.832	3.22
501.181	3.24
501.529	3.28
501.878	3.32
502.226	3.34
502.574	3.37
502.923	3.39
503.271	3.42
503.619	3.47
503.967	3.49
504.315	3.52
504.663	3.53
505.011	3.6
505.359	3.65
505.707	3.68
506.055	3.7
506.403	3.75
506.751	3.82
507.098	3.86
507.446	3.9
507.794	3.97
508.141	4
508.489	4.04
508.837	4.08
509.184	4.14
509.531	4.2
509.879	4.26
510.226	4.31
510.574	4.34
510.921	4.39
511.268	4.45
511.616	4.53
511.963	4.59
512.31	4.64
512.657	4.7
513.004	4.76
513.351	4.82
513.698	4.9
514.045	4.97
514.392	5.03
514.739	5.14
515.086	5.22
515.432	5.3
515.779	5.39
516.126	5.5
516.473	5.56
516.819	5.65
517.166	5.75
517.512	5.82
517.859	5.9
518.205	5.94
518.552	6
518.898	6.06
519.245	6.14
519.591	6.22
519.937	6.31
520.283	6.43
520.629	6.53
520.976	6.62
521.322	6.7
521.668	6.81
522.014	6.9
522.36	6.99
522.706	7.12
523.052	7.24
523.398	7.36
523.743	7.51
524.089	7.6
524.435	7.71
524.781	7.82
525.126	7.93
525.472	8.05
525.817	8.15
526.163	8.25
526.509	8.33
526.854	8.4
527.199	8.49
527.545	8.55
527.89	8.63
528.235	8.7
528.581	8.78
528.926	8.87
529.271	8.94
529.616	9
529.961	9.07
530.306	9.14
530.651	9.21
530.996	9.3
531.341	9.39
531.686	9.48
532.031	9.56
532.376	9.66
532.721	9.75
533.065	9.87
533.41	9.97
533.755	10.1
534.099	10.2
534.444	10.28
534.788	10.4
535.133	10.52
535.477	10.65
535.822	10.78
536.166	10.9
536.51	11.02
536.855	11.22
537.199	11.38
537.543	11.54
537.887	11.7
538.231	11.85
538.576	11.99
538.92	12.14
539.264	12.32
539.608	12.46
539.951	12.6
540.295	12.72
540.639	12.85
540.983	12.96
541.327	13.13
541.671	13.28
542.014	13.4
542.358	13.51
542.701	13.63
543.045	13.77
543.389	13.89
543.732	14.05
544.075	14.17
544.419	14.3
544.762	14.44
545.105	14.6
545.449	14.77
545.792	14.96
546.135	15.14
546.478	15.31
546.821	15.52
547.165	15.73
547.508	15.94
547.851	16.17
548.194	16.38
548.536	16.55
548.879	16.74
549.222	16.92
549.565	17.14
549.908	17.32
550.25	17.54
550.593	17.77
550.936	17.97
551.278	18.22
551.621	18.44
551.963	18.69
552.306	18.91
552.648	19.13
552.991	19.39
553.333	19.67
553.675	19.9
554.017	20.13
554.36	20.36
554.702	20.54
555.044	20.75
555.386	20.97
555.728	21.19
556.07	21.45
556.412	21.71
556.754	21.98
557.096	22.24
557.438	22.46
557.78	22.69
558.121	22.99
558.463	23.21
558.805	23.51
559.147	23.72
559.488	23.96
559.83	24.18
560.171	24.35
560.513	24.57
560.854	24.8
561.196	25.04
561.537	25.28
561.878	25.55
562.22	25.81
562.561	26.04
562.902	26.31
563.243	26.54
563.584	26.8
563.925	27.03
564.266	27.24
564.607	27.54
564.948	27.75
565.289	27.92
565.63	28.12
565.971	28.29
566.312	28.54
566.653	28.76
566.993	29.04
567.334	29.28
567.675	29.49
568.015	29.69
568.356	29.92
568.696	30.12
569.037	30.32
569.377	30.53
569.718	30.76
570.058	30.98
570.398	31.16
570.739	31.36
571.079	31.54
571.419	31.69
571.759	31.85
572.099	32.01
572.439	32.22
572.779	32.42
573.119	32.65
573.459	32.76
573.799	32.94
574.139	33.05
574.479	33.2
574.819	33.41
575.158	33.64
575.498	33.82
575.838	34.01
576.177	34.15
576.517	34.28
576.856	34.45
577.196	34.63
577.535	34.83
577.875	35
578.214	35.21
578.553	35.48
578.893	35.71
579.232	35.97
579.571	36.18
579.91	36.39
580.25	36.51
580.589	36.78
580.928	37
581.267	37.15
581.606	37.38
581.945	37.51
582.283	37.68
582.622	37.86
582.961	38.03
583.3	38.2
583.639	38.45
583.977	38.61
584.316	38.82
584.654	38.95
584.993	39.1
585.332	39.26
585.67	39.4
586.008	39.52
586.347	39.71
586.685	39.8
587.024	39.83
587.362	40.01
587.7	40.09
588.038	40.2
588.376	40.39
588.715	40.47
589.053	40.6
589.391	40.73
589.729	40.74
590.067	40.81
590.404	41.03
590.742	41.14
591.08	41.26
591.418	41.32
591.756	41.48
592.093	41.62
592.431	41.74
592.769	41.88
593.106	41.95
593.444	41.95
593.781	42.09
594.119	42.32
594.456	42.44
594.793	42.54
595.131	42.68
595.468	42.76
595.805	42.91
596.143	42.99
596.48	43.01
596.817	43.17
597.154	43.35
597.491	43.38
597.828	43.42
598.165	43.47
598.502	43.58
598.839	43.7
599.176	43.76
599.512	43.9
599.849	44.03
600.186	44.1
600.523	44.23
600.859	44.3
601.196	44.33
601.532	44.43
601.869	44.6
602.205	44.65
602.542	44.71
602.878	44.74
603.215	44.84
603.551	44.98
603.887	45.05
604.223	45.08
604.56	45.14
604.896	45.23
605.232	45.33
605.568	45.44
605.904	45.43
606.24	45.53
606.576	45.55
606.912	45.58
607.248	45.62
607.583	45.71
607.919	45.79
608.255	45.91
608.591	45.97
608.926	45.96
609.262	45.97
609.597	46.04
609.933	46.13
610.268	46.16
610.604	46.17
610.939	46.16
611.275	46.24
611.61	46.29
611.945	46.36
612.281	46.47
612.616	46.48
612.951	46.6
613.286	46.61
613.621	46.64
613.956	46.67
614.291	46.83
614.626	46.89
614.961	47
615.296	47.07
615.631	47.09
615.966	47.21
616.3	47.33
616.635	47.4
616.97	47.42
617.304	47.43
617.639	47.5
617.973	47.6
618.308	47.65
618.642	47.73
618.977	47.72
619.311	47.67
619.646	47.69
619.98	47.69
620.314	47.73
620.648	47.78
620.983	47.83
621.317	47.79
621.651	47.86
621.985	47.89
622.319	47.91
622.653	47.86
622.987	47.9
623.321	47.93
623.655	47.97
623.988	48.06
624.322	48.15
624.656	48.22
624.99	48.19
625.323	48.26
625.657	48.27
625.99	48.35
626.324	48.41
626.657	48.47
626.991	48.54
627.324	48.59
627.658	48.72
627.991	48.8
628.324	48.82
628.657	48.83
628.991	48.83
629.324	48.91
629.657	48.96
629.99	48.94
630.323	48.87
630.656	48.98
630.989	49.09
631.322	49.19
631.655	49.23
631.987	49.33
632.32	49.32
632.653	49.33
632.986	49.26
633.318	49.36
633.651	49.39
633.984	49.43
634.316	49.46
634.649	49.45
634.981	49.4
635.313	49.4
635.646	49.41
635.978	49.43
636.31	49.4
636.643	49.46
636.975	49.5
637.307	49.51
637.639	49.44
637.971	49.28
638.303	49.13
638.635	49.06
638.967	49.03
639.299	49.06
639.631	49.13
639.963	49.27
640.295	49.27
640.626	49.19
640.958	49.12
641.29	48.95
641.621	48.86
641.953	48.82
642.285	48.9
642.616	48.91
642.948	48.98
643.279	48.96
643.61	49.05
643.942	49.06
644.273	49.17
644.604	49.2
644.936	49.43
645.267	49.54
645.598	49.58
645.929	49.63
646.26	49.61
646.591	49.61
646.922	49.62
647.253	49.56
647.584	49.6
647.915	49.66
648.245	49.98
648.576	50.05
648.907	50.11
649.238	50.04
649.568	50.09
649.899	50.02
650.229	50.1
650.56	50.1
650.89	50.12
651.221	50.13
651.551	50.21
651.882	50.12
652.212	50.12
652.542	50.16
652.872	50.19
653.203	50.22
653.533	50.26
653.863	50.24
654.193	50.24
654.523	50.31
654.853	50.29
655.183	50.18
655.513	50.31
655.843	50.47
656.172	50.54
656.502	50.59
656.832	50.58
657.162	50.5
657.491	50.56
657.821	50.61
658.15	50.73
658.48	50.76
658.809	50.83
659.139	50.86
659.468	50.8
659.798	50.8
660.127	50.84
660.456	50.78
660.785	50.82
661.115	50.83
661.444	50.84
661.773	50.88
662.102	50.79
662.431	50.64
662.76	50.68
663.089	50.84
663.418	50.75
663.747	50.79
664.076	50.75
664.404	50.81
664.733	50.87
665.062	50.75
665.39	50.65
665.719	50.51
666.048	50.43
666.376	50.66
666.705	50.81
667.033	50.86
667.362	51.01
667.69	50.88
668.018	51.02
668.347	51.09
668.675	51.12
669.003	51.32
669.331	51.39
669.659	51.26
669.987	51.18
