Data from MVZ_BU88648_Reflection_00012.txt Node
Date: Tue Nov 19 12:02:14 EST 2019
User: vgr7
Spectrometer: USB2G7710
Scans to average: 3
Trigger mode: 4
Integration Time (sec): 2.000000E-2
Electric dark correction enabled: true
Boxcar width: 10
XAxis mode: Wavelengths
Number of Pixels in Spectrum: 2048
>>>>>Begin Spectral Data<<<<<
177.721	916.18
178.105	136.14
178.488	154.24
178.871	538.46
179.254	186.54
179.636	241.89
180.019	102.08
180.402	-75
180.785	54.65
181.168	47.55
181.55	-20.54
181.933	27.88
182.316	86.61
182.698	-7.14
183.081	33.98
183.463	-51.93
183.846	-72.71
184.228	-46.87
184.611	-42.96
184.993	-51.6
185.376	-52.31
185.758	-51.3
186.14	-84.18
186.522	-91.59
186.904	-82.55
187.287	-137.2
187.669	-78.7
188.051	-87.5
188.433	-53.09
188.815	-67.34
189.197	-70.04
189.579	-65.58
189.961	-93.23
190.342	-75.05
190.724	-73.93
191.106	-112.03
191.488	-54.85
191.869	-59.13
192.251	-65.64
192.633	-91.21
193.014	-144.43
193.396	-112.14
193.777	-95.28
194.159	-56.56
194.54	-42.48
194.922	-24.45
195.303	-38.35
195.684	1.61
196.065	-25.37
196.447	15.06
196.828	22.52
197.209	10.77
197.59	10.97
197.971	5.08
198.352	-3.08
198.733	8.49
199.114	-4.23
199.495	-19.94
199.876	-42.96
200.257	-64.81
200.638	-52.16
201.018	-62.31
201.399	-74.73
201.78	-75.04
202.16	-79.78
202.541	-79.28
202.922	-104.45
203.302	-103.93
203.683	-105.31
204.063	-92.21
204.444	-109.97
204.824	-90.09
205.204	-95.92
205.585	-109.57
205.965	-134.81
206.345	-139.53
206.725	-111.7
207.106	-89.23
207.486	-91.81
207.866	-77.43
208.246	-67.66
208.626	-65.07
209.006	-58.83
209.386	-54.38
209.766	-63.58
210.145	-78.45
210.525	-84.35
210.905	-71.1
211.285	-49.53
211.664	-39.82
212.044	-38.53
212.424	-30.5
212.803	-38.71
213.183	-40.85
213.562	-32.76
213.942	-19.46
214.321	-23.52
214.701	-39.13
215.08	-41.73
215.459	-32.82
215.838	-45.18
216.218	-44.27
216.597	-36.49
216.976	-36.41
217.355	-36.59
217.734	-38.87
218.113	-26.56
218.492	-36.05
218.871	-43.71
219.25	-56.76
219.629	-74.17
220.008	-75.35
220.387	-74.87
220.766	-59.9
221.144	-50.37
221.523	-64.34
221.902	-72.26
222.28	-55.53
222.659	-33.63
223.037	-34.85
223.416	-22.83
223.794	-3.51
224.173	-8.8
224.551	-9.08
224.929	-11.45
225.308	-10.14
225.686	-6.56
226.064	-10.71
226.442	-6.18
226.821	-2.55
227.199	3.27
227.577	10.13
227.955	11.52
228.333	5.22
228.711	5.54
229.089	5.91
229.467	5.78
229.845	1.87
230.222	-0.71
230.6	-0.76
230.978	-0.17
231.356	-3.7
231.733	-4.99
232.111	-3.39
232.488	-2.89
232.866	-1.59
233.243	-1.33
233.621	-0.85
233.998	-1.12
234.376	-1.39
234.753	-1.04
235.13	-2.23
235.508	-4.22
235.885	-5.16
236.262	-3.94
236.639	-2.88
237.016	-1.21
237.393	-0.44
237.77	2.01
238.147	3.16
238.524	3.85
238.901	3.41
239.278	3.16
239.655	2.73
240.032	1.67
240.409	1.85
240.785	1.65
241.162	2.01
241.539	1.74
241.915	2.03
242.292	2.68
242.668	3.04
243.045	3.19
243.421	3.62
243.798	3.99
244.174	3.71
244.551	3.87
244.927	3.37
245.303	3.2
245.679	3.09
246.056	3.03
246.432	2.94
246.808	3.27
247.184	3.54
247.56	3.69
247.936	4.09
248.312	4.36
248.688	4.45
249.064	4.17
249.44	3.92
249.815	4.16
250.191	3.93
250.567	3.87
250.943	3.86
251.318	3.57
251.694	3.3
252.069	3.47
252.445	3.27
252.82	3.58
253.196	3.81
253.571	4.2
253.947	4.03
254.322	4.05
254.697	3.98
255.073	3.76
255.448	3.76
255.823	3.65
256.198	3.21
256.573	3.45
256.948	3.81
257.323	4.12
257.698	3.87
258.073	3.99
258.448	3.9
258.823	3.91
259.198	4.03
259.573	3.75
259.948	3.75
260.322	3.64
260.697	3.6
261.072	3.64
261.446	3.45
261.821	3.39
262.195	3.33
262.57	3.34
262.944	3.47
263.319	3.57
263.693	3.39
264.067	3.44
264.442	3.29
264.816	3.2
265.19	3.21
265.564	3.25
265.938	2.93
266.313	3.16
266.687	3.04
267.061	2.95
267.435	3.37
267.809	3.15
268.183	3.12
268.556	2.97
268.93	3.03
269.304	2.8
269.678	2.98
270.051	3.02
270.425	2.87
270.799	2.81
271.172	2.87
271.546	3.06
271.919	3.22
272.293	3.21
272.666	3.29
273.04	3.28
273.413	3.29
273.787	3.55
274.16	3.31
274.533	3.34
274.906	3.51
275.279	3.46
275.653	3.6
276.026	3.83
276.399	3.87
276.772	3.85
277.145	4.11
277.518	4.01
277.891	4.03
278.263	4.08
278.636	4.11
279.009	3.95
279.382	3.86
279.755	3.54
280.127	3.62
280.5	3.72
280.872	3.67
281.245	3.45
281.617	3.38
281.99	3.53
282.362	3.5
282.735	3.44
283.107	3.38
283.479	3.49
283.852	3.49
284.224	3.43
284.596	3.35
284.968	3.28
285.34	3.24
285.713	3.14
286.085	3.12
286.457	3.08
286.829	3.08
287.201	3.18
287.572	3.3
287.944	3.28
288.316	3.18
288.688	3.22
289.06	3.36
289.431	3.35
289.803	3.35
290.175	3.51
290.546	3.54
290.918	3.45
291.289	3.11
291.661	2.95
292.032	3.04
292.403	2.96
292.775	3.07
293.146	3.3
293.517	3.42
293.889	3.45
294.26	3.46
294.631	3.58
295.002	3.52
295.373	3.45
295.744	3.45
296.115	3.47
296.486	3.47
296.857	3.49
297.228	3.53
297.599	3.37
297.97	3.39
298.34	3.46
298.711	3.56
299.082	3.77
299.452	3.73
299.823	3.82
300.194	3.88
300.564	3.92
300.935	3.79
301.305	3.79
301.676	3.83
302.046	3.79
302.416	3.69
302.787	3.69
303.157	3.74
303.527	3.83
303.897	3.77
304.267	3.77
304.637	3.72
305.008	3.71
305.378	3.93
305.748	3.84
306.117	3.81
306.487	3.87
306.857	3.98
307.227	4.2
307.597	4.02
307.967	4.18
308.336	4.12
308.706	4.21
309.076	4.26
309.445	4.33
309.815	4.44
310.184	4.43
310.554	4.41
310.923	4.38
311.293	4.39
311.662	4.52
312.031	4.48
312.401	4.56
312.77	4.63
313.139	4.76
313.508	4.79
313.877	4.8
314.246	4.77
314.616	4.81
314.985	4.85
315.353	5.04
315.722	5.18
316.091	5.33
316.46	5.43
316.829	5.46
317.198	5.53
317.567	5.58
317.935	5.77
318.304	5.95
318.672	6.06
319.041	6.1
319.41	6.12
319.778	6.18
320.147	6.26
320.515	6.23
320.883	5.99
321.252	5.96
321.62	5.97
321.988	5.91
322.357	5.88
322.725	5.84
323.093	5.85
323.461	5.83
323.829	5.84
324.197	5.76
324.565	5.79
324.933	5.75
325.301	5.61
325.669	5.62
326.037	5.53
326.405	5.56
326.772	5.62
327.14	5.62
327.508	5.76
327.875	5.72
328.243	5.79
328.61	5.86
328.978	5.88
329.346	5.71
329.713	6.05
330.08	6.17
330.448	6.19
330.815	6.14
331.182	6.03
331.55	5.93
331.917	5.88
332.284	5.84
332.651	5.74
333.018	5.82
333.385	5.74
333.752	5.83
334.119	5.8
334.486	5.72
334.853	5.63
335.22	5.53
335.587	5.51
335.954	5.41
336.32	5.44
336.687	5.47
337.054	5.53
337.42	5.31
337.787	5.24
338.153	5.28
338.52	5.48
338.886	5.5
339.253	5.56
339.619	5.61
339.986	5.66
340.352	5.84
340.718	5.81
341.084	5.89
341.451	6
341.817	6.06
342.183	6.07
342.549	6.13
342.915	6.15
343.281	6.22
343.647	6.26
344.013	6.37
344.379	6.39
344.745	6.48
345.11	6.51
345.476	6.54
345.842	6.53
346.208	6.45
346.573	6.42
346.939	6.45
347.304	6.5
347.67	6.45
348.035	6.38
348.401	6.47
348.766	6.43
349.132	6.34
349.497	6.29
349.862	6.44
350.228	6.45
350.593	6.45
350.958	6.54
351.323	6.61
351.688	6.59
352.053	6.51
352.418	6.55
352.783	6.6
353.148	6.58
353.513	6.51
353.878	6.62
354.243	6.59
354.608	6.53
354.972	6.56
355.337	6.54
355.702	6.62
356.066	6.71
356.431	6.82
356.795	6.81
357.16	6.86
357.524	6.76
357.889	6.73
358.253	6.76
358.618	6.66
358.982	6.58
359.346	6.55
359.71	6.64
360.075	6.54
360.439	6.53
360.803	6.55
361.167	6.52
361.531	6.43
361.895	6.43
362.259	6.47
362.623	6.48
362.987	6.57
363.351	6.42
363.714	6.38
364.078	6.28
364.442	6.26
364.806	6.27
365.169	6.21
365.533	6.25
365.896	6.26
366.26	6.26
366.623	6.37
366.987	6.34
367.35	6.3
367.714	6.36
368.077	6.3
368.44	6.24
368.803	6.33
369.167	6.27
369.53	6.36
369.893	6.37
370.256	6.24
370.619	6.16
370.982	6.24
371.345	6.24
371.708	6.23
372.071	6.23
372.434	6.1
372.797	6.11
373.159	6.06
373.522	6.01
373.885	5.99
374.247	5.89
374.61	5.83
374.973	5.78
375.335	5.73
375.698	5.72
376.06	5.68
376.423	5.61
376.785	5.63
377.147	5.48
377.51	5.41
377.872	5.43
378.234	5.39
378.596	5.38
378.958	5.32
379.321	5.25
379.683	5.2
380.045	5.2
380.407	5.17
380.769	5.1
381.13	5.01
381.492	4.98
381.854	4.95
382.216	4.99
382.578	4.98
382.939	5
383.301	4.98
383.663	4.97
384.024	4.89
384.386	4.82
384.747	4.82
385.109	4.82
385.47	4.84
385.832	4.79
386.193	4.69
386.554	4.55
386.916	4.52
387.277	4.52
387.638	4.53
387.999	4.46
388.36	4.45
388.721	4.46
389.082	4.45
389.443	4.43
389.804	4.38
390.165	4.32
390.526	4.27
390.887	4.26
391.248	4.22
391.609	4.26
391.969	4.27
392.33	4.22
392.691	4.19
393.051	4.14
393.412	4.15
393.772	4.17
394.133	4.22
394.493	4.22
394.854	4.23
395.214	4.18
395.574	4.21
395.935	4.18
396.295	4.14
396.655	4.1
397.015	4.08
397.376	4.08
397.736	4.05
398.096	4.03
398.456	4
398.816	3.99
399.176	3.94
399.535	3.89
399.895	3.91
400.255	3.87
400.615	3.83
400.975	3.8
401.334	3.8
401.694	3.8
402.054	3.82
402.413	3.78
402.773	3.76
403.132	3.75
403.492	3.77
403.851	3.76
404.211	3.73
404.57	3.72
404.929	3.68
405.288	3.68
405.648	3.66
406.007	3.63
406.366	3.63
406.725	3.62
407.084	3.63
407.443	3.63
407.802	3.61
408.161	3.6
408.52	3.6
408.879	3.58
409.238	3.56
409.596	3.5
409.955	3.48
410.314	3.49
410.673	3.48
411.031	3.44
411.39	3.44
411.748	3.5
412.107	3.46
412.465	3.49
412.824	3.48
413.182	3.48
413.54	3.47
413.899	3.44
414.257	3.47
414.615	3.49
414.974	3.49
415.332	3.49
415.69	3.49
416.048	3.49
416.406	3.48
416.764	3.49
417.122	3.51
417.48	3.54
417.838	3.51
418.195	3.48
418.553	3.46
418.911	3.47
419.269	3.44
419.626	3.42
419.984	3.41
420.342	3.4
420.699	3.39
421.057	3.38
421.414	3.38
421.772	3.36
422.129	3.33
422.486	3.29
422.844	3.28
423.201	3.28
423.558	3.25
423.915	3.25
424.273	3.22
424.63	3.22
424.987	3.19
425.344	3.19
425.701	3.18
426.058	3.19
426.415	3.17
426.772	3.16
427.128	3.17
427.485	3.15
427.842	3.14
428.199	3.17
428.555	3.16
428.912	3.15
429.269	3.15
429.625	3.15
429.982	3.17
430.338	3.19
430.695	3.16
431.051	3.19
431.407	3.19
431.764	3.17
432.12	3.16
432.476	3.18
432.832	3.19
433.189	3.19
433.545	3.19
433.901	3.2
434.257	3.19
434.613	3.17
434.969	3.2
435.325	3.2
435.681	3.17
436.036	3.17
436.392	3.17
436.748	3.18
437.104	3.17
437.459	3.16
437.815	3.18
438.171	3.2
438.526	3.2
438.882	3.2
439.237	3.21
439.593	3.23
439.948	3.23
440.304	3.22
440.659	3.24
441.014	3.24
441.369	3.25
441.725	3.28
442.08	3.27
442.435	3.26
442.79	3.26
443.145	3.27
443.5	3.28
443.855	3.28
444.21	3.28
444.565	3.29
444.92	3.28
445.275	3.27
445.629	3.25
445.984	3.25
446.339	3.25
446.693	3.25
447.048	3.22
447.403	3.21
447.757	3.2
448.112	3.2
448.466	3.19
448.82	3.18
449.175	3.16
449.529	3.17
449.883	3.18
450.238	3.17
450.592	3.16
450.946	3.15
451.3	3.13
451.654	3.11
452.008	3.11
452.362	3.12
452.716	3.11
453.07	3.11
453.424	3.11
453.778	3.12
454.132	3.11
454.486	3.13
454.839	3.12
455.193	3.13
455.547	3.13
455.9	3.11
456.254	3.1
456.607	3.11
456.961	3.12
457.314	3.1
457.668	3.07
458.021	3.09
458.375	3.09
458.728	3.1
459.081	3.1
459.434	3.1
459.787	3.09
460.141	3.11
460.494	3.11
460.847	3.08
461.2	3.07
461.553	3.07
461.906	3.08
462.259	3.1
462.611	3.08
462.964	3.09
463.317	3.11
463.67	3.13
464.022	3.12
464.375	3.12
464.728	3.12
465.08	3.15
465.433	3.16
465.785	3.18
466.138	3.17
466.49	3.18
466.843	3.2
467.195	3.23
467.547	3.23
467.899	3.25
468.252	3.29
468.604	3.33
468.956	3.34
469.308	3.32
469.66	3.3
470.012	3.32
470.364	3.34
470.716	3.35
471.068	3.35
471.42	3.36
471.772	3.38
472.123	3.39
472.475	3.39
472.827	3.39
473.178	3.4
473.53	3.42
473.882	3.43
474.233	3.4
474.585	3.37
474.936	3.35
475.288	3.36
475.639	3.36
475.99	3.33
476.342	3.35
476.693	3.38
477.044	3.42
477.395	3.42
477.746	3.38
478.097	3.37
478.448	3.37
478.8	3.39
479.15	3.39
479.501	3.37
479.852	3.38
480.203	3.4
480.554	3.39
480.905	3.39
481.255	3.4
481.606	3.41
481.957	3.42
482.307	3.42
482.658	3.41
483.009	3.41
483.359	3.42
483.709	3.43
484.06	3.42
484.41	3.41
484.761	3.4
485.111	3.41
485.461	3.41
485.811	3.41
486.162	3.39
486.512	3.39
486.862	3.4
487.212	3.39
487.562	3.37
487.912	3.38
488.262	3.37
488.612	3.38
488.961	3.39
489.311	3.38
489.661	3.38
490.011	3.38
490.36	3.38
490.71	3.38
491.06	3.37
491.409	3.37
491.759	3.37
492.108	3.37
492.458	3.37
492.807	3.39
493.157	3.4
493.506	3.42
493.855	3.41
494.204	3.42
494.554	3.44
494.903	3.48
495.252	3.47
495.601	3.51
495.95	3.51
496.299	3.52
496.648	3.56
496.997	3.59
497.346	3.62
497.695	3.63
498.043	3.66
498.392	3.69
498.741	3.72
499.09	3.75
499.438	3.79
499.787	3.81
500.135	3.83
500.484	3.87
500.832	3.91
501.181	3.96
501.529	3.98
501.878	4.01
502.226	4.05
502.574	4.09
502.923	4.12
503.271	4.18
503.619	4.19
503.967	4.23
504.315	4.25
504.663	4.3
505.011	4.36
505.359	4.39
505.707	4.44
506.055	4.51
506.403	4.56
506.751	4.61
507.098	4.71
507.446	4.77
507.794	4.8
508.141	4.88
508.489	4.95
508.837	5.01
509.184	5.09
509.531	5.16
509.879	5.22
510.226	5.29
510.574	5.36
510.921	5.44
511.268	5.54
511.616	5.63
511.963	5.73
512.31	5.8
512.657	5.9
513.004	6
513.351	6.07
513.698	6.19
514.045	6.31
514.392	6.4
514.739	6.52
515.086	6.66
515.432	6.77
515.779	6.87
516.126	7.01
516.473	7.11
516.819	7.19
517.166	7.29
517.512	7.38
517.859	7.46
518.205	7.55
518.552	7.62
518.898	7.68
519.245	7.76
519.591	7.85
519.937	7.93
520.283	8.02
520.629	8.13
520.976	8.23
521.322	8.33
521.668	8.42
522.014	8.54
522.36	8.63
522.706	8.76
523.052	8.9
523.398	9.04
523.743	9.19
524.089	9.35
524.435	9.5
524.781	9.67
525.126	9.78
525.472	9.92
525.817	10.05
526.163	10.16
526.509	10.23
526.854	10.35
527.199	10.47
527.545	10.54
527.89	10.63
528.235	10.71
528.581	10.81
528.926	10.91
529.271	11.01
529.616	11.12
529.961	11.21
530.306	11.31
530.651	11.4
530.996	11.5
531.341	11.62
531.686	11.74
532.031	11.86
532.376	11.98
532.721	12.09
533.065	12.22
533.41	12.35
533.755	12.52
534.099	12.64
534.444	12.75
534.788	12.91
535.133	13.05
535.477	13.19
535.822	13.31
536.166	13.47
536.51	13.61
536.855	13.78
537.199	13.94
537.543	14.14
537.887	14.32
538.231	14.5
538.576	14.69
538.92	14.86
539.264	15.03
539.608	15.22
539.951	15.37
540.295	15.53
540.639	15.71
540.983	15.87
541.327	16.02
541.671	16.16
542.014	16.32
542.358	16.46
542.701	16.63
543.045	16.8
543.389	16.96
543.732	17.11
544.075	17.26
544.419	17.43
544.762	17.58
545.105	17.77
545.449	17.94
545.792	18.12
546.135	18.34
546.478	18.52
546.821	18.75
547.165	19
547.508	19.24
547.851	19.44
548.194	19.62
548.536	19.84
548.879	20.09
549.222	20.31
549.565	20.54
549.908	20.77
550.25	20.99
550.593	21.22
550.936	21.45
551.278	21.68
551.621	21.92
551.963	22.19
552.306	22.42
552.648	22.64
552.991	22.9
553.333	23.11
553.675	23.33
554.017	23.52
554.36	23.71
554.702	23.9
555.044	24.14
555.386	24.36
555.728	24.58
556.07	24.83
556.412	25.11
556.754	25.31
557.096	25.52
557.438	25.75
557.78	25.96
558.121	26.24
558.463	26.47
558.805	26.71
559.147	26.88
559.488	27.11
559.83	27.33
560.171	27.5
560.513	27.69
560.854	27.98
561.196	28.19
561.537	28.42
561.878	28.62
562.22	28.79
562.561	29
562.902	29.21
563.243	29.3
563.584	29.45
563.925	29.68
564.266	29.86
564.607	30.03
564.948	30.18
565.289	30.33
565.63	30.5
565.971	30.64
566.312	30.8
566.653	30.95
566.993	31.11
567.334	31.27
567.675	31.42
568.015	31.52
568.356	31.64
568.696	31.76
569.037	31.91
569.377	32.06
569.718	32.21
570.058	32.39
570.398	32.58
570.739	32.66
571.079	32.74
571.419	32.91
571.759	33.02
572.099	33.19
572.439	33.28
572.779	33.4
573.119	33.54
573.459	33.69
573.799	33.81
574.139	33.92
574.479	34.08
574.819	34.19
575.158	34.32
575.498	34.51
575.838	34.65
576.177	34.71
576.517	34.86
576.856	35
577.196	35.1
577.535	35.18
577.875	35.4
578.214	35.55
578.553	35.66
578.893	35.85
579.232	35.96
579.571	36.16
579.91	36.32
580.25	36.44
580.589	36.51
580.928	36.63
581.267	36.75
581.606	36.84
581.945	36.99
582.283	37.09
582.622	37.11
582.961	37.24
583.3	37.44
583.639	37.52
583.977	37.62
584.316	37.7
584.654	37.88
584.993	37.94
585.332	38.07
585.67	38.18
586.008	38.26
586.347	38.32
586.685	38.37
587.024	38.42
587.362	38.54
587.7	38.66
588.038	38.7
588.376	38.8
588.715	38.87
589.053	38.95
589.391	39.07
589.729	39.19
590.067	39.2
590.404	39.25
590.742	39.29
591.08	39.38
591.418	39.41
591.756	39.51
592.093	39.63
592.431	39.74
592.769	39.8
593.106	39.83
593.444	39.95
593.781	40.04
594.119	40.14
594.456	40.15
594.793	40.23
595.131	40.41
595.468	40.48
595.805	40.59
596.143	40.66
596.48	40.73
596.817	40.77
597.154	40.94
597.491	40.97
597.828	41.1
598.165	41.19
598.502	41.26
598.839	41.29
599.176	41.29
599.512	41.32
599.849	41.4
600.186	41.48
600.523	41.49
600.859	41.53
601.196	41.63
601.532	41.8
601.869	41.86
602.205	41.84
602.542	41.93
602.878	41.99
603.215	42.07
603.551	42.14
603.887	42.23
604.223	42.2
604.56	42.26
604.896	42.3
605.232	42.32
605.568	42.39
605.904	42.47
606.24	42.53
606.576	42.64
606.912	42.67
607.248	42.74
607.583	42.82
607.919	42.82
608.255	42.87
608.591	42.88
608.926	42.89
609.262	42.97
609.597	42.97
609.933	42.96
610.268	42.98
610.604	43.02
610.939	43.05
611.275	43.2
611.61	43.27
611.945	43.24
612.281	43.33
612.616	43.39
612.951	43.41
613.286	43.44
613.621	43.38
613.956	43.5
614.291	43.59
614.626	43.65
614.961	43.82
615.296	43.84
615.631	43.81
615.966	43.9
616.3	43.96
616.635	43.96
616.97	43.97
617.304	44.02
617.639	43.94
617.973	43.9
618.308	43.84
618.642	43.92
618.977	44
619.311	43.9
619.646	43.98
619.98	44.12
620.314	44.14
620.648	44.12
620.983	44.09
621.317	44.12
621.651	44.17
621.985	44.16
622.319	44.14
622.653	44.3
622.987	44.3
623.321	44.32
623.655	44.35
623.988	44.43
624.322	44.43
624.656	44.55
624.99	44.65
625.323	44.67
625.657	44.69
625.99	44.72
626.324	44.8
626.657	44.81
626.991	44.7
627.324	44.81
627.658	44.88
627.991	44.88
628.324	44.89
628.657	44.89
628.991	44.93
629.324	44.94
629.657	44.91
629.99	44.97
630.323	45.11
630.656	45.16
630.989	45.17
631.322	45.21
631.655	45.29
631.987	45.26
632.32	45.29
632.653	45.22
632.986	45.31
633.318	45.36
633.651	45.27
633.984	45.33
634.316	45.26
634.649	45.34
634.981	45.45
635.313	45.46
635.646	45.4
635.978	45.43
636.31	45.53
636.643	45.56
636.975	45.58
637.307	45.47
637.639	45.47
637.971	45.52
638.303	45.52
638.635	45.49
638.967	45.57
639.299	45.66
639.631	45.78
639.963	45.66
640.295	45.65
640.626	45.77
640.958	45.81
641.29	45.9
641.621	45.84
641.953	45.77
642.285	45.75
642.616	45.93
642.948	45.89
643.279	45.84
643.61	45.85
643.942	45.96
644.273	45.98
644.604	45.91
644.936	45.89
645.267	45.96
645.598	45.87
645.929	45.91
646.26	45.89
646.591	45.95
646.922	46.02
647.253	46.09
647.584	46.06
647.915	46.21
648.245	46.26
648.576	46.34
648.907	46.36
649.238	46.51
649.568	46.51
649.899	46.53
650.229	46.62
650.56	46.71
650.89	46.6
651.221	46.65
651.551	46.84
651.882	47
652.212	46.93
652.542	47.03
652.872	47
653.203	47.02
653.533	47.03
653.863	47.13
654.193	47.04
654.523	47.15
654.853	47.09
655.183	47.08
655.513	47.13
655.843	47.31
656.172	47.41
656.502	47.42
656.832	47.52
657.162	47.6
657.491	47.74
657.821	47.74
658.15	47.79
658.48	47.79
658.809	47.65
659.139	47.75
659.468	47.87
659.798	47.95
660.127	47.94
660.456	47.92
660.785	47.91
661.115	48.02
661.444	48
661.773	48.04
662.102	47.98
662.431	48.07
662.76	47.93
663.089	47.87
663.418	47.97
663.747	47.96
664.076	47.89
664.404	47.66
664.733	47.94
665.062	47.94
665.39	47.91
665.719	48.07
666.048	48.05
666.376	48
666.705	47.89
667.033	47.86
