Data from MVZ_BU123442_Reflection_00012.txt Node
Date: Tue Nov 19 12:12:39 EST 2019
User: vgr7
Spectrometer: USB2G7710
Scans to average: 3
Trigger mode: 4
Integration Time (sec): 2.000000E-2
Electric dark correction enabled: true
Boxcar width: 10
XAxis mode: Wavelengths
Number of Pixels in Spectrum: 2048
>>>>>Begin Spectral Data<<<<<
177.721	223.34
178.105	327.27
178.488	170.76
178.871	198.31
179.254	315.79
179.636	134.16
180.019	33.96
180.402	230.77
180.785	65.06
181.168	112.11
181.55	145.19
181.933	127.25
182.316	135.8
182.698	46.86
183.081	54.79
183.463	78.74
183.846	71.54
184.228	110.02
184.611	120.52
184.993	-600
185.376	-3313.04
185.758	398.42
186.14	424.39
186.522	875.23
186.904	-840
187.287	-950.34
187.669	-512.73
188.051	-573.91
188.433	-528.13
188.815	-249.48
189.197	-234.55
189.579	-212.59
189.961	-180.1
190.342	-175.04
190.724	-130.58
191.106	-75.63
191.488	-67.88
191.869	-65.23
192.251	-39.96
192.633	-47.79
193.014	-35.19
193.396	-58.97
193.777	-22.42
194.159	-48.28
194.54	-44.35
194.922	-38.75
195.303	-25.53
195.684	-52.49
196.065	-43.04
196.447	-40.47
196.828	-88.22
197.209	-97.03
197.59	-56.32
197.971	-40.83
198.352	-19.07
198.733	-42.72
199.114	-51.52
199.495	-52
199.876	-35.78
200.257	-51.24
200.638	-39.93
201.018	-90.45
201.399	-61.07
201.78	-50.77
202.16	-82.01
202.541	-162.52
202.922	-160.24
203.302	-207.13
203.683	-729.73
204.063	-394.03
204.444	-911.45
204.824	-243.96
205.204	-137.88
205.585	-284.5
205.965	-2145.76
206.345	673.62
206.725	875.23
207.106	600
207.486	1017.39
207.866	219.54
208.246	587.55
208.626	-6704.35
209.006	-410.78
209.386	-402.7
209.766	-302.61
210.145	-150.72
210.525	-132.72
210.905	-116.11
211.285	-72.26
211.664	-19.54
212.044	-28.21
212.424	9.8
212.803	13.45
213.183	-0
213.562	15.58
213.942	26.45
214.321	2.4
214.701	18.82
215.08	13.69
215.459	22.77
215.838	0.96
216.218	9.2
216.597	3.95
216.976	-2.52
217.355	-20.64
217.734	-17.79
218.113	9.94
218.492	13.07
218.871	2.73
219.25	-5.78
219.629	-9.87
220.008	-7.47
220.387	-33.27
220.766	-28.74
221.144	-30.37
221.523	-41.66
221.902	-37.39
222.28	-30.62
222.659	-23.98
223.037	-27.66
223.416	-18.07
223.794	-6.83
224.173	-0.76
224.551	-1.88
224.929	-7.96
225.308	-2.5
225.686	-4.26
226.064	-14.27
226.442	-9.14
226.821	-14.62
227.199	-13.03
227.577	-12.38
227.955	-9.99
228.333	-9.02
228.711	-6.88
229.089	-9.05
229.467	-7.99
229.845	-8.77
230.222	-4.51
230.6	-7.76
230.978	-4.14
231.356	-8.39
231.733	-8.37
232.111	-8.9
232.488	-8.64
232.866	-4.58
233.243	-4.75
233.621	-4.13
233.998	-3.47
234.376	-4.1
234.753	-2.63
235.13	-3.74
235.508	-4.19
235.885	-5.25
236.262	-4.88
236.639	-6.21
237.016	-5.26
237.393	-3.82
237.77	-3.68
238.147	-4.39
238.524	-2.12
238.901	-2.01
239.278	-1.54
239.655	-1.41
240.032	-1.49
240.409	-1.57
240.785	-1.35
241.162	-1.42
241.539	-0.97
241.915	-1.14
242.292	-0.36
242.668	0.04
243.045	0.94
243.421	1.63
243.798	2.19
244.174	2.31
244.551	2.16
244.927	2.17
245.303	1.95
245.679	2.21
246.056	2.35
246.432	1.89
246.808	1.83
247.184	1.99
247.56	1.83
247.936	2.16
248.312	2.47
248.688	2.51
249.064	2.56
249.44	2.47
249.815	2.63
250.191	2.18
250.567	2.21
250.943	1.99
251.318	1.53
251.694	1.3
252.069	1.45
252.445	1.58
252.82	1.93
253.196	2.05
253.571	2.38
253.947	2.44
254.322	2.82
254.697	3.05
255.073	2.93
255.448	3.14
255.823	2.78
256.198	2.62
256.573	2.56
256.948	2.7
257.323	2.93
257.698	2.98
258.073	3.13
258.448	3.07
258.823	3.04
259.198	2.99
259.573	2.89
259.948	3
260.322	3.03
260.697	3.1
261.072	3.07
261.446	2.97
261.821	2.83
262.195	2.63
262.57	2.51
262.944	2.58
263.319	2.7
263.693	2.79
264.067	2.86
264.442	2.96
264.816	2.94
265.19	2.77
265.564	2.84
265.938	2.75
266.313	2.56
266.687	2.5
267.061	2.5
267.435	2.89
267.809	2.51
268.183	2.39
268.556	2.12
268.93	2.14
269.304	2.12
269.678	2.22
270.051	2.36
270.425	2.46
270.799	2.43
271.172	2.33
271.546	2.37
271.919	2.36
272.293	2.37
272.666	2.34
273.04	2.31
273.413	2.18
273.787	2.25
274.16	2.46
274.533	2.65
274.906	2.76
275.279	2.58
275.653	2.67
276.026	2.71
276.399	2.64
276.772	2.65
277.145	2.57
277.518	2.45
277.891	2.68
278.263	2.58
278.636	2.43
279.009	2.6
279.382	2.5
279.755	2.61
280.127	2.31
280.5	2.38
280.872	2.41
281.245	2.4
281.617	2.4
281.99	2.42
282.362	2.46
282.735	2.49
283.107	2.42
283.479	2.5
283.852	2.7
284.224	2.89
284.596	2.94
284.968	2.88
285.34	2.93
285.713	2.76
286.085	2.77
286.457	2.84
286.829	2.84
287.201	3.02
287.572	2.82
287.944	3.11
288.316	3.01
288.688	3.16
289.06	3.18
289.431	3.27
289.803	3.24
290.175	3.13
290.546	3.07
290.918	3.14
291.289	2.97
291.661	2.85
292.032	2.73
292.403	2.74
292.775	2.88
293.146	2.99
293.517	3.02
293.889	3.07
294.26	3.16
294.631	3.07
295.002	2.98
295.373	3.13
295.744	3.11
296.115	3.33
296.486	3.24
296.857	3.27
297.228	3.22
297.599	3.15
297.97	3.47
298.34	3.59
298.711	3.51
299.082	3.62
299.452	3.64
299.823	3.59
300.194	3.45
300.564	3.34
300.935	3.34
301.305	3.38
301.676	3.36
302.046	3.38
302.416	3.37
302.787	3.44
303.157	3.56
303.527	3.51
303.897	3.43
304.267	3.46
304.637	3.48
305.008	3.58
305.378	3.53
305.748	3.23
306.117	3.2
306.487	3.48
306.857	3.72
307.227	3.87
307.597	3.98
307.967	4.19
308.336	4.38
308.706	4.48
309.076	4.42
309.445	4.49
309.815	4.51
310.184	4.53
310.554	4.51
310.923	4.29
311.293	4.35
311.662	4.42
312.031	4.41
312.401	4.32
312.77	4.17
313.139	4.1
313.508	4.09
313.877	4.23
314.246	4.1
314.616	3.94
314.985	3.73
315.353	3.72
315.722	3.73
316.091	3.59
316.46	3.44
316.829	3.48
317.198	3.46
317.567	3.64
317.935	3.79
318.304	3.88
318.672	4.21
319.041	4.2
319.41	4.07
319.778	4.04
320.147	4.1
320.515	4.26
320.883	4.48
321.252	4.45
321.62	4.34
321.988	4.27
322.357	4.35
322.725	4.58
323.093	4.61
323.461	4.54
323.829	4.6
324.197	4.75
324.565	4.93
324.933	4.85
325.301	4.49
325.669	4.24
326.037	4.21
326.405	4
326.772	3.98
327.14	4.14
327.508	4.27
327.875	4.52
328.243	4.56
328.61	4.61
328.978	4.66
329.346	4.76
329.713	4.77
330.08	4.82
330.448	4.79
330.815	4.81
331.182	4.78
331.55	4.8
331.917	4.81
332.284	4.83
332.651	4.96
333.018	5.12
333.385	5.32
333.752	5.42
334.119	5.46
334.486	5.38
334.853	5.35
335.22	5.28
335.587	5.24
335.954	5.25
336.32	5.22
336.687	5.32
337.054	5.23
337.42	5.33
337.787	5.38
338.153	5.4
338.52	5.42
338.886	5.49
339.253	5.49
339.619	5.41
339.986	5.28
340.352	5.31
340.718	5.43
341.084	5.46
341.451	5.41
341.817	5.46
342.183	5.48
342.549	5.58
342.915	5.73
343.281	5.62
343.647	5.51
344.013	5.58
344.379	5.5
344.745	5.49
345.11	5.48
345.476	5.52
345.842	5.44
346.208	5.47
346.573	5.58
346.939	5.68
347.304	5.84
347.67	5.84
348.035	5.8
348.401	5.74
348.766	5.73
349.132	5.74
349.497	5.83
349.862	5.94
350.228	5.91
350.593	5.81
350.958	5.91
351.323	5.95
351.688	6.08
352.053	6.12
352.418	6.2
352.783	6.26
353.148	6.21
353.513	6.29
353.878	6.24
354.243	6.03
354.608	5.99
354.972	5.9
355.337	5.96
355.702	5.97
356.066	5.99
356.431	6.02
356.795	5.99
357.16	6.02
357.524	6.07
357.889	6.03
358.253	6.05
358.618	6
358.982	6.04
359.346	5.94
359.71	6.01
360.075	6.05
360.439	6
360.803	6.08
361.167	6.06
361.531	6.13
361.895	6.21
362.259	6.22
362.623	6.15
362.987	6.17
363.351	6.14
363.714	6.15
364.078	6.05
364.442	6.05
364.806	6.05
365.169	5.97
365.533	5.98
365.896	5.93
366.26	5.95
366.623	5.95
366.987	5.99
367.35	5.9
367.714	5.8
368.077	5.88
368.44	5.79
368.803	5.74
369.167	5.71
369.53	5.66
369.893	5.64
370.256	5.62
370.619	5.59
370.982	5.54
371.345	5.55
371.708	5.62
372.071	5.59
372.434	5.5
372.797	5.47
373.159	5.44
373.522	5.45
373.885	5.49
374.247	5.51
374.61	5.5
374.973	5.5
375.335	5.56
375.698	5.44
376.06	5.44
376.423	5.46
376.785	5.45
377.147	5.43
377.51	5.42
377.872	5.5
378.234	5.48
378.596	5.51
378.958	5.56
379.321	5.49
379.683	5.51
380.045	5.5
380.407	5.49
380.769	5.46
381.13	5.43
381.492	5.36
381.854	5.34
382.216	5.3
382.578	5.29
382.939	5.2
383.301	5.2
383.663	5.18
384.024	5.18
384.386	5.17
384.747	5.18
385.109	5.14
385.47	5.15
385.832	5.09
386.193	5.08
386.554	4.96
386.916	4.98
387.277	4.95
387.638	4.98
387.999	5
388.36	4.99
388.721	4.95
389.082	4.93
389.443	4.88
389.804	4.85
390.165	4.83
390.526	4.85
390.887	4.89
391.248	4.89
391.609	4.86
391.969	4.82
392.33	4.78
392.691	4.76
393.051	4.69
393.412	4.7
393.772	4.68
394.133	4.67
394.493	4.64
394.854	4.65
395.214	4.62
395.574	4.61
395.935	4.65
396.295	4.67
396.655	4.67
397.015	4.65
397.376	4.63
397.736	4.63
398.096	4.6
398.456	4.51
398.816	4.47
399.176	4.47
399.535	4.49
399.895	4.51
400.255	4.51
400.615	4.49
400.975	4.46
401.334	4.45
401.694	4.47
402.054	4.47
402.413	4.44
402.773	4.4
403.132	4.37
403.492	4.31
403.851	4.25
404.211	4.23
404.57	4.26
404.929	4.26
405.288	4.26
405.648	4.27
406.007	4.29
406.366	4.26
406.725	4.26
407.084	4.26
407.443	4.27
407.802	4.28
408.161	4.28
408.52	4.31
408.879	4.3
409.238	4.3
409.596	4.3
409.955	4.31
410.314	4.37
410.673	4.37
411.031	4.36
411.39	4.41
411.748	4.45
412.107	4.44
412.465	4.47
412.824	4.46
413.182	4.45
413.54	4.46
413.899	4.45
414.257	4.45
414.615	4.41
414.974	4.41
415.332	4.4
415.69	4.39
416.048	4.39
416.406	4.38
416.764	4.36
417.122	4.35
417.48	4.33
417.838	4.3
418.195	4.27
418.553	4.26
418.911	4.25
419.269	4.21
419.626	4.19
419.984	4.17
420.342	4.16
420.699	4.13
421.057	4.12
421.414	4.12
421.772	4.11
422.129	4.09
422.486	4.07
422.844	4.07
423.201	4.07
423.558	4.05
423.915	4.07
424.273	4.08
424.63	4.07
424.987	4.08
425.344	4.07
425.701	4.07
426.058	4.09
426.415	4.08
426.772	4.08
427.128	4.08
427.485	4.08
427.842	4.07
428.199	4.08
428.555	4.09
428.912	4.1
429.269	4.08
429.625	4.1
429.982	4.11
430.338	4.13
430.695	4.12
431.051	4.14
431.407	4.13
431.764	4.09
432.12	4.1
432.476	4.1
432.832	4.09
433.189	4.08
433.545	4.08
433.901	4.07
434.257	4.1
434.613	4.14
434.969	4.14
435.325	4.16
435.681	4.18
436.036	4.16
436.392	4.16
436.748	4.18
437.104	4.19
437.459	4.19
437.815	4.17
438.171	4.17
438.526	4.15
438.882	4.16
439.237	4.17
439.593	4.17
439.948	4.17
440.304	4.19
440.659	4.2
441.014	4.19
441.369	4.19
441.725	4.18
442.08	4.16
442.435	4.15
442.79	4.13
443.145	4.13
443.5	4.13
443.855	4.12
444.21	4.13
444.565	4.12
444.92	4.11
445.275	4.11
445.629	4.12
445.984	4.13
446.339	4.13
446.693	4.15
447.048	4.13
447.403	4.14
447.757	4.13
448.112	4.14
448.466	4.15
448.82	4.15
449.175	4.14
449.529	4.15
449.883	4.15
450.238	4.16
450.592	4.14
450.946	4.15
451.3	4.16
451.654	4.16
452.008	4.16
452.362	4.16
452.716	4.16
453.07	4.16
453.424	4.15
453.778	4.13
454.132	4.11
454.486	4.11
454.839	4.1
455.193	4.11
455.547	4.08
455.9	4.09
456.254	4.08
456.607	4.09
456.961	4.1
457.314	4.13
457.668	4.14
458.021	4.16
458.375	4.16
458.728	4.17
459.081	4.17
459.434	4.18
459.787	4.19
460.141	4.18
460.494	4.2
460.847	4.2
461.2	4.22
461.553	4.23
461.906	4.24
462.259	4.23
462.611	4.24
462.964	4.26
463.317	4.28
463.67	4.28
464.022	4.27
464.375	4.25
464.728	4.23
465.08	4.24
465.433	4.26
465.785	4.28
466.138	4.3
466.49	4.32
466.843	4.31
467.195	4.33
467.547	4.36
467.899	4.35
468.252	4.37
468.604	4.39
468.956	4.37
469.308	4.37
469.66	4.4
470.012	4.41
470.364	4.41
470.716	4.41
471.068	4.42
471.42	4.46
471.772	4.47
472.123	4.49
472.475	4.5
472.827	4.49
473.178	4.48
473.53	4.48
473.882	4.46
474.233	4.47
474.585	4.46
474.936	4.46
475.288	4.46
475.639	4.45
475.99	4.43
476.342	4.47
476.693	4.47
477.044	4.48
477.395	4.46
477.746	4.45
478.097	4.45
478.448	4.46
478.8	4.44
479.15	4.44
479.501	4.45
479.852	4.46
480.203	4.47
480.554	4.47
480.905	4.47
481.255	4.49
481.606	4.49
481.957	4.5
482.307	4.52
482.658	4.51
483.009	4.52
483.359	4.51
483.709	4.51
484.06	4.5
484.41	4.49
484.761	4.5
485.111	4.51
485.461	4.51
485.811	4.51
486.162	4.51
486.512	4.51
486.862	4.52
487.212	4.52
487.562	4.52
487.912	4.52
488.262	4.52
488.612	4.52
488.961	4.53
489.311	4.52
489.661	4.5
490.011	4.51
490.36	4.51
490.71	4.53
491.06	4.54
491.409	4.56
491.759	4.57
492.108	4.57
492.458	4.57
492.807	4.58
493.157	4.61
493.506	4.62
493.855	4.64
494.204	4.64
494.554	4.65
494.903	4.66
495.252	4.7
495.601	4.73
495.95	4.76
496.299	4.79
496.648	4.82
496.997	4.86
497.346	4.88
497.695	4.9
498.043	4.9
498.392	4.91
498.741	4.93
499.09	4.94
499.438	4.98
499.787	5.03
500.135	5.06
500.484	5.08
500.832	5.11
501.181	5.13
501.529	5.2
501.878	5.24
502.226	5.28
502.574	5.3
502.923	5.31
503.271	5.35
503.619	5.38
503.967	5.42
504.315	5.43
504.663	5.5
505.011	5.54
505.359	5.59
505.707	5.63
506.055	5.68
506.403	5.76
506.751	5.79
507.098	5.83
507.446	5.9
507.794	5.95
508.141	6.03
508.489	6.07
508.837	6.09
509.184	6.16
509.531	6.19
509.879	6.24
510.226	6.29
510.574	6.34
510.921	6.4
511.268	6.49
511.616	6.58
511.963	6.62
512.31	6.72
512.657	6.81
513.004	6.87
513.351	6.94
513.698	7.01
514.045	7.07
514.392	7.17
514.739	7.24
515.086	7.33
515.432	7.4
515.779	7.49
516.126	7.59
516.473	7.65
516.819	7.71
517.166	7.79
517.512	7.85
517.859	7.93
518.205	8
518.552	8.06
518.898	8.13
519.245	8.18
519.591	8.24
519.937	8.29
520.283	8.36
520.629	8.42
520.976	8.49
521.322	8.57
521.668	8.64
522.014	8.73
522.36	8.82
522.706	8.91
523.052	9.03
523.398	9.12
523.743	9.23
524.089	9.35
524.435	9.46
524.781	9.56
525.126	9.63
525.472	9.72
525.817	9.78
526.163	9.84
526.509	9.91
526.854	9.98
527.199	10.04
527.545	10.12
527.89	10.2
528.235	10.28
528.581	10.37
528.926	10.43
529.271	10.49
529.616	10.55
529.961	10.61
530.306	10.68
530.651	10.76
530.996	10.85
531.341	10.94
531.686	11.03
532.031	11.13
532.376	11.24
532.721	11.34
533.065	11.45
533.41	11.58
533.755	11.73
534.099	11.85
534.444	11.97
534.788	12.08
535.133	12.2
535.477	12.33
535.822	12.45
536.166	12.63
536.51	12.79
536.855	12.98
537.199	13.17
537.543	13.33
537.887	13.54
538.231	13.74
538.576	13.94
538.92	14.12
539.264	14.3
539.608	14.45
539.951	14.61
540.295	14.77
540.639	14.91
540.983	15.06
541.327	15.2
541.671	15.36
542.014	15.51
542.358	15.68
542.701	15.81
543.045	15.98
543.389	16.12
543.732	16.28
544.075	16.45
544.419	16.62
544.762	16.81
545.105	16.96
545.449	17.14
545.792	17.34
546.135	17.52
546.478	17.74
546.821	17.98
547.165	18.2
547.508	18.41
547.851	18.63
548.194	18.83
548.536	19.09
548.879	19.3
549.222	19.54
549.565	19.71
549.908	19.93
550.25	20.15
550.593	20.44
550.936	20.66
551.278	20.86
551.621	21.04
551.963	21.31
552.306	21.58
552.648	21.81
552.991	21.99
553.333	22.22
553.675	22.43
554.017	22.67
554.36	22.95
554.702	23.23
555.044	23.44
555.386	23.67
555.728	23.92
556.07	24.17
556.412	24.4
556.754	24.65
557.096	24.92
557.438	25.14
557.78	25.3
558.121	25.5
558.463	25.68
558.805	25.92
559.147	26.14
559.488	26.34
559.83	26.57
560.171	26.8
560.513	27.06
560.854	27.28
561.196	27.56
561.537	27.67
561.878	27.86
562.22	28.12
562.561	28.34
562.902	28.49
563.243	28.68
563.584	28.88
563.925	29.13
564.266	29.36
564.607	29.58
564.948	29.76
565.289	29.99
565.63	30.22
565.971	30.45
566.312	30.56
566.653	30.74
566.993	30.88
567.334	31.09
567.675	31.25
568.015	31.38
568.356	31.48
568.696	31.66
569.037	31.84
569.377	31.97
569.718	32.14
570.058	32.34
570.398	32.49
570.739	32.69
571.079	32.82
571.419	32.92
571.759	33.03
572.099	33.2
572.439	33.38
572.779	33.49
573.119	33.61
573.459	33.78
573.799	33.9
574.139	34.07
574.479	34.21
574.819	34.35
575.158	34.51
575.498	34.65
575.838	34.83
576.177	34.92
576.517	35.04
576.856	35.17
577.196	35.28
577.535	35.42
577.875	35.47
578.214	35.63
578.553	35.76
578.893	35.95
579.232	36.07
579.571	36.11
579.91	36.33
580.25	36.46
580.589	36.58
580.928	36.71
581.267	36.82
581.606	36.88
581.945	37.06
582.283	37.23
582.622	37.35
582.961	37.42
583.3	37.55
583.639	37.69
583.977	37.82
584.316	37.86
584.654	37.99
584.993	38.23
585.332	38.29
585.67	38.34
586.008	38.42
586.347	38.47
586.685	38.62
587.024	38.66
587.362	38.74
587.7	38.82
588.038	38.9
588.376	38.91
588.715	39.05
589.053	39.06
589.391	39.07
589.729	39.16
590.067	39.32
590.404	39.47
590.742	39.55
591.08	39.58
591.418	39.69
591.756	39.79
592.093	39.82
592.431	39.89
592.769	40.08
593.106	40.14
593.444	40.25
593.781	40.33
594.119	40.36
594.456	40.42
594.793	40.47
595.131	40.58
595.468	40.73
595.805	40.77
596.143	40.81
596.48	40.85
596.817	41
597.154	40.96
597.491	40.97
597.828	41.03
598.165	41.07
598.502	41.16
598.839	41.23
599.176	41.34
599.512	41.44
599.849	41.42
600.186	41.45
600.523	41.58
600.859	41.55
601.196	41.68
601.532	41.76
601.869	41.88
602.205	41.91
602.542	41.94
602.878	41.95
603.215	42.03
603.551	42.1
603.887	41.97
604.223	42.06
604.56	42.09
604.896	42.2
605.232	42.25
605.568	42.3
605.904	42.29
606.24	42.29
606.576	42.35
606.912	42.36
607.248	42.47
607.583	42.5
607.919	42.62
608.255	42.7
608.591	42.73
608.926	42.7
609.262	42.75
609.597	42.81
609.933	42.9
610.268	42.9
610.604	42.9
610.939	43.05
611.275	43.11
611.61	43.13
611.945	43.11
612.281	43.16
612.616	43.21
612.951	43.33
613.286	43.3
613.621	43.34
613.956	43.45
614.291	43.54
614.626	43.58
614.961	43.59
615.296	43.56
615.631	43.58
615.966	43.66
616.3	43.74
616.635	43.77
616.97	43.74
617.304	43.81
617.639	43.86
617.973	43.84
618.308	43.84
618.642	43.83
618.977	43.95
619.311	44.07
619.646	44.15
619.98	44.18
620.314	44.22
620.648	44.27
620.983	44.31
621.317	44.31
621.651	44.33
621.985	44.31
622.319	44.3
622.653	44.4
622.987	44.33
623.321	44.25
623.655	44.34
623.988	44.44
624.322	44.53
624.656	44.58
624.99	44.67
625.323	44.69
625.657	44.79
625.99	44.72
626.324	44.63
626.657	44.66
626.991	44.7
627.324	44.8
627.658	44.82
627.991	44.81
628.324	44.84
628.657	44.92
628.991	45.02
629.324	45.07
629.657	45.13
629.99	45.24
630.323	45.27
630.656	45.26
630.989	45.26
631.322	45.21
631.655	45.18
631.987	45.3
632.32	45.39
632.653	45.43
632.986	45.46
633.318	45.57
633.651	45.51
633.984	45.54
634.316	45.51
634.649	45.4
634.981	45.41
635.313	45.38
635.646	45.3
635.978	45.35
636.31	45.5
636.643	45.45
636.975	45.63
637.307	45.69
637.639	45.65
637.971	45.72
638.303	45.74
638.635	45.9
638.967	45.8
639.299	45.75
639.631	45.76
639.963	45.8
640.295	45.82
640.626	45.81
640.958	45.79
641.29	45.77
641.621	45.89
641.953	46.01
642.285	46.06
642.616	46.16
642.948	46.13
643.279	46.1
643.61	46.09
643.942	45.99
644.273	46.06
644.604	46.21
644.936	46.28
645.267	46.32
645.598	46.21
645.929	46.22
646.26	46.28
646.591	46.22
646.922	46.33
647.253	46.31
647.584	46.43
647.915	46.48
648.245	46.62
648.576	46.6
648.907	46.62
649.238	46.53
649.568	46.46
649.899	46.48
650.229	46.37
650.56	46.56
650.89	46.6
651.221	46.61
651.551	46.54
651.882	46.54
652.212	46.64
652.542	46.8
652.872	46.94
653.203	46.94
653.533	47.04
653.863	46.99
654.193	47.02
654.523	47.01
654.853	46.92
655.183	46.9
655.513	47.08
655.843	47.18
656.172	47.26
656.502	47.36
656.832	47.33
657.162	47.43
657.491	47.38
657.821	47.24
658.15	47.26
658.48	47.23
658.809	47.19
659.139	47.26
659.468	47.15
659.798	47.14
660.127	47.24
660.456	47.26
660.785	47.28
661.115	47.39
661.444	47.41
661.773	47.46
662.102	47.41
662.431	47.33
662.76	47.28
663.089	47.31
663.418	47.29
663.747	47.36
664.076	47.43
664.404	47.37
664.733	47.67
665.062	47.71
665.39	47.78
665.719	47.78
666.048	47.65
666.376	47.92
666.705	48.05
