Data from MVZ_BU123442_Reflection_00009.txt Node
Date: Tue Nov 19 12:12:33 EST 2019
User: vgr7
Spectrometer: USB2G7710
Scans to average: 3
Trigger mode: 4
Integration Time (sec): 2.000000E-2
Electric dark correction enabled: true
Boxcar width: 10
XAxis mode: Wavelengths
Number of Pixels in Spectrum: 2048
>>>>>Begin Spectral Data<<<<<
177.721	164.25
178.105	80.52
178.488	46.35
178.871	120.34
179.254	178.95
179.636	6.83
180.019	-777.36
180.402	223.08
180.785	-48.19
181.168	136.33
181.55	95.63
181.933	75.7
182.316	179.68
182.698	105.76
183.081	71.8
183.463	167.44
183.846	143.5
184.228	204.01
184.611	142.12
184.993	-584
185.376	-2182.61
185.758	165.22
186.14	239.02
186.522	278.9
186.904	-296
187.287	-413.42
187.669	-320
188.051	-356.52
188.433	-280.22
188.815	-152.61
189.197	-126.21
189.579	-170.13
189.961	-143.18
190.342	-111.18
190.724	-85.52
191.106	-69.49
191.488	-27.27
191.869	-17.67
192.251	-24.26
192.633	-35.35
193.014	-47.37
193.396	-75.35
193.777	-49.75
194.159	-52.82
194.54	-60.14
194.922	-73.53
195.303	-67.23
195.684	-63.12
196.065	-64.65
196.447	-63.45
196.828	-111.16
197.209	-110.34
197.59	-50.12
197.971	-51.42
198.352	-44.73
198.733	-37.73
199.114	-50.28
199.495	-72.36
199.876	-81.53
200.257	-95.13
200.638	-114.68
201.018	-171
201.399	-131.37
201.78	-141.36
202.16	-204.32
202.541	-231.17
202.922	-211.84
203.302	-233.06
203.683	-978.38
204.063	-531.34
204.444	-1308.4
204.824	-358.24
205.204	-258.17
205.585	-479.03
205.965	-2366.1
206.345	974.23
206.725	1297.25
207.106	904.64
207.486	1000
207.866	121.83
208.246	205.81
208.626	-3878.26
209.006	-211.32
209.386	-211.32
209.766	-220.87
210.145	-148.8
210.525	-161.29
210.905	-145.08
211.285	-117.67
211.664	-49.51
212.044	-55.4
212.424	-35.81
212.803	-44.01
213.183	-29.61
213.562	-17.66
213.942	-17.15
214.321	-11.58
214.701	-36.21
215.08	-30.78
215.459	-40.3
215.838	-47.37
216.218	-52.58
216.597	-43.02
216.976	-53.38
217.355	-52.42
217.734	-32.61
218.113	-14.64
218.492	-21.51
218.871	-26.42
219.25	-33.85
219.629	-43.22
220.008	-44.03
220.387	-49.11
220.766	-33.42
221.144	-42.83
221.523	-44.66
221.902	-41.44
222.28	-26.47
222.659	-15.46
223.037	-10.33
223.416	-6.97
223.794	-11.38
224.173	-15.31
224.551	-12.43
224.929	-11.56
225.308	-11.36
225.686	-18.19
226.064	-29.49
226.442	-19.15
226.821	-13.6
227.199	-9.64
227.577	-7.08
227.955	-1.75
228.333	-4.95
228.711	-9.29
229.089	-8.77
229.467	-11.57
229.845	-16.02
230.222	-17.12
230.6	-17.57
230.978	-17.83
231.356	-17.22
231.733	-11.51
232.111	-9.77
232.488	-8.47
232.866	-5.6
233.243	-5.98
233.621	-5.09
233.998	-2.46
234.376	-4.17
234.753	-4.52
235.13	-4.99
235.508	-3.68
235.885	-4.94
236.262	-4.95
236.639	-4.66
237.016	-4.48
237.393	-2.8
237.77	-0.75
238.147	-0.22
238.524	0.17
238.901	-0.33
239.278	-0.19
239.655	-1.44
240.032	-0.94
240.409	-0.59
240.785	-0.79
241.162	-0.02
241.539	0.99
241.915	1.54
242.292	1.65
242.668	1.58
243.045	1.87
243.421	1.75
243.798	2.1
244.174	2.52
244.551	2.7
244.927	2.8
245.303	2.58
245.679	2.52
246.056	2.54
246.432	2.77
246.808	3.07
247.184	3.35
247.56	3.5
247.936	3.6
248.312	3.69
248.688	3.64
249.064	3.53
249.44	3.29
249.815	3.34
250.191	3.32
250.567	3.31
250.943	3.16
251.318	3.07
251.694	2.94
252.069	2.96
252.445	2.88
252.82	2.98
253.196	2.86
253.571	2.95
253.947	2.8
254.322	2.41
254.697	2.3
255.073	2.04
255.448	1.76
255.823	1.76
256.198	1.46
256.573	1.5
256.948	1.8
257.323	1.84
257.698	1.81
258.073	1.95
258.448	2.13
258.823	1.91
259.198	2.05
259.573	1.93
259.948	2.01
260.322	2.03
260.697	2.1
261.072	2.4
261.446	2.56
261.821	2.6
262.195	2.59
262.57	2.64
262.944	2.55
263.319	2.56
263.693	2.35
264.067	2.48
264.442	2.53
264.816	2.34
265.19	2.21
265.564	2.16
265.938	2.11
266.313	1.97
266.687	2.18
267.061	2.16
267.435	2.53
267.809	2.36
268.183	2.26
268.556	2.17
268.93	2.17
269.304	2.21
269.678	2.25
270.051	2.3
270.425	2.4
270.799	2.4
271.172	2.46
271.546	2.67
271.919	2.56
272.293	2.36
272.666	2.45
273.04	2.64
273.413	2.58
273.787	2.42
274.16	2.47
274.533	2.63
274.906	2.56
275.279	2.27
275.653	2.39
276.026	2.62
276.399	2.46
276.772	2.4
277.145	2.13
277.518	2
277.891	1.91
278.263	1.84
278.636	2.26
279.009	2.47
279.382	2.3
279.755	2.53
280.127	2.54
280.5	2.61
280.872	2.55
281.245	2.66
281.617	2.81
281.99	2.64
282.362	2.55
282.735	2.64
283.107	2.77
283.479	2.72
283.852	2.65
284.224	2.65
284.596	2.53
284.968	2.57
285.34	2.67
285.713	2.92
286.085	2.77
286.457	2.65
286.829	2.45
287.201	2.55
287.572	2.43
287.944	2.51
288.316	2.45
288.688	2.51
289.06	2.45
289.431	2.5
289.803	2.51
290.175	2.52
290.546	2.5
290.918	2.51
291.289	2.49
291.661	2.45
292.032	2.54
292.403	2.75
292.775	2.75
293.146	2.71
293.517	2.69
293.889	2.86
294.26	2.79
294.631	2.94
295.002	3.12
295.373	3.14
295.744	3.29
296.115	3.26
296.486	3.16
296.857	3.2
297.228	3.15
297.599	3.25
297.97	3.42
298.34	3.52
298.711	3.57
299.082	3.55
299.452	3.7
299.823	3.8
300.194	3.83
300.564	3.88
300.935	3.98
301.305	3.92
301.676	3.83
302.046	3.81
302.416	3.81
302.787	3.69
303.157	3.83
303.527	3.86
303.897	4.02
304.267	3.99
304.637	4.01
305.008	4.18
305.378	4.31
305.748	4.21
306.117	4.24
306.487	4.14
306.857	4.34
307.227	4.32
307.597	4.24
307.967	4.16
308.336	4.21
308.706	4.15
309.076	4.26
309.445	4.46
309.815	4.61
310.184	4.59
310.554	4.52
310.923	4.42
311.293	4.26
311.662	4.22
312.031	4.39
312.401	4.39
312.77	4.38
313.139	4.24
313.508	4.21
313.877	4.14
314.246	4.17
314.616	4.16
314.985	4.1
315.353	4.12
315.722	4.25
316.091	4.32
316.46	4.5
316.829	4.43
317.198	4.31
317.567	4.3
317.935	4.21
318.304	4.39
318.672	4.57
319.041	4.85
319.41	5.04
319.778	5.15
320.147	5.31
320.515	5.36
320.883	5.43
321.252	5.41
321.62	5.53
321.988	5.72
322.357	5.59
322.725	5.64
323.093	5.67
323.461	5.6
323.829	5.61
324.197	5.63
324.565	5.71
324.933	5.72
325.301	5.78
325.669	5.85
326.037	5.85
326.405	5.81
326.772	5.84
327.14	5.65
327.508	5.57
327.875	5.5
328.243	5.31
328.61	5.41
328.978	5.57
329.346	5.46
329.713	5.45
330.08	5.63
330.448	5.67
330.815	5.8
331.182	5.67
331.55	5.62
331.917	5.51
332.284	5.48
332.651	5.58
333.018	5.5
333.385	5.52
333.752	5.58
334.119	5.6
334.486	5.59
334.853	5.79
335.22	5.7
335.587	5.64
335.954	5.87
336.32	5.89
336.687	5.93
337.054	6.06
337.42	6.16
337.787	6.1
338.153	6.09
338.52	6.13
338.886	6.38
339.253	6.32
339.619	6.43
339.986	6.38
340.352	6.29
340.718	6.37
341.084	6.46
341.451	6.49
341.817	6.47
342.183	6.37
342.549	6.4
342.915	6.53
343.281	6.66
343.647	6.6
344.013	6.67
344.379	6.57
344.745	6.56
345.11	6.51
345.476	6.68
345.842	6.75
346.208	6.9
346.573	6.88
346.939	7.01
347.304	6.98
347.67	7.04
348.035	7.15
348.401	7.12
348.766	7.04
349.132	6.97
349.497	7.07
349.862	7.01
350.228	6.99
350.593	6.99
350.958	7.05
351.323	7.07
351.688	7.03
352.053	7.08
352.418	7.15
352.783	7.1
353.148	7.02
353.513	6.99
353.878	6.81
354.243	6.79
354.608	6.83
354.972	6.75
355.337	6.8
355.702	6.82
356.066	6.92
356.431	7.05
356.795	7.13
357.16	7.04
357.524	7.1
357.889	7.02
358.253	6.99
358.618	6.95
358.982	6.91
359.346	6.79
359.71	6.74
360.075	6.71
360.439	6.72
360.803	6.72
361.167	6.74
361.531	6.79
361.895	6.76
362.259	6.74
362.623	6.76
362.987	6.71
363.351	6.66
363.714	6.67
364.078	6.57
364.442	6.54
364.806	6.57
365.169	6.56
365.533	6.59
365.896	6.56
366.26	6.52
366.623	6.48
366.987	6.58
367.35	6.59
367.714	6.52
368.077	6.54
368.44	6.57
368.803	6.49
369.167	6.42
369.53	6.41
369.893	6.33
370.256	6.38
370.619	6.35
370.982	6.28
371.345	6.33
371.708	6.3
372.071	6.23
372.434	6.21
372.797	6.21
373.159	6.17
373.522	6.12
373.885	6.08
374.247	6.08
374.61	6.09
374.973	6.1
375.335	6.12
375.698	6.03
376.06	5.92
376.423	5.94
376.785	5.86
377.147	5.78
377.51	5.77
377.872	5.67
378.234	5.63
378.596	5.7
378.958	5.62
379.321	5.6
379.683	5.59
380.045	5.53
380.407	5.54
380.769	5.46
381.13	5.45
381.492	5.47
381.854	5.52
382.216	5.52
382.578	5.5
382.939	5.42
383.301	5.4
383.663	5.38
384.024	5.31
384.386	5.33
384.747	5.32
385.109	5.32
385.47	5.37
385.832	5.36
386.193	5.25
386.554	5.13
386.916	5.15
387.277	5.13
387.638	5.12
387.999	5.1
388.36	5.12
388.721	5.13
389.082	5.11
389.443	4.99
389.804	4.91
390.165	4.88
390.526	4.89
390.887	4.86
391.248	4.88
391.609	4.87
391.969	4.84
392.33	4.85
392.691	4.87
393.051	4.86
393.412	4.89
393.772	4.91
394.133	4.95
394.493	4.9
394.854	4.88
395.214	4.84
395.574	4.76
395.935	4.76
396.295	4.75
396.655	4.69
397.015	4.7
397.376	4.68
397.736	4.66
398.096	4.66
398.456	4.65
398.816	4.59
399.176	4.56
399.535	4.57
399.895	4.52
400.255	4.44
400.615	4.38
400.975	4.34
401.334	4.31
401.694	4.29
402.054	4.28
402.413	4.27
402.773	4.28
403.132	4.3
403.492	4.28
403.851	4.26
404.211	4.29
404.57	4.29
404.929	4.26
405.288	4.28
405.648	4.24
406.007	4.22
406.366	4.22
406.725	4.21
407.084	4.22
407.443	4.21
407.802	4.2
408.161	4.18
408.52	4.15
408.879	4.14
409.238	4.14
409.596	4.12
409.955	4.1
410.314	4.07
410.673	4.07
411.031	4.03
411.39	4.02
411.748	3.98
412.107	3.95
412.465	3.97
412.824	3.96
413.182	3.95
413.54	3.94
413.899	3.96
414.257	3.96
414.615	3.93
414.974	3.94
415.332	3.95
415.69	3.95
416.048	3.94
416.406	3.95
416.764	3.94
417.122	3.93
417.48	3.94
417.838	3.95
418.195	3.94
418.553	3.94
418.911	3.91
419.269	3.9
419.626	3.88
419.984	3.88
420.342	3.84
420.699	3.82
421.057	3.84
421.414	3.84
421.772	3.83
422.129	3.83
422.486	3.83
422.844	3.82
423.201	3.81
423.558	3.81
423.915	3.81
424.273	3.78
424.63	3.82
424.987	3.81
425.344	3.79
425.701	3.77
426.058	3.75
426.415	3.74
426.772	3.73
427.128	3.74
427.485	3.72
427.842	3.75
428.199	3.76
428.555	3.71
428.912	3.69
429.269	3.67
429.625	3.67
429.982	3.67
430.338	3.69
430.695	3.65
431.051	3.66
431.407	3.65
431.764	3.66
432.12	3.65
432.476	3.63
432.832	3.62
433.189	3.64
433.545	3.64
433.901	3.67
434.257	3.66
434.613	3.66
434.969	3.67
435.325	3.67
435.681	3.66
436.036	3.67
436.392	3.68
436.748	3.69
437.104	3.67
437.459	3.65
437.815	3.64
438.171	3.65
438.526	3.65
438.882	3.65
439.237	3.63
439.593	3.62
439.948	3.63
440.304	3.63
440.659	3.63
441.014	3.62
441.369	3.62
441.725	3.63
442.08	3.62
442.435	3.63
442.79	3.62
443.145	3.64
443.5	3.64
443.855	3.64
444.21	3.62
444.565	3.62
444.92	3.61
445.275	3.62
445.629	3.6
445.984	3.6
446.339	3.59
446.693	3.59
447.048	3.59
447.403	3.58
447.757	3.58
448.112	3.59
448.466	3.6
448.82	3.59
449.175	3.57
449.529	3.56
449.883	3.55
450.238	3.55
450.592	3.53
450.946	3.51
451.3	3.52
451.654	3.52
452.008	3.54
452.362	3.56
452.716	3.55
453.07	3.57
453.424	3.56
453.778	3.55
454.132	3.57
454.486	3.56
454.839	3.55
455.193	3.56
455.547	3.55
455.9	3.57
456.254	3.55
456.607	3.57
456.961	3.59
457.314	3.58
457.668	3.58
458.021	3.6
458.375	3.6
458.728	3.6
459.081	3.6
459.434	3.58
459.787	3.59
460.141	3.6
460.494	3.61
460.847	3.62
461.2	3.62
461.553	3.64
461.906	3.64
462.259	3.65
462.611	3.65
462.964	3.66
463.317	3.64
463.67	3.66
464.022	3.66
464.375	3.69
464.728	3.7
465.08	3.7
465.433	3.71
465.785	3.72
466.138	3.74
466.49	3.76
466.843	3.77
467.195	3.78
467.547	3.77
467.899	3.79
468.252	3.79
468.604	3.81
468.956	3.8
469.308	3.79
469.66	3.82
470.012	3.85
470.364	3.83
470.716	3.85
471.068	3.86
471.42	3.91
471.772	3.9
472.123	3.93
472.475	3.94
472.827	3.96
473.178	3.99
473.53	3.99
473.882	3.98
474.233	4.01
474.585	4.01
474.936	4.03
475.288	4.02
475.639	4.03
475.99	4.01
476.342	4.01
476.693	4
477.044	3.99
477.395	3.95
477.746	3.96
478.097	3.94
478.448	3.95
478.8	3.91
479.15	3.88
479.501	3.85
479.852	3.83
480.203	3.82
480.554	3.8
480.905	3.82
481.255	3.82
481.606	3.81
481.957	3.82
482.307	3.82
482.658	3.84
483.009	3.84
483.359	3.84
483.709	3.86
484.06	3.87
484.41	3.87
484.761	3.89
485.111	3.91
485.461	3.92
485.811	3.91
486.162	3.91
486.512	3.93
486.862	3.93
487.212	3.95
487.562	3.95
487.912	3.96
488.262	3.95
488.612	3.96
488.961	3.97
489.311	3.97
489.661	3.98
490.011	3.98
490.36	3.97
490.71	3.98
491.06	3.98
491.409	3.97
491.759	3.98
492.108	3.99
492.458	3.99
492.807	4
493.157	4.02
493.506	4.04
493.855	4.04
494.204	4.05
494.554	4.07
494.903	4.09
495.252	4.12
495.601	4.14
495.95	4.17
496.299	4.18
496.648	4.2
496.997	4.2
497.346	4.23
497.695	4.27
498.043	4.31
498.392	4.36
498.741	4.39
499.09	4.4
499.438	4.43
499.787	4.44
500.135	4.48
500.484	4.51
500.832	4.56
501.181	4.62
501.529	4.73
501.878	4.77
502.226	4.83
502.574	4.88
502.923	4.92
503.271	4.95
503.619	5
503.967	5.07
504.315	5.17
504.663	5.22
505.011	5.28
505.359	5.35
505.707	5.41
506.055	5.5
506.403	5.59
506.751	5.67
507.098	5.76
507.446	5.86
507.794	5.92
508.141	6
508.489	6.09
508.837	6.12
509.184	6.21
509.531	6.3
509.879	6.38
510.226	6.46
510.574	6.56
510.921	6.64
511.268	6.73
511.616	6.82
511.963	6.92
512.31	7.03
512.657	7.13
513.004	7.22
513.351	7.33
513.698	7.43
514.045	7.54
514.392	7.67
514.739	7.76
515.086	7.89
515.432	8.01
515.779	8.08
516.126	8.21
516.473	8.31
516.819	8.38
517.166	8.49
517.512	8.58
517.859	8.69
518.205	8.82
518.552	8.9
518.898	8.97
519.245	9.07
519.591	9.16
519.937	9.25
520.283	9.34
520.629	9.43
520.976	9.51
521.322	9.61
521.668	9.69
522.014	9.79
522.36	9.9
522.706	9.99
523.052	10.17
523.398	10.28
523.743	10.38
524.089	10.56
524.435	10.69
524.781	10.81
525.126	10.91
525.472	11.02
525.817	11.12
526.163	11.21
526.509	11.28
526.854	11.34
527.199	11.42
527.545	11.52
527.89	11.62
528.235	11.72
528.581	11.79
528.926	11.91
529.271	12.01
529.616	12.12
529.961	12.22
530.306	12.29
530.651	12.4
530.996	12.53
531.341	12.63
531.686	12.73
532.031	12.87
532.376	12.98
532.721	13.11
533.065	13.26
533.41	13.41
533.755	13.57
534.099	13.76
534.444	13.93
534.788	14.06
535.133	14.17
535.477	14.32
535.822	14.52
536.166	14.69
536.51	14.9
536.855	15.08
537.199	15.3
537.543	15.55
537.887	15.78
538.231	15.99
538.576	16.2
538.92	16.44
539.264	16.67
539.608	16.89
539.951	17.07
540.295	17.28
540.639	17.46
540.983	17.64
541.327	17.83
541.671	18
542.014	18.19
542.358	18.41
542.701	18.62
543.045	18.77
543.389	18.96
543.732	19.15
544.075	19.35
544.419	19.56
544.762	19.75
545.105	19.97
545.449	20.21
545.792	20.43
546.135	20.7
546.478	20.98
546.821	21.28
547.165	21.55
547.508	21.8
547.851	22.08
548.194	22.4
548.536	22.64
548.879	22.93
549.222	23.22
549.565	23.47
549.908	23.72
550.25	24.02
550.593	24.26
550.936	24.51
551.278	24.8
551.621	25.09
551.963	25.42
552.306	25.7
552.648	26.01
552.991	26.32
553.333	26.57
553.675	26.84
554.017	27.05
554.36	27.32
554.702	27.6
555.044	27.85
555.386	28.04
555.728	28.26
556.07	28.54
556.412	28.79
556.754	29.06
557.096	29.36
557.438	29.65
557.78	29.95
558.121	30.23
558.463	30.47
558.805	30.73
559.147	30.93
559.488	31.19
559.83	31.41
560.171	31.63
560.513	31.92
560.854	32.15
561.196	32.39
561.537	32.62
561.878	32.85
562.22	33.07
562.561	33.29
562.902	33.57
563.243	33.79
563.584	34.07
563.925	34.29
564.266	34.48
564.607	34.66
564.948	34.88
565.289	35.1
565.63	35.3
565.971	35.47
566.312	35.67
566.653	35.84
566.993	36.01
567.334	36.22
567.675	36.37
568.015	36.49
568.356	36.64
568.696	36.79
569.037	36.99
569.377	37.21
569.718	37.43
570.058	37.58
570.398	37.75
570.739	37.95
571.079	38.12
571.419	38.26
571.759	38.45
572.099	38.57
572.439	38.73
572.779	38.83
573.119	39.01
573.459	39.11
573.799	39.2
574.139	39.35
574.479	39.47
574.819	39.55
575.158	39.75
575.498	39.9
575.838	40.03
576.177	40.1
576.517	40.2
576.856	40.31
577.196	40.46
577.535	40.56
577.875	40.58
578.214	40.72
578.553	40.83
578.893	40.93
579.232	41.09
579.571	41.19
579.91	41.4
580.25	41.51
580.589	41.58
580.928	41.75
581.267	41.85
581.606	41.92
581.945	42.05
582.283	42.08
582.622	42.13
582.961	42.25
583.3	42.42
583.639	42.52
583.977	42.61
584.316	42.63
584.654	42.7
584.993	42.95
585.332	42.97
585.67	43.04
586.008	43.1
586.347	43.16
586.685	43.23
587.024	43.28
587.362	43.35
587.7	43.57
588.038	43.61
588.376	43.68
588.715	43.75
589.053	43.86
589.391	43.97
589.729	44.15
590.067	44.22
590.404	44.37
590.742	44.51
591.08	44.6
591.418	44.71
591.756	44.83
592.093	44.81
592.431	44.94
592.769	45.15
593.106	45.18
593.444	45.34
593.781	45.39
594.119	45.42
594.456	45.51
594.793	45.54
595.131	45.66
595.468	45.75
595.805	45.86
596.143	45.89
596.48	45.95
596.817	46.03
597.154	46.15
597.491	46.09
597.828	46.12
598.165	46.22
598.502	46.33
598.839	46.42
599.176	46.47
599.512	46.51
599.849	46.52
600.186	46.62
600.523	46.66
600.859	46.76
601.196	46.88
601.532	46.92
601.869	47
602.205	47
602.542	46.99
602.878	47.04
603.215	47.11
603.551	47.19
603.887	47.17
604.223	47.17
604.56	47.24
604.896	47.29
605.232	47.26
605.568	47.29
605.904	47.31
606.24	47.35
606.576	47.52
606.912	47.59
607.248	47.65
607.583	47.67
607.919	47.69
608.255	47.71
608.591	47.77
608.926	47.78
609.262	47.84
609.597	47.92
609.933	47.9
610.268	47.99
610.604	47.92
610.939	48.03
611.275	48.09
611.61	48.06
611.945	48.01
612.281	48.05
612.616	48.01
612.951	48.07
613.286	48.12
613.621	48.02
613.956	48.04
614.291	48.18
614.626	48.21
614.961	48.27
615.296	48.23
615.631	48.2
615.966	48.22
616.3	48.32
616.635	48.37
616.97	48.49
617.304	48.49
617.639	48.62
617.973	48.62
618.308	48.66
618.642	48.76
618.977	48.9
619.311	49.05
619.646	49.16
619.98	49.17
620.314	49.19
620.648	49.3
620.983	49.26
621.317	49.17
621.651	49.21
621.985	49.25
622.319	49.38
622.653	49.5
622.987	49.53
623.321	49.41
623.655	49.4
623.988	49.46
624.322	49.49
624.656	49.53
624.99	49.49
625.323	49.58
625.657	49.63
625.99	49.58
626.324	49.54
626.657	49.58
626.991	49.6
627.324	49.64
627.658	49.58
627.991	49.6
628.324	49.73
628.657	49.72
628.991	49.76
629.324	49.74
629.657	49.75
629.99	49.75
630.323	49.91
630.656	49.95
630.989	49.91
631.322	49.9
631.655	49.81
631.987	49.88
632.32	49.84
632.653	49.92
632.986	49.94
633.318	49.94
633.651	49.93
633.984	49.98
634.316	50
634.649	49.99
634.981	49.96
635.313	49.91
635.646	50.02
635.978	50.05
636.31	50.15
636.643	50.07
636.975	50.19
637.307	50.15
637.639	50.11
637.971	50.15
638.303	50.15
638.635	50.24
638.967	50.38
639.299	50.36
639.631	50.27
639.963	50.32
640.295	50.32
640.626	50.39
640.958	50.29
641.29	50.32
641.621	50.28
641.953	50.31
642.285	50.38
642.616	50.39
642.948	50.35
643.279	50.33
643.61	50.38
643.942	50.3
644.273	50.27
644.604	50.5
644.936	50.55
645.267	50.5
645.598	50.58
645.929	50.49
646.26	50.51
646.591	50.49
646.922	50.55
647.253	50.57
647.584	50.52
647.915	50.61
648.245	50.64
648.576	50.69
648.907	50.82
649.238	50.73
649.568	50.62
649.899	50.75
650.229	50.79
650.56	50.95
650.89	51.04
651.221	51.06
651.551	50.87
651.882	50.7
652.212	50.84
652.542	50.91
652.872	51.04
653.203	51.15
653.533	51.28
653.863	51.31
654.193	51.42
654.523	51.56
654.853	51.48
655.183	51.45
655.513	51.64
655.843	51.64
656.172	51.72
656.502	51.75
656.832	51.67
657.162	51.61
657.491	51.71
657.821	51.68
658.15	51.77
658.48	51.81
658.809	51.96
659.139	51.94
659.468	51.97
659.798	51.86
660.127	51.81
660.456	51.76
660.785	51.84
661.115	51.86
661.444	51.87
661.773	51.98
662.102	52.05
662.431	51.98
662.76	51.93
663.089	51.82
663.418	51.84
663.747	51.94
664.076	51.95
664.404	51.8
664.733	51.75
665.062	51.71
665.39	51.72
665.719	51.65
