Data from MVZ_BU8942_Reflection_00003.txt Node
Date: Tue Nov 19 12:03:53 EST 2019
User: vgr7
Spectrometer: USB2G7710
Scans to average: 3
Trigger mode: 4
Integration Time (sec): 2.000000E-2
Electric dark correction enabled: true
Boxcar width: 10
XAxis mode: Wavelengths
Number of Pixels in Spectrum: 2048
>>>>>Begin Spectral Data<<<<<
177.721	-15.25
178.105	-55.84
178.488	-245.51
178.871	185.71
179.254	-290
179.636	-25.91
180.019	62.87
180.402	95.45
180.785	7
181.168	-22.09
181.55	-1025
181.933	106.36
182.316	87.57
182.698	63.03
183.081	126.98
183.463	279.75
183.846	61.47
184.228	22.65
184.611	22.2
184.993	72.37
185.376	66.26
185.758	97.38
186.14	84.04
186.522	182.63
186.904	235.94
187.287	131.11
187.669	222.37
188.051	169.84
188.433	124.37
188.815	102.8
189.197	35.82
189.579	-39.74
189.961	-47.68
190.342	-20.57
190.724	-3.94
191.106	-9.45
191.488	-23.48
191.869	-26.78
192.251	-0.92
192.633	12.61
193.014	9.73
193.396	4.67
193.777	12.3
194.159	21.81
194.54	11.65
194.922	7.25
195.303	18.81
195.684	27.53
196.065	18.52
196.447	23.38
196.828	26.62
197.209	45.82
197.59	59.77
197.971	42.51
198.352	51.21
198.733	67.94
199.114	98.22
199.495	189.77
199.876	213.47
200.257	176.48
200.638	154.59
201.018	177.29
201.399	120.94
201.78	112.3
202.16	89.29
202.541	115.81
202.922	162.27
203.302	87.07
203.683	30.62
204.063	35.71
204.444	57.2
204.824	89.86
205.204	108.31
205.585	101.49
205.965	123.12
206.345	64.68
206.725	52.18
207.106	37.13
207.486	27.25
207.866	12.84
208.246	16.41
208.626	9.45
209.006	6.79
209.386	42.84
209.766	8.54
210.145	18.87
210.525	-15.54
210.905	-3.82
211.285	2.38
211.664	23.71
212.044	14.51
212.424	12.31
212.803	-4.96
213.183	-18.67
213.562	-15.16
213.942	-4.77
214.321	-6.56
214.701	-51.25
215.08	-65.53
215.459	-14.54
215.838	14.95
216.218	12.74
216.597	29.16
216.976	8.9
217.355	-2.55
217.734	-20.78
218.113	-20.71
218.492	-6.44
218.871	-6.64
219.25	-28.15
219.629	-17.82
220.008	18.76
220.387	23.24
220.766	47.64
221.144	44.77
221.523	43.69
221.902	43.53
222.28	54.52
222.659	59.56
223.037	46.75
223.416	39.72
223.794	31.49
224.173	18.82
224.551	10.39
224.929	13.26
225.308	9.53
225.686	12.74
226.064	13.93
226.442	18.93
226.821	17.39
227.199	17.28
227.577	16.55
227.955	11.23
228.333	9.1
228.711	6.87
229.089	6.46
229.467	7.64
229.845	6.29
230.222	7.48
230.6	6.34
230.978	7.88
231.356	6.6
231.733	9.02
232.111	10.88
232.488	11.83
232.866	13.4
233.243	14.39
233.621	14.84
233.998	12.57
234.376	10.56
234.753	9.86
235.13	10.4
235.508	9.9
235.885	9.09
236.262	9.46
236.639	8.63
237.016	8.69
237.393	7.74
237.77	8.14
238.147	6.65
238.524	5.93
238.901	4.62
239.278	4.5
239.655	4.88
240.032	4.91
240.409	4.09
240.785	3.43
241.162	3.55
241.539	3.59
241.915	3.46
242.292	3.67
242.668	3.93
243.045	4.15
243.421	4.31
243.798	4.52
244.174	4.5
244.551	4.17
244.927	3.97
245.303	3.8
245.679	3.89
246.056	4.23
246.432	4.4
246.808	4.76
247.184	4.68
247.56	4.2
247.936	4.32
248.312	4.77
248.688	4.85
249.064	4.77
249.44	4.51
249.815	4.59
250.191	4.72
250.567	4.59
250.943	4.46
251.318	4.4
251.694	4.34
252.069	4.32
252.445	4.51
252.82	4.78
253.196	4.97
253.571	5.04
253.947	4.74
254.322	4.51
254.697	4.34
255.073	4.62
255.448	4.82
255.823	4.75
256.198	4.23
256.573	4.22
256.948	4.28
257.323	4.19
257.698	4.27
258.073	3.93
258.448	3.9
258.823	3.79
259.198	3.78
259.573	3.77
259.948	3.72
260.322	3.66
260.697	3.53
261.072	3.68
261.446	3.56
261.821	3.51
262.195	3.48
262.57	3.39
262.944	3.31
263.319	3.11
263.693	3.09
264.067	3.32
264.442	3.26
264.816	3.06
265.19	3.41
265.564	3.28
265.938	3.36
266.313	3.29
266.687	3.12
267.061	3.06
267.435	3.19
267.809	3.08
268.183	3.04
268.556	3.11
268.93	2.92
269.304	2.89
269.678	3
270.051	2.98
270.425	3.12
270.799	2.85
271.172	3.02
271.546	2.96
271.919	2.81
272.293	2.97
272.666	3.01
273.04	2.73
273.413	2.76
273.787	2.84
274.16	2.84
274.533	3.27
274.906	3.29
275.279	3.19
275.653	3.26
276.026	3.32
276.399	3.2
276.772	3.36
277.145	3.37
277.518	3.1
277.891	3.24
278.263	3.44
278.636	3.77
279.009	3.75
279.382	3.73
279.755	3.82
280.127	3.73
280.5	3.77
280.872	3.92
281.245	3.79
281.617	3.78
281.99	3.87
282.362	3.71
282.735	3.57
283.107	3.65
283.479	3.74
283.852	3.77
284.224	3.88
284.596	3.74
284.968	3.74
285.34	3.77
285.713	3.72
286.085	3.42
286.457	3.29
286.829	3.3
287.201	3.21
287.572	3.14
287.944	3.13
288.316	3.18
288.688	3.15
289.06	3.24
289.431	3.13
289.803	3.13
290.175	3.02
290.546	3.11
290.918	3.02
291.289	2.79
291.661	2.87
292.032	2.8
292.403	2.76
292.775	2.79
293.146	2.81
293.517	2.65
293.889	2.69
294.26	2.77
294.631	2.82
295.002	2.84
295.373	2.85
295.744	2.82
296.115	2.74
296.486	2.77
296.857	2.82
297.228	2.88
297.599	2.75
297.97	2.83
298.34	2.76
298.711	2.87
299.082	3.1
299.452	2.94
299.823	3.03
300.194	3.27
300.564	3.29
300.935	3.48
301.305	3.6
301.676	3.53
302.046	3.44
302.416	3.39
302.787	3.58
303.157	3.48
303.527	3.49
303.897	3.5
304.267	3.35
304.637	3.21
305.008	3.21
305.378	3.32
305.748	3.29
306.117	3.27
306.487	3.24
306.857	3.17
307.227	3.26
307.597	3.14
307.967	3.05
308.336	2.97
308.706	2.8
309.076	2.93
309.445	3.08
309.815	3
310.184	2.94
310.554	2.82
310.923	2.79
311.293	2.8
311.662	2.81
312.031	2.93
312.401	2.94
312.77	2.93
313.139	2.87
313.508	2.87
313.877	2.97
314.246	2.93
314.616	2.8
314.985	2.79
315.353	2.78
315.722	2.68
316.091	2.79
316.46	2.93
316.829	2.9
317.198	2.8
317.567	3.05
317.935	3.25
318.304	3.41
318.672	3.46
319.041	3.5
319.41	3.4
319.778	3.23
320.147	3.32
320.515	3.38
320.883	3.44
321.252	3.44
321.62	3.52
321.988	3.36
322.357	3.55
322.725	3.57
323.093	3.58
323.461	3.7
323.829	3.68
324.197	3.59
324.565	3.49
324.933	3.56
325.301	3.39
325.669	3.26
326.037	3.28
326.405	3.36
326.772	3.38
327.14	3.41
327.508	3.34
327.875	3.22
328.243	3.15
328.61	3.13
328.978	2.96
329.346	2.93
329.713	3.06
330.08	3.03
330.448	3
330.815	3.01
331.182	2.8
331.55	2.81
331.917	2.64
332.284	2.76
332.651	2.66
333.018	2.79
333.385	2.76
333.752	2.73
334.119	2.78
334.486	2.74
334.853	2.8
335.22	3.05
335.587	3.17
335.954	3.29
336.32	3.36
336.687	3.57
337.054	3.51
337.42	3.44
337.787	3.48
338.153	3.52
338.52	3.75
338.886	3.77
339.253	3.63
339.619	3.79
339.986	3.76
340.352	3.91
340.718	3.9
341.084	3.92
341.451	3.85
341.817	3.83
342.183	3.87
342.549	3.94
342.915	3.8
343.281	3.74
343.647	3.68
344.013	3.64
344.379	3.63
344.745	3.62
345.11	3.49
345.476	3.4
345.842	3.42
346.208	3.38
346.573	3.4
346.939	3.43
347.304	3.42
347.67	3.24
348.035	3.24
348.401	3.26
348.766	3.18
349.132	3.17
349.497	3.19
349.862	3.12
350.228	3.03
350.593	3.09
350.958	3.22
351.323	3.09
351.688	3.06
352.053	3.08
352.418	3.14
352.783	3.21
353.148	3.14
353.513	3.07
353.878	2.88
354.243	2.82
354.608	2.92
354.972	2.96
355.337	3.06
355.702	3
356.066	2.88
356.431	2.96
356.795	2.99
357.16	2.96
357.524	2.93
357.889	2.95
358.253	2.94
358.618	2.87
358.982	2.92
359.346	2.94
359.71	2.91
360.075	2.92
360.439	2.96
360.803	3.05
361.167	3.04
361.531	3.13
361.895	3.22
362.259	3.2
362.623	3.2
362.987	3.25
363.351	3.3
363.714	3.32
364.078	3.34
364.442	3.34
364.806	3.32
365.169	3.36
365.533	3.35
365.896	3.36
366.26	3.4
366.623	3.39
366.987	3.41
367.35	3.46
367.714	3.38
368.077	3.39
368.44	3.4
368.803	3.38
369.167	3.25
369.53	3.23
369.893	3.28
370.256	3.31
370.619	3.22
370.982	3.11
371.345	3.22
371.708	3.21
372.071	3.25
372.434	3.29
372.797	3.28
373.159	3.32
373.522	3.31
373.885	3.25
374.247	3.26
374.61	3.2
374.973	3.15
375.335	3.17
375.698	3.13
376.06	3.11
376.423	3.18
376.785	3.26
377.147	3.25
377.51	3.22
377.872	3.21
378.234	3.24
378.596	3.26
378.958	3.18
379.321	3.2
379.683	3.13
380.045	3.09
380.407	3.05
380.769	3.06
381.13	3.04
381.492	3.03
381.854	3.1
382.216	3.16
382.578	3.25
382.939	3.31
383.301	3.33
383.663	3.33
384.024	3.31
384.386	3.3
384.747	3.26
385.109	3.21
385.47	3.21
385.832	3.2
386.193	3.21
386.554	3.16
386.916	3.1
387.277	3.1
387.638	3.13
387.999	3.15
388.36	3.06
388.721	3.13
389.082	3.1
389.443	3.06
389.804	3.08
390.165	3.02
390.526	2.99
390.887	2.96
391.248	2.99
391.609	2.96
391.969	2.96
392.33	2.99
392.691	3.03
393.051	3.06
393.412	3.06
393.772	3.1
394.133	3.14
394.493	3.21
394.854	3.21
395.214	3.19
395.574	3.2
395.935	3.25
396.295	3.2
396.655	3.23
397.015	3.26
397.376	3.26
397.736	3.23
398.096	3.23
398.456	3.27
398.816	3.27
399.176	3.28
399.535	3.31
399.895	3.3
400.255	3.28
400.615	3.26
400.975	3.24
401.334	3.21
401.694	3.21
402.054	3.16
402.413	3.21
402.773	3.22
403.132	3.25
403.492	3.26
403.851	3.28
404.211	3.3
404.57	3.29
404.929	3.29
405.288	3.36
405.648	3.39
406.007	3.39
406.366	3.37
406.725	3.38
407.084	3.36
407.443	3.34
407.802	3.36
408.161	3.35
408.52	3.35
408.879	3.36
409.238	3.36
409.596	3.36
409.955	3.33
410.314	3.36
410.673	3.35
411.031	3.36
411.39	3.37
411.748	3.38
412.107	3.36
412.465	3.32
412.824	3.26
413.182	3.26
413.54	3.29
413.899	3.31
414.257	3.32
414.615	3.32
414.974	3.34
415.332	3.34
415.69	3.32
416.048	3.35
416.406	3.32
416.764	3.31
417.122	3.33
417.48	3.34
417.838	3.33
418.195	3.3
418.553	3.3
418.911	3.3
419.269	3.27
419.626	3.28
419.984	3.3
420.342	3.31
420.699	3.28
421.057	3.27
421.414	3.26
421.772	3.25
422.129	3.24
422.486	3.26
422.844	3.26
423.201	3.25
423.558	3.24
423.915	3.27
424.273	3.28
424.63	3.28
424.987	3.29
425.344	3.28
425.701	3.3
426.058	3.3
426.415	3.3
426.772	3.3
427.128	3.29
427.485	3.29
427.842	3.28
428.199	3.3
428.555	3.3
428.912	3.3
429.269	3.29
429.625	3.29
429.982	3.27
430.338	3.27
430.695	3.25
431.051	3.27
431.407	3.28
431.764	3.27
432.12	3.28
432.476	3.29
432.832	3.32
433.189	3.32
433.545	3.32
433.901	3.33
434.257	3.35
434.613	3.38
434.969	3.38
435.325	3.4
435.681	3.38
436.036	3.37
436.392	3.37
436.748	3.37
437.104	3.38
437.459	3.37
437.815	3.37
438.171	3.41
438.526	3.42
438.882	3.4
439.237	3.39
439.593	3.38
439.948	3.35
440.304	3.31
440.659	3.31
441.014	3.31
441.369	3.31
441.725	3.3
442.08	3.29
442.435	3.29
442.79	3.29
443.145	3.3
443.5	3.29
443.855	3.3
444.21	3.32
444.565	3.32
444.92	3.34
445.275	3.35
445.629	3.35
445.984	3.35
446.339	3.35
446.693	3.37
447.048	3.37
447.403	3.38
447.757	3.39
448.112	3.38
448.466	3.38
448.82	3.36
449.175	3.37
449.529	3.37
449.883	3.35
450.238	3.36
450.592	3.37
450.946	3.38
451.3	3.38
451.654	3.38
452.008	3.39
452.362	3.38
452.716	3.37
453.07	3.37
453.424	3.36
453.778	3.36
454.132	3.37
454.486	3.38
454.839	3.37
455.193	3.39
455.547	3.4
455.9	3.39
456.254	3.41
456.607	3.42
456.961	3.42
457.314	3.44
457.668	3.45
458.021	3.45
458.375	3.45
458.728	3.43
459.081	3.44
459.434	3.44
459.787	3.45
460.141	3.46
460.494	3.46
460.847	3.47
461.2	3.47
461.553	3.47
461.906	3.47
462.259	3.46
462.611	3.47
462.964	3.47
463.317	3.49
463.67	3.5
464.022	3.51
464.375	3.51
464.728	3.51
465.08	3.49
465.433	3.52
465.785	3.55
466.138	3.55
466.49	3.55
466.843	3.54
467.195	3.56
467.547	3.55
467.899	3.53
468.252	3.51
468.604	3.5
468.956	3.49
469.308	3.49
469.66	3.51
470.012	3.5
470.364	3.5
470.716	3.51
471.068	3.5
471.42	3.47
471.772	3.45
472.123	3.46
472.475	3.45
472.827	3.42
473.178	3.4
473.53	3.41
473.882	3.4
474.233	3.4
474.585	3.39
474.936	3.41
475.288	3.41
475.639	3.43
475.99	3.46
476.342	3.47
476.693	3.48
477.044	3.46
477.395	3.45
477.746	3.47
478.097	3.45
478.448	3.47
478.8	3.49
479.15	3.49
479.501	3.48
479.852	3.48
480.203	3.51
480.554	3.53
480.905	3.52
481.255	3.53
481.606	3.54
481.957	3.54
482.307	3.53
482.658	3.54
483.009	3.54
483.359	3.54
483.709	3.56
484.06	3.56
484.41	3.57
484.761	3.58
485.111	3.59
485.461	3.6
485.811	3.59
486.162	3.6
486.512	3.61
486.862	3.62
487.212	3.63
487.562	3.62
487.912	3.61
488.262	3.62
488.612	3.62
488.961	3.62
489.311	3.63
489.661	3.64
490.011	3.62
490.36	3.62
490.71	3.62
491.06	3.62
491.409	3.61
491.759	3.62
492.108	3.62
492.458	3.62
492.807	3.62
493.157	3.62
493.506	3.61
493.855	3.62
494.204	3.6
494.554	3.61
494.903	3.6
495.252	3.61
495.601	3.64
495.95	3.63
496.299	3.63
496.648	3.63
496.997	3.64
497.346	3.69
497.695	3.7
498.043	3.69
498.392	3.68
498.741	3.69
499.09	3.69
499.438	3.67
499.787	3.67
500.135	3.65
500.484	3.67
500.832	3.67
501.181	3.69
501.529	3.73
501.878	3.75
502.226	3.76
502.574	3.77
502.923	3.74
503.271	3.78
503.619	3.78
503.967	3.76
504.315	3.74
504.663	3.72
505.011	3.71
505.359	3.73
505.707	3.7
506.055	3.69
506.403	3.7
506.751	3.71
507.098	3.72
507.446	3.74
507.794	3.74
508.141	3.74
508.489	3.73
508.837	3.7
509.184	3.69
509.531	3.69
509.879	3.68
510.226	3.69
510.574	3.68
510.921	3.66
511.268	3.7
511.616	3.71
511.963	3.74
512.31	3.76
512.657	3.79
513.004	3.78
513.351	3.81
513.698	3.8
514.045	3.8
514.392	3.82
514.739	3.82
515.086	3.82
515.432	3.81
515.779	3.79
516.126	3.82
516.473	3.81
516.819	3.81
517.166	3.82
517.512	3.82
517.859	3.83
518.205	3.84
518.552	3.83
518.898	3.82
519.245	3.8
519.591	3.78
519.937	3.78
520.283	3.81
520.629	3.8
520.976	3.8
521.322	3.8
521.668	3.79
522.014	3.79
522.36	3.79
522.706	3.81
523.052	3.83
523.398	3.8
523.743	3.81
524.089	3.82
524.435	3.81
524.781	3.83
525.126	3.83
525.472	3.83
525.817	3.83
526.163	3.84
526.509	3.83
526.854	3.84
527.199	3.85
527.545	3.85
527.89	3.85
528.235	3.86
528.581	3.85
528.926	3.86
529.271	3.86
529.616	3.87
529.961	3.87
530.306	3.87
530.651	3.87
530.996	3.88
531.341	3.89
531.686	3.89
532.031	3.89
532.376	3.9
532.721	3.89
533.065	3.89
533.41	3.91
533.755	3.93
534.099	3.94
534.444	3.91
534.788	3.9
535.133	3.91
535.477	3.9
535.822	3.9
536.166	3.9
536.51	3.89
536.855	3.9
537.199	3.88
537.543	3.9
537.887	3.92
538.231	3.92
538.576	3.91
538.92	3.92
539.264	3.94
539.608	3.94
539.951	3.96
540.295	3.96
540.639	3.95
540.983	3.95
541.327	3.96
541.671	3.97
542.014	3.99
542.358	3.99
542.701	4
543.045	4.01
543.389	4.03
543.732	4.03
544.075	4.02
544.419	4.04
544.762	4.04
545.105	4.05
545.449	4.06
545.792	4.09
546.135	4.09
546.478	4.07
546.821	4.1
547.165	4.11
547.508	4.11
547.851	4.11
548.194	4.11
548.536	4.08
548.879	4.07
549.222	4.07
549.565	4.07
549.908	4.07
550.25	4.06
550.593	4.07
550.936	4.1
551.278	4.11
551.621	4.11
551.963	4.11
552.306	4.12
552.648	4.13
552.991	4.13
553.333	4.17
553.675	4.16
554.017	4.13
554.36	4.15
554.702	4.14
555.044	4.17
555.386	4.15
555.728	4.19
556.07	4.19
556.412	4.21
556.754	4.19
557.096	4.15
557.438	4.16
557.78	4.16
558.121	4.16
558.463	4.17
558.805	4.19
559.147	4.17
559.488	4.12
559.83	4.11
560.171	4.09
560.513	4.06
560.854	4.06
561.196	4.09
561.537	4.06
561.878	4.08
562.22	4.09
562.561	4.1
562.902	4.09
563.243	4.1
563.584	4.08
563.925	4.09
564.266	4.13
564.607	4.14
564.948	4.11
565.289	4.13
565.63	4.11
565.971	4.09
566.312	4.09
566.653	4.11
566.993	4.07
567.334	4.08
567.675	4.09
568.015	4.1
568.356	4.06
568.696	4.06
569.037	4.08
569.377	4.05
569.718	4.04
570.058	4.02
570.398	4.02
570.739	4.02
571.079	4.04
571.419	4.04
571.759	4.05
572.099	4.1
572.439	4.09
572.779	4.09
573.119	4.12
573.459	4.13
573.799	4.13
574.139	4.18
574.479	4.19
574.819	4.18
575.158	4.16
575.498	4.2
575.838	4.19
576.177	4.14
576.517	4.19
576.856	4.21
577.196	4.21
577.535	4.21
577.875	4.25
578.214	4.25
578.553	4.27
578.893	4.26
579.232	4.21
579.571	4.24
579.91	4.24
580.25	4.22
580.589	4.19
580.928	4.16
581.267	4.16
581.606	4.15
581.945	4.14
582.283	4.15
582.622	4.12
582.961	4.14
583.3	4.15
583.639	4.14
583.977	4.14
584.316	4.16
584.654	4.23
584.993	4.18
585.332	4.15
585.67	4.14
586.008	4.14
586.347	4.17
586.685	4.12
587.024	4.15
587.362	4.16
587.7	4.24
588.038	4.27
588.376	4.26
588.715	4.24
589.053	4.28
589.391	4.3
589.729	4.32
590.067	4.32
590.404	4.36
590.742	4.37
591.08	4.4
591.418	4.38
591.756	4.34
592.093	4.37
592.431	4.39
592.769	4.42
593.106	4.38
593.444	4.39
593.781	4.43
594.119	4.44
594.456	4.41
594.793	4.36
595.131	4.36
595.468	4.39
595.805	4.42
596.143	4.39
596.48	4.39
596.817	4.39
597.154	4.4
597.491	4.39
597.828	4.39
598.165	4.35
598.502	4.35
598.839	4.35
599.176	4.34
599.512	4.35
599.849	4.36
600.186	4.38
600.523	4.39
600.859	4.4
601.196	4.38
601.532	4.4
601.869	4.43
602.205	4.42
602.542	4.4
602.878	4.41
603.215	4.41
603.551	4.39
603.887	4.37
604.223	4.36
604.56	4.36
604.896	4.39
605.232	4.39
605.568	4.39
605.904	4.38
606.24	4.4
606.576	4.38
606.912	4.37
607.248	4.42
607.583	4.41
607.919	4.4
608.255	4.39
608.591	4.39
608.926	4.37
609.262	4.39
609.597	4.4
609.933	4.39
610.268	4.44
610.604	4.47
610.939	4.5
611.275	4.54
611.61	4.54
611.945	4.48
612.281	4.51
612.616	4.58
612.951	4.63
613.286	4.61
613.621	4.65
613.956	4.67
614.291	4.62
614.626	4.64
614.961	4.64
615.296	4.68
615.631	4.67
615.966	4.67
616.3	4.68
616.635	4.65
616.97	4.64
617.304	4.61
617.639	4.65
617.973	4.6
618.308	4.62
618.642	4.59
618.977	4.57
619.311	4.57
619.646	4.5
619.98	4.47
620.314	4.48
620.648	4.42
620.983	4.38
621.317	4.38
621.651	4.34
621.985	4.34
622.319	4.29
622.653	4.33
622.987	4.31
623.321	4.32
623.655	4.33
623.988	4.37
624.322	4.4
624.656	4.35
624.99	4.4
625.323	4.33
625.657	4.4
625.99	4.46
626.324	4.48
626.657	4.47
626.991	4.47
627.324	4.45
627.658	4.44
627.991	4.45
628.324	4.48
628.657	4.44
628.991	4.45
629.324	4.47
629.657	4.47
629.99	4.48
630.323	4.48
630.656	4.5
630.989	4.53
631.322	4.5
631.655	4.51
631.987	4.5
632.32	4.52
632.653	4.49
632.986	4.51
633.318	4.45
633.651	4.52
633.984	4.51
634.316	4.5
634.649	4.55
634.981	4.55
635.313	4.55
635.646	4.59
635.978	4.65
636.31	4.65
636.643	4.67
636.975	4.71
637.307	4.69
637.639	4.66
637.971	4.62
638.303	4.59
638.635	4.57
638.967	4.54
639.299	4.57
639.631	4.6
639.963	4.56
640.295	4.54
640.626	4.53
640.958	4.59
641.29	4.64
641.621	4.62
641.953	4.59
642.285	4.61
642.616	4.61
642.948	4.56
643.279	4.58
643.61	4.58
643.942	4.56
644.273	4.56
644.604	4.52
644.936	4.53
645.267	4.52
645.598	4.56
645.929	4.6
646.26	4.52
646.591	4.47
646.922	4.46
647.253	4.53
647.584	4.53
647.915	4.49
648.245	4.42
648.576	4.46
648.907	4.54
649.238	4.49
649.568	4.51
649.899	4.52
650.229	4.6
650.56	4.58
650.89	4.57
651.221	4.55
651.551	4.64
651.882	4.63
652.212	4.67
652.542	4.76
652.872	4.74
653.203	4.79
653.533	4.81
653.863	4.82
654.193	4.82
654.523	4.78
654.853	4.85
655.183	4.91
655.513	4.89
655.843	4.91
656.172	4.98
656.502	4.97
656.832	4.92
657.162	4.91
657.491	4.96
657.821	5.02
658.15	5.02
658.48	5.02
658.809	5.04
659.139	5.06
659.468	4.95
659.798	5.01
660.127	5.03
660.456	5.05
660.785	5.02
661.115	5.03
661.444	5.03
661.773	4.97
662.102	4.93
662.431	4.96
662.76	4.88
663.089	4.88
663.418	4.88
663.747	4.91
664.076	4.87
664.404	4.78
664.733	4.75
665.062	4.76
665.39	4.7
665.719	4.67
666.048	4.6
666.376	4.68
666.705	4.65
667.033	4.66
667.362	4.69
667.69	4.72
668.018	4.78
668.347	4.8
668.675	4.8
669.003	4.91
669.331	4.84
669.659	4.92
669.987	4.85
670.315	4.84
670.643	4.81
670.971	4.86
671.299	4.96
671.627	4.9
671.955	4.97
672.283	5.02
672.61	5.02
672.938	5.06
673.266	4.96
673.593	4.92
673.921	4.89
674.249	4.79
674.576	4.84
674.904	4.73
675.231	4.73
675.558	4.77
675.886	4.72
676.213	4.77
676.54	4.8
676.867	4.77
677.195	4.8
677.522	4.82
677.849	4.79
678.176	4.81
678.503	4.86
678.83	4.9
679.157	4.81
679.484	4.78
