Data from MVZ_BU28167_Reflection_00011.txt Node
Date: Tue Nov 19 12:17:39 EST 2019
User: vgr7
Spectrometer: USB2G7710
Scans to average: 3
Trigger mode: 4
Integration Time (sec): 2.000000E-2
Electric dark correction enabled: true
Boxcar width: 10
XAxis mode: Wavelengths
Number of Pixels in Spectrum: 2048
>>>>>Begin Spectral Data<<<<<
177.721	442.34
178.105	-705.56
178.488	67.37
178.871	82.29
179.254	244.44
179.636	208.23
180.019	115.98
180.402	115
180.785	-133.33
181.168	5.3
181.55	49.8
181.933	34.14
182.316	9.44
182.698	-14.89
183.081	-15.98
183.463	-7.08
183.846	27.85
184.228	10.76
184.611	-1.57
184.993	-23.13
185.376	-44.16
185.758	-45.99
186.14	-36.61
186.522	-34.51
186.904	-57.25
187.287	-46.94
187.669	-64.48
188.051	-43.82
188.433	-21.17
188.815	-18.59
189.197	-26.7
189.579	-34.06
189.961	-45.5
190.342	-42.62
190.724	-55.76
191.106	-111.71
191.488	-141.78
191.869	-812.7
192.251	698.04
192.633	-1108.33
193.014	-3233.33
193.396	-170.83
193.777	16.67
194.159	558.33
194.54	-16.16
194.922	-152.87
195.303	-277.78
195.684	-1379.17
196.065	-511.11
196.447	-138.1
196.828	-138.1
197.209	-26.98
197.59	-21.21
197.971	-418.52
198.352	61.99
198.733	48.18
199.114	93.83
199.495	73.86
199.876	86.74
200.257	49.35
200.638	106.94
201.018	48.09
201.399	433.33
201.78	-761.11
202.16	76.19
202.541	211.11
202.922	-1261.11
203.302	108.13
203.683	39.68
204.063	-6.67
204.444	-6.81
204.824	-22.22
205.204	-21.12
205.585	7.16
205.965	90.74
206.345	86.82
206.725	128.99
207.106	112.45
207.486	89.52
207.866	89.15
208.246	87.06
208.626	93.96
209.006	97.79
209.386	185.86
209.766	137.04
210.145	157.08
210.525	171.79
210.905	122.11
211.285	204.7
211.664	338.1
212.044	348.97
212.424	406.76
212.803	271.13
213.183	417.95
213.562	356.41
213.942	213.43
214.321	270.14
214.701	147.26
215.08	297.74
215.459	334.74
215.838	395.6
216.218	314.91
216.597	151.82
216.976	93.17
217.355	69.93
217.734	71.01
218.113	65.95
218.492	64.86
218.871	51.04
219.25	19.57
219.629	-15.3
220.008	-13.91
220.387	-9.2
220.766	-10.75
221.144	5.1
221.523	2.3
221.902	12.52
222.28	17.95
222.659	29.77
223.037	3.24
223.416	-11.79
223.794	-9.96
224.173	-3.56
224.551	2.97
224.929	4
225.308	-5.17
225.686	5.77
226.064	2.18
226.442	9.07
226.821	6.67
227.199	9.82
227.577	11.62
227.955	13.4
228.333	9.67
228.711	11.35
229.089	6.47
229.467	8.1
229.845	6.21
230.222	7.21
230.6	3.78
230.978	7.43
231.356	7.22
231.733	8.24
232.111	10.33
232.488	7.84
232.866	8.87
233.243	10.74
233.621	10.65
233.998	10.17
234.376	9.49
234.753	11.94
235.13	9.65
235.508	9.47
235.885	6.96
236.262	9.06
236.639	7.94
237.016	10.29
237.393	11.59
237.77	12.73
238.147	11.43
238.524	12.22
238.901	10.65
239.278	10.03
239.655	9.19
240.032	7.77
240.409	6.96
240.785	6.54
241.162	6.1
241.539	6.23
241.915	6.25
242.292	5.51
242.668	5.23
243.045	5.52
243.421	5.84
243.798	6.15
244.174	5.73
244.551	5.69
244.927	5.08
245.303	4.89
245.679	4.53
246.056	4.34
246.432	4.05
246.808	4.23
247.184	4.32
247.56	4.32
247.936	4.65
248.312	4.75
248.688	4.69
249.064	4.64
249.44	4.58
249.815	4.51
250.191	4.63
250.567	4.8
250.943	4.73
251.318	4.62
251.694	4.45
252.069	4.83
252.445	4.83
252.82	5.27
253.196	4.99
253.571	5.05
253.947	5.17
254.322	4.9
254.697	4.66
255.073	4.65
255.448	4.4
255.823	4.08
256.198	4.05
256.573	4.15
256.948	4.16
257.323	4.13
257.698	4.26
258.073	4.27
258.448	4.26
258.823	4.09
259.198	4.15
259.573	3.84
259.948	3.74
260.322	3.66
260.697	3.61
261.072	3.85
261.446	3.85
261.821	3.74
262.195	3.87
262.57	4.09
262.944	4.07
263.319	4.2
263.693	4.35
264.067	4.35
264.442	4.18
264.816	4.27
265.19	4.21
265.564	4.18
265.938	4.12
266.313	3.93
266.687	4.09
267.061	4.02
267.435	4.41
267.809	4.21
268.183	4.01
268.556	3.83
268.93	3.62
269.304	3.35
269.678	3.43
270.051	3.33
270.425	3.21
270.799	2.96
271.172	3.01
271.546	2.98
271.919	2.99
272.293	3.2
272.666	3.09
273.04	3.15
273.413	3.1
273.787	3.03
274.16	2.96
274.533	2.94
274.906	2.78
275.279	2.8
275.653	2.79
276.026	2.82
276.399	3.05
276.772	2.94
277.145	3.17
277.518	3.08
277.891	3.1
278.263	3.04
278.636	3.49
279.009	3.67
279.382	3.53
279.755	3.48
280.127	3.39
280.5	3.32
280.872	3.22
281.245	3.19
281.617	3.22
281.99	3.28
282.362	3.13
282.735	3.2
283.107	3.11
283.479	3.19
283.852	3.42
284.224	3.36
284.596	3.31
284.968	3.28
285.34	3.25
285.713	3.25
286.085	3.19
286.457	2.97
286.829	2.86
287.201	2.93
287.572	2.97
287.944	2.97
288.316	3.06
288.688	3.2
289.06	3.28
289.431	3.29
289.803	3.18
290.175	3.36
290.546	3.42
290.918	3.45
291.289	3.25
291.661	3.04
292.032	3
292.403	3.14
292.775	3.21
293.146	3.33
293.517	3.26
293.889	3.15
294.26	3.24
294.631	3.2
295.002	3.32
295.373	3.35
295.744	3.41
296.115	3.44
296.486	3.42
296.857	3.34
297.228	3.33
297.599	3.52
297.97	3.54
298.34	3.5
298.711	3.49
299.082	3.75
299.452	3.84
299.823	3.93
300.194	3.96
300.564	3.83
300.935	3.87
301.305	3.94
301.676	4.13
302.046	4.14
302.416	4.13
302.787	3.98
303.157	4.11
303.527	4.25
303.897	4.4
304.267	4.36
304.637	4.39
305.008	4.44
305.378	4.29
305.748	4.13
306.117	4.17
306.487	4.22
306.857	4.19
307.227	4.33
307.597	4.49
307.967	4.51
308.336	4.61
308.706	4.65
309.076	4.89
309.445	5.1
309.815	5.22
310.184	5.27
310.554	5.49
310.923	5.52
311.293	5.37
311.662	5.32
312.031	5.39
312.401	5.41
312.77	5.42
313.139	5.72
313.508	5.86
313.877	5.91
314.246	5.9
314.616	6.01
314.985	6
315.353	5.96
315.722	6.12
316.091	6.31
316.46	6.37
316.829	6.26
317.198	6.28
317.567	6.35
317.935	6.48
318.304	6.49
318.672	6.55
319.041	6.61
319.41	6.69
319.778	6.8
320.147	7.04
320.515	7.13
320.883	7.01
321.252	7.17
321.62	7.33
321.988	7.32
322.357	7.2
322.725	7.22
323.093	7.22
323.461	7.24
323.829	7.28
324.197	7.3
324.565	7.25
324.933	7.27
325.301	7.19
325.669	7.17
326.037	7.17
326.405	7.14
326.772	7.24
327.14	7.04
327.508	7.08
327.875	7.07
328.243	7.15
328.61	7.17
328.978	7.2
329.346	7.1
329.713	7.24
330.08	7.36
330.448	7.31
330.815	7.24
331.182	7.16
331.55	7.09
331.917	6.97
332.284	7.1
332.651	7.04
333.018	7.01
333.385	7.05
333.752	7.08
334.119	7.18
334.486	7.21
334.853	7.37
335.22	7.19
335.587	7.19
335.954	7.13
336.32	7.19
336.687	7.09
337.054	7.09
337.42	7.11
337.787	7.12
338.153	7.21
338.52	7.32
338.886	7.48
339.253	7.44
339.619	7.7
339.986	7.67
340.352	7.81
340.718	7.84
341.084	7.99
341.451	8.02
341.817	8.03
342.183	8.07
342.549	8.12
342.915	8.21
343.281	8.19
343.647	8.25
344.013	8.23
344.379	8.27
344.745	8.39
345.11	8.45
345.476	8.5
345.842	8.52
346.208	8.64
346.573	8.65
346.939	8.78
347.304	8.74
347.67	8.89
348.035	8.84
348.401	8.92
348.766	8.73
349.132	8.73
349.497	8.69
349.862	8.64
350.228	8.76
350.593	8.77
350.958	8.78
351.323	8.83
351.688	8.85
352.053	8.83
352.418	8.87
352.783	8.86
353.148	8.76
353.513	8.79
353.878	8.66
354.243	8.51
354.608	8.53
354.972	8.53
355.337	8.52
355.702	8.44
356.066	8.43
356.431	8.47
356.795	8.47
357.16	8.4
357.524	8.34
357.889	8.27
358.253	8.26
358.618	8.24
358.982	8.25
359.346	8.23
359.71	8.25
360.075	8.16
360.439	8.15
360.803	8.2
361.167	8.09
361.531	8.07
361.895	8.09
362.259	8.05
362.623	8.01
362.987	7.97
363.351	8
363.714	7.99
364.078	8.03
364.442	7.97
364.806	8.05
365.169	8.05
365.533	7.99
365.896	8.04
366.26	7.96
366.623	7.84
366.987	7.81
367.35	7.83
367.714	7.78
368.077	7.75
368.44	7.76
368.803	7.74
369.167	7.76
369.53	7.8
369.893	7.75
370.256	7.72
370.619	7.59
370.982	7.51
371.345	7.47
371.708	7.36
372.071	7.26
372.434	7.24
372.797	7.22
373.159	7.2
373.522	7.12
373.885	7.09
374.247	7.05
374.61	7
374.973	6.88
375.335	6.91
375.698	6.79
376.06	6.74
376.423	6.72
376.785	6.59
377.147	6.45
377.51	6.37
377.872	6.23
378.234	6.27
378.596	6.22
378.958	6.16
379.321	6.1
379.683	6.14
380.045	6.05
380.407	5.97
380.769	5.91
381.13	5.87
381.492	5.89
381.854	5.87
382.216	5.86
382.578	5.87
382.939	5.75
383.301	5.76
383.663	5.67
384.024	5.67
384.386	5.66
384.747	5.7
385.109	5.69
385.47	5.72
385.832	5.62
386.193	5.58
386.554	5.53
386.916	5.55
387.277	5.46
387.638	5.44
387.999	5.48
388.36	5.45
388.721	5.45
389.082	5.4
389.443	5.39
389.804	5.32
390.165	5.28
390.526	5.3
390.887	5.24
391.248	5.21
391.609	5.18
391.969	5.16
392.33	5.09
392.691	5.03
393.051	5.03
393.412	5.07
393.772	5.05
394.133	5
394.493	4.96
394.854	4.98
395.214	4.9
395.574	4.84
395.935	4.82
396.295	4.76
396.655	4.69
397.015	4.65
397.376	4.64
397.736	4.59
398.096	4.52
398.456	4.51
398.816	4.47
399.176	4.42
399.535	4.39
399.895	4.37
400.255	4.32
400.615	4.27
400.975	4.22
401.334	4.19
401.694	4.22
402.054	4.19
402.413	4.1
402.773	4.12
403.132	4.11
403.492	4.11
403.851	4.05
404.211	4.09
404.57	4.08
404.929	4.03
405.288	4.05
405.648	4.03
406.007	4
406.366	4.03
406.725	4.01
407.084	3.98
407.443	3.98
407.802	4
408.161	4.02
408.52	4
408.879	4
409.238	3.99
409.596	3.98
409.955	4.01
410.314	3.96
410.673	3.95
411.031	3.89
411.39	3.89
411.748	3.86
412.107	3.83
412.465	3.85
412.824	3.77
413.182	3.79
413.54	3.81
413.899	3.79
414.257	3.78
414.615	3.77
414.974	3.76
415.332	3.76
415.69	3.72
416.048	3.72
416.406	3.69
416.764	3.65
417.122	3.64
417.48	3.64
417.838	3.65
418.195	3.62
418.553	3.63
418.911	3.63
419.269	3.62
419.626	3.61
419.984	3.59
420.342	3.57
420.699	3.55
421.057	3.53
421.414	3.51
421.772	3.49
422.129	3.49
422.486	3.49
422.844	3.48
423.201	3.48
423.558	3.47
423.915	3.48
424.273	3.47
424.63	3.47
424.987	3.46
425.344	3.46
425.701	3.47
426.058	3.46
426.415	3.47
426.772	3.46
427.128	3.47
427.485	3.46
427.842	3.47
428.199	3.47
428.555	3.46
428.912	3.45
429.269	3.44
429.625	3.45
429.982	3.42
430.338	3.41
430.695	3.38
431.051	3.37
431.407	3.36
431.764	3.37
432.12	3.35
432.476	3.36
432.832	3.35
433.189	3.33
433.545	3.35
433.901	3.33
434.257	3.32
434.613	3.33
434.969	3.32
435.325	3.32
435.681	3.34
436.036	3.37
436.392	3.4
436.748	3.39
437.104	3.39
437.459	3.39
437.815	3.4
438.171	3.39
438.526	3.4
438.882	3.39
439.237	3.4
439.593	3.41
439.948	3.39
440.304	3.39
440.659	3.4
441.014	3.38
441.369	3.39
441.725	3.39
442.08	3.37
442.435	3.39
442.79	3.37
443.145	3.35
443.5	3.32
443.855	3.29
444.21	3.31
444.565	3.31
444.92	3.3
445.275	3.29
445.629	3.28
445.984	3.29
446.339	3.28
446.693	3.26
447.048	3.26
447.403	3.25
447.757	3.24
448.112	3.22
448.466	3.22
448.82	3.21
449.175	3.2
449.529	3.23
449.883	3.21
450.238	3.22
450.592	3.22
450.946	3.22
451.3	3.23
451.654	3.21
452.008	3.22
452.362	3.22
452.716	3.22
453.07	3.24
453.424	3.23
453.778	3.22
454.132	3.22
454.486	3.22
454.839	3.24
455.193	3.22
455.547	3.25
455.9	3.24
456.254	3.25
456.607	3.24
456.961	3.23
457.314	3.24
457.668	3.24
458.021	3.25
458.375	3.26
458.728	3.28
459.081	3.28
459.434	3.25
459.787	3.25
460.141	3.26
460.494	3.27
460.847	3.27
461.2	3.3
461.553	3.31
461.906	3.31
462.259	3.29
462.611	3.31
462.964	3.3
463.317	3.29
463.67	3.27
464.022	3.29
464.375	3.3
464.728	3.3
465.08	3.32
465.433	3.31
465.785	3.31
466.138	3.31
466.49	3.33
466.843	3.4
467.195	3.43
467.547	3.41
467.899	3.41
468.252	3.42
468.604	3.41
468.956	3.41
469.308	3.43
469.66	3.47
470.012	3.48
470.364	3.52
470.716	3.58
471.068	3.61
471.42	3.62
471.772	3.6
472.123	3.63
472.475	3.62
472.827	3.63
473.178	3.68
473.53	3.71
473.882	3.7
474.233	3.68
474.585	3.66
474.936	3.68
475.288	3.67
475.639	3.67
475.99	3.67
476.342	3.68
476.693	3.68
477.044	3.67
477.395	3.66
477.746	3.64
478.097	3.62
478.448	3.6
478.8	3.57
479.15	3.56
479.501	3.55
479.852	3.53
480.203	3.51
480.554	3.5
480.905	3.48
481.255	3.47
481.606	3.46
481.957	3.46
482.307	3.46
482.658	3.46
483.009	3.45
483.359	3.45
483.709	3.44
484.06	3.45
484.41	3.45
484.761	3.45
485.111	3.45
485.461	3.44
485.811	3.44
486.162	3.45
486.512	3.46
486.862	3.46
487.212	3.46
487.562	3.47
487.912	3.47
488.262	3.46
488.612	3.47
488.961	3.48
489.311	3.48
489.661	3.48
490.011	3.48
490.36	3.48
490.71	3.48
491.06	3.49
491.409	3.48
491.759	3.5
492.108	3.51
492.458	3.52
492.807	3.53
493.157	3.55
493.506	3.55
493.855	3.56
494.204	3.58
494.554	3.59
494.903	3.61
495.252	3.64
495.601	3.68
495.95	3.71
496.299	3.74
496.648	3.78
496.997	3.84
497.346	3.89
497.695	3.96
498.043	4.03
498.392	4.08
498.741	4.13
499.09	4.17
499.438	4.25
499.787	4.31
500.135	4.37
500.484	4.41
500.832	4.49
501.181	4.59
501.529	4.71
501.878	4.79
502.226	4.88
502.574	4.97
502.923	5.06
503.271	5.16
503.619	5.26
503.967	5.38
504.315	5.5
504.663	5.61
505.011	5.69
505.359	5.77
505.707	5.9
506.055	6.05
506.403	6.18
506.751	6.33
507.098	6.48
507.446	6.62
507.794	6.77
508.141	6.91
508.489	7.07
508.837	7.21
509.184	7.38
509.531	7.56
509.879	7.71
510.226	7.87
510.574	8.04
510.921	8.22
511.268	8.4
511.616	8.58
511.963	8.77
512.31	9.01
512.657	9.24
513.004	9.46
513.351	9.67
513.698	9.91
514.045	10.14
514.392	10.38
514.739	10.62
515.086	10.9
515.432	11.19
515.779	11.44
516.126	11.68
516.473	11.92
516.819	12.14
517.166	12.39
517.512	12.59
517.859	12.82
518.205	13.04
518.552	13.25
518.898	13.43
519.245	13.66
519.591	13.82
519.937	14.04
520.283	14.27
520.629	14.53
520.976	14.77
521.322	14.98
521.668	15.25
522.014	15.53
522.36	15.81
522.706	16.1
523.052	16.39
523.398	16.68
523.743	17.02
524.089	17.35
524.435	17.64
524.781	17.94
525.126	18.22
525.472	18.46
525.817	18.68
526.163	18.92
526.509	19.12
526.854	19.3
527.199	19.46
527.545	19.64
527.89	19.81
528.235	19.98
528.581	20.17
528.926	20.34
529.271	20.53
529.616	20.69
529.961	20.85
530.306	21.05
530.651	21.25
530.996	21.44
531.341	21.63
531.686	21.85
532.031	22.08
532.376	22.29
532.721	22.5
533.065	22.74
533.41	22.96
533.755	23.2
534.099	23.48
534.444	23.75
534.788	23.97
535.133	24.23
535.477	24.5
535.822	24.8
536.166	25.06
536.51	25.33
536.855	25.66
537.199	25.98
537.543	26.3
537.887	26.61
538.231	26.91
538.576	27.21
538.92	27.54
539.264	27.81
539.608	28.1
539.951	28.4
540.295	28.64
540.639	28.9
540.983	29.12
541.327	29.35
541.671	29.58
542.014	29.79
542.358	30.01
542.701	30.23
543.045	30.41
543.389	30.65
543.732	30.87
544.075	31.08
544.419	31.3
544.762	31.49
545.105	31.74
545.449	31.96
545.792	32.23
546.135	32.48
546.478	32.76
546.821	33.05
547.165	33.29
547.508	33.56
547.851	33.83
548.194	34.1
548.536	34.32
548.879	34.64
549.222	34.91
549.565	35.1
549.908	35.31
550.25	35.51
550.593	35.71
550.936	35.97
551.278	36.21
551.621	36.36
551.963	36.64
552.306	36.84
552.648	37.09
552.991	37.31
553.333	37.51
553.675	37.73
554.017	37.89
554.36	38.08
554.702	38.26
555.044	38.46
555.386	38.66
555.728	38.87
556.07	38.99
556.412	39.18
556.754	39.47
557.096	39.72
557.438	39.93
557.78	40.18
558.121	40.34
558.463	40.5
558.805	40.85
559.147	40.95
559.488	41.18
559.83	41.35
560.171	41.5
560.513	41.63
560.854	41.77
561.196	41.94
561.537	42.16
561.878	42.38
562.22	42.57
562.561	42.71
562.902	42.93
563.243	43.07
563.584	43.26
563.925	43.43
564.266	43.55
564.607	43.73
564.948	43.86
565.289	44.02
565.63	44.13
565.971	44.2
566.312	44.4
566.653	44.48
566.993	44.58
567.334	44.75
567.675	44.93
568.015	45.1
568.356	45.27
568.696	45.39
569.037	45.53
569.377	45.63
569.718	45.75
570.058	45.81
570.398	45.95
570.739	46.12
571.079	46.1
571.419	46.2
571.759	46.28
572.099	46.39
572.439	46.51
572.779	46.68
573.119	46.83
573.459	46.91
573.799	47
574.139	47.19
574.479	47.25
574.819	47.36
575.158	47.45
575.498	47.47
575.838	47.5
576.177	47.62
576.517	47.71
576.856	47.81
577.196	47.94
577.535	48.06
577.875	48.05
578.214	48.24
578.553	48.35
578.893	48.49
579.232	48.58
579.571	48.66
579.91	48.7
580.25	48.76
580.589	48.83
580.928	48.91
581.267	48.98
581.606	49.13
581.945	49.16
582.283	49.22
582.622	49.34
582.961	49.52
583.3	49.4
583.639	49.52
583.977	49.65
584.316	49.69
584.654	49.68
584.993	49.75
585.332	49.9
585.67	50.03
586.008	50.04
586.347	50.13
586.685	50.18
587.024	50.27
587.362	50.3
587.7	50.45
588.038	50.66
588.376	50.72
588.715	50.79
589.053	50.89
589.391	50.97
589.729	51.05
590.067	51.1
590.404	51.24
590.742	51.21
591.08	51.28
591.418	51.42
591.756	51.52
592.093	51.63
592.431	51.67
592.769	51.61
593.106	51.79
593.444	51.81
593.781	51.92
594.119	51.94
594.456	52.08
594.793	52.08
595.131	52.03
595.468	52.09
595.805	52.06
596.143	52.12
596.48	52.16
596.817	52.26
597.154	52.3
597.491	52.39
597.828	52.52
598.165	52.55
598.502	52.61
598.839	52.7
599.176	52.76
599.512	52.82
599.849	52.98
600.186	52.92
600.523	53
600.859	52.96
601.196	53.13
601.532	53.16
601.869	53.2
602.205	53.28
602.542	53.26
602.878	53.42
603.215	53.5
603.551	53.59
603.887	53.61
604.223	53.6
604.56	53.61
604.896	53.6
605.232	53.6
605.568	53.58
605.904	53.61
606.24	53.63
606.576	53.65
606.912	53.59
607.248	53.67
607.583	53.79
607.919	53.92
608.255	53.84
608.591	53.86
608.926	53.95
609.262	54.01
609.597	54.04
609.933	53.98
610.268	53.93
610.604	53.84
610.939	53.88
611.275	53.92
611.61	53.96
611.945	53.97
612.281	54.05
612.616	54.09
612.951	54.12
613.286	54.13
613.621	54.15
613.956	54.23
614.291	54.23
614.626	54.24
614.961	54.24
615.296	54.33
615.631	54.35
615.966	54.35
616.3	54.21
616.635	54.23
616.97	54.23
617.304	54.29
617.639	54.4
617.973	54.39
618.308	54.45
618.642	54.52
618.977	54.65
619.311	54.71
619.646	54.79
619.98	54.78
620.314	54.82
620.648	54.79
620.983	54.82
621.317	54.95
621.651	54.95
621.985	54.95
622.319	55.05
622.653	55.01
622.987	55.08
623.321	55.14
623.655	55.22
623.988	55.27
624.322	55.32
624.656	55.42
624.99	55.47
625.323	55.52
625.657	55.42
625.99	55.44
626.324	55.35
626.657	55.41
626.991	55.46
627.324	55.54
627.658	55.58
627.991	55.66
628.324	55.56
628.657	55.51
628.991	55.54
629.324	55.43
629.657	55.46
629.99	55.44
630.323	55.55
630.656	55.6
630.989	55.61
631.322	55.67
631.655	55.74
631.987	55.77
632.32	55.74
632.653	55.89
632.986	55.89
633.318	55.9
633.651	55.91
633.984	55.93
634.316	55.92
634.649	56.02
634.981	56.09
635.313	56.12
635.646	56.21
635.978	56.2
636.31	56.28
636.643	56.44
636.975	56.51
637.307	56.56
637.639	56.58
637.971	56.61
638.303	56.56
638.635	56.43
638.967	56.46
639.299	56.49
639.631	56.51
639.963	56.41
640.295	56.46
640.626	56.45
640.958	56.46
641.29	56.5
641.621	56.46
641.953	56.36
642.285	56.44
642.616	56.55
642.948	56.57
643.279	56.56
643.61	56.5
643.942	56.4
644.273	56.38
644.604	56.36
644.936	56.43
645.267	56.34
645.598	56.4
645.929	56.29
646.26	56.36
646.591	56.5
646.922	56.63
647.253	56.64
647.584	56.81
647.915	56.89
648.245	56.91
648.576	56.81
648.907	56.78
649.238	56.72
649.568	56.6
649.899	56.75
650.229	56.81
650.56	56.9
650.89	56.91
651.221	56.85
651.551	56.79
651.882	56.79
652.212	56.88
652.542	56.96
652.872	57.11
653.203	57.11
653.533	56.9
653.863	56.91
654.193	56.99
654.523	56.81
654.853	56.82
655.183	56.84
655.513	56.99
655.843	57.07
656.172	57.23
656.502	57.32
656.832	57.21
657.162	57.27
657.491	57.27
657.821	57.2
658.15	57.3
658.48	57.32
658.809	57.32
659.139	57.17
659.468	57.2
659.798	57.07
660.127	57.07
660.456	57.18
660.785	57.15
661.115	57.18
661.444	57.28
661.773	57.3
662.102	57.24
662.431	57.26
662.76	57.34
663.089	57.33
663.418	57.27
663.747	57.33
664.076	57.25
664.404	57.19
664.733	57.22
665.062	57.16
665.39	57.22
665.719	57.19
666.048	57.27
666.376	57.23
666.705	57.15
667.033	57.27
667.362	57.26
