Data from MVZ_BU163026_Reflection_00006.txt Node
Date: Tue Nov 19 12:05:59 EST 2019
User: vgr7
Spectrometer: USB2G7710
Scans to average: 3
Trigger mode: 4
Integration Time (sec): 2.000000E-2
Electric dark correction enabled: true
Boxcar width: 10
XAxis mode: Wavelengths
Number of Pixels in Spectrum: 2048
>>>>>Begin Spectral Data<<<<<
177.721	-68.11
178.105	-589.19
178.488	-278.84
178.871	-110.45
179.254	-75.38
179.636	5.73
180.019	-56.61
180.402	183.33
180.785	809.09
181.168	-134.37
181.55	55.67
181.933	167.42
182.316	74.63
182.698	55.29
183.081	88.71
183.463	122.97
183.846	115.17
184.228	108.58
184.611	93.9
184.993	130.86
185.376	89.85
185.758	74.79
186.14	51.49
186.522	26.25
186.904	33.6
187.287	43.65
187.669	5.68
188.051	28.16
188.433	17.46
188.815	21.77
189.197	33.42
189.579	22.69
189.961	27.37
190.342	25.07
190.724	36.64
191.106	-12.62
191.488	-27.46
191.869	-97.11
192.251	-145.12
192.633	-234.14
193.014	-254.47
193.396	-73.76
193.777	-34.65
194.159	66.54
194.54	333.77
194.922	-1794.74
195.303	196
195.684	419.8
196.065	292.12
196.447	-352.26
196.828	7736.36
197.209	657.52
197.59	1270.73
197.971	610.64
198.352	111.67
198.733	110.03
199.114	144.33
199.495	139.79
199.876	274.33
200.257	197.24
200.638	341.01
201.018	391.77
201.399	2009.09
201.78	2043.66
202.16	268.93
202.541	189.42
202.922	167.06
203.302	130.75
203.683	76.16
204.063	71.12
204.444	63.58
204.824	92.94
205.204	439.62
205.585	1490.24
205.965	1367.61
206.345	-495.14
206.725	-225.94
207.106	-154.67
207.486	-62.16
207.866	-1.69
208.246	12.65
208.626	16.31
209.006	69
209.386	91.68
209.766	147.19
210.145	134.26
210.525	222.89
210.905	192.62
211.285	85.89
211.664	80.71
212.044	75.02
212.424	68.22
212.803	93.65
213.183	92.07
213.562	110.3
213.942	100
214.321	124.78
214.701	144.16
215.08	109.19
215.459	95.35
215.838	63.06
216.218	83.07
216.597	110.12
216.976	58.73
217.355	59.51
217.734	43.05
218.113	42.63
218.492	21.58
218.871	9.28
219.25	27.09
219.629	10.62
220.008	26.78
220.387	25.9
220.766	15.31
221.144	32.82
221.523	44.01
221.902	53.89
222.28	60.35
222.659	54.42
223.037	62.68
223.416	42.47
223.794	35.56
224.173	24.36
224.551	15.56
224.929	17.94
225.308	14.62
225.686	14.22
226.064	6.5
226.442	5.63
226.821	6.58
227.199	3.13
227.577	2.1
227.955	2.33
228.333	1.17
228.711	-0.56
229.089	-3.01
229.467	-0.72
229.845	-2.58
230.222	-4.51
230.6	-6.83
230.978	-6.41
231.356	-5.12
231.733	-5.08
232.111	-1.83
232.488	-2.46
232.866	-2.39
233.243	-0.42
233.621	-2.2
233.998	-2.68
234.376	-1.9
234.753	-1.78
235.13	-3.84
235.508	-1.83
235.885	-2.64
236.262	-1.84
236.639	-0.35
237.016	-1.1
237.393	-1.53
237.77	-0.3
238.147	0.58
238.524	0.55
238.901	1.1
239.278	0.52
239.655	0.09
240.032	0.07
240.409	0.42
240.785	-0.13
241.162	-0.15
241.539	0.1
241.915	0.59
242.292	0.42
242.668	1.22
243.045	1.92
243.421	1.71
243.798	1.84
244.174	2.13
244.551	2.22
244.927	2.5
245.303	1.88
245.679	1.92
246.056	2.1
246.432	2.2
246.808	2.31
247.184	2.58
247.56	2.73
247.936	2.65
248.312	2.72
248.688	2.85
249.064	2.64
249.44	2.88
249.815	3.05
250.191	3.17
250.567	2.8
250.943	2.79
251.318	2.95
251.694	2.8
252.069	2.9
252.445	2.59
252.82	2.74
253.196	3.26
253.571	3.43
253.947	3.6
254.322	3.71
254.697	3.65
255.073	3.7
255.448	3.78
255.823	3.65
256.198	3.81
256.573	3.81
256.948	3.88
257.323	3.81
257.698	3.58
258.073	3.5
258.448	3.7
258.823	3.56
259.198	3.41
259.573	3.6
259.948	3.48
260.322	3.48
260.697	3.44
261.072	3.63
261.446	3.64
261.821	3.23
262.195	3.1
262.57	3.02
262.944	3
263.319	2.82
263.693	2.93
264.067	2.83
264.442	2.7
264.816	2.62
265.19	2.54
265.564	2.73
265.938	2.68
266.313	2.32
266.687	2.16
267.061	2.39
267.435	2.33
267.809	2.31
268.183	2.54
268.556	2.59
268.93	2.66
269.304	2.59
269.678	2.99
270.051	3.13
270.425	3.3
270.799	3.13
271.172	3.26
271.546	3.18
271.919	3.23
272.293	3.22
272.666	3.35
273.04	3.42
273.413	3.19
273.787	3.24
274.16	3.38
274.533	3.69
274.906	3.56
275.279	3.51
275.653	3.61
276.026	3.65
276.399	3.56
276.772	3.33
277.145	3.27
277.518	2.92
277.891	2.8
278.263	2.81
278.636	2.97
279.009	2.89
279.382	2.96
279.755	3.01
280.127	3.03
280.5	2.83
280.872	2.57
281.245	2.78
281.617	2.9
281.99	3.03
282.362	2.87
282.735	2.85
283.107	2.74
283.479	2.63
283.852	2.45
284.224	2.53
284.596	2.48
284.968	2.54
285.34	2.74
285.713	2.72
286.085	2.69
286.457	2.75
286.829	2.83
287.201	3
287.572	2.96
287.944	3.04
288.316	3.14
288.688	3.4
289.06	3.24
289.431	3.22
289.803	3.24
290.175	3.09
290.546	3.13
290.918	3.05
291.289	2.98
291.661	3.11
292.032	3.15
292.403	3.26
292.775	3.39
293.146	3.57
293.517	3.65
293.889	3.55
294.26	3.45
294.631	3.5
295.002	3.41
295.373	3.39
295.744	3.42
296.115	3.45
296.486	3.37
296.857	3.67
297.228	3.58
297.599	3.44
297.97	3.7
298.34	3.75
298.711	3.95
299.082	4.12
299.452	4.02
299.823	3.95
300.194	3.95
300.564	3.85
300.935	3.74
301.305	3.8
301.676	3.87
302.046	4.05
302.416	4.02
302.787	3.96
303.157	3.84
303.527	3.99
303.897	3.95
304.267	3.94
304.637	3.79
305.008	3.85
305.378	3.98
305.748	3.84
306.117	3.87
306.487	3.83
306.857	3.68
307.227	3.85
307.597	3.8
307.967	3.69
308.336	3.77
308.706	3.64
309.076	3.71
309.445	3.8
309.815	3.57
310.184	3.54
310.554	3.56
310.923	3.7
311.293	3.6
311.662	3.71
312.031	3.76
312.401	3.65
312.77	3.62
313.139	3.7
313.508	3.62
313.877	3.5
314.246	3.36
314.616	3.55
314.985	3.52
315.353	3.61
315.722	3.69
316.091	3.72
316.46	3.75
316.829	3.75
317.198	3.72
317.567	3.89
317.935	4.04
318.304	4.14
318.672	4.19
319.041	4.26
319.41	4.27
319.778	4.33
320.147	4.25
320.515	4.28
320.883	4.14
321.252	4.24
321.62	4.19
321.988	4.38
322.357	4.17
322.725	4.03
323.093	3.97
323.461	3.98
323.829	3.84
324.197	3.91
324.565	3.86
324.933	3.88
325.301	3.78
325.669	3.69
326.037	3.55
326.405	3.56
326.772	3.44
327.14	3.22
327.508	3.08
327.875	3.15
328.243	3.15
328.61	3
328.978	2.99
329.346	2.97
329.713	3.21
330.08	3.42
330.448	3.55
330.815	3.56
331.182	3.51
331.55	3.49
331.917	3.43
332.284	3.47
332.651	3.41
333.018	3.36
333.385	3.43
333.752	3.56
334.119	3.49
334.486	3.58
334.853	3.77
335.22	3.78
335.587	3.82
335.954	3.73
336.32	3.87
336.687	3.94
337.054	3.9
337.42	3.68
337.787	3.55
338.153	3.56
338.52	3.56
338.886	3.63
339.253	3.61
339.619	3.59
339.986	3.37
340.352	3.26
340.718	3.3
341.084	3.22
341.451	3.16
341.817	3.03
342.183	3.1
342.549	3.11
342.915	3.12
343.281	3.08
343.647	3.03
344.013	3.06
344.379	3.02
344.745	3.08
345.11	3.02
345.476	3.07
345.842	3.01
346.208	3.07
346.573	3.03
346.939	3.09
347.304	3.1
347.67	3.17
348.035	3.27
348.401	3.31
348.766	3.29
349.132	3.37
349.497	3.48
349.862	3.34
350.228	3.33
350.593	3.4
350.958	3.51
351.323	3.57
351.688	3.57
352.053	3.6
352.418	3.63
352.783	3.7
353.148	3.71
353.513	3.58
353.878	3.47
354.243	3.42
354.608	3.44
354.972	3.55
355.337	3.59
355.702	3.53
356.066	3.6
356.431	3.67
356.795	3.56
357.16	3.58
357.524	3.62
357.889	3.62
358.253	3.59
358.618	3.56
358.982	3.64
359.346	3.66
359.71	3.67
360.075	3.77
360.439	3.73
360.803	3.76
361.167	3.85
361.531	3.89
361.895	3.91
362.259	3.89
362.623	3.86
362.987	3.81
363.351	3.85
363.714	3.82
364.078	3.78
364.442	3.84
364.806	3.8
365.169	3.81
365.533	3.77
365.896	3.77
366.26	3.73
366.623	3.69
366.987	3.69
367.35	3.75
367.714	3.66
368.077	3.74
368.44	3.69
368.803	3.67
369.167	3.68
369.53	3.71
369.893	3.7
370.256	3.6
370.619	3.62
370.982	3.6
371.345	3.61
371.708	3.61
372.071	3.6
372.434	3.61
372.797	3.57
373.159	3.59
373.522	3.62
373.885	3.69
374.247	3.69
374.61	3.63
374.973	3.56
375.335	3.49
375.698	3.43
376.06	3.41
376.423	3.43
376.785	3.48
377.147	3.44
377.51	3.46
377.872	3.51
378.234	3.56
378.596	3.57
378.958	3.54
379.321	3.52
379.683	3.55
380.045	3.54
380.407	3.63
380.769	3.64
381.13	3.55
381.492	3.5
381.854	3.47
382.216	3.59
382.578	3.62
382.939	3.65
383.301	3.64
383.663	3.64
384.024	3.69
384.386	3.7
384.747	3.68
385.109	3.67
385.47	3.69
385.832	3.68
386.193	3.67
386.554	3.7
386.916	3.75
387.277	3.73
387.638	3.75
387.999	3.74
388.36	3.68
388.721	3.76
389.082	3.82
389.443	3.86
389.804	3.8
390.165	3.79
390.526	3.81
390.887	3.78
391.248	3.8
391.609	3.78
391.969	3.71
392.33	3.77
392.691	3.76
393.051	3.72
393.412	3.73
393.772	3.77
394.133	3.77
394.493	3.73
394.854	3.74
395.214	3.77
395.574	3.72
395.935	3.77
396.295	3.75
396.655	3.71
397.015	3.72
397.376	3.73
397.736	3.72
398.096	3.72
398.456	3.77
398.816	3.77
399.176	3.75
399.535	3.75
399.895	3.73
400.255	3.75
400.615	3.77
400.975	3.77
401.334	3.75
401.694	3.74
402.054	3.76
402.413	3.71
402.773	3.7
403.132	3.7
403.492	3.72
403.851	3.73
404.211	3.72
404.57	3.72
404.929	3.71
405.288	3.74
405.648	3.77
406.007	3.71
406.366	3.71
406.725	3.74
407.084	3.77
407.443	3.76
407.802	3.77
408.161	3.78
408.52	3.75
408.879	3.76
409.238	3.73
409.596	3.72
409.955	3.74
410.314	3.74
410.673	3.77
411.031	3.72
411.39	3.73
411.748	3.76
412.107	3.73
412.465	3.72
412.824	3.67
413.182	3.66
413.54	3.72
413.899	3.72
414.257	3.72
414.615	3.7
414.974	3.7
415.332	3.7
415.69	3.68
416.048	3.69
416.406	3.66
416.764	3.66
417.122	3.67
417.48	3.68
417.838	3.67
418.195	3.64
418.553	3.66
418.911	3.65
419.269	3.64
419.626	3.64
419.984	3.65
420.342	3.66
420.699	3.65
421.057	3.64
421.414	3.62
421.772	3.62
422.129	3.62
422.486	3.62
422.844	3.61
423.201	3.61
423.558	3.61
423.915	3.61
424.273	3.62
424.63	3.61
424.987	3.63
425.344	3.62
425.701	3.62
426.058	3.61
426.415	3.6
426.772	3.59
427.128	3.59
427.485	3.58
427.842	3.57
428.199	3.58
428.555	3.58
428.912	3.58
429.269	3.56
429.625	3.54
429.982	3.55
430.338	3.55
430.695	3.56
431.051	3.58
431.407	3.57
431.764	3.56
432.12	3.54
432.476	3.53
432.832	3.54
433.189	3.54
433.545	3.52
433.901	3.54
434.257	3.53
434.613	3.53
434.969	3.54
435.325	3.54
435.681	3.54
436.036	3.53
436.392	3.55
436.748	3.55
437.104	3.55
437.459	3.55
437.815	3.55
438.171	3.54
438.526	3.51
438.882	3.53
439.237	3.54
439.593	3.55
439.948	3.54
440.304	3.53
440.659	3.53
441.014	3.54
441.369	3.54
441.725	3.56
442.08	3.56
442.435	3.55
442.79	3.55
443.145	3.54
443.5	3.55
443.855	3.56
444.21	3.56
444.565	3.58
444.92	3.57
445.275	3.56
445.629	3.57
445.984	3.59
446.339	3.58
446.693	3.58
447.048	3.58
447.403	3.59
447.757	3.57
448.112	3.57
448.466	3.59
448.82	3.59
449.175	3.57
449.529	3.57
449.883	3.56
450.238	3.55
450.592	3.56
450.946	3.53
451.3	3.53
451.654	3.5
452.008	3.5
452.362	3.5
452.716	3.51
453.07	3.51
453.424	3.5
453.778	3.46
454.132	3.46
454.486	3.46
454.839	3.46
455.193	3.49
455.547	3.48
455.9	3.48
456.254	3.47
456.607	3.47
456.961	3.47
457.314	3.48
457.668	3.49
458.021	3.49
458.375	3.48
458.728	3.47
459.081	3.49
459.434	3.47
459.787	3.48
460.141	3.48
460.494	3.5
460.847	3.49
461.2	3.53
461.553	3.53
461.906	3.53
462.259	3.52
462.611	3.51
462.964	3.53
463.317	3.54
463.67	3.55
464.022	3.57
464.375	3.57
464.728	3.57
465.08	3.55
465.433	3.55
465.785	3.58
466.138	3.59
466.49	3.59
466.843	3.63
467.195	3.62
467.547	3.61
467.899	3.63
468.252	3.64
468.604	3.66
468.956	3.65
469.308	3.64
469.66	3.66
470.012	3.67
470.364	3.68
470.716	3.69
471.068	3.69
471.42	3.67
471.772	3.68
472.123	3.7
472.475	3.73
472.827	3.73
473.178	3.71
473.53	3.7
473.882	3.7
474.233	3.66
474.585	3.66
474.936	3.66
475.288	3.63
475.639	3.65
475.99	3.63
476.342	3.63
476.693	3.64
477.044	3.65
477.395	3.64
477.746	3.64
478.097	3.63
478.448	3.62
478.8	3.65
479.15	3.66
479.501	3.65
479.852	3.65
480.203	3.66
480.554	3.68
480.905	3.69
481.255	3.69
481.606	3.71
481.957	3.72
482.307	3.72
482.658	3.73
483.009	3.71
483.359	3.72
483.709	3.72
484.06	3.72
484.41	3.71
484.761	3.71
485.111	3.71
485.461	3.71
485.811	3.72
486.162	3.72
486.512	3.71
486.862	3.72
487.212	3.72
487.562	3.72
487.912	3.71
488.262	3.72
488.612	3.71
488.961	3.71
489.311	3.71
489.661	3.71
490.011	3.69
490.36	3.7
490.71	3.7
491.06	3.7
491.409	3.7
491.759	3.71
492.108	3.71
492.458	3.72
492.807	3.72
493.157	3.72
493.506	3.72
493.855	3.71
494.204	3.72
494.554	3.73
494.903	3.73
495.252	3.73
495.601	3.74
495.95	3.76
496.299	3.77
496.648	3.78
496.997	3.8
497.346	3.83
497.695	3.85
498.043	3.86
498.392	3.86
498.741	3.88
499.09	3.89
499.438	3.91
499.787	3.91
500.135	3.91
500.484	3.91
500.832	3.94
501.181	3.96
501.529	3.99
501.878	4.01
502.226	4.04
502.574	4.06
502.923	4.05
503.271	4.06
503.619	4.06
503.967	4.05
504.315	4.03
504.663	4.02
505.011	4.02
505.359	4.01
505.707	4.02
506.055	4.05
506.403	4.05
506.751	4.05
507.098	4.08
507.446	4.1
507.794	4.14
508.141	4.12
508.489	4.15
508.837	4.14
509.184	4.14
509.531	4.14
509.879	4.13
510.226	4.16
510.574	4.15
510.921	4.14
511.268	4.19
511.616	4.22
511.963	4.23
512.31	4.24
512.657	4.26
513.004	4.26
513.351	4.24
513.698	4.25
514.045	4.27
514.392	4.26
514.739	4.27
515.086	4.26
515.432	4.31
515.779	4.3
516.126	4.31
516.473	4.32
516.819	4.31
517.166	4.33
517.512	4.33
517.859	4.37
518.205	4.38
518.552	4.38
518.898	4.37
519.245	4.41
519.591	4.41
519.937	4.43
520.283	4.46
520.629	4.5
520.976	4.51
521.322	4.53
521.668	4.53
522.014	4.53
522.36	4.54
522.706	4.52
523.052	4.53
523.398	4.53
523.743	4.54
524.089	4.55
524.435	4.56
524.781	4.58
525.126	4.57
525.472	4.59
525.817	4.59
526.163	4.58
526.509	4.57
526.854	4.58
527.199	4.59
527.545	4.59
527.89	4.58
528.235	4.58
528.581	4.58
528.926	4.57
529.271	4.58
529.616	4.59
529.961	4.6
530.306	4.59
530.651	4.59
530.996	4.59
531.341	4.61
531.686	4.61
532.031	4.61
532.376	4.61
532.721	4.6
533.065	4.61
533.41	4.6
533.755	4.6
534.099	4.6
534.444	4.59
534.788	4.57
535.133	4.58
535.477	4.6
535.822	4.59
536.166	4.61
536.51	4.61
536.855	4.6
537.199	4.61
537.543	4.63
537.887	4.65
538.231	4.65
538.576	4.63
538.92	4.64
539.264	4.64
539.608	4.64
539.951	4.64
540.295	4.65
540.639	4.67
540.983	4.69
541.327	4.71
541.671	4.72
542.014	4.75
542.358	4.75
542.701	4.74
543.045	4.76
543.389	4.75
543.732	4.75
544.075	4.76
544.419	4.74
544.762	4.74
545.105	4.72
545.449	4.74
545.792	4.76
546.135	4.75
546.478	4.77
546.821	4.77
547.165	4.75
547.508	4.76
547.851	4.76
548.194	4.76
548.536	4.73
548.879	4.72
549.222	4.71
549.565	4.72
549.908	4.72
550.25	4.71
550.593	4.72
550.936	4.74
551.278	4.73
551.621	4.74
551.963	4.77
552.306	4.81
552.648	4.79
552.991	4.78
553.333	4.79
553.675	4.77
554.017	4.78
554.36	4.82
554.702	4.82
555.044	4.81
555.386	4.81
555.728	4.85
556.07	4.82
556.412	4.81
556.754	4.78
557.096	4.81
557.438	4.81
557.78	4.81
558.121	4.8
558.463	4.83
558.805	4.87
559.147	4.83
559.488	4.77
559.83	4.78
560.171	4.79
560.513	4.78
560.854	4.78
561.196	4.76
561.537	4.8
561.878	4.8
562.22	4.82
562.561	4.81
562.902	4.79
563.243	4.81
563.584	4.84
563.925	4.9
564.266	4.86
564.607	4.88
564.948	4.87
565.289	4.9
565.63	4.88
565.971	4.87
566.312	4.86
566.653	4.9
566.993	4.87
567.334	4.9
567.675	4.92
568.015	4.95
568.356	4.97
568.696	4.94
569.037	4.94
569.377	4.94
569.718	4.96
570.058	4.95
570.398	4.96
570.739	4.93
571.079	4.88
571.419	4.87
571.759	4.82
572.099	4.81
572.439	4.76
572.779	4.78
573.119	4.78
573.459	4.79
573.799	4.81
574.139	4.83
574.479	4.81
574.819	4.81
575.158	4.79
575.498	4.8
575.838	4.78
576.177	4.8
576.517	4.81
576.856	4.79
577.196	4.82
577.535	4.8
577.875	4.81
578.214	4.81
578.553	4.82
578.893	4.85
579.232	4.9
579.571	4.97
579.91	4.95
580.25	4.94
580.589	4.96
580.928	4.95
581.267	4.94
581.606	4.99
581.945	4.98
582.283	4.97
582.622	4.92
582.961	4.97
583.3	4.97
583.639	4.93
583.977	4.93
584.316	4.91
584.654	4.94
584.993	4.95
585.332	4.94
585.67	5
586.008	4.99
586.347	4.95
586.685	4.86
587.024	4.88
587.362	4.9
587.7	4.9
588.038	4.94
588.376	4.93
588.715	4.9
589.053	4.91
589.391	4.95
589.729	5
590.067	4.97
590.404	4.97
590.742	4.96
591.08	5.01
591.418	5.04
591.756	5.03
592.093	5.02
592.431	5.07
592.769	5.07
593.106	5.08
593.444	5.08
593.781	5.14
594.119	5.13
594.456	5.13
594.793	5.11
595.131	5.08
595.468	5.1
595.805	5.14
596.143	5.15
596.48	5.15
596.817	5.12
597.154	5.14
597.491	5.14
597.828	5.18
598.165	5.14
598.502	5.1
598.839	5.08
599.176	5.12
599.512	5.14
599.849	5.17
600.186	5.19
600.523	5.21
600.859	5.23
601.196	5.24
601.532	5.27
601.869	5.26
602.205	5.27
602.542	5.25
602.878	5.22
603.215	5.21
603.551	5.19
603.887	5.17
604.223	5.21
604.56	5.19
604.896	5.21
605.232	5.24
605.568	5.26
605.904	5.28
606.24	5.24
606.576	5.23
606.912	5.2
607.248	5.23
607.583	5.24
607.919	5.22
608.255	5.21
608.591	5.18
608.926	5.18
609.262	5.18
609.597	5.18
609.933	5.19
610.268	5.21
610.604	5.17
610.939	5.2
611.275	5.19
611.61	5.21
611.945	5.16
612.281	5.16
612.616	5.17
612.951	5.19
613.286	5.24
613.621	5.21
613.956	5.22
614.291	5.17
614.626	5.18
614.961	5.21
615.296	5.26
615.631	5.27
615.966	5.33
616.3	5.33
616.635	5.38
616.97	5.38
617.304	5.34
617.639	5.34
617.973	5.41
618.308	5.39
618.642	5.35
618.977	5.37
619.311	5.35
619.646	5.35
619.98	5.35
620.314	5.33
620.648	5.35
620.983	5.32
621.317	5.31
621.651	5.27
621.985	5.23
622.319	5.25
622.653	5.29
622.987	5.22
623.321	5.23
623.655	5.24
623.988	5.21
624.322	5.27
624.656	5.28
624.99	5.24
625.323	5.23
625.657	5.27
625.99	5.29
626.324	5.31
626.657	5.28
626.991	5.25
627.324	5.22
627.658	5.21
627.991	5.26
628.324	5.29
628.657	5.3
628.991	5.32
629.324	5.33
629.657	5.26
629.99	5.3
630.323	5.3
630.656	5.26
630.989	5.31
631.322	5.26
631.655	5.27
631.987	5.27
632.32	5.3
632.653	5.27
632.986	5.25
633.318	5.25
633.651	5.31
633.984	5.36
634.316	5.39
634.649	5.39
634.981	5.3
635.313	5.35
635.646	5.37
635.978	5.37
636.31	5.31
636.643	5.34
636.975	5.32
637.307	5.37
637.639	5.42
637.971	5.39
638.303	5.4
638.635	5.44
638.967	5.39
639.299	5.32
639.631	5.36
639.963	5.36
640.295	5.4
640.626	5.41
640.958	5.44
641.29	5.43
641.621	5.35
641.953	5.36
642.285	5.3
642.616	5.27
642.948	5.24
643.279	5.24
643.61	5.3
643.942	5.35
644.273	5.28
644.604	5.24
644.936	5.26
645.267	5.3
645.598	5.3
645.929	5.35
646.26	5.38
646.591	5.4
646.922	5.47
647.253	5.39
647.584	5.33
647.915	5.33
648.245	5.36
648.576	5.47
648.907	5.54
649.238	5.6
649.568	5.66
649.899	5.65
650.229	5.7
650.56	5.66
650.89	5.68
651.221	5.7
651.551	5.76
651.882	5.75
652.212	5.74
652.542	5.82
652.872	5.78
653.203	5.85
653.533	5.78
653.863	5.71
654.193	5.74
654.523	5.73
654.853	5.75
655.183	5.77
655.513	5.81
655.843	5.79
656.172	5.84
656.502	5.78
656.832	5.86
657.162	5.84
657.491	5.84
657.821	5.78
658.15	5.78
658.48	5.78
658.809	5.74
659.139	5.8
659.468	5.73
659.798	5.76
660.127	5.77
660.456	5.77
660.785	5.75
661.115	5.74
661.444	5.78
661.773	5.76
662.102	5.75
662.431	5.7
662.76	5.66
663.089	5.61
663.418	5.7
663.747	5.7
664.076	5.73
664.404	5.76
664.733	5.8
665.062	5.9
665.39	5.93
665.719	6
666.048	5.99
666.376	6.08
666.705	6.03
667.033	5.95
667.362	5.96
667.69	6.02
668.018	6.09
668.347	6.04
668.675	6.02
669.003	5.98
669.331	6.05
669.659	6.1
669.987	6.1
670.315	6
670.643	5.86
670.971	5.82
671.299	5.81
671.627	5.78
671.955	5.74
672.283	5.61
672.61	5.64
672.938	5.52
673.266	5.45
673.593	5.48
673.921	5.59
674.249	5.71
674.576	5.75
674.904	5.75
675.231	5.76
675.558	5.81
675.886	5.91
676.213	5.74
676.54	5.72
676.867	5.74
677.195	5.7
677.522	5.8
677.849	5.88
678.176	5.9
