Data from MVZ_BU57658_Reflection_00013.txt Node
Date: Tue Nov 19 12:13:42 EST 2019
User: vgr7
Spectrometer: USB2G7710
Scans to average: 3
Trigger mode: 4
Integration Time (sec): 2.000000E-2
Electric dark correction enabled: true
Boxcar width: 10
XAxis mode: Wavelengths
Number of Pixels in Spectrum: 2048
>>>>>Begin Spectral Data<<<<<
177.721	1114.12
178.105	538.6
178.488	385.87
178.871	251.67
179.254	693.33
179.636	1384.31
180.019	-284.35
180.402	56.25
180.785	-65.04
181.168	-97.99
181.55	-23.79
181.933	-52.09
182.316	-2.71
182.698	16.08
183.081	2.18
183.463	24.48
183.846	26.97
184.228	35.72
184.611	19.52
184.993	-41.48
185.376	-61.52
185.758	-115.08
186.14	-89.92
186.522	-158.81
186.904	-693.33
187.287	-176.63
187.669	-90.67
188.051	5.19
188.433	185.59
188.815	-108.81
189.197	-187.55
189.579	-56.7
189.961	-96.04
190.342	-61.84
190.724	-52.57
191.106	-66.67
191.488	-58.51
191.869	-51.81
192.251	-35.07
192.633	-31.56
193.014	-47.91
193.396	-62.51
193.777	-65.48
194.159	-71.01
194.54	-75.7
194.922	-106.34
195.303	-144.32
195.684	-142.68
196.065	-175.49
196.447	-179.78
196.828	-204.48
197.209	-195.04
197.59	-246.64
197.971	-331.86
198.352	5674.07
198.733	-1158.87
199.114	679.81
199.495	-4733.33
199.876	-2540.35
200.257	-61066.67
200.638	3346.03
201.018	1942.34
201.399	652.43
201.78	660.61
202.16	2106.67
202.541	3698.04
202.922	-3835.9
203.302	-212.4
203.683	-135.11
204.063	-98.25
204.444	-101.43
204.824	-98.44
205.204	-77.4
205.585	-80.96
205.965	-105.79
206.345	-102.63
206.725	-84.84
207.106	-78.3
207.486	-63.77
207.866	-52.2
208.246	-35.52
208.626	-41.52
209.006	-38.81
209.386	-58.21
209.766	-116.05
210.145	-74.93
210.525	-48.89
210.905	-78.49
211.285	-143.27
211.664	-243.14
212.044	-260.7
212.424	1980.95
212.803	463.39
213.183	990.48
213.562	-153.09
213.942	-95.44
214.321	-108.71
214.701	-106.87
215.08	-68.87
215.459	-52.23
215.838	-99.83
216.218	-87.41
216.597	-46.65
216.976	-44.91
217.355	-47.55
217.734	-20.78
218.113	-13.29
218.492	-16.94
218.871	-5.51
219.25	7.18
219.629	8.24
220.008	6.53
220.387	-6.06
220.766	15.14
221.144	15.19
221.523	-5.89
221.902	0.7
222.28	11.95
222.659	30.12
223.037	45.33
223.416	21.53
223.794	17.96
224.173	14.44
224.551	16.93
224.929	15.91
225.308	9.66
225.686	-0.95
226.064	-1.29
226.442	3.52
226.821	4.28
227.199	5.22
227.577	9.19
227.955	9.52
228.333	11.06
228.711	8.48
229.089	6.22
229.467	6.65
229.845	2.13
230.222	2.86
230.6	1.03
230.978	-1.6
231.356	0.16
231.733	2.67
232.111	-0.18
232.488	-0.59
232.866	1.14
233.243	1.35
233.621	3.61
233.998	5.02
234.376	3.96
234.753	0.07
235.13	0.87
235.508	-0.09
235.885	-0.01
236.262	0.85
236.639	-0.77
237.016	-0.01
237.393	1
237.77	2.02
238.147	1.15
238.524	1.42
238.901	0.48
239.278	-0.22
239.655	-0.59
240.032	0.45
240.409	1.1
240.785	1.69
241.162	2.05
241.539	1.78
241.915	1.69
242.292	2.25
242.668	3.22
243.045	3.18
243.421	3.67
243.798	3.89
244.174	3.85
244.551	4.22
244.927	4.29
245.303	3.98
245.679	4.06
246.056	4.21
246.432	4.11
246.808	4.77
247.184	5.15
247.56	5.05
247.936	5.01
248.312	4.74
248.688	4.37
249.064	4.31
249.44	4.35
249.815	4.18
250.191	4.05
250.567	4.09
250.943	4.24
251.318	4.06
251.694	3.98
252.069	3.91
252.445	3.83
252.82	4
253.196	4.23
253.571	4.44
253.947	4.18
254.322	3.93
254.697	3.68
255.073	3.21
255.448	3.3
255.823	3.58
256.198	3.62
256.573	3.54
256.948	3.91
257.323	4.04
257.698	3.94
258.073	3.86
258.448	3.83
258.823	3.49
259.198	3.5
259.573	3.35
259.948	3.33
260.322	3.19
260.697	3.11
261.072	3.05
261.446	3.04
261.821	3.16
262.195	3.16
262.57	3.16
262.944	3.22
263.319	3.25
263.693	3.16
264.067	3.23
264.442	3.42
264.816	3.19
265.19	2.89
265.564	2.82
265.938	2.85
266.313	2.68
266.687	2.98
267.061	3.16
267.435	3.5
267.809	3.44
268.183	3.69
268.556	3.69
268.93	3.77
269.304	3.58
269.678	3.52
270.051	3.6
270.425	3.51
270.799	3.53
271.172	3.51
271.546	3.51
271.919	3.6
272.293	3.58
272.666	3.63
273.04	3.68
273.413	3.79
273.787	3.8
274.16	3.76
274.533	3.78
274.906	3.78
275.279	3.42
275.653	3.48
276.026	3.51
276.399	3.62
276.772	3.36
277.145	3.4
277.518	3.26
277.891	3.24
278.263	3.51
278.636	3.59
279.009	3.49
279.382	3.38
279.755	3.33
280.127	3.26
280.5	2.96
280.872	2.81
281.245	2.74
281.617	2.73
281.99	2.83
282.362	2.78
282.735	2.66
283.107	2.92
283.479	2.98
283.852	2.99
284.224	2.96
284.596	3.28
284.968	3.28
285.34	3.37
285.713	3.41
286.085	3.31
286.457	3.3
286.829	3.37
287.201	3.36
287.572	3.31
287.944	3.43
288.316	3.69
288.688	3.83
289.06	3.91
289.431	3.89
289.803	3.95
290.175	3.9
290.546	3.8
290.918	3.92
291.289	3.9
291.661	3.88
292.032	3.76
292.403	3.75
292.775	3.86
293.146	3.95
293.517	3.92
293.889	3.85
294.26	3.89
294.631	4
295.002	3.99
295.373	4.05
295.744	4.09
296.115	4.15
296.486	4.24
296.857	4.32
297.228	4.41
297.599	4.38
297.97	4.54
298.34	4.8
298.711	4.77
299.082	4.86
299.452	4.85
299.823	5.08
300.194	5.11
300.564	5.05
300.935	5.04
301.305	5.19
301.676	5.21
302.046	5.41
302.416	5.37
302.787	5.51
303.157	5.52
303.527	5.55
303.897	5.7
304.267	5.75
304.637	5.69
305.008	5.88
305.378	5.92
305.748	5.92
306.117	5.8
306.487	5.82
306.857	5.79
307.227	6
307.597	5.94
307.967	5.96
308.336	6.14
308.706	6.34
309.076	6.39
309.445	6.55
309.815	6.55
310.184	6.63
310.554	6.65
310.923	6.71
311.293	6.79
311.662	6.8
312.031	6.74
312.401	6.83
312.77	6.9
313.139	6.94
313.508	6.87
313.877	7.05
314.246	7.16
314.616	7.28
314.985	7.23
315.353	7.29
315.722	7.45
316.091	7.5
316.46	7.42
316.829	7.36
317.198	7.65
317.567	7.75
317.935	7.71
318.304	7.99
318.672	8.01
319.041	7.96
319.41	7.87
319.778	8.14
320.147	8.18
320.515	7.9
320.883	7.9
321.252	8.11
321.62	8.18
321.988	8.06
322.357	8
322.725	7.99
323.093	8.04
323.461	8.04
323.829	7.89
324.197	7.9
324.565	8.03
324.933	7.76
325.301	7.56
325.669	7.62
326.037	7.61
326.405	7.74
326.772	7.74
327.14	7.69
327.508	7.59
327.875	7.61
328.243	7.68
328.61	7.78
328.978	7.74
329.346	7.66
329.713	7.79
330.08	7.84
330.448	7.95
330.815	8.04
331.182	7.92
331.55	8.04
331.917	8.14
332.284	8.11
332.651	8.18
333.018	8.35
333.385	8.43
333.752	8.55
334.119	8.58
334.486	8.74
334.853	8.82
335.22	8.73
335.587	8.71
335.954	8.87
336.32	8.87
336.687	8.97
337.054	8.92
337.42	8.92
337.787	8.96
338.153	9.07
338.52	9.14
338.886	9.25
339.253	9.16
339.619	9.18
339.986	9.2
340.352	9.23
340.718	9.28
341.084	9.25
341.451	9.13
341.817	9.09
342.183	9.15
342.549	9.16
342.915	9.3
343.281	9.4
343.647	9.43
344.013	9.44
344.379	9.35
344.745	9.47
345.11	9.47
345.476	9.6
345.842	9.51
346.208	9.53
346.573	9.52
346.939	9.58
347.304	9.55
347.67	9.5
348.035	9.5
348.401	9.51
348.766	9.65
349.132	9.65
349.497	9.67
349.862	9.59
350.228	9.66
350.593	9.66
350.958	9.69
351.323	9.63
351.688	9.64
352.053	9.74
352.418	9.68
352.783	9.56
353.148	9.48
353.513	9.48
353.878	9.48
354.243	9.32
354.608	9.42
354.972	9.51
355.337	9.53
355.702	9.48
356.066	9.41
356.431	9.32
356.795	9.37
357.16	9.29
357.524	9.24
357.889	9.31
358.253	9.36
358.618	9.32
358.982	9.34
359.346	9.35
359.71	9.26
360.075	9.23
360.439	9.29
360.803	9.27
361.167	9.34
361.531	9.2
361.895	9.27
362.259	9.26
362.623	9.15
362.987	9.19
363.351	9.19
363.714	9.21
364.078	9.19
364.442	9.09
364.806	9.12
365.169	9.06
365.533	8.92
365.896	8.87
366.26	8.73
366.623	8.67
366.987	8.61
367.35	8.62
367.714	8.59
368.077	8.59
368.44	8.52
368.803	8.38
369.167	8.39
369.53	8.43
369.893	8.42
370.256	8.38
370.619	8.29
370.982	8.2
371.345	8.1
371.708	8.06
372.071	7.94
372.434	7.89
372.797	7.89
373.159	7.84
373.522	7.69
373.885	7.73
374.247	7.71
374.61	7.66
374.973	7.56
375.335	7.52
375.698	7.36
376.06	7.35
376.423	7.33
376.785	7.29
377.147	7.16
377.51	7.04
377.872	7.02
378.234	7.05
378.596	7.02
378.958	6.96
379.321	6.88
379.683	6.94
380.045	6.87
380.407	6.79
380.769	6.75
381.13	6.77
381.492	6.69
381.854	6.61
382.216	6.58
382.578	6.5
382.939	6.44
383.301	6.49
383.663	6.43
384.024	6.37
384.386	6.32
384.747	6.28
385.109	6.26
385.47	6.22
385.832	6.12
386.193	6.09
386.554	6.01
386.916	6.04
387.277	5.97
387.638	5.94
387.999	5.91
388.36	5.87
388.721	5.86
389.082	5.85
389.443	5.82
389.804	5.79
390.165	5.77
390.526	5.71
390.887	5.65
391.248	5.62
391.609	5.6
391.969	5.58
392.33	5.54
392.691	5.5
393.051	5.4
393.412	5.41
393.772	5.39
394.133	5.4
394.493	5.3
394.854	5.26
395.214	5.24
395.574	5.21
395.935	5.18
396.295	5.14
396.655	5.11
397.015	5.08
397.376	5.02
397.736	4.96
398.096	4.92
398.456	4.85
398.816	4.83
399.176	4.76
399.535	4.72
399.895	4.7
400.255	4.69
400.615	4.72
400.975	4.65
401.334	4.61
401.694	4.61
402.054	4.59
402.413	4.55
402.773	4.52
403.132	4.49
403.492	4.46
403.851	4.38
404.211	4.34
404.57	4.28
404.929	4.26
405.288	4.31
405.648	4.29
406.007	4.28
406.366	4.26
406.725	4.24
407.084	4.22
407.443	4.18
407.802	4.15
408.161	4.14
408.52	4.14
408.879	4.16
409.238	4.12
409.596	4.12
409.955	4.14
410.314	4.12
410.673	4.11
411.031	4.09
411.39	4.12
411.748	4.14
412.107	4.16
412.465	4.17
412.824	4.14
413.182	4.15
413.54	4.18
413.899	4.18
414.257	4.17
414.615	4.16
414.974	4.15
415.332	4.14
415.69	4.11
416.048	4.11
416.406	4.07
416.764	4.06
417.122	4.04
417.48	4.02
417.838	4
418.195	3.98
418.553	3.98
418.911	3.97
419.269	3.93
419.626	3.93
419.984	3.9
420.342	3.87
420.699	3.84
421.057	3.82
421.414	3.81
421.772	3.81
422.129	3.8
422.486	3.8
422.844	3.77
423.201	3.77
423.558	3.74
423.915	3.73
424.273	3.73
424.63	3.72
424.987	3.72
425.344	3.71
425.701	3.71
426.058	3.69
426.415	3.67
426.772	3.67
427.128	3.66
427.485	3.65
427.842	3.65
428.199	3.66
428.555	3.63
428.912	3.62
429.269	3.59
429.625	3.57
429.982	3.58
430.338	3.58
430.695	3.57
431.051	3.58
431.407	3.58
431.764	3.55
432.12	3.58
432.476	3.58
432.832	3.59
433.189	3.57
433.545	3.57
433.901	3.58
434.257	3.57
434.613	3.56
434.969	3.56
435.325	3.55
435.681	3.56
436.036	3.57
436.392	3.57
436.748	3.57
437.104	3.57
437.459	3.55
437.815	3.56
438.171	3.56
438.526	3.56
438.882	3.56
439.237	3.55
439.593	3.55
439.948	3.55
440.304	3.54
440.659	3.55
441.014	3.55
441.369	3.53
441.725	3.52
442.08	3.53
442.435	3.52
442.79	3.51
443.145	3.49
443.5	3.47
443.855	3.47
444.21	3.47
444.565	3.48
444.92	3.49
445.275	3.49
445.629	3.47
445.984	3.46
446.339	3.46
446.693	3.45
447.048	3.42
447.403	3.4
447.757	3.39
448.112	3.38
448.466	3.39
448.82	3.4
449.175	3.39
449.529	3.4
449.883	3.4
450.238	3.41
450.592	3.41
450.946	3.42
451.3	3.43
451.654	3.42
452.008	3.41
452.362	3.38
452.716	3.37
453.07	3.35
453.424	3.34
453.778	3.34
454.132	3.33
454.486	3.33
454.839	3.35
455.193	3.36
455.547	3.36
455.9	3.33
456.254	3.34
456.607	3.34
456.961	3.3
457.314	3.31
457.668	3.31
458.021	3.31
458.375	3.31
458.728	3.31
459.081	3.32
459.434	3.31
459.787	3.34
460.141	3.33
460.494	3.35
460.847	3.36
461.2	3.37
461.553	3.39
461.906	3.4
462.259	3.39
462.611	3.39
462.964	3.4
463.317	3.42
463.67	3.44
464.022	3.46
464.375	3.48
464.728	3.5
465.08	3.5
465.433	3.52
465.785	3.54
466.138	3.54
466.49	3.54
466.843	3.59
467.195	3.59
467.547	3.62
467.899	3.65
468.252	3.66
468.604	3.7
468.956	3.71
469.308	3.71
469.66	3.74
470.012	3.75
470.364	3.75
470.716	3.78
471.068	3.77
471.42	3.79
471.772	3.83
472.123	3.83
472.475	3.85
472.827	3.85
473.178	3.83
473.53	3.83
473.882	3.85
474.233	3.83
474.585	3.82
474.936	3.83
475.288	3.8
475.639	3.81
475.99	3.77
476.342	3.78
476.693	3.78
477.044	3.78
477.395	3.79
477.746	3.79
478.097	3.79
478.448	3.78
478.8	3.77
479.15	3.74
479.501	3.7
479.852	3.7
480.203	3.71
480.554	3.72
480.905	3.71
481.255	3.71
481.606	3.71
481.957	3.7
482.307	3.7
482.658	3.71
483.009	3.69
483.359	3.71
483.709	3.71
484.06	3.71
484.41	3.7
484.761	3.7
485.111	3.69
485.461	3.69
485.811	3.68
486.162	3.68
486.512	3.68
486.862	3.69
487.212	3.68
487.562	3.67
487.912	3.67
488.262	3.66
488.612	3.67
488.961	3.67
489.311	3.67
489.661	3.67
490.011	3.66
490.36	3.67
490.71	3.67
491.06	3.67
491.409	3.66
491.759	3.67
492.108	3.68
492.458	3.69
492.807	3.7
493.157	3.72
493.506	3.73
493.855	3.74
494.204	3.74
494.554	3.77
494.903	3.79
495.252	3.82
495.601	3.86
495.95	3.88
496.299	3.91
496.648	3.94
496.997	3.98
497.346	4.05
497.695	4.08
498.043	4.12
498.392	4.17
498.741	4.2
499.09	4.26
499.438	4.32
499.787	4.36
500.135	4.41
500.484	4.44
500.832	4.51
501.181	4.6
501.529	4.7
501.878	4.78
502.226	4.88
502.574	4.95
502.923	5.01
503.271	5.1
503.619	5.19
503.967	5.31
504.315	5.41
504.663	5.54
505.011	5.65
505.359	5.75
505.707	5.86
506.055	5.99
506.403	6.11
506.751	6.21
507.098	6.36
507.446	6.52
507.794	6.66
508.141	6.8
508.489	6.97
508.837	7.1
509.184	7.23
509.531	7.36
509.879	7.53
510.226	7.73
510.574	7.89
510.921	8.05
511.268	8.2
511.616	8.37
511.963	8.54
512.31	8.74
512.657	8.93
513.004	9.11
513.351	9.31
513.698	9.53
514.045	9.72
514.392	9.94
514.739	10.15
515.086	10.36
515.432	10.57
515.779	10.76
516.126	10.96
516.473	11.18
516.819	11.37
517.166	11.54
517.512	11.68
517.859	11.85
518.205	12.02
518.552	12.18
518.898	12.33
519.245	12.48
519.591	12.63
519.937	12.75
520.283	12.94
520.629	13.13
520.976	13.3
521.322	13.53
521.668	13.7
522.014	13.91
522.36	14.13
522.706	14.33
523.052	14.57
523.398	14.8
523.743	15.05
524.089	15.31
524.435	15.56
524.781	15.8
525.126	16.04
525.472	16.25
525.817	16.43
526.163	16.58
526.509	16.73
526.854	16.86
527.199	17.04
527.545	17.18
527.89	17.33
528.235	17.48
528.581	17.63
528.926	17.79
529.271	17.93
529.616	18.08
529.961	18.24
530.306	18.39
530.651	18.57
530.996	18.75
531.341	18.92
531.686	19.09
532.031	19.29
532.376	19.46
532.721	19.62
533.065	19.83
533.41	20.05
533.755	20.3
534.099	20.58
534.444	20.76
534.788	20.96
535.133	21.16
535.477	21.37
535.822	21.61
536.166	21.85
536.51	22.11
536.855	22.38
537.199	22.66
537.543	22.95
537.887	23.23
538.231	23.52
538.576	23.81
538.92	24.09
539.264	24.34
539.608	24.61
539.951	24.89
540.295	25.12
540.639	25.37
540.983	25.55
541.327	25.73
541.671	25.96
542.014	26.19
542.358	26.43
542.701	26.63
543.045	26.81
543.389	27.02
543.732	27.23
544.075	27.44
544.419	27.64
544.762	27.85
545.105	28.07
545.449	28.28
545.792	28.54
546.135	28.79
546.478	29.07
546.821	29.35
547.165	29.63
547.508	29.9
547.851	30.16
548.194	30.43
548.536	30.72
548.879	31.02
549.222	31.31
549.565	31.57
549.908	31.84
550.25	32.11
550.593	32.42
550.936	32.7
551.278	33.03
551.621	33.29
551.963	33.61
552.306	33.85
552.648	34.07
552.991	34.29
553.333	34.55
553.675	34.78
554.017	35.02
554.36	35.24
554.702	35.46
555.044	35.66
555.386	35.94
555.728	36.21
556.07	36.42
556.412	36.65
556.754	36.83
557.096	37.09
557.438	37.39
557.78	37.61
558.121	37.81
558.463	38.03
558.805	38.34
559.147	38.5
559.488	38.77
559.83	39.09
560.171	39.29
560.513	39.47
560.854	39.74
561.196	39.99
561.537	40.21
561.878	40.46
562.22	40.66
562.561	40.84
562.902	41.01
563.243	41.21
563.584	41.4
563.925	41.67
564.266	41.85
564.607	41.95
564.948	42.14
565.289	42.34
565.63	42.49
565.971	42.6
566.312	42.79
566.653	42.94
566.993	43.05
567.334	43.28
567.675	43.51
568.015	43.61
568.356	43.79
568.696	43.92
569.037	44.06
569.377	44.21
569.718	44.31
570.058	44.45
570.398	44.65
570.739	44.8
571.079	44.94
571.419	45.16
571.759	45.29
572.099	45.4
572.439	45.51
572.779	45.57
573.119	45.76
573.459	45.89
573.799	45.98
574.139	46.12
574.479	46.18
574.819	46.28
575.158	46.41
575.498	46.49
575.838	46.61
576.177	46.73
576.517	46.89
576.856	47
577.196	47.13
577.535	47.24
577.875	47.4
578.214	47.49
578.553	47.51
578.893	47.65
579.232	47.79
579.571	47.97
579.91	48.25
580.25	48.29
580.589	48.37
580.928	48.52
581.267	48.64
581.606	48.78
581.945	48.8
582.283	48.9
582.622	48.87
582.961	49.01
583.3	49.07
583.639	49.19
583.977	49.37
584.316	49.48
584.654	49.54
584.993	49.62
585.332	49.65
585.67	49.76
586.008	49.88
586.347	49.98
586.685	50.09
587.024	50.08
587.362	50.12
587.7	50.23
588.038	50.29
588.376	50.4
588.715	50.5
589.053	50.62
589.391	50.7
589.729	50.78
590.067	50.9
590.404	50.97
590.742	50.93
591.08	50.97
591.418	51.07
591.756	51.12
592.093	51.17
592.431	51.32
592.769	51.36
593.106	51.41
593.444	51.41
593.781	51.47
594.119	51.48
594.456	51.56
594.793	51.64
595.131	51.77
595.468	51.79
595.805	51.85
596.143	51.91
596.48	51.98
596.817	52.18
597.154	52.19
597.491	52.25
597.828	52.37
598.165	52.47
598.502	52.53
598.839	52.61
599.176	52.67
599.512	52.7
599.849	52.84
600.186	52.92
600.523	53.08
600.859	53.17
601.196	53.26
601.532	53.41
601.869	53.46
602.205	53.49
602.542	53.48
602.878	53.43
603.215	53.45
603.551	53.55
603.887	53.56
604.223	53.6
604.56	53.6
604.896	53.64
605.232	53.7
605.568	53.72
605.904	53.71
606.24	53.78
606.576	53.77
606.912	53.76
607.248	53.8
607.583	53.82
607.919	53.81
608.255	53.86
608.591	53.81
608.926	53.84
609.262	53.86
609.597	53.9
609.933	54.08
610.268	54.15
610.604	54.06
610.939	54.11
611.275	54.08
611.61	54.2
611.945	54.19
612.281	54.23
612.616	54.22
612.951	54.3
613.286	54.3
613.621	54.46
613.956	54.51
614.291	54.59
614.626	54.64
614.961	54.72
615.296	54.79
615.631	54.96
615.966	55.05
616.3	55.13
616.635	55.37
616.97	55.4
617.304	55.46
617.639	55.54
617.973	55.49
618.308	55.67
618.642	55.65
618.977	55.79
619.311	55.78
619.646	55.86
619.98	55.89
620.314	55.9
620.648	55.86
620.983	55.87
621.317	55.87
621.651	55.84
621.985	55.92
622.319	55.85
622.653	55.81
622.987	55.77
623.321	55.86
623.655	55.75
623.988	55.73
624.322	55.67
624.656	55.67
624.99	55.66
625.323	55.72
625.657	55.75
625.99	55.67
626.324	55.68
626.657	55.66
626.991	55.64
627.324	55.6
627.658	55.67
627.991	55.71
628.324	55.77
628.657	55.83
628.991	55.82
629.324	55.94
629.657	55.94
629.99	56.05
630.323	55.99
630.656	55.9
630.989	56
631.322	56.05
631.655	56.17
631.987	56.28
632.32	56.21
632.653	56.16
632.986	56.29
633.318	56.33
633.651	56.37
633.984	56.47
634.316	56.58
634.649	56.61
634.981	56.61
635.313	56.46
635.646	56.44
635.978	56.43
636.31	56.44
636.643	56.49
636.975	56.49
637.307	56.51
637.639	56.57
637.971	56.54
638.303	56.63
638.635	56.55
638.967	56.44
639.299	56.46
639.631	56.64
639.963	56.55
640.295	56.57
640.626	56.69
640.958	56.71
641.29	56.72
641.621	56.64
641.953	56.74
642.285	56.89
642.616	57.06
642.948	57.07
643.279	57.08
643.61	57.11
643.942	57.06
644.273	57.09
644.604	57.17
644.936	57.19
645.267	57.1
645.598	57.16
645.929	57.27
646.26	57.34
646.591	57.35
646.922	57.5
647.253	57.48
647.584	57.45
647.915	57.43
648.245	57.41
648.576	57.33
648.907	57.34
649.238	57.4
649.568	57.33
649.899	57.35
650.229	57.33
650.56	57.29
650.89	57.35
651.221	57.37
651.551	57.34
651.882	57.39
652.212	57.47
652.542	57.61
652.872	57.7
653.203	57.69
653.533	57.69
653.863	57.69
654.193	57.82
654.523	57.8
654.853	57.87
655.183	57.88
655.513	58
655.843	57.89
656.172	57.88
656.502	57.81
656.832	57.77
657.162	57.83
657.491	57.9
657.821	58.04
658.15	58.12
658.48	58.23
658.809	58.13
659.139	58.19
659.468	58.14
659.798	58.12
660.127	58.1
660.456	58.05
660.785	57.98
661.115	57.92
661.444	57.96
661.773	57.93
662.102	58.05
662.431	58.08
662.76	58.12
663.089	58.17
663.418	58.16
663.747	58.32
664.076	58.3
664.404	58.35
664.733	58.16
665.062	58.05
665.39	58.05
665.719	58.08
666.048	57.9
