Data from MVZ_BU95633_Reflection_00015.txt Node
Date: Tue Nov 19 12:21:23 EST 2019
User: vgr7
Spectrometer: USB2G7710
Scans to average: 3
Trigger mode: 4
Integration Time (sec): 2.000000E-2
Electric dark correction enabled: true
Boxcar width: 10
XAxis mode: Wavelengths
Number of Pixels in Spectrum: 2048
>>>>>Begin Spectral Data<<<<<
177.721	2.37
178.105	42.03
178.488	71.53
178.871	510
179.254	-281.82
179.636	264.18
180.019	56.04
180.402	46.43
180.785	394.74
181.168	180.42
181.55	127.62
181.933	160.11
182.316	199.29
182.698	43.32
183.081	93.71
183.463	111.05
183.846	77.59
184.228	129.7
184.611	205.59
184.993	222.58
185.376	689.74
185.758	1004.76
186.14	-814.29
186.522	-198.97
186.904	-100
187.287	-295.35
187.669	-94.59
188.051	-162.3
188.433	-184.15
188.815	-105.78
189.197	-79.4
189.579	-63.14
189.961	-71.31
190.342	-92.12
190.724	-133.77
191.106	-132.07
191.488	-95.34
191.869	-59.13
192.251	-33.03
192.633	-62.84
193.014	-48.09
193.396	-85.27
193.777	-86.25
194.159	-90.74
194.54	-133.68
194.922	-149.01
195.303	-131.75
195.684	-163.67
196.065	-142.74
196.447	-149.36
196.828	-173.93
197.209	-166.49
197.59	-119.46
197.971	-109.21
198.352	-105.27
198.733	-124.42
199.114	-117.32
199.495	-112.98
199.876	-124.96
200.257	-180.74
200.638	-143.07
201.018	-144.31
201.399	-110.13
201.78	-111
202.16	-86.39
202.541	-87.89
202.922	-95.22
203.302	-101.77
203.683	-94.07
204.063	-96.46
204.444	-92.98
204.824	-78.06
205.204	-69.45
205.585	-73.75
205.965	-80.31
206.345	-73.01
206.725	-47.49
207.106	-35.95
207.486	-34.39
207.866	-41.29
208.246	-33.59
208.626	-47.97
209.006	-47.54
209.386	-52.1
209.766	-56.76
210.145	-65.04
210.525	-65.36
210.905	-62.99
211.285	-68.77
211.664	-57.33
212.044	-64.78
212.424	-55.12
212.803	-65.47
213.183	-68.16
213.562	-65.48
213.942	-66.84
214.321	-85.49
214.701	-120.31
215.08	-116.69
215.459	-99.44
215.838	-119.08
216.218	-123.9
216.597	-111.16
216.976	-136.29
217.355	-100.64
217.734	-110.44
218.113	-104.15
218.492	-123.99
218.871	-96.9
219.25	-79.62
219.629	-102.78
220.008	-88.48
220.387	-82.95
220.766	-76.3
221.144	-66.92
221.523	-91.2
221.902	-62.66
222.28	-44.13
222.659	-25.12
223.037	-29.92
223.416	-37.33
223.794	-25.71
224.173	-24.69
224.551	-26.27
224.929	-22.01
225.308	-22.95
225.686	-18.41
226.064	-20.56
226.442	-14.79
226.821	-17.31
227.199	-23.29
227.577	-19.38
227.955	-17.23
228.333	-17.76
228.711	-10.94
229.089	-10.43
229.467	-4.82
229.845	-7.5
230.222	-5.65
230.6	-7.56
230.978	-7.87
231.356	-6.41
231.733	-5.05
232.111	-4.94
232.488	-3.06
232.866	-3
233.243	-4.93
233.621	-3.77
233.998	-3.33
234.376	-3.95
234.753	-2.24
235.13	-0.7
235.508	-1.45
235.885	-1.12
236.262	-2.06
236.639	-3.87
237.016	-3.58
237.393	-1.87
237.77	1.31
238.147	1.28
238.524	0.61
238.901	0.18
239.278	-0.11
239.655	-0.46
240.032	-0.69
240.409	-0.22
240.785	0.14
241.162	0.5
241.539	0.27
241.915	0.74
242.292	1.39
242.668	1.7
243.045	2.33
243.421	2.84
243.798	3.02
244.174	3.36
244.551	3.82
244.927	3.95
245.303	3.65
245.679	3.31
246.056	3.22
246.432	3.32
246.808	3.5
247.184	3.66
247.56	3.81
247.936	4.07
248.312	3.99
248.688	3.76
249.064	3.81
249.44	3.82
249.815	3.9
250.191	3.68
250.567	3.29
250.943	2.95
251.318	2.55
251.694	2.31
252.069	2.25
252.445	2
252.82	1.93
253.196	1.8
253.571	1.86
253.947	1.6
254.322	1.74
254.697	2.01
255.073	2.15
255.448	2.14
255.823	2.15
256.198	2.14
256.573	2.24
256.948	2.4
257.323	2.66
257.698	2.8
258.073	2.88
258.448	3.19
258.823	3.19
259.198	3.42
259.573	3.51
259.948	3.5
260.322	3.48
260.697	3.59
261.072	3.69
261.446	3.66
261.821	3.69
262.195	3.5
262.57	3.44
262.944	3.34
263.319	3.33
263.693	3.42
264.067	3.4
264.442	3.52
264.816	3.52
265.19	3.33
265.564	2.91
265.938	2.97
266.313	2.68
266.687	2.85
267.061	2.78
267.435	2.66
267.809	2.48
268.183	2.34
268.556	1.99
268.93	2.03
269.304	2.11
269.678	2.49
270.051	2.68
270.425	2.4
270.799	2.25
271.172	2.28
271.546	2.24
271.919	2.37
272.293	2.27
272.666	2.33
273.04	2.36
273.413	2.61
273.787	2.51
274.16	2.66
274.533	2.55
274.906	2.44
275.279	2.34
275.653	2.31
276.026	2.29
276.399	2.33
276.772	2.25
277.145	2.15
277.518	1.83
277.891	1.84
278.263	2.01
278.636	2.39
279.009	2.61
279.382	2.41
279.755	2.27
280.127	2.48
280.5	2.46
280.872	2.48
281.245	2.48
281.617	2.61
281.99	2.71
282.362	2.79
282.735	2.92
283.107	3
283.479	3.16
283.852	3.45
284.224	3.49
284.596	3.4
284.968	3.28
285.34	3.34
285.713	3.36
286.085	3.35
286.457	3.05
286.829	2.91
287.201	3.07
287.572	3.2
287.944	3.15
288.316	3.09
288.688	3.17
289.06	3.15
289.431	3.24
289.803	3.21
290.175	3.15
290.546	3.19
290.918	3.28
291.289	3.23
291.661	3.02
292.032	2.95
292.403	2.91
292.775	2.97
293.146	3.05
293.517	2.96
293.889	2.93
294.26	3.22
294.631	3.3
295.002	3.23
295.373	3.24
295.744	3.25
296.115	3.32
296.486	3.27
296.857	3.36
297.228	3.22
297.599	3.13
297.97	3.17
298.34	3.3
298.711	3.26
299.082	3.28
299.452	3.38
299.823	3.52
300.194	3.7
300.564	3.82
300.935	3.82
301.305	3.83
301.676	3.92
302.046	3.85
302.416	3.94
302.787	4.07
303.157	4.04
303.527	4.18
303.897	4.2
304.267	4.32
304.637	4.34
305.008	4.41
305.378	4.61
305.748	4.68
306.117	4.69
306.487	4.69
306.857	4.8
307.227	4.82
307.597	4.78
307.967	4.85
308.336	4.86
308.706	4.78
309.076	4.98
309.445	5.08
309.815	5.08
310.184	4.96
310.554	4.97
310.923	5.05
311.293	4.94
311.662	4.94
312.031	4.95
312.401	4.93
312.77	4.93
313.139	4.89
313.508	4.84
313.877	4.85
314.246	4.97
314.616	4.99
314.985	4.93
315.353	5
315.722	5.01
316.091	5.03
316.46	5.12
316.829	5.11
317.198	5.12
317.567	5.32
317.935	5.55
318.304	5.56
318.672	5.54
319.041	5.64
319.41	5.62
319.778	5.68
320.147	5.58
320.515	5.76
320.883	5.74
321.252	5.89
321.62	5.75
321.988	5.81
322.357	5.83
322.725	5.92
323.093	5.98
323.461	6.18
323.829	6.28
324.197	6.42
324.565	6.45
324.933	6.37
325.301	6.28
325.669	6.12
326.037	6.07
326.405	6.22
326.772	6.24
327.14	6.24
327.508	6.27
327.875	6.46
328.243	6.45
328.61	6.56
328.978	6.62
329.346	6.71
329.713	6.79
330.08	6.92
330.448	6.83
330.815	6.85
331.182	6.49
331.55	6.38
331.917	6.22
332.284	6.2
332.651	6.35
333.018	6.41
333.385	6.43
333.752	6.57
334.119	6.51
334.486	6.59
334.853	6.74
335.22	6.69
335.587	6.62
335.954	6.55
336.32	6.39
336.687	6.34
337.054	6.42
337.42	6.43
337.787	6.44
338.153	6.6
338.52	6.66
338.886	6.94
339.253	7.06
339.619	7.29
339.986	7.31
340.352	7.45
340.718	7.35
341.084	7.38
341.451	7.37
341.817	7.36
342.183	7.19
342.549	7.12
342.915	7.14
343.281	7.25
343.647	7.36
344.013	7.51
344.379	7.58
344.745	7.56
345.11	7.53
345.476	7.57
345.842	7.57
346.208	7.54
346.573	7.44
346.939	7.55
347.304	7.41
347.67	7.36
348.035	7.16
348.401	7.09
348.766	7.17
349.132	7.11
349.497	7.17
349.862	7.38
350.228	7.38
350.593	7.41
350.958	7.46
351.323	7.41
351.688	7.41
352.053	7.37
352.418	7.42
352.783	7.46
353.148	7.38
353.513	7.39
353.878	7.28
354.243	7.17
354.608	7.09
354.972	7.07
355.337	7.08
355.702	7.08
356.066	7.21
356.431	7.24
356.795	7.31
357.16	7.27
357.524	7.28
357.889	7.35
358.253	7.26
358.618	7.1
358.982	7.09
359.346	7.07
359.71	7
360.075	6.95
360.439	7
360.803	7.05
361.167	6.95
361.531	6.93
361.895	7.04
362.259	7.01
362.623	7.08
362.987	7.07
363.351	7.06
363.714	6.98
364.078	6.95
364.442	6.94
364.806	6.92
365.169	6.75
365.533	6.71
365.896	6.7
366.26	6.77
366.623	6.76
366.987	6.71
367.35	6.76
367.714	6.69
368.077	6.66
368.44	6.55
368.803	6.48
369.167	6.5
369.53	6.41
369.893	6.38
370.256	6.26
370.619	6.26
370.982	6.19
371.345	6.19
371.708	6.1
372.071	6.02
372.434	5.96
372.797	5.95
373.159	5.83
373.522	5.81
373.885	5.74
374.247	5.65
374.61	5.66
374.973	5.6
375.335	5.63
375.698	5.54
376.06	5.52
376.423	5.57
376.785	5.57
377.147	5.46
377.51	5.42
377.872	5.41
378.234	5.37
378.596	5.37
378.958	5.27
379.321	5.24
379.683	5.2
380.045	5.14
380.407	5.17
380.769	5.1
381.13	5.07
381.492	5.03
381.854	5
382.216	4.95
382.578	4.94
382.939	4.89
383.301	4.84
383.663	4.84
384.024	4.85
384.386	4.76
384.747	4.8
385.109	4.75
385.47	4.72
385.832	4.64
386.193	4.64
386.554	4.64
386.916	4.64
387.277	4.58
387.638	4.58
387.999	4.52
388.36	4.57
388.721	4.56
389.082	4.53
389.443	4.51
389.804	4.49
390.165	4.45
390.526	4.37
390.887	4.37
391.248	4.32
391.609	4.31
391.969	4.33
392.33	4.27
392.691	4.31
393.051	4.27
393.412	4.29
393.772	4.25
394.133	4.28
394.493	4.2
394.854	4.21
395.214	4.21
395.574	4.2
395.935	4.14
396.295	4.11
396.655	4.09
397.015	4.08
397.376	4.09
397.736	4.04
398.096	4.08
398.456	4.01
398.816	4
399.176	3.91
399.535	3.91
399.895	3.92
400.255	3.85
400.615	3.87
400.975	3.82
401.334	3.78
401.694	3.71
402.054	3.73
402.413	3.71
402.773	3.69
403.132	3.66
403.492	3.67
403.851	3.62
404.211	3.59
404.57	3.58
404.929	3.55
405.288	3.54
405.648	3.52
406.007	3.5
406.366	3.48
406.725	3.49
407.084	3.47
407.443	3.44
407.802	3.46
408.161	3.46
408.52	3.5
408.879	3.53
409.238	3.55
409.596	3.55
409.955	3.55
410.314	3.54
410.673	3.54
411.031	3.51
411.39	3.52
411.748	3.55
412.107	3.52
412.465	3.51
412.824	3.54
413.182	3.54
413.54	3.56
413.899	3.57
414.257	3.58
414.615	3.56
414.974	3.58
415.332	3.54
415.69	3.49
416.048	3.43
416.406	3.4
416.764	3.41
417.122	3.4
417.48	3.38
417.838	3.36
418.195	3.33
418.553	3.35
418.911	3.34
419.269	3.34
419.626	3.33
419.984	3.32
420.342	3.3
420.699	3.29
421.057	3.28
421.414	3.27
421.772	3.26
422.129	3.24
422.486	3.23
422.844	3.23
423.201	3.22
423.558	3.22
423.915	3.23
424.273	3.2
424.63	3.2
424.987	3.2
425.344	3.19
425.701	3.2
426.058	3.2
426.415	3.2
426.772	3.2
427.128	3.2
427.485	3.19
427.842	3.19
428.199	3.17
428.555	3.14
428.912	3.13
429.269	3.12
429.625	3.13
429.982	3.12
430.338	3.1
430.695	3.09
431.051	3.09
431.407	3.09
431.764	3.08
432.12	3.08
432.476	3.09
432.832	3.1
433.189	3.08
433.545	3.06
433.901	3.07
434.257	3.08
434.613	3.08
434.969	3.09
435.325	3.07
435.681	3.08
436.036	3.11
436.392	3.11
436.748	3.12
437.104	3.14
437.459	3.16
437.815	3.18
438.171	3.2
438.526	3.21
438.882	3.21
439.237	3.22
439.593	3.23
439.948	3.25
440.304	3.23
440.659	3.23
441.014	3.24
441.369	3.25
441.725	3.26
442.08	3.27
442.435	3.28
442.79	3.3
443.145	3.3
443.5	3.3
443.855	3.3
444.21	3.3
444.565	3.29
444.92	3.28
445.275	3.27
445.629	3.26
445.984	3.24
446.339	3.26
446.693	3.26
447.048	3.24
447.403	3.22
447.757	3.24
448.112	3.27
448.466	3.26
448.82	3.25
449.175	3.23
449.529	3.23
449.883	3.22
450.238	3.19
450.592	3.18
450.946	3.17
451.3	3.17
451.654	3.16
452.008	3.15
452.362	3.16
452.716	3.16
453.07	3.18
453.424	3.17
453.778	3.16
454.132	3.15
454.486	3.16
454.839	3.18
455.193	3.18
455.547	3.15
455.9	3.14
456.254	3.14
456.607	3.13
456.961	3.15
457.314	3.17
457.668	3.18
458.021	3.19
458.375	3.18
458.728	3.19
459.081	3.19
459.434	3.18
459.787	3.18
460.141	3.18
460.494	3.17
460.847	3.19
461.2	3.18
461.553	3.18
461.906	3.18
462.259	3.17
462.611	3.19
462.964	3.19
463.317	3.21
463.67	3.19
464.022	3.2
464.375	3.18
464.728	3.18
465.08	3.19
465.433	3.22
465.785	3.25
466.138	3.27
466.49	3.31
466.843	3.33
467.195	3.35
467.547	3.36
467.899	3.38
468.252	3.37
468.604	3.38
468.956	3.42
469.308	3.41
469.66	3.45
470.012	3.43
470.364	3.45
470.716	3.46
471.068	3.49
471.42	3.51
471.772	3.53
472.123	3.54
472.475	3.56
472.827	3.52
473.178	3.52
473.53	3.5
473.882	3.5
474.233	3.5
474.585	3.47
474.936	3.5
475.288	3.5
475.639	3.54
475.99	3.55
476.342	3.54
476.693	3.55
477.044	3.53
477.395	3.52
477.746	3.52
478.097	3.53
478.448	3.52
478.8	3.51
479.15	3.51
479.501	3.5
479.852	3.48
480.203	3.47
480.554	3.46
480.905	3.47
481.255	3.47
481.606	3.47
481.957	3.47
482.307	3.46
482.658	3.45
483.009	3.44
483.359	3.44
483.709	3.44
484.06	3.44
484.41	3.44
484.761	3.45
485.111	3.45
485.461	3.44
485.811	3.44
486.162	3.44
486.512	3.44
486.862	3.43
487.212	3.43
487.562	3.44
487.912	3.44
488.262	3.43
488.612	3.43
488.961	3.44
489.311	3.44
489.661	3.43
490.011	3.44
490.36	3.44
490.71	3.45
491.06	3.44
491.409	3.44
491.759	3.44
492.108	3.45
492.458	3.43
492.807	3.44
493.157	3.45
493.506	3.47
493.855	3.47
494.204	3.49
494.554	3.5
494.903	3.5
495.252	3.52
495.601	3.56
495.95	3.57
496.299	3.59
496.648	3.61
496.997	3.64
497.346	3.69
497.695	3.72
498.043	3.75
498.392	3.81
498.741	3.82
499.09	3.87
499.438	3.91
499.787	3.97
500.135	4.01
500.484	4.05
500.832	4.09
501.181	4.15
501.529	4.19
501.878	4.26
502.226	4.35
502.574	4.42
502.923	4.47
503.271	4.55
503.619	4.63
503.967	4.74
504.315	4.83
504.663	4.91
505.011	4.99
505.359	5.09
505.707	5.18
506.055	5.32
506.403	5.43
506.751	5.54
507.098	5.69
507.446	5.83
507.794	5.97
508.141	6.11
508.489	6.25
508.837	6.37
509.184	6.52
509.531	6.67
509.879	6.82
510.226	6.99
510.574	7.17
510.921	7.36
511.268	7.51
511.616	7.7
511.963	7.92
512.31	8.13
512.657	8.34
513.004	8.55
513.351	8.75
513.698	8.98
514.045	9.26
514.392	9.5
514.739	9.77
515.086	10.02
515.432	10.32
515.779	10.57
516.126	10.86
516.473	11.12
516.819	11.35
517.166	11.6
517.512	11.83
517.859	12.07
518.205	12.25
518.552	12.51
518.898	12.71
519.245	12.89
519.591	13.1
519.937	13.36
520.283	13.62
520.629	13.92
520.976	14.18
521.322	14.44
521.668	14.74
522.014	15.02
522.36	15.32
522.706	15.57
523.052	15.91
523.398	16.22
523.743	16.58
524.089	16.93
524.435	17.24
524.781	17.56
525.126	17.81
525.472	18.12
525.817	18.36
526.163	18.59
526.509	18.84
526.854	19.03
527.199	19.2
527.545	19.38
527.89	19.56
528.235	19.75
528.581	19.94
528.926	20.11
529.271	20.28
529.616	20.46
529.961	20.66
530.306	20.85
530.651	21.07
530.996	21.28
531.341	21.52
531.686	21.77
532.031	22
532.376	22.25
532.721	22.47
533.065	22.7
533.41	22.96
533.755	23.19
534.099	23.45
534.444	23.69
534.788	23.93
535.133	24.16
535.477	24.41
535.822	24.68
536.166	24.94
536.51	25.22
536.855	25.52
537.199	25.78
537.543	26.06
537.887	26.32
538.231	26.61
538.576	26.86
538.92	27.13
539.264	27.36
539.608	27.58
539.951	27.82
540.295	28.06
540.639	28.25
540.983	28.42
541.327	28.63
541.671	28.85
542.014	29.05
542.358	29.26
542.701	29.44
543.045	29.6
543.389	29.78
543.732	29.98
544.075	30.17
544.419	30.37
544.762	30.56
545.105	30.78
545.449	30.96
545.792	31.19
546.135	31.4
546.478	31.66
546.821	31.92
547.165	32.14
547.508	32.33
547.851	32.6
548.194	32.91
548.536	33.15
548.879	33.33
549.222	33.56
549.565	33.73
549.908	33.93
550.25	34.15
550.593	34.33
550.936	34.51
551.278	34.68
551.621	34.88
551.963	35.15
552.306	35.36
552.648	35.56
552.991	35.72
553.333	35.9
553.675	36.08
554.017	36.29
554.36	36.47
554.702	36.67
555.044	36.85
555.386	36.95
555.728	37.12
556.07	37.29
556.412	37.47
556.754	37.66
557.096	37.9
557.438	38.09
557.78	38.3
558.121	38.5
558.463	38.73
558.805	38.93
559.147	39.06
559.488	39.15
559.83	39.3
560.171	39.51
560.513	39.71
560.854	39.89
561.196	39.95
561.537	40.08
561.878	40.22
562.22	40.41
562.561	40.64
562.902	40.79
563.243	40.97
563.584	41.09
563.925	41.27
564.266	41.3
564.607	41.4
564.948	41.5
565.289	41.6
565.63	41.78
565.971	41.9
566.312	42.05
566.653	42.21
566.993	42.31
567.334	42.42
567.675	42.48
568.015	42.51
568.356	42.64
568.696	42.79
569.037	42.92
569.377	42.93
569.718	42.96
570.058	43.05
570.398	43.15
570.739	43.23
571.079	43.26
571.419	43.41
571.759	43.51
572.099	43.63
572.439	43.71
572.779	43.74
573.119	43.86
573.459	43.86
573.799	43.96
574.139	44.07
574.479	44.16
574.819	44.28
575.158	44.39
575.498	44.48
575.838	44.52
576.177	44.57
576.517	44.7
576.856	44.79
577.196	44.88
577.535	44.92
577.875	45.01
578.214	45.13
578.553	45.23
578.893	45.28
579.232	45.36
579.571	45.49
579.91	45.56
580.25	45.58
580.589	45.68
580.928	45.74
581.267	45.79
581.606	45.83
581.945	45.86
582.283	46
582.622	46.02
582.961	46.11
583.3	46.27
583.639	46.29
583.977	46.4
584.316	46.43
584.654	46.54
584.993	46.64
585.332	46.78
585.67	46.85
586.008	46.93
586.347	47.04
586.685	47.1
587.024	47.23
587.362	47.31
587.7	47.47
588.038	47.52
588.376	47.67
588.715	47.83
589.053	47.87
589.391	47.93
589.729	48.07
590.067	48.09
590.404	48.07
590.742	48.08
591.08	48.14
591.418	48.23
591.756	48.31
592.093	48.44
592.431	48.5
592.769	48.53
593.106	48.59
593.444	48.61
593.781	48.58
594.119	48.65
594.456	48.74
594.793	48.73
595.131	48.73
595.468	48.71
595.805	48.66
596.143	48.76
596.48	48.72
596.817	48.73
597.154	48.83
597.491	48.87
597.828	49.02
598.165	49.04
598.502	49.11
598.839	49.12
599.176	49.12
599.512	49.13
599.849	49.3
600.186	49.37
600.523	49.44
600.859	49.55
601.196	49.53
601.532	49.57
601.869	49.64
602.205	49.76
602.542	49.85
602.878	50
603.215	49.97
603.551	50.05
603.887	50.13
604.223	50.17
604.56	50.22
604.896	50.22
605.232	50.32
605.568	50.32
605.904	50.35
606.24	50.39
606.576	50.43
606.912	50.38
607.248	50.46
607.583	50.48
607.919	50.48
608.255	50.5
608.591	50.45
608.926	50.46
609.262	50.47
609.597	50.44
609.933	50.38
610.268	50.52
610.604	50.63
610.939	50.6
611.275	50.63
611.61	50.71
611.945	50.76
612.281	50.84
612.616	50.82
612.951	50.89
613.286	50.86
613.621	50.89
613.956	50.96
614.291	50.89
614.626	51.03
614.961	51.08
615.296	51.2
615.631	51.3
615.966	51.37
616.3	51.39
616.635	51.44
616.97	51.45
617.304	51.5
617.639	51.43
617.973	51.49
618.308	51.58
618.642	51.57
618.977	51.6
619.311	51.49
619.646	51.47
619.98	51.56
620.314	51.6
620.648	51.67
620.983	51.71
621.317	51.84
621.651	51.8
621.985	51.86
622.319	51.8
622.653	51.93
622.987	52.01
623.321	52.04
623.655	52.11
623.988	52.24
624.322	52.2
624.656	52.21
624.99	52.22
625.323	52.13
625.657	52.1
625.99	52.07
626.324	52.12
626.657	52.29
626.991	52.31
627.324	52.3
627.658	52.25
627.991	52.28
628.324	52.26
628.657	52.21
628.991	52.17
629.324	52.33
629.657	52.37
629.99	52.27
630.323	52.21
630.656	52.19
630.989	52.14
631.322	52.14
631.655	52.08
631.987	52.13
632.32	52.16
632.653	52.17
632.986	52.22
633.318	52.35
633.651	52.35
633.984	52.32
634.316	52.28
634.649	52.3
634.981	52.29
635.313	52.45
635.646	52.5
635.978	52.62
636.31	52.5
636.643	52.37
636.975	52.41
637.307	52.49
637.639	52.49
637.971	52.41
638.303	52.42
638.635	52.63
638.967	52.71
639.299	52.66
639.631	52.67
639.963	52.77
640.295	52.63
640.626	52.57
640.958	52.57
641.29	52.7
641.621	52.75
641.953	52.63
642.285	52.44
642.616	52.55
642.948	52.48
643.279	52.61
643.61	52.75
643.942	52.75
644.273	52.74
644.604	52.78
644.936	53.01
645.267	52.96
645.598	52.92
645.929	52.88
646.26	52.98
646.591	52.97
646.922	52.98
647.253	53.05
647.584	53.09
647.915	53.11
648.245	53.07
648.576	53.05
648.907	53.14
649.238	53.14
649.568	53.05
649.899	53.1
650.229	53.04
650.56	53.03
650.89	53.09
651.221	53.24
651.551	53.22
651.882	53.18
652.212	53.21
652.542	53.29
652.872	53.32
653.203	53.39
653.533	53.58
653.863	53.48
654.193	53.39
654.523	53.37
654.853	53.51
655.183	53.57
655.513	53.68
655.843	53.71
656.172	53.83
656.502	53.93
656.832	54.04
657.162	54.13
657.491	54.15
657.821	54.17
658.15	54.13
658.48	54.21
658.809	54.16
659.139	54.28
659.468	54.15
659.798	54.23
660.127	54.19
660.456	54.12
660.785	54.23
661.115	54.4
661.444	54.51
661.773	54.46
662.102	54.48
662.431	54.46
662.76	54.43
663.089	54.38
663.418	54.4
663.747	54.29
664.076	54.25
664.404	54.22
664.733	54.24
665.062	54.3
665.39	54.2
