Data from MVZ_BU62167_Reflection_00011.txt Node
Date: Tue Nov 19 12:14:38 EST 2019
User: vgr7
Spectrometer: USB2G7710
Scans to average: 3
Trigger mode: 4
Integration Time (sec): 2.000000E-2
Electric dark correction enabled: true
Boxcar width: 10
XAxis mode: Wavelengths
Number of Pixels in Spectrum: 2048
>>>>>Begin Spectral Data<<<<<
177.721	95.52
178.105	254.76
178.488	534.27
178.871	198.25
179.254	137.25
179.636	101.72
180.019	101.38
180.402	156.25
180.785	226.67
181.168	292.98
181.55	-288.89
181.933	-277.39
182.316	-336.33
182.698	-733.33
183.081	1637.04
183.463	233.99
183.846	649.38
184.228	-1360.78
184.611	-153.45
184.993	-96.05
185.376	-125.42
185.758	-171.93
186.14	-591.11
186.522	-438.31
186.904	-474.51
187.287	-733.33
187.669	-1115.15
188.051	-1274.21
188.433	-25177.78
188.815	-4537.25
189.197	-799.18
189.579	1117.01
189.961	927.68
190.342	-764.78
190.724	-1987.3
191.106	-357.54
191.488	-207.35
191.869	-169.06
192.251	-158.04
192.633	-137.21
193.014	-147.93
193.396	-114.48
193.777	-70.23
194.159	-45.19
194.54	-30.98
194.922	-14.13
195.303	-13.55
195.684	7.47
196.065	8.75
196.447	33.4
196.828	32.1
197.209	39.78
197.59	53.17
197.971	56.58
198.352	49.5
198.733	48.46
199.114	50.19
199.495	53.01
199.876	45.66
200.257	13.43
200.638	13.25
201.018	25.22
201.399	27.48
201.78	36.75
202.16	27.65
202.541	17.07
202.922	7.8
203.302	24.72
203.683	8.04
204.063	11.36
204.444	9.32
204.824	6.1
205.204	11.58
205.585	0.55
205.965	-21.12
206.345	-11.47
206.725	-1.35
207.106	20.45
207.486	22.74
207.866	27.4
208.246	42.6
208.626	34.98
209.006	31.37
209.386	33.29
209.766	27.74
210.145	32.77
210.525	41.31
210.905	56.86
211.285	58.17
211.664	51.25
212.044	44.6
212.424	31.32
212.803	33.45
213.183	14.32
213.562	12.62
213.942	26.98
214.321	13.81
214.701	0.07
215.08	-24.95
215.459	-26.32
215.838	-30
216.218	-33.01
216.597	-33.44
216.976	-30.07
217.355	-32.35
217.734	-41.48
218.113	-35.6
218.492	-39.4
218.871	-48.01
219.25	-48.92
219.629	-44.4
220.008	-32.44
220.387	-30.57
220.766	-27.15
221.144	-12.94
221.523	-21.43
221.902	-23.13
222.28	-6.3
222.659	10.14
223.037	21.47
223.416	21.04
223.794	16.43
224.173	14.08
224.551	15.09
224.929	10.4
225.308	7.73
225.686	9.68
226.064	10.95
226.442	10.52
226.821	14.43
227.199	15.58
227.577	13.87
227.955	15.81
228.333	20
228.711	21.96
229.089	18.44
229.467	24.53
229.845	18.81
230.222	15.83
230.6	9.69
230.978	11.91
231.356	10.87
231.733	13.56
232.111	14.44
232.488	12.71
232.866	13.04
233.243	13.97
233.621	12.46
233.998	12.27
234.376	12.36
234.753	12.01
235.13	10.37
235.508	10.81
235.885	9.91
236.262	6.06
236.639	3.96
237.016	3.62
237.393	2.66
237.77	4.86
238.147	3.52
238.524	4.58
238.901	2.5
239.278	2.72
239.655	3.09
240.032	2.69
240.409	4.32
240.785	4.63
241.162	4.46
241.539	4.88
241.915	4.19
242.292	4.47
242.668	4.16
243.045	4.72
243.421	4.99
243.798	4.55
244.174	5.16
244.551	5.65
244.927	5.52
245.303	5.17
245.679	5.1
246.056	5.07
246.432	5.04
246.808	5.18
247.184	5.24
247.56	5.09
247.936	4.96
248.312	4.59
248.688	4.39
249.064	4.33
249.44	4.17
249.815	4.4
250.191	4.32
250.567	4.39
250.943	4.35
251.318	4.03
251.694	4.04
252.069	3.84
252.445	3.3
252.82	3.53
253.196	3.59
253.571	3.82
253.947	4.22
254.322	3.85
254.697	3.81
255.073	3.93
255.448	3.93
255.823	4.36
256.198	4.26
256.573	4.39
256.948	4.5
257.323	4.67
257.698	4.69
258.073	4.48
258.448	4.43
258.823	4.09
259.198	4.24
259.573	4.13
259.948	3.86
260.322	3.84
260.697	3.78
261.072	3.83
261.446	3.68
261.821	3.6
262.195	3.73
262.57	3.66
262.944	3.59
263.319	3.67
263.693	3.58
264.067	3.6
264.442	3.51
264.816	3.29
265.19	3.26
265.564	3.13
265.938	3.19
266.313	3.29
266.687	3.64
267.061	3.54
267.435	3.72
267.809	3.87
268.183	4.11
268.556	4.05
268.93	4.16
269.304	4.07
269.678	4.22
270.051	4.36
270.425	4.52
270.799	4.48
271.172	4.48
271.546	4.52
271.919	4.54
272.293	4.7
272.666	4.73
273.04	4.65
273.413	4.5
273.787	4.4
274.16	4.1
274.533	3.97
274.906	4.12
275.279	4.02
275.653	4.17
276.026	4.13
276.399	4.12
276.772	3.91
277.145	4.14
277.518	3.96
277.891	3.93
278.263	3.97
278.636	4.01
279.009	3.82
279.382	3.73
279.755	3.73
280.127	3.57
280.5	3.8
280.872	3.82
281.245	4.05
281.617	4.1
281.99	4.2
282.362	4.37
282.735	4.2
283.107	4.32
283.479	4.21
283.852	4.25
284.224	4.23
284.596	4.46
284.968	4.28
285.34	4.16
285.713	4.15
286.085	3.98
286.457	3.96
286.829	4.02
287.201	4.07
287.572	4.09
287.944	4.09
288.316	4.03
288.688	4.21
289.06	4.2
289.431	4.35
289.803	4.54
290.175	4.41
290.546	4.48
290.918	4.59
291.289	4.56
291.661	4.52
292.032	4.51
292.403	4.33
292.775	4.43
293.146	4.79
293.517	4.73
293.889	4.69
294.26	4.75
294.631	4.92
295.002	4.95
295.373	4.79
295.744	4.92
296.115	4.92
296.486	4.68
296.857	4.76
297.228	4.7
297.599	4.51
297.97	4.68
298.34	4.7
298.711	4.74
299.082	4.78
299.452	4.91
299.823	5.13
300.194	5.16
300.564	4.97
300.935	4.85
301.305	5.05
301.676	5.3
302.046	5.29
302.416	5.24
302.787	5.23
303.157	5.5
303.527	5.63
303.897	5.6
304.267	5.77
304.637	5.82
305.008	5.93
305.378	6.12
305.748	6.03
306.117	6
306.487	5.93
306.857	6.09
307.227	6.07
307.597	5.95
307.967	5.98
308.336	6.08
308.706	6.06
309.076	6.04
309.445	6.1
309.815	6.23
310.184	6.25
310.554	6.34
310.923	6.34
311.293	6.37
311.662	6.46
312.031	6.54
312.401	6.48
312.77	6.42
313.139	6.53
313.508	6.62
313.877	6.77
314.246	6.7
314.616	6.7
314.985	6.82
315.353	7.03
315.722	7.13
316.091	7.49
316.46	7.52
316.829	7.44
317.198	7.32
317.567	7.27
317.935	7.41
318.304	7.67
318.672	7.82
319.041	7.67
319.41	7.78
319.778	7.81
320.147	7.74
320.515	7.78
320.883	7.86
321.252	7.8
321.62	7.78
321.988	7.99
322.357	8.13
322.725	7.95
323.093	7.81
323.461	7.97
323.829	7.82
324.197	7.96
324.565	8.14
324.933	8.12
325.301	8.05
325.669	8.02
326.037	7.9
326.405	7.91
326.772	8.06
327.14	7.97
327.508	7.96
327.875	8.12
328.243	8.17
328.61	8.08
328.978	8.15
329.346	8.3
329.713	8.42
330.08	8.32
330.448	8.38
330.815	8.61
331.182	8.52
331.55	8.73
331.917	8.76
332.284	8.78
332.651	8.93
333.018	9.21
333.385	9.25
333.752	9.24
334.119	9.28
334.486	9.29
334.853	9.44
335.22	9.61
335.587	9.53
335.954	9.53
336.32	9.59
336.687	9.62
337.054	9.53
337.42	9.4
337.787	9.56
338.153	9.57
338.52	9.67
338.886	9.81
339.253	9.64
339.619	9.66
339.986	9.75
340.352	9.83
340.718	9.64
341.084	9.65
341.451	9.79
341.817	9.84
342.183	9.84
342.549	9.92
342.915	9.97
343.281	10.1
343.647	10.19
344.013	10.27
344.379	10.26
344.745	10.32
345.11	10.29
345.476	10.35
345.842	10.46
346.208	10.42
346.573	10.43
346.939	10.47
347.304	10.54
347.67	10.42
348.035	10.46
348.401	10.57
348.766	10.6
349.132	10.51
349.497	10.46
349.862	10.46
350.228	10.46
350.593	10.34
350.958	10.34
351.323	10.34
351.688	10.27
352.053	10.3
352.418	10.3
352.783	10.36
353.148	10.31
353.513	10.26
353.878	10.28
354.243	10.13
354.608	10.2
354.972	10.13
355.337	10.17
355.702	10.1
356.066	10.12
356.431	10.21
356.795	10.19
357.16	10.17
357.524	10.11
357.889	10.08
358.253	10.02
358.618	10.01
358.982	10.03
359.346	10.07
359.71	10.15
360.075	10.15
360.439	10.22
360.803	10.27
361.167	10.23
361.531	10.17
361.895	10.21
362.259	10.23
362.623	10.19
362.987	10.15
363.351	10.14
363.714	10.11
364.078	10.05
364.442	10.02
364.806	10.03
365.169	10.01
365.533	9.95
365.896	10.01
366.26	10.01
366.623	9.86
366.987	9.82
367.35	9.71
367.714	9.65
368.077	9.45
368.44	9.29
368.803	9.2
369.167	9.08
369.53	9.03
369.893	8.97
370.256	8.92
370.619	8.84
370.982	8.75
371.345	8.71
371.708	8.71
372.071	8.66
372.434	8.58
372.797	8.58
373.159	8.57
373.522	8.47
373.885	8.34
374.247	8.32
374.61	8.19
374.973	8.14
375.335	8.13
375.698	8.11
376.06	8.07
376.423	8.05
376.785	8.02
377.147	7.91
377.51	7.86
377.872	7.89
378.234	7.86
378.596	7.84
378.958	7.77
379.321	7.6
379.683	7.59
380.045	7.52
380.407	7.48
380.769	7.4
381.13	7.34
381.492	7.28
381.854	7.28
382.216	7.24
382.578	7.22
382.939	7.1
383.301	7.1
383.663	7.06
384.024	7.02
384.386	6.98
384.747	6.96
385.109	6.89
385.47	6.81
385.832	6.81
386.193	6.76
386.554	6.69
386.916	6.67
387.277	6.6
387.638	6.58
387.999	6.5
388.36	6.45
388.721	6.43
389.082	6.43
389.443	6.37
389.804	6.37
390.165	6.32
390.526	6.31
390.887	6.26
391.248	6.19
391.609	6.21
391.969	6.17
392.33	6.12
392.691	6.07
393.051	6.04
393.412	5.98
393.772	5.92
394.133	5.91
394.493	5.84
394.854	5.84
395.214	5.77
395.574	5.76
395.935	5.7
396.295	5.67
396.655	5.65
397.015	5.62
397.376	5.56
397.736	5.47
398.096	5.4
398.456	5.35
398.816	5.34
399.176	5.21
399.535	5.14
399.895	5.17
400.255	5.16
400.615	5.11
400.975	5.07
401.334	5.09
401.694	5.02
402.054	5.04
402.413	4.96
402.773	4.94
403.132	4.93
403.492	4.94
403.851	4.88
404.211	4.81
404.57	4.77
404.929	4.74
405.288	4.74
405.648	4.69
406.007	4.67
406.366	4.66
406.725	4.68
407.084	4.7
407.443	4.65
407.802	4.6
408.161	4.62
408.52	4.59
408.879	4.57
409.238	4.61
409.596	4.59
409.955	4.61
410.314	4.56
410.673	4.52
411.031	4.47
411.39	4.49
411.748	4.49
412.107	4.46
412.465	4.43
412.824	4.4
413.182	4.39
413.54	4.36
413.899	4.36
414.257	4.37
414.615	4.32
414.974	4.29
415.332	4.29
415.69	4.24
416.048	4.24
416.406	4.2
416.764	4.15
417.122	4.11
417.48	4.07
417.838	4.08
418.195	4.05
418.553	4.05
418.911	4.01
419.269	4
419.626	3.99
419.984	3.98
420.342	3.96
420.699	3.96
421.057	3.95
421.414	3.93
421.772	3.9
422.129	3.88
422.486	3.87
422.844	3.83
423.201	3.82
423.558	3.81
423.915	3.79
424.273	3.78
424.63	3.77
424.987	3.78
425.344	3.76
425.701	3.76
426.058	3.74
426.415	3.74
426.772	3.72
427.128	3.72
427.485	3.71
427.842	3.7
428.199	3.7
428.555	3.69
428.912	3.68
429.269	3.68
429.625	3.71
429.982	3.68
430.338	3.7
430.695	3.69
431.051	3.67
431.407	3.69
431.764	3.67
432.12	3.67
432.476	3.66
432.832	3.67
433.189	3.65
433.545	3.67
433.901	3.68
434.257	3.69
434.613	3.68
434.969	3.66
435.325	3.67
435.681	3.69
436.036	3.69
436.392	3.69
436.748	3.67
437.104	3.66
437.459	3.69
437.815	3.69
438.171	3.71
438.526	3.71
438.882	3.68
439.237	3.69
439.593	3.7
439.948	3.71
440.304	3.68
440.659	3.69
441.014	3.69
441.369	3.68
441.725	3.67
442.08	3.67
442.435	3.68
442.79	3.67
443.145	3.66
443.5	3.64
443.855	3.63
444.21	3.62
444.565	3.61
444.92	3.6
445.275	3.6
445.629	3.58
445.984	3.57
446.339	3.56
446.693	3.56
447.048	3.55
447.403	3.53
447.757	3.52
448.112	3.49
448.466	3.47
448.82	3.43
449.175	3.44
449.529	3.42
449.883	3.4
450.238	3.38
450.592	3.37
450.946	3.37
451.3	3.37
451.654	3.35
452.008	3.36
452.362	3.35
452.716	3.35
453.07	3.34
453.424	3.36
453.778	3.37
454.132	3.35
454.486	3.37
454.839	3.37
455.193	3.39
455.547	3.41
455.9	3.41
456.254	3.43
456.607	3.41
456.961	3.4
457.314	3.41
457.668	3.42
458.021	3.42
458.375	3.41
458.728	3.39
459.081	3.41
459.434	3.42
459.787	3.42
460.141	3.42
460.494	3.44
460.847	3.42
461.2	3.44
461.553	3.46
461.906	3.46
462.259	3.47
462.611	3.48
462.964	3.52
463.317	3.52
463.67	3.55
464.022	3.59
464.375	3.59
464.728	3.63
465.08	3.64
465.433	3.65
465.785	3.68
466.138	3.73
466.49	3.74
466.843	3.76
467.195	3.79
467.547	3.8
467.899	3.8
468.252	3.86
468.604	3.86
468.956	3.88
469.308	3.88
469.66	3.9
470.012	3.93
470.364	3.93
470.716	3.96
471.068	3.96
471.42	3.97
471.772	4.02
472.123	4
472.475	4
472.827	4.01
473.178	4.04
473.53	4.03
473.882	4.05
474.233	4.02
474.585	4.01
474.936	4
475.288	3.98
475.639	3.99
475.99	3.98
476.342	3.97
476.693	3.95
477.044	3.93
477.395	3.88
477.746	3.87
478.097	3.88
478.448	3.84
478.8	3.81
479.15	3.77
479.501	3.76
479.852	3.77
480.203	3.76
480.554	3.74
480.905	3.73
481.255	3.71
481.606	3.72
481.957	3.72
482.307	3.72
482.658	3.73
483.009	3.71
483.359	3.71
483.709	3.71
484.06	3.72
484.41	3.73
484.761	3.74
485.111	3.74
485.461	3.73
485.811	3.75
486.162	3.76
486.512	3.76
486.862	3.77
487.212	3.78
487.562	3.78
487.912	3.79
488.262	3.8
488.612	3.8
488.961	3.81
489.311	3.81
489.661	3.82
490.011	3.84
490.36	3.84
490.71	3.85
491.06	3.85
491.409	3.86
491.759	3.87
492.108	3.87
492.458	3.89
492.807	3.91
493.157	3.91
493.506	3.93
493.855	3.96
494.204	3.99
494.554	4.01
494.903	4.03
495.252	4.07
495.601	4.11
495.95	4.16
496.299	4.2
496.648	4.24
496.997	4.28
497.346	4.33
497.695	4.37
498.043	4.43
498.392	4.47
498.741	4.54
499.09	4.61
499.438	4.69
499.787	4.75
500.135	4.82
500.484	4.88
500.832	4.96
501.181	5.02
501.529	5.1
501.878	5.17
502.226	5.28
502.574	5.37
502.923	5.45
503.271	5.55
503.619	5.65
503.967	5.76
504.315	5.86
504.663	5.97
505.011	6.1
505.359	6.21
505.707	6.34
506.055	6.45
506.403	6.57
506.751	6.68
507.098	6.82
507.446	6.95
507.794	7.13
508.141	7.25
508.489	7.4
508.837	7.53
509.184	7.68
509.531	7.86
509.879	7.97
510.226	8.11
510.574	8.25
510.921	8.4
511.268	8.55
511.616	8.71
511.963	8.86
512.31	9.01
512.657	9.17
513.004	9.34
513.351	9.5
513.698	9.67
514.045	9.85
514.392	10.04
514.739	10.22
515.086	10.38
515.432	10.56
515.779	10.73
516.126	10.89
516.473	11.05
516.819	11.17
517.166	11.34
517.512	11.49
517.859	11.64
518.205	11.8
518.552	11.93
518.898	12.04
519.245	12.17
519.591	12.29
519.937	12.44
520.283	12.57
520.629	12.72
520.976	12.89
521.322	13.03
521.668	13.19
522.014	13.35
522.36	13.54
522.706	13.75
523.052	13.95
523.398	14.16
523.743	14.36
524.089	14.59
524.435	14.84
524.781	15.06
525.126	15.25
525.472	15.45
525.817	15.62
526.163	15.79
526.509	15.93
526.854	16.09
527.199	16.24
527.545	16.4
527.89	16.55
528.235	16.69
528.581	16.84
528.926	17
529.271	17.14
529.616	17.29
529.961	17.44
530.306	17.58
530.651	17.74
530.996	17.95
531.341	18.13
531.686	18.29
532.031	18.47
532.376	18.67
532.721	18.85
533.065	19.07
533.41	19.28
533.755	19.52
534.099	19.73
534.444	19.97
534.788	20.19
535.133	20.42
535.477	20.67
535.822	20.89
536.166	21.15
536.51	21.46
536.855	21.73
537.199	22.04
537.543	22.35
537.887	22.68
538.231	22.99
538.576	23.3
538.92	23.63
539.264	23.96
539.608	24.26
539.951	24.54
540.295	24.78
540.639	25.06
540.983	25.32
541.327	25.58
541.671	25.82
542.014	26.05
542.358	26.3
542.701	26.54
543.045	26.82
543.389	27.08
543.732	27.33
544.075	27.62
544.419	27.9
544.762	28.22
545.105	28.49
545.449	28.78
545.792	29.08
546.135	29.41
546.478	29.73
546.821	30.09
547.165	30.45
547.508	30.83
547.851	31.19
548.194	31.55
548.536	31.91
548.879	32.28
549.222	32.69
549.565	33.02
549.908	33.36
550.25	33.73
550.593	34.09
550.936	34.45
551.278	34.79
551.621	35.12
551.963	35.46
552.306	35.83
552.648	36.19
552.991	36.52
553.333	36.8
553.675	37.13
554.017	37.41
554.36	37.74
554.702	38.04
555.044	38.35
555.386	38.64
555.728	38.92
556.07	39.22
556.412	39.5
556.754	39.85
557.096	40.19
557.438	40.5
557.78	40.78
558.121	41.08
558.463	41.42
558.805	41.76
559.147	42.09
559.488	42.47
559.83	42.83
560.171	43.15
560.513	43.5
560.854	43.79
561.196	44.12
561.537	44.39
561.878	44.67
562.22	44.94
562.561	45.26
562.902	45.62
563.243	45.83
563.584	46.06
563.925	46.35
564.266	46.56
564.607	46.82
564.948	47.07
565.289	47.31
565.63	47.49
565.971	47.71
566.312	47.88
566.653	48.01
566.993	48.16
567.334	48.41
567.675	48.61
568.015	48.82
568.356	48.98
568.696	49.14
569.037	49.34
569.377	49.46
569.718	49.57
570.058	49.71
570.398	50.01
570.739	50.13
571.079	50.29
571.419	50.46
571.759	50.59
572.099	50.73
572.439	50.95
572.779	51.15
573.119	51.28
573.459	51.39
573.799	51.57
574.139	51.72
574.479	51.83
574.819	51.95
575.158	52.07
575.498	52.17
575.838	52.31
576.177	52.45
576.517	52.67
576.856	52.84
577.196	52.97
577.535	53.06
577.875	53.3
578.214	53.42
578.553	53.59
578.893	53.72
579.232	53.79
579.571	53.86
579.91	53.9
580.25	53.99
580.589	54.13
580.928	54.18
581.267	54.32
581.606	54.42
581.945	54.54
582.283	54.62
582.622	54.8
582.961	54.9
583.3	55.02
583.639	55.14
583.977	55.29
584.316	55.47
584.654	55.59
584.993	55.6
585.332	55.76
585.67	55.77
586.008	55.87
586.347	55.96
586.685	55.97
587.024	56.14
587.362	56.27
587.7	56.44
588.038	56.52
588.376	56.64
588.715	56.69
589.053	56.75
589.391	56.89
589.729	56.97
590.067	57.23
590.404	57.31
590.742	57.3
591.08	57.4
591.418	57.42
591.756	57.48
592.093	57.65
592.431	57.71
592.769	57.84
593.106	57.91
593.444	58.09
593.781	58.26
594.119	58.3
594.456	58.33
594.793	58.36
595.131	58.47
595.468	58.49
595.805	58.6
596.143	58.68
596.48	58.71
596.817	58.75
597.154	58.69
597.491	58.68
597.828	58.83
598.165	58.88
598.502	58.92
598.839	58.93
599.176	58.99
599.512	59.04
599.849	59.12
600.186	59.2
600.523	59.22
600.859	59.24
601.196	59.44
601.532	59.62
601.869	59.79
602.205	59.78
602.542	59.84
602.878	59.85
603.215	59.85
603.551	59.85
603.887	59.91
604.223	59.93
604.56	60.03
604.896	60.01
605.232	60.06
605.568	60.17
605.904	60.27
606.24	60.27
606.576	60.25
606.912	60.21
607.248	60.23
607.583	60.25
607.919	60.4
608.255	60.35
608.591	60.31
608.926	60.21
609.262	60.29
609.597	60.32
609.933	60.34
610.268	60.36
610.604	60.43
610.939	60.44
611.275	60.45
611.61	60.46
611.945	60.51
612.281	60.58
612.616	60.59
612.951	60.57
613.286	60.61
613.621	60.74
613.956	60.86
614.291	60.98
614.626	61.04
614.961	60.98
615.296	60.97
615.631	61.05
615.966	61.1
616.3	61.11
616.635	61.16
616.97	61.3
617.304	61.43
617.639	61.58
617.973	61.67
618.308	61.8
618.642	61.79
618.977	61.78
619.311	61.64
619.646	61.7
619.98	61.73
620.314	61.73
620.648	61.76
620.983	61.77
621.317	61.67
621.651	61.63
621.985	61.59
622.319	61.62
622.653	61.6
622.987	61.63
623.321	61.67
623.655	61.68
623.988	61.63
624.322	61.63
624.656	61.58
624.99	61.54
625.323	61.5
625.657	61.53
625.99	61.71
626.324	61.79
626.657	61.64
626.991	61.67
627.324	61.66
627.658	61.68
627.991	61.69
628.324	61.74
628.657	61.85
628.991	61.9
629.324	61.95
629.657	62.08
629.99	62.1
630.323	62.17
630.656	62.21
630.989	62.19
631.322	62.29
631.655	62.3
631.987	62.27
632.32	62.28
632.653	62.32
632.986	62.28
633.318	62.38
633.651	62.52
633.984	62.55
634.316	62.62
634.649	62.58
634.981	62.61
635.313	62.69
635.646	62.72
635.978	62.81
636.31	62.75
636.643	62.63
636.975	62.7
637.307	62.69
637.639	62.63
637.971	62.67
638.303	62.73
638.635	62.79
638.967	62.85
639.299	62.98
639.631	63.02
639.963	62.92
640.295	62.89
640.626	62.81
640.958	62.81
641.29	62.8
641.621	62.82
641.953	62.77
642.285	62.82
642.616	62.86
642.948	62.73
643.279	62.82
643.61	62.86
643.942	62.8
644.273	62.9
644.604	62.98
644.936	63.08
645.267	62.97
645.598	62.89
645.929	62.96
646.26	62.98
646.591	62.96
646.922	63.1
647.253	63.11
647.584	63.19
647.915	63.1
648.245	63.13
648.576	63.2
648.907	63.33
649.238	63.32
649.568	63.37
649.899	63.47
650.229	63.43
650.56	63.43
650.89	63.45
651.221	63.41
651.551	63.45
651.882	63.54
652.212	63.6
652.542	63.69
652.872	63.67
653.203	63.55
653.533	63.61
653.863	63.56
654.193	63.59
654.523	63.53
654.853	63.72
655.183	63.75
655.513	63.72
655.843	63.66
656.172	63.58
656.502	63.67
656.832	63.72
657.162	63.82
657.491	64.03
657.821	64.07
658.15	64.06
658.48	64.09
658.809	64.1
659.139	64.18
659.468	64.14
659.798	64.17
660.127	64.14
660.456	64.2
660.785	64.23
661.115	64.17
661.444	64.19
661.773	64.05
662.102	64.08
662.431	64
662.76	64.05
663.089	64.11
663.418	63.99
663.747	63.88
664.076	63.78
664.404	63.59
664.733	63.65
665.062	63.73
665.39	63.6
665.719	63.55
