Data from MVZ_BU28167_Reflection_00003.txt Node
Date: Tue Nov 19 12:17:23 EST 2019
User: vgr7
Spectrometer: USB2G7710
Scans to average: 3
Trigger mode: 4
Integration Time (sec): 2.000000E-2
Electric dark correction enabled: true
Boxcar width: 10
XAxis mode: Wavelengths
Number of Pixels in Spectrum: 2048
>>>>>Begin Spectral Data<<<<<
177.721	667.57
178.105	-1150
178.488	47.55
178.871	-3.12
179.254	100
179.636	22.08
180.019	17.81
180.402	80
180.785	-110
181.168	14.77
181.55	51.81
181.933	55.65
182.316	39.31
182.698	39.32
183.081	37.79
183.463	71.5
183.846	80.52
184.228	70.47
184.611	61.37
184.993	24.49
185.376	36.71
185.758	34.11
186.14	44.26
186.522	54.72
186.904	67.39
187.287	42.37
187.669	45.9
188.051	50.16
188.433	54.07
188.815	65.66
189.197	68.11
189.579	84.47
189.961	86.11
190.342	100
190.724	221.5
191.106	309.46
191.488	318.31
191.869	1052.38
192.251	-1076.47
192.633	2350
193.014	8600
193.396	443.75
193.777	8600
194.159	3600
194.54	-566.67
194.922	-831.03
195.303	-900
195.684	-3650
196.065	-2066.67
196.447	-1221.43
196.828	-1328.57
197.209	-423.81
197.59	-343.18
197.971	-1066.67
198.352	398.25
198.733	200.84
199.114	234.26
199.495	261.76
199.876	327.27
200.257	320.59
200.638	672.92
201.018	608.2
201.399	5457.14
201.78	6683.33
202.16	-1000
202.541	-1420.83
202.922	4683.33
203.302	-332.93
203.683	-228.57
204.063	-212
204.444	-176.24
204.824	-233.33
205.204	-161.63
205.585	-202.01
205.965	-198.61
206.345	-145.76
206.725	-129.81
207.106	-101.15
207.486	-74.29
207.866	-62.72
208.246	-30.14
208.626	-84.78
209.006	-42.38
209.386	-104.55
209.766	-22.22
210.145	-36.99
210.525	-115.38
210.905	-93.88
211.285	-73.08
211.664	-114.29
212.044	-122.22
212.424	-88.41
212.803	-25
213.183	-100
213.562	-0
213.942	-4.17
214.321	-129.17
214.701	-101.49
215.08	-120.34
215.459	-54.93
215.838	-126.42
216.218	-321.05
216.597	-89.08
216.976	-182.79
217.355	-108.76
217.734	-120.11
218.113	-82.8
218.492	-74.7
218.871	-68.75
219.25	-86.05
219.629	-88.68
220.008	-87.05
220.387	-100
220.766	-97.37
221.144	-62.68
221.523	-94.58
221.902	-81
222.28	-55.77
222.659	-49.37
223.037	-51.98
223.416	-75.38
223.794	-71.43
224.173	-74.86
224.551	-55.99
224.929	-43.27
225.308	-39.04
225.686	-19.72
226.064	-35.51
226.442	-25
226.821	-20.65
227.199	-13.15
227.577	-11.55
227.955	-11.11
228.333	-13.25
228.711	-5.5
229.089	-10.17
229.467	-4.48
229.845	-10.68
230.222	-7.84
230.6	-10.53
230.978	-6.18
231.356	-3.8
231.733	0.61
232.111	2.88
232.488	-0.82
232.866	1.91
233.243	2.39
233.621	2.09
233.998	1.09
234.376	0.45
234.753	-1.65
235.13	-4.13
235.508	-5.25
235.885	-4.67
236.262	-3.25
236.639	-5.11
237.016	-2.32
237.393	-3.15
237.77	0.8
238.147	0.67
238.524	2.03
238.901	-0.21
239.278	0.15
239.655	1.16
240.032	0.97
240.409	1.18
240.785	0.56
241.162	0.42
241.539	0.45
241.915	0.19
242.292	0.15
242.668	0.58
243.045	1.02
243.421	1.52
243.798	1.65
244.174	1.67
244.551	1.73
244.927	1.52
245.303	1.72
245.679	1.53
246.056	1.52
246.432	1.65
246.808	2.12
247.184	2.15
247.56	1.62
247.936	1.59
248.312	1.83
248.688	1.76
249.064	1.76
249.44	1.6
249.815	1.75
250.191	1.93
250.567	1.96
250.943	2.16
251.318	1.89
251.694	1.78
252.069	1.86
252.445	1.82
252.82	2.18
253.196	1.99
253.571	2.39
253.947	2.75
254.322	2.78
254.697	2.73
255.073	2.59
255.448	2.37
255.823	2.47
256.198	2.12
256.573	2.38
256.948	2.31
257.323	2.37
257.698	2.48
258.073	2.48
258.448	2.54
258.823	2.18
259.198	2.34
259.573	2.36
259.948	2.38
260.322	2.34
260.697	2.3
261.072	2.26
261.446	2.05
261.821	1.75
262.195	1.76
262.57	1.66
262.944	1.73
263.319	1.95
263.693	1.97
264.067	2.28
264.442	2.32
264.816	2.21
265.19	2.31
265.564	2.21
265.938	2.16
266.313	2
266.687	2.19
267.061	2.03
267.435	2.13
267.809	1.95
268.183	1.94
268.556	1.8
268.93	1.84
269.304	1.63
269.678	1.79
270.051	1.84
270.425	1.91
270.799	1.71
271.172	1.9
271.546	1.82
271.919	1.7
272.293	1.62
272.666	1.79
273.04	1.69
273.413	1.55
273.787	1.43
274.16	1.28
274.533	1.22
274.906	1.48
275.279	1.36
275.653	1.44
276.026	1.48
276.399	1.55
276.772	1.73
277.145	1.92
277.518	1.96
277.891	1.9
278.263	1.93
278.636	2.11
279.009	2.02
279.382	2.1
279.755	2.12
280.127	2.12
280.5	2.13
280.872	2.14
281.245	2.16
281.617	2.28
281.99	2.43
282.362	2.48
282.735	2.32
283.107	2.27
283.479	2.31
283.852	2.49
284.224	2.39
284.596	2.2
284.968	2.24
285.34	2.21
285.713	2.14
286.085	1.99
286.457	1.91
286.829	1.9
287.201	1.93
287.572	1.93
287.944	2.03
288.316	2.04
288.688	2.12
289.06	2.3
289.431	2.37
289.803	2.35
290.175	2.35
290.546	2.36
290.918	2.41
291.289	2.42
291.661	2.41
292.032	2.47
292.403	2.58
292.775	2.65
293.146	2.64
293.517	2.61
293.889	2.61
294.26	2.55
294.631	2.7
295.002	2.53
295.373	2.49
295.744	2.31
296.115	2.39
296.486	2.33
296.857	2.29
297.228	2.1
297.599	2.1
297.97	2.3
298.34	2.19
298.711	2.34
299.082	2.43
299.452	2.35
299.823	2.33
300.194	2.18
300.564	2.05
300.935	2.03
301.305	1.99
301.676	2.15
302.046	2.2
302.416	2.02
302.787	2.13
303.157	2.26
303.527	2.41
303.897	2.28
304.267	2.31
304.637	2.25
305.008	2.41
305.378	2.46
305.748	2.27
306.117	2.3
306.487	2.18
306.857	2.19
307.227	2.36
307.597	2.5
307.967	2.61
308.336	2.57
308.706	2.57
309.076	2.8
309.445	2.83
309.815	2.89
310.184	2.93
310.554	2.77
310.923	2.59
311.293	2.64
311.662	2.64
312.031	2.67
312.401	2.72
312.77	2.77
313.139	2.83
313.508	2.72
313.877	2.8
314.246	2.71
314.616	2.66
314.985	2.46
315.353	2.52
315.722	2.62
316.091	2.7
316.46	2.85
316.829	2.71
317.198	2.62
317.567	2.68
317.935	2.68
318.304	3.01
318.672	3.14
319.041	3.33
319.41	3.26
319.778	3.21
320.147	3.3
320.515	3.21
320.883	3.1
321.252	3.15
321.62	3.02
321.988	3.16
322.357	2.91
322.725	3.03
323.093	2.81
323.461	2.8
323.829	2.73
324.197	2.67
324.565	2.7
324.933	2.69
325.301	2.63
325.669	2.55
326.037	2.44
326.405	2.5
326.772	2.34
327.14	2.48
327.508	2.3
327.875	2.28
328.243	2.3
328.61	2.4
328.978	2.42
329.346	2.57
329.713	2.46
330.08	2.56
330.448	2.51
330.815	2.48
331.182	2.41
331.55	2.57
331.917	2.54
332.284	2.49
332.651	2.48
333.018	2.42
333.385	2.44
333.752	2.45
334.119	2.4
334.486	2.37
334.853	2.41
335.22	2.54
335.587	2.44
335.954	2.42
336.32	2.3
336.687	2.4
337.054	2.36
337.42	2.45
337.787	2.29
338.153	2.4
338.52	2.53
338.886	2.51
339.253	2.48
339.619	2.5
339.986	2.5
340.352	2.49
340.718	2.55
341.084	2.51
341.451	2.56
341.817	2.44
342.183	2.25
342.549	2.27
342.915	2.29
343.281	2.31
343.647	2.25
344.013	2.35
344.379	2.41
344.745	2.38
345.11	2.27
345.476	2.46
345.842	2.38
346.208	2.28
346.573	2.37
346.939	2.29
347.304	2.22
347.67	2.13
348.035	2.15
348.401	2.17
348.766	2.12
349.132	2.08
349.497	2.13
349.862	2.25
350.228	2.13
350.593	2.06
350.958	2.12
351.323	2.31
351.688	2.34
352.053	2.27
352.418	2.39
352.783	2.42
353.148	2.34
353.513	2.3
353.878	2.31
354.243	2.2
354.608	2.28
354.972	2.3
355.337	2.35
355.702	2.38
356.066	2.44
356.431	2.47
356.795	2.52
357.16	2.52
357.524	2.57
357.889	2.58
358.253	2.63
358.618	2.59
358.982	2.48
359.346	2.48
359.71	2.44
360.075	2.34
360.439	2.45
360.803	2.58
361.167	2.54
361.531	2.54
361.895	2.57
362.259	2.56
362.623	2.64
362.987	2.66
363.351	2.64
363.714	2.62
364.078	2.69
364.442	2.68
364.806	2.75
365.169	2.69
365.533	2.68
365.896	2.7
366.26	2.7
366.623	2.71
366.987	2.73
367.35	2.77
367.714	2.85
368.077	2.83
368.44	2.75
368.803	2.8
369.167	2.74
369.53	2.76
369.893	2.76
370.256	2.67
370.619	2.66
370.982	2.61
371.345	2.62
371.708	2.58
372.071	2.59
372.434	2.46
372.797	2.52
373.159	2.48
373.522	2.43
373.885	2.44
374.247	2.43
374.61	2.45
374.973	2.42
375.335	2.43
375.698	2.36
376.06	2.34
376.423	2.35
376.785	2.37
377.147	2.3
377.51	2.3
377.872	2.29
378.234	2.33
378.596	2.32
378.958	2.33
379.321	2.31
379.683	2.3
380.045	2.38
380.407	2.38
380.769	2.43
381.13	2.46
381.492	2.46
381.854	2.49
382.216	2.44
382.578	2.47
382.939	2.45
383.301	2.48
383.663	2.51
384.024	2.5
384.386	2.55
384.747	2.59
385.109	2.55
385.47	2.56
385.832	2.5
386.193	2.56
386.554	2.52
386.916	2.53
387.277	2.51
387.638	2.5
387.999	2.49
388.36	2.47
388.721	2.51
389.082	2.55
389.443	2.61
389.804	2.59
390.165	2.58
390.526	2.63
390.887	2.64
391.248	2.63
391.609	2.68
391.969	2.67
392.33	2.67
392.691	2.66
393.051	2.71
393.412	2.77
393.772	2.8
394.133	2.76
394.493	2.73
394.854	2.74
395.214	2.72
395.574	2.74
395.935	2.78
396.295	2.76
396.655	2.73
397.015	2.69
397.376	2.72
397.736	2.71
398.096	2.68
398.456	2.67
398.816	2.65
399.176	2.6
399.535	2.63
399.895	2.59
400.255	2.63
400.615	2.6
400.975	2.59
401.334	2.56
401.694	2.6
402.054	2.61
402.413	2.63
402.773	2.66
403.132	2.66
403.492	2.63
403.851	2.62
404.211	2.63
404.57	2.62
404.929	2.61
405.288	2.64
405.648	2.64
406.007	2.64
406.366	2.64
406.725	2.63
407.084	2.61
407.443	2.66
407.802	2.68
408.161	2.71
408.52	2.7
408.879	2.71
409.238	2.71
409.596	2.74
409.955	2.7
410.314	2.68
410.673	2.64
411.031	2.66
411.39	2.68
411.748	2.68
412.107	2.7
412.465	2.68
412.824	2.65
413.182	2.65
413.54	2.66
413.899	2.68
414.257	2.7
414.615	2.71
414.974	2.72
415.332	2.7
415.69	2.69
416.048	2.7
416.406	2.7
416.764	2.71
417.122	2.69
417.48	2.72
417.838	2.74
418.195	2.76
418.553	2.74
418.911	2.76
419.269	2.78
419.626	2.78
419.984	2.79
420.342	2.79
420.699	2.78
421.057	2.79
421.414	2.8
421.772	2.81
422.129	2.81
422.486	2.81
422.844	2.82
423.201	2.82
423.558	2.82
423.915	2.83
424.273	2.83
424.63	2.85
424.987	2.87
425.344	2.86
425.701	2.86
426.058	2.88
426.415	2.85
426.772	2.85
427.128	2.85
427.485	2.87
427.842	2.87
428.199	2.88
428.555	2.91
428.912	2.9
429.269	2.89
429.625	2.89
429.982	2.9
430.338	2.89
430.695	2.86
431.051	2.87
431.407	2.86
431.764	2.85
432.12	2.86
432.476	2.84
432.832	2.85
433.189	2.85
433.545	2.87
433.901	2.88
434.257	2.88
434.613	2.88
434.969	2.89
435.325	2.88
435.681	2.88
436.036	2.87
436.392	2.87
436.748	2.89
437.104	2.9
437.459	2.9
437.815	2.9
438.171	2.92
438.526	2.93
438.882	2.94
439.237	2.95
439.593	2.95
439.948	2.93
440.304	2.94
440.659	2.93
441.014	2.92
441.369	2.92
441.725	2.93
442.08	2.92
442.435	2.91
442.79	2.91
443.145	2.92
443.5	2.9
443.855	2.88
444.21	2.86
444.565	2.88
444.92	2.88
445.275	2.88
445.629	2.87
445.984	2.85
446.339	2.85
446.693	2.85
447.048	2.84
447.403	2.86
447.757	2.83
448.112	2.85
448.466	2.85
448.82	2.84
449.175	2.85
449.529	2.86
449.883	2.86
450.238	2.88
450.592	2.9
450.946	2.94
451.3	2.96
451.654	2.97
452.008	2.96
452.362	2.96
452.716	2.98
453.07	3
453.424	3.02
453.778	3.02
454.132	3.02
454.486	3.03
454.839	3.07
455.193	3.09
455.547	3.07
455.9	3.09
456.254	3.11
456.607	3.1
456.961	3.11
457.314	3.11
457.668	3.11
458.021	3.08
458.375	3.1
458.728	3.11
459.081	3.1
459.434	3.08
459.787	3.09
460.141	3.08
460.494	3.08
460.847	3.08
461.2	3.06
461.553	3.09
461.906	3.11
462.259	3.08
462.611	3.08
462.964	3.09
463.317	3.07
463.67	3.07
464.022	3.07
464.375	3.07
464.728	3.08
465.08	3.07
465.433	3.07
465.785	3.05
466.138	3.03
466.49	3.06
466.843	3.08
467.195	3.07
467.547	3.09
467.899	3.11
468.252	3.1
468.604	3.14
468.956	3.13
469.308	3.12
469.66	3.12
470.012	3.12
470.364	3.12
470.716	3.13
471.068	3.12
471.42	3.13
471.772	3.13
472.123	3.13
472.475	3.13
472.827	3.14
473.178	3.13
473.53	3.16
473.882	3.16
474.233	3.16
474.585	3.17
474.936	3.17
475.288	3.16
475.639	3.18
475.99	3.15
476.342	3.13
476.693	3.14
477.044	3.16
477.395	3.16
477.746	3.17
478.097	3.15
478.448	3.16
478.8	3.17
479.15	3.16
479.501	3.16
479.852	3.16
480.203	3.17
480.554	3.18
480.905	3.18
481.255	3.17
481.606	3.17
481.957	3.18
482.307	3.17
482.658	3.18
483.009	3.19
483.359	3.2
483.709	3.22
484.06	3.22
484.41	3.21
484.761	3.22
485.111	3.22
485.461	3.23
485.811	3.24
486.162	3.24
486.512	3.24
486.862	3.24
487.212	3.24
487.562	3.24
487.912	3.23
488.262	3.23
488.612	3.23
488.961	3.24
489.311	3.24
489.661	3.24
490.011	3.24
490.36	3.22
490.71	3.21
491.06	3.21
491.409	3.2
491.759	3.2
492.108	3.18
492.458	3.18
492.807	3.18
493.157	3.18
493.506	3.18
493.855	3.2
494.204	3.2
494.554	3.21
494.903	3.22
495.252	3.23
495.601	3.24
495.95	3.26
496.299	3.26
496.648	3.26
496.997	3.27
497.346	3.29
497.695	3.31
498.043	3.32
498.392	3.31
498.741	3.32
499.09	3.33
499.438	3.35
499.787	3.38
500.135	3.37
500.484	3.38
500.832	3.37
501.181	3.37
501.529	3.39
501.878	3.39
502.226	3.37
502.574	3.38
502.923	3.37
503.271	3.36
503.619	3.38
503.967	3.38
504.315	3.38
504.663	3.36
505.011	3.36
505.359	3.35
505.707	3.36
506.055	3.36
506.403	3.36
506.751	3.36
507.098	3.37
507.446	3.37
507.794	3.35
508.141	3.37
508.489	3.36
508.837	3.34
509.184	3.37
509.531	3.38
509.879	3.36
510.226	3.37
510.574	3.36
510.921	3.37
511.268	3.35
511.616	3.35
511.963	3.37
512.31	3.37
512.657	3.39
513.004	3.4
513.351	3.41
513.698	3.41
514.045	3.39
514.392	3.39
514.739	3.39
515.086	3.42
515.432	3.41
515.779	3.41
516.126	3.42
516.473	3.41
516.819	3.39
517.166	3.41
517.512	3.41
517.859	3.42
518.205	3.38
518.552	3.42
518.898	3.4
519.245	3.4
519.591	3.41
519.937	3.4
520.283	3.39
520.629	3.39
520.976	3.38
521.322	3.4
521.668	3.4
522.014	3.41
522.36	3.39
522.706	3.4
523.052	3.42
523.398	3.41
523.743	3.43
524.089	3.46
524.435	3.46
524.781	3.47
525.126	3.47
525.472	3.5
525.817	3.49
526.163	3.51
526.509	3.5
526.854	3.49
527.199	3.49
527.545	3.5
527.89	3.5
528.235	3.5
528.581	3.51
528.926	3.5
529.271	3.51
529.616	3.53
529.961	3.52
530.306	3.51
530.651	3.52
530.996	3.53
531.341	3.53
531.686	3.53
532.031	3.52
532.376	3.52
532.721	3.51
533.065	3.52
533.41	3.52
533.755	3.53
534.099	3.54
534.444	3.56
534.788	3.55
535.133	3.55
535.477	3.57
535.822	3.57
536.166	3.58
536.51	3.57
536.855	3.56
537.199	3.57
537.543	3.58
537.887	3.58
538.231	3.58
538.576	3.58
538.92	3.58
539.264	3.58
539.608	3.58
539.951	3.59
540.295	3.6
540.639	3.6
540.983	3.59
541.327	3.59
541.671	3.6
542.014	3.6
542.358	3.61
542.701	3.61
543.045	3.62
543.389	3.62
543.732	3.61
544.075	3.61
544.419	3.6
544.762	3.61
545.105	3.6
545.449	3.58
545.792	3.59
546.135	3.6
546.478	3.6
546.821	3.61
547.165	3.61
547.508	3.59
547.851	3.59
548.194	3.59
548.536	3.57
548.879	3.56
549.222	3.58
549.565	3.58
549.908	3.58
550.25	3.55
550.593	3.55
550.936	3.55
551.278	3.56
551.621	3.56
551.963	3.54
552.306	3.54
552.648	3.57
552.991	3.57
553.333	3.55
553.675	3.57
554.017	3.58
554.36	3.57
554.702	3.59
555.044	3.57
555.386	3.57
555.728	3.59
556.07	3.59
556.412	3.6
556.754	3.58
557.096	3.58
557.438	3.58
557.78	3.55
558.121	3.55
558.463	3.55
558.805	3.59
559.147	3.61
559.488	3.61
559.83	3.59
560.171	3.56
560.513	3.56
560.854	3.55
561.196	3.57
561.537	3.58
561.878	3.61
562.22	3.63
562.561	3.64
562.902	3.65
563.243	3.65
563.584	3.66
563.925	3.65
564.266	3.64
564.607	3.63
564.948	3.65
565.289	3.67
565.63	3.65
565.971	3.65
566.312	3.67
566.653	3.66
566.993	3.67
567.334	3.72
567.675	3.75
568.015	3.74
568.356	3.75
568.696	3.74
569.037	3.71
569.377	3.7
569.718	3.7
570.058	3.66
570.398	3.65
570.739	3.64
571.079	3.65
571.419	3.66
571.759	3.68
572.099	3.68
572.439	3.68
572.779	3.69
573.119	3.66
573.459	3.65
573.799	3.65
574.139	3.64
574.479	3.64
574.819	3.61
575.158	3.6
575.498	3.6
575.838	3.61
576.177	3.62
576.517	3.62
576.856	3.64
577.196	3.63
577.535	3.64
577.875	3.62
578.214	3.63
578.553	3.66
578.893	3.71
579.232	3.7
579.571	3.76
579.91	3.75
580.25	3.78
580.589	3.77
580.928	3.81
581.267	3.79
581.606	3.79
581.945	3.81
582.283	3.81
582.622	3.72
582.961	3.72
583.3	3.71
583.639	3.73
583.977	3.73
584.316	3.78
584.654	3.77
584.993	3.78
585.332	3.78
585.67	3.75
586.008	3.71
586.347	3.73
586.685	3.68
587.024	3.74
587.362	3.71
587.7	3.73
588.038	3.73
588.376	3.76
588.715	3.76
589.053	3.75
589.391	3.78
589.729	3.9
590.067	3.9
590.404	3.92
590.742	3.87
591.08	3.88
591.418	3.87
591.756	3.86
592.093	3.87
592.431	3.92
592.769	3.93
593.106	3.91
593.444	3.93
593.781	3.97
594.119	3.95
594.456	3.95
594.793	3.9
595.131	3.88
595.468	3.9
595.805	3.86
596.143	3.85
596.48	3.85
596.817	3.78
597.154	3.81
597.491	3.79
597.828	3.81
598.165	3.83
598.502	3.8
598.839	3.82
599.176	3.81
599.512	3.72
599.849	3.74
600.186	3.76
600.523	3.77
600.859	3.75
601.196	3.77
601.532	3.79
601.869	3.82
602.205	3.8
602.542	3.8
602.878	3.88
603.215	3.87
603.551	3.86
603.887	3.87
604.223	3.83
604.56	3.85
604.896	3.88
605.232	3.9
605.568	3.92
605.904	3.89
606.24	3.89
606.576	3.92
606.912	3.9
607.248	3.92
607.583	3.92
607.919	3.9
608.255	3.88
608.591	3.89
608.926	3.87
609.262	3.89
609.597	3.9
609.933	3.89
610.268	3.92
610.604	3.93
610.939	3.92
611.275	3.94
611.61	3.93
611.945	3.9
612.281	3.88
612.616	3.89
612.951	3.97
613.286	3.99
613.621	4.03
613.956	4.05
614.291	4.02
614.626	4.03
614.961	4.11
615.296	4.16
615.631	4.19
615.966	4.25
616.3	4.26
616.635	4.29
616.97	4.28
617.304	4.27
617.639	4.3
617.973	4.33
618.308	4.34
618.642	4.31
618.977	4.29
619.311	4.25
619.646	4.29
619.98	4.24
620.314	4.25
620.648	4.24
620.983	4.21
621.317	4.25
621.651	4.24
621.985	4.2
622.319	4.11
622.653	4.09
622.987	4.06
623.321	4.06
623.655	4
623.988	4.04
624.322	4.08
624.656	4.1
624.99	4.1
625.323	4.09
625.657	4.19
625.99	4.23
626.324	4.25
626.657	4.21
626.991	4.22
627.324	4.2
627.658	4.19
627.991	4.2
628.324	4.18
628.657	4.14
628.991	4.11
629.324	4.15
629.657	4.12
629.99	4.13
630.323	4.17
630.656	4.15
630.989	4.1
631.322	4.07
631.655	3.99
631.987	3.98
632.32	4.01
632.653	3.95
632.986	3.92
633.318	3.87
633.651	3.89
633.984	3.89
634.316	3.91
634.649	3.92
634.981	3.93
635.313	3.94
635.646	4.01
635.978	4.02
636.31	3.99
636.643	4.04
636.975	4.03
637.307	4.02
637.639	4.03
637.971	4.07
638.303	3.99
638.635	4.01
638.967	4.05
639.299	4.01
639.631	4.03
639.963	4.05
640.295	4.12
640.626	4.13
640.958	4.14
641.29	4.13
641.621	4.07
641.953	4.03
642.285	4
642.616	4.02
642.948	4.06
643.279	4.05
643.61	4.02
643.942	4.04
644.273	4.04
644.604	4.08
644.936	4.06
645.267	4.11
645.598	4.17
645.929	4.05
646.26	4.05
646.591	4.04
646.922	4.02
647.253	3.97
647.584	3.99
647.915	4
648.245	4.05
648.576	4.11
648.907	4.12
649.238	4.1
649.568	4.06
649.899	4.08
650.229	4.22
650.56	4.25
650.89	4.22
651.221	4.21
651.551	4.27
651.882	4.32
652.212	4.31
652.542	4.33
652.872	4.44
653.203	4.5
653.533	4.52
653.863	4.61
654.193	4.65
654.523	4.63
654.853	4.6
655.183	4.62
655.513	4.69
655.843	4.72
656.172	4.77
656.502	4.74
656.832	4.66
657.162	4.55
657.491	4.54
657.821	4.54
658.15	4.54
658.48	4.54
658.809	4.47
659.139	4.49
659.468	4.47
659.798	4.45
660.127	4.43
660.456	4.4
660.785	4.33
661.115	4.31
661.444	4.39
661.773	4.43
662.102	4.32
662.431	4.25
662.76	4.24
663.089	4.29
663.418	4.3
663.747	4.33
664.076	4.36
664.404	4.4
664.733	4.44
665.062	4.44
665.39	4.36
665.719	4.43
666.048	4.44
666.376	4.43
666.705	4.41
667.033	4.39
667.362	4.41
667.69	4.49
668.018	4.51
668.347	4.37
668.675	4.36
669.003	4.31
669.331	4.29
669.659	4.28
669.987	4.24
670.315	4.18
670.643	4.25
670.971	4.32
671.299	4.24
671.627	4.23
671.955	4.29
672.283	4.32
672.61	4.3
672.938	4.26
673.266	4.31
673.593	4.32
673.921	4.35
674.249	4.26
674.576	4.18
674.904	4.2
675.231	4.29
675.558	4.42
675.886	4.52
676.213	4.55
676.54	4.59
676.867	4.57
677.195	4.71
677.522	4.64
