Data from MVZ_BU57658_Reflection_00015.txt Node
Date: Tue Nov 19 12:13:46 EST 2019
User: vgr7
Spectrometer: USB2G7710
Scans to average: 3
Trigger mode: 4
Integration Time (sec): 2.000000E-2
Electric dark correction enabled: true
Boxcar width: 10
XAxis mode: Wavelengths
Number of Pixels in Spectrum: 2048
>>>>>Begin Spectral Data<<<<<
177.721	413.56
178.105	231.58
178.488	136.42
178.871	185
179.254	240
179.636	217.65
180.019	-461.22
180.402	68.75
180.785	-48.78
181.168	39.85
181.55	31.54
181.933	20.77
182.316	46.49
182.698	26.23
183.081	25.36
183.463	33.13
183.846	29.77
184.228	22.63
184.611	26.79
184.993	17.78
185.376	59.46
185.758	73.03
186.14	69.77
186.522	104.07
186.904	360
187.287	156.7
187.669	160
188.051	120.96
188.433	762.16
188.815	-354.02
189.197	-312.09
189.579	-67.77
189.961	-74.33
190.342	-23.19
190.724	-19.29
191.106	-10.68
191.488	-11.75
191.869	-13.67
192.251	-11.48
192.633	-4.68
193.014	-0.56
193.396	8.24
193.777	5.47
194.159	0.26
194.54	-3.42
194.922	-5.68
195.303	-8.79
195.684	-15.2
196.065	-11.83
196.447	-9.61
196.828	-7.77
197.209	-11.65
197.59	-31.18
197.971	-68.51
198.352	488.89
198.733	-38.3
199.114	92.96
199.495	-763.64
199.876	-294.74
200.257	3600
200.638	76.19
201.018	302.7
201.399	49.44
201.78	-49.35
202.16	40
202.541	-635.29
202.922	676.92
203.302	32.16
203.683	5.33
204.063	2.11
204.444	4.1
204.824	-1.87
205.204	25.76
205.585	1.81
205.965	17.61
206.345	2.7
206.725	-22.64
207.106	-5.58
207.486	-13.91
207.866	-27.49
208.246	-38.17
208.626	-61.8
209.006	-59.94
209.386	-120.81
209.766	-251.85
210.145	-276.03
210.525	-640
210.905	-279.43
211.285	-219.88
211.664	-200
212.044	-131.34
212.424	2314.29
212.803	190.16
213.183	457.14
213.562	37.04
213.942	-33.09
214.321	-57.66
214.701	-3.02
215.08	-23.76
215.459	0.72
215.838	27.86
216.218	-34.85
216.597	-5.74
216.976	-29.37
217.355	-21.41
217.734	-13.77
218.113	3.45
218.492	0.3
218.871	4.51
219.25	11.23
219.629	2.89
220.008	-6.64
220.387	-8.26
220.766	-3.67
221.144	-15.28
221.523	-36.76
221.902	-39.37
222.28	-23.12
222.659	-3.95
223.037	-9.56
223.416	-3.73
223.794	7.25
224.173	13.02
224.551	11.33
224.929	-0.61
225.308	-1.91
225.686	-7.22
226.064	-14.67
226.442	-8.58
226.821	-10.5
227.199	-10.29
227.577	-10.16
227.955	-4.22
228.333	-5.81
228.711	-7.67
229.089	-4.98
229.467	-0.68
229.845	2.73
230.222	-1.03
230.6	-3.34
230.978	0.19
231.356	-1.16
231.733	-2.4
232.111	-0.83
232.488	-1.96
232.866	5.64
233.243	3.62
233.621	6.29
233.998	5.17
234.376	4.52
234.753	4.98
235.13	3.02
235.508	2.35
235.885	-0.27
236.262	1.33
236.639	1.59
237.016	1.74
237.393	2.48
237.77	2.82
238.147	3.44
238.524	3.26
238.901	3.08
239.278	3.16
239.655	3.19
240.032	2.94
240.409	3.67
240.785	2.56
241.162	3.07
241.539	2.22
241.915	2.66
242.292	3.04
242.668	3.74
243.045	4.45
243.421	3.93
243.798	4.5
244.174	4.46
244.551	4.32
244.927	4.15
245.303	3.34
245.679	3.26
246.056	3.24
246.432	3.04
246.808	3.1
247.184	2.98
247.56	2.72
247.936	2.47
248.312	2.41
248.688	2.54
249.064	2.35
249.44	2.61
249.815	2.92
250.191	2.81
250.567	2.29
250.943	2.07
251.318	2.28
251.694	2
252.069	1.89
252.445	1.65
252.82	1.6
253.196	2.1
253.571	1.75
253.947	2.08
254.322	2.3
254.697	2.2
255.073	2.27
255.448	2.39
255.823	2.9
256.198	2.98
256.573	2.94
256.948	3.09
257.323	2.96
257.698	2.58
258.073	2.69
258.448	2.71
258.823	2.37
259.198	2.4
259.573	2.33
259.948	2.6
260.322	2.66
260.697	2.71
261.072	2.76
261.446	2.91
261.821	2.47
262.195	2.44
262.57	2.42
262.944	2.36
263.319	2.47
263.693	2.51
264.067	2.42
264.442	2.41
264.816	2.53
265.19	2.48
265.564	2.59
265.938	2.61
266.313	2.54
266.687	2.67
267.061	2.76
267.435	2.91
267.809	2.51
268.183	2.51
268.556	2.33
268.93	2.3
269.304	2.15
269.678	2.61
270.051	2.53
270.425	2.55
270.799	2.5
271.172	2.29
271.546	2.24
271.919	2.14
272.293	2.13
272.666	2.11
273.04	2.18
273.413	2.17
273.787	1.87
274.16	1.73
274.533	1.97
274.906	1.88
275.279	1.76
275.653	1.9
276.026	1.95
276.399	2.13
276.772	2.12
277.145	2.22
277.518	2.05
277.891	2.07
278.263	1.97
278.636	2.24
279.009	2.45
279.382	2.24
279.755	2.38
280.127	2.24
280.5	2.26
280.872	2.42
281.245	2.53
281.617	2.76
281.99	3.09
282.362	2.98
282.735	2.88
283.107	3.03
283.479	2.97
283.852	3.08
284.224	3
284.596	2.86
284.968	2.89
285.34	2.86
285.713	2.99
286.085	3.05
286.457	3.04
286.829	3.02
287.201	3.12
287.572	3.13
287.944	3.34
288.316	3.22
288.688	3.18
289.06	3.08
289.431	3.12
289.803	3.08
290.175	3.09
290.546	3.29
290.918	3.29
291.289	3.26
291.661	3.13
292.032	3.19
292.403	3.32
292.775	3.44
293.146	3.52
293.517	3.41
293.889	3.33
294.26	3.33
294.631	3.31
295.002	3.36
295.373	3.42
295.744	3.44
296.115	3.51
296.486	3.53
296.857	3.74
297.228	3.77
297.599	3.72
297.97	3.82
298.34	3.85
298.711	3.91
299.082	4.11
299.452	4.2
299.823	4.16
300.194	4.26
300.564	4.15
300.935	4.21
301.305	4.28
301.676	4.4
302.046	4.57
302.416	4.71
302.787	4.69
303.157	4.77
303.527	4.77
303.897	4.82
304.267	4.72
304.637	4.67
305.008	4.67
305.378	4.91
305.748	4.98
306.117	4.92
306.487	4.88
306.857	4.69
307.227	4.8
307.597	4.88
307.967	4.96
308.336	5.05
308.706	5.07
309.076	5.23
309.445	5.3
309.815	5.2
310.184	5.13
310.554	5.11
310.923	5.05
311.293	5.15
311.662	5.3
312.031	5.51
312.401	5.46
312.77	5.47
313.139	5.5
313.508	5.44
313.877	5.63
314.246	5.82
314.616	6.04
314.985	5.94
315.353	6.21
315.722	6.22
316.091	6.32
316.46	6.42
316.829	6.43
317.198	6.55
317.567	6.72
317.935	6.9
318.304	7.17
318.672	7.3
319.041	7.46
319.41	7.52
319.778	7.41
320.147	7.6
320.515	7.67
320.883	7.64
321.252	7.83
321.62	7.69
321.988	7.52
322.357	7.45
322.725	7.68
323.093	7.36
323.461	7.38
323.829	7.34
324.197	7.27
324.565	7.55
324.933	7.6
325.301	7.51
325.669	7.58
326.037	7.56
326.405	7.63
326.772	7.53
327.14	7.47
327.508	7.55
327.875	7.62
328.243	7.8
328.61	7.91
328.978	7.71
329.346	7.69
329.713	7.87
330.08	7.92
330.448	7.89
330.815	8.12
331.182	8.12
331.55	8.17
331.917	8.15
332.284	7.92
332.651	7.84
333.018	7.82
333.385	7.79
333.752	7.96
334.119	7.91
334.486	7.86
334.853	7.95
335.22	7.75
335.587	7.67
335.954	7.46
336.32	7.37
336.687	7.61
337.054	7.74
337.42	7.76
337.787	7.85
338.153	8.01
338.52	8.11
338.886	8.22
339.253	8.24
339.619	8.33
339.986	8.22
340.352	8.23
340.718	8.32
341.084	8.34
341.451	8.36
341.817	8.39
342.183	8.47
342.549	8.51
342.915	8.85
343.281	8.82
343.647	8.98
344.013	8.98
344.379	9.06
344.745	9.08
345.11	9.09
345.476	9.19
345.842	9.04
346.208	8.99
346.573	8.84
346.939	8.85
347.304	8.91
347.67	8.94
348.035	9.03
348.401	9.12
348.766	9.08
349.132	8.93
349.497	8.93
349.862	8.91
350.228	8.83
350.593	8.68
350.958	8.78
351.323	8.7
351.688	8.73
352.053	8.58
352.418	8.55
352.783	8.44
353.148	8.35
353.513	8.41
353.878	8.3
354.243	8.23
354.608	8.29
354.972	8.21
355.337	8.21
355.702	8.26
356.066	8.22
356.431	8.2
356.795	8.18
357.16	8.13
357.524	8
357.889	8.04
358.253	8.06
358.618	7.96
358.982	7.91
359.346	7.9
359.71	7.88
360.075	7.86
360.439	7.81
360.803	7.77
361.167	7.69
361.531	7.7
361.895	7.82
362.259	7.78
362.623	7.75
362.987	7.78
363.351	7.7
363.714	7.69
364.078	7.69
364.442	7.69
364.806	7.7
365.169	7.76
365.533	7.7
365.896	7.68
366.26	7.61
366.623	7.63
366.987	7.51
367.35	7.48
367.714	7.43
368.077	7.54
368.44	7.6
368.803	7.58
369.167	7.51
369.53	7.35
369.893	7.36
370.256	7.33
370.619	7.31
370.982	7.22
371.345	7.17
371.708	7.08
372.071	7.03
372.434	7.03
372.797	6.95
373.159	6.82
373.522	6.76
373.885	6.85
374.247	6.81
374.61	6.75
374.973	6.7
375.335	6.64
375.698	6.45
376.06	6.24
376.423	6.19
376.785	6.19
377.147	6.2
377.51	6.06
377.872	6.02
378.234	5.96
378.596	5.93
378.958	5.82
379.321	5.77
379.683	5.73
380.045	5.67
380.407	5.64
380.769	5.66
381.13	5.54
381.492	5.44
381.854	5.33
382.216	5.36
382.578	5.31
382.939	5.27
383.301	5.28
383.663	5.26
384.024	5.25
384.386	5.23
384.747	5.19
385.109	5.17
385.47	5.11
385.832	5.04
386.193	5
386.554	4.99
386.916	5.01
387.277	4.97
387.638	4.9
387.999	4.89
388.36	4.82
388.721	4.86
389.082	4.86
389.443	4.89
389.804	4.86
390.165	4.85
390.526	4.85
390.887	4.81
391.248	4.84
391.609	4.8
391.969	4.74
392.33	4.73
392.691	4.69
393.051	4.66
393.412	4.63
393.772	4.61
394.133	4.55
394.493	4.49
394.854	4.47
395.214	4.44
395.574	4.39
395.935	4.42
396.295	4.38
396.655	4.31
397.015	4.27
397.376	4.24
397.736	4.17
398.096	4.1
398.456	4.05
398.816	4.02
399.176	3.96
399.535	3.91
399.895	3.86
400.255	3.87
400.615	3.85
400.975	3.85
401.334	3.84
401.694	3.82
402.054	3.81
402.413	3.78
402.773	3.78
403.132	3.75
403.492	3.74
403.851	3.71
404.211	3.68
404.57	3.68
404.929	3.67
405.288	3.69
405.648	3.68
406.007	3.68
406.366	3.68
406.725	3.7
407.084	3.73
407.443	3.74
407.802	3.73
408.161	3.74
408.52	3.74
408.879	3.7
409.238	3.7
409.596	3.74
409.955	3.72
410.314	3.72
410.673	3.71
411.031	3.66
411.39	3.64
411.748	3.65
412.107	3.6
412.465	3.58
412.824	3.54
413.182	3.53
413.54	3.51
413.899	3.46
414.257	3.44
414.615	3.4
414.974	3.4
415.332	3.39
415.69	3.38
416.048	3.36
416.406	3.33
416.764	3.33
417.122	3.31
417.48	3.29
417.838	3.27
418.195	3.27
418.553	3.29
418.911	3.29
419.269	3.29
419.626	3.3
419.984	3.29
420.342	3.3
420.699	3.28
421.057	3.29
421.414	3.27
421.772	3.26
422.129	3.25
422.486	3.23
422.844	3.2
423.201	3.19
423.558	3.18
423.915	3.2
424.273	3.2
424.63	3.19
424.987	3.2
425.344	3.22
425.701	3.2
426.058	3.19
426.415	3.16
426.772	3.13
427.128	3.14
427.485	3.14
427.842	3.11
428.199	3.12
428.555	3.11
428.912	3.12
429.269	3.12
429.625	3.12
429.982	3.12
430.338	3.13
430.695	3.11
431.051	3.11
431.407	3.1
431.764	3.06
432.12	3.05
432.476	3.04
432.832	3.02
433.189	3.02
433.545	3.01
433.901	3.01
434.257	3.03
434.613	3
434.969	3
435.325	3.02
435.681	3
436.036	2.99
436.392	3
436.748	3.01
437.104	3
437.459	3.02
437.815	3.02
438.171	3.01
438.526	3
438.882	3.02
439.237	3.02
439.593	3.02
439.948	3.05
440.304	3.03
440.659	3.03
441.014	3.02
441.369	3.02
441.725	3.03
442.08	3.03
442.435	3.04
442.79	3.02
443.145	3.01
443.5	3.01
443.855	3
444.21	2.98
444.565	2.98
444.92	2.97
445.275	2.96
445.629	2.97
445.984	2.98
446.339	2.96
446.693	2.95
447.048	2.94
447.403	2.9
447.757	2.91
448.112	2.93
448.466	2.93
448.82	2.93
449.175	2.92
449.529	2.92
449.883	2.89
450.238	2.88
450.592	2.87
450.946	2.86
451.3	2.85
451.654	2.83
452.008	2.84
452.362	2.84
452.716	2.83
453.07	2.82
453.424	2.78
453.778	2.81
454.132	2.81
454.486	2.81
454.839	2.82
455.193	2.81
455.547	2.79
455.9	2.8
456.254	2.77
456.607	2.77
456.961	2.76
457.314	2.77
457.668	2.77
458.021	2.78
458.375	2.79
458.728	2.81
459.081	2.83
459.434	2.82
459.787	2.81
460.141	2.81
460.494	2.82
460.847	2.84
461.2	2.82
461.553	2.8
461.906	2.82
462.259	2.81
462.611	2.82
462.964	2.85
463.317	2.85
463.67	2.88
464.022	2.88
464.375	2.89
464.728	2.91
465.08	2.92
465.433	2.93
465.785	2.95
466.138	2.96
466.49	2.94
466.843	2.98
467.195	3
467.547	2.99
467.899	3
468.252	3
468.604	3.03
468.956	3.07
469.308	3.05
469.66	3.09
470.012	3.1
470.364	3.09
470.716	3.09
471.068	3.14
471.42	3.16
471.772	3.15
472.123	3.15
472.475	3.16
472.827	3.19
473.178	3.21
473.53	3.21
473.882	3.24
474.233	3.22
474.585	3.22
474.936	3.25
475.288	3.25
475.639	3.26
475.99	3.25
476.342	3.26
476.693	3.26
477.044	3.25
477.395	3.23
477.746	3.24
478.097	3.23
478.448	3.18
478.8	3.17
479.15	3.17
479.501	3.19
479.852	3.18
480.203	3.16
480.554	3.12
480.905	3.13
481.255	3.12
481.606	3.13
481.957	3.13
482.307	3.12
482.658	3.12
483.009	3.11
483.359	3.11
483.709	3.12
484.06	3.13
484.41	3.13
484.761	3.14
485.111	3.13
485.461	3.13
485.811	3.13
486.162	3.13
486.512	3.13
486.862	3.12
487.212	3.13
487.562	3.13
487.912	3.14
488.262	3.13
488.612	3.13
488.961	3.12
489.311	3.13
489.661	3.13
490.011	3.13
490.36	3.14
490.71	3.13
491.06	3.13
491.409	3.11
491.759	3.12
492.108	3.11
492.458	3.11
492.807	3.12
493.157	3.14
493.506	3.16
493.855	3.16
494.204	3.16
494.554	3.16
494.903	3.16
495.252	3.18
495.601	3.22
495.95	3.25
496.299	3.27
496.648	3.32
496.997	3.33
497.346	3.37
497.695	3.41
498.043	3.47
498.392	3.51
498.741	3.56
499.09	3.62
499.438	3.67
499.787	3.71
500.135	3.78
500.484	3.83
500.832	3.89
501.181	3.97
501.529	4.08
501.878	4.16
502.226	4.24
502.574	4.29
502.923	4.37
503.271	4.45
503.619	4.56
503.967	4.61
504.315	4.7
504.663	4.79
505.011	4.89
505.359	5
505.707	5.1
506.055	5.22
506.403	5.31
506.751	5.43
507.098	5.56
507.446	5.69
507.794	5.81
508.141	5.94
508.489	6.07
508.837	6.2
509.184	6.35
509.531	6.49
509.879	6.67
510.226	6.81
510.574	6.97
510.921	7.1
511.268	7.26
511.616	7.43
511.963	7.58
512.31	7.75
512.657	7.88
513.004	8.05
513.351	8.24
513.698	8.45
514.045	8.67
514.392	8.87
514.739	9.05
515.086	9.26
515.432	9.45
515.779	9.6
516.126	9.81
516.473	9.98
516.819	10.15
517.166	10.33
517.512	10.48
517.859	10.65
518.205	10.82
518.552	10.98
518.898	11.15
519.245	11.32
519.591	11.49
519.937	11.69
520.283	11.88
520.629	12.03
520.976	12.21
521.322	12.39
521.668	12.61
522.014	12.8
522.36	12.98
522.706	13.18
523.052	13.42
523.398	13.61
523.743	13.88
524.089	14.12
524.435	14.32
524.781	14.54
525.126	14.71
525.472	14.88
525.817	15.07
526.163	15.2
526.509	15.33
526.854	15.46
527.199	15.58
527.545	15.7
527.89	15.85
528.235	15.98
528.581	16.1
528.926	16.24
529.271	16.4
529.616	16.56
529.961	16.7
530.306	16.85
530.651	17.03
530.996	17.19
531.341	17.37
531.686	17.58
532.031	17.77
532.376	17.99
532.721	18.2
533.065	18.4
533.41	18.62
533.755	18.86
534.099	19.11
534.444	19.37
534.788	19.6
535.133	19.84
535.477	20.09
535.822	20.34
536.166	20.59
536.51	20.82
536.855	21.09
537.199	21.37
537.543	21.64
537.887	21.92
538.231	22.17
538.576	22.44
538.92	22.69
539.264	22.93
539.608	23.16
539.951	23.4
540.295	23.62
540.639	23.88
540.983	24.12
541.327	24.3
541.671	24.47
542.014	24.69
542.358	24.9
542.701	25.1
543.045	25.31
543.389	25.51
543.732	25.75
544.075	25.98
544.419	26.23
544.762	26.49
545.105	26.74
545.449	27.03
545.792	27.35
546.135	27.69
546.478	28.04
546.821	28.39
547.165	28.72
547.508	29.05
547.851	29.39
548.194	29.7
548.536	30.06
548.879	30.44
549.222	30.77
549.565	31.09
549.908	31.42
550.25	31.74
550.593	32.07
550.936	32.4
551.278	32.73
551.621	33.04
551.963	33.37
552.306	33.68
552.648	33.96
552.991	34.22
553.333	34.51
553.675	34.78
554.017	35.04
554.36	35.33
554.702	35.63
555.044	35.89
555.386	36.17
555.728	36.45
556.07	36.69
556.412	36.97
556.754	37.19
557.096	37.41
557.438	37.71
557.78	38.01
558.121	38.27
558.463	38.51
558.805	38.82
559.147	39.05
559.488	39.31
559.83	39.62
560.171	39.77
560.513	39.95
560.854	40.21
561.196	40.44
561.537	40.67
561.878	40.8
562.22	40.95
562.561	41.1
562.902	41.27
563.243	41.42
563.584	41.52
563.925	41.74
564.266	41.93
564.607	42.05
564.948	42.22
565.289	42.34
565.63	42.52
565.971	42.61
566.312	42.74
566.653	42.79
566.993	42.86
567.334	43.04
567.675	43.19
568.015	43.27
568.356	43.38
568.696	43.51
569.037	43.63
569.377	43.79
569.718	43.89
570.058	44
570.398	44.2
570.739	44.34
571.079	44.53
571.419	44.73
571.759	44.85
572.099	44.98
572.439	45.09
572.779	45.14
573.119	45.29
573.459	45.47
573.799	45.61
574.139	45.78
574.479	45.91
574.819	46.08
575.158	46.21
575.498	46.4
575.838	46.49
576.177	46.69
576.517	46.91
576.856	47.14
577.196	47.34
577.535	47.51
577.875	47.72
578.214	47.84
578.553	47.95
578.893	48.2
579.232	48.34
579.571	48.63
579.91	48.96
580.25	49.15
580.589	49.27
580.928	49.51
581.267	49.73
581.606	49.9
581.945	50.05
582.283	50.17
582.622	50.23
582.961	50.37
583.3	50.43
583.639	50.43
583.977	50.52
584.316	50.65
584.654	50.78
584.993	50.86
585.332	50.96
585.67	51.07
586.008	51.22
586.347	51.33
586.685	51.32
587.024	51.23
587.362	51.27
587.7	51.37
588.038	51.45
588.376	51.47
588.715	51.45
589.053	51.49
589.391	51.61
589.729	51.63
590.067	51.74
590.404	51.87
590.742	51.98
591.08	52.06
591.418	52.07
591.756	51.99
592.093	52.01
592.431	51.97
592.769	51.96
593.106	51.94
593.444	51.94
593.781	51.93
594.119	52.05
594.456	52.07
594.793	52.03
595.131	52.09
595.468	52.11
595.805	52.21
596.143	52.26
596.48	52.28
596.817	52.41
597.154	52.44
597.491	52.44
597.828	52.5
598.165	52.55
598.502	52.67
598.839	52.82
599.176	52.96
599.512	53.1
599.849	53.17
600.186	53.23
600.523	53.29
600.859	53.36
601.196	53.39
601.532	53.45
601.869	53.51
602.205	53.5
602.542	53.51
602.878	53.48
603.215	53.44
603.551	53.48
603.887	53.46
604.223	53.47
604.56	53.46
604.896	53.38
605.232	53.38
605.568	53.31
605.904	53.3
606.24	53.26
606.576	53.22
606.912	53.28
607.248	53.33
607.583	53.36
607.919	53.49
608.255	53.54
608.591	53.6
608.926	53.7
609.262	53.81
609.597	53.91
609.933	54.05
610.268	54.13
610.604	54.17
610.939	54.31
611.275	54.31
611.61	54.46
611.945	54.61
612.281	54.74
612.616	54.84
612.951	55.01
613.286	55.12
613.621	55.25
613.956	55.34
614.291	55.34
614.626	55.51
614.961	55.56
615.296	55.68
615.631	55.85
615.966	55.89
616.3	55.92
616.635	56.08
616.97	56.17
617.304	56.22
617.639	56.24
617.973	56.2
618.308	56.41
618.642	56.5
618.977	56.5
619.311	56.51
619.646	56.58
619.98	56.62
620.314	56.67
620.648	56.71
620.983	56.75
621.317	56.96
621.651	56.93
621.985	56.95
622.319	56.87
622.653	56.85
622.987	56.9
623.321	56.83
623.655	56.68
623.988	56.58
624.322	56.61
624.656	56.63
624.99	56.64
625.323	56.63
625.657	56.54
625.99	56.55
626.324	56.51
626.657	56.51
626.991	56.39
627.324	56.41
627.658	56.49
627.991	56.49
628.324	56.38
628.657	56.51
628.991	56.6
629.324	56.63
629.657	56.63
629.99	56.64
630.323	56.68
630.656	56.72
630.989	56.72
631.322	56.83
631.655	56.94
631.987	57
632.32	57.04
632.653	56.99
632.986	57.03
633.318	57.13
633.651	57.18
633.984	57.31
634.316	57.34
634.649	57.3
634.981	57.32
635.313	57.38
635.646	57.42
635.978	57.33
636.31	57.4
636.643	57.45
636.975	57.45
637.307	57.52
637.639	57.56
637.971	57.74
638.303	57.71
638.635	57.72
638.967	57.75
639.299	57.84
639.631	58.06
639.963	58.17
640.295	58.22
640.626	58.22
640.958	58.37
641.29	58.34
641.621	58.36
641.953	58.6
642.285	58.61
642.616	58.59
642.948	58.72
643.279	58.81
643.61	58.82
643.942	58.92
644.273	59.03
644.604	59.22
644.936	59.27
645.267	59.17
645.598	59.07
645.929	59.15
646.26	58.93
646.591	58.9
646.922	58.94
647.253	58.82
647.584	58.86
647.915	58.81
648.245	58.93
648.576	58.99
648.907	58.8
649.238	58.77
649.568	58.74
649.899	58.73
650.229	58.61
650.56	58.57
650.89	58.54
651.221	58.56
651.551	58.38
651.882	58.25
652.212	58.41
652.542	58.54
652.872	58.53
653.203	58.67
653.533	58.53
653.863	58.52
654.193	58.52
654.523	58.48
654.853	58.41
655.183	58.33
655.513	58.08
655.843	57.96
656.172	58.06
656.502	57.88
656.832	57.69
657.162	57.76
657.491	57.78
657.821	57.74
658.15	57.61
658.48	57.69
658.809	57.73
659.139	57.67
659.468	57.51
659.798	57.52
660.127	57.55
660.456	57.66
660.785	57.62
661.115	57.74
661.444	57.83
661.773	57.73
662.102	57.81
662.431	58.01
662.76	58.14
663.089	58.26
663.418	58.49
663.747	58.67
664.076	58.67
664.404	58.64
664.733	58.63
665.062	58.78
665.39	58.84
665.719	58.86
666.048	58.73
666.376	58.82
666.705	58.75
667.033	58.78
667.362	58.78
667.69	58.93
668.018	58.93
668.347	58.87
668.675	59.1
