Data from MVZ_BU163024_Reflection_00015.txt Node
Date: Tue Nov 19 12:11:51 EST 2019
User: vgr7
Spectrometer: USB2G7710
Scans to average: 3
Trigger mode: 4
Integration Time (sec): 2.000000E-2
Electric dark correction enabled: true
Boxcar width: 10
XAxis mode: Wavelengths
Number of Pixels in Spectrum: 2048
>>>>>Begin Spectral Data<<<<<
177.721	-513.55
178.105	-101.75
178.488	-77.01
178.871	-149.46
179.254	-296.97
179.636	516.67
180.019	-29.11
180.402	238.46
180.785	49.52
181.168	126.84
181.55	59.2
181.933	100.66
182.316	93.48
182.698	46.17
183.081	46.92
183.463	65.65
183.846	80.67
184.228	100.4
184.611	83.37
184.993	79.22
185.376	97.39
185.758	155.05
186.14	146.2
186.522	177.97
186.904	161.9
187.287	157.31
187.669	236.48
188.051	207.54
188.433	185.7
188.815	264.39
189.197	212.59
189.579	340.03
189.961	249.32
190.342	337.52
190.724	293.44
191.106	339.21
191.488	289.71
191.869	184.74
192.251	294.29
192.633	515.92
193.014	546.78
193.396	274.28
193.777	193.31
194.159	105.81
194.54	124.82
194.922	103.36
195.303	167.68
195.684	657.47
196.065	-227.72
196.447	-112.74
196.828	-105.5
197.209	-56.62
197.59	-26.11
197.971	-14.47
198.352	-0.21
198.733	-1.34
199.114	15.83
199.495	44.8
199.876	27.89
200.257	84.63
200.638	61.77
201.018	63.13
201.399	20.59
201.78	-25.27
202.16	-28.37
202.541	-36.93
202.922	-139.21
203.302	-296.36
203.683	1426.67
204.063	812.12
204.444	1074.75
204.824	733.33
205.204	-940.23
205.585	4266.67
205.965	-810.85
206.345	1726.98
206.725	-251.58
207.106	-145.38
207.486	-141.99
207.866	-121.43
208.246	-82.49
208.626	-83.31
209.006	-65.59
209.386	-76.66
209.766	-89.61
210.145	-80.37
210.525	-92.56
210.905	-68.18
211.285	-44.33
211.664	-38.31
212.044	-29
212.424	-42.44
212.803	-45.49
213.183	-49.91
213.562	-45.81
213.942	-34.65
214.321	-37.03
214.701	-46.8
215.08	-50.99
215.459	-48.07
215.838	-34.83
216.218	-65.52
216.597	-52.59
216.976	-63.44
217.355	-42.26
217.734	-42.55
218.113	-52.08
218.492	-45.75
218.871	-41.31
219.25	-41.63
219.629	-51.92
220.008	-59.18
220.387	-52.2
220.766	-36.82
221.144	-33.06
221.523	-43.4
221.902	-44.36
222.28	-40.58
222.659	-36.87
223.037	-27.14
223.416	-35.63
223.794	-37.61
224.173	-37.45
224.551	-31.4
224.929	-38.67
225.308	-41.51
225.686	-42.76
226.064	-47.93
226.442	-44.19
226.821	-31.39
227.199	-29.2
227.577	-24.32
227.955	-20.71
228.333	-25.15
228.711	-30.62
229.089	-30.3
229.467	-28.36
229.845	-30.15
230.222	-23.59
230.6	-21.88
230.978	-19.22
231.356	-16.05
231.733	-14.32
232.111	-12.57
232.488	-14.33
232.866	-8.91
233.243	-11
233.621	-9.21
233.998	-5.27
234.376	-6.16
234.753	-8.36
235.13	-8.18
235.508	-7.26
235.885	-7.02
236.262	-4.32
236.639	-2.12
237.016	-1.04
237.393	1.7
237.77	3.8
238.147	3.51
238.524	3.75
238.901	2.51
239.278	2.79
239.655	2.27
240.032	2.17
240.409	1.66
240.785	1.19
241.162	2.64
241.539	2.54
241.915	2.59
242.292	2.46
242.668	3.89
243.045	4.05
243.421	3.8
243.798	3.67
244.174	3.63
244.551	3.38
244.927	3.33
245.303	3.17
245.679	2.78
246.056	2.43
246.432	2.58
246.808	2.9
247.184	2.9
247.56	2.91
247.936	3.02
248.312	3.47
248.688	3.51
249.064	3.31
249.44	3.24
249.815	3.22
250.191	3.31
250.567	2.94
250.943	2.83
251.318	2.7
251.694	2.57
252.069	2.63
252.445	2.88
252.82	3.19
253.196	3.14
253.571	3.16
253.947	3.05
254.322	2.44
254.697	2.08
255.073	1.99
255.448	2.16
255.823	2.4
256.198	2.09
256.573	2.3
256.948	2.51
257.323	2.66
257.698	2.59
258.073	2.73
258.448	2.68
258.823	2.7
259.198	2.91
259.573	2.94
259.948	2.99
260.322	2.74
260.697	2.6
261.072	2.42
261.446	2.5
261.821	2.54
262.195	2.75
262.57	2.85
262.944	2.93
263.319	2.79
263.693	2.65
264.067	2.99
264.442	2.87
264.816	2.6
265.19	2.63
265.564	2.74
265.938	3.01
266.313	2.97
266.687	2.71
267.061	2.66
267.435	3.01
267.809	2.56
268.183	2.63
268.556	2.54
268.93	2.63
269.304	2.66
269.678	2.89
270.051	2.76
270.425	2.93
270.799	2.72
271.172	2.85
271.546	2.95
271.919	2.61
272.293	2.75
272.666	2.85
273.04	3.06
273.413	2.91
273.787	2.77
274.16	2.69
274.533	2.73
274.906	2.75
275.279	2.54
275.653	2.66
276.026	2.85
276.399	2.76
276.772	2.98
277.145	2.87
277.518	2.62
277.891	2.77
278.263	2.71
278.636	3.03
279.009	2.92
279.382	2.95
279.755	3.1
280.127	3.01
280.5	3.14
280.872	3.06
281.245	3.21
281.617	3.15
281.99	3.23
282.362	3.27
282.735	3.08
283.107	2.94
283.479	2.99
283.852	2.88
284.224	3.06
284.596	2.87
284.968	2.85
285.34	3.06
285.713	3.2
286.085	3.15
286.457	3.07
286.829	3.14
287.201	3.03
287.572	3
287.944	3.08
288.316	3.06
288.688	3.01
289.06	2.97
289.431	2.99
289.803	3.06
290.175	3.04
290.546	3.18
290.918	3.29
291.289	3.22
291.661	3.44
292.032	3.39
292.403	3.55
292.775	3.76
293.146	3.79
293.517	3.56
293.889	3.57
294.26	3.69
294.631	3.76
295.002	3.79
295.373	3.89
295.744	3.76
296.115	3.67
296.486	3.78
296.857	3.83
297.228	3.75
297.599	3.76
297.97	3.81
298.34	3.85
298.711	3.9
299.082	3.99
299.452	3.86
299.823	3.97
300.194	3.9
300.564	3.84
300.935	3.85
301.305	3.96
301.676	3.93
302.046	3.86
302.416	3.81
302.787	3.89
303.157	3.74
303.527	3.93
303.897	3.99
304.267	3.93
304.637	3.93
305.008	3.98
305.378	4.08
305.748	4.26
306.117	4.22
306.487	4.28
306.857	4.54
307.227	4.53
307.597	4.38
307.967	4.51
308.336	4.54
308.706	4.47
309.076	4.58
309.445	4.74
309.815	4.81
310.184	4.85
310.554	4.76
310.923	4.86
311.293	4.85
311.662	4.87
312.031	4.89
312.401	4.96
312.77	4.99
313.139	5
313.508	4.91
313.877	4.88
314.246	4.86
314.616	4.76
314.985	4.82
315.353	5.12
315.722	5.22
316.091	5.24
316.46	5.38
316.829	5.31
317.198	5.38
317.567	5.47
317.935	5.4
318.304	5.6
318.672	5.75
319.041	5.77
319.41	5.82
319.778	5.96
320.147	6.05
320.515	5.95
320.883	5.89
321.252	6.06
321.62	6.3
321.988	6.41
322.357	6.41
322.725	6.53
323.093	6.37
323.461	6.35
323.829	6.41
324.197	6.44
324.565	6.52
324.933	6.41
325.301	6.11
325.669	6.13
326.037	5.98
326.405	5.92
326.772	5.98
327.14	6.03
327.508	5.85
327.875	5.84
328.243	5.97
328.61	6.23
328.978	6.23
329.346	6.28
329.713	6.33
330.08	6.39
330.448	6.33
330.815	6.32
331.182	6.39
331.55	6.26
331.917	6.21
332.284	6.23
332.651	6.34
333.018	6.57
333.385	6.72
333.752	6.91
334.119	6.94
334.486	6.8
334.853	6.71
335.22	6.75
335.587	6.75
335.954	6.64
336.32	6.51
336.687	6.44
337.054	6.38
337.42	6.39
337.787	6.4
338.153	6.51
338.52	6.51
338.886	6.56
339.253	6.78
339.619	6.82
339.986	6.74
340.352	6.75
340.718	6.79
341.084	6.85
341.451	6.78
341.817	6.87
342.183	6.99
342.549	7.13
342.915	7.33
343.281	7.26
343.647	7.42
344.013	7.38
344.379	7.48
344.745	7.59
345.11	7.61
345.476	7.68
345.842	7.63
346.208	7.71
346.573	7.63
346.939	7.61
347.304	7.6
347.67	7.67
348.035	7.76
348.401	7.87
348.766	7.77
349.132	7.88
349.497	7.99
349.862	7.93
350.228	7.83
350.593	7.81
350.958	8
351.323	7.99
351.688	8.02
352.053	7.99
352.418	7.86
352.783	7.79
353.148	7.78
353.513	7.75
353.878	7.74
354.243	7.74
354.608	7.8
354.972	7.81
355.337	7.77
355.702	7.74
356.066	7.66
356.431	7.78
356.795	7.81
357.16	7.75
357.524	7.75
357.889	7.82
358.253	7.74
358.618	7.67
358.982	7.71
359.346	7.68
359.71	7.68
360.075	7.71
360.439	7.75
360.803	7.73
361.167	7.73
361.531	7.7
361.895	7.68
362.259	7.62
362.623	7.65
362.987	7.69
363.351	7.64
363.714	7.69
364.078	7.57
364.442	7.45
364.806	7.39
365.169	7.38
365.533	7.36
365.896	7.42
366.26	7.35
366.623	7.29
366.987	7.33
367.35	7.33
367.714	7.31
368.077	7.34
368.44	7.23
368.803	7.26
369.167	7.31
369.53	7.23
369.893	7.21
370.256	7.14
370.619	7.14
370.982	7.11
371.345	6.97
371.708	6.98
372.071	6.95
372.434	6.91
372.797	6.91
373.159	6.82
373.522	6.7
373.885	6.67
374.247	6.59
374.61	6.51
374.973	6.5
375.335	6.47
375.698	6.35
376.06	6.36
376.423	6.28
376.785	6.24
377.147	6.3
377.51	6.28
377.872	6.23
378.234	6.14
378.596	6.07
378.958	6.09
379.321	6.05
379.683	6.06
380.045	6.03
380.407	5.97
380.769	5.94
381.13	5.88
381.492	5.86
381.854	5.87
382.216	5.87
382.578	5.81
382.939	5.76
383.301	5.7
383.663	5.68
384.024	5.68
384.386	5.57
384.747	5.45
385.109	5.4
385.47	5.38
385.832	5.33
386.193	5.36
386.554	5.24
386.916	5.19
387.277	5.15
387.638	5.11
387.999	5.13
388.36	5.07
388.721	5.08
389.082	5.01
389.443	4.99
389.804	4.94
390.165	4.88
390.526	4.87
390.887	4.86
391.248	4.83
391.609	4.82
391.969	4.85
392.33	4.87
392.691	4.82
393.051	4.79
393.412	4.8
393.772	4.77
394.133	4.76
394.493	4.73
394.854	4.71
395.214	4.68
395.574	4.6
395.935	4.62
396.295	4.62
396.655	4.58
397.015	4.57
397.376	4.53
397.736	4.5
398.096	4.45
398.456	4.43
398.816	4.41
399.176	4.27
399.535	4.17
399.895	4.1
400.255	4.08
400.615	4.05
400.975	4.01
401.334	3.97
401.694	3.97
402.054	3.99
402.413	4
402.773	3.97
403.132	3.96
403.492	3.97
403.851	3.92
404.211	3.95
404.57	3.93
404.929	3.88
405.288	3.89
405.648	3.91
406.007	3.92
406.366	3.89
406.725	3.92
407.084	3.97
407.443	3.99
407.802	3.96
408.161	3.97
408.52	3.97
408.879	3.96
409.238	3.93
409.596	3.95
409.955	3.91
410.314	3.93
410.673	3.95
411.031	3.86
411.39	3.9
411.748	3.92
412.107	3.9
412.465	3.92
412.824	3.89
413.182	3.87
413.54	3.85
413.899	3.86
414.257	3.84
414.615	3.83
414.974	3.82
415.332	3.82
415.69	3.78
416.048	3.74
416.406	3.69
416.764	3.68
417.122	3.63
417.48	3.62
417.838	3.59
418.195	3.56
418.553	3.57
418.911	3.55
419.269	3.51
419.626	3.49
419.984	3.49
420.342	3.49
420.699	3.46
421.057	3.48
421.414	3.47
421.772	3.47
422.129	3.45
422.486	3.43
422.844	3.43
423.201	3.42
423.558	3.42
423.915	3.43
424.273	3.45
424.63	3.46
424.987	3.44
425.344	3.44
425.701	3.41
426.058	3.39
426.415	3.37
426.772	3.34
427.128	3.35
427.485	3.33
427.842	3.33
428.199	3.34
428.555	3.29
428.912	3.25
429.269	3.22
429.625	3.23
429.982	3.24
430.338	3.23
430.695	3.22
431.051	3.22
431.407	3.21
431.764	3.17
432.12	3.17
432.476	3.21
432.832	3.19
433.189	3.21
433.545	3.2
433.901	3.21
434.257	3.23
434.613	3.22
434.969	3.22
435.325	3.21
435.681	3.22
436.036	3.23
436.392	3.25
436.748	3.28
437.104	3.28
437.459	3.26
437.815	3.26
438.171	3.28
438.526	3.28
438.882	3.29
439.237	3.32
439.593	3.31
439.948	3.29
440.304	3.3
440.659	3.3
441.014	3.32
441.369	3.31
441.725	3.32
442.08	3.3
442.435	3.31
442.79	3.32
443.145	3.31
443.5	3.31
443.855	3.29
444.21	3.28
444.565	3.26
444.92	3.29
445.275	3.3
445.629	3.28
445.984	3.28
446.339	3.27
446.693	3.26
447.048	3.24
447.403	3.23
447.757	3.22
448.112	3.23
448.466	3.23
448.82	3.21
449.175	3.22
449.529	3.24
449.883	3.21
450.238	3.18
450.592	3.16
450.946	3.18
451.3	3.18
451.654	3.17
452.008	3.17
452.362	3.13
452.716	3.12
453.07	3.13
453.424	3.13
453.778	3.13
454.132	3.11
454.486	3.12
454.839	3.09
455.193	3.12
455.547	3.1
455.9	3.13
456.254	3.15
456.607	3.17
456.961	3.15
457.314	3.17
457.668	3.19
458.021	3.18
458.375	3.16
458.728	3.15
459.081	3.16
459.434	3.16
459.787	3.15
460.141	3.17
460.494	3.16
460.847	3.16
461.2	3.17
461.553	3.19
461.906	3.19
462.259	3.22
462.611	3.22
462.964	3.23
463.317	3.22
463.67	3.21
464.022	3.22
464.375	3.22
464.728	3.21
465.08	3.23
465.433	3.23
465.785	3.26
466.138	3.27
466.49	3.27
466.843	3.32
467.195	3.34
467.547	3.34
467.899	3.35
468.252	3.36
468.604	3.38
468.956	3.4
469.308	3.4
469.66	3.43
470.012	3.43
470.364	3.45
470.716	3.46
471.068	3.49
471.42	3.47
471.772	3.49
472.123	3.53
472.475	3.52
472.827	3.54
473.178	3.54
473.53	3.54
473.882	3.56
474.233	3.53
474.585	3.55
474.936	3.56
475.288	3.54
475.639	3.55
475.99	3.53
476.342	3.52
476.693	3.51
477.044	3.48
477.395	3.48
477.746	3.48
478.097	3.46
478.448	3.44
478.8	3.44
479.15	3.43
479.501	3.41
479.852	3.4
480.203	3.41
480.554	3.42
480.905	3.43
481.255	3.41
481.606	3.41
481.957	3.41
482.307	3.4
482.658	3.4
483.009	3.39
483.359	3.4
483.709	3.41
484.06	3.41
484.41	3.42
484.761	3.42
485.111	3.41
485.461	3.41
485.811	3.41
486.162	3.41
486.512	3.41
486.862	3.42
487.212	3.42
487.562	3.4
487.912	3.4
488.262	3.4
488.612	3.4
488.961	3.41
489.311	3.41
489.661	3.4
490.011	3.41
490.36	3.41
490.71	3.41
491.06	3.4
491.409	3.41
491.759	3.41
492.108	3.41
492.458	3.42
492.807	3.43
493.157	3.43
493.506	3.46
493.855	3.46
494.204	3.47
494.554	3.49
494.903	3.52
495.252	3.52
495.601	3.54
495.95	3.58
496.299	3.6
496.648	3.62
496.997	3.66
497.346	3.69
497.695	3.72
498.043	3.76
498.392	3.78
498.741	3.8
499.09	3.84
499.438	3.89
499.787	3.92
500.135	3.95
500.484	3.97
500.832	3.99
501.181	4.04
501.529	4.11
501.878	4.15
502.226	4.21
502.574	4.28
502.923	4.34
503.271	4.38
503.619	4.44
503.967	4.5
504.315	4.59
504.663	4.67
505.011	4.76
505.359	4.82
505.707	4.91
506.055	5
506.403	5.07
506.751	5.14
507.098	5.26
507.446	5.36
507.794	5.47
508.141	5.58
508.489	5.68
508.837	5.76
509.184	5.83
509.531	5.92
509.879	6
510.226	6.11
510.574	6.23
510.921	6.32
511.268	6.44
511.616	6.55
511.963	6.64
512.31	6.75
512.657	6.87
513.004	6.98
513.351	7.12
513.698	7.28
514.045	7.42
514.392	7.56
514.739	7.73
515.086	7.88
515.432	8.05
515.779	8.22
516.126	8.4
516.473	8.57
516.819	8.73
517.166	8.89
517.512	9
517.859	9.16
518.205	9.31
518.552	9.46
518.898	9.59
519.245	9.75
519.591	9.88
519.937	10.03
520.283	10.2
520.629	10.35
520.976	10.52
521.322	10.72
521.668	10.89
522.014	11.07
522.36	11.26
522.706	11.44
523.052	11.63
523.398	11.8
523.743	12.04
524.089	12.28
524.435	12.5
524.781	12.72
525.126	12.91
525.472	13.1
525.817	13.26
526.163	13.45
526.509	13.63
526.854	13.76
527.199	13.91
527.545	14.05
527.89	14.19
528.235	14.34
528.581	14.48
528.926	14.61
529.271	14.77
529.616	14.93
529.961	15.1
530.306	15.27
530.651	15.47
530.996	15.66
531.341	15.86
531.686	16.05
532.031	16.24
532.376	16.44
532.721	16.63
533.065	16.86
533.41	17.06
533.755	17.25
534.099	17.51
534.444	17.74
534.788	17.95
535.133	18.2
535.477	18.45
535.822	18.68
536.166	18.98
536.51	19.26
536.855	19.55
537.199	19.86
537.543	20.15
537.887	20.46
538.231	20.79
538.576	21.1
538.92	21.41
539.264	21.71
539.608	22
539.951	22.26
540.295	22.55
540.639	22.81
540.983	23.07
541.327	23.33
541.671	23.58
542.014	23.85
542.358	24.1
542.701	24.31
543.045	24.6
543.389	24.85
543.732	25.08
544.075	25.34
544.419	25.58
544.762	25.87
545.105	26.16
545.449	26.43
545.792	26.73
546.135	27.05
546.478	27.41
546.821	27.75
547.165	28.16
547.508	28.47
547.851	28.83
548.194	29.19
548.536	29.54
548.879	29.93
549.222	30.29
549.565	30.63
549.908	31.02
550.25	31.35
550.593	31.67
550.936	32.08
551.278	32.41
551.621	32.77
551.963	33.11
552.306	33.43
552.648	33.79
552.991	34.06
553.333	34.35
553.675	34.62
554.017	34.94
554.36	35.23
554.702	35.48
555.044	35.79
555.386	36.08
555.728	36.4
556.07	36.67
556.412	36.92
556.754	37.27
557.096	37.55
557.438	37.84
557.78	38.12
558.121	38.39
558.463	38.73
558.805	38.98
559.147	39.26
559.488	39.55
559.83	39.78
560.171	40.1
560.513	40.43
560.854	40.77
561.196	41.01
561.537	41.25
561.878	41.59
562.22	41.81
562.561	42.06
562.902	42.29
563.243	42.6
563.584	42.82
563.925	43.01
564.266	43.27
564.607	43.52
564.948	43.7
565.289	43.96
565.63	44.15
565.971	44.36
566.312	44.54
566.653	44.71
566.993	44.89
567.334	45.03
567.675	45.21
568.015	45.34
568.356	45.54
568.696	45.75
569.037	45.96
569.377	46.14
569.718	46.34
570.058	46.46
570.398	46.57
570.739	46.78
571.079	46.96
571.419	47.14
571.759	47.31
572.099	47.48
572.439	47.62
572.779	47.81
573.119	48.02
573.459	48.17
573.799	48.33
574.139	48.49
574.479	48.73
574.819	48.87
575.158	49.04
575.498	49.2
575.838	49.31
576.177	49.41
576.517	49.59
576.856	49.72
577.196	49.99
577.535	50.18
577.875	50.41
578.214	50.6
578.553	50.79
578.893	50.98
579.232	51.2
579.571	51.36
579.91	51.48
580.25	51.64
580.589	51.88
580.928	52.09
581.267	52.27
581.606	52.39
581.945	52.57
582.283	52.76
582.622	52.94
582.961	53.11
583.3	53.26
583.639	53.45
583.977	53.49
584.316	53.62
584.654	53.62
584.993	53.65
585.332	53.64
585.67	53.66
586.008	53.7
586.347	53.79
586.685	53.8
587.024	53.94
587.362	54.02
587.7	54.15
588.038	54.3
588.376	54.3
588.715	54.37
589.053	54.45
589.391	54.52
589.729	54.62
590.067	54.72
590.404	54.78
590.742	54.77
591.08	54.89
591.418	54.92
591.756	55.09
592.093	55.2
592.431	55.36
592.769	55.4
593.106	55.49
593.444	55.6
593.781	55.73
594.119	55.73
594.456	55.72
594.793	55.76
595.131	55.78
595.468	55.87
595.805	55.91
596.143	55.94
596.48	56.01
596.817	56.09
597.154	56.17
597.491	56.28
597.828	56.33
598.165	56.41
598.502	56.48
598.839	56.53
599.176	56.57
599.512	56.59
599.849	56.71
600.186	56.73
600.523	56.74
600.859	56.81
601.196	56.81
601.532	56.95
601.869	56.99
602.205	57
602.542	57.04
602.878	57.09
603.215	57.12
603.551	57.11
603.887	57.05
604.223	57.05
604.56	57
604.896	57.02
605.232	57.1
605.568	57.13
605.904	57.08
606.24	57.15
606.576	57.2
606.912	57.25
607.248	57.27
607.583	57.3
607.919	57.31
608.255	57.43
608.591	57.42
608.926	57.41
609.262	57.49
609.597	57.58
609.933	57.71
610.268	57.78
610.604	57.87
610.939	58
611.275	58.12
611.61	58.2
611.945	58.39
612.281	58.48
612.616	58.5
612.951	58.65
613.286	58.7
613.621	58.81
613.956	58.83
614.291	58.86
614.626	58.99
614.961	59.09
615.296	59.22
615.631	59.32
615.966	59.47
616.3	59.56
616.635	59.64
616.97	59.62
617.304	59.62
617.639	59.62
617.973	59.61
618.308	59.64
618.642	59.65
618.977	59.6
619.311	59.6
619.646	59.6
619.98	59.63
620.314	59.68
620.648	59.73
620.983	59.75
621.317	59.86
621.651	59.91
621.985	59.81
622.319	59.77
622.653	59.69
622.987	59.58
623.321	59.52
623.655	59.49
623.988	59.51
624.322	59.51
624.656	59.48
624.99	59.46
625.323	59.4
625.657	59.56
625.99	59.59
626.324	59.59
626.657	59.63
626.991	59.62
627.324	59.49
627.658	59.5
627.991	59.64
628.324	59.64
628.657	59.65
628.991	59.76
629.324	59.73
629.657	59.89
629.99	59.98
630.323	60.01
630.656	59.95
630.989	60
631.322	60.06
631.655	60.19
631.987	60.27
632.32	60.31
632.653	60.28
632.986	60.31
633.318	60.27
633.651	60.35
633.984	60.52
634.316	60.65
634.649	60.68
634.981	60.55
635.313	60.55
635.646	60.58
635.978	60.69
636.31	60.73
636.643	60.66
636.975	60.75
637.307	60.85
637.639	61
637.971	60.99
638.303	60.89
638.635	60.85
638.967	60.95
639.299	61.05
639.631	61.08
639.963	61.03
640.295	61.13
640.626	61.08
640.958	60.97
641.29	61.1
641.621	61.01
641.953	61.02
642.285	61.01
642.616	60.99
642.948	60.86
643.279	60.92
643.61	60.9
643.942	60.9
644.273	60.99
644.604	60.98
644.936	61.08
645.267	61.36
645.598	61.56
645.929	61.5
646.26	61.48
646.591	61.52
646.922	61.59
647.253	61.66
647.584	61.81
647.915	61.92
648.245	61.89
648.576	61.91
648.907	61.97
649.238	61.96
649.568	62
649.899	62.12
650.229	62.2
650.56	62.26
650.89	62.24
651.221	62.28
651.551	62.22
651.882	62.04
652.212	62.02
652.542	61.84
652.872	61.88
653.203	61.77
653.533	61.71
653.863	61.72
654.193	61.45
654.523	61.39
654.853	61.38
655.183	61.43
655.513	61.46
655.843	61.36
656.172	61.46
656.502	61.36
656.832	61.17
657.162	61.15
657.491	61.32
657.821	61.32
658.15	61.17
658.48	61.16
658.809	61.31
659.139	61.24
659.468	61.25
659.798	61.24
660.127	61.36
660.456	61.37
660.785	61.4
661.115	61.57
661.444	61.59
661.773	61.55
662.102	61.43
662.431	61.5
662.76	61.69
663.089	61.73
663.418	61.85
663.747	62.09
664.076	62.11
664.404	62.1
664.733	62.14
665.062	62.19
665.39	62.35
665.719	62.38
666.048	62.42
666.376	62.57
