Data from MVZ_BU88648_Reflection_00004.txt Node
Date: Tue Nov 19 12:01:58 EST 2019
User: vgr7
Spectrometer: USB2G7710
Scans to average: 3
Trigger mode: 4
Integration Time (sec): 2.000000E-2
Electric dark correction enabled: true
Boxcar width: 10
XAxis mode: Wavelengths
Number of Pixels in Spectrum: 2048
>>>>>Begin Spectral Data<<<<<
177.721	-1495.59
178.105	-177.11
178.488	-120.07
178.871	-242.31
179.254	-28.85
179.636	12.16
180.019	28.67
180.402	62.5
180.785	156.98
181.168	-3.15
181.55	-136.61
181.933	383.65
182.316	-699.11
182.698	-442.21
183.081	-131.51
183.463	-106.59
183.846	-83.75
184.228	-91.25
184.611	-92.82
184.993	-17.55
185.376	-3.47
185.758	-6.83
186.14	-9.49
186.522	38.32
186.904	46.7
187.287	73.64
187.669	56.09
188.051	64.05
188.433	24.45
188.815	18.54
189.197	50.35
189.579	64.29
189.961	80.44
190.342	77.7
190.724	47.59
191.106	69.04
191.488	46.59
191.869	45.11
192.251	55.39
192.633	64.92
193.014	83.98
193.396	47.1
193.777	45.28
194.159	14.02
194.54	-12.21
194.922	-78.65
195.303	-103.4
195.684	-177.85
196.065	-251.17
196.447	-185.22
196.828	-314.26
197.209	-270.58
197.59	-146.98
197.971	-99.93
198.352	-82.26
198.733	-74.26
199.114	-74.52
199.495	-93.83
199.876	-163.2
200.257	-204.94
200.638	-88.9
201.018	-105.45
201.399	-112.19
201.78	-111.81
202.16	-111.4
202.541	-116.05
202.922	-61.24
203.302	-63.98
203.683	-57.19
204.063	-27.89
204.444	-36.11
204.824	-39.4
205.204	-23.51
205.585	-30.25
205.965	-33.89
206.345	-19.92
206.725	-14.64
207.106	-18.99
207.486	-17.92
207.866	-15.28
208.246	-4.94
208.626	-20.59
209.006	-15.09
209.386	-1.54
209.766	-10.99
210.145	-6.45
210.525	3.5
210.905	-12.04
211.285	8.26
211.664	17.68
212.044	17.96
212.424	17.24
212.803	26.18
213.183	13.73
213.562	20.03
213.942	22.39
214.321	9.83
214.701	4.59
215.08	2.32
215.459	10.04
215.838	4.56
216.218	13.7
216.597	20.26
216.976	25.93
217.355	19.88
217.734	26.32
218.113	33.19
218.492	27.02
218.871	24.68
219.25	17.84
219.629	11.69
220.008	9.59
220.387	17.88
220.766	29.3
221.144	24.72
221.523	25.83
221.902	15.17
222.28	21.43
222.659	24.84
223.037	26.74
223.416	26.6
223.794	38.19
224.173	36.12
224.551	39.4
224.929	27.16
225.308	23.45
225.686	23.85
226.064	23.8
226.442	21.91
226.821	18.67
227.199	18.8
227.577	14.97
227.955	12.26
228.333	10.45
228.711	2.97
229.089	3.07
229.467	-1.55
229.845	-0.31
230.222	1.8
230.6	2.66
230.978	4.11
231.356	1.06
231.733	1.17
232.111	-1.93
232.488	-2.73
232.866	-0.73
233.243	-1.87
233.621	-2.97
233.998	-3.13
234.376	-4
234.753	-4.33
235.13	-4.1
235.508	-2.94
235.885	-2.42
236.262	-2.01
236.639	-0.73
237.016	-0.31
237.393	1
237.77	1.83
238.147	1.5
238.524	2.44
238.901	2.09
239.278	2.54
239.655	2.97
240.032	3.67
240.409	4.19
240.785	4.73
241.162	5.2
241.539	5.39
241.915	5.11
242.292	5.55
242.668	5.98
243.045	6.33
243.421	5.98
243.798	6.64
244.174	6.23
244.551	6.08
244.927	5.97
245.303	5.96
245.679	6.1
246.056	5.77
246.432	5.79
246.808	6.12
247.184	6.21
247.56	5.75
247.936	5.55
248.312	5.48
248.688	5.33
249.064	5.24
249.44	4.96
249.815	5.02
250.191	4.79
250.567	4.73
250.943	4.31
251.318	4.32
251.694	3.71
252.069	3.96
252.445	3.98
252.82	4.31
253.196	4.16
253.571	4.05
253.947	4.32
254.322	3.72
254.697	3.18
255.073	2.85
255.448	3.33
255.823	3.39
256.198	3.35
256.573	3.47
256.948	3.85
257.323	4.21
257.698	4.35
258.073	4.29
258.448	4.31
258.823	4.21
259.198	4.34
259.573	4.31
259.948	4.23
260.322	4.02
260.697	4.1
261.072	4.03
261.446	3.91
261.821	3.8
262.195	3.87
262.57	3.91
262.944	4.01
263.319	4.06
263.693	4.03
264.067	4.04
264.442	3.95
264.816	3.64
265.19	3.54
265.564	3.24
265.938	3.42
266.313	3.11
266.687	3.14
267.061	3.25
267.435	3.49
267.809	3.38
268.183	3.66
268.556	3.38
268.93	3.46
269.304	3.46
269.678	3.63
270.051	3.56
270.425	3.47
270.799	3.24
271.172	3.09
271.546	3.3
271.919	3.25
272.293	3.35
272.666	3.44
273.04	3.43
273.413	3.51
273.787	3.63
274.16	3.78
274.533	3.93
274.906	3.68
275.279	3.47
275.653	3.61
276.026	3.38
276.399	3.3
276.772	3.17
277.145	3.02
277.518	2.87
277.891	3.05
278.263	3.35
278.636	3.8
279.009	3.89
279.382	3.83
279.755	3.91
280.127	3.76
280.5	3.55
280.872	3.4
281.245	3.43
281.617	3.22
281.99	3.35
282.362	3.31
282.735	3.61
283.107	3.73
283.479	3.85
283.852	4.09
284.224	4.17
284.596	4.2
284.968	4.31
285.34	4.34
285.713	4.31
286.085	4.11
286.457	4.04
286.829	4.06
287.201	4
287.572	4.05
287.944	4.09
288.316	4.37
288.688	4.68
289.06	4.65
289.431	4.8
289.803	4.87
290.175	4.8
290.546	4.65
290.918	4.63
291.289	4.48
291.661	4.38
292.032	4.4
292.403	4.6
292.775	4.7
293.146	4.86
293.517	4.79
293.889	4.78
294.26	4.68
294.631	4.71
295.002	4.77
295.373	4.66
295.744	4.63
296.115	4.59
296.486	4.46
296.857	4.47
297.228	4.36
297.599	4.32
297.97	4.46
298.34	4.44
298.711	4.34
299.082	4.43
299.452	4.45
299.823	4.48
300.194	4.32
300.564	4.11
300.935	4.09
301.305	4.08
301.676	4.06
302.046	4.18
302.416	4.09
302.787	4.06
303.157	4.14
303.527	4.06
303.897	4
304.267	3.93
304.637	4
305.008	3.96
305.378	3.94
305.748	3.85
306.117	3.86
306.487	3.95
306.857	3.87
307.227	4
307.597	4.01
307.967	3.99
308.336	4.07
308.706	4.03
309.076	4.08
309.445	4.14
309.815	4.07
310.184	4.01
310.554	4.01
310.923	3.89
311.293	3.88
311.662	3.83
312.031	3.86
312.401	3.76
312.77	3.81
313.139	3.66
313.508	3.69
313.877	3.71
314.246	3.73
314.616	3.77
314.985	3.68
315.353	3.46
315.722	3.55
316.091	3.54
316.46	3.51
316.829	3.65
317.198	3.66
317.567	3.63
317.935	3.77
318.304	3.95
318.672	4.12
319.041	4.08
319.41	4.15
319.778	4.2
320.147	4.32
320.515	4.22
320.883	4.27
321.252	4.27
321.62	4.22
321.988	4.28
322.357	4.24
322.725	4.06
323.093	4.1
323.461	3.96
323.829	4.02
324.197	3.89
324.565	3.68
324.933	3.65
325.301	3.65
325.669	3.66
326.037	3.43
326.405	3.34
326.772	3.47
327.14	3.49
327.508	3.29
327.875	3.18
328.243	3.19
328.61	3.05
328.978	2.89
329.346	2.96
329.713	2.94
330.08	2.93
330.448	2.9
330.815	3.06
331.182	3.09
331.55	3.01
331.917	3.07
332.284	3.09
332.651	3.1
333.018	3.19
333.385	3.16
333.752	3.25
334.119	3.23
334.486	3.12
334.853	3.17
335.22	3.3
335.587	3.29
335.954	3.17
336.32	3.27
336.687	3.45
337.054	3.33
337.42	3.31
337.787	3.32
338.153	3.45
338.52	3.43
338.886	3.52
339.253	3.49
339.619	3.49
339.986	3.48
340.352	3.43
340.718	3.33
341.084	3.38
341.451	3.35
341.817	3.36
342.183	3.42
342.549	3.35
342.915	3.31
343.281	3.32
343.647	3.41
344.013	3.38
344.379	3.36
344.745	3.35
345.11	3.32
345.476	3.32
345.842	3.32
346.208	3.32
346.573	3.39
346.939	3.51
347.304	3.53
347.67	3.46
348.035	3.44
348.401	3.36
348.766	3.36
349.132	3.39
349.497	3.41
349.862	3.41
350.228	3.45
350.593	3.53
350.958	3.62
351.323	3.65
351.688	3.82
352.053	3.89
352.418	3.91
352.783	3.99
353.148	3.98
353.513	3.91
353.878	3.85
354.243	3.72
354.608	3.69
354.972	3.62
355.337	3.74
355.702	3.82
356.066	3.82
356.431	3.75
356.795	3.74
357.16	3.79
357.524	3.77
357.889	3.76
358.253	3.73
358.618	3.68
358.982	3.65
359.346	3.68
359.71	3.64
360.075	3.71
360.439	3.7
360.803	3.74
361.167	3.81
361.531	3.85
361.895	3.9
362.259	3.9
362.623	3.97
362.987	3.99
363.351	3.96
363.714	4.05
364.078	4.08
364.442	3.99
364.806	3.93
365.169	3.9
365.533	3.9
365.896	3.96
366.26	3.93
366.623	3.93
366.987	3.84
367.35	3.77
367.714	3.72
368.077	3.71
368.44	3.74
368.803	3.69
369.167	3.59
369.53	3.63
369.893	3.64
370.256	3.68
370.619	3.61
370.982	3.56
371.345	3.54
371.708	3.63
372.071	3.76
372.434	3.82
372.797	3.86
373.159	3.85
373.522	3.78
373.885	3.84
374.247	3.76
374.61	3.72
374.973	3.76
375.335	3.8
375.698	3.76
376.06	3.71
376.423	3.71
376.785	3.73
377.147	3.69
377.51	3.69
377.872	3.62
378.234	3.68
378.596	3.75
378.958	3.76
379.321	3.65
379.683	3.63
380.045	3.58
380.407	3.6
380.769	3.64
381.13	3.65
381.492	3.59
381.854	3.62
382.216	3.66
382.578	3.65
382.939	3.63
383.301	3.63
383.663	3.66
384.024	3.63
384.386	3.67
384.747	3.66
385.109	3.67
385.47	3.69
385.832	3.62
386.193	3.57
386.554	3.5
386.916	3.52
387.277	3.48
387.638	3.52
387.999	3.51
388.36	3.51
388.721	3.51
389.082	3.55
389.443	3.61
389.804	3.6
390.165	3.61
390.526	3.56
390.887	3.54
391.248	3.48
391.609	3.52
391.969	3.53
392.33	3.54
392.691	3.48
393.051	3.45
393.412	3.52
393.772	3.55
394.133	3.56
394.493	3.58
394.854	3.58
395.214	3.6
395.574	3.56
395.935	3.53
396.295	3.51
396.655	3.45
397.015	3.45
397.376	3.47
397.736	3.46
398.096	3.47
398.456	3.49
398.816	3.53
399.176	3.51
399.535	3.48
399.895	3.48
400.255	3.51
400.615	3.55
400.975	3.49
401.334	3.5
401.694	3.5
402.054	3.49
402.413	3.51
402.773	3.46
403.132	3.48
403.492	3.51
403.851	3.53
404.211	3.56
404.57	3.56
404.929	3.57
405.288	3.57
405.648	3.59
406.007	3.59
406.366	3.59
406.725	3.62
407.084	3.65
407.443	3.65
407.802	3.67
408.161	3.66
408.52	3.66
408.879	3.65
409.238	3.69
409.596	3.71
409.955	3.71
410.314	3.73
410.673	3.73
411.031	3.72
411.39	3.72
411.748	3.77
412.107	3.73
412.465	3.72
412.824	3.75
413.182	3.73
413.54	3.76
413.899	3.76
414.257	3.74
414.615	3.75
414.974	3.76
415.332	3.75
415.69	3.75
416.048	3.77
416.406	3.78
416.764	3.77
417.122	3.76
417.48	3.78
417.838	3.78
418.195	3.78
418.553	3.78
418.911	3.78
419.269	3.76
419.626	3.76
419.984	3.76
420.342	3.76
420.699	3.78
421.057	3.77
421.414	3.76
421.772	3.77
422.129	3.76
422.486	3.76
422.844	3.76
423.201	3.77
423.558	3.79
423.915	3.8
424.273	3.79
424.63	3.79
424.987	3.77
425.344	3.78
425.701	3.8
426.058	3.81
426.415	3.81
426.772	3.82
427.128	3.85
427.485	3.86
427.842	3.85
428.199	3.82
428.555	3.83
428.912	3.83
429.269	3.82
429.625	3.85
429.982	3.84
430.338	3.81
430.695	3.79
431.051	3.78
431.407	3.77
431.764	3.78
432.12	3.79
432.476	3.8
432.832	3.8
433.189	3.78
433.545	3.76
433.901	3.75
434.257	3.73
434.613	3.71
434.969	3.71
435.325	3.7
435.681	3.7
436.036	3.71
436.392	3.73
436.748	3.73
437.104	3.7
437.459	3.71
437.815	3.72
438.171	3.72
438.526	3.71
438.882	3.72
439.237	3.74
439.593	3.75
439.948	3.76
440.304	3.74
440.659	3.74
441.014	3.76
441.369	3.77
441.725	3.76
442.08	3.76
442.435	3.77
442.79	3.79
443.145	3.79
443.5	3.79
443.855	3.76
444.21	3.78
444.565	3.8
444.92	3.81
445.275	3.82
445.629	3.82
445.984	3.84
446.339	3.82
446.693	3.81
447.048	3.8
447.403	3.79
447.757	3.77
448.112	3.8
448.466	3.79
448.82	3.79
449.175	3.79
449.529	3.81
449.883	3.81
450.238	3.8
450.592	3.81
450.946	3.82
451.3	3.84
451.654	3.82
452.008	3.81
452.362	3.81
452.716	3.81
453.07	3.8
453.424	3.8
453.778	3.79
454.132	3.78
454.486	3.78
454.839	3.81
455.193	3.84
455.547	3.83
455.9	3.83
456.254	3.83
456.607	3.86
456.961	3.87
457.314	3.87
457.668	3.89
458.021	3.89
458.375	3.88
458.728	3.89
459.081	3.9
459.434	3.87
459.787	3.87
460.141	3.88
460.494	3.91
460.847	3.91
461.2	3.92
461.553	3.93
461.906	3.93
462.259	3.91
462.611	3.9
462.964	3.9
463.317	3.91
463.67	3.93
464.022	3.89
464.375	3.89
464.728	3.88
465.08	3.87
465.433	3.89
465.785	3.9
466.138	3.87
466.49	3.91
466.843	3.94
467.195	3.94
467.547	3.92
467.899	3.89
468.252	3.88
468.604	3.87
468.956	3.89
469.308	3.89
469.66	3.92
470.012	3.95
470.364	3.95
470.716	3.94
471.068	3.93
471.42	3.95
471.772	3.95
472.123	3.95
472.475	3.97
472.827	3.95
473.178	3.94
473.53	3.95
473.882	3.91
474.233	3.92
474.585	3.92
474.936	3.93
475.288	3.94
475.639	3.96
475.99	3.96
476.342	3.97
476.693	3.96
477.044	3.94
477.395	3.93
477.746	3.92
478.097	3.93
478.448	3.94
478.8	3.94
479.15	3.93
479.501	3.95
479.852	3.93
480.203	3.94
480.554	3.94
480.905	3.96
481.255	3.96
481.606	3.96
481.957	3.97
482.307	3.99
482.658	3.99
483.009	3.99
483.359	4
483.709	4
484.06	4
484.41	4.01
484.761	4.02
485.111	4.03
485.461	4.03
485.811	4.02
486.162	4.02
486.512	4.04
486.862	4.03
487.212	4.03
487.562	4.03
487.912	4.02
488.262	4.02
488.612	4.02
488.961	4.01
489.311	4
489.661	4
490.011	3.99
490.36	3.99
490.71	3.98
491.06	3.99
491.409	4
491.759	4
492.108	3.98
492.458	3.97
492.807	3.97
493.157	3.98
493.506	3.98
493.855	3.96
494.204	3.97
494.554	3.97
494.903	3.98
495.252	4
495.601	4
495.95	4
496.299	4.01
496.648	4.03
496.997	4.04
497.346	4.07
497.695	4.08
498.043	4.09
498.392	4.07
498.741	4.05
499.09	4.07
499.438	4.09
499.787	4.1
500.135	4.11
500.484	4.11
500.832	4.1
501.181	4.11
501.529	4.12
501.878	4.11
502.226	4.12
502.574	4.13
502.923	4.16
503.271	4.17
503.619	4.18
503.967	4.16
504.315	4.15
504.663	4.14
505.011	4.12
505.359	4.12
505.707	4.13
506.055	4.13
506.403	4.12
506.751	4.1
507.098	4.12
507.446	4.11
507.794	4.13
508.141	4.14
508.489	4.16
508.837	4.15
509.184	4.17
509.531	4.16
509.879	4.15
510.226	4.14
510.574	4.12
510.921	4.11
511.268	4.13
511.616	4.15
511.963	4.14
512.31	4.16
512.657	4.17
513.004	4.17
513.351	4.18
513.698	4.18
514.045	4.18
514.392	4.19
514.739	4.21
515.086	4.23
515.432	4.24
515.779	4.24
516.126	4.26
516.473	4.26
516.819	4.25
517.166	4.27
517.512	4.26
517.859	4.27
518.205	4.28
518.552	4.28
518.898	4.27
519.245	4.29
519.591	4.26
519.937	4.26
520.283	4.27
520.629	4.27
520.976	4.27
521.322	4.28
521.668	4.26
522.014	4.25
522.36	4.25
522.706	4.22
523.052	4.23
523.398	4.23
523.743	4.22
524.089	4.25
524.435	4.26
524.781	4.28
525.126	4.29
525.472	4.29
525.817	4.29
526.163	4.29
526.509	4.3
526.854	4.32
527.199	4.33
527.545	4.34
527.89	4.35
528.235	4.36
528.581	4.35
528.926	4.34
529.271	4.35
529.616	4.35
529.961	4.37
530.306	4.37
530.651	4.37
530.996	4.38
531.341	4.38
531.686	4.38
532.031	4.38
532.376	4.38
532.721	4.38
533.065	4.38
533.41	4.37
533.755	4.37
534.099	4.36
534.444	4.37
534.788	4.36
535.133	4.36
535.477	4.36
535.822	4.38
536.166	4.39
536.51	4.38
536.855	4.39
537.199	4.37
537.543	4.39
537.887	4.38
538.231	4.37
538.576	4.37
538.92	4.39
539.264	4.4
539.608	4.4
539.951	4.41
540.295	4.39
540.639	4.4
540.983	4.4
541.327	4.43
541.671	4.42
542.014	4.43
542.358	4.42
542.701	4.42
543.045	4.42
543.389	4.42
543.732	4.43
544.075	4.43
544.419	4.45
544.762	4.43
545.105	4.44
545.449	4.46
545.792	4.45
546.135	4.42
546.478	4.41
546.821	4.42
547.165	4.45
547.508	4.48
547.851	4.48
548.194	4.46
548.536	4.42
548.879	4.42
549.222	4.4
549.565	4.39
549.908	4.38
550.25	4.39
550.593	4.37
550.936	4.37
551.278	4.36
551.621	4.32
551.963	4.34
552.306	4.36
552.648	4.36
552.991	4.38
553.333	4.39
553.675	4.41
554.017	4.38
554.36	4.34
554.702	4.35
555.044	4.33
555.386	4.34
555.728	4.37
556.07	4.38
556.412	4.39
556.754	4.37
557.096	4.38
557.438	4.39
557.78	4.39
558.121	4.39
558.463	4.4
558.805	4.43
559.147	4.45
559.488	4.42
559.83	4.39
560.171	4.38
560.513	4.35
560.854	4.33
561.196	4.36
561.537	4.35
561.878	4.36
562.22	4.38
562.561	4.4
562.902	4.39
563.243	4.39
563.584	4.4
563.925	4.46
564.266	4.46
564.607	4.46
564.948	4.44
565.289	4.46
565.63	4.44
565.971	4.43
566.312	4.39
566.653	4.4
566.993	4.4
567.334	4.44
567.675	4.48
568.015	4.5
568.356	4.5
568.696	4.52
569.037	4.54
569.377	4.52
569.718	4.51
570.058	4.52
570.398	4.5
570.739	4.5
571.079	4.47
571.419	4.47
571.759	4.43
572.099	4.44
572.439	4.45
572.779	4.46
573.119	4.47
573.459	4.49
573.799	4.49
574.139	4.5
574.479	4.48
574.819	4.48
575.158	4.48
575.498	4.47
575.838	4.48
576.177	4.44
576.517	4.47
576.856	4.47
577.196	4.49
577.535	4.5
577.875	4.49
578.214	4.5
578.553	4.5
578.893	4.55
579.232	4.57
579.571	4.56
579.91	4.56
580.25	4.58
580.589	4.54
580.928	4.55
581.267	4.53
581.606	4.49
581.945	4.48
582.283	4.44
582.622	4.39
582.961	4.4
583.3	4.38
583.639	4.37
583.977	4.41
584.316	4.42
584.654	4.42
584.993	4.44
585.332	4.45
585.67	4.48
586.008	4.44
586.347	4.42
586.685	4.39
587.024	4.38
587.362	4.37
587.7	4.42
588.038	4.44
588.376	4.45
588.715	4.51
589.053	4.51
589.391	4.52
589.729	4.6
590.067	4.56
590.404	4.59
590.742	4.6
591.08	4.59
591.418	4.54
591.756	4.56
592.093	4.55
592.431	4.56
592.769	4.48
593.106	4.5
593.444	4.54
593.781	4.57
594.119	4.58
594.456	4.58
594.793	4.59
595.131	4.57
595.468	4.57
595.805	4.55
596.143	4.57
596.48	4.59
596.817	4.58
597.154	4.58
597.491	4.57
597.828	4.57
598.165	4.55
598.502	4.57
598.839	4.54
599.176	4.55
599.512	4.52
599.849	4.55
600.186	4.55
600.523	4.52
600.859	4.53
601.196	4.55
601.532	4.53
601.869	4.51
602.205	4.51
602.542	4.5
602.878	4.51
603.215	4.48
603.551	4.48
603.887	4.47
604.223	4.47
604.56	4.48
604.896	4.49
605.232	4.49
605.568	4.49
605.904	4.51
606.24	4.52
606.576	4.55
606.912	4.57
607.248	4.62
607.583	4.6
607.919	4.59
608.255	4.59
608.591	4.63
608.926	4.64
609.262	4.65
609.597	4.66
609.933	4.67
610.268	4.7
610.604	4.71
610.939	4.7
611.275	4.71
611.61	4.7
611.945	4.67
612.281	4.69
612.616	4.71
612.951	4.72
613.286	4.69
613.621	4.69
613.956	4.68
614.291	4.6
614.626	4.66
614.961	4.7
615.296	4.7
615.631	4.65
615.966	4.65
616.3	4.7
616.635	4.71
616.97	4.72
617.304	4.67
617.639	4.69
617.973	4.69
618.308	4.72
618.642	4.71
618.977	4.73
619.311	4.71
619.646	4.68
619.98	4.69
620.314	4.73
620.648	4.66
620.983	4.65
621.317	4.7
621.651	4.73
621.985	4.65
622.319	4.6
622.653	4.58
622.987	4.55
623.321	4.54
623.655	4.53
623.988	4.51
624.322	4.57
624.656	4.58
624.99	4.57
625.323	4.54
625.657	4.56
625.99	4.54
626.324	4.53
626.657	4.57
626.991	4.55
627.324	4.49
627.658	4.55
627.991	4.6
628.324	4.6
628.657	4.54
628.991	4.57
629.324	4.63
629.657	4.66
629.99	4.72
630.323	4.67
630.656	4.7
630.989	4.72
631.322	4.63
631.655	4.57
631.987	4.56
632.32	4.57
632.653	4.53
632.986	4.54
633.318	4.6
633.651	4.5
633.984	4.48
634.316	4.45
634.649	4.48
634.981	4.47
635.313	4.47
635.646	4.48
635.978	4.45
636.31	4.41
636.643	4.35
636.975	4.3
637.307	4.37
637.639	4.41
637.971	4.41
638.303	4.45
638.635	4.45
638.967	4.51
639.299	4.5
639.631	4.53
639.963	4.56
640.295	4.59
640.626	4.64
640.958	4.68
641.29	4.73
641.621	4.73
641.953	4.72
642.285	4.69
642.616	4.67
642.948	4.7
643.279	4.7
643.61	4.79
643.942	4.8
644.273	4.8
644.604	4.71
644.936	4.76
645.267	4.81
645.598	4.9
645.929	4.82
646.26	4.81
646.591	4.85
646.922	4.87
647.253	4.8
647.584	4.71
647.915	4.71
648.245	4.73
648.576	4.66
648.907	4.63
649.238	4.63
649.568	4.72
649.899	4.72
650.229	4.8
650.56	4.77
650.89	4.8
651.221	4.77
651.551	4.83
651.882	4.76
652.212	4.69
652.542	4.69
652.872	4.59
653.203	4.66
653.533	4.71
653.863	4.69
654.193	4.75
654.523	4.82
654.853	4.86
655.183	4.88
655.513	4.94
655.843	4.99
656.172	5.03
656.502	4.93
656.832	4.91
657.162	4.89
657.491	4.89
657.821	4.89
658.15	4.92
658.48	4.96
658.809	4.98
659.139	5.06
659.468	4.98
659.798	5.15
660.127	5.11
660.456	5.03
660.785	5.03
661.115	5.04
661.444	5.1
661.773	5.04
662.102	5.01
662.431	4.96
662.76	4.95
663.089	4.98
663.418	5.07
663.747	5.15
664.076	5.12
664.404	5.19
664.733	5.19
665.062	5.2
665.39	5.09
665.719	5.05
666.048	5.07
666.376	5.17
666.705	5.04
667.033	5.04
667.362	5.07
667.69	5.1
668.018	4.99
668.347	4.94
668.675	4.94
669.003	4.96
669.331	5.02
669.659	5.06
669.987	4.98
670.315	4.88
670.643	4.89
670.971	4.97
671.299	4.95
671.627	4.95
671.955	4.95
672.283	5
672.61	5.1
672.938	5.05
673.266	5.08
673.593	5.21
673.921	5.17
674.249	5.17
674.576	5.19
674.904	5.28
675.231	5.27
675.558	5.34
675.886	5.39
676.213	5.39
676.54	5.37
676.867	5.39
677.195	5.4
677.522	5.39
677.849	5.32
678.176	5.32
678.503	5.35
678.83	5.29
