Data from MVZ_BU57658_Reflection_00010.txt Node
Date: Tue Nov 19 12:13:36 EST 2019
User: vgr7
Spectrometer: USB2G7710
Scans to average: 3
Trigger mode: 4
Integration Time (sec): 2.000000E-2
Electric dark correction enabled: true
Boxcar width: 10
XAxis mode: Wavelengths
Number of Pixels in Spectrum: 2048
>>>>>Begin Spectral Data<<<<<
177.721	289.27
178.105	82.46
178.488	-40.18
178.871	108.33
179.254	146.67
179.636	256.86
180.019	-46.26
180.402	250
180.785	-8.13
181.168	-21.55
181.55	8.02
181.933	33.52
182.316	73.55
182.698	19.98
183.081	3.54
183.463	27.81
183.846	45.14
184.228	58.04
184.611	55.87
184.993	41.48
185.376	49.16
185.758	66.11
186.14	103.88
186.522	114.91
186.904	293.33
187.287	201.37
187.669	154.67
188.051	122.95
188.433	419.82
188.815	-208.43
189.197	-271.79
189.579	-85.49
189.961	-94.76
190.342	-40.44
190.724	-52
191.106	-41.03
191.488	-12.29
191.869	-8.22
192.251	-9.26
192.633	-11.62
193.014	-23.53
193.396	-33.37
193.777	-27.03
194.159	-21.03
194.54	-35.28
194.922	-31.14
195.303	-31.5
195.684	-32.62
196.065	-25.54
196.447	-52.65
196.828	-54.89
197.209	-58.04
197.59	-21.04
197.971	-9.58
198.352	-251.85
198.733	-66.67
199.114	125.82
199.495	-1521.21
199.876	-943.86
200.257	-8733.33
200.638	139.68
201.018	-39.64
201.399	-104.12
201.78	-174.89
202.16	-586.67
202.541	-733.33
202.922	728.21
203.302	65.66
203.683	-3.56
204.063	-2.81
204.444	9.06
204.824	14.33
205.204	25.16
205.585	14.6
205.965	1.05
206.345	2.06
206.725	20.68
207.106	21.76
207.486	8.12
207.866	20.74
208.246	28.76
208.626	-11.52
209.006	8.26
209.386	9.48
209.766	27.16
210.145	-39.12
210.525	-17.78
210.905	-12.29
211.285	38.92
211.664	231.37
212.044	192.04
212.424	-66.67
212.803	-17.49
213.183	-76.19
213.562	12.35
213.942	0.48
214.321	11.41
214.701	-14.74
215.08	-14.96
215.459	21.18
215.838	36.15
216.218	5.26
216.597	50.83
216.976	18.8
217.355	25.75
217.734	-2.93
218.113	12.35
218.492	2.76
218.871	7.02
219.25	-16.59
219.629	-16.91
220.008	0.74
220.387	2.75
220.766	2.91
221.144	4.73
221.523	17.75
221.902	30.21
222.28	23.89
222.659	37.48
223.037	33.82
223.416	23.19
223.794	19.34
224.173	18
224.551	17.28
224.929	7.15
225.308	0.4
225.686	3.06
226.064	-5.66
226.442	-2.2
226.821	-2.53
227.199	3.21
227.577	5.74
227.955	5.93
228.333	8.12
228.711	2.3
229.089	0.42
229.467	-4.6
229.845	-5.3
230.222	-1.83
230.6	-6.07
230.978	-2.45
231.356	-0.04
231.733	0.72
232.111	3.23
232.488	0.53
232.866	4.11
233.243	5.18
233.621	7.82
233.998	9.62
234.376	8.84
234.753	6.99
235.13	7.57
235.508	4.59
235.885	1.95
236.262	1.81
236.639	3.25
237.016	3.16
237.393	5.95
237.77	6.15
238.147	3.78
238.524	5.56
238.901	4.74
239.278	3.91
239.655	3.52
240.032	3.25
240.409	4.03
240.785	4.03
241.162	4.1
241.539	3.44
241.915	3.13
242.292	2.85
242.668	3.56
243.045	3.44
243.421	3.6
243.798	3.99
244.174	4.06
244.551	4.56
244.927	4.54
245.303	4.28
245.679	3.85
246.056	4.05
246.432	4.03
246.808	4.05
247.184	4.33
247.56	4.35
247.936	4.38
248.312	4.4
248.688	4.17
249.064	4.21
249.44	4.36
249.815	4.84
250.191	5.21
250.567	4.96
250.943	5.32
251.318	5.36
251.694	5.39
252.069	5.44
252.445	5.02
252.82	5.39
253.196	5.35
253.571	5.59
253.947	5.56
254.322	5.26
254.697	5.48
255.073	5.19
255.448	5.29
255.823	5.11
256.198	4.77
256.573	4.84
256.948	4.7
257.323	4.55
257.698	4.11
258.073	3.79
258.448	3.78
258.823	3.38
259.198	3.45
259.573	3.21
259.948	3.22
260.322	3.25
260.697	3.21
261.072	3.06
261.446	3.11
261.821	3.04
262.195	3.1
262.57	2.92
262.944	2.9
263.319	2.9
263.693	2.92
264.067	3.03
264.442	3.03
264.816	2.81
265.19	2.89
265.564	2.85
265.938	2.88
266.313	2.92
266.687	3.05
267.061	3.04
267.435	3.25
267.809	3.25
268.183	3.17
268.556	3.19
268.93	3.23
269.304	3.1
269.678	3.39
270.051	3.32
270.425	3.35
270.799	3.37
271.172	3.23
271.546	3.3
271.919	3.31
272.293	3.41
272.666	3.38
273.04	3.29
273.413	3.31
273.787	3.36
274.16	3.15
274.533	3.19
274.906	3.23
275.279	3.06
275.653	2.96
276.026	3.09
276.399	2.99
276.772	3.01
277.145	3.19
277.518	3.01
277.891	3.07
278.263	3.24
278.636	3.19
279.009	3.14
279.382	2.87
279.755	2.88
280.127	2.94
280.5	3.18
280.872	3.17
281.245	2.96
281.617	3.08
281.99	3.29
282.362	3.28
282.735	3.28
283.107	3.23
283.479	3.25
283.852	3.26
284.224	3.31
284.596	3.31
284.968	3.24
285.34	3.36
285.713	3.38
286.085	3.24
286.457	3.36
286.829	3.36
287.201	3.51
287.572	3.44
287.944	3.49
288.316	3.58
288.688	3.57
289.06	3.83
289.431	3.86
289.803	3.82
290.175	3.74
290.546	3.78
290.918	4.03
291.289	4.02
291.661	4.07
292.032	4.02
292.403	4.25
292.775	4.35
293.146	4.4
293.517	4.51
293.889	4.52
294.26	4.49
294.631	4.57
295.002	4.47
295.373	4.51
295.744	4.52
296.115	4.38
296.486	4.4
296.857	4.43
297.228	4.32
297.599	4.35
297.97	4.41
298.34	4.44
298.711	4.43
299.082	4.48
299.452	4.43
299.823	4.36
300.194	4.16
300.564	4.08
300.935	4.01
301.305	3.83
301.676	3.82
302.046	3.87
302.416	3.86
302.787	4.03
303.157	4.06
303.527	4.01
303.897	4
304.267	4.09
304.637	3.91
305.008	3.95
305.378	4.15
305.748	4.16
306.117	4.25
306.487	4.22
306.857	4.49
307.227	4.63
307.597	4.72
307.967	5.03
308.336	5.22
308.706	5.27
309.076	5.51
309.445	5.65
309.815	5.67
310.184	5.76
310.554	5.71
310.923	5.67
311.293	5.72
311.662	5.89
312.031	5.89
312.401	6.01
312.77	6.11
313.139	6.03
313.508	6.06
313.877	5.96
314.246	6.11
314.616	6.1
314.985	6.22
315.353	6.41
315.722	6.23
316.091	6.21
316.46	6.18
316.829	6.15
317.198	6.28
317.567	6.37
317.935	6.27
318.304	6.42
318.672	6.66
319.041	6.74
319.41	6.7
319.778	6.75
320.147	6.65
320.515	6.58
320.883	6.66
321.252	6.73
321.62	6.82
321.988	6.91
322.357	6.8
322.725	6.66
323.093	6.71
323.461	6.84
323.829	6.87
324.197	6.9
324.565	6.83
324.933	6.57
325.301	6.54
325.669	6.75
326.037	6.79
326.405	6.74
326.772	6.69
327.14	6.69
327.508	6.68
327.875	6.83
328.243	6.97
328.61	6.95
328.978	7.03
329.346	7.01
329.713	6.92
330.08	7.03
330.448	7.14
330.815	7.21
331.182	7.16
331.55	7.4
331.917	7.41
332.284	7.54
332.651	7.72
333.018	7.76
333.385	7.69
333.752	7.6
334.119	7.74
334.486	7.84
334.853	7.77
335.22	7.77
335.587	7.8
335.954	7.8
336.32	7.89
336.687	7.85
337.054	7.92
337.42	8.02
337.787	7.97
338.153	7.96
338.52	8.05
338.886	8.08
339.253	7.85
339.619	7.97
339.986	7.99
340.352	8
340.718	7.99
341.084	8.06
341.451	8.24
341.817	8.21
342.183	8.16
342.549	8.28
342.915	8.38
343.281	8.39
343.647	8.35
344.013	8.36
344.379	8.37
344.745	8.4
345.11	8.35
345.476	8.4
345.842	8.28
346.208	8.19
346.573	8.22
346.939	8.28
347.304	8.23
347.67	8.24
348.035	8.33
348.401	8.48
348.766	8.43
349.132	8.38
349.497	8.37
349.862	8.34
350.228	8.33
350.593	8.38
350.958	8.48
351.323	8.58
351.688	8.54
352.053	8.58
352.418	8.49
352.783	8.5
353.148	8.49
353.513	8.59
353.878	8.49
354.243	8.45
354.608	8.57
354.972	8.45
355.337	8.34
355.702	8.29
356.066	8.14
356.431	8.13
356.795	8.11
357.16	8
357.524	7.9
357.889	7.93
358.253	7.88
358.618	7.76
358.982	7.74
359.346	7.78
359.71	7.75
360.075	7.75
360.439	7.76
360.803	7.78
361.167	7.7
361.531	7.71
361.895	7.69
362.259	7.62
362.623	7.69
362.987	7.74
363.351	7.64
363.714	7.67
364.078	7.68
364.442	7.65
364.806	7.67
365.169	7.73
365.533	7.6
365.896	7.58
366.26	7.59
366.623	7.53
366.987	7.44
367.35	7.44
367.714	7.45
368.077	7.39
368.44	7.36
368.803	7.35
369.167	7.22
369.53	7.19
369.893	7.17
370.256	7.06
370.619	6.98
370.982	7
371.345	6.9
371.708	6.9
372.071	6.8
372.434	6.68
372.797	6.7
373.159	6.73
373.522	6.65
373.885	6.58
374.247	6.51
374.61	6.54
374.973	6.45
375.335	6.4
375.698	6.32
376.06	6.26
376.423	6.2
376.785	6.21
377.147	6.15
377.51	5.98
377.872	6.04
378.234	6.02
378.596	5.96
378.958	5.96
379.321	5.81
379.683	5.78
380.045	5.76
380.407	5.69
380.769	5.59
381.13	5.57
381.492	5.52
381.854	5.53
382.216	5.5
382.578	5.49
382.939	5.43
383.301	5.37
383.663	5.26
384.024	5.21
384.386	5.17
384.747	5.17
385.109	5.2
385.47	5.12
385.832	5.07
386.193	5.02
386.554	4.98
386.916	5.04
387.277	5.03
387.638	4.99
387.999	4.93
388.36	4.95
388.721	4.93
389.082	4.94
389.443	4.96
389.804	4.91
390.165	4.85
390.526	4.86
390.887	4.89
391.248	4.9
391.609	4.95
391.969	4.97
392.33	4.94
392.691	4.92
393.051	4.88
393.412	4.91
393.772	4.93
394.133	4.92
394.493	4.81
394.854	4.77
395.214	4.79
395.574	4.77
395.935	4.71
396.295	4.65
396.655	4.6
397.015	4.49
397.376	4.44
397.736	4.43
398.096	4.36
398.456	4.3
398.816	4.29
399.176	4.19
399.535	4.13
399.895	4.06
400.255	4.03
400.615	4.02
400.975	3.96
401.334	3.94
401.694	3.92
402.054	3.92
402.413	3.9
402.773	3.91
403.132	3.9
403.492	3.91
403.851	3.94
404.211	3.94
404.57	3.93
404.929	3.93
405.288	3.93
405.648	3.92
406.007	3.93
406.366	3.92
406.725	3.94
407.084	3.93
407.443	3.93
407.802	3.91
408.161	3.92
408.52	3.91
408.879	3.9
409.238	3.88
409.596	3.91
409.955	3.9
410.314	3.86
410.673	3.83
411.031	3.83
411.39	3.82
411.748	3.79
412.107	3.78
412.465	3.77
412.824	3.77
413.182	3.78
413.54	3.76
413.899	3.73
414.257	3.76
414.615	3.76
414.974	3.79
415.332	3.8
415.69	3.77
416.048	3.75
416.406	3.69
416.764	3.66
417.122	3.64
417.48	3.65
417.838	3.63
418.195	3.61
418.553	3.6
418.911	3.58
419.269	3.54
419.626	3.53
419.984	3.51
420.342	3.49
420.699	3.48
421.057	3.46
421.414	3.45
421.772	3.43
422.129	3.42
422.486	3.39
422.844	3.36
423.201	3.37
423.558	3.36
423.915	3.38
424.273	3.39
424.63	3.37
424.987	3.36
425.344	3.35
425.701	3.35
426.058	3.32
426.415	3.3
426.772	3.32
427.128	3.33
427.485	3.31
427.842	3.31
428.199	3.3
428.555	3.31
428.912	3.32
429.269	3.3
429.625	3.3
429.982	3.31
430.338	3.32
430.695	3.3
431.051	3.31
431.407	3.28
431.764	3.27
432.12	3.29
432.476	3.28
432.832	3.3
433.189	3.29
433.545	3.32
433.901	3.34
434.257	3.33
434.613	3.3
434.969	3.32
435.325	3.32
435.681	3.31
436.036	3.3
436.392	3.31
436.748	3.33
437.104	3.34
437.459	3.34
437.815	3.34
438.171	3.35
438.526	3.35
438.882	3.36
439.237	3.38
439.593	3.36
439.948	3.37
440.304	3.36
440.659	3.38
441.014	3.37
441.369	3.37
441.725	3.37
442.08	3.37
442.435	3.38
442.79	3.36
443.145	3.38
443.5	3.37
443.855	3.37
444.21	3.37
444.565	3.34
444.92	3.32
445.275	3.31
445.629	3.3
445.984	3.28
446.339	3.29
446.693	3.27
447.048	3.24
447.403	3.24
447.757	3.22
448.112	3.22
448.466	3.22
448.82	3.22
449.175	3.22
449.529	3.23
449.883	3.22
450.238	3.2
450.592	3.2
450.946	3.2
451.3	3.19
451.654	3.17
452.008	3.18
452.362	3.17
452.716	3.19
453.07	3.2
453.424	3.2
453.778	3.17
454.132	3.18
454.486	3.2
454.839	3.18
455.193	3.2
455.547	3.2
455.9	3.18
456.254	3.17
456.607	3.18
456.961	3.17
457.314	3.17
457.668	3.19
458.021	3.19
458.375	3.18
458.728	3.18
459.081	3.17
459.434	3.16
459.787	3.18
460.141	3.17
460.494	3.15
460.847	3.15
461.2	3.16
461.553	3.17
461.906	3.19
462.259	3.18
462.611	3.18
462.964	3.2
463.317	3.23
463.67	3.23
464.022	3.24
464.375	3.26
464.728	3.28
465.08	3.29
465.433	3.33
465.785	3.36
466.138	3.39
466.49	3.43
466.843	3.46
467.195	3.46
467.547	3.46
467.899	3.48
468.252	3.49
468.604	3.49
468.956	3.51
469.308	3.5
469.66	3.54
470.012	3.57
470.364	3.54
470.716	3.55
471.068	3.57
471.42	3.59
471.772	3.61
472.123	3.6
472.475	3.62
472.827	3.58
473.178	3.58
473.53	3.56
473.882	3.57
474.233	3.57
474.585	3.59
474.936	3.6
475.288	3.58
475.639	3.61
475.99	3.63
476.342	3.63
476.693	3.62
477.044	3.62
477.395	3.6
477.746	3.6
478.097	3.59
478.448	3.59
478.8	3.58
479.15	3.55
479.501	3.53
479.852	3.51
480.203	3.51
480.554	3.5
480.905	3.5
481.255	3.48
481.606	3.49
481.957	3.49
482.307	3.49
482.658	3.5
483.009	3.48
483.359	3.48
483.709	3.48
484.06	3.49
484.41	3.47
484.761	3.48
485.111	3.49
485.461	3.49
485.811	3.47
486.162	3.46
486.512	3.46
486.862	3.46
487.212	3.47
487.562	3.47
487.912	3.47
488.262	3.47
488.612	3.48
488.961	3.47
489.311	3.47
489.661	3.46
490.011	3.45
490.36	3.45
490.71	3.45
491.06	3.44
491.409	3.45
491.759	3.46
492.108	3.46
492.458	3.46
492.807	3.47
493.157	3.47
493.506	3.49
493.855	3.5
494.204	3.53
494.554	3.53
494.903	3.57
495.252	3.57
495.601	3.6
495.95	3.61
496.299	3.63
496.648	3.66
496.997	3.69
497.346	3.76
497.695	3.8
498.043	3.84
498.392	3.88
498.741	3.9
499.09	3.95
499.438	3.98
499.787	4.01
500.135	4.05
500.484	4.12
500.832	4.17
501.181	4.22
501.529	4.27
501.878	4.35
502.226	4.38
502.574	4.44
502.923	4.48
503.271	4.55
503.619	4.62
503.967	4.67
504.315	4.73
504.663	4.79
505.011	4.88
505.359	4.94
505.707	5.03
506.055	5.13
506.403	5.21
506.751	5.32
507.098	5.42
507.446	5.52
507.794	5.64
508.141	5.77
508.489	5.88
508.837	5.98
509.184	6.06
509.531	6.19
509.879	6.3
510.226	6.44
510.574	6.56
510.921	6.69
511.268	6.85
511.616	7
511.963	7.14
512.31	7.28
512.657	7.45
513.004	7.58
513.351	7.74
513.698	7.94
514.045	8.11
514.392	8.3
514.739	8.5
515.086	8.66
515.432	8.83
515.779	9
516.126	9.22
516.473	9.4
516.819	9.56
517.166	9.73
517.512	9.9
517.859	10.09
518.205	10.23
518.552	10.4
518.898	10.56
519.245	10.73
519.591	10.88
519.937	11.02
520.283	11.2
520.629	11.37
520.976	11.54
521.322	11.74
521.668	11.95
522.014	12.14
522.36	12.33
522.706	12.51
523.052	12.77
523.398	13
523.743	13.27
524.089	13.54
524.435	13.77
524.781	14.01
525.126	14.24
525.472	14.47
525.817	14.62
526.163	14.79
526.509	14.96
526.854	15.12
527.199	15.28
527.545	15.45
527.89	15.59
528.235	15.74
528.581	15.88
528.926	16.05
529.271	16.21
529.616	16.39
529.961	16.56
530.306	16.73
530.651	16.91
530.996	17.07
531.341	17.26
531.686	17.48
532.031	17.65
532.376	17.86
532.721	18.05
533.065	18.3
533.41	18.54
533.755	18.79
534.099	19.03
534.444	19.28
534.788	19.51
535.133	19.76
535.477	20.05
535.822	20.31
536.166	20.57
536.51	20.89
536.855	21.21
537.199	21.51
537.543	21.81
537.887	22.13
538.231	22.44
538.576	22.75
538.92	23.09
539.264	23.42
539.608	23.7
539.951	23.96
540.295	24.23
540.639	24.49
540.983	24.75
541.327	24.99
541.671	25.25
542.014	25.48
542.358	25.71
542.701	25.9
543.045	26.15
543.389	26.37
543.732	26.61
544.075	26.86
544.419	27.12
544.762	27.37
545.105	27.67
545.449	27.95
545.792	28.27
546.135	28.55
546.478	28.84
546.821	29.13
547.165	29.49
547.508	29.82
547.851	30.12
548.194	30.41
548.536	30.72
548.879	31.03
549.222	31.37
549.565	31.71
549.908	31.97
550.25	32.27
550.593	32.6
550.936	32.86
551.278	33.12
551.621	33.46
551.963	33.78
552.306	34.04
552.648	34.36
552.991	34.68
553.333	34.92
553.675	35.25
554.017	35.58
554.36	35.82
554.702	36.04
555.044	36.26
555.386	36.53
555.728	36.81
556.07	37.02
556.412	37.26
556.754	37.53
557.096	37.91
557.438	38.21
557.78	38.41
558.121	38.71
558.463	38.98
558.805	39.18
559.147	39.39
559.488	39.61
559.83	39.87
560.171	39.99
560.513	40.29
560.854	40.51
561.196	40.77
561.537	41
561.878	41.28
562.22	41.5
562.561	41.71
562.902	41.95
563.243	42.21
563.584	42.39
563.925	42.56
564.266	42.67
564.607	42.78
564.948	43.02
565.289	43.23
565.63	43.43
565.971	43.6
566.312	43.8
566.653	43.99
566.993	44.16
567.334	44.38
567.675	44.51
568.015	44.67
568.356	44.78
568.696	44.93
569.037	45.09
569.377	45.23
569.718	45.38
570.058	45.52
570.398	45.67
570.739	45.8
571.079	46.02
571.419	46.22
571.759	46.37
572.099	46.45
572.439	46.56
572.779	46.65
573.119	46.84
573.459	47
573.799	47.09
574.139	47.24
574.479	47.32
574.819	47.45
575.158	47.57
575.498	47.7
575.838	47.83
576.177	47.92
576.517	48.07
576.856	48.22
577.196	48.34
577.535	48.43
577.875	48.6
578.214	48.63
578.553	48.72
578.893	48.91
579.232	49.04
579.571	49.11
579.91	49.34
580.25	49.37
580.589	49.38
580.928	49.54
581.267	49.68
581.606	49.85
581.945	49.94
582.283	50.06
582.622	50.11
582.961	50.21
583.3	50.28
583.639	50.36
583.977	50.4
584.316	50.53
584.654	50.68
584.993	50.76
585.332	50.88
585.67	51.05
586.008	51.15
586.347	51.28
586.685	51.41
587.024	51.38
587.362	51.38
587.7	51.54
588.038	51.67
588.376	51.72
588.715	51.71
589.053	51.77
589.391	51.8
589.729	51.85
590.067	51.88
590.404	51.97
590.742	52.02
591.08	52.11
591.418	52.19
591.756	52.22
592.093	52.26
592.431	52.28
592.769	52.27
593.106	52.41
593.444	52.45
593.781	52.51
594.119	52.56
594.456	52.73
594.793	52.77
595.131	52.81
595.468	52.84
595.805	52.96
596.143	53.06
596.48	53.14
596.817	53.26
597.154	53.38
597.491	53.45
597.828	53.45
598.165	53.55
598.502	53.62
598.839	53.7
599.176	53.81
599.512	53.93
599.849	54.06
600.186	54.13
600.523	54.25
600.859	54.32
601.196	54.42
601.532	54.45
601.869	54.51
602.205	54.56
602.542	54.58
602.878	54.61
603.215	54.69
603.551	54.72
603.887	54.79
604.223	54.78
604.56	54.73
604.896	54.86
605.232	54.86
605.568	54.79
605.904	54.76
606.24	54.74
606.576	54.84
606.912	54.91
607.248	54.86
607.583	54.78
607.919	54.77
608.255	54.81
608.591	54.89
608.926	54.89
609.262	54.91
609.597	54.97
609.933	55.02
610.268	55
610.604	54.99
610.939	55
611.275	55.12
611.61	55.21
611.945	55.2
612.281	55.33
612.616	55.48
612.951	55.62
613.286	55.69
613.621	55.73
613.956	55.68
614.291	55.69
614.626	55.89
614.961	55.98
615.296	56.01
615.631	56.09
615.966	56.14
616.3	56.2
616.635	56.32
616.97	56.32
617.304	56.27
617.639	56.34
617.973	56.35
618.308	56.34
618.642	56.42
618.977	56.5
619.311	56.38
619.646	56.39
619.98	56.41
620.314	56.45
620.648	56.41
620.983	56.41
621.317	56.52
621.651	56.55
621.985	56.61
622.319	56.64
622.653	56.6
622.987	56.68
623.321	56.76
623.655	56.65
623.988	56.65
624.322	56.78
624.656	56.87
624.99	56.93
625.323	56.97
625.657	56.97
625.99	56.9
626.324	56.98
626.657	56.99
626.991	56.94
627.324	56.94
627.658	57.03
627.991	57.06
628.324	57.06
628.657	57
628.991	57.05
629.324	57.07
629.657	57.05
629.99	57.08
630.323	57.04
630.656	57.09
630.989	57.14
631.322	57.1
631.655	57.12
631.987	57.11
632.32	57.19
632.653	57.12
632.986	57.19
633.318	57.15
633.651	57.16
633.984	57.21
634.316	57.3
634.649	57.31
634.981	57.45
635.313	57.43
635.646	57.54
635.978	57.51
636.31	57.6
636.643	57.62
636.975	57.62
637.307	57.55
637.639	57.6
637.971	57.63
638.303	57.7
638.635	57.66
638.967	57.73
639.299	57.64
639.631	57.72
639.963	57.82
640.295	58.02
640.626	58.12
640.958	58.27
641.29	58.15
641.621	58.05
641.953	58.04
642.285	58.14
642.616	58.05
642.948	58.12
643.279	58.16
643.61	58.35
643.942	58.3
644.273	58.43
644.604	58.55
644.936	58.58
645.267	58.52
645.598	58.52
645.929	58.56
646.26	58.55
646.591	58.61
646.922	58.59
647.253	58.46
647.584	58.43
647.915	58.28
648.245	58.41
648.576	58.4
648.907	58.35
649.238	58.29
649.568	58.34
649.899	58.27
650.229	58.12
650.56	58.06
650.89	58.14
651.221	58.16
651.551	58.09
651.882	57.99
652.212	58.09
652.542	58.25
652.872	58.3
653.203	58.35
653.533	58.37
653.863	58.37
654.193	58.46
654.523	58.52
654.853	58.69
655.183	58.75
655.513	58.84
655.843	58.92
656.172	58.97
656.502	58.96
656.832	59.07
657.162	59.27
657.491	59.33
657.821	59.38
658.15	59.39
658.48	59.38
658.809	59.48
659.139	59.45
659.468	59.35
659.798	59.33
660.127	59.49
660.456	59.42
660.785	59.48
661.115	59.48
661.444	59.47
661.773	59.47
662.102	59.48
662.431	59.5
662.76	59.57
663.089	59.63
663.418	59.71
663.747	59.82
664.076	59.7
664.404	59.75
664.733	59.7
665.062	59.65
665.39	59.71
665.719	59.71
666.048	59.65
666.376	59.62
666.705	59.55
667.033	59.44
667.362	59.64
667.69	59.67
668.018	59.81
668.347	59.87
668.675	59.98
