Data from MVZ_BU163024_Reflection_00005.txt Node
Date: Tue Nov 19 12:11:29 EST 2019
User: vgr7
Spectrometer: USB2G7710
Scans to average: 3
Trigger mode: 4
Integration Time (sec): 2.000000E-2
Electric dark correction enabled: true
Boxcar width: 10
XAxis mode: Wavelengths
Number of Pixels in Spectrum: 2048
>>>>>Begin Spectral Data<<<<<
177.721	-795.6
178.105	-143.42
178.488	-106.44
178.871	-158.06
179.254	-90.91
179.636	303.12
180.019	233.8
180.402	207.69
180.785	45.71
181.168	83.05
181.55	64.73
181.933	90.12
182.316	48.4
182.698	28.94
183.081	7.57
183.463	-5.21
183.846	0.44
184.228	9.2
184.611	-15.71
184.993	-23.53
185.376	-70.85
185.758	-169.23
186.14	-122.81
186.522	-129.61
186.904	-142.86
187.287	-65.62
187.669	-83.02
188.051	-66.67
188.433	-51.16
188.815	-75.77
189.197	-72.57
189.579	-175.12
189.961	-169.52
190.342	-226.09
190.724	-163.05
191.106	-203.11
191.488	-206.45
191.869	-164.31
192.251	-295.03
192.633	-436.04
193.014	-332.77
193.396	-144.29
193.777	-118.15
194.159	-94.37
194.54	-117.33
194.922	-100.29
195.303	-230.3
195.684	-1193.1
196.065	375.28
196.447	266.67
196.828	289.32
197.209	182.91
197.59	113.31
197.971	94.66
198.352	72.67
198.733	29.39
199.114	51.51
199.495	46.95
199.876	29.8
200.257	11.35
200.638	-23.85
201.018	-28.32
201.399	-17.8
201.78	-14.38
202.16	8.51
202.541	-5.63
202.922	-16.58
203.302	-47.06
203.683	200
204.063	163.64
204.444	206.06
204.824	342.86
205.204	-537.93
205.585	1171.43
205.965	-120.93
206.345	552.38
206.725	8.76
207.106	19.83
207.486	28.57
207.866	17.85
208.246	34.92
208.626	35.94
209.006	42.46
209.386	56.79
209.766	62.37
210.145	24.66
210.525	25.24
210.905	26.63
211.285	32.36
211.664	34.25
212.044	36.11
212.424	31.98
212.803	37.92
213.183	36.36
213.562	30.77
213.942	20.63
214.321	23.58
214.701	13.59
215.08	9.41
215.459	3.07
215.838	-2.03
216.218	-17.9
216.597	-16.89
216.976	-15.51
217.355	-19.33
217.734	-16.84
218.113	-8.75
218.492	-12.3
218.871	-9.82
219.25	-12.67
219.629	-33.49
220.008	-14.77
220.387	-31.01
220.766	-22.15
221.144	-12.1
221.523	-6.5
221.902	-4.89
222.28	-2.48
222.659	18.51
223.037	19.73
223.416	30.69
223.794	40
224.173	36.11
224.551	34.38
224.929	26.27
225.308	13.7
225.686	12.01
226.064	8.84
226.442	18.39
226.821	15.81
227.199	11.69
227.577	18.21
227.955	18.8
228.333	24.6
228.711	26.21
229.089	27.35
229.467	23.63
229.845	20.78
230.222	22.09
230.6	20.29
230.978	16.88
231.356	12.58
231.733	13.02
232.111	13.27
232.488	12.29
232.866	15.79
233.243	17.87
233.621	18.39
233.998	19.93
234.376	18.58
234.753	18.76
235.13	17.84
235.508	15.89
235.885	13.94
236.262	12.9
236.639	10.19
237.016	10.08
237.393	9.55
237.77	10.4
238.147	9.84
238.524	9.89
238.901	8.66
239.278	7.61
239.655	6.61
240.032	6.35
240.409	6.26
240.785	4.87
241.162	5.37
241.539	5.12
241.915	4.37
242.292	4.41
242.668	4.5
243.045	5.08
243.421	5.53
243.798	5.51
244.174	5.52
244.551	5.59
244.927	5.17
245.303	4.9
245.679	4.93
246.056	4.87
246.432	4.33
246.808	4.44
247.184	4.74
247.56	4.6
247.936	4.89
248.312	5.07
248.688	5.25
249.064	5.05
249.44	5.2
249.815	5.35
250.191	5.11
250.567	4.89
250.943	4.71
251.318	4.59
251.694	4.38
252.069	4.26
252.445	4.22
252.82	4.46
253.196	4.86
253.571	4.5
253.947	4.49
254.322	4.55
254.697	5
255.073	4.81
255.448	5.14
255.823	4.95
256.198	4.54
256.573	4.64
256.948	4.65
257.323	4.49
257.698	4.38
258.073	4.31
258.448	4.44
258.823	4.31
259.198	4.19
259.573	4
259.948	4.08
260.322	3.85
260.697	3.8
261.072	3.68
261.446	3.99
261.821	3.95
262.195	4.01
262.57	3.9
262.944	3.92
263.319	3.87
263.693	3.82
264.067	3.98
264.442	3.94
264.816	3.85
265.19	3.89
265.564	3.73
265.938	3.87
266.313	3.81
266.687	3.69
267.061	3.77
267.435	3.92
267.809	3.67
268.183	3.97
268.556	4.18
268.93	4.24
269.304	3.99
269.678	3.85
270.051	3.78
270.425	3.79
270.799	3.7
271.172	3.68
271.546	3.74
271.919	3.82
272.293	3.76
272.666	3.83
273.04	3.74
273.413	3.81
273.787	3.77
274.16	3.74
274.533	3.87
274.906	3.79
275.279	4
275.653	4.07
276.026	4.17
276.399	3.97
276.772	4.07
277.145	4.21
277.518	4.07
277.891	3.97
278.263	3.75
278.636	3.84
279.009	3.89
279.382	3.89
279.755	3.81
280.127	3.95
280.5	3.96
280.872	4.26
281.245	4.28
281.617	4.19
281.99	4.22
282.362	4.2
282.735	4.2
283.107	3.94
283.479	4.08
283.852	3.96
284.224	4.02
284.596	3.98
284.968	3.89
285.34	4.07
285.713	4.36
286.085	4.42
286.457	4.4
286.829	4.25
287.201	4.3
287.572	4.29
287.944	4.17
288.316	4.17
288.688	4.07
289.06	4.1
289.431	4.17
289.803	4.14
290.175	4.07
290.546	4.08
290.918	4.21
291.289	4.09
291.661	4.12
292.032	4.22
292.403	4.06
292.775	4.12
293.146	4.21
293.517	4.21
293.889	4.28
294.26	4.23
294.631	4.33
295.002	4.26
295.373	4.11
295.744	4.23
296.115	4.3
296.486	4.25
296.857	4.23
297.228	4.22
297.599	4.23
297.97	4.38
298.34	4.48
298.711	4.57
299.082	4.6
299.452	4.43
299.823	4.32
300.194	4.41
300.564	4.34
300.935	4.28
301.305	4.34
301.676	4.16
302.046	4.18
302.416	4.31
302.787	4.32
303.157	4.43
303.527	4.39
303.897	4.32
304.267	4.44
304.637	4.66
305.008	4.65
305.378	4.77
305.748	4.62
306.117	4.53
306.487	4.49
306.857	4.57
307.227	4.88
307.597	4.91
307.967	4.92
308.336	4.92
308.706	4.97
309.076	4.79
309.445	5.03
309.815	5.15
310.184	5.05
310.554	4.95
310.923	4.87
311.293	4.86
311.662	4.76
312.031	4.68
312.401	4.57
312.77	4.53
313.139	4.53
313.508	4.64
313.877	4.68
314.246	4.61
314.616	4.65
314.985	4.46
315.353	4.44
315.722	4.48
316.091	4.55
316.46	4.53
316.829	4.59
317.198	4.48
317.567	4.37
317.935	4.27
318.304	4.51
318.672	4.64
319.041	4.64
319.41	4.72
319.778	4.78
320.147	4.68
320.515	4.84
320.883	4.72
321.252	4.68
321.62	4.55
321.988	4.44
322.357	4.44
322.725	4.35
323.093	4.33
323.461	4.17
323.829	4.17
324.197	4.1
324.565	4
324.933	3.94
325.301	3.86
325.669	3.9
326.037	3.72
326.405	3.66
326.772	3.59
327.14	3.6
327.508	3.5
327.875	3.54
328.243	3.43
328.61	3.38
328.978	3.42
329.346	3.42
329.713	3.55
330.08	3.56
330.448	3.7
330.815	3.76
331.182	3.95
331.55	4.02
331.917	4.08
332.284	4.19
332.651	4.3
333.018	4.23
333.385	4.28
333.752	4.33
334.119	4.55
334.486	4.53
334.853	4.66
335.22	4.67
335.587	4.79
335.954	4.66
336.32	4.63
336.687	4.59
337.054	4.69
337.42	4.57
337.787	4.47
338.153	4.48
338.52	4.48
338.886	4.47
339.253	4.38
339.619	4.42
339.986	4.38
340.352	4.39
340.718	4.51
341.084	4.55
341.451	4.67
341.817	4.56
342.183	4.61
342.549	4.53
342.915	4.44
343.281	4.42
343.647	4.62
344.013	4.73
344.379	4.76
344.745	4.79
345.11	4.87
345.476	4.91
345.842	4.83
346.208	4.77
346.573	4.66
346.939	4.64
347.304	4.6
347.67	4.49
348.035	4.53
348.401	4.62
348.766	4.59
349.132	4.44
349.497	4.39
349.862	4.31
350.228	4.29
350.593	4.41
350.958	4.41
351.323	4.33
351.688	4.39
352.053	4.18
352.418	4.24
352.783	4.2
353.148	4.17
353.513	4.16
353.878	4.22
354.243	4.18
354.608	4.24
354.972	4.26
355.337	4.37
355.702	4.35
356.066	4.25
356.431	4.29
356.795	4.36
357.16	4.45
357.524	4.51
357.889	4.5
358.253	4.49
358.618	4.41
358.982	4.41
359.346	4.29
359.71	4.36
360.075	4.36
360.439	4.38
360.803	4.36
361.167	4.4
361.531	4.33
361.895	4.4
362.259	4.45
362.623	4.47
362.987	4.4
363.351	4.34
363.714	4.39
364.078	4.29
364.442	4.23
364.806	4.18
365.169	4.13
365.533	4.15
365.896	4.18
366.26	4.17
366.623	4.2
366.987	4.25
367.35	4.37
367.714	4.29
368.077	4.36
368.44	4.37
368.803	4.35
369.167	4.36
369.53	4.33
369.893	4.25
370.256	4.24
370.619	4.26
370.982	4.23
371.345	4.18
371.708	4.25
372.071	4.24
372.434	4.18
372.797	4.22
373.159	4.21
373.522	4.13
373.885	4.19
374.247	4.12
374.61	4.09
374.973	3.97
375.335	4.04
375.698	3.93
376.06	3.9
376.423	3.94
376.785	3.96
377.147	3.94
377.51	3.97
377.872	3.93
378.234	3.95
378.596	3.99
378.958	4.08
379.321	4.07
379.683	4.09
380.045	4.14
380.407	4.14
380.769	4.08
381.13	4.08
381.492	4.06
381.854	4.18
382.216	4.14
382.578	4.16
382.939	4.12
383.301	4.11
383.663	4.09
384.024	4
384.386	3.98
384.747	3.99
385.109	3.97
385.47	3.97
385.832	3.96
386.193	3.93
386.554	3.83
386.916	3.84
387.277	3.85
387.638	3.86
387.999	3.86
388.36	3.88
388.721	3.87
389.082	3.91
389.443	3.83
389.804	3.91
390.165	3.96
390.526	3.95
390.887	3.98
391.248	3.98
391.609	4.05
391.969	4.05
392.33	4.07
392.691	4.07
393.051	4.03
393.412	4.03
393.772	4.06
394.133	4.11
394.493	4.09
394.854	4.07
395.214	4.07
395.574	4.06
395.935	4.07
396.295	4.1
396.655	4.04
397.015	4.04
397.376	4.02
397.736	3.98
398.096	3.96
398.456	3.97
398.816	4
399.176	3.97
399.535	3.93
399.895	3.91
400.255	3.89
400.615	3.96
400.975	3.96
401.334	3.94
401.694	3.92
402.054	3.91
402.413	3.92
402.773	3.9
403.132	3.9
403.492	3.89
403.851	3.83
404.211	3.82
404.57	3.82
404.929	3.8
405.288	3.8
405.648	3.81
406.007	3.79
406.366	3.79
406.725	3.8
407.084	3.88
407.443	3.88
407.802	3.88
408.161	3.86
408.52	3.86
408.879	3.84
409.238	3.83
409.596	3.82
409.955	3.81
410.314	3.83
410.673	3.82
411.031	3.82
411.39	3.86
411.748	3.85
412.107	3.83
412.465	3.83
412.824	3.82
413.182	3.82
413.54	3.82
413.899	3.83
414.257	3.82
414.615	3.78
414.974	3.77
415.332	3.75
415.69	3.72
416.048	3.72
416.406	3.73
416.764	3.73
417.122	3.72
417.48	3.72
417.838	3.7
418.195	3.67
418.553	3.66
418.911	3.66
419.269	3.66
419.626	3.67
419.984	3.67
420.342	3.67
420.699	3.65
421.057	3.65
421.414	3.64
421.772	3.64
422.129	3.64
422.486	3.64
422.844	3.64
423.201	3.64
423.558	3.63
423.915	3.63
424.273	3.63
424.63	3.64
424.987	3.63
425.344	3.63
425.701	3.64
426.058	3.64
426.415	3.65
426.772	3.63
427.128	3.64
427.485	3.62
427.842	3.61
428.199	3.63
428.555	3.61
428.912	3.61
429.269	3.6
429.625	3.61
429.982	3.6
430.338	3.6
430.695	3.6
431.051	3.6
431.407	3.58
431.764	3.55
432.12	3.54
432.476	3.54
432.832	3.57
433.189	3.58
433.545	3.58
433.901	3.56
434.257	3.57
434.613	3.57
434.969	3.58
435.325	3.59
435.681	3.6
436.036	3.59
436.392	3.56
436.748	3.57
437.104	3.55
437.459	3.55
437.815	3.57
438.171	3.58
438.526	3.57
438.882	3.61
439.237	3.59
439.593	3.6
439.948	3.61
440.304	3.59
440.659	3.59
441.014	3.6
441.369	3.62
441.725	3.62
442.08	3.62
442.435	3.63
442.79	3.63
443.145	3.61
443.5	3.62
443.855	3.63
444.21	3.63
444.565	3.63
444.92	3.65
445.275	3.64
445.629	3.63
445.984	3.61
446.339	3.62
446.693	3.64
447.048	3.63
447.403	3.61
447.757	3.61
448.112	3.62
448.466	3.63
448.82	3.61
449.175	3.61
449.529	3.61
449.883	3.6
450.238	3.61
450.592	3.63
450.946	3.61
451.3	3.61
451.654	3.59
452.008	3.59
452.362	3.58
452.716	3.56
453.07	3.55
453.424	3.56
453.778	3.52
454.132	3.53
454.486	3.54
454.839	3.55
455.193	3.55
455.547	3.53
455.9	3.52
456.254	3.51
456.607	3.51
456.961	3.51
457.314	3.52
457.668	3.5
458.021	3.48
458.375	3.48
458.728	3.47
459.081	3.49
459.434	3.49
459.787	3.46
460.141	3.46
460.494	3.46
460.847	3.48
461.2	3.49
461.553	3.48
461.906	3.48
462.259	3.49
462.611	3.49
462.964	3.49
463.317	3.48
463.67	3.49
464.022	3.49
464.375	3.49
464.728	3.48
465.08	3.48
465.433	3.48
465.785	3.52
466.138	3.52
466.49	3.53
466.843	3.55
467.195	3.59
467.547	3.63
467.899	3.67
468.252	3.68
468.604	3.7
468.956	3.73
469.308	3.73
469.66	3.72
470.012	3.73
470.364	3.74
470.716	3.75
471.068	3.76
471.42	3.76
471.772	3.79
472.123	3.81
472.475	3.8
472.827	3.83
473.178	3.82
473.53	3.85
473.882	3.84
474.233	3.85
474.585	3.84
474.936	3.83
475.288	3.82
475.639	3.81
475.99	3.8
476.342	3.8
476.693	3.81
477.044	3.82
477.395	3.81
477.746	3.79
478.097	3.81
478.448	3.82
478.8	3.81
479.15	3.79
479.501	3.78
479.852	3.77
480.203	3.78
480.554	3.78
480.905	3.78
481.255	3.77
481.606	3.75
481.957	3.77
482.307	3.76
482.658	3.75
483.009	3.74
483.359	3.73
483.709	3.73
484.06	3.73
484.41	3.73
484.761	3.73
485.111	3.73
485.461	3.73
485.811	3.72
486.162	3.72
486.512	3.73
486.862	3.74
487.212	3.74
487.562	3.72
487.912	3.73
488.262	3.72
488.612	3.72
488.961	3.72
489.311	3.71
489.661	3.71
490.011	3.71
490.36	3.72
490.71	3.73
491.06	3.73
491.409	3.71
491.759	3.72
492.108	3.72
492.458	3.73
492.807	3.74
493.157	3.75
493.506	3.75
493.855	3.75
494.204	3.74
494.554	3.74
494.903	3.75
495.252	3.75
495.601	3.79
495.95	3.8
496.299	3.82
496.648	3.84
496.997	3.84
497.346	3.85
497.695	3.87
498.043	3.88
498.392	3.9
498.741	3.9
499.09	3.92
499.438	3.94
499.787	3.96
500.135	3.97
500.484	3.96
500.832	3.98
501.181	3.99
501.529	4.06
501.878	4.07
502.226	4.13
502.574	4.16
502.923	4.12
503.271	4.12
503.619	4.15
503.967	4.16
504.315	4.18
504.663	4.22
505.011	4.22
505.359	4.2
505.707	4.2
506.055	4.22
506.403	4.23
506.751	4.25
507.098	4.26
507.446	4.28
507.794	4.3
508.141	4.33
508.489	4.33
508.837	4.3
509.184	4.32
509.531	4.3
509.879	4.31
510.226	4.32
510.574	4.33
510.921	4.35
511.268	4.38
511.616	4.38
511.963	4.39
512.31	4.42
512.657	4.46
513.004	4.48
513.351	4.49
513.698	4.51
514.045	4.53
514.392	4.54
514.739	4.54
515.086	4.52
515.432	4.53
515.779	4.55
516.126	4.58
516.473	4.58
516.819	4.6
517.166	4.61
517.512	4.6
517.859	4.63
518.205	4.62
518.552	4.62
518.898	4.64
519.245	4.65
519.591	4.65
519.937	4.66
520.283	4.67
520.629	4.69
520.976	4.66
521.322	4.67
521.668	4.65
522.014	4.66
522.36	4.7
522.706	4.69
523.052	4.69
523.398	4.66
523.743	4.69
524.089	4.7
524.435	4.71
524.781	4.75
525.126	4.72
525.472	4.74
525.817	4.75
526.163	4.74
526.509	4.74
526.854	4.74
527.199	4.74
527.545	4.76
527.89	4.76
528.235	4.79
528.581	4.79
528.926	4.8
529.271	4.81
529.616	4.81
529.961	4.81
530.306	4.81
530.651	4.83
530.996	4.84
531.341	4.85
531.686	4.85
532.031	4.85
532.376	4.88
532.721	4.87
533.065	4.87
533.41	4.9
533.755	4.89
534.099	4.89
534.444	4.9
534.788	4.89
535.133	4.88
535.477	4.87
535.822	4.88
536.166	4.89
536.51	4.89
536.855	4.9
537.199	4.92
537.543	4.92
537.887	4.94
538.231	4.93
538.576	4.93
538.92	4.94
539.264	4.97
539.608	4.97
539.951	4.97
540.295	4.98
540.639	4.97
540.983	4.99
541.327	5.02
541.671	5.03
542.014	5.06
542.358	5.07
542.701	5.09
543.045	5.09
543.389	5.1
543.732	5.13
544.075	5.13
544.419	5.13
544.762	5.15
545.105	5.14
545.449	5.14
545.792	5.17
546.135	5.19
546.478	5.19
546.821	5.22
547.165	5.22
547.508	5.22
547.851	5.23
548.194	5.19
548.536	5.19
548.879	5.2
549.222	5.19
549.565	5.19
549.908	5.17
550.25	5.15
550.593	5.15
550.936	5.16
551.278	5.15
551.621	5.17
551.963	5.15
552.306	5.15
552.648	5.15
552.991	5.11
553.333	5.09
553.675	5.06
554.017	5.05
554.36	5.05
554.702	5.08
555.044	5.07
555.386	5.14
555.728	5.15
556.07	5.12
556.412	5.12
556.754	5.13
557.096	5.16
557.438	5.15
557.78	5.15
558.121	5.11
558.463	5.1
558.805	5.12
559.147	5.13
559.488	5.11
559.83	5.13
560.171	5.15
560.513	5.17
560.854	5.2
561.196	5.21
561.537	5.21
561.878	5.24
562.22	5.25
562.561	5.26
562.902	5.29
563.243	5.31
563.584	5.29
563.925	5.32
564.266	5.32
564.607	5.36
564.948	5.35
565.289	5.4
565.63	5.41
565.971	5.41
566.312	5.42
566.653	5.43
566.993	5.39
567.334	5.41
567.675	5.42
568.015	5.41
568.356	5.38
568.696	5.41
569.037	5.36
569.377	5.39
569.718	5.36
570.058	5.34
570.398	5.32
570.739	5.33
571.079	5.3
571.419	5.29
571.759	5.26
572.099	5.25
572.439	5.23
572.779	5.26
573.119	5.28
573.459	5.26
573.799	5.28
574.139	5.3
574.479	5.32
574.819	5.31
575.158	5.3
575.498	5.33
575.838	5.3
576.177	5.31
576.517	5.3
576.856	5.31
577.196	5.29
577.535	5.31
577.875	5.31
578.214	5.31
578.553	5.32
578.893	5.34
579.232	5.38
579.571	5.43
579.91	5.38
580.25	5.37
580.589	5.44
580.928	5.44
581.267	5.43
581.606	5.42
581.945	5.41
582.283	5.44
582.622	5.42
582.961	5.46
583.3	5.48
583.639	5.49
583.977	5.46
584.316	5.48
584.654	5.45
584.993	5.48
585.332	5.49
585.67	5.49
586.008	5.5
586.347	5.5
586.685	5.48
587.024	5.53
587.362	5.52
587.7	5.52
588.038	5.54
588.376	5.55
588.715	5.55
589.053	5.54
589.391	5.54
589.729	5.53
590.067	5.56
590.404	5.59
590.742	5.57
591.08	5.57
591.418	5.58
591.756	5.63
592.093	5.63
592.431	5.67
592.769	5.68
593.106	5.66
593.444	5.66
593.781	5.63
594.119	5.63
594.456	5.57
594.793	5.56
595.131	5.56
595.468	5.57
595.805	5.58
596.143	5.65
596.48	5.63
596.817	5.63
597.154	5.62
597.491	5.62
597.828	5.64
598.165	5.6
598.502	5.59
598.839	5.6
599.176	5.56
599.512	5.5
599.849	5.53
600.186	5.53
600.523	5.5
600.859	5.55
601.196	5.52
601.532	5.57
601.869	5.58
602.205	5.57
602.542	5.58
602.878	5.54
603.215	5.49
603.551	5.48
603.887	5.47
604.223	5.44
604.56	5.45
604.896	5.49
605.232	5.55
605.568	5.59
605.904	5.55
606.24	5.61
606.576	5.67
606.912	5.65
607.248	5.68
607.583	5.72
607.919	5.7
608.255	5.76
608.591	5.8
608.926	5.79
609.262	5.79
609.597	5.81
609.933	5.83
610.268	5.86
610.604	5.87
610.939	5.96
611.275	5.98
611.61	5.95
611.945	5.94
612.281	5.94
612.616	5.89
612.951	5.93
613.286	5.91
613.621	5.92
613.956	5.93
614.291	5.91
614.626	5.87
614.961	5.92
615.296	5.9
615.631	5.88
615.966	5.88
616.3	5.92
616.635	5.89
616.97	5.88
617.304	5.85
617.639	5.92
617.973	5.81
618.308	5.85
618.642	5.86
618.977	5.81
619.311	5.86
619.646	5.9
619.98	5.87
620.314	5.89
620.648	5.83
620.983	5.85
621.317	5.85
621.651	5.9
621.985	5.87
622.319	5.82
622.653	5.84
622.987	5.85
623.321	5.84
623.655	5.86
623.988	5.92
624.322	5.95
624.656	5.88
624.99	5.94
625.323	5.94
625.657	6.03
625.99	6.03
626.324	5.98
626.657	5.96
626.991	5.96
627.324	5.92
627.658	5.97
627.991	5.99
628.324	6.01
628.657	5.98
628.991	5.96
629.324	5.97
629.657	5.9
629.99	5.91
630.323	5.9
630.656	5.99
630.989	5.92
631.322	5.89
631.655	5.95
631.987	5.98
632.32	5.98
632.653	5.91
632.986	5.96
633.318	5.94
633.651	5.97
633.984	6.02
634.316	6.06
634.649	6.03
634.981	5.97
635.313	5.95
635.646	6.01
635.978	6.06
636.31	6.08
636.643	6.16
636.975	6.09
637.307	6.13
637.639	6.01
637.971	6.05
638.303	6.08
638.635	6.11
638.967	6.1
639.299	6.12
639.631	6.12
639.963	6.09
640.295	6.16
640.626	6.17
640.958	6.13
641.29	6.17
641.621	6.15
641.953	6.21
642.285	6.23
642.616	6.25
642.948	6.23
643.279	6.21
643.61	6.21
643.942	6.29
644.273	6.35
644.604	6.36
644.936	6.39
645.267	6.39
645.598	6.34
645.929	6.36
646.26	6.34
646.591	6.36
646.922	6.43
647.253	6.48
647.584	6.45
647.915	6.45
648.245	6.41
648.576	6.42
648.907	6.46
649.238	6.44
649.568	6.43
649.899	6.48
650.229	6.5
650.56	6.5
650.89	6.5
651.221	6.51
651.551	6.52
651.882	6.45
652.212	6.49
652.542	6.48
652.872	6.47
653.203	6.53
653.533	6.6
653.863	6.54
654.193	6.43
654.523	6.46
654.853	6.55
655.183	6.54
655.513	6.59
655.843	6.49
656.172	6.54
656.502	6.45
656.832	6.42
657.162	6.4
657.491	6.48
657.821	6.49
658.15	6.45
658.48	6.48
658.809	6.57
659.139	6.59
659.468	6.62
659.798	6.59
660.127	6.6
660.456	6.55
660.785	6.61
661.115	6.69
661.444	6.77
661.773	6.74
662.102	6.81
662.431	6.76
662.76	6.89
663.089	6.93
663.418	7.01
663.747	7.02
664.076	7.11
664.404	7.07
664.733	7.09
665.062	7.09
665.39	7.07
665.719	7
666.048	6.97
666.376	7
666.705	7.06
667.033	7.05
667.362	7.02
667.69	7.03
668.018	7.02
668.347	6.91
668.675	6.9
669.003	6.82
669.331	6.91
669.659	6.85
669.987	6.81
670.315	6.83
670.643	6.76
670.971	6.72
671.299	6.66
671.627	6.6
671.955	6.55
672.283	6.53
672.61	6.56
672.938	6.62
673.266	6.61
673.593	6.57
673.921	6.47
674.249	6.42
674.576	6.45
674.904	6.51
675.231	6.66
675.558	6.66
675.886	6.73
676.213	6.69
676.54	6.75
676.867	6.75
677.195	6.81
677.522	6.96
