Data from MVZ_BU95633_Reflection_00012.txt Node
Date: Tue Nov 19 12:21:18 EST 2019
User: vgr7
Spectrometer: USB2G7710
Scans to average: 3
Trigger mode: 4
Integration Time (sec): 2.000000E-2
Electric dark correction enabled: true
Boxcar width: 10
XAxis mode: Wavelengths
Number of Pixels in Spectrum: 2048
>>>>>Begin Spectral Data<<<<<
177.721	100.44
178.105	66.18
178.488	63.82
178.871	36.67
179.254	-30.3
179.636	109.95
180.019	57.88
180.402	71.43
180.785	14.04
181.168	42.89
181.55	32.78
181.933	93.62
182.316	98.82
182.698	87.18
183.081	124.11
183.463	99.08
183.846	54.72
184.228	63.15
184.611	142.44
184.993	156.99
185.376	634.19
185.758	996.83
186.14	-1038.1
186.522	-331.27
186.904	-222.99
187.287	-896.12
187.669	-158.56
188.051	-166.85
188.433	-199.64
188.815	-126.84
189.197	-105.43
189.579	-98.89
189.961	-110.49
190.342	-81.44
190.724	-55.12
191.106	-51.2
191.488	-30.71
191.869	-19.05
192.251	-29.8
192.633	-22.83
193.014	0.44
193.396	-8.87
193.777	-10.5
194.159	45.96
194.54	76.52
194.922	100.66
195.303	71.96
195.684	68.38
196.065	60.86
196.447	69.89
196.828	110.45
197.209	118.91
197.59	79.64
197.971	83.05
198.352	51.35
198.733	28.49
199.114	28.98
199.495	30.39
199.876	28.24
200.257	49.34
200.638	40.65
201.018	40.3
201.399	46.6
201.78	55.67
202.16	36.28
202.541	6.89
202.922	-4.69
203.302	13.35
203.683	6.91
204.063	8.26
204.444	15.74
204.824	8.6
205.204	-1.2
205.585	13.93
205.965	11.23
206.345	28.36
206.725	36.25
207.106	51.83
207.486	51.5
207.866	68.42
208.246	66.28
208.626	56.8
209.006	51.94
209.386	54.87
209.766	49.37
210.145	55.66
210.525	83.43
210.905	82.3
211.285	76.88
211.664	72.59
212.044	67.02
212.424	69.68
212.803	74.63
213.183	69.32
213.562	70.73
213.942	61.75
214.321	76.42
214.701	80.21
215.08	54.86
215.459	41.66
215.838	34.67
216.218	24.61
216.597	38.41
216.976	51.17
217.355	42.48
217.734	54.59
218.113	42.85
218.492	12.11
218.871	11.89
219.25	-11.97
219.629	-28.89
220.008	-13.15
220.387	-16.02
220.766	-12.6
221.144	-3.88
221.523	-1.24
221.902	18.2
222.28	-0.37
222.659	16.75
223.037	6.83
223.416	7.07
223.794	2.99
224.173	3.97
224.551	1.14
224.929	-4.48
225.308	-0.93
225.686	-11.21
226.064	-9.2
226.442	-3.68
226.821	-5.86
227.199	4.19
227.577	7.17
227.955	4.62
228.333	1.35
228.711	-0.2
229.089	-1.41
229.467	-3.75
229.845	-4.7
230.222	-3.02
230.6	-2.72
230.978	2.51
231.356	3.13
231.733	6.98
232.111	6.85
232.488	6.85
232.866	8.19
233.243	5.41
233.621	7.51
233.998	8.19
234.376	6.9
234.753	7.81
235.13	5.93
235.508	5.13
235.885	5.57
236.262	7.62
236.639	6.74
237.016	5.28
237.393	6.96
237.77	6.96
238.147	6.09
238.524	5.55
238.901	4.29
239.278	3.66
239.655	3.3
240.032	3.08
240.409	2.46
240.785	2.93
241.162	3.26
241.539	3.19
241.915	3.04
242.292	3.5
242.668	3.33
243.045	3.75
243.421	4.06
243.798	3.67
244.174	3.67
244.551	3.79
244.927	4.02
245.303	3.78
245.679	3.93
246.056	3.85
246.432	3.74
246.808	4.26
247.184	4.59
247.56	4.29
247.936	4.52
248.312	4.72
248.688	4.66
249.064	4.5
249.44	4.63
249.815	4.83
250.191	4.44
250.567	4.31
250.943	4
251.318	3.81
251.694	3.86
252.069	3.96
252.445	4.03
252.82	4.34
253.196	4.19
253.571	4.18
253.947	4.44
254.322	4.19
254.697	3.75
255.073	3.42
255.448	3.39
255.823	3.5
256.198	3.5
256.573	3.41
256.948	3.54
257.323	3.3
257.698	3.03
258.073	3.27
258.448	3.38
258.823	3.41
259.198	3.45
259.573	3.46
259.948	3.36
260.322	3.35
260.697	3.14
261.072	3.23
261.446	3.17
261.821	3.17
262.195	3.42
262.57	3.32
262.944	3.38
263.319	3.46
263.693	3.54
264.067	3.53
264.442	3.58
264.816	3.5
265.19	3.56
265.564	3.72
265.938	3.7
266.313	3.38
266.687	3.27
267.061	3.21
267.435	3.59
267.809	3.61
268.183	3.51
268.556	3.47
268.93	3.33
269.304	3.14
269.678	3.25
270.051	3.02
270.425	3.17
270.799	3.03
271.172	2.97
271.546	2.74
271.919	2.75
272.293	2.94
272.666	2.87
273.04	2.68
273.413	2.66
273.787	2.57
274.16	2.78
274.533	2.92
274.906	3.08
275.279	2.76
275.653	2.83
276.026	2.83
276.399	2.75
276.772	2.91
277.145	2.95
277.518	2.83
277.891	2.87
278.263	2.86
278.636	2.95
279.009	3.07
279.382	3.12
279.755	2.91
280.127	2.68
280.5	2.71
280.872	2.88
281.245	2.71
281.617	2.68
281.99	2.61
282.362	2.58
282.735	2.59
283.107	2.7
283.479	2.65
283.852	2.62
284.224	2.72
284.596	2.74
284.968	2.74
285.34	2.67
285.713	2.72
286.085	2.73
286.457	2.67
286.829	2.69
287.201	2.67
287.572	2.81
287.944	2.88
288.316	2.93
288.688	2.97
289.06	3.11
289.431	3.28
289.803	3.46
290.175	3.49
290.546	3.44
290.918	3.39
291.289	3.15
291.661	3.26
292.032	3.17
292.403	3.08
292.775	3.23
293.146	3.43
293.517	3.57
293.889	3.56
294.26	3.7
294.631	3.58
295.002	3.74
295.373	3.68
295.744	3.68
296.115	3.66
296.486	3.6
296.857	3.62
297.228	3.58
297.599	3.47
297.97	3.46
298.34	3.36
298.711	3.47
299.082	3.67
299.452	3.58
299.823	3.65
300.194	3.75
300.564	3.71
300.935	3.73
301.305	3.63
301.676	3.52
302.046	3.55
302.416	3.73
302.787	3.6
303.157	3.69
303.527	3.88
303.897	3.99
304.267	4.06
304.637	4.03
305.008	4.14
305.378	4.32
305.748	4.38
306.117	4.42
306.487	4.33
306.857	4.53
307.227	4.65
307.597	4.68
307.967	4.7
308.336	4.73
308.706	4.69
309.076	4.79
309.445	5
309.815	5.02
310.184	4.89
310.554	4.88
310.923	4.93
311.293	4.9
311.662	4.95
312.031	5
312.401	5.08
312.77	4.89
313.139	4.92
313.508	4.92
313.877	5.04
314.246	5.23
314.616	5.14
314.985	5.31
315.353	5.42
315.722	5.47
316.091	5.5
316.46	5.54
316.829	5.54
317.198	5.54
317.567	5.53
317.935	5.61
318.304	5.83
318.672	5.75
319.041	5.58
319.41	5.58
319.778	5.65
320.147	5.65
320.515	5.92
320.883	5.77
321.252	5.9
321.62	5.97
321.988	5.94
322.357	5.9
322.725	5.66
323.093	5.56
323.461	5.65
323.829	5.61
324.197	5.68
324.565	5.74
324.933	5.76
325.301	5.72
325.669	5.88
326.037	5.85
326.405	5.85
326.772	6
327.14	5.94
327.508	5.93
327.875	5.8
328.243	5.65
328.61	5.73
328.978	5.77
329.346	5.75
329.713	5.84
330.08	5.82
330.448	5.9
330.815	6.06
331.182	5.98
331.55	6
331.917	5.96
332.284	6.01
332.651	5.98
333.018	6.18
333.385	6.13
333.752	6.08
334.119	6.21
334.486	6.23
334.853	6.18
335.22	6.08
335.587	6.08
335.954	6.19
336.32	6.11
336.687	6.05
337.054	6
337.42	5.98
337.787	6
338.153	6.08
338.52	6.07
338.886	6.07
339.253	5.96
339.619	6
339.986	5.84
340.352	5.85
340.718	5.74
341.084	5.73
341.451	5.71
341.817	5.74
342.183	5.61
342.549	5.68
342.915	5.84
343.281	5.94
343.647	5.94
344.013	6.11
344.379	6.09
344.745	6.09
345.11	6.06
345.476	6.08
345.842	6.05
346.208	6.03
346.573	6.04
346.939	6.24
347.304	6.27
347.67	6.29
348.035	6.3
348.401	6.28
348.766	6.29
349.132	6.44
349.497	6.31
349.862	6.38
350.228	6.36
350.593	6.32
350.958	6.47
351.323	6.52
351.688	6.41
352.053	6.47
352.418	6.47
352.783	6.46
353.148	6.49
353.513	6.45
353.878	6.47
354.243	6.5
354.608	6.41
354.972	6.32
355.337	6.31
355.702	6.26
356.066	6.32
356.431	6.24
356.795	6.15
357.16	6.22
357.524	6.15
357.889	6.2
358.253	6.14
358.618	6.05
358.982	6
359.346	5.96
359.71	5.93
360.075	5.94
360.439	5.93
360.803	5.94
361.167	5.95
361.531	5.92
361.895	5.87
362.259	5.93
362.623	5.97
362.987	5.96
363.351	5.95
363.714	5.95
364.078	5.93
364.442	5.89
364.806	5.89
365.169	5.88
365.533	5.9
365.896	5.95
366.26	5.89
366.623	5.88
366.987	5.94
367.35	5.96
367.714	5.92
368.077	5.92
368.44	5.87
368.803	5.79
369.167	5.74
369.53	5.7
369.893	5.62
370.256	5.48
370.619	5.49
370.982	5.42
371.345	5.35
371.708	5.37
372.071	5.27
372.434	5.25
372.797	5.2
373.159	5.08
373.522	4.98
373.885	4.98
374.247	4.95
374.61	4.94
374.973	4.84
375.335	4.86
375.698	4.78
376.06	4.74
376.423	4.77
376.785	4.84
377.147	4.76
377.51	4.74
377.872	4.73
378.234	4.71
378.596	4.78
378.958	4.77
379.321	4.7
379.683	4.77
380.045	4.7
380.407	4.7
380.769	4.69
381.13	4.67
381.492	4.66
381.854	4.65
382.216	4.6
382.578	4.56
382.939	4.45
383.301	4.46
383.663	4.39
384.024	4.32
384.386	4.23
384.747	4.19
385.109	4.2
385.47	4.26
385.832	4.2
386.193	4.19
386.554	4.16
386.916	4.21
387.277	4.22
387.638	4.22
387.999	4.18
388.36	4.19
388.721	4.23
389.082	4.25
389.443	4.22
389.804	4.2
390.165	4.21
390.526	4.25
390.887	4.23
391.248	4.24
391.609	4.26
391.969	4.24
392.33	4.28
392.691	4.24
393.051	4.18
393.412	4.18
393.772	4.14
394.133	4.15
394.493	4.1
394.854	4.08
395.214	4.08
395.574	4.1
395.935	4.07
396.295	4
396.655	3.93
397.015	3.9
397.376	3.85
397.736	3.83
398.096	3.79
398.456	3.76
398.816	3.75
399.176	3.69
399.535	3.65
399.895	3.61
400.255	3.6
400.615	3.61
400.975	3.59
401.334	3.54
401.694	3.5
402.054	3.48
402.413	3.43
402.773	3.4
403.132	3.36
403.492	3.34
403.851	3.31
404.211	3.33
404.57	3.33
404.929	3.34
405.288	3.31
405.648	3.3
406.007	3.29
406.366	3.31
406.725	3.31
407.084	3.33
407.443	3.33
407.802	3.31
408.161	3.33
408.52	3.32
408.879	3.31
409.238	3.3
409.596	3.33
409.955	3.31
410.314	3.32
410.673	3.32
411.031	3.31
411.39	3.32
411.748	3.3
412.107	3.28
412.465	3.25
412.824	3.25
413.182	3.24
413.54	3.25
413.899	3.21
414.257	3.21
414.615	3.17
414.974	3.2
415.332	3.17
415.69	3.1
416.048	3.07
416.406	3.06
416.764	3.03
417.122	2.99
417.48	2.99
417.838	2.97
418.195	2.97
418.553	2.96
418.911	2.96
419.269	2.94
419.626	2.93
419.984	2.93
420.342	2.94
420.699	2.95
421.057	2.93
421.414	2.93
421.772	2.92
422.129	2.92
422.486	2.9
422.844	2.89
423.201	2.9
423.558	2.91
423.915	2.91
424.273	2.92
424.63	2.91
424.987	2.92
425.344	2.93
425.701	2.91
426.058	2.93
426.415	2.92
426.772	2.93
427.128	2.93
427.485	2.92
427.842	2.93
428.199	2.92
428.555	2.92
428.912	2.93
429.269	2.9
429.625	2.89
429.982	2.9
430.338	2.9
430.695	2.87
431.051	2.86
431.407	2.85
431.764	2.86
432.12	2.88
432.476	2.87
432.832	2.87
433.189	2.87
433.545	2.86
433.901	2.86
434.257	2.85
434.613	2.86
434.969	2.86
435.325	2.87
435.681	2.87
436.036	2.87
436.392	2.89
436.748	2.9
437.104	2.91
437.459	2.91
437.815	2.9
438.171	2.92
438.526	2.92
438.882	2.93
439.237	2.93
439.593	2.93
439.948	2.96
440.304	2.96
440.659	2.97
441.014	2.98
441.369	2.97
441.725	2.98
442.08	2.96
442.435	2.96
442.79	2.95
443.145	2.94
443.5	2.92
443.855	2.89
444.21	2.91
444.565	2.91
444.92	2.92
445.275	2.91
445.629	2.91
445.984	2.91
446.339	2.92
446.693	2.91
447.048	2.89
447.403	2.86
447.757	2.84
448.112	2.84
448.466	2.83
448.82	2.85
449.175	2.85
449.529	2.86
449.883	2.85
450.238	2.85
450.592	2.85
450.946	2.85
451.3	2.86
451.654	2.82
452.008	2.83
452.362	2.81
452.716	2.81
453.07	2.81
453.424	2.8
453.778	2.79
454.132	2.79
454.486	2.8
454.839	2.81
455.193	2.82
455.547	2.8
455.9	2.83
456.254	2.81
456.607	2.81
456.961	2.81
457.314	2.83
457.668	2.82
458.021	2.83
458.375	2.83
458.728	2.82
459.081	2.85
459.434	2.83
459.787	2.84
460.141	2.86
460.494	2.88
460.847	2.88
461.2	2.89
461.553	2.89
461.906	2.89
462.259	2.88
462.611	2.89
462.964	2.91
463.317	2.88
463.67	2.89
464.022	2.87
464.375	2.87
464.728	2.85
465.08	2.86
465.433	2.87
465.785	2.88
466.138	2.9
466.49	2.91
466.843	2.9
467.195	2.92
467.547	2.93
467.899	2.91
468.252	2.95
468.604	2.94
468.956	2.95
469.308	2.92
469.66	2.96
470.012	2.96
470.364	2.97
470.716	2.98
471.068	3.01
471.42	3.03
471.772	3.04
472.123	3.06
472.475	3.08
472.827	3.08
473.178	3.1
473.53	3.1
473.882	3.12
474.233	3.12
474.585	3.12
474.936	3.13
475.288	3.15
475.639	3.14
475.99	3.15
476.342	3.15
476.693	3.19
477.044	3.18
477.395	3.18
477.746	3.15
478.097	3.16
478.448	3.13
478.8	3.11
479.15	3.08
479.501	3.07
479.852	3.06
480.203	3.05
480.554	3.04
480.905	3.03
481.255	3.03
481.606	3.03
481.957	3.02
482.307	3.01
482.658	3.01
483.009	3.02
483.359	3.02
483.709	3.02
484.06	3.02
484.41	3.01
484.761	3.02
485.111	3.02
485.461	3.01
485.811	3.01
486.162	3.02
486.512	3.03
486.862	3.03
487.212	3.03
487.562	3.02
487.912	3.03
488.262	3.03
488.612	3.03
488.961	3.04
489.311	3.05
489.661	3.06
490.011	3.05
490.36	3.05
490.71	3.04
491.06	3.04
491.409	3.03
491.759	3.04
492.108	3.04
492.458	3.04
492.807	3.06
493.157	3.08
493.506	3.1
493.855	3.1
494.204	3.11
494.554	3.15
494.903	3.17
495.252	3.17
495.601	3.2
495.95	3.2
496.299	3.2
496.648	3.2
496.997	3.22
497.346	3.25
497.695	3.26
498.043	3.29
498.392	3.32
498.741	3.37
499.09	3.38
499.438	3.4
499.787	3.44
500.135	3.47
500.484	3.51
500.832	3.58
501.181	3.64
501.529	3.69
501.878	3.72
502.226	3.79
502.574	3.88
502.923	3.93
503.271	4.01
503.619	4.12
503.967	4.19
504.315	4.28
504.663	4.37
505.011	4.48
505.359	4.57
505.707	4.67
506.055	4.78
506.403	4.92
506.751	5.04
507.098	5.13
507.446	5.24
507.794	5.35
508.141	5.45
508.489	5.58
508.837	5.72
509.184	5.86
509.531	6.01
509.879	6.15
510.226	6.3
510.574	6.46
510.921	6.58
511.268	6.73
511.616	6.9
511.963	7.07
512.31	7.23
512.657	7.42
513.004	7.61
513.351	7.8
513.698	8.01
514.045	8.26
514.392	8.54
514.739	8.78
515.086	9.04
515.432	9.29
515.779	9.52
516.126	9.75
516.473	9.94
516.819	10.16
517.166	10.39
517.512	10.59
517.859	10.82
518.205	11.02
518.552	11.24
518.898	11.42
519.245	11.65
519.591	11.89
519.937	12.11
520.283	12.33
520.629	12.58
520.976	12.83
521.322	13.06
521.668	13.29
522.014	13.55
522.36	13.79
522.706	14.03
523.052	14.36
523.398	14.67
523.743	15.06
524.089	15.38
524.435	15.65
524.781	15.96
525.126	16.23
525.472	16.49
525.817	16.73
526.163	16.95
526.509	17.15
526.854	17.33
527.199	17.5
527.545	17.68
527.89	17.84
528.235	18.02
528.581	18.19
528.926	18.37
529.271	18.53
529.616	18.72
529.961	18.91
530.306	19.07
530.651	19.25
530.996	19.42
531.341	19.63
531.686	19.86
532.031	20.06
532.376	20.27
532.721	20.47
533.065	20.68
533.41	20.93
533.755	21.13
534.099	21.36
534.444	21.59
534.788	21.8
535.133	22
535.477	22.21
535.822	22.44
536.166	22.7
536.51	22.97
536.855	23.24
537.199	23.5
537.543	23.79
537.887	24.04
538.231	24.31
538.576	24.53
538.92	24.78
539.264	25.02
539.608	25.27
539.951	25.5
540.295	25.72
540.639	25.92
540.983	26.11
541.327	26.28
541.671	26.48
542.014	26.66
542.358	26.88
542.701	27.06
543.045	27.23
543.389	27.37
543.732	27.55
544.075	27.71
544.419	27.88
544.762	28.04
545.105	28.24
545.449	28.45
545.792	28.68
546.135	28.86
546.478	29.06
546.821	29.27
547.165	29.47
547.508	29.69
547.851	29.9
548.194	30.11
548.536	30.32
548.879	30.55
549.222	30.74
549.565	30.93
549.908	31.11
550.25	31.28
550.593	31.49
550.936	31.69
551.278	31.86
551.621	32.04
551.963	32.31
552.306	32.52
552.648	32.67
552.991	32.84
553.333	33.05
553.675	33.23
554.017	33.39
554.36	33.57
554.702	33.7
555.044	33.87
555.386	34.06
555.728	34.27
556.07	34.41
556.412	34.6
556.754	34.8
557.096	35
557.438	35.21
557.78	35.37
558.121	35.55
558.463	35.76
558.805	35.97
559.147	36.13
559.488	36.29
559.83	36.43
560.171	36.57
560.513	36.68
560.854	36.86
561.196	36.99
561.537	37.1
561.878	37.31
562.22	37.45
562.561	37.57
562.902	37.65
563.243	37.81
563.584	38
563.925	38.07
564.266	38.17
564.607	38.26
564.948	38.32
565.289	38.4
565.63	38.56
565.971	38.65
566.312	38.8
566.653	38.88
566.993	39.03
567.334	39.17
567.675	39.28
568.015	39.32
568.356	39.42
568.696	39.54
569.037	39.63
569.377	39.71
569.718	39.83
570.058	39.94
570.398	39.96
570.739	39.98
571.079	40.07
571.419	40.15
571.759	40.26
572.099	40.37
572.439	40.45
572.779	40.48
573.119	40.56
573.459	40.57
573.799	40.64
574.139	40.7
574.479	40.76
574.819	40.84
575.158	40.91
575.498	41.03
575.838	41.08
576.177	41.11
576.517	41.23
576.856	41.25
577.196	41.39
577.535	41.5
577.875	41.61
578.214	41.74
578.553	41.85
578.893	41.9
579.232	42.02
579.571	42.14
579.91	42.22
580.25	42.27
580.589	42.42
580.928	42.48
581.267	42.57
581.606	42.63
581.945	42.62
582.283	42.76
582.622	42.77
582.961	42.87
583.3	42.93
583.639	42.89
583.977	43.04
584.316	43.07
584.654	43.16
584.993	43.15
585.332	43.18
585.67	43.27
586.008	43.4
586.347	43.46
586.685	43.51
587.024	43.65
587.362	43.72
587.7	43.78
588.038	43.94
588.376	43.95
588.715	44.04
589.053	44.2
589.391	44.26
589.729	44.33
590.067	44.37
590.404	44.47
590.742	44.61
591.08	44.61
591.418	44.7
591.756	44.79
592.093	44.93
592.431	45.01
592.769	45.04
593.106	45.1
593.444	45.13
593.781	45.15
594.119	45.17
594.456	45.22
594.793	45.25
595.131	45.21
595.468	45.29
595.805	45.34
596.143	45.37
596.48	45.44
596.817	45.44
597.154	45.46
597.491	45.53
597.828	45.56
598.165	45.55
598.502	45.56
598.839	45.57
599.176	45.63
599.512	45.6
599.849	45.68
600.186	45.73
600.523	45.83
600.859	45.97
601.196	46.02
601.532	46.1
601.869	46.13
602.205	46.18
602.542	46.28
602.878	46.33
603.215	46.31
603.551	46.31
603.887	46.37
604.223	46.5
604.56	46.51
604.896	46.52
605.232	46.66
605.568	46.65
605.904	46.71
606.24	46.71
606.576	46.82
606.912	46.87
607.248	46.9
607.583	46.88
607.919	46.83
608.255	46.89
608.591	46.87
608.926	46.93
609.262	46.98
609.597	46.98
609.933	47.01
610.268	47.12
610.604	47.17
610.939	47.21
611.275	47.25
611.61	47.28
611.945	47.29
612.281	47.31
612.616	47.34
612.951	47.27
613.286	47.28
613.621	47.28
613.956	47.24
614.291	47.25
614.626	47.32
614.961	47.29
615.296	47.3
615.631	47.44
615.966	47.4
616.3	47.44
616.635	47.43
616.97	47.44
617.304	47.47
617.639	47.46
617.973	47.53
618.308	47.56
618.642	47.63
618.977	47.69
619.311	47.62
619.646	47.73
619.98	47.83
620.314	47.88
620.648	47.93
620.983	47.97
621.317	48.04
621.651	48.14
621.985	48.27
622.319	48.26
622.653	48.23
622.987	48.39
623.321	48.48
623.655	48.6
623.988	48.61
624.322	48.61
624.656	48.64
624.99	48.65
625.323	48.6
625.657	48.64
625.99	48.72
626.324	48.83
626.657	48.87
626.991	48.96
627.324	49.04
627.658	49
627.991	49.07
628.324	49.1
628.657	49.09
628.991	49.08
629.324	49.16
629.657	49.27
629.99	49.19
630.323	49.15
630.656	49.1
630.989	49.06
631.322	49.09
631.655	49.13
631.987	49.28
632.32	49.36
632.653	49.29
632.986	49.24
633.318	49.27
633.651	49.32
633.984	49.33
634.316	49.27
634.649	49.29
634.981	49.4
635.313	49.47
635.646	49.51
635.978	49.56
636.31	49.55
636.643	49.38
636.975	49.47
637.307	49.53
637.639	49.51
637.971	49.52
638.303	49.44
638.635	49.44
638.967	49.33
639.299	49.27
639.631	49.35
639.963	49.39
640.295	49.31
640.626	49.18
640.958	49.13
641.29	49.1
641.621	49.17
641.953	49.01
642.285	49.02
642.616	49.03
642.948	49.05
643.279	49.14
643.61	49.3
643.942	49.33
644.273	49.35
644.604	49.35
644.936	49.4
645.267	49.5
645.598	49.53
645.929	49.5
646.26	49.63
646.591	49.66
646.922	49.75
647.253	49.79
647.584	49.83
647.915	49.84
648.245	49.91
648.576	49.86
648.907	49.97
649.238	49.81
649.568	49.83
649.899	49.89
650.229	49.8
650.56	49.85
650.89	49.78
651.221	49.75
651.551	49.92
651.882	49.89
652.212	49.9
652.542	49.9
652.872	49.85
653.203	49.87
653.533	49.97
653.863	49.96
654.193	50.02
654.523	50.1
654.853	50.1
655.183	50.24
655.513	50.3
655.843	50.26
656.172	50.39
656.502	50.43
656.832	50.33
657.162	50.35
657.491	50.26
657.821	50.29
658.15	50.48
658.48	50.5
658.809	50.43
659.139	50.43
659.468	50.49
659.798	50.59
660.127	50.62
660.456	50.54
660.785	50.54
661.115	50.57
661.444	50.54
661.773	50.64
662.102	50.54
662.431	50.61
662.76	50.69
663.089	50.68
663.418	50.58
663.747	50.56
664.076	50.63
664.404	50.66
664.733	50.76
665.062	50.57
665.39	50.4
665.719	50.63
666.048	50.64
666.376	50.6
666.705	50.68
667.033	50.75
667.362	50.71
667.69	50.7
668.018	50.69
668.347	50.8
668.675	50.82
669.003	50.78
669.331	50.77
