Data from MVZ_BU136690_Reflection_00010.txt Node
Date: Tue Nov 19 12:08:06 EST 2019
User: vgr7
Spectrometer: USB2G7710
Scans to average: 3
Trigger mode: 4
Integration Time (sec): 2.000000E-2
Electric dark correction enabled: true
Boxcar width: 10
XAxis mode: Wavelengths
Number of Pixels in Spectrum: 2048
>>>>>Begin Spectral Data<<<<<
177.721	4.72
178.105	85.4
178.488	587.29
178.871	257.14
179.254	368.18
179.636	96.05
180.019	111.47
180.402	86.36
180.785	-1092.86
181.168	-248.13
181.55	-99.8
181.933	-55.81
182.316	-94.54
182.698	-87.95
183.081	-228.49
183.463	-88.43
183.846	-91.51
184.228	-353.8
184.611	844.57
184.993	421.15
185.376	-1430.49
185.758	707.14
186.14	415.71
186.522	2047.67
186.904	2493.75
187.287	1194.51
187.669	493.9
188.051	1139.63
188.433	1029.88
188.815	1414.66
189.197	487.99
189.579	166.63
189.961	114.14
190.342	78.12
190.724	66.51
191.106	84.38
191.488	85.13
191.869	69.19
192.251	67.6
192.633	79.28
193.014	81.12
193.396	89.11
193.777	99.54
194.159	127.72
194.54	71.88
194.922	54.45
195.303	57.09
195.684	54.44
196.065	53.03
196.447	38.91
196.828	41.39
197.209	49.7
197.59	64.86
197.971	53.74
198.352	72.52
198.733	82.46
199.114	76.93
199.495	123.09
199.876	192.77
200.257	172.75
200.638	82.69
201.018	33.92
201.399	45.1
201.78	41.96
202.16	30.98
202.541	9.03
202.922	-68.77
203.302	-72.51
203.683	-294.83
204.063	-418.97
204.444	-213.2
204.824	-450
205.204	-137.53
205.585	-211.42
205.965	-186.44
206.345	-270.85
206.725	-203.17
207.106	-119.77
207.486	-91.36
207.866	-71.66
208.246	-72.34
208.626	-115.25
209.006	-53.72
209.386	-131.97
209.766	-236.54
210.145	-83.39
210.525	-54.26
210.905	29.26
211.285	78.18
211.664	79.92
212.044	97.28
212.424	89.12
212.803	82.96
213.183	90.46
213.562	70.96
213.942	82.05
214.321	86.55
214.701	88.78
215.08	81.09
215.459	93.1
215.838	46.25
216.218	34.02
216.597	32.36
216.976	35.75
217.355	63.27
217.734	60.05
218.113	80.49
218.492	71.91
218.871	61.41
219.25	38.22
219.629	36.45
220.008	24.32
220.387	22.5
220.766	40.13
221.144	38.91
221.523	47.43
221.902	31.86
222.28	49.16
222.659	59.89
223.037	39.18
223.416	36.6
223.794	55.9
224.173	54.96
224.551	43.58
224.929	33.21
225.308	28.73
225.686	30.15
226.064	26.77
226.442	20.27
226.821	22.02
227.199	20.8
227.577	15.57
227.955	22.61
228.333	19.24
228.711	15.25
229.089	18.1
229.467	16.02
229.845	19.14
230.222	12.61
230.6	7.7
230.978	14.01
231.356	10.83
231.733	11.19
232.111	10.04
232.488	12.99
232.866	11.05
233.243	11.26
233.621	12.35
233.998	10.12
234.376	12.18
234.753	12.11
235.13	11.56
235.508	15.24
235.885	13.18
236.262	13.32
236.639	12.95
237.016	11.04
237.393	10.89
237.77	10.02
238.147	9.93
238.524	10.54
238.901	8.16
239.278	7.77
239.655	7.25
240.032	6.38
240.409	6.04
240.785	6.52
241.162	6.67
241.539	6.11
241.915	6.34
242.292	6.52
242.668	6.93
243.045	7.16
243.421	6.5
243.798	6.74
244.174	6.78
244.551	6.69
244.927	6.44
245.303	6.21
245.679	5.86
246.056	6.17
246.432	5.95
246.808	6.23
247.184	6.38
247.56	6.06
247.936	6.39
248.312	6.63
248.688	6.38
249.064	6.25
249.44	6
249.815	6.03
250.191	5.87
250.567	5.63
250.943	5.63
251.318	5.66
251.694	5.57
252.069	5.39
252.445	5.49
252.82	5.63
253.196	5.72
253.571	6.06
253.947	5.85
254.322	5.97
254.697	5.84
255.073	5.81
255.448	5.95
255.823	5.73
256.198	5.36
256.573	5.44
256.948	5.33
257.323	5.46
257.698	5.09
258.073	5.11
258.448	5.26
258.823	5.14
259.198	5.25
259.573	4.95
259.948	4.87
260.322	4.6
260.697	4.66
261.072	4.65
261.446	4.55
261.821	4.48
262.195	4.37
262.57	4.52
262.944	4.49
263.319	4.5
263.693	4.6
264.067	4.61
264.442	4.73
264.816	4.63
265.19	4.55
265.564	4.77
265.938	4.8
266.313	4.61
266.687	4.52
267.061	4.28
267.435	4.5
267.809	4.46
268.183	4.5
268.556	4.39
268.93	4.42
269.304	4.48
269.678	4.72
270.051	4.88
270.425	4.73
270.799	4.67
271.172	4.65
271.546	4.61
271.919	4.55
272.293	4.61
272.666	4.72
273.04	4.79
273.413	4.67
273.787	4.47
274.16	4.39
274.533	4.44
274.906	4.58
275.279	4.59
275.653	4.73
276.026	4.84
276.399	4.92
276.772	4.94
277.145	4.76
277.518	4.49
277.891	4.46
278.263	4.55
278.636	4.54
279.009	4.64
279.382	4.62
279.755	4.75
280.127	4.53
280.5	4.3
280.872	4.41
281.245	4.51
281.617	4.68
281.99	4.73
282.362	4.89
282.735	4.9
283.107	4.86
283.479	4.89
283.852	4.99
284.224	5.03
284.596	4.83
284.968	5
285.34	5.02
285.713	4.97
286.085	4.82
286.457	4.82
286.829	4.69
287.201	4.58
287.572	4.48
287.944	4.58
288.316	4.78
288.688	4.77
289.06	4.79
289.431	4.77
289.803	4.95
290.175	4.89
290.546	4.87
290.918	5.01
291.289	4.91
291.661	4.94
292.032	4.81
292.403	4.98
292.775	4.85
293.146	5.02
293.517	4.98
293.889	5.08
294.26	5.12
294.631	5.15
295.002	5.2
295.373	5.31
295.744	5.37
296.115	5.41
296.486	5.49
296.857	5.53
297.228	5.5
297.599	5.47
297.97	5.47
298.34	5.6
298.711	5.58
299.082	5.64
299.452	5.67
299.823	5.85
300.194	5.89
300.564	5.79
300.935	5.74
301.305	5.85
301.676	5.91
302.046	6.07
302.416	6.14
302.787	6.28
303.157	6.27
303.527	6.34
303.897	6.37
304.267	6.51
304.637	6.63
305.008	6.77
305.378	6.82
305.748	6.94
306.117	6.89
306.487	6.87
306.857	6.93
307.227	7.05
307.597	7.1
307.967	7.13
308.336	7.46
308.706	7.59
309.076	7.6
309.445	7.67
309.815	7.67
310.184	7.86
310.554	7.92
310.923	8.06
311.293	8.05
311.662	8.16
312.031	8.15
312.401	8.02
312.77	8.04
313.139	8.1
313.508	8.22
313.877	8.42
314.246	8.57
314.616	8.76
314.985	8.7
315.353	8.99
315.722	9.22
316.091	9.3
316.46	9.26
316.829	9.34
317.198	9.6
317.567	9.72
317.935	9.88
318.304	10.16
318.672	10.24
319.041	10.3
319.41	10.38
319.778	10.39
320.147	10.65
320.515	10.83
320.883	10.87
321.252	10.87
321.62	10.69
321.988	10.68
322.357	10.61
322.725	10.72
323.093	10.43
323.461	10.36
323.829	10.36
324.197	10.51
324.565	10.68
324.933	10.34
325.301	10.18
325.669	10.22
326.037	10.14
326.405	10.15
326.772	10.31
327.14	10.14
327.508	10.06
327.875	10.08
328.243	9.96
328.61	9.92
328.978	9.98
329.346	10.07
329.713	10.18
330.08	10.36
330.448	10.46
330.815	10.55
331.182	10.66
331.55	10.66
331.917	10.57
332.284	10.74
332.651	11.06
333.018	11.32
333.385	11.11
333.752	11.28
334.119	11.38
334.486	11.44
334.853	11.73
335.22	11.85
335.587	11.95
335.954	12.03
336.32	12.1
336.687	12.06
337.054	12.13
337.42	12.11
337.787	11.95
338.153	11.93
338.52	12.09
338.886	12.06
339.253	12.24
339.619	12.49
339.986	12.45
340.352	12.54
340.718	12.5
341.084	12.75
341.451	12.7
341.817	12.7
342.183	12.67
342.549	12.58
342.915	12.78
343.281	12.76
343.647	12.83
344.013	12.83
344.379	12.86
344.745	12.9
345.11	12.94
345.476	13.05
345.842	13.17
346.208	13.12
346.573	13.06
346.939	13.01
347.304	13.05
347.67	13
348.035	12.98
348.401	13.08
348.766	12.99
349.132	12.98
349.497	13.13
349.862	13.1
350.228	13.16
350.593	13.07
350.958	13.15
351.323	13.11
351.688	13.19
352.053	13.25
352.418	13.24
352.783	13.24
353.148	13.26
353.513	13.14
353.878	13.09
354.243	13.19
354.608	13.32
354.972	13.21
355.337	13.28
355.702	13.14
356.066	13.12
356.431	13.11
356.795	13.01
357.16	12.91
357.524	12.96
357.889	12.88
358.253	12.93
358.618	12.88
358.982	12.93
359.346	12.89
359.71	12.84
360.075	12.85
360.439	12.86
360.803	12.91
361.167	12.89
361.531	12.87
361.895	12.79
362.259	12.78
362.623	12.79
362.987	12.75
363.351	12.78
363.714	12.81
364.078	12.83
364.442	12.87
364.806	12.85
365.169	12.81
365.533	12.87
365.896	12.8
366.26	12.81
366.623	12.78
366.987	12.78
367.35	12.8
367.714	12.77
368.077	12.88
368.44	12.78
368.803	12.75
369.167	12.68
369.53	12.73
369.893	12.63
370.256	12.57
370.619	12.46
370.982	12.45
371.345	12.38
371.708	12.33
372.071	12.3
372.434	12.23
372.797	12.12
373.159	12.02
373.522	11.96
373.885	11.83
374.247	11.73
374.61	11.63
374.973	11.59
375.335	11.48
375.698	11.27
376.06	11.22
376.423	11.21
376.785	11.2
377.147	11.16
377.51	11.14
377.872	11.06
378.234	11.08
378.596	11.04
378.958	10.99
379.321	10.94
379.683	10.92
380.045	10.9
380.407	10.87
380.769	10.84
381.13	10.8
381.492	10.8
381.854	10.8
382.216	10.77
382.578	10.74
382.939	10.79
383.301	10.77
383.663	10.75
384.024	10.71
384.386	10.68
384.747	10.6
385.109	10.54
385.47	10.52
385.832	10.39
386.193	10.35
386.554	10.25
386.916	10.22
387.277	10.08
387.638	10.04
387.999	10.01
388.36	9.95
388.721	9.9
389.082	9.86
389.443	9.8
389.804	9.75
390.165	9.68
390.526	9.56
390.887	9.48
391.248	9.39
391.609	9.34
391.969	9.32
392.33	9.29
392.691	9.19
393.051	9.12
393.412	9.14
393.772	9.07
394.133	9
394.493	8.9
394.854	8.86
395.214	8.78
395.574	8.74
395.935	8.68
396.295	8.64
396.655	8.6
397.015	8.55
397.376	8.51
397.736	8.41
398.096	8.37
398.456	8.28
398.816	8.24
399.176	8.12
399.535	8.07
399.895	8
400.255	7.99
400.615	7.95
400.975	7.87
401.334	7.83
401.694	7.8
402.054	7.77
402.413	7.74
402.773	7.66
403.132	7.59
403.492	7.56
403.851	7.51
404.211	7.44
404.57	7.38
404.929	7.35
405.288	7.32
405.648	7.27
406.007	7.26
406.366	7.24
406.725	7.28
407.084	7.23
407.443	7.22
407.802	7.18
408.161	7.11
408.52	7.07
408.879	7.03
409.238	7.05
409.596	7.05
409.955	7.01
410.314	7.02
410.673	7.04
411.031	7.02
411.39	6.98
411.748	6.98
412.107	6.96
412.465	6.93
412.824	6.89
413.182	6.9
413.54	6.89
413.899	6.86
414.257	6.81
414.615	6.79
414.974	6.75
415.332	6.72
415.69	6.68
416.048	6.65
416.406	6.62
416.764	6.56
417.122	6.53
417.48	6.51
417.838	6.47
418.195	6.42
418.553	6.39
418.911	6.36
419.269	6.33
419.626	6.3
419.984	6.25
420.342	6.23
420.699	6.18
421.057	6.13
421.414	6.1
421.772	6.05
422.129	6.02
422.486	5.98
422.844	5.95
423.201	5.95
423.558	5.93
423.915	5.9
424.273	5.88
424.63	5.86
424.987	5.84
425.344	5.82
425.701	5.8
426.058	5.79
426.415	5.76
426.772	5.74
427.128	5.73
427.485	5.72
427.842	5.71
428.199	5.71
428.555	5.7
428.912	5.68
429.269	5.67
429.625	5.66
429.982	5.66
430.338	5.64
430.695	5.6
431.051	5.6
431.407	5.6
431.764	5.58
432.12	5.6
432.476	5.59
432.832	5.58
433.189	5.57
433.545	5.55
433.901	5.55
434.257	5.55
434.613	5.55
434.969	5.55
435.325	5.55
435.681	5.56
436.036	5.58
436.392	5.59
436.748	5.61
437.104	5.61
437.459	5.62
437.815	5.65
438.171	5.66
438.526	5.68
438.882	5.66
439.237	5.69
439.593	5.67
439.948	5.68
440.304	5.69
440.659	5.69
441.014	5.69
441.369	5.68
441.725	5.67
442.08	5.66
442.435	5.66
442.79	5.63
443.145	5.61
443.5	5.6
443.855	5.58
444.21	5.57
444.565	5.57
444.92	5.53
445.275	5.52
445.629	5.52
445.984	5.5
446.339	5.49
446.693	5.46
447.048	5.42
447.403	5.39
447.757	5.36
448.112	5.34
448.466	5.33
448.82	5.32
449.175	5.32
449.529	5.29
449.883	5.27
450.238	5.27
450.592	5.24
450.946	5.22
451.3	5.2
451.654	5.18
452.008	5.15
452.362	5.14
452.716	5.11
453.07	5.09
453.424	5.08
453.778	5.06
454.132	5.05
454.486	5.05
454.839	5.05
455.193	5.06
455.547	5.05
455.9	5.04
456.254	5.05
456.607	5.04
456.961	5.04
457.314	5.04
457.668	5.06
458.021	5.08
458.375	5.09
458.728	5.1
459.081	5.11
459.434	5.13
459.787	5.14
460.141	5.16
460.494	5.17
460.847	5.17
461.2	5.19
461.553	5.22
461.906	5.23
462.259	5.23
462.611	5.25
462.964	5.3
463.317	5.33
463.67	5.37
464.022	5.39
464.375	5.4
464.728	5.43
465.08	5.45
465.433	5.51
465.785	5.56
466.138	5.58
466.49	5.61
466.843	5.65
467.195	5.7
467.547	5.73
467.899	5.78
468.252	5.84
468.604	5.87
468.956	5.89
469.308	5.91
469.66	5.97
470.012	6
470.364	6.04
470.716	6.07
471.068	6.06
471.42	6.1
471.772	6.16
472.123	6.21
472.475	6.22
472.827	6.23
473.178	6.21
473.53	6.21
473.882	6.22
474.233	6.25
474.585	6.26
474.936	6.28
475.288	6.27
475.639	6.27
475.99	6.26
476.342	6.25
476.693	6.26
477.044	6.21
477.395	6.2
477.746	6.15
478.097	6.13
478.448	6.1
478.8	6.04
479.15	5.99
479.501	5.95
479.852	5.92
480.203	5.89
480.554	5.87
480.905	5.85
481.255	5.85
481.606	5.82
481.957	5.8
482.307	5.79
482.658	5.78
483.009	5.76
483.359	5.75
483.709	5.74
484.06	5.73
484.41	5.71
484.761	5.71
485.111	5.72
485.461	5.71
485.811	5.72
486.162	5.72
486.512	5.72
486.862	5.72
487.212	5.73
487.562	5.73
487.912	5.74
488.262	5.74
488.612	5.73
488.961	5.74
489.311	5.74
489.661	5.75
490.011	5.75
490.36	5.76
490.71	5.78
491.06	5.79
491.409	5.8
491.759	5.83
492.108	5.85
492.458	5.86
492.807	5.87
493.157	5.89
493.506	5.94
493.855	5.96
494.204	5.99
494.554	6.04
494.903	6.1
495.252	6.16
495.601	6.23
495.95	6.3
496.299	6.38
496.648	6.43
496.997	6.48
497.346	6.57
497.695	6.68
498.043	6.75
498.392	6.85
498.741	6.97
499.09	7.09
499.438	7.21
499.787	7.32
500.135	7.45
500.484	7.59
500.832	7.71
501.181	7.89
501.529	8.04
501.878	8.19
502.226	8.36
502.574	8.5
502.923	8.63
503.271	8.78
503.619	8.96
503.967	9.16
504.315	9.34
504.663	9.53
505.011	9.71
505.359	9.9
505.707	10.1
506.055	10.29
506.403	10.51
506.751	10.73
507.098	10.97
507.446	11.19
507.794	11.41
508.141	11.64
508.489	11.85
508.837	12.1
509.184	12.32
509.531	12.54
509.879	12.77
510.226	13.03
510.574	13.28
510.921	13.52
511.268	13.77
511.616	14.03
511.963	14.29
512.31	14.52
512.657	14.79
513.004	15.02
513.351	15.3
513.698	15.54
514.045	15.81
514.392	16.08
514.739	16.38
515.086	16.68
515.432	16.91
515.779	17.18
516.126	17.43
516.473	17.67
516.819	17.89
517.166	18.12
517.512	18.31
517.859	18.5
518.205	18.68
518.552	18.85
518.898	19.04
519.245	19.24
519.591	19.46
519.937	19.65
520.283	19.88
520.629	20.11
520.976	20.36
521.322	20.57
521.668	20.78
522.014	20.97
522.36	21.19
522.706	21.43
523.052	21.67
523.398	21.92
523.743	22.21
524.089	22.49
524.435	22.78
524.781	23.02
525.126	23.27
525.472	23.52
525.817	23.77
526.163	23.96
526.509	24.15
526.854	24.33
527.199	24.5
527.545	24.64
527.89	24.77
528.235	24.9
528.581	25.04
528.926	25.21
529.271	25.37
529.616	25.54
529.961	25.72
530.306	25.92
530.651	26.13
530.996	26.32
531.341	26.51
531.686	26.72
532.031	26.94
532.376	27.14
532.721	27.34
533.065	27.54
533.41	27.78
533.755	28
534.099	28.22
534.444	28.44
534.788	28.67
535.133	28.91
535.477	29.18
535.822	29.44
536.166	29.69
536.51	29.98
536.855	30.27
537.199	30.53
537.543	30.81
537.887	31.05
538.231	31.33
538.576	31.63
538.92	31.93
539.264	32.19
539.608	32.45
539.951	32.7
540.295	32.95
540.639	33.13
540.983	33.36
541.327	33.58
541.671	33.8
542.014	34.03
542.358	34.25
542.701	34.45
543.045	34.67
543.389	34.83
543.732	35.06
544.075	35.24
544.419	35.47
544.762	35.7
545.105	35.95
545.449	36.17
545.792	36.42
546.135	36.59
546.478	36.88
546.821	37.17
547.165	37.39
547.508	37.65
547.851	37.96
548.194	38.18
548.536	38.42
548.879	38.68
549.222	38.96
549.565	39.24
549.908	39.48
550.25	39.74
550.593	40.06
550.936	40.32
551.278	40.6
551.621	40.93
551.963	41.15
552.306	41.44
552.648	41.72
552.991	41.98
553.333	42.27
553.675	42.44
554.017	42.71
554.36	42.96
554.702	43.18
555.044	43.31
555.386	43.52
555.728	43.77
556.07	43.97
556.412	44.23
556.754	44.39
557.096	44.63
557.438	44.87
557.78	45.1
558.121	45.35
558.463	45.52
558.805	45.66
559.147	45.87
559.488	46.08
559.83	46.25
560.171	46.41
560.513	46.57
560.854	46.8
561.196	46.91
561.537	47.07
561.878	47.28
562.22	47.61
562.561	47.83
562.902	47.99
563.243	48.14
563.584	48.29
563.925	48.46
564.266	48.62
564.607	48.74
564.948	48.92
565.289	49.07
565.63	49.23
565.971	49.36
566.312	49.44
566.653	49.51
566.993	49.64
567.334	49.78
567.675	49.96
568.015	50.12
568.356	50.28
568.696	50.47
569.037	50.5
569.377	50.52
569.718	50.67
570.058	50.84
570.398	50.96
570.739	51.07
571.079	51.23
571.419	51.26
571.759	51.43
572.099	51.52
572.439	51.56
572.779	51.65
573.119	51.69
573.459	51.86
573.799	51.95
574.139	52.09
574.479	52.12
574.819	52.24
575.158	52.28
575.498	52.33
575.838	52.42
576.177	52.55
576.517	52.68
576.856	52.71
577.196	52.91
577.535	53
577.875	53.08
578.214	53.17
578.553	53.32
578.893	53.37
579.232	53.46
579.571	53.59
579.91	53.72
580.25	53.98
580.589	54.08
580.928	54.19
581.267	54.2
581.606	54.39
581.945	54.38
582.283	54.56
582.622	54.64
582.961	54.71
583.3	54.74
583.639	54.88
583.977	55.08
584.316	55.03
584.654	55.15
584.993	55.2
585.332	55.25
585.67	55.41
586.008	55.45
586.347	55.46
586.685	55.53
587.024	55.58
587.362	55.53
587.7	55.64
588.038	55.68
588.376	55.86
588.715	55.89
589.053	56
589.391	55.97
589.729	56.02
590.067	56.01
590.404	56.17
590.742	56.22
591.08	56.21
591.418	56.27
591.756	56.31
592.093	56.44
592.431	56.59
592.769	56.66
593.106	56.78
593.444	56.89
593.781	56.91
594.119	56.99
594.456	57.06
594.793	57.07
595.131	57.11
595.468	57.07
595.805	57.16
596.143	57.21
596.48	57.34
596.817	57.46
597.154	57.61
597.491	57.67
597.828	57.71
598.165	57.84
598.502	57.94
598.839	58
599.176	58.01
599.512	57.94
599.849	57.96
600.186	57.91
600.523	57.94
600.859	58.05
601.196	58.12
601.532	58.19
601.869	58.16
602.205	58.22
602.542	58.3
602.878	58.29
603.215	58.31
603.551	58.35
603.887	58.27
604.223	58.26
604.56	58.25
604.896	58.22
605.232	58.16
605.568	58.08
605.904	58.05
606.24	58.06
606.576	58.1
606.912	58.04
607.248	58.21
607.583	58.19
607.919	58.14
608.255	58.14
608.591	58.14
608.926	58.2
609.262	58.2
609.597	58.21
609.933	58.25
610.268	58.27
610.604	58.22
610.939	58.32
611.275	58.36
611.61	58.37
611.945	58.34
612.281	58.43
612.616	58.52
612.951	58.67
613.286	58.77
613.621	58.79
613.956	58.86
614.291	58.75
614.626	58.77
614.961	58.9
615.296	58.94
615.631	58.95
615.966	58.98
616.3	59.08
616.635	59.08
616.97	59.1
617.304	59.1
617.639	59.16
617.973	59.22
618.308	59.24
618.642	59.27
618.977	59.34
619.311	59.29
619.646	59.33
619.98	59.28
620.314	59.23
620.648	59.3
620.983	59.35
621.317	59.48
621.651	59.69
621.985	59.62
622.319	59.6
622.653	59.74
622.987	59.78
623.321	59.75
623.655	59.8
623.988	59.8
624.322	59.83
624.656	59.85
624.99	59.87
625.323	59.92
625.657	60.03
625.99	60.11
626.324	60.21
626.657	60.2
626.991	60.22
627.324	60.21
627.658	60.27
627.991	60.29
628.324	60.17
628.657	60.09
628.991	60.21
629.324	60.29
629.657	60.13
629.99	60.13
630.323	60.14
630.656	60.15
630.989	60.23
631.322	60.24
631.655	60.13
631.987	60.11
632.32	60.04
632.653	60.01
632.986	59.97
633.318	59.9
633.651	59.83
633.984	59.83
634.316	59.95
634.649	59.92
634.981	59.96
635.313	60.04
635.646	60
635.978	60.01
636.31	59.94
636.643	60.12
636.975	60.15
637.307	60.25
637.639	60.29
637.971	60.27
638.303	60.33
638.635	60.38
638.967	60.42
639.299	60.43
639.631	60.37
639.963	60.48
640.295	60.45
640.626	60.53
640.958	60.54
641.29	60.47
641.621	60.38
641.953	60.27
642.285	60.29
642.616	60.4
642.948	60.28
643.279	60.32
643.61	60.25
643.942	60.21
644.273	60.13
644.604	60.18
644.936	60.13
645.267	60.14
645.598	60.37
645.929	60.39
646.26	60.42
646.591	60.46
646.922	60.5
647.253	60.55
647.584	60.51
647.915	60.5
648.245	60.49
648.576	60.64
648.907	60.83
649.238	60.86
649.568	60.84
649.899	60.85
650.229	60.87
650.56	60.9
650.89	61.04
651.221	61.12
651.551	61.06
651.882	61.18
652.212	61.17
652.542	61.09
652.872	61.13
653.203	61.14
653.533	61.18
653.863	61.15
654.193	61.22
654.523	61.23
654.853	61.15
655.183	61.21
655.513	61.27
655.843	61.27
656.172	61.23
656.502	61.34
656.832	61.55
657.162	61.56
657.491	61.62
657.821	61.5
658.15	61.46
658.48	61.52
658.809	61.52
659.139	61.46
659.468	61.5
659.798	61.5
660.127	61.4
660.456	61.52
660.785	61.58
661.115	61.58
661.444	61.71
661.773	61.88
662.102	61.79
662.431	61.73
