Data from MVZ_BU136690_Reflection_00004.txt Node
Date: Tue Nov 19 12:07:55 EST 2019
User: vgr7
Spectrometer: USB2G7710
Scans to average: 3
Trigger mode: 4
Integration Time (sec): 2.000000E-2
Electric dark correction enabled: true
Boxcar width: 10
XAxis mode: Wavelengths
Number of Pixels in Spectrum: 2048
>>>>>Begin Spectral Data<<<<<
177.721	-94.93
178.105	-133.58
178.488	-302.54
178.871	-8.57
179.254	204.55
179.636	72.33
180.019	56.42
180.402	100
180.785	107.14
181.168	-2.8
181.55	6.5
181.933	8.18
182.316	-4.75
182.698	3.78
183.081	-54.07
183.463	-166.79
183.846	-125.92
184.228	-272.28
184.611	714.13
184.993	340.38
185.376	-1137.8
185.758	492.86
186.14	150
186.522	931.4
186.904	993.75
187.287	499.39
187.669	237.8
188.051	535.98
188.433	499.39
188.815	768.1
189.197	283.44
189.579	106.49
189.961	63.25
190.342	82.42
190.724	62.36
191.106	58.21
191.488	39.31
191.869	25.35
192.251	40.84
192.633	48.71
193.014	37.21
193.396	34.23
193.777	22.33
194.159	61.82
194.54	51.08
194.922	63.06
195.303	66.04
195.684	74.77
196.065	70.78
196.447	74.89
196.828	72.47
197.209	83.74
197.59	78.2
197.971	74.11
198.352	47.67
198.733	55.55
199.114	67.27
199.495	55.8
199.876	104.88
200.257	62.09
200.638	7.89
201.018	21.66
201.399	3.52
201.78	44.7
202.16	40.76
202.541	9.03
202.922	12.45
203.302	-0.55
203.683	-160.34
204.063	-232.76
204.444	-95.22
204.824	-189.13
205.204	-79.36
205.585	-69.18
205.965	-64.98
206.345	-78.91
206.725	-57.65
207.106	-2.64
207.486	6.82
207.866	-10.74
208.246	-31.47
208.626	-68.92
209.006	-104.39
209.386	-38.22
209.766	-201.92
210.145	-48.85
210.525	-41.49
210.905	-36.68
211.285	10.97
211.664	38.11
212.044	36.63
212.424	-1.47
212.803	-35.9
213.183	-19.47
213.562	-0.9
213.942	5.68
214.321	11.45
214.701	4.12
215.08	-15.89
215.459	-18.1
215.838	-14.56
216.218	-15.72
216.597	-5.05
216.976	-16.18
217.355	-19.61
217.734	-41.27
218.113	-43.71
218.492	-15.58
218.871	-7.05
219.25	1.73
219.629	11.17
220.008	13.56
220.387	18.21
220.766	52.39
221.144	61.39
221.523	54.88
221.902	41.89
222.28	28.99
222.659	41.8
223.037	44.23
223.416	38.04
223.794	40.33
224.173	35.19
224.551	36.01
224.929	36.15
225.308	31.57
225.686	36.03
226.064	25.07
226.442	19.53
226.821	15.64
227.199	10.01
227.577	5.15
227.955	12.88
228.333	11.12
228.711	8.34
229.089	7.55
229.467	6.33
229.845	9.59
230.222	12.61
230.6	10.6
230.978	12.26
231.356	11.5
231.733	13.09
232.111	13.64
232.488	11.21
232.866	11.05
233.243	13.62
233.621	13.81
233.998	16.03
234.376	13.53
234.753	14.38
235.13	14.47
235.508	14.57
235.885	10.63
236.262	11.93
236.639	11.04
237.016	11.22
237.393	11.05
237.77	10.45
238.147	9.54
238.524	8.89
238.901	6.99
239.278	6.12
239.655	6.27
240.032	5.72
240.409	5.88
240.785	5.58
241.162	4.41
241.539	4.56
241.915	3.83
242.292	3.92
242.668	3.31
243.045	3.08
243.421	2.95
243.798	3.51
244.174	3.61
244.551	3.9
244.927	4.02
245.303	3.61
245.679	3.56
246.056	3.64
246.432	3.83
246.808	4.35
247.184	4.68
247.56	4.51
247.936	4.76
248.312	4.94
248.688	4.89
249.064	5.21
249.44	5.01
249.815	5.12
250.191	5.56
250.567	5.6
250.943	6.02
251.318	6.32
251.694	6.25
252.069	6.35
252.445	6.22
252.82	6.2
253.196	6.62
253.571	6.89
253.947	7.07
254.322	6.88
254.697	6.5
255.073	6.14
255.448	5.92
255.823	5.85
256.198	5.3
256.573	5.29
256.948	5.1
257.323	4.97
257.698	4.91
258.073	4.77
258.448	5.2
258.823	4.86
259.198	4.66
259.573	4.51
259.948	4.51
260.322	4.42
260.697	4.48
261.072	4.48
261.446	4.34
261.821	4.24
262.195	4.42
262.57	4.54
262.944	4.46
263.319	4.45
263.693	4.2
264.067	4.43
264.442	4.4
264.816	4.26
265.19	4.41
265.564	4.39
265.938	4.27
266.313	3.91
266.687	4.03
267.061	3.94
267.435	4.21
267.809	3.96
268.183	4.17
268.556	4.03
268.93	4.01
269.304	3.78
269.678	3.78
270.051	3.65
270.425	3.63
270.799	3.7
271.172	3.78
271.546	4.04
271.919	3.95
272.293	3.98
272.666	4.13
273.04	4.2
273.413	4.23
273.787	4.18
274.16	4.12
274.533	4.17
274.906	4.35
275.279	4.21
275.653	4.49
276.026	4.45
276.399	4.49
276.772	4.5
277.145	4.71
277.518	4.73
277.891	4.71
278.263	4.79
278.636	5.08
279.009	5.02
279.382	5.11
279.755	5.13
280.127	5.08
280.5	4.95
280.872	4.77
281.245	4.71
281.617	4.68
281.99	4.76
282.362	4.78
282.735	4.64
283.107	4.66
283.479	4.59
283.852	4.59
284.224	4.5
284.596	4.59
284.968	4.47
285.34	4.28
285.713	4.3
286.085	4.18
286.457	3.97
286.829	3.94
287.201	3.64
287.572	3.68
287.944	3.84
288.316	3.83
288.688	3.87
289.06	3.96
289.431	4.08
289.803	3.98
290.175	4.02
290.546	3.98
290.918	3.99
291.289	3.74
291.661	3.74
292.032	3.83
292.403	3.87
292.775	4.07
293.146	4.18
293.517	3.98
293.889	3.92
294.26	3.94
294.631	3.96
295.002	4.15
295.373	4.03
295.744	4.04
296.115	4.13
296.486	4.21
296.857	4.09
297.228	3.94
297.599	3.91
297.97	3.85
298.34	4
298.711	3.93
299.082	4.13
299.452	4.08
299.823	4.11
300.194	3.86
300.564	3.75
300.935	3.76
301.305	3.92
301.676	3.92
302.046	4.1
302.416	4.17
302.787	4.05
303.157	4.11
303.527	4.1
303.897	3.88
304.267	3.78
304.637	3.93
305.008	3.96
305.378	4.13
305.748	3.98
306.117	3.85
306.487	3.88
306.857	3.8
307.227	3.8
307.597	3.65
307.967	3.73
308.336	3.7
308.706	3.66
309.076	3.64
309.445	3.74
309.815	3.62
310.184	3.48
310.554	3.48
310.923	3.47
311.293	3.3
311.662	3.56
312.031	3.53
312.401	3.48
312.77	3.53
313.139	3.5
313.508	3.53
313.877	3.68
314.246	3.64
314.616	3.62
314.985	3.53
315.353	3.72
315.722	3.78
316.091	3.77
316.46	3.91
316.829	3.88
317.198	3.86
317.567	3.86
317.935	3.77
318.304	3.88
318.672	4.09
319.041	4.13
319.41	3.97
319.778	4
320.147	3.91
320.515	3.9
320.883	3.67
321.252	3.66
321.62	3.47
321.988	3.55
322.357	3.57
322.725	3.63
323.093	3.39
323.461	3.34
323.829	3.36
324.197	3.21
324.565	3.35
324.933	3.24
325.301	3.13
325.669	3.3
326.037	3.3
326.405	3.26
326.772	3.3
327.14	3.3
327.508	3.19
327.875	3.27
328.243	3.23
328.61	3.34
328.978	3.3
329.346	3.19
329.713	3.21
330.08	3.17
330.448	3.2
330.815	3.39
331.182	3.39
331.55	3.34
331.917	3.28
332.284	3.19
332.651	3.37
333.018	3.41
333.385	3.48
333.752	3.39
334.119	3.34
334.486	3.38
334.853	3.44
335.22	3.58
335.587	3.44
335.954	3.4
336.32	3.37
336.687	3.58
337.054	3.65
337.42	3.64
337.787	3.56
338.153	3.6
338.52	3.62
338.886	3.56
339.253	3.51
339.619	3.69
339.986	3.58
340.352	3.44
340.718	3.53
341.084	3.43
341.451	3.56
341.817	3.49
342.183	3.52
342.549	3.54
342.915	3.58
343.281	3.62
343.647	3.87
344.013	3.99
344.379	3.83
344.745	4
345.11	3.99
345.476	4.15
345.842	4.05
346.208	4.05
346.573	4.08
346.939	4.11
347.304	4.08
347.67	4.23
348.035	4.21
348.401	4.15
348.766	4.18
349.132	4.15
349.497	4.25
349.862	4.17
350.228	4.16
350.593	4.13
350.958	4.25
351.323	4.07
351.688	4.1
352.053	4.16
352.418	4.05
352.783	3.95
353.148	3.94
353.513	4.01
353.878	3.9
354.243	3.85
354.608	3.91
354.972	3.89
355.337	3.78
355.702	3.78
356.066	3.82
356.431	3.87
356.795	3.87
357.16	3.79
357.524	3.75
357.889	3.78
358.253	3.63
358.618	3.56
358.982	3.55
359.346	3.49
359.71	3.46
360.075	3.45
360.439	3.54
360.803	3.59
361.167	3.54
361.531	3.52
361.895	3.57
362.259	3.67
362.623	3.63
362.987	3.7
363.351	3.67
363.714	3.65
364.078	3.6
364.442	3.57
364.806	3.64
365.169	3.72
365.533	3.68
365.896	3.83
366.26	3.82
366.623	3.82
366.987	3.81
367.35	3.79
367.714	3.74
368.077	3.69
368.44	3.59
368.803	3.57
369.167	3.56
369.53	3.52
369.893	3.46
370.256	3.45
370.619	3.39
370.982	3.42
371.345	3.5
371.708	3.57
372.071	3.52
372.434	3.47
372.797	3.46
373.159	3.41
373.522	3.35
373.885	3.32
374.247	3.31
374.61	3.38
374.973	3.45
375.335	3.51
375.698	3.52
376.06	3.51
376.423	3.55
376.785	3.57
377.147	3.61
377.51	3.58
377.872	3.59
378.234	3.6
378.596	3.59
378.958	3.55
379.321	3.41
379.683	3.46
380.045	3.47
380.407	3.47
380.769	3.53
381.13	3.58
381.492	3.61
381.854	3.61
382.216	3.56
382.578	3.58
382.939	3.58
383.301	3.55
383.663	3.56
384.024	3.51
384.386	3.56
384.747	3.49
385.109	3.49
385.47	3.53
385.832	3.52
386.193	3.57
386.554	3.48
386.916	3.54
387.277	3.54
387.638	3.56
387.999	3.52
388.36	3.5
388.721	3.47
389.082	3.53
389.443	3.56
389.804	3.59
390.165	3.54
390.526	3.55
390.887	3.59
391.248	3.59
391.609	3.62
391.969	3.59
392.33	3.62
392.691	3.62
393.051	3.63
393.412	3.65
393.772	3.66
394.133	3.66
394.493	3.61
394.854	3.59
395.214	3.56
395.574	3.57
395.935	3.56
396.295	3.56
396.655	3.52
397.015	3.52
397.376	3.51
397.736	3.55
398.096	3.53
398.456	3.51
398.816	3.52
399.176	3.51
399.535	3.54
399.895	3.57
400.255	3.53
400.615	3.52
400.975	3.52
401.334	3.52
401.694	3.55
402.054	3.6
402.413	3.64
402.773	3.62
403.132	3.64
403.492	3.65
403.851	3.65
404.211	3.64
404.57	3.67
404.929	3.67
405.288	3.64
405.648	3.64
406.007	3.65
406.366	3.66
406.725	3.69
407.084	3.64
407.443	3.66
407.802	3.68
408.161	3.67
408.52	3.64
408.879	3.61
409.238	3.63
409.596	3.63
409.955	3.62
410.314	3.61
410.673	3.58
411.031	3.56
411.39	3.55
411.748	3.53
412.107	3.47
412.465	3.48
412.824	3.5
413.182	3.46
413.54	3.45
413.899	3.41
414.257	3.41
414.615	3.45
414.974	3.43
415.332	3.43
415.69	3.44
416.048	3.45
416.406	3.46
416.764	3.43
417.122	3.42
417.48	3.41
417.838	3.42
418.195	3.43
418.553	3.45
418.911	3.43
419.269	3.45
419.626	3.46
419.984	3.44
420.342	3.44
420.699	3.45
421.057	3.45
421.414	3.48
421.772	3.48
422.129	3.47
422.486	3.47
422.844	3.47
423.201	3.47
423.558	3.47
423.915	3.47
424.273	3.47
424.63	3.49
424.987	3.48
425.344	3.49
425.701	3.51
426.058	3.51
426.415	3.52
426.772	3.52
427.128	3.53
427.485	3.53
427.842	3.53
428.199	3.55
428.555	3.56
428.912	3.55
429.269	3.54
429.625	3.54
429.982	3.54
430.338	3.54
430.695	3.5
431.051	3.51
431.407	3.5
431.764	3.53
432.12	3.56
432.476	3.55
432.832	3.55
433.189	3.52
433.545	3.5
433.901	3.48
434.257	3.49
434.613	3.47
434.969	3.49
435.325	3.51
435.681	3.49
436.036	3.48
436.392	3.48
436.748	3.46
437.104	3.47
437.459	3.47
437.815	3.47
438.171	3.52
438.526	3.51
438.882	3.52
439.237	3.5
439.593	3.49
439.948	3.48
440.304	3.48
440.659	3.48
441.014	3.49
441.369	3.5
441.725	3.5
442.08	3.51
442.435	3.52
442.79	3.5
443.145	3.49
443.5	3.49
443.855	3.49
444.21	3.5
444.565	3.5
444.92	3.51
445.275	3.51
445.629	3.5
445.984	3.51
446.339	3.49
446.693	3.5
447.048	3.49
447.403	3.5
447.757	3.49
448.112	3.5
448.466	3.49
448.82	3.5
449.175	3.49
449.529	3.49
449.883	3.46
450.238	3.47
450.592	3.5
450.946	3.49
451.3	3.49
451.654	3.49
452.008	3.49
452.362	3.48
452.716	3.48
453.07	3.49
453.424	3.48
453.778	3.5
454.132	3.5
454.486	3.51
454.839	3.52
455.193	3.54
455.547	3.54
455.9	3.56
456.254	3.57
456.607	3.57
456.961	3.59
457.314	3.57
457.668	3.57
458.021	3.56
458.375	3.57
458.728	3.56
459.081	3.58
459.434	3.57
459.787	3.59
460.141	3.58
460.494	3.57
460.847	3.59
461.2	3.57
461.553	3.58
461.906	3.6
462.259	3.6
462.611	3.64
462.964	3.64
463.317	3.67
463.67	3.64
464.022	3.67
464.375	3.65
464.728	3.66
465.08	3.67
465.433	3.69
465.785	3.69
466.138	3.71
466.49	3.7
466.843	3.71
467.195	3.71
467.547	3.72
467.899	3.72
468.252	3.71
468.604	3.75
468.956	3.74
469.308	3.71
469.66	3.72
470.012	3.7
470.364	3.7
470.716	3.7
471.068	3.72
471.42	3.73
471.772	3.73
472.123	3.75
472.475	3.75
472.827	3.75
473.178	3.78
473.53	3.79
473.882	3.79
474.233	3.8
474.585	3.8
474.936	3.8
475.288	3.79
475.639	3.79
475.99	3.76
476.342	3.73
476.693	3.74
477.044	3.73
477.395	3.71
477.746	3.7
478.097	3.66
478.448	3.67
478.8	3.66
479.15	3.66
479.501	3.67
479.852	3.66
480.203	3.64
480.554	3.63
480.905	3.63
481.255	3.64
481.606	3.64
481.957	3.63
482.307	3.63
482.658	3.64
483.009	3.65
483.359	3.65
483.709	3.66
484.06	3.68
484.41	3.67
484.761	3.68
485.111	3.69
485.461	3.7
485.811	3.7
486.162	3.7
486.512	3.71
486.862	3.71
487.212	3.71
487.562	3.7
487.912	3.72
488.262	3.72
488.612	3.72
488.961	3.72
489.311	3.72
489.661	3.73
490.011	3.73
490.36	3.72
490.71	3.73
491.06	3.73
491.409	3.72
491.759	3.73
492.108	3.73
492.458	3.72
492.807	3.73
493.157	3.73
493.506	3.73
493.855	3.72
494.204	3.71
494.554	3.72
494.903	3.74
495.252	3.73
495.601	3.73
495.95	3.72
496.299	3.73
496.648	3.75
496.997	3.76
497.346	3.78
497.695	3.79
498.043	3.81
498.392	3.81
498.741	3.8
499.09	3.81
499.438	3.82
499.787	3.83
500.135	3.83
500.484	3.84
500.832	3.86
501.181	3.88
501.529	3.9
501.878	3.92
502.226	3.92
502.574	3.93
502.923	3.95
503.271	3.97
503.619	3.96
503.967	3.93
504.315	3.92
504.663	3.9
505.011	3.9
505.359	3.88
505.707	3.87
506.055	3.9
506.403	3.85
506.751	3.86
507.098	3.89
507.446	3.89
507.794	3.89
508.141	3.9
508.489	3.89
508.837	3.87
509.184	3.88
509.531	3.89
509.879	3.87
510.226	3.86
510.574	3.88
510.921	3.87
511.268	3.89
511.616	3.88
511.963	3.91
512.31	3.91
512.657	3.92
513.004	3.92
513.351	3.89
513.698	3.91
514.045	3.9
514.392	3.88
514.739	3.89
515.086	3.89
515.432	3.87
515.779	3.89
516.126	3.91
516.473	3.9
516.819	3.89
517.166	3.91
517.512	3.91
517.859	3.9
518.205	3.9
518.552	3.9
518.898	3.9
519.245	3.89
519.591	3.87
519.937	3.9
520.283	3.91
520.629	3.92
520.976	3.93
521.322	3.94
521.668	3.94
522.014	3.92
522.36	3.93
522.706	3.94
523.052	3.93
523.398	3.92
523.743	3.92
524.089	3.91
524.435	3.91
524.781	3.91
525.126	3.91
525.472	3.91
525.817	3.92
526.163	3.94
526.509	3.95
526.854	3.96
527.199	3.95
527.545	3.94
527.89	3.95
528.235	3.96
528.581	3.95
528.926	3.96
529.271	3.96
529.616	3.98
529.961	3.98
530.306	3.99
530.651	3.99
530.996	3.99
531.341	4.01
531.686	4.03
532.031	4.03
532.376	4.04
532.721	4.04
533.065	4.04
533.41	4.03
533.755	4.04
534.099	4.05
534.444	4.05
534.788	4.05
535.133	4.06
535.477	4.08
535.822	4.07
536.166	4.08
536.51	4.08
536.855	4.07
537.199	4.05
537.543	4.04
537.887	4.05
538.231	4.06
538.576	4.05
538.92	4.04
539.264	4.04
539.608	4.06
539.951	4.05
540.295	4.06
540.639	4.07
540.983	4.07
541.327	4.08
541.671	4.07
542.014	4.09
542.358	4.09
542.701	4.09
543.045	4.08
543.389	4.09
543.732	4.09
544.075	4.11
544.419	4.12
544.762	4.12
545.105	4.12
545.449	4.12
545.792	4.13
546.135	4.13
546.478	4.15
546.821	4.14
547.165	4.16
547.508	4.13
547.851	4.15
548.194	4.13
548.536	4.13
548.879	4.12
549.222	4.14
549.565	4.14
549.908	4.14
550.25	4.12
550.593	4.11
550.936	4.11
551.278	4.11
551.621	4.09
551.963	4.11
552.306	4.11
552.648	4.11
552.991	4.1
553.333	4.08
553.675	4.07
554.017	4.08
554.36	4.07
554.702	4.09
555.044	4.08
555.386	4.1
555.728	4.09
556.07	4.1
556.412	4.09
556.754	4.08
557.096	4.08
557.438	4.11
557.78	4.12
558.121	4.12
558.463	4.09
558.805	4.12
559.147	4.14
559.488	4.15
559.83	4.14
560.171	4.13
560.513	4.17
560.854	4.15
561.196	4.16
561.537	4.18
561.878	4.17
562.22	4.17
562.561	4.17
562.902	4.18
563.243	4.18
563.584	4.15
563.925	4.16
564.266	4.15
564.607	4.16
564.948	4.17
565.289	4.18
565.63	4.18
565.971	4.16
566.312	4.13
566.653	4.1
566.993	4.12
567.334	4.14
567.675	4.15
568.015	4.15
568.356	4.12
568.696	4.11
569.037	4.11
569.377	4.09
569.718	4.07
570.058	4.05
570.398	4.05
570.739	4.06
571.079	4.02
571.419	4
571.759	3.98
572.099	3.96
572.439	3.96
572.779	3.97
573.119	3.98
573.459	3.96
573.799	3.99
574.139	3.96
574.479	3.96
574.819	3.96
575.158	3.96
575.498	3.96
575.838	3.96
576.177	3.93
576.517	3.96
576.856	3.95
577.196	3.98
577.535	3.98
577.875	3.97
578.214	4
578.553	4.02
578.893	4.05
579.232	4.06
579.571	4.06
579.91	4.06
580.25	4.09
580.589	4.16
580.928	4.14
581.267	4.21
581.606	4.19
581.945	4.15
582.283	4.16
582.622	4.16
582.961	4.13
583.3	4.18
583.639	4.17
583.977	4.22
584.316	4.17
584.654	4.14
584.993	4.11
585.332	4.08
585.67	4.1
586.008	4.09
586.347	4.14
586.685	4.14
587.024	4.1
587.362	4.07
587.7	4.05
588.038	4.1
588.376	4.1
588.715	4.09
589.053	4.12
589.391	4.12
589.729	4.18
590.067	4.2
590.404	4.2
590.742	4.19
591.08	4.15
591.418	4.19
591.756	4.23
592.093	4.28
592.431	4.32
592.769	4.34
593.106	4.32
593.444	4.28
593.781	4.26
594.119	4.27
594.456	4.31
594.793	4.3
595.131	4.3
595.468	4.33
595.805	4.37
596.143	4.35
596.48	4.36
596.817	4.34
597.154	4.36
597.491	4.34
597.828	4.34
598.165	4.37
598.502	4.32
598.839	4.29
599.176	4.26
599.512	4.26
599.849	4.23
600.186	4.24
600.523	4.24
600.859	4.26
601.196	4.28
601.532	4.26
601.869	4.27
602.205	4.23
602.542	4.19
602.878	4.16
603.215	4.21
603.551	4.23
603.887	4.24
604.223	4.21
604.56	4.23
604.896	4.26
605.232	4.27
605.568	4.29
605.904	4.32
606.24	4.34
606.576	4.36
606.912	4.38
607.248	4.4
607.583	4.42
607.919	4.38
608.255	4.38
608.591	4.42
608.926	4.42
609.262	4.41
609.597	4.42
609.933	4.42
610.268	4.39
610.604	4.39
610.939	4.35
611.275	4.4
611.61	4.39
611.945	4.33
612.281	4.32
612.616	4.34
612.951	4.39
613.286	4.35
613.621	4.29
613.956	4.31
614.291	4.29
614.626	4.32
614.961	4.4
615.296	4.4
615.631	4.36
615.966	4.36
616.3	4.4
616.635	4.46
616.97	4.48
617.304	4.44
617.639	4.46
617.973	4.51
618.308	4.49
618.642	4.5
618.977	4.53
619.311	4.54
619.646	4.58
619.98	4.54
620.314	4.53
620.648	4.58
620.983	4.52
621.317	4.57
621.651	4.54
621.985	4.5
622.319	4.5
622.653	4.46
622.987	4.44
623.321	4.42
623.655	4.34
623.988	4.37
624.322	4.43
624.656	4.44
624.99	4.44
625.323	4.43
625.657	4.46
625.99	4.5
626.324	4.48
626.657	4.42
626.991	4.43
627.324	4.47
627.658	4.51
627.991	4.58
628.324	4.52
628.657	4.53
628.991	4.52
629.324	4.55
629.657	4.59
629.99	4.64
630.323	4.64
630.656	4.7
630.989	4.68
631.322	4.67
631.655	4.69
631.987	4.61
632.32	4.65
632.653	4.66
632.986	4.58
633.318	4.58
633.651	4.6
633.984	4.59
634.316	4.61
634.649	4.58
634.981	4.58
635.313	4.55
635.646	4.54
635.978	4.62
636.31	4.61
636.643	4.58
636.975	4.53
637.307	4.57
637.639	4.55
637.971	4.49
638.303	4.53
638.635	4.48
638.967	4.59
639.299	4.58
639.631	4.53
639.963	4.57
640.295	4.58
640.626	4.6
640.958	4.57
641.29	4.59
641.621	4.5
641.953	4.4
642.285	4.52
642.616	4.46
642.948	4.42
643.279	4.39
643.61	4.48
643.942	4.48
644.273	4.44
644.604	4.41
644.936	4.45
645.267	4.37
645.598	4.35
645.929	4.19
646.26	4.11
646.591	4.17
646.922	4.14
647.253	4.13
647.584	4.15
647.915	4.17
648.245	4.2
648.576	4.27
648.907	4.36
649.238	4.26
649.568	4.28
649.899	4.23
650.229	4.28
650.56	4.25
650.89	4.37
651.221	4.37
651.551	4.42
651.882	4.45
652.212	4.47
652.542	4.52
652.872	4.56
653.203	4.64
653.533	4.66
653.863	4.71
654.193	4.66
654.523	4.58
654.853	4.62
655.183	4.56
655.513	4.53
655.843	4.52
656.172	4.54
656.502	4.61
656.832	4.58
657.162	4.54
657.491	4.57
657.821	4.47
658.15	4.46
658.48	4.49
658.809	4.43
659.139	4.48
659.468	4.48
659.798	4.6
660.127	4.6
660.456	4.55
660.785	4.5
661.115	4.55
661.444	4.63
661.773	4.64
662.102	4.67
662.431	4.67
662.76	4.66
663.089	4.72
663.418	4.72
663.747	4.8
664.076	4.78
664.404	4.75
664.733	4.77
665.062	4.82
665.39	4.82
665.719	4.89
666.048	4.82
666.376	4.81
666.705	4.69
667.033	4.66
667.362	4.69
667.69	4.76
668.018	4.75
668.347	4.77
668.675	4.72
669.003	4.66
669.331	4.75
669.659	4.74
669.987	4.75
670.315	4.74
670.643	4.73
670.971	4.78
671.299	4.87
671.627	4.87
671.955	4.83
672.283	4.76
672.61	4.73
672.938	4.81
673.266	4.86
673.593	4.9
673.921	4.96
674.249	5.01
674.576	5
674.904	5
675.231	5.01
675.558	5.12
675.886	5.14
676.213	5.08
676.54	5.09
676.867	5.06
677.195	5.13
677.522	5.14
677.849	5.08
678.176	5.04
678.503	4.99
