Data from MVZ_BU34099_Reflection_00005.txt Node
Date: Tue Nov 19 12:15:29 EST 2019
User: vgr7
Spectrometer: USB2G7710
Scans to average: 3
Trigger mode: 4
Integration Time (sec): 2.000000E-2
Electric dark correction enabled: true
Boxcar width: 10
XAxis mode: Wavelengths
Number of Pixels in Spectrum: 2048
>>>>>Begin Spectral Data<<<<<
177.721	251.75
178.105	-29.31
178.488	-797.2
178.871	156.6
179.254	-336.36
179.636	-137.62
180.019	-18.98
180.402	-250
180.785	78.42
181.168	209.95
181.55	-2438.46
181.933	-206.12
182.316	-1155.81
182.698	-231.49
183.081	-392.54
183.463	-361.54
183.846	0.66
184.228	100
184.611	1023.08
184.993	14.29
185.376	-12.63
185.758	26
186.14	-107.27
186.522	37.35
186.904	29.66
187.287	4.61
187.669	-50.92
188.051	-30.43
188.433	-24.17
188.815	-36.54
189.197	-43.01
189.579	-41.43
189.961	-39.38
190.342	-44.53
190.724	-53.38
191.106	-43.8
191.488	-40.34
191.869	-41.16
192.251	-31.79
192.633	-16.47
193.014	-24.11
193.396	-18.44
193.777	-18.44
194.159	-4.89
194.54	-15.43
194.922	-25.98
195.303	-26.57
195.684	-22.3
196.065	-23.33
196.447	-34.09
196.828	-38.76
197.209	-35.9
197.59	-38.35
197.971	-31.45
198.352	-25.97
198.733	-19.72
199.114	-24.42
199.495	-25.77
199.876	-38.13
200.257	-33.72
200.638	-59.24
201.018	-45.9
201.399	-44.99
201.78	-47.05
202.16	-52.47
202.541	-50.07
202.922	-41.25
203.302	-29.64
203.683	-35.12
204.063	-37.95
204.444	-3.97
204.824	-6.27
205.204	-7.29
205.585	-2.91
205.965	-8.88
206.345	-17.27
206.725	-18.98
207.106	-18.12
207.486	-15.27
207.866	-0.98
208.246	-4.16
208.626	-7.11
209.006	-10
209.386	-6.45
209.766	-4.25
210.145	1.01
210.525	-11.15
210.905	-16.44
211.285	-14.14
211.664	-4.9
212.044	-5.65
212.424	-8.8
212.803	-20.12
213.183	-30.08
213.562	-24.58
213.942	-17.93
214.321	-17.24
214.701	-19.72
215.08	-12.94
215.459	-13.63
215.838	-28.4
216.218	-35.66
216.597	-22.28
216.976	-17.62
217.355	-19.53
217.734	-21.74
218.113	-16.19
218.492	-12.91
218.871	4
219.25	-16.41
219.629	-26
220.008	-28.09
220.387	-37.95
220.766	-5.95
221.144	-2.54
221.523	-16.58
221.902	-20.22
222.28	-8.97
222.659	1.75
223.037	-4.62
223.416	-8.54
223.794	-4.7
224.173	0.28
224.551	2.08
224.929	-5.56
225.308	-3.75
225.686	-2.54
226.064	-2.45
226.442	-2.16
226.821	-10.41
227.199	-8.16
227.577	-7.85
227.955	-4.69
228.333	-4.67
228.711	-5.72
229.089	-3.31
229.467	-2.7
229.845	-3.56
230.222	-4.79
230.6	-9.08
230.978	-6.48
231.356	-2.96
231.733	-2.89
232.111	-3.35
232.488	-4.38
232.866	-1.65
233.243	-3.1
233.621	-3.03
233.998	-3.77
234.376	-3.25
234.753	-2.29
235.13	-2.97
235.508	-3.39
235.885	-2.04
236.262	-3.12
236.639	-3.1
237.016	-2.57
237.393	-0.99
237.77	0.26
238.147	1.29
238.524	2.29
238.901	2.23
239.278	1.15
239.655	2.21
240.032	3.19
240.409	3.63
240.785	4.08
241.162	4.91
241.539	5.02
241.915	5.02
242.292	4.85
242.668	5.67
243.045	5.95
243.421	6.45
243.798	6.38
244.174	6.65
244.551	6.63
244.927	6.5
245.303	6.66
245.679	6.76
246.056	6.38
246.432	6.29
246.808	6.36
247.184	6.56
247.56	6.28
247.936	6.15
248.312	6.4
248.688	6.17
249.064	6.03
249.44	5.94
249.815	6.22
250.191	6.23
250.567	5.88
250.943	6.01
251.318	5.67
251.694	5.19
252.069	5.13
252.445	5.4
252.82	5.45
253.196	5.17
253.571	5.05
253.947	5.37
254.322	5.31
254.697	5.43
255.073	5.53
255.448	5.55
255.823	5.53
256.198	5.02
256.573	5.1
256.948	5.07
257.323	5.21
257.698	5.11
258.073	5.29
258.448	5.25
258.823	5.28
259.198	5.34
259.573	5.56
259.948	5.55
260.322	5.35
260.697	5.52
261.072	5.72
261.446	5.54
261.821	5.47
262.195	5.44
262.57	5.47
262.944	5.37
263.319	5.32
263.693	5.33
264.067	5.54
264.442	5.45
264.816	5.36
265.19	5.42
265.564	5.31
265.938	5.21
266.313	5.36
266.687	5.33
267.061	5.32
267.435	5.32
267.809	5.09
268.183	5.06
268.556	4.9
268.93	4.75
269.304	4.82
269.678	4.88
270.051	5.06
270.425	4.82
270.799	4.66
271.172	4.81
271.546	4.76
271.919	4.79
272.293	4.87
272.666	5.08
273.04	5.01
273.413	5.19
273.787	5.06
274.16	5.05
274.533	5.22
274.906	5.43
275.279	5.35
275.653	5.7
276.026	5.87
276.399	5.84
276.772	5.85
277.145	5.93
277.518	5.81
277.891	5.73
278.263	5.91
278.636	6.1
279.009	6.11
279.382	5.97
279.755	5.83
280.127	5.94
280.5	5.97
280.872	5.87
281.245	5.79
281.617	5.88
281.99	5.88
282.362	5.65
282.735	5.37
283.107	5.3
283.479	5.23
283.852	5.09
284.224	5.02
284.596	5.03
284.968	4.91
285.34	4.98
285.713	4.99
286.085	4.84
286.457	4.81
286.829	4.9
287.201	5.03
287.572	5.08
287.944	5.08
288.316	5.07
288.688	5.16
289.06	5.22
289.431	5.34
289.803	5.41
290.175	5.5
290.546	5.68
290.918	5.76
291.289	5.68
291.661	5.8
292.032	6.05
292.403	6.04
292.775	6.18
293.146	6.28
293.517	6.42
293.889	6.57
294.26	6.6
294.631	6.63
295.002	6.66
295.373	6.61
295.744	6.56
296.115	6.57
296.486	6.62
296.857	6.58
297.228	6.56
297.599	6.43
297.97	6.46
298.34	6.42
298.711	6.52
299.082	6.6
299.452	6.5
299.823	6.4
300.194	6.51
300.564	6.45
300.935	6.53
301.305	6.38
301.676	6.25
302.046	6.4
302.416	6.26
302.787	6.3
303.157	6.32
303.527	6.33
303.897	6.23
304.267	6.18
304.637	6.25
305.008	6.22
305.378	6.38
305.748	6.45
306.117	6.48
306.487	6.43
306.857	6.42
307.227	6.58
307.597	6.61
307.967	6.53
308.336	6.61
308.706	6.48
309.076	6.61
309.445	6.78
309.815	6.63
310.184	6.71
310.554	6.72
310.923	6.69
311.293	6.7
311.662	6.73
312.031	6.8
312.401	6.65
312.77	6.75
313.139	6.76
313.508	6.64
313.877	6.54
314.246	6.44
314.616	6.41
314.985	6.32
315.353	6.3
315.722	6.29
316.091	6.31
316.46	6.19
316.829	6.26
317.198	6.16
317.567	6.31
317.935	6.24
318.304	6.27
318.672	6.41
319.041	6.49
319.41	6.48
319.778	6.44
320.147	6.53
320.515	6.5
320.883	6.3
321.252	6.24
321.62	6.43
321.988	6.51
322.357	6.59
322.725	6.58
323.093	6.46
323.461	6.39
323.829	6.43
324.197	6.53
324.565	6.53
324.933	6.47
325.301	6.23
325.669	6.15
326.037	6.06
326.405	6.03
326.772	5.97
327.14	5.95
327.508	5.91
327.875	5.83
328.243	5.67
328.61	5.84
328.978	5.88
329.346	5.9
329.713	6.05
330.08	5.96
330.448	5.93
330.815	6.03
331.182	6.14
331.55	6.13
331.917	6.11
332.284	6.06
332.651	6.22
333.018	6.35
333.385	6.4
333.752	6.39
334.119	6.45
334.486	6.44
334.853	6.46
335.22	6.49
335.587	6.5
335.954	6.53
336.32	6.53
336.687	6.68
337.054	6.54
337.42	6.44
337.787	6.61
338.153	6.69
338.52	6.67
338.886	6.69
339.253	6.66
339.619	6.75
339.986	6.7
340.352	6.66
340.718	6.67
341.084	6.68
341.451	6.74
341.817	6.69
342.183	6.74
342.549	6.85
342.915	6.75
343.281	6.81
343.647	6.92
344.013	6.88
344.379	6.74
344.745	6.85
345.11	6.77
345.476	6.8
345.842	6.72
346.208	6.77
346.573	6.66
346.939	6.73
347.304	6.64
347.67	6.62
348.035	6.65
348.401	6.68
348.766	6.68
349.132	6.6
349.497	6.65
349.862	6.64
350.228	6.58
350.593	6.62
350.958	6.63
351.323	6.48
351.688	6.48
352.053	6.5
352.418	6.42
352.783	6.43
353.148	6.34
353.513	6.38
353.878	6.36
354.243	6.36
354.608	6.33
354.972	6.29
355.337	6.32
355.702	6.29
356.066	6.27
356.431	6.34
356.795	6.41
357.16	6.41
357.524	6.44
357.889	6.41
358.253	6.45
358.618	6.48
358.982	6.54
359.346	6.57
359.71	6.58
360.075	6.65
360.439	6.73
360.803	6.72
361.167	6.76
361.531	6.7
361.895	6.71
362.259	6.73
362.623	6.8
362.987	6.82
363.351	6.82
363.714	6.83
364.078	6.83
364.442	6.79
364.806	6.8
365.169	6.8
365.533	6.81
365.896	6.76
366.26	6.69
366.623	6.69
366.987	6.68
367.35	6.68
367.714	6.65
368.077	6.59
368.44	6.47
368.803	6.39
369.167	6.39
369.53	6.46
369.893	6.48
370.256	6.48
370.619	6.48
370.982	6.47
371.345	6.51
371.708	6.54
372.071	6.5
372.434	6.48
372.797	6.49
373.159	6.53
373.522	6.57
373.885	6.63
374.247	6.61
374.61	6.65
374.973	6.65
375.335	6.59
375.698	6.61
376.06	6.75
376.423	6.76
376.785	6.88
377.147	6.82
377.51	6.8
377.872	6.77
378.234	6.82
378.596	6.76
378.958	6.76
379.321	6.73
379.683	6.76
380.045	6.71
380.407	6.73
380.769	6.67
381.13	6.69
381.492	6.67
381.854	6.7
382.216	6.67
382.578	6.71
382.939	6.71
383.301	6.68
383.663	6.66
384.024	6.68
384.386	6.69
384.747	6.69
385.109	6.68
385.47	6.76
385.832	6.69
386.193	6.74
386.554	6.73
386.916	6.73
387.277	6.72
387.638	6.78
387.999	6.77
388.36	6.8
388.721	6.75
389.082	6.77
389.443	6.78
389.804	6.76
390.165	6.74
390.526	6.82
390.887	6.83
391.248	6.82
391.609	6.83
391.969	6.75
392.33	6.74
392.691	6.74
393.051	6.71
393.412	6.73
393.772	6.75
394.133	6.72
394.493	6.71
394.854	6.7
395.214	6.67
395.574	6.63
395.935	6.59
396.295	6.61
396.655	6.58
397.015	6.57
397.376	6.55
397.736	6.57
398.096	6.51
398.456	6.5
398.816	6.47
399.176	6.46
399.535	6.47
399.895	6.46
400.255	6.46
400.615	6.45
400.975	6.43
401.334	6.4
401.694	6.43
402.054	6.38
402.413	6.41
402.773	6.4
403.132	6.45
403.492	6.46
403.851	6.44
404.211	6.46
404.57	6.44
404.929	6.45
405.288	6.44
405.648	6.42
406.007	6.4
406.366	6.44
406.725	6.42
407.084	6.4
407.443	6.42
407.802	6.38
408.161	6.33
408.52	6.32
408.879	6.33
409.238	6.33
409.596	6.38
409.955	6.38
410.314	6.39
410.673	6.38
411.031	6.38
411.39	6.4
411.748	6.4
412.107	6.38
412.465	6.36
412.824	6.35
413.182	6.33
413.54	6.36
413.899	6.35
414.257	6.35
414.615	6.35
414.974	6.34
415.332	6.36
415.69	6.37
416.048	6.37
416.406	6.35
416.764	6.35
417.122	6.32
417.48	6.29
417.838	6.28
418.195	6.25
418.553	6.23
418.911	6.22
419.269	6.22
419.626	6.21
419.984	6.22
420.342	6.22
420.699	6.23
421.057	6.22
421.414	6.21
421.772	6.21
422.129	6.2
422.486	6.22
422.844	6.21
423.201	6.22
423.558	6.22
423.915	6.21
424.273	6.19
424.63	6.18
424.987	6.19
425.344	6.19
425.701	6.2
426.058	6.19
426.415	6.18
426.772	6.15
427.128	6.16
427.485	6.14
427.842	6.12
428.199	6.11
428.555	6.1
428.912	6.1
429.269	6.07
429.625	6.07
429.982	6.04
430.338	6.01
430.695	5.99
431.051	5.94
431.407	5.96
431.764	5.96
432.12	5.98
432.476	5.98
432.832	5.98
433.189	5.96
433.545	5.97
433.901	6
434.257	6.01
434.613	5.99
434.969	6
435.325	6.03
435.681	6.05
436.036	6.06
436.392	6.06
436.748	6.08
437.104	6.1
437.459	6.1
437.815	6.11
438.171	6.12
438.526	6.15
438.882	6.14
439.237	6.14
439.593	6.13
439.948	6.11
440.304	6.11
440.659	6.12
441.014	6.12
441.369	6.09
441.725	6.09
442.08	6.1
442.435	6.1
442.79	6.08
443.145	6.07
443.5	6.04
443.855	6.04
444.21	6.05
444.565	6.04
444.92	6.02
445.275	6.03
445.629	6.03
445.984	6.03
446.339	6.05
446.693	6.06
447.048	6.05
447.403	6.05
447.757	6.04
448.112	6.04
448.466	6.05
448.82	6.06
449.175	6.04
449.529	6.04
449.883	6.03
450.238	6.04
450.592	6.02
450.946	6.04
451.3	6.04
451.654	6.02
452.008	6
452.362	6.03
452.716	6
453.07	5.99
453.424	5.99
453.778	5.97
454.132	5.94
454.486	5.93
454.839	5.91
455.193	5.92
455.547	5.93
455.9	5.9
456.254	5.91
456.607	5.93
456.961	5.94
457.314	5.94
457.668	5.92
458.021	5.92
458.375	5.92
458.728	5.92
459.081	5.92
459.434	5.92
459.787	5.9
460.141	5.9
460.494	5.9
460.847	5.9
461.2	5.9
461.553	5.91
461.906	5.91
462.259	5.91
462.611	5.91
462.964	5.91
463.317	5.93
463.67	5.93
464.022	5.92
464.375	5.92
464.728	5.93
465.08	5.94
465.433	5.96
465.785	5.98
466.138	5.97
466.49	6
466.843	6.01
467.195	6.03
467.547	6.06
467.899	6.07
468.252	6.08
468.604	6.09
468.956	6.1
469.308	6.13
469.66	6.14
470.012	6.16
470.364	6.16
470.716	6.15
471.068	6.14
471.42	6.14
471.772	6.16
472.123	6.18
472.475	6.18
472.827	6.17
473.178	6.18
473.53	6.19
473.882	6.18
474.233	6.18
474.585	6.18
474.936	6.18
475.288	6.18
475.639	6.17
475.99	6.16
476.342	6.17
476.693	6.17
477.044	6.17
477.395	6.16
477.746	6.17
478.097	6.18
478.448	6.18
478.8	6.2
479.15	6.19
479.501	6.18
479.852	6.17
480.203	6.19
480.554	6.2
480.905	6.21
481.255	6.22
481.606	6.22
481.957	6.24
482.307	6.23
482.658	6.24
483.009	6.24
483.359	6.26
483.709	6.26
484.06	6.26
484.41	6.27
484.761	6.29
485.111	6.29
485.461	6.29
485.811	6.3
486.162	6.29
486.512	6.29
486.862	6.3
487.212	6.31
487.562	6.3
487.912	6.31
488.262	6.3
488.612	6.3
488.961	6.3
489.311	6.29
489.661	6.3
490.011	6.29
490.36	6.3
490.71	6.29
491.06	6.29
491.409	6.29
491.759	6.28
492.108	6.27
492.458	6.25
492.807	6.26
493.157	6.26
493.506	6.28
493.855	6.29
494.204	6.28
494.554	6.28
494.903	6.3
495.252	6.29
495.601	6.3
495.95	6.31
496.299	6.32
496.648	6.34
496.997	6.35
497.346	6.4
497.695	6.41
498.043	6.42
498.392	6.44
498.741	6.45
499.09	6.45
499.438	6.49
499.787	6.52
500.135	6.55
500.484	6.58
500.832	6.6
501.181	6.61
501.529	6.67
501.878	6.69
502.226	6.72
502.574	6.74
502.923	6.78
503.271	6.79
503.619	6.82
503.967	6.8
504.315	6.81
504.663	6.81
505.011	6.82
505.359	6.83
505.707	6.84
506.055	6.88
506.403	6.92
506.751	6.9
507.098	6.93
507.446	6.92
507.794	6.93
508.141	6.94
508.489	6.95
508.837	6.92
509.184	6.93
509.531	6.94
509.879	6.96
510.226	6.98
510.574	7
510.921	7.02
511.268	7.01
511.616	7.03
511.963	7.03
512.31	7.06
512.657	7.06
513.004	7.06
513.351	7.07
513.698	7.07
514.045	7.11
514.392	7.12
514.739	7.14
515.086	7.15
515.432	7.17
515.779	7.19
516.126	7.23
516.473	7.26
516.819	7.26
517.166	7.28
517.512	7.28
517.859	7.28
518.205	7.28
518.552	7.3
518.898	7.32
519.245	7.35
519.591	7.36
519.937	7.38
520.283	7.4
520.629	7.4
520.976	7.43
521.322	7.44
521.668	7.43
522.014	7.45
522.36	7.48
522.706	7.49
523.052	7.51
523.398	7.5
523.743	7.49
524.089	7.52
524.435	7.53
524.781	7.55
525.126	7.55
525.472	7.57
525.817	7.6
526.163	7.6
526.509	7.6
526.854	7.61
527.199	7.62
527.545	7.63
527.89	7.63
528.235	7.63
528.581	7.64
528.926	7.65
529.271	7.64
529.616	7.64
529.961	7.65
530.306	7.65
530.651	7.67
530.996	7.69
531.341	7.7
531.686	7.71
532.031	7.72
532.376	7.73
532.721	7.72
533.065	7.72
533.41	7.71
533.755	7.72
534.099	7.75
534.444	7.77
534.788	7.78
535.133	7.78
535.477	7.78
535.822	7.77
536.166	7.79
536.51	7.78
536.855	7.79
537.199	7.79
537.543	7.81
537.887	7.82
538.231	7.82
538.576	7.82
538.92	7.84
539.264	7.83
539.608	7.85
539.951	7.85
540.295	7.85
540.639	7.88
540.983	7.88
541.327	7.86
541.671	7.86
542.014	7.86
542.358	7.9
542.701	7.93
543.045	7.95
543.389	7.97
543.732	7.99
544.075	8
544.419	8.01
544.762	8.01
545.105	8.01
545.449	8
545.792	8.02
546.135	8
546.478	8.01
546.821	8.03
547.165	8.06
547.508	8.08
547.851	8.08
548.194	8.09
548.536	8.11
548.879	8.12
549.222	8.12
549.565	8.1
549.908	8.09
550.25	8.1
550.593	8.06
550.936	8.07
551.278	8.07
551.621	8.07
551.963	8.09
552.306	8.09
552.648	8.13
552.991	8.13
553.333	8.15
553.675	8.19
554.017	8.16
554.36	8.19
554.702	8.2
555.044	8.18
555.386	8.2
555.728	8.22
556.07	8.23
556.412	8.23
556.754	8.22
557.096	8.19
557.438	8.19
557.78	8.2
558.121	8.18
558.463	8.21
558.805	8.21
559.147	8.19
559.488	8.18
559.83	8.17
560.171	8.16
560.513	8.16
560.854	8.12
561.196	8.15
561.537	8.14
561.878	8.13
562.22	8.17
562.561	8.16
562.902	8.16
563.243	8.15
563.584	8.15
563.925	8.2
564.266	8.23
564.607	8.25
564.948	8.27
565.289	8.26
565.63	8.25
565.971	8.25
566.312	8.24
566.653	8.26
566.993	8.26
567.334	8.26
567.675	8.28
568.015	8.28
568.356	8.25
568.696	8.26
569.037	8.26
569.377	8.23
569.718	8.25
570.058	8.25
570.398	8.23
570.739	8.22
571.079	8.17
571.419	8.12
571.759	8.11
572.099	8.11
572.439	8.16
572.779	8.16
573.119	8.17
573.459	8.19
573.799	8.19
574.139	8.19
574.479	8.24
574.819	8.25
575.158	8.26
575.498	8.28
575.838	8.29
576.177	8.31
576.517	8.32
576.856	8.31
577.196	8.35
577.535	8.37
577.875	8.39
578.214	8.43
578.553	8.48
578.893	8.54
579.232	8.53
579.571	8.54
579.91	8.52
580.25	8.53
580.589	8.53
580.928	8.54
581.267	8.51
581.606	8.48
581.945	8.47
582.283	8.45
582.622	8.48
582.961	8.46
583.3	8.46
583.639	8.48
583.977	8.46
584.316	8.44
584.654	8.41
584.993	8.42
585.332	8.43
585.67	8.47
586.008	8.43
586.347	8.46
586.685	8.4
587.024	8.41
587.362	8.42
587.7	8.41
588.038	8.48
588.376	8.52
588.715	8.51
589.053	8.48
589.391	8.51
589.729	8.5
590.067	8.52
590.404	8.49
590.742	8.46
591.08	8.48
591.418	8.46
591.756	8.52
592.093	8.55
592.431	8.54
592.769	8.52
593.106	8.53
593.444	8.51
593.781	8.55
594.119	8.54
594.456	8.55
594.793	8.57
595.131	8.55
595.468	8.54
595.805	8.53
596.143	8.55
596.48	8.55
596.817	8.58
597.154	8.58
597.491	8.58
597.828	8.61
598.165	8.62
598.502	8.62
598.839	8.59
599.176	8.56
599.512	8.55
599.849	8.57
600.186	8.58
600.523	8.6
600.859	8.64
601.196	8.68
601.532	8.69
601.869	8.66
602.205	8.63
602.542	8.58
602.878	8.59
603.215	8.62
603.551	8.59
603.887	8.61
604.223	8.61
604.56	8.64
604.896	8.66
605.232	8.65
605.568	8.67
605.904	8.63
606.24	8.66
606.576	8.69
606.912	8.68
607.248	8.72
607.583	8.73
607.919	8.68
608.255	8.67
608.591	8.68
608.926	8.73
609.262	8.75
609.597	8.85
609.933	8.86
610.268	8.91
610.604	8.95
610.939	8.94
611.275	8.93
611.61	8.93
611.945	8.85
612.281	8.88
612.616	8.87
612.951	8.92
613.286	8.9
613.621	8.92
613.956	8.96
614.291	8.88
614.626	8.88
614.961	8.85
615.296	8.89
615.631	8.88
615.966	8.85
616.3	8.85
616.635	8.78
616.97	8.75
617.304	8.69
617.639	8.74
617.973	8.69
618.308	8.71
618.642	8.69
618.977	8.71
619.311	8.76
619.646	8.83
619.98	8.8
620.314	8.83
620.648	8.81
620.983	8.79
621.317	8.85
621.651	8.87
621.985	8.88
622.319	8.81
622.653	8.83
622.987	8.88
623.321	8.9
623.655	8.91
623.988	8.96
624.322	8.96
624.656	8.9
624.99	8.94
625.323	8.98
625.657	9.01
625.99	9.04
626.324	8.98
626.657	8.95
626.991	9
627.324	9
627.658	9
627.991	9
628.324	8.94
628.657	8.92
628.991	8.96
629.324	8.99
629.657	8.99
629.99	8.96
630.323	8.96
630.656	8.98
630.989	8.95
631.322	8.91
631.655	8.91
631.987	8.89
632.32	8.92
632.653	8.93
632.986	8.98
633.318	8.99
633.651	8.98
633.984	8.98
634.316	9.02
634.649	9.01
634.981	9.04
635.313	9.09
635.646	9.16
635.978	9.19
636.31	9.25
636.643	9.25
636.975	9.28
637.307	9.3
637.639	9.3
637.971	9.38
638.303	9.46
638.635	9.54
638.967	9.55
639.299	9.53
639.631	9.52
639.963	9.48
640.295	9.49
640.626	9.54
640.958	9.49
641.29	9.42
641.621	9.41
641.953	9.33
642.285	9.39
642.616	9.34
642.948	9.3
643.279	9.22
643.61	9.25
643.942	9.27
644.273	9.28
644.604	9.31
644.936	9.3
645.267	9.35
645.598	9.34
645.929	9.37
646.26	9.3
646.591	9.34
646.922	9.42
647.253	9.41
647.584	9.38
647.915	9.4
648.245	9.43
648.576	9.48
648.907	9.6
649.238	9.6
649.568	9.57
649.899	9.64
650.229	9.74
650.56	9.73
650.89	9.72
651.221	9.73
651.551	9.71
651.882	9.66
652.212	9.57
652.542	9.57
652.872	9.51
653.203	9.65
653.533	9.67
653.863	9.64
654.193	9.65
654.523	9.68
654.853	9.73
655.183	9.74
655.513	9.75
655.843	9.73
656.172	9.71
656.502	9.66
656.832	9.61
657.162	9.57
657.491	9.58
657.821	9.55
658.15	9.65
658.48	9.68
658.809	9.69
659.139	9.76
659.468	9.72
659.798	9.8
660.127	9.75
660.456	9.69
660.785	9.71
661.115	9.75
661.444	9.7
661.773	9.69
662.102	9.71
662.431	9.71
662.76	9.68
663.089	9.74
663.418	9.86
663.747	9.81
664.076	9.85
664.404	9.84
664.733	9.85
665.062	9.76
665.39	9.76
665.719	9.78
666.048	9.72
666.376	9.74
666.705	9.71
667.033	9.77
667.362	9.8
667.69	9.74
668.018	9.75
668.347	9.78
668.675	9.82
669.003	9.8
669.331	9.87
669.659	9.94
669.987	9.95
670.315	9.9
670.643	9.98
670.971	10
671.299	10.05
671.627	10.06
671.955	10.06
672.283	9.97
672.61	10.01
672.938	10.08
673.266	10.09
673.593	10.06
673.921	10.04
674.249	10.07
674.576	10.08
674.904	10.07
675.231	10.17
675.558	10.19
675.886	10.24
676.213	10.2
676.54	10.19
676.867	10.11
677.195	10.17
677.522	10.16
