Data from MVZ_BU147393_Reflection_00001.txt Node
Date: Tue Nov 19 12:06:48 EST 2019
User: vgr7
Spectrometer: USB2G7710
Scans to average: 3
Trigger mode: 4
Integration Time (sec): 2.000000E-2
Electric dark correction enabled: true
Boxcar width: 10
XAxis mode: Wavelengths
Number of Pixels in Spectrum: 2048
>>>>>Begin Spectral Data<<<<<
177.721	63.05
178.105	3100
178.488	-106.69
178.871	-190.62
179.254	154.55
179.636	88.05
180.019	-7.91
180.402	-333.33
180.785	72.73
181.168	41.75
181.55	48.28
181.933	112.3
182.316	53.13
182.698	139.82
183.081	9.25
183.463	26.34
183.846	206.19
184.228	64.07
184.611	87.39
184.993	-176.92
185.376	2350
185.758	15100
186.14	400
186.522	-27.12
186.904	40
187.287	3528.57
187.669	146.15
188.051	126.79
188.433	42.75
188.815	52.91
189.197	30.5
189.579	18.34
189.961	15.37
190.342	7.16
190.724	-9.51
191.106	-2.03
191.488	20.57
191.869	41.96
192.251	34.31
192.633	29.23
193.014	22.94
193.396	26.46
193.777	36.08
194.159	47.58
194.54	58.24
194.922	48.91
195.303	33.04
195.684	45.53
196.065	49.41
196.447	65.91
196.828	62.77
197.209	78.48
197.59	83.45
197.971	91.97
198.352	74.74
198.733	92.29
199.114	88.35
199.495	70.31
199.876	64.95
200.257	67.47
200.638	67.78
201.018	57.7
201.399	51.71
201.78	32.05
202.16	27.06
202.541	17.13
202.922	9.36
203.302	10.7
203.683	1.82
204.063	-1.41
204.444	-2.07
204.824	-1.27
205.204	0.92
205.585	3.59
205.965	6
206.345	8.75
206.725	4.31
207.106	13.85
207.486	12.46
207.866	7.49
208.246	8.08
208.626	-3
209.006	-4.91
209.386	-3.23
209.766	-5.67
210.145	2
210.525	-8.2
210.905	5.83
211.285	19.54
211.664	32.65
212.044	29.37
212.424	23.9
212.803	29.93
213.183	20.75
213.562	22.49
213.942	17.73
214.321	13.64
214.701	16.5
215.08	3.77
215.459	8.13
215.838	20.93
216.218	4.48
216.597	36.44
216.976	16.08
217.355	8.91
217.734	31.82
218.113	35.66
218.492	60.53
218.871	28.71
219.25	23
219.629	-51.34
220.008	-15.38
220.387	6.76
220.766	5.89
221.144	29.32
221.523	9.34
221.902	28.77
222.28	59.32
222.659	49.02
223.037	42.82
223.416	70.23
223.794	65.32
224.173	57.07
224.551	53.36
224.929	57.48
225.308	48.84
225.686	51.29
226.064	40.16
226.442	38.9
226.821	33.2
227.199	31.79
227.577	36.3
227.955	36.69
228.333	34.27
228.711	34.98
229.089	27.64
229.467	25.06
229.845	22.86
230.222	23.34
230.6	19.86
230.978	19.14
231.356	16.88
231.733	12.34
232.111	13.29
232.488	14.89
232.866	16.93
233.243	19
233.621	17.61
233.998	18.45
234.376	18.89
234.753	19.03
235.13	18.09
235.508	14.9
235.885	14.83
236.262	14.93
236.639	12.64
237.016	13.18
237.393	13.83
237.77	11.89
238.147	11.11
238.524	11.74
238.901	11
239.278	10.1
239.655	10.2
240.032	9.66
240.409	8.08
240.785	7.19
241.162	6.22
241.539	5.2
241.915	5.01
242.292	5.23
242.668	5.44
243.045	5.33
243.421	5.65
243.798	5.39
244.174	4.98
244.551	5.19
244.927	5.27
245.303	4.98
245.679	5.5
246.056	5.28
246.432	5.34
246.808	5.3
247.184	4.98
247.56	4.82
247.936	4.66
248.312	4.92
248.688	4.88
249.064	4.9
249.44	5.02
249.815	5.08
250.191	4.89
250.567	4.69
250.943	4.84
251.318	5.11
251.694	4.92
252.069	5.13
252.445	5.27
252.82	5.31
253.196	5.43
253.571	5.18
253.947	5.06
254.322	4.82
254.697	5.03
255.073	5.35
255.448	5.29
255.823	5.26
256.198	5.32
256.573	5.18
256.948	5.22
257.323	5.31
257.698	5.13
258.073	5.05
258.448	5.09
258.823	4.8
259.198	4.56
259.573	4.42
259.948	4.42
260.322	4.28
260.697	4.27
261.072	4.22
261.446	4.33
261.821	4.31
262.195	4.38
262.57	4.44
262.944	4.49
263.319	4.73
263.693	4.85
264.067	4.82
264.442	4.75
264.816	4.53
265.19	4.49
265.564	4.55
265.938	4.53
266.313	4.51
266.687	4.49
267.061	4.49
267.435	4.9
267.809	4.81
268.183	4.67
268.556	4.5
268.93	4.58
269.304	4.48
269.678	4.74
270.051	4.7
270.425	4.63
270.799	4.47
271.172	4.48
271.546	4.43
271.919	4.37
272.293	4.48
272.666	4.65
273.04	4.73
273.413	4.73
273.787	4.74
274.16	4.63
274.533	4.85
274.906	5.01
275.279	4.78
275.653	4.88
276.026	4.98
276.399	5.15
276.772	5.16
277.145	5.15
277.518	4.88
277.891	4.85
278.263	4.94
278.636	5.09
279.009	4.88
279.382	4.8
279.755	4.93
280.127	4.94
280.5	4.78
280.872	4.64
281.245	4.68
281.617	4.46
281.99	4.51
282.362	4.41
282.735	4.17
283.107	4.1
283.479	4.1
283.852	4.01
284.224	4
284.596	4
284.968	3.91
285.34	3.96
285.713	3.97
286.085	3.79
286.457	3.81
286.829	3.93
287.201	4.19
287.572	4.09
287.944	4.11
288.316	4.28
288.688	4.24
289.06	4.12
289.431	4.31
289.803	4.46
290.175	4.34
290.546	4.45
290.918	4.45
291.289	4.44
291.661	4.49
292.032	4.49
292.403	4.26
292.775	4.35
293.146	4.38
293.517	4.24
293.889	4.21
294.26	4.15
294.631	4.14
295.002	3.89
295.373	3.87
295.744	3.84
296.115	3.76
296.486	3.89
296.857	3.94
297.228	3.88
297.599	3.7
297.97	3.77
298.34	3.84
298.711	3.97
299.082	4.01
299.452	4.08
299.823	4.01
300.194	4.33
300.564	4.37
300.935	4.6
301.305	4.7
301.676	4.7
302.046	4.65
302.416	4.62
302.787	4.69
303.157	4.67
303.527	4.68
303.897	4.57
304.267	4.33
304.637	4.24
305.008	4.46
305.378	4.45
305.748	4.5
306.117	4.39
306.487	4.23
306.857	4.22
307.227	4.34
307.597	4.42
307.967	4.41
308.336	4.29
308.706	3.96
309.076	4.16
309.445	4.3
309.815	4.32
310.184	4.35
310.554	4.23
310.923	4.26
311.293	4.21
311.662	4.4
312.031	4.53
312.401	4.52
312.77	4.36
313.139	4.4
313.508	4.4
313.877	4.46
314.246	4.47
314.616	4.47
314.985	4.1
315.353	4.19
315.722	4.21
316.091	4.21
316.46	4.38
316.829	4.28
317.198	4.21
317.567	4.35
317.935	4.22
318.304	4.54
318.672	4.51
319.041	4.57
319.41	4.64
319.778	4.61
320.147	4.64
320.515	4.59
320.883	4.62
321.252	4.36
321.62	4.29
321.988	4.36
322.357	4.3
322.725	4.45
323.093	4.35
323.461	4.15
323.829	4.36
324.197	4.31
324.565	4.18
324.933	4.17
325.301	4.04
325.669	4.14
326.037	3.94
326.405	3.91
326.772	3.87
327.14	3.62
327.508	3.57
327.875	3.65
328.243	3.71
328.61	3.68
328.978	3.81
329.346	3.83
329.713	3.91
330.08	4.07
330.448	4.2
330.815	4
331.182	3.91
331.55	3.7
331.917	3.62
332.284	3.65
332.651	3.68
333.018	3.72
333.385	3.62
333.752	3.65
334.119	3.86
334.486	3.93
334.853	4.1
335.22	4.26
335.587	4.18
335.954	4.18
336.32	4.22
336.687	4.27
337.054	4.27
337.42	4.28
337.787	4.03
338.153	4.05
338.52	4.21
338.886	4.25
339.253	4.34
339.619	4.43
339.986	4.4
340.352	4.36
340.718	4.42
341.084	4.39
341.451	4.41
341.817	4.24
342.183	4.28
342.549	4.26
342.915	4.23
343.281	4.17
343.647	4.18
344.013	4.17
344.379	4.2
344.745	4.26
345.11	4.08
345.476	4.33
345.842	4.34
346.208	4.28
346.573	4.31
346.939	4.34
347.304	4.34
347.67	4.44
348.035	4.47
348.401	4.36
348.766	4.39
349.132	4.38
349.497	4.41
349.862	4.33
350.228	4.3
350.593	4.16
350.958	4.26
351.323	4.18
351.688	4.25
352.053	4.26
352.418	4.25
352.783	4.33
353.148	4.16
353.513	4.02
353.878	4
354.243	3.9
354.608	3.84
354.972	3.82
355.337	3.71
355.702	3.64
356.066	3.73
356.431	3.79
356.795	3.8
357.16	3.8
357.524	3.82
357.889	3.85
358.253	3.93
358.618	4.01
358.982	4.07
359.346	3.98
359.71	3.92
360.075	3.91
360.439	3.94
360.803	3.99
361.167	4.03
361.531	4.05
361.895	4.16
362.259	4.22
362.623	4.16
362.987	4.18
363.351	4.22
363.714	4.23
364.078	4.24
364.442	4.25
364.806	4.34
365.169	4.35
365.533	4.35
365.896	4.35
366.26	4.17
366.623	4.21
366.987	4.29
367.35	4.36
367.714	4.42
368.077	4.43
368.44	4.37
368.803	4.33
369.167	4.36
369.53	4.31
369.893	4.25
370.256	4.24
370.619	4.26
370.982	4.2
371.345	4.24
371.708	4.21
372.071	4.16
372.434	4.12
372.797	4.14
373.159	4.06
373.522	4.12
373.885	4.19
374.247	4.12
374.61	4.08
374.973	4.05
375.335	3.95
375.698	3.91
376.06	3.91
376.423	3.93
376.785	3.95
377.147	3.95
377.51	3.94
377.872	4.02
378.234	4.03
378.596	4.11
378.958	4.14
379.321	4.07
379.683	4.09
380.045	4.02
380.407	4.04
380.769	4.04
381.13	3.97
381.492	3.96
381.854	4
382.216	3.99
382.578	3.96
382.939	4
383.301	3.99
383.663	4.02
384.024	4.02
384.386	3.96
384.747	3.98
385.109	3.99
385.47	3.99
385.832	3.98
386.193	3.96
386.554	3.84
386.916	3.9
387.277	3.88
387.638	3.91
387.999	3.93
388.36	3.98
388.721	4.02
389.082	4.04
389.443	4.02
389.804	4.04
390.165	4.02
390.526	4.01
390.887	4.03
391.248	3.98
391.609	4
391.969	4.01
392.33	4
392.691	4.01
393.051	3.97
393.412	3.96
393.772	4
394.133	4.01
394.493	4.01
394.854	4.01
395.214	4.05
395.574	4.01
395.935	4.01
396.295	4.02
396.655	3.99
397.015	4.01
397.376	3.98
397.736	4
398.096	4
398.456	4.01
398.816	4.01
399.176	4.04
399.535	4.01
399.895	4.02
400.255	3.99
400.615	3.98
400.975	3.95
401.334	3.93
401.694	3.96
402.054	3.96
402.413	4.01
402.773	3.96
403.132	3.95
403.492	3.95
403.851	3.92
404.211	3.93
404.57	3.91
404.929	3.91
405.288	3.92
405.648	3.91
406.007	3.87
406.366	3.89
406.725	3.84
407.084	3.89
407.443	3.88
407.802	3.86
408.161	3.87
408.52	3.91
408.879	3.89
409.238	3.87
409.596	3.87
409.955	3.84
410.314	3.86
410.673	3.86
411.031	3.85
411.39	3.85
411.748	3.87
412.107	3.88
412.465	3.89
412.824	3.88
413.182	3.86
413.54	3.88
413.899	3.89
414.257	3.89
414.615	3.86
414.974	3.89
415.332	3.93
415.69	3.93
416.048	3.93
416.406	3.92
416.764	3.92
417.122	3.88
417.48	3.87
417.838	3.85
418.195	3.85
418.553	3.87
418.911	3.86
419.269	3.86
419.626	3.86
419.984	3.86
420.342	3.87
420.699	3.87
421.057	3.88
421.414	3.88
421.772	3.87
422.129	3.87
422.486	3.85
422.844	3.85
423.201	3.88
423.558	3.88
423.915	3.9
424.273	3.91
424.63	3.92
424.987	3.93
425.344	3.95
425.701	3.96
426.058	3.96
426.415	3.98
426.772	3.95
427.128	3.96
427.485	3.96
427.842	3.94
428.199	3.95
428.555	3.93
428.912	3.91
429.269	3.9
429.625	3.92
429.982	3.93
430.338	3.93
430.695	3.88
431.051	3.87
431.407	3.86
431.764	3.83
432.12	3.86
432.476	3.84
432.832	3.83
433.189	3.82
433.545	3.81
433.901	3.82
434.257	3.87
434.613	3.86
434.969	3.86
435.325	3.88
435.681	3.9
436.036	3.9
436.392	3.9
436.748	3.93
437.104	3.93
437.459	3.92
437.815	3.91
438.171	3.92
438.526	3.91
438.882	3.91
439.237	3.92
439.593	3.91
439.948	3.9
440.304	3.91
440.659	3.91
441.014	3.91
441.369	3.91
441.725	3.88
442.08	3.88
442.435	3.86
442.79	3.84
443.145	3.82
443.5	3.83
443.855	3.84
444.21	3.83
444.565	3.82
444.92	3.83
445.275	3.85
445.629	3.83
445.984	3.83
446.339	3.82
446.693	3.82
447.048	3.81
447.403	3.82
447.757	3.81
448.112	3.81
448.466	3.79
448.82	3.8
449.175	3.8
449.529	3.81
449.883	3.79
450.238	3.8
450.592	3.81
450.946	3.79
451.3	3.8
451.654	3.8
452.008	3.8
452.362	3.79
452.716	3.79
453.07	3.82
453.424	3.83
453.778	3.83
454.132	3.83
454.486	3.85
454.839	3.84
455.193	3.85
455.547	3.85
455.9	3.87
456.254	3.87
456.607	3.88
456.961	3.87
457.314	3.88
457.668	3.9
458.021	3.91
458.375	3.91
458.728	3.91
459.081	3.9
459.434	3.89
459.787	3.9
460.141	3.9
460.494	3.89
460.847	3.88
461.2	3.87
461.553	3.88
461.906	3.88
462.259	3.88
462.611	3.89
462.964	3.9
463.317	3.9
463.67	3.91
464.022	3.91
464.375	3.91
464.728	3.9
465.08	3.91
465.433	3.89
465.785	3.89
466.138	3.9
466.49	3.91
466.843	3.94
467.195	3.96
467.547	3.97
467.899	3.95
468.252	3.97
468.604	4
468.956	4
469.308	4.01
469.66	4.04
470.012	4.03
470.364	4.03
470.716	4.04
471.068	4.04
471.42	4.04
471.772	4.06
472.123	4.09
472.475	4.08
472.827	4.12
473.178	4.12
473.53	4.11
473.882	4.12
474.233	4.12
474.585	4.11
474.936	4.1
475.288	4.1
475.639	4.1
475.99	4.09
476.342	4.11
476.693	4.1
477.044	4.1
477.395	4.1
477.746	4.1
478.097	4.07
478.448	4.05
478.8	4.07
479.15	4.05
479.501	4.02
479.852	4.04
480.203	4.02
480.554	4.02
480.905	4.03
481.255	4.02
481.606	4.02
481.957	4.01
482.307	4.02
482.658	4.02
483.009	4.02
483.359	4.03
483.709	4.03
484.06	4.02
484.41	4.01
484.761	4.02
485.111	4.02
485.461	4.03
485.811	4.03
486.162	4.03
486.512	4.03
486.862	4.05
487.212	4.04
487.562	4.04
487.912	4.04
488.262	4.04
488.612	4.04
488.961	4.04
489.311	4.05
489.661	4.05
490.011	4.05
490.36	4.05
490.71	4.03
491.06	4.01
491.409	4.02
491.759	4.03
492.108	4.02
492.458	4.02
492.807	4.01
493.157	4.01
493.506	4.01
493.855	4.01
494.204	4
494.554	4.01
494.903	4.01
495.252	4.01
495.601	4
495.95	4
496.299	4
496.648	3.99
496.997	4.02
497.346	4.03
497.695	4.02
498.043	4.04
498.392	4.08
498.741	4.09
499.09	4.09
499.438	4.12
499.787	4.12
500.135	4.13
500.484	4.13
500.832	4.13
501.181	4.12
501.529	4.14
501.878	4.16
502.226	4.16
502.574	4.17
502.923	4.18
503.271	4.18
503.619	4.21
503.967	4.22
504.315	4.23
504.663	4.23
505.011	4.26
505.359	4.25
505.707	4.24
506.055	4.25
506.403	4.24
506.751	4.23
507.098	4.27
507.446	4.27
507.794	4.3
508.141	4.34
508.489	4.37
508.837	4.37
509.184	4.36
509.531	4.39
509.879	4.41
510.226	4.43
510.574	4.46
510.921	4.46
511.268	4.47
511.616	4.47
511.963	4.48
512.31	4.48
512.657	4.49
513.004	4.48
513.351	4.48
513.698	4.48
514.045	4.48
514.392	4.45
514.739	4.46
515.086	4.45
515.432	4.45
515.779	4.46
516.126	4.47
516.473	4.48
516.819	4.48
517.166	4.49
517.512	4.48
517.859	4.48
518.205	4.47
518.552	4.46
518.898	4.48
519.245	4.47
519.591	4.48
519.937	4.5
520.283	4.53
520.629	4.54
520.976	4.56
521.322	4.58
521.668	4.59
522.014	4.61
522.36	4.62
522.706	4.61
523.052	4.62
523.398	4.6
523.743	4.62
524.089	4.64
524.435	4.63
524.781	4.63
525.126	4.63
525.472	4.66
525.817	4.64
526.163	4.64
526.509	4.66
526.854	4.66
527.199	4.65
527.545	4.65
527.89	4.66
528.235	4.67
528.581	4.66
528.926	4.66
529.271	4.67
529.616	4.67
529.961	4.68
530.306	4.67
530.651	4.69
530.996	4.69
531.341	4.69
531.686	4.7
532.031	4.71
532.376	4.71
532.721	4.7
533.065	4.72
533.41	4.74
533.755	4.73
534.099	4.73
534.444	4.74
534.788	4.75
535.133	4.74
535.477	4.75
535.822	4.75
536.166	4.74
536.51	4.74
536.855	4.73
537.199	4.73
537.543	4.74
537.887	4.74
538.231	4.75
538.576	4.75
538.92	4.75
539.264	4.74
539.608	4.76
539.951	4.75
540.295	4.76
540.639	4.76
540.983	4.76
541.327	4.78
541.671	4.8
542.014	4.8
542.358	4.8
542.701	4.79
543.045	4.81
543.389	4.81
543.732	4.81
544.075	4.84
544.419	4.83
544.762	4.83
545.105	4.84
545.449	4.84
545.792	4.86
546.135	4.84
546.478	4.87
546.821	4.89
547.165	4.9
547.508	4.91
547.851	4.92
548.194	4.9
548.536	4.88
548.879	4.89
549.222	4.89
549.565	4.9
549.908	4.91
550.25	4.92
550.593	4.93
550.936	4.95
551.278	4.92
551.621	4.93
551.963	4.97
552.306	4.97
552.648	4.95
552.991	4.92
553.333	4.94
553.675	4.94
554.017	4.92
554.36	4.94
554.702	4.93
555.044	4.92
555.386	4.94
555.728	4.95
556.07	4.9
556.412	4.89
556.754	4.87
557.096	4.86
557.438	4.87
557.78	4.86
558.121	4.89
558.463	4.88
558.805	4.9
559.147	4.87
559.488	4.86
559.83	4.92
560.171	4.93
560.513	4.9
560.854	4.84
561.196	4.85
561.537	4.83
561.878	4.86
562.22	4.83
562.561	4.84
562.902	4.88
563.243	4.87
563.584	4.9
563.925	4.94
564.266	4.94
564.607	4.91
564.948	4.93
565.289	4.92
565.63	4.93
565.971	4.92
566.312	4.92
566.653	4.93
566.993	4.86
567.334	4.89
567.675	4.91
568.015	4.95
568.356	4.92
568.696	4.92
569.037	4.91
569.377	4.95
569.718	4.93
570.058	4.93
570.398	4.95
570.739	4.92
571.079	4.9
571.419	4.9
571.759	4.88
572.099	4.87
572.439	4.88
572.779	4.88
573.119	4.9
573.459	4.89
573.799	4.88
574.139	4.89
574.479	4.88
574.819	4.9
575.158	4.9
575.498	4.91
575.838	4.91
576.177	4.87
576.517	4.86
576.856	4.87
577.196	4.89
577.535	4.86
577.875	4.88
578.214	4.89
578.553	4.91
578.893	4.93
579.232	4.95
579.571	4.94
579.91	4.95
580.25	4.94
580.589	4.99
580.928	4.99
581.267	5
581.606	5
581.945	5
582.283	4.99
582.622	5.01
582.961	5.01
583.3	5.04
583.639	5.04
583.977	5.02
584.316	4.96
584.654	5.05
584.993	5.07
585.332	5.09
585.67	5.07
586.008	5.1
586.347	5.11
586.685	5.12
587.024	5.09
587.362	5.12
587.7	5.13
588.038	5.14
588.376	5.14
588.715	5.12
589.053	5.13
589.391	5.17
589.729	5.17
590.067	5.18
590.404	5.17
590.742	5.16
591.08	5.17
591.418	5.21
591.756	5.15
592.093	5.12
592.431	5.12
592.769	5.15
593.106	5.17
593.444	5.16
593.781	5.18
594.119	5.21
594.456	5.21
594.793	5.17
595.131	5.17
595.468	5.17
595.805	5.21
596.143	5.21
596.48	5.21
596.817	5.22
597.154	5.22
597.491	5.22
597.828	5.24
598.165	5.28
598.502	5.24
598.839	5.26
599.176	5.29
599.512	5.26
599.849	5.26
600.186	5.24
600.523	5.21
600.859	5.21
601.196	5.16
601.532	5.16
601.869	5.15
602.205	5.15
602.542	5.15
602.878	5.14
603.215	5.12
603.551	5.11
603.887	5.12
604.223	5.14
604.56	5.14
604.896	5.16
605.232	5.15
605.568	5.17
605.904	5.15
606.24	5.17
606.576	5.2
606.912	5.19
607.248	5.21
607.583	5.24
607.919	5.21
608.255	5.29
608.591	5.28
608.926	5.33
609.262	5.39
609.597	5.39
609.933	5.43
610.268	5.46
610.604	5.44
610.939	5.46
611.275	5.44
611.61	5.48
611.945	5.5
612.281	5.5
612.616	5.52
612.951	5.55
613.286	5.53
613.621	5.5
613.956	5.52
614.291	5.48
614.626	5.5
614.961	5.53
615.296	5.53
615.631	5.55
615.966	5.56
616.3	5.53
616.635	5.53
616.97	5.51
617.304	5.53
617.639	5.65
617.973	5.53
618.308	5.53
618.642	5.47
618.977	5.44
619.311	5.4
619.646	5.37
619.98	5.37
620.314	5.38
620.648	5.38
620.983	5.4
621.317	5.46
621.651	5.48
621.985	5.46
622.319	5.41
622.653	5.4
622.987	5.44
623.321	5.43
623.655	5.47
623.988	5.48
624.322	5.42
624.656	5.35
624.99	5.45
625.323	5.44
625.657	5.45
625.99	5.49
626.324	5.51
626.657	5.53
626.991	5.54
627.324	5.54
627.658	5.6
627.991	5.62
628.324	5.62
628.657	5.61
628.991	5.63
629.324	5.67
629.657	5.64
629.99	5.62
630.323	5.62
630.656	5.61
630.989	5.6
631.322	5.6
631.655	5.57
631.987	5.56
632.32	5.56
632.653	5.61
632.986	5.57
633.318	5.56
633.651	5.52
633.984	5.48
634.316	5.51
634.649	5.49
634.981	5.45
635.313	5.44
635.646	5.46
635.978	5.48
636.31	5.48
636.643	5.46
636.975	5.45
637.307	5.46
637.639	5.48
637.971	5.46
638.303	5.47
638.635	5.53
638.967	5.58
639.299	5.54
639.631	5.55
639.963	5.52
640.295	5.61
640.626	5.63
640.958	5.68
641.29	5.62
641.621	5.57
641.953	5.58
642.285	5.55
642.616	5.56
642.948	5.54
643.279	5.54
643.61	5.6
643.942	5.63
644.273	5.57
644.604	5.53
644.936	5.53
645.267	5.6
645.598	5.63
645.929	5.56
646.26	5.63
646.591	5.67
646.922	5.75
647.253	5.65
647.584	5.7
647.915	5.72
648.245	5.81
648.576	5.83
648.907	5.79
649.238	5.79
649.568	5.76
649.899	5.74
650.229	5.71
650.56	5.76
650.89	5.78
651.221	5.8
651.551	5.83
651.882	5.92
652.212	5.9
652.542	5.87
652.872	5.9
653.203	5.88
653.533	5.85
653.863	5.85
654.193	5.87
654.523	5.83
654.853	5.79
655.183	5.78
655.513	5.86
655.843	5.91
656.172	5.99
656.502	6.05
656.832	6.04
657.162	6.08
657.491	6.05
657.821	6.02
658.15	6.04
658.48	6.04
658.809	5.99
659.139	6.06
659.468	6.02
659.798	6.04
660.127	6.04
660.456	6.08
660.785	6.06
661.115	6.03
661.444	6.15
661.773	6.24
662.102	6.23
662.431	6.25
662.76	6.26
663.089	6.3
663.418	6.3
663.747	6.39
664.076	6.42
664.404	6.46
664.733	6.48
665.062	6.56
665.39	6.51
665.719	6.48
666.048	6.35
666.376	6.35
666.705	6.44
667.033	6.49
667.362	6.46
667.69	6.53
668.018	6.62
668.347	6.53
668.675	6.47
669.003	6.38
669.331	6.32
669.659	6.19
669.987	6.16
670.315	6.14
670.643	6
670.971	6.01
671.299	6.05
671.627	5.98
671.955	5.89
672.283	5.93
672.61	5.98
672.938	6.14
673.266	6.21
673.593	6.14
673.921	6.16
674.249	6.19
674.576	6.19
674.904	6.14
675.231	6.27
675.558	6.31
675.886	6.35
676.213	6.35
676.54	6.51
676.867	6.44
677.195	6.49
677.522	6.59
677.849	6.61
678.176	6.48
678.503	6.46
678.83	6.42
679.157	6.39
679.484	6.39
679.81	6.34
680.137	6.37
680.464	6.3
680.791	6.33
