Data from MVZ_BU88648_Reflection_00002.txt Node
Date: Tue Nov 19 12:01:54 EST 2019
User: vgr7
Spectrometer: USB2G7710
Scans to average: 3
Trigger mode: 4
Integration Time (sec): 2.000000E-2
Electric dark correction enabled: true
Boxcar width: 10
XAxis mode: Wavelengths
Number of Pixels in Spectrum: 2048
>>>>>Begin Spectral Data<<<<<
177.721	1548.53
178.105	184.34
178.488	126.81
178.871	623.08
179.254	225
179.636	802.7
180.019	165.79
180.402	12.5
180.785	177.91
181.168	28.32
181.55	-29.46
181.933	412.5
182.316	-752.68
182.698	-461.69
183.081	-89.26
183.463	-87.3
183.846	-107.41
184.228	-87.34
184.611	-92.82
184.993	-103.72
185.376	-111.44
185.758	-91.43
186.14	-119.62
186.522	-109.06
186.904	-91.98
187.287	-210.99
187.669	-92.61
188.051	-88.61
188.433	-30.14
188.815	-39.25
189.197	-36.64
189.579	-41.47
189.961	3.15
190.342	23.62
190.724	-13.64
191.106	-36.1
191.488	-4.58
191.869	3.6
192.251	5.04
192.633	2.67
193.014	54.74
193.396	40.42
193.777	52.19
194.159	58.75
194.54	59.81
194.922	34.18
195.303	53.88
195.684	33.79
196.065	17.16
196.447	13.67
196.828	14.26
197.209	52.57
197.59	46.18
197.971	18.98
198.352	25.72
198.733	24.61
199.114	42.89
199.495	39.78
199.876	30.35
200.257	0.48
200.638	18.93
201.018	28.22
201.399	6.34
201.78	4.88
202.16	-18.75
202.541	-7.85
202.922	-1.4
203.302	1.74
203.683	10.31
204.063	5.28
204.444	8.83
204.824	14.52
205.204	9.49
205.585	6.6
205.965	2.24
206.345	-9.15
206.725	8.97
207.106	-13.45
207.486	-3.32
207.866	0.36
208.246	1.37
208.626	-19.44
209.006	-34.71
209.386	-26.38
209.766	-34.27
210.145	-16.99
210.525	-21.73
210.905	-20.15
211.285	-10.36
211.664	-18.75
212.044	-24.66
212.424	-33.64
212.803	-43.9
213.183	-50.34
213.562	-41.46
213.942	-35.7
214.321	-30.02
214.701	-34.76
215.08	-28.95
215.459	-29.38
215.838	-25.82
216.218	-27.1
216.597	-19.69
216.976	-22.27
217.355	-15.37
217.734	-24.65
218.113	-20.98
218.492	-27.6
218.871	-30.48
219.25	-42.33
219.629	-47.31
220.008	-50.83
220.387	-38.08
220.766	-25.56
221.144	-16.68
221.523	-14.74
221.902	-27.36
222.28	-38.02
222.659	-30.49
223.037	-26.05
223.416	-26.6
223.794	-20.48
224.173	-24.63
224.551	-20.3
224.929	-23.46
225.308	-22.03
225.686	-18.02
226.064	-20.03
226.442	-11.12
226.821	-11.94
227.199	-8.29
227.577	-6.56
227.955	-5.57
228.333	-9.79
228.711	-10.44
229.089	-10.51
229.467	-12.72
229.845	-12.38
230.222	-7.02
230.6	-6.63
230.978	-6.09
231.356	-5.22
231.733	-4.26
232.111	-2.19
232.488	-1.25
232.866	0.45
233.243	0.9
233.621	3.15
233.998	2.91
234.376	2.98
234.753	4.13
235.13	2.9
235.508	4.75
235.885	3.76
236.262	4.87
236.639	3.68
237.016	3.71
237.393	4.27
237.77	4.94
238.147	3.62
238.524	4.38
238.901	3.9
239.278	3.71
239.655	3.52
240.032	2.91
240.409	2.38
240.785	3.03
241.162	3.11
241.539	2.7
241.915	3
242.292	2.78
242.668	2.7
243.045	3.22
243.421	3.01
243.798	3.51
244.174	3.46
244.551	3.56
244.927	3.7
245.303	3.32
245.679	3.23
246.056	3.38
246.432	3.39
246.808	3.77
247.184	3.72
247.56	3.32
247.936	3.29
248.312	3.71
248.688	3.51
249.064	3.28
249.44	3.2
249.815	3.21
250.191	3.39
250.567	3.33
250.943	3.21
251.318	3.2
251.694	2.87
252.069	2.88
252.445	2.96
252.82	2.98
253.196	3.16
253.571	3.59
253.947	3.85
254.322	3.34
254.697	3.18
255.073	3.18
255.448	3.3
255.823	3.42
256.198	3
256.573	3.17
256.948	3.36
257.323	3.77
257.698	3.66
258.073	3.32
258.448	3.35
258.823	3.26
259.198	3.19
259.573	3.41
259.948	3.31
260.322	3.15
260.697	3.13
261.072	3.32
261.446	3.18
261.821	2.94
262.195	2.95
262.57	2.89
262.944	2.79
263.319	2.81
263.693	2.67
264.067	2.79
264.442	2.7
264.816	2.56
265.19	2.29
265.564	2.27
265.938	2.45
266.313	2.32
266.687	2.14
267.061	2.31
267.435	2.23
267.809	2.31
268.183	2.63
268.556	2.43
268.93	2.22
269.304	2.24
269.678	2.42
270.051	2.62
270.425	2.7
270.799	2.55
271.172	2.66
271.546	2.96
271.919	3.02
272.293	3.03
272.666	3.08
273.04	3.21
273.413	3.14
273.787	3.16
274.16	3.13
274.533	3.39
274.906	3.29
275.279	3.26
275.653	3.35
276.026	3.27
276.399	3.38
276.772	3.5
277.145	3.41
277.518	3.45
277.891	3.35
278.263	3.35
278.636	3.6
279.009	3.7
279.382	3.44
279.755	3.5
280.127	3.54
280.5	3.48
280.872	3.63
281.245	3.78
281.617	3.77
281.99	3.91
282.362	3.89
282.735	3.9
283.107	3.89
283.479	3.82
283.852	3.91
284.224	3.87
284.596	3.93
284.968	4.01
285.34	3.94
285.713	4.15
286.085	4.06
286.457	4.12
286.829	4.04
287.201	4.1
287.572	3.95
287.944	3.93
288.316	3.84
288.688	3.61
289.06	3.42
289.431	3.32
289.803	3.35
290.175	3.34
290.546	3.39
290.918	3.52
291.289	3.42
291.661	3.2
292.032	3.14
292.403	3.08
292.775	3.14
293.146	3.14
293.517	2.81
293.889	2.81
294.26	2.83
294.631	2.91
295.002	2.89
295.373	2.87
295.744	2.91
296.115	3.05
296.486	3.18
296.857	3.26
297.228	3.28
297.599	3.1
297.97	3.09
298.34	3.03
298.711	3.05
299.082	3.16
299.452	3.17
299.823	3.18
300.194	3.12
300.564	3.04
300.935	3.04
301.305	3.26
301.676	3.3
302.046	3.08
302.416	2.93
302.787	2.95
303.157	2.89
303.527	2.88
303.897	3
304.267	2.9
304.637	2.82
305.008	2.96
305.378	3.17
305.748	3.23
306.117	3.3
306.487	3.26
306.857	3.28
307.227	3.21
307.597	3.25
307.967	3.32
308.336	3.31
308.706	3.23
309.076	3.22
309.445	3.33
309.815	3.56
310.184	3.59
310.554	3.64
310.923	3.67
311.293	3.63
311.662	3.51
312.031	3.45
312.401	3.6
312.77	3.43
313.139	3.34
313.508	3.27
313.877	3.38
314.246	3.37
314.616	3.37
314.985	3.51
315.353	3.55
315.722	3.68
316.091	3.61
316.46	3.66
316.829	3.55
317.198	3.49
317.567	3.41
317.935	3.39
318.304	3.52
318.672	3.75
319.041	3.81
319.41	3.79
319.778	3.78
320.147	3.64
320.515	3.97
320.883	4.03
321.252	4.15
321.62	4
321.988	4.06
322.357	3.89
322.725	3.79
323.093	3.71
323.461	3.56
323.829	3.54
324.197	3.49
324.565	3.57
324.933	3.4
325.301	3.16
325.669	3.21
326.037	3
326.405	2.91
326.772	2.89
327.14	2.93
327.508	2.99
327.875	2.98
328.243	2.81
328.61	2.84
328.978	2.79
329.346	2.7
329.713	2.57
330.08	2.77
330.448	2.76
330.815	2.63
331.182	2.63
331.55	2.76
331.917	2.73
332.284	2.71
332.651	2.91
333.018	3.08
333.385	2.97
333.752	2.98
334.119	3.02
334.486	2.93
334.853	2.81
335.22	2.85
335.587	2.82
335.954	2.7
336.32	2.53
336.687	2.53
337.054	2.52
337.42	2.57
337.787	2.52
338.153	2.53
338.52	2.73
338.886	2.84
339.253	2.76
339.619	2.86
339.986	2.75
340.352	2.74
340.718	2.82
341.084	2.89
341.451	3.04
341.817	2.99
342.183	3.04
342.549	3.15
342.915	3.15
343.281	3.18
343.647	3.3
344.013	3.36
344.379	3.44
344.745	3.51
345.11	3.53
345.476	3.51
345.842	3.51
346.208	3.54
346.573	3.5
346.939	3.51
347.304	3.44
347.67	3.46
348.035	3.33
348.401	3.35
348.766	3.36
349.132	3.28
349.497	3.29
349.862	3.28
350.228	3.24
350.593	3.23
350.958	3.28
351.323	3.25
351.688	3.28
352.053	3.2
352.418	3.24
352.783	3.2
353.148	3.33
353.513	3.39
353.878	3.31
354.243	3.24
354.608	3.38
354.972	3.4
355.337	3.48
355.702	3.39
356.066	3.4
356.431	3.33
356.795	3.31
357.16	3.32
357.524	3.39
357.889	3.31
358.253	3.3
358.618	3.23
358.982	3.18
359.346	3.27
359.71	3.24
360.075	3.26
360.439	3.24
360.803	3.2
361.167	3.22
361.531	3.24
361.895	3.23
362.259	3.19
362.623	3.22
362.987	3.22
363.351	3.29
363.714	3.21
364.078	3.27
364.442	3.23
364.806	3.28
365.169	3.27
365.533	3.32
365.896	3.37
366.26	3.4
366.623	3.38
366.987	3.34
367.35	3.38
367.714	3.28
368.077	3.33
368.44	3.33
368.803	3.29
369.167	3.23
369.53	3.34
369.893	3.31
370.256	3.27
370.619	3.23
370.982	3.25
371.345	3.28
371.708	3.29
372.071	3.3
372.434	3.27
372.797	3.24
373.159	3.24
373.522	3.21
373.885	3.21
374.247	3.28
374.61	3.24
374.973	3.18
375.335	3.27
375.698	3.14
376.06	3.07
376.423	3.13
376.785	3.2
377.147	3.12
377.51	3.03
377.872	3.04
378.234	3.07
378.596	3.06
378.958	3.06
379.321	3.06
379.683	3.07
380.045	3.07
380.407	3.07
380.769	3.06
381.13	3.04
381.492	3.04
381.854	3.13
382.216	3.2
382.578	3.2
382.939	3.18
383.301	3.32
383.663	3.37
384.024	3.35
384.386	3.34
384.747	3.35
385.109	3.45
385.47	3.46
385.832	3.43
386.193	3.45
386.554	3.41
386.916	3.38
387.277	3.34
387.638	3.33
387.999	3.34
388.36	3.33
388.721	3.35
389.082	3.38
389.443	3.31
389.804	3.29
390.165	3.35
390.526	3.36
390.887	3.32
391.248	3.29
391.609	3.3
391.969	3.33
392.33	3.34
392.691	3.32
393.051	3.33
393.412	3.32
393.772	3.3
394.133	3.33
394.493	3.34
394.854	3.35
395.214	3.39
395.574	3.39
395.935	3.38
396.295	3.37
396.655	3.38
397.015	3.41
397.376	3.39
397.736	3.38
398.096	3.37
398.456	3.36
398.816	3.31
399.176	3.29
399.535	3.25
399.895	3.19
400.255	3.2
400.615	3.21
400.975	3.25
401.334	3.26
401.694	3.27
402.054	3.28
402.413	3.28
402.773	3.23
403.132	3.25
403.492	3.28
403.851	3.27
404.211	3.25
404.57	3.26
404.929	3.29
405.288	3.29
405.648	3.31
406.007	3.31
406.366	3.37
406.725	3.39
407.084	3.39
407.443	3.4
407.802	3.42
408.161	3.4
408.52	3.39
408.879	3.41
409.238	3.42
409.596	3.43
409.955	3.43
410.314	3.43
410.673	3.42
411.031	3.41
411.39	3.44
411.748	3.46
412.107	3.43
412.465	3.41
412.824	3.42
413.182	3.4
413.54	3.41
413.899	3.44
414.257	3.41
414.615	3.44
414.974	3.49
415.332	3.49
415.69	3.48
416.048	3.46
416.406	3.46
416.764	3.45
417.122	3.44
417.48	3.43
417.838	3.45
418.195	3.45
418.553	3.45
418.911	3.44
419.269	3.45
419.626	3.46
419.984	3.44
420.342	3.43
420.699	3.43
421.057	3.43
421.414	3.42
421.772	3.43
422.129	3.42
422.486	3.41
422.844	3.4
423.201	3.41
423.558	3.41
423.915	3.42
424.273	3.42
424.63	3.44
424.987	3.47
425.344	3.46
425.701	3.46
426.058	3.47
426.415	3.47
426.772	3.45
427.128	3.47
427.485	3.49
427.842	3.49
428.199	3.49
428.555	3.49
428.912	3.46
429.269	3.45
429.625	3.46
429.982	3.46
430.338	3.48
430.695	3.47
431.051	3.49
431.407	3.48
431.764	3.45
432.12	3.45
432.476	3.44
432.832	3.45
433.189	3.46
433.545	3.46
433.901	3.46
434.257	3.46
434.613	3.45
434.969	3.43
435.325	3.44
435.681	3.45
436.036	3.45
436.392	3.47
436.748	3.48
437.104	3.47
437.459	3.45
437.815	3.45
438.171	3.46
438.526	3.46
438.882	3.45
439.237	3.49
439.593	3.5
439.948	3.49
440.304	3.49
440.659	3.49
441.014	3.49
441.369	3.49
441.725	3.5
442.08	3.49
442.435	3.5
442.79	3.53
443.145	3.52
443.5	3.51
443.855	3.5
444.21	3.52
444.565	3.54
444.92	3.56
445.275	3.55
445.629	3.54
445.984	3.55
446.339	3.55
446.693	3.55
447.048	3.55
447.403	3.55
447.757	3.56
448.112	3.57
448.466	3.57
448.82	3.57
449.175	3.56
449.529	3.58
449.883	3.58
450.238	3.58
450.592	3.58
450.946	3.59
451.3	3.59
451.654	3.56
452.008	3.56
452.362	3.56
452.716	3.57
453.07	3.58
453.424	3.58
453.778	3.58
454.132	3.56
454.486	3.56
454.839	3.57
455.193	3.57
455.547	3.57
455.9	3.57
456.254	3.58
456.607	3.57
456.961	3.56
457.314	3.58
457.668	3.56
458.021	3.56
458.375	3.56
458.728	3.58
459.081	3.61
459.434	3.59
459.787	3.61
460.141	3.6
460.494	3.61
460.847	3.6
461.2	3.61
461.553	3.62
461.906	3.6
462.259	3.61
462.611	3.61
462.964	3.61
463.317	3.61
463.67	3.63
464.022	3.64
464.375	3.62
464.728	3.62
465.08	3.62
465.433	3.64
465.785	3.63
466.138	3.61
466.49	3.61
466.843	3.62
467.195	3.61
467.547	3.6
467.899	3.61
468.252	3.62
468.604	3.6
468.956	3.6
469.308	3.62
469.66	3.62
470.012	3.65
470.364	3.64
470.716	3.64
471.068	3.63
471.42	3.66
471.772	3.7
472.123	3.71
472.475	3.73
472.827	3.75
473.178	3.77
473.53	3.79
473.882	3.78
474.233	3.78
474.585	3.79
474.936	3.79
475.288	3.8
475.639	3.83
475.99	3.83
476.342	3.86
476.693	3.87
477.044	3.86
477.395	3.84
477.746	3.83
478.097	3.82
478.448	3.81
478.8	3.8
479.15	3.78
479.501	3.76
479.852	3.75
480.203	3.73
480.554	3.73
480.905	3.73
481.255	3.73
481.606	3.75
481.957	3.76
482.307	3.76
482.658	3.75
483.009	3.74
483.359	3.74
483.709	3.74
484.06	3.74
484.41	3.75
484.761	3.75
485.111	3.74
485.461	3.74
485.811	3.74
486.162	3.74
486.512	3.74
486.862	3.74
487.212	3.75
487.562	3.75
487.912	3.75
488.262	3.75
488.612	3.74
488.961	3.74
489.311	3.74
489.661	3.74
490.011	3.74
490.36	3.74
490.71	3.73
491.06	3.73
491.409	3.72
491.759	3.72
492.108	3.73
492.458	3.74
492.807	3.75
493.157	3.77
493.506	3.77
493.855	3.76
494.204	3.77
494.554	3.76
494.903	3.78
495.252	3.79
495.601	3.81
495.95	3.8
496.299	3.81
496.648	3.81
496.997	3.81
497.346	3.83
497.695	3.85
498.043	3.88
498.392	3.88
498.741	3.89
499.09	3.89
499.438	3.89
499.787	3.9
500.135	3.91
500.484	3.9
500.832	3.9
501.181	3.92
501.529	3.94
501.878	3.95
502.226	3.94
502.574	3.94
502.923	3.93
503.271	3.94
503.619	3.95
503.967	3.95
504.315	3.95
504.663	3.92
505.011	3.92
505.359	3.89
505.707	3.91
506.055	3.91
506.403	3.91
506.751	3.89
507.098	3.89
507.446	3.88
507.794	3.89
508.141	3.91
508.489	3.91
508.837	3.89
509.184	3.87
509.531	3.86
509.879	3.85
510.226	3.86
510.574	3.88
510.921	3.88
511.268	3.88
511.616	3.89
511.963	3.91
512.31	3.92
512.657	3.92
513.004	3.89
513.351	3.9
513.698	3.92
514.045	3.94
514.392	3.95
514.739	3.94
515.086	3.94
515.432	3.95
515.779	3.93
516.126	3.95
516.473	3.95
516.819	3.99
517.166	3.98
517.512	3.97
517.859	3.95
518.205	3.95
518.552	3.95
518.898	3.95
519.245	3.95
519.591	3.96
519.937	3.98
520.283	4.01
520.629	4
520.976	3.99
521.322	3.99
521.668	3.97
522.014	3.98
522.36	3.99
522.706	3.99
523.052	4
523.398	4.01
523.743	4.03
524.089	4.02
524.435	4.03
524.781	4.05
525.126	4.04
525.472	4.06
525.817	4.05
526.163	4.06
526.509	4.06
526.854	4.06
527.199	4.06
527.545	4.06
527.89	4.08
528.235	4.09
528.581	4.09
528.926	4.1
529.271	4.12
529.616	4.12
529.961	4.13
530.306	4.13
530.651	4.13
530.996	4.15
531.341	4.15
531.686	4.16
532.031	4.15
532.376	4.19
532.721	4.18
533.065	4.18
533.41	4.18
533.755	4.18
534.099	4.17
534.444	4.18
534.788	4.16
535.133	4.15
535.477	4.16
535.822	4.17
536.166	4.16
536.51	4.15
536.855	4.14
537.199	4.11
537.543	4.11
537.887	4.11
538.231	4.09
538.576	4.08
538.92	4.1
539.264	4.11
539.608	4.08
539.951	4.08
540.295	4.1
540.639	4.11
540.983	4.12
541.327	4.13
541.671	4.14
542.014	4.15
542.358	4.15
542.701	4.14
543.045	4.15
543.389	4.15
543.732	4.14
544.075	4.14
544.419	4.16
544.762	4.15
545.105	4.16
545.449	4.16
545.792	4.17
546.135	4.17
546.478	4.17
546.821	4.2
547.165	4.21
547.508	4.2
547.851	4.21
548.194	4.21
548.536	4.19
548.879	4.19
549.222	4.19
549.565	4.22
549.908	4.2
550.25	4.18
550.593	4.19
550.936	4.21
551.278	4.22
551.621	4.22
551.963	4.27
552.306	4.26
552.648	4.28
552.991	4.29
553.333	4.27
553.675	4.28
554.017	4.27
554.36	4.28
554.702	4.27
555.044	4.23
555.386	4.25
555.728	4.27
556.07	4.25
556.412	4.26
556.754	4.22
557.096	4.22
557.438	4.22
557.78	4.21
558.121	4.23
558.463	4.25
558.805	4.25
559.147	4.21
559.488	4.21
559.83	4.19
560.171	4.17
560.513	4.18
560.854	4.16
561.196	4.16
561.537	4.17
561.878	4.18
562.22	4.19
562.561	4.2
562.902	4.18
563.243	4.19
563.584	4.22
563.925	4.27
564.266	4.29
564.607	4.33
564.948	4.35
565.289	4.33
565.63	4.32
565.971	4.34
566.312	4.37
566.653	4.38
566.993	4.39
567.334	4.42
567.675	4.42
568.015	4.43
568.356	4.44
568.696	4.41
569.037	4.43
569.377	4.43
569.718	4.43
570.058	4.44
570.398	4.45
570.739	4.4
571.079	4.37
571.419	4.34
571.759	4.35
572.099	4.33
572.439	4.36
572.779	4.35
573.119	4.33
573.459	4.3
573.799	4.29
574.139	4.28
574.479	4.27
574.819	4.25
575.158	4.24
575.498	4.22
575.838	4.25
576.177	4.21
576.517	4.23
576.856	4.21
577.196	4.21
577.535	4.21
577.875	4.2
578.214	4.22
578.553	4.25
578.893	4.26
579.232	4.27
579.571	4.27
579.91	4.3
580.25	4.35
580.589	4.4
580.928	4.43
581.267	4.45
581.606	4.47
581.945	4.47
582.283	4.5
582.622	4.48
582.961	4.48
583.3	4.49
583.639	4.5
583.977	4.54
584.316	4.55
584.654	4.55
584.993	4.58
585.332	4.63
585.67	4.64
586.008	4.63
586.347	4.6
586.685	4.55
587.024	4.5
587.362	4.48
587.7	4.51
588.038	4.51
588.376	4.51
588.715	4.5
589.053	4.51
589.391	4.53
589.729	4.55
590.067	4.56
590.404	4.59
590.742	4.58
591.08	4.58
591.418	4.57
591.756	4.57
592.093	4.56
592.431	4.54
592.769	4.56
593.106	4.54
593.444	4.56
593.781	4.59
594.119	4.63
594.456	4.64
594.793	4.56
595.131	4.55
595.468	4.55
595.805	4.57
596.143	4.59
596.48	4.59
596.817	4.58
597.154	4.56
597.491	4.51
597.828	4.53
598.165	4.5
598.502	4.48
598.839	4.49
599.176	4.51
599.512	4.47
599.849	4.44
600.186	4.43
600.523	4.41
600.859	4.41
601.196	4.38
601.532	4.39
601.869	4.38
602.205	4.38
602.542	4.38
602.878	4.43
603.215	4.43
603.551	4.43
603.887	4.45
604.223	4.47
604.56	4.51
604.896	4.51
605.232	4.52
605.568	4.55
605.904	4.54
606.24	4.53
606.576	4.59
606.912	4.61
607.248	4.64
607.583	4.69
607.919	4.66
608.255	4.7
608.591	4.69
608.926	4.74
609.262	4.76
609.597	4.77
609.933	4.7
610.268	4.69
610.604	4.65
610.939	4.65
611.275	4.65
611.61	4.63
611.945	4.56
612.281	4.57
612.616	4.6
612.951	4.63
613.286	4.63
613.621	4.6
613.956	4.56
614.291	4.54
614.626	4.52
614.961	4.55
615.296	4.57
615.631	4.59
615.966	4.6
616.3	4.6
616.635	4.56
616.97	4.54
617.304	4.57
617.639	4.64
617.973	4.58
618.308	4.6
618.642	4.63
618.977	4.68
619.311	4.67
619.646	4.6
619.98	4.58
620.314	4.54
620.648	4.51
620.983	4.47
621.317	4.51
621.651	4.48
621.985	4.46
622.319	4.44
622.653	4.45
622.987	4.42
623.321	4.44
623.655	4.46
623.988	4.46
624.322	4.44
624.656	4.43
624.99	4.44
625.323	4.39
625.657	4.41
625.99	4.42
626.324	4.4
626.657	4.41
626.991	4.4
627.324	4.43
627.658	4.42
627.991	4.48
628.324	4.45
628.657	4.43
628.991	4.49
629.324	4.46
629.657	4.45
629.99	4.45
630.323	4.45
630.656	4.45
630.989	4.46
631.322	4.51
631.655	4.48
631.987	4.55
632.32	4.61
632.653	4.55
632.986	4.62
633.318	4.65
633.651	4.74
633.984	4.79
634.316	4.85
634.649	4.9
634.981	4.96
635.313	5.01
635.646	5.05
635.978	5
636.31	5.04
636.643	5
636.975	5.04
637.307	5.06
637.639	5.12
637.971	5.15
638.303	5.11
638.635	5.08
638.967	5.05
639.299	5.04
639.631	5.09
639.963	5.08
640.295	5.07
640.626	5.02
640.958	4.99
641.29	4.94
641.621	4.87
641.953	4.75
642.285	4.67
642.616	4.68
642.948	4.73
643.279	4.7
643.61	4.73
643.942	4.74
644.273	4.77
644.604	4.73
644.936	4.75
645.267	4.74
645.598	4.83
645.929	4.83
646.26	4.78
646.591	4.8
646.922	4.81
647.253	4.79
647.584	4.78
647.915	4.83
648.245	4.82
648.576	4.87
648.907	4.95
649.238	5
649.568	4.98
649.899	4.95
650.229	4.97
650.56	4.96
650.89	4.93
651.221	4.93
651.551	5
651.882	4.98
652.212	4.99
652.542	5.01
652.872	5.02
653.203	5.09
653.533	5.08
653.863	5.07
654.193	5.1
654.523	5.06
654.853	5.06
655.183	5.11
655.513	5.1
655.843	5.09
656.172	5.12
656.502	5.08
656.832	5.18
657.162	5.16
657.491	5.18
657.821	5.21
658.15	5.17
658.48	5.12
658.809	5.13
659.139	5.14
659.468	5.13
659.798	5.19
660.127	5.13
660.456	5.12
660.785	5.06
661.115	5.02
661.444	5.06
661.773	5.06
662.102	4.99
662.431	4.96
662.76	4.98
663.089	4.95
663.418	4.99
663.747	4.87
664.076	4.91
664.404	5.05
664.733	5.03
665.062	5
665.39	5
665.719	5.03
666.048	4.94
666.376	4.96
666.705	4.89
667.033	4.88
667.362	4.82
667.69	4.83
668.018	4.88
668.347	4.88
668.675	4.88
669.003	4.98
669.331	5.07
669.659	5.02
669.987	4.93
670.315	4.93
670.643	4.96
670.971	4.91
671.299	4.77
671.627	4.82
671.955	4.83
672.283	4.79
672.61	4.74
672.938	4.89
673.266	4.88
673.593	4.84
673.921	4.82
674.249	4.94
674.576	5.05
674.904	5.11
675.231	5.12
675.558	5.13
675.886	5.13
676.213	5.04
676.54	5.08
676.867	5.08
677.195	5.13
677.522	5.1
677.849	5.12
678.176	5.13
