Data from MVZ_BU165823_Reflection_00004.txt Node
Date: Tue Nov 19 12:10:21 EST 2019
User: vgr7
Spectrometer: USB2G7710
Scans to average: 3
Trigger mode: 4
Integration Time (sec): 2.000000E-2
Electric dark correction enabled: true
Boxcar width: 10
XAxis mode: Wavelengths
Number of Pixels in Spectrum: 2048
>>>>>Begin Spectral Data<<<<<
177.721	13.79
178.105	0.92
178.488	1.7
178.871	-8.26
179.254	-29.79
179.636	24.88
180.019	31.01
180.402	62.5
180.785	-242.62
181.168	-28.13
181.55	37.77
181.933	-40.67
182.316	-87.86
182.698	-1763.64
183.081	-334.31
183.463	63.92
183.846	579.59
184.228	52.33
184.611	3.78
184.993	-4.06
185.376	36.18
185.758	45.75
186.14	56.66
186.522	41.04
186.904	27.68
187.287	36.88
187.669	46.87
188.051	49.5
188.433	58.78
188.815	33.65
189.197	31.61
189.579	45.17
189.961	34.88
190.342	50.22
190.724	54.02
191.106	66.99
191.488	83.22
191.869	65.29
192.251	83.16
192.633	106.36
193.014	127.1
193.396	109.81
193.777	110.92
194.159	97.8
194.54	108.44
194.922	160.78
195.303	165.16
195.684	219.5
196.065	244.1
196.447	116.94
196.828	151.94
197.209	178.6
197.59	188.15
197.971	128.55
198.352	50.14
198.733	54.09
199.114	31.9
199.495	35.15
199.876	20.97
200.257	-9.61
200.638	-2.99
201.018	-18.67
201.399	-34.47
201.78	-8.01
202.16	30.06
202.541	47.55
202.922	37.79
203.302	39.93
203.683	16.03
204.063	8.36
204.444	38.34
204.824	20.16
205.204	30.35
205.585	23.57
205.965	41.59
206.345	56.03
206.725	36.42
207.106	22.38
207.486	29.87
207.866	49.41
208.246	43.67
208.626	31.26
209.006	18.88
209.386	11.88
209.766	3.04
210.145	-11.58
210.525	-20.25
210.905	-12.56
211.285	-9.5
211.664	12.57
212.044	13.25
212.424	6.38
212.803	7.66
213.183	-5.23
213.562	-6.12
213.942	-8.45
214.321	-5.79
214.701	13.17
215.08	12.31
215.459	19.44
215.838	3.57
216.218	-3.13
216.597	11.62
216.976	7.82
217.355	16.73
217.734	-4.85
218.113	-10.57
218.492	6.34
218.871	15.08
219.25	11.93
219.629	-16.53
220.008	-12.65
220.387	3.41
220.766	9.01
221.144	8.87
221.523	14.65
221.902	11.07
222.28	17.83
222.659	16.7
223.037	17.94
223.416	16.15
223.794	16.53
224.173	25.83
224.551	21.6
224.929	18.72
225.308	19.37
225.686	24.69
226.064	26.26
226.442	23.63
226.821	19.95
227.199	19.53
227.577	20.54
227.955	19.96
228.333	17.3
228.711	18.74
229.089	22.75
229.467	19.88
229.845	19.13
230.222	18.17
230.6	20.72
230.978	19.24
231.356	13.69
231.733	16.38
232.111	15.93
232.488	16.27
232.866	15.2
233.243	13.08
233.621	14.19
233.998	14.44
234.376	14.62
234.753	15.16
235.13	15.22
235.508	11.86
235.885	12.21
236.262	11.5
236.639	8.53
237.016	7.17
237.393	6.86
237.77	6.95
238.147	6.45
238.524	5.41
238.901	5.31
239.278	5.62
239.655	4.14
240.032	4.07
240.409	3.83
240.785	3.86
241.162	4.08
241.539	3.82
241.915	4.2
242.292	3.98
242.668	4.17
243.045	4.01
243.421	4.48
243.798	4.31
244.174	4.24
244.551	4.49
244.927	4.2
245.303	4.22
245.679	4.33
246.056	4.69
246.432	4.54
246.808	4.71
247.184	4.73
247.56	4.79
247.936	4.51
248.312	4.48
248.688	4.47
249.064	4.46
249.44	4.19
249.815	4.32
250.191	4.25
250.567	4.01
250.943	3.83
251.318	3.66
251.694	3.55
252.069	3.19
252.445	3.01
252.82	3.07
253.196	2.95
253.571	2.95
253.947	2.44
254.322	2.4
254.697	2.23
255.073	2.34
255.448	2.66
255.823	2.88
256.198	2.79
256.573	3.24
256.948	3.52
257.323	3.69
257.698	3.57
258.073	3.65
258.448	3.82
258.823	3.75
259.198	3.85
259.573	3.78
259.948	4.12
260.322	4.14
260.697	4.22
261.072	4.15
261.446	3.99
261.821	4.05
262.195	3.7
262.57	3.75
262.944	3.8
263.319	3.68
263.693	3.77
264.067	3.86
264.442	3.59
264.816	3.46
265.19	3.42
265.564	3.32
265.938	3.07
266.313	3.03
266.687	2.86
267.061	2.86
267.435	2.94
267.809	2.83
268.183	2.56
268.556	2.37
268.93	2.67
269.304	2.78
269.678	2.8
270.051	3.13
270.425	3.17
270.799	3.09
271.172	3.04
271.546	3.05
271.919	2.98
272.293	3.33
272.666	3.43
273.04	3.29
273.413	3.36
273.787	3.34
274.16	3.15
274.533	3.37
274.906	3.39
275.279	3.54
275.653	3.47
276.026	3.7
276.399	3.88
276.772	3.61
277.145	3.66
277.518	3.42
277.891	3.45
278.263	3.44
278.636	3.52
279.009	3.64
279.382	3.48
279.755	3.55
280.127	3.48
280.5	3.4
280.872	3.66
281.245	3.48
281.617	3.63
281.99	3.74
282.362	3.78
282.735	3.67
283.107	3.54
283.479	3.52
283.852	3.44
284.224	3.48
284.596	3.47
284.968	3.31
285.34	3.45
285.713	3.44
286.085	3.5
286.457	3.35
286.829	3.24
287.201	3.32
287.572	3.38
287.944	3.37
288.316	3.26
288.688	3.32
289.06	3.32
289.431	3.33
289.803	3.39
290.175	3.29
290.546	3.45
290.918	3.35
291.289	3.3
291.661	3.54
292.032	3.29
292.403	3.4
292.775	3.46
293.146	3.46
293.517	3.41
293.889	3.35
294.26	3.38
294.631	3.55
295.002	3.44
295.373	3.42
295.744	3.38
296.115	3.44
296.486	3.35
296.857	3.47
297.228	3.49
297.599	3.54
297.97	3.65
298.34	3.6
298.711	3.7
299.082	3.79
299.452	3.65
299.823	3.78
300.194	3.59
300.564	3.63
300.935	3.71
301.305	3.68
301.676	3.71
302.046	3.67
302.416	3.54
302.787	3.6
303.157	3.48
303.527	3.55
303.897	3.5
304.267	3.43
304.637	3.31
305.008	3.32
305.378	3.11
305.748	3.09
306.117	2.98
306.487	3.05
306.857	3.27
307.227	3.27
307.597	3.29
307.967	3.5
308.336	3.43
308.706	3.42
309.076	3.61
309.445	3.59
309.815	3.54
310.184	3.51
310.554	3.48
310.923	3.45
311.293	3.31
311.662	3.34
312.031	3.3
312.401	3.29
312.77	3.19
313.139	3.36
313.508	3.26
313.877	3.39
314.246	3.14
314.616	3.03
314.985	3.03
315.353	3.01
315.722	3.01
316.091	3.01
316.46	2.93
316.829	2.85
317.198	2.78
317.567	3.07
317.935	3.19
318.304	3.24
318.672	3.39
319.041	3.29
319.41	3.27
319.778	3.33
320.147	3.29
320.515	3.25
320.883	3.11
321.252	3.15
321.62	3.16
321.988	3.37
322.357	3.32
322.725	3.24
323.093	3.11
323.461	3.22
323.829	3.11
324.197	3.04
324.565	3.08
324.933	3.08
325.301	2.8
325.669	2.69
326.037	2.83
326.405	2.7
326.772	2.86
327.14	2.74
327.508	2.82
327.875	2.78
328.243	2.78
328.61	2.7
328.978	2.62
329.346	2.51
329.713	2.57
330.08	2.48
330.448	2.58
330.815	2.65
331.182	2.54
331.55	2.52
331.917	2.52
332.284	2.41
332.651	2.47
333.018	2.51
333.385	2.49
333.752	2.34
334.119	2.49
334.486	2.49
334.853	2.61
335.22	2.52
335.587	2.56
335.954	2.57
336.32	2.73
336.687	2.78
337.054	2.81
337.42	2.77
337.787	2.68
338.153	2.79
338.52	2.91
338.886	2.89
339.253	2.86
339.619	2.89
339.986	2.91
340.352	2.91
340.718	3.13
341.084	3.28
341.451	3.29
341.817	3.1
342.183	2.91
342.549	2.91
342.915	2.79
343.281	2.79
343.647	2.81
344.013	2.69
344.379	2.7
344.745	2.71
345.11	2.66
345.476	2.71
345.842	2.51
346.208	2.57
346.573	2.55
346.939	2.72
347.304	2.78
347.67	2.73
348.035	2.61
348.401	2.56
348.766	2.47
349.132	2.48
349.497	2.63
349.862	2.85
350.228	2.96
350.593	3.18
350.958	3.27
351.323	3.22
351.688	3.18
352.053	3.26
352.418	3.24
352.783	3.14
353.148	3.19
353.513	3.33
353.878	3.19
354.243	3.19
354.608	3.16
354.972	3.12
355.337	3.26
355.702	3.36
356.066	3.31
356.431	3.35
356.795	3.3
357.16	3.23
357.524	3.21
357.889	3.14
358.253	3.06
358.618	3
358.982	3.02
359.346	3.09
359.71	3.07
360.075	3.19
360.439	3.25
360.803	3.24
361.167	3.22
361.531	3.23
361.895	3.3
362.259	3.29
362.623	3.33
362.987	3.26
363.351	3.23
363.714	3.22
364.078	3.2
364.442	3.15
364.806	3.19
365.169	3.13
365.533	3.1
365.896	3.08
366.26	3.14
366.623	3.18
366.987	3.15
367.35	3.23
367.714	3.14
368.077	3.17
368.44	3.24
368.803	3.2
369.167	3.11
369.53	2.98
369.893	2.95
370.256	2.9
370.619	3
370.982	2.97
371.345	2.97
371.708	2.99
372.071	3.01
372.434	3.01
372.797	2.99
373.159	2.99
373.522	3.05
373.885	3.01
374.247	2.96
374.61	2.99
374.973	2.94
375.335	2.99
375.698	2.9
376.06	2.93
376.423	2.93
376.785	2.98
377.147	3.06
377.51	3.06
377.872	3.01
378.234	2.98
378.596	2.98
378.958	3
379.321	2.95
379.683	2.99
380.045	2.97
380.407	3.02
380.769	3.05
381.13	2.97
381.492	2.94
381.854	2.98
382.216	3
382.578	2.99
382.939	2.95
383.301	3.01
383.663	2.98
384.024	3.01
384.386	3.06
384.747	3.04
385.109	3.07
385.47	3.12
385.832	3.07
386.193	3.09
386.554	3.05
386.916	3.07
387.277	3.03
387.638	3.03
387.999	3.05
388.36	3.02
388.721	3
389.082	3.07
389.443	3.05
389.804	3.06
390.165	3.06
390.526	3.1
390.887	3.13
391.248	3.13
391.609	3.19
391.969	3.19
392.33	3.22
392.691	3.21
393.051	3.17
393.412	3.19
393.772	3.22
394.133	3.23
394.493	3.24
394.854	3.26
395.214	3.28
395.574	3.24
395.935	3.25
396.295	3.27
396.655	3.2
397.015	3.25
397.376	3.25
397.736	3.24
398.096	3.17
398.456	3.12
398.816	3.08
399.176	3
399.535	2.97
399.895	2.96
400.255	2.95
400.615	3.01
400.975	2.97
401.334	2.96
401.694	3
402.054	2.99
402.413	2.98
402.773	2.98
403.132	2.98
403.492	3
403.851	3.02
404.211	3.05
404.57	2.99
404.929	2.98
405.288	2.99
405.648	3.03
406.007	3.04
406.366	3.07
406.725	3.1
407.084	3.1
407.443	3.07
407.802	3.05
408.161	3.06
408.52	3.1
408.879	3.12
409.238	3.12
409.596	3.11
409.955	3.12
410.314	3.13
410.673	3.16
411.031	3.14
411.39	3.14
411.748	3.18
412.107	3.2
412.465	3.19
412.824	3.16
413.182	3.17
413.54	3.22
413.899	3.19
414.257	3.17
414.615	3.19
414.974	3.19
415.332	3.2
415.69	3.18
416.048	3.17
416.406	3.13
416.764	3.13
417.122	3.13
417.48	3.13
417.838	3.13
418.195	3.12
418.553	3.15
418.911	3.15
419.269	3.14
419.626	3.14
419.984	3.14
420.342	3.15
420.699	3.15
421.057	3.12
421.414	3.13
421.772	3.13
422.129	3.13
422.486	3.14
422.844	3.14
423.201	3.13
423.558	3.13
423.915	3.15
424.273	3.14
424.63	3.14
424.987	3.14
425.344	3.13
425.701	3.13
426.058	3.1
426.415	3.09
426.772	3.09
427.128	3.09
427.485	3.09
427.842	3.11
428.199	3.1
428.555	3.11
428.912	3.1
429.269	3.11
429.625	3.11
429.982	3.11
430.338	3.13
430.695	3.12
431.051	3.13
431.407	3.1
431.764	3.09
432.12	3.1
432.476	3.1
432.832	3.11
433.189	3.11
433.545	3.13
433.901	3.16
434.257	3.15
434.613	3.14
434.969	3.13
435.325	3.11
435.681	3.11
436.036	3.08
436.392	3.11
436.748	3.1
437.104	3.09
437.459	3.08
437.815	3.08
438.171	3.09
438.526	3.08
438.882	3.12
439.237	3.13
439.593	3.13
439.948	3.13
440.304	3.12
440.659	3.13
441.014	3.12
441.369	3.11
441.725	3.1
442.08	3.11
442.435	3.14
442.79	3.15
443.145	3.14
443.5	3.17
443.855	3.13
444.21	3.14
444.565	3.14
444.92	3.15
445.275	3.12
445.629	3.11
445.984	3.12
446.339	3.11
446.693	3.12
447.048	3.12
447.403	3.12
447.757	3.13
448.112	3.13
448.466	3.14
448.82	3.13
449.175	3.13
449.529	3.13
449.883	3.13
450.238	3.12
450.592	3.13
450.946	3.12
451.3	3.14
451.654	3.14
452.008	3.14
452.362	3.14
452.716	3.15
453.07	3.16
453.424	3.17
453.778	3.17
454.132	3.17
454.486	3.17
454.839	3.18
455.193	3.19
455.547	3.19
455.9	3.19
456.254	3.2
456.607	3.21
456.961	3.22
457.314	3.2
457.668	3.19
458.021	3.19
458.375	3.18
458.728	3.2
459.081	3.19
459.434	3.19
459.787	3.2
460.141	3.21
460.494	3.22
460.847	3.21
461.2	3.21
461.553	3.22
461.906	3.21
462.259	3.21
462.611	3.21
462.964	3.2
463.317	3.2
463.67	3.21
464.022	3.2
464.375	3.19
464.728	3.19
465.08	3.21
465.433	3.2
465.785	3.21
466.138	3.22
466.49	3.23
466.843	3.24
467.195	3.22
467.547	3.21
467.899	3.2
468.252	3.19
468.604	3.2
468.956	3.17
469.308	3.15
469.66	3.14
470.012	3.13
470.364	3.13
470.716	3.15
471.068	3.15
471.42	3.17
471.772	3.18
472.123	3.16
472.475	3.16
472.827	3.18
473.178	3.17
473.53	3.15
473.882	3.14
474.233	3.13
474.585	3.16
474.936	3.18
475.288	3.2
475.639	3.22
475.99	3.19
476.342	3.23
476.693	3.25
477.044	3.29
477.395	3.26
477.746	3.25
478.097	3.24
478.448	3.22
478.8	3.21
479.15	3.21
479.501	3.21
479.852	3.2
480.203	3.21
480.554	3.22
480.905	3.23
481.255	3.24
481.606	3.26
481.957	3.26
482.307	3.25
482.658	3.25
483.009	3.25
483.359	3.26
483.709	3.26
484.06	3.26
484.41	3.25
484.761	3.27
485.111	3.28
485.461	3.28
485.811	3.29
486.162	3.29
486.512	3.29
486.862	3.29
487.212	3.29
487.562	3.29
487.912	3.29
488.262	3.28
488.612	3.28
488.961	3.27
489.311	3.27
489.661	3.28
490.011	3.27
490.36	3.27
490.71	3.28
491.06	3.27
491.409	3.27
491.759	3.27
492.108	3.26
492.458	3.25
492.807	3.24
493.157	3.24
493.506	3.25
493.855	3.24
494.204	3.24
494.554	3.24
494.903	3.23
495.252	3.24
495.601	3.26
495.95	3.26
496.299	3.27
496.648	3.28
496.997	3.26
497.346	3.27
497.695	3.27
498.043	3.28
498.392	3.28
498.741	3.29
499.09	3.29
499.438	3.3
499.787	3.3
500.135	3.32
500.484	3.35
500.832	3.34
501.181	3.37
501.529	3.41
501.878	3.44
502.226	3.44
502.574	3.44
502.923	3.44
503.271	3.45
503.619	3.43
503.967	3.41
504.315	3.41
504.663	3.41
505.011	3.41
505.359	3.38
505.707	3.38
506.055	3.4
506.403	3.37
506.751	3.37
507.098	3.36
507.446	3.37
507.794	3.39
508.141	3.39
508.489	3.41
508.837	3.37
509.184	3.35
509.531	3.37
509.879	3.36
510.226	3.35
510.574	3.35
510.921	3.34
511.268	3.39
511.616	3.4
511.963	3.4
512.31	3.4
512.657	3.43
513.004	3.44
513.351	3.4
513.698	3.44
514.045	3.42
514.392	3.44
514.739	3.44
515.086	3.42
515.432	3.42
515.779	3.39
516.126	3.43
516.473	3.43
516.819	3.43
517.166	3.42
517.512	3.42
517.859	3.42
518.205	3.43
518.552	3.42
518.898	3.4
519.245	3.41
519.591	3.42
519.937	3.41
520.283	3.42
520.629	3.44
520.976	3.43
521.322	3.45
521.668	3.43
522.014	3.43
522.36	3.43
522.706	3.44
523.052	3.45
523.398	3.44
523.743	3.46
524.089	3.47
524.435	3.49
524.781	3.5
525.126	3.51
525.472	3.51
525.817	3.51
526.163	3.5
526.509	3.5
526.854	3.5
527.199	3.49
527.545	3.48
527.89	3.48
528.235	3.48
528.581	3.48
528.926	3.47
529.271	3.47
529.616	3.48
529.961	3.47
530.306	3.47
530.651	3.45
530.996	3.45
531.341	3.44
531.686	3.43
532.031	3.42
532.376	3.42
532.721	3.43
533.065	3.42
533.41	3.43
533.755	3.42
534.099	3.43
534.444	3.44
534.788	3.43
535.133	3.45
535.477	3.44
535.822	3.46
536.166	3.48
536.51	3.46
536.855	3.46
537.199	3.46
537.543	3.49
537.887	3.52
538.231	3.52
538.576	3.53
538.92	3.54
539.264	3.53
539.608	3.53
539.951	3.51
540.295	3.51
540.639	3.52
540.983	3.54
541.327	3.54
541.671	3.53
542.014	3.54
542.358	3.53
542.701	3.55
543.045	3.54
543.389	3.55
543.732	3.55
544.075	3.56
544.419	3.55
544.762	3.55
545.105	3.53
545.449	3.51
545.792	3.49
546.135	3.48
546.478	3.48
546.821	3.46
547.165	3.47
547.508	3.47
547.851	3.46
548.194	3.44
548.536	3.42
548.879	3.43
549.222	3.42
549.565	3.4
549.908	3.39
550.25	3.37
550.593	3.36
550.936	3.38
551.278	3.36
551.621	3.36
551.963	3.36
552.306	3.34
552.648	3.35
552.991	3.36
553.333	3.38
553.675	3.41
554.017	3.44
554.36	3.44
554.702	3.44
555.044	3.45
555.386	3.45
555.728	3.45
556.07	3.42
556.412	3.45
556.754	3.46
557.096	3.45
557.438	3.46
557.78	3.47
558.121	3.49
558.463	3.51
558.805	3.54
559.147	3.55
559.488	3.56
559.83	3.57
560.171	3.58
560.513	3.6
560.854	3.57
561.196	3.57
561.537	3.58
561.878	3.59
562.22	3.58
562.561	3.6
562.902	3.62
563.243	3.64
563.584	3.61
563.925	3.63
564.266	3.67
564.607	3.67
564.948	3.66
565.289	3.62
565.63	3.64
565.971	3.63
566.312	3.6
566.653	3.61
566.993	3.6
567.334	3.62
567.675	3.6
568.015	3.59
568.356	3.58
568.696	3.59
569.037	3.58
569.377	3.59
569.718	3.6
570.058	3.59
570.398	3.57
570.739	3.59
571.079	3.57
571.419	3.55
571.759	3.55
572.099	3.54
572.439	3.53
572.779	3.5
573.119	3.47
573.459	3.47
573.799	3.46
574.139	3.46
574.479	3.45
574.819	3.46
575.158	3.47
575.498	3.49
575.838	3.48
576.177	3.48
576.517	3.47
576.856	3.45
577.196	3.45
577.535	3.45
577.875	3.41
578.214	3.43
578.553	3.43
578.893	3.45
579.232	3.47
579.571	3.53
579.91	3.52
580.25	3.53
580.589	3.54
580.928	3.53
581.267	3.52
581.606	3.51
581.945	3.54
582.283	3.57
582.622	3.53
582.961	3.54
583.3	3.51
583.639	3.51
583.977	3.52
584.316	3.54
584.654	3.55
584.993	3.56
585.332	3.59
585.67	3.56
586.008	3.56
586.347	3.59
586.685	3.53
587.024	3.56
587.362	3.56
587.7	3.61
588.038	3.62
588.376	3.63
588.715	3.67
589.053	3.63
589.391	3.64
589.729	3.68
590.067	3.7
590.404	3.72
590.742	3.7
591.08	3.73
591.418	3.71
591.756	3.72
592.093	3.76
592.431	3.73
592.769	3.73
593.106	3.72
593.444	3.7
593.781	3.73
594.119	3.7
594.456	3.71
594.793	3.63
595.131	3.65
595.468	3.68
595.805	3.63
596.143	3.64
596.48	3.58
596.817	3.57
597.154	3.54
597.491	3.56
597.828	3.56
598.165	3.54
598.502	3.53
598.839	3.54
599.176	3.56
599.512	3.54
599.849	3.57
600.186	3.54
600.523	3.52
600.859	3.55
601.196	3.56
601.532	3.55
601.869	3.58
602.205	3.56
602.542	3.55
602.878	3.6
603.215	3.58
603.551	3.63
603.887	3.65
604.223	3.63
604.56	3.64
604.896	3.68
605.232	3.62
605.568	3.66
605.904	3.64
606.24	3.6
606.576	3.61
606.912	3.59
607.248	3.62
607.583	3.65
607.919	3.6
608.255	3.56
608.591	3.59
608.926	3.59
609.262	3.61
609.597	3.6
609.933	3.59
610.268	3.6
610.604	3.58
610.939	3.58
611.275	3.53
611.61	3.52
611.945	3.49
612.281	3.55
612.616	3.54
612.951	3.57
613.286	3.59
613.621	3.59
613.956	3.65
614.291	3.67
614.626	3.67
614.961	3.75
615.296	3.86
615.631	3.88
615.966	3.88
616.3	3.89
616.635	3.91
616.97	3.9
617.304	3.9
617.639	3.92
617.973	3.86
618.308	3.94
618.642	3.94
618.977	3.91
619.311	3.91
619.646	3.9
619.98	3.86
620.314	3.82
620.648	3.85
620.983	3.79
621.317	3.84
621.651	3.81
621.985	3.75
622.319	3.73
622.653	3.72
622.987	3.68
623.321	3.63
623.655	3.61
623.988	3.59
624.322	3.64
624.656	3.66
624.99	3.71
625.323	3.73
625.657	3.74
625.99	3.82
626.324	3.85
626.657	3.82
626.991	3.85
627.324	3.82
627.658	3.77
627.991	3.77
628.324	3.75
628.657	3.74
628.991	3.78
629.324	3.75
629.657	3.78
629.99	3.76
630.323	3.79
630.656	3.8
630.989	3.82
631.322	3.77
631.655	3.74
631.987	3.78
632.32	3.77
632.653	3.74
632.986	3.63
633.318	3.62
633.651	3.65
633.984	3.68
634.316	3.69
634.649	3.74
634.981	3.75
635.313	3.76
635.646	3.8
635.978	3.77
636.31	3.79
636.643	3.77
636.975	3.89
637.307	3.85
637.639	3.83
637.971	3.84
638.303	3.84
638.635	3.88
638.967	3.85
639.299	3.8
639.631	3.87
639.963	3.92
640.295	3.92
640.626	3.93
640.958	3.93
641.29	4.02
641.621	4.01
641.953	3.96
642.285	3.87
642.616	3.84
642.948	3.85
643.279	3.82
643.61	3.88
643.942	3.85
644.273	3.89
644.604	3.89
644.936	3.88
645.267	3.83
645.598	3.83
645.929	3.8
646.26	3.85
646.591	3.81
646.922	3.86
647.253	3.84
647.584	3.84
647.915	3.8
648.245	3.76
648.576	3.69
648.907	3.72
649.238	3.8
649.568	3.8
649.899	3.89
650.229	3.93
650.56	3.88
650.89	3.89
651.221	3.97
651.551	4.11
651.882	4.11
652.212	4.23
652.542	4.24
652.872	4.17
653.203	4.22
653.533	4.27
653.863	4.2
654.193	4.18
654.523	4.13
654.853	4.19
655.183	4.19
655.513	4.23
655.843	4.28
656.172	4.3
656.502	4.37
656.832	4.33
657.162	4.32
657.491	4.35
657.821	4.3
658.15	4.28
658.48	4.2
658.809	4.19
659.139	4.08
659.468	4.06
659.798	4.12
660.127	4.13
660.456	4.1
660.785	4.16
661.115	4.16
661.444	4.19
661.773	4.21
662.102	4.29
662.431	4.38
662.76	4.3
663.089	4.35
663.418	4.26
663.747	4.19
664.076	4.16
664.404	4.21
664.733	4.2
665.062	4.16
665.39	4.18
665.719	4.2
666.048	4.27
666.376	4.3
666.705	4.33
667.033	4.29
667.362	4.33
667.69	4.37
668.018	4.43
668.347	4.51
668.675	4.5
669.003	4.42
669.331	4.31
669.659	4.31
669.987	4.26
670.315	4.25
670.643	4.33
670.971	4.37
671.299	4.28
671.627	4.23
671.955	4.21
672.283	4.17
672.61	4.22
672.938	4.22
673.266	4.29
673.593	4.22
673.921	4.21
674.249	4.2
674.576	4.14
674.904	4.15
675.231	4.12
675.558	4.05
675.886	4.08
676.213	4.12
676.54	4.22
676.867	4.2
677.195	4.31
677.522	4.31
677.849	4.34
678.176	4.35
678.503	4.4
678.83	4.45
679.157	4.46
