Data from MVZ_BU8942_Reflection_00006.txt Node
Date: Tue Nov 19 12:03:58 EST 2019
User: vgr7
Spectrometer: USB2G7710
Scans to average: 3
Trigger mode: 4
Integration Time (sec): 2.000000E-2
Electric dark correction enabled: true
Boxcar width: 10
XAxis mode: Wavelengths
Number of Pixels in Spectrum: 2048
>>>>>Begin Spectral Data<<<<<
177.721	70.76
178.105	100
178.488	-60.11
178.871	528.57
179.254	-290
179.636	12.41
180.019	92.57
180.402	54.55
180.785	-131
181.168	-405.81
181.55	1010.71
181.933	-198.73
182.316	-152.76
182.698	-116.55
183.081	-153.6
183.463	-191.32
183.846	-92.64
184.228	-152.24
184.611	-189.42
184.993	-188.16
185.376	-151.73
185.758	-175.35
186.14	-267.02
186.522	-529.24
186.904	-457.81
187.287	-373.5
187.669	-417.11
188.051	-309.92
188.433	-287.18
188.815	-305.78
189.197	-213.57
189.579	-206.01
189.961	-296.72
190.342	-196.32
190.724	-179.85
191.106	-210.41
191.488	-153.47
191.869	-144.22
192.251	-83.78
192.633	-91.1
193.014	-88.13
193.396	-84.76
193.777	-63.47
194.159	-63.21
194.54	-73.38
194.922	-78.92
195.303	-95.62
195.684	-106.93
196.065	-107.65
196.447	-101.02
196.828	-93.46
197.209	-98.65
197.59	-88.79
197.971	-77.63
198.352	-75.06
198.733	-104.93
199.114	-129.81
199.495	-209.85
199.876	-240.41
200.257	-277.47
200.638	-229.91
201.018	-200.57
201.399	-118.91
201.78	-98.48
202.16	-63.78
202.541	-77.4
202.922	-108.48
203.302	-49.63
203.683	-18.13
204.063	-38.31
204.444	-39.58
204.824	-35.81
205.204	-8.09
205.585	-21.02
205.965	-72.09
206.345	-64.13
206.725	-27.14
207.106	-8.91
207.486	-35.63
207.866	-32.35
208.246	-7.14
208.626	-24.72
209.006	-56.31
209.386	-149.24
209.766	-306.1
210.145	-182.98
210.525	-173.65
210.905	-133.99
211.285	-133.99
211.664	-118.53
212.044	-97.19
212.424	-86.73
212.803	-110.94
213.183	-119.3
213.562	-108.06
213.942	-120.3
214.321	-112.11
214.701	-194.7
215.08	-257.63
215.459	-133.79
215.838	-108.76
216.218	-124.23
216.597	-121.51
216.976	-113.39
217.355	-98.93
217.734	-96.7
218.113	-96.65
218.492	-67.62
218.871	-44.14
219.25	-28.15
219.629	-45.69
220.008	-28.34
220.387	-27.94
220.766	5.75
221.144	-0.05
221.523	-19.97
221.902	-1.01
222.28	-6.56
222.659	8.6
223.037	-1.03
223.416	-5.37
223.794	5.52
224.173	6.2
224.551	11.87
224.929	5.52
225.308	10.13
225.686	9.92
226.064	5.07
226.442	6.03
226.821	1.01
227.199	1.92
227.577	4
227.955	1.6
228.333	0.78
228.711	-0.01
229.089	1.68
229.467	5.25
229.845	3.74
230.222	2.43
230.6	1.72
230.978	5.33
231.356	3.49
231.733	0.79
232.111	-0.73
232.488	0.14
232.866	2.6
233.243	3.76
233.621	4.73
233.998	5.22
234.376	4.83
234.753	4.95
235.13	3.62
235.508	3.54
235.885	3.69
236.262	3.46
236.639	2.42
237.016	2.98
237.393	2.52
237.77	3.03
238.147	3.49
238.524	3.73
238.901	2.73
239.278	2.68
239.655	3.37
240.032	3.43
240.409	2.72
240.785	2.82
241.162	2.1
241.539	2.09
241.915	2.27
242.292	2.3
242.668	2.23
243.045	2.77
243.421	3.37
243.798	3.22
244.174	3.69
244.551	3.67
244.927	3.33
245.303	3.36
245.679	3.42
246.056	3.35
246.432	3.59
246.808	3.63
247.184	3.87
247.56	3.82
247.936	4.18
248.312	4.33
248.688	4.31
249.064	4.31
249.44	4.24
249.815	4.38
250.191	4.29
250.567	4.31
250.943	4.29
251.318	3.83
251.694	3.8
252.069	3.69
252.445	3.74
252.82	4.21
253.196	4.14
253.571	4.31
253.947	4.23
254.322	3.93
254.697	4.28
255.073	3.97
255.448	3.84
255.823	3.6
256.198	3.36
256.573	3.39
256.948	3.34
257.323	3.59
257.698	3.57
258.073	3.62
258.448	3.74
258.823	3.6
259.198	3.8
259.573	3.75
259.948	3.79
260.322	3.75
260.697	3.53
261.072	3.58
261.446	3.46
261.821	3.38
262.195	3.37
262.57	3.27
262.944	3.54
263.319	3.68
263.693	3.48
264.067	3.6
264.442	3.58
264.816	3.83
265.19	3.67
265.564	3.55
265.938	3.48
266.313	3.35
266.687	3.37
267.061	3.28
267.435	3.47
267.809	3.46
268.183	3.4
268.556	3.53
268.93	3.57
269.304	3.57
269.678	3.74
270.051	3.82
270.425	3.72
270.799	3.5
271.172	3.41
271.546	3.71
271.919	3.68
272.293	3.6
272.666	3.59
273.04	3.64
273.413	3.52
273.787	3.49
274.16	3.51
274.533	3.56
274.906	3.56
275.279	3.45
275.653	3.42
276.026	3.63
276.399	3.8
276.772	3.88
277.145	3.96
277.518	3.98
277.891	3.87
278.263	4.07
278.636	4.35
279.009	4.61
279.382	4.49
279.755	4.57
280.127	4.72
280.5	4.34
280.872	4.28
281.245	4.37
281.617	4.35
281.99	4.42
282.362	4.52
282.735	4.45
283.107	4.48
283.479	4.42
283.852	4.28
284.224	4.19
284.596	4.14
284.968	4.1
285.34	4
285.713	3.94
286.085	3.81
286.457	3.63
286.829	3.33
287.201	3.31
287.572	3.27
287.944	3.27
288.316	3.48
288.688	3.6
289.06	3.64
289.431	3.71
289.803	3.73
290.175	3.5
290.546	3.56
290.918	3.58
291.289	3.53
291.661	3.61
292.032	3.53
292.403	3.4
292.775	3.35
293.146	3.51
293.517	3.61
293.889	3.69
294.26	3.79
294.631	3.99
295.002	4.05
295.373	3.99
295.744	3.92
296.115	3.97
296.486	3.85
296.857	3.84
297.228	3.77
297.599	3.71
297.97	3.79
298.34	3.71
298.711	3.8
299.082	3.74
299.452	3.69
299.823	3.65
300.194	3.73
300.564	3.6
300.935	3.62
301.305	3.5
301.676	3.37
302.046	3.15
302.416	2.94
302.787	2.76
303.157	2.72
303.527	2.75
303.897	2.8
304.267	2.86
304.637	2.93
305.008	2.97
305.378	3.02
305.748	3.02
306.117	3.1
306.487	2.96
306.857	3.12
307.227	3.23
307.597	3.32
307.967	3.4
308.336	3.51
308.706	3.53
309.076	3.65
309.445	3.65
309.815	3.67
310.184	3.74
310.554	3.81
310.923	3.86
311.293	3.81
311.662	3.76
312.031	3.73
312.401	3.68
312.77	3.72
313.139	3.67
313.508	3.72
313.877	3.69
314.246	3.65
314.616	3.68
314.985	3.61
315.353	3.54
315.722	3.55
316.091	3.69
316.46	3.53
316.829	3.56
317.198	3.65
317.567	3.85
317.935	3.79
318.304	3.91
318.672	4.03
319.041	4.05
319.41	4.05
319.778	4.06
320.147	4.09
320.515	4.09
320.883	3.96
321.252	3.89
321.62	3.99
321.988	4.05
322.357	3.91
322.725	3.8
323.093	3.91
323.461	3.9
323.829	3.84
324.197	3.89
324.565	3.94
324.933	3.91
325.301	3.68
325.669	3.77
326.037	3.7
326.405	3.53
326.772	3.48
327.14	3.49
327.508	3.49
327.875	3.35
328.243	3.33
328.61	3.38
328.978	3.37
329.346	3.31
329.713	3.3
330.08	3.39
330.448	3.54
330.815	3.69
331.182	3.6
331.55	3.49
331.917	3.41
332.284	3.29
332.651	3.28
333.018	3.42
333.385	3.34
333.752	3.38
334.119	3.45
334.486	3.53
334.853	3.43
335.22	3.3
335.587	3.26
335.954	3.26
336.32	3.28
336.687	3.36
337.054	3.37
337.42	3.43
337.787	3.37
338.153	3.33
338.52	3.15
338.886	3.14
339.253	3.22
339.619	3.41
339.986	3.42
340.352	3.52
340.718	3.58
341.084	3.53
341.451	3.61
341.817	3.53
342.183	3.42
342.549	3.5
342.915	3.6
343.281	3.71
343.647	3.65
344.013	3.72
344.379	3.69
344.745	3.67
345.11	3.54
345.476	3.64
345.842	3.6
346.208	3.67
346.573	3.61
346.939	3.57
347.304	3.46
347.67	3.43
348.035	3.34
348.401	3.28
348.766	3.32
349.132	3.33
349.497	3.41
349.862	3.55
350.228	3.45
350.593	3.48
350.958	3.49
351.323	3.61
351.688	3.62
352.053	3.69
352.418	3.69
352.783	3.7
353.148	3.7
353.513	3.6
353.878	3.55
354.243	3.67
354.608	3.77
354.972	3.79
355.337	3.84
355.702	3.82
356.066	3.88
356.431	3.94
356.795	3.88
357.16	3.84
357.524	3.78
357.889	3.83
358.253	3.7
358.618	3.69
358.982	3.67
359.346	3.65
359.71	3.6
360.075	3.66
360.439	3.73
360.803	3.77
361.167	3.8
361.531	3.78
361.895	3.79
362.259	3.73
362.623	3.73
362.987	3.71
363.351	3.76
363.714	3.72
364.078	3.76
364.442	3.74
364.806	3.82
365.169	3.82
365.533	3.84
365.896	4
366.26	4.02
366.623	3.97
366.987	3.95
367.35	3.96
367.714	3.94
368.077	4
368.44	3.92
368.803	3.99
369.167	3.99
369.53	3.88
369.893	3.96
370.256	3.94
370.619	3.93
370.982	3.87
371.345	3.92
371.708	3.85
372.071	3.89
372.434	3.89
372.797	3.88
373.159	3.8
373.522	3.69
373.885	3.68
374.247	3.71
374.61	3.78
374.973	3.8
375.335	3.8
375.698	3.78
376.06	3.86
376.423	3.82
376.785	3.84
377.147	3.85
377.51	3.8
377.872	3.79
378.234	3.8
378.596	3.8
378.958	3.79
379.321	3.82
379.683	3.77
380.045	3.7
380.407	3.77
380.769	3.78
381.13	3.83
381.492	3.81
381.854	3.79
382.216	3.79
382.578	3.77
382.939	3.75
383.301	3.72
383.663	3.68
384.024	3.64
384.386	3.68
384.747	3.72
385.109	3.72
385.47	3.73
385.832	3.69
386.193	3.74
386.554	3.7
386.916	3.71
387.277	3.71
387.638	3.76
387.999	3.67
388.36	3.7
388.721	3.68
389.082	3.7
389.443	3.73
389.804	3.72
390.165	3.75
390.526	3.79
390.887	3.78
391.248	3.76
391.609	3.87
391.969	3.83
392.33	3.82
392.691	3.79
393.051	3.77
393.412	3.8
393.772	3.78
394.133	3.8
394.493	3.83
394.854	3.85
395.214	3.83
395.574	3.89
395.935	3.91
396.295	3.93
396.655	3.93
397.015	3.95
397.376	3.95
397.736	3.94
398.096	3.89
398.456	3.89
398.816	3.9
399.176	3.84
399.535	3.84
399.895	3.85
400.255	3.86
400.615	3.91
400.975	3.92
401.334	3.93
401.694	3.94
402.054	3.88
402.413	3.85
402.773	3.86
403.132	3.86
403.492	3.84
403.851	3.85
404.211	3.87
404.57	3.85
404.929	3.82
405.288	3.84
405.648	3.87
406.007	3.87
406.366	3.87
406.725	3.89
407.084	3.89
407.443	3.92
407.802	3.95
408.161	3.93
408.52	3.93
408.879	3.93
409.238	3.92
409.596	3.97
409.955	3.98
410.314	3.98
410.673	3.99
411.031	3.99
411.39	4.01
411.748	4
412.107	3.99
412.465	4.01
412.824	3.97
413.182	3.97
413.54	3.95
413.899	3.96
414.257	3.94
414.615	3.95
414.974	3.93
415.332	3.91
415.69	3.91
416.048	3.91
416.406	3.9
416.764	3.9
417.122	3.89
417.48	3.92
417.838	3.89
418.195	3.9
418.553	3.92
418.911	3.89
419.269	3.89
419.626	3.91
419.984	3.91
420.342	3.92
420.699	3.92
421.057	3.93
421.414	3.94
421.772	3.95
422.129	3.96
422.486	3.96
422.844	3.97
423.201	3.98
423.558	3.98
423.915	3.99
424.273	4
424.63	4
424.987	4.01
425.344	4.03
425.701	4.03
426.058	4.01
426.415	4.02
426.772	4.03
427.128	4.02
427.485	4.02
427.842	4.03
428.199	4.02
428.555	4.02
428.912	4
429.269	4
429.625	3.98
429.982	4.01
430.338	4.02
430.695	4
431.051	4.01
431.407	4.02
431.764	4.01
432.12	4.02
432.476	4.01
432.832	3.97
433.189	3.94
433.545	3.99
433.901	4
434.257	3.97
434.613	3.96
434.969	3.98
435.325	3.97
435.681	3.98
436.036	3.97
436.392	3.99
436.748	4.01
437.104	4.01
437.459	4
437.815	3.98
438.171	3.99
438.526	3.99
438.882	3.99
439.237	3.99
439.593	4.01
439.948	3.99
440.304	4.02
440.659	4.03
441.014	4.02
441.369	4.02
441.725	4.05
442.08	4.07
442.435	4.05
442.79	4.04
443.145	4.04
443.5	4.04
443.855	4.02
444.21	4.01
444.565	4
444.92	3.99
445.275	3.99
445.629	4
445.984	4.02
446.339	4.03
446.693	4.04
447.048	4.01
447.403	4.02
447.757	4.02
448.112	4.01
448.466	4
448.82	4.01
449.175	4.01
449.529	4
449.883	4.01
450.238	4.02
450.592	4.04
450.946	4.07
451.3	4.09
451.654	4.07
452.008	4.08
452.362	4.08
452.716	4.08
453.07	4.07
453.424	4.06
453.778	4.03
454.132	4.02
454.486	4.04
454.839	4.04
455.193	4.05
455.547	4.05
455.9	4.06
456.254	4.06
456.607	4.08
456.961	4.1
457.314	4.1
457.668	4.09
458.021	4.07
458.375	4.05
458.728	4.03
459.081	4.05
459.434	4.06
459.787	4.08
460.141	4.09
460.494	4.1
460.847	4.11
461.2	4.12
461.553	4.13
461.906	4.12
462.259	4.12
462.611	4.13
462.964	4.15
463.317	4.14
463.67	4.15
464.022	4.14
464.375	4.12
464.728	4.12
465.08	4.13
465.433	4.15
465.785	4.17
466.138	4.22
466.49	4.23
466.843	4.24
467.195	4.23
467.547	4.2
467.899	4.21
468.252	4.21
468.604	4.23
468.956	4.24
469.308	4.25
469.66	4.25
470.012	4.22
470.364	4.22
470.716	4.23
471.068	4.21
471.42	4.21
471.772	4.2
472.123	4.21
472.475	4.21
472.827	4.21
473.178	4.22
473.53	4.19
473.882	4.18
474.233	4.17
474.585	4.17
474.936	4.2
475.288	4.16
475.639	4.16
475.99	4.16
476.342	4.14
476.693	4.14
477.044	4.15
477.395	4.17
477.746	4.17
478.097	4.16
478.448	4.19
478.8	4.2
479.15	4.21
479.501	4.2
479.852	4.2
480.203	4.2
480.554	4.2
480.905	4.22
481.255	4.21
481.606	4.23
481.957	4.23
482.307	4.24
482.658	4.26
483.009	4.25
483.359	4.25
483.709	4.26
484.06	4.26
484.41	4.27
484.761	4.27
485.111	4.27
485.461	4.27
485.811	4.27
486.162	4.28
486.512	4.28
486.862	4.28
487.212	4.29
487.562	4.29
487.912	4.29
488.262	4.28
488.612	4.29
488.961	4.29
489.311	4.28
489.661	4.28
490.011	4.27
490.36	4.28
490.71	4.27
491.06	4.27
491.409	4.27
491.759	4.26
492.108	4.25
492.458	4.25
492.807	4.24
493.157	4.24
493.506	4.22
493.855	4.21
494.204	4.22
494.554	4.21
494.903	4.24
495.252	4.22
495.601	4.24
495.95	4.24
496.299	4.25
496.648	4.25
496.997	4.27
497.346	4.29
497.695	4.3
498.043	4.31
498.392	4.32
498.741	4.33
499.09	4.34
499.438	4.35
499.787	4.38
500.135	4.41
500.484	4.4
500.832	4.42
501.181	4.43
501.529	4.46
501.878	4.47
502.226	4.47
502.574	4.5
502.923	4.49
503.271	4.48
503.619	4.48
503.967	4.48
504.315	4.48
504.663	4.47
505.011	4.47
505.359	4.45
505.707	4.45
506.055	4.44
506.403	4.44
506.751	4.45
507.098	4.46
507.446	4.45
507.794	4.45
508.141	4.43
508.489	4.42
508.837	4.4
509.184	4.38
509.531	4.39
509.879	4.39
510.226	4.41
510.574	4.43
510.921	4.43
511.268	4.44
511.616	4.45
511.963	4.46
512.31	4.46
512.657	4.49
513.004	4.48
513.351	4.47
513.698	4.5
514.045	4.48
514.392	4.48
514.739	4.49
515.086	4.51
515.432	4.54
515.779	4.53
516.126	4.55
516.473	4.57
516.819	4.55
517.166	4.54
517.512	4.55
517.859	4.54
518.205	4.53
518.552	4.54
518.898	4.52
519.245	4.51
519.591	4.51
519.937	4.51
520.283	4.54
520.629	4.53
520.976	4.52
521.322	4.51
521.668	4.49
522.014	4.49
522.36	4.5
522.706	4.48
523.052	4.49
523.398	4.48
523.743	4.48
524.089	4.48
524.435	4.49
524.781	4.49
525.126	4.51
525.472	4.54
525.817	4.54
526.163	4.55
526.509	4.55
526.854	4.54
527.199	4.54
527.545	4.54
527.89	4.56
528.235	4.57
528.581	4.58
528.926	4.58
529.271	4.58
529.616	4.58
529.961	4.59
530.306	4.59
530.651	4.59
530.996	4.6
531.341	4.62
531.686	4.62
532.031	4.61
532.376	4.6
532.721	4.58
533.065	4.59
533.41	4.59
533.755	4.59
534.099	4.6
534.444	4.59
534.788	4.6
535.133	4.59
535.477	4.57
535.822	4.58
536.166	4.59
536.51	4.6
536.855	4.62
537.199	4.62
537.543	4.63
537.887	4.64
538.231	4.62
538.576	4.6
538.92	4.6
539.264	4.61
539.608	4.63
539.951	4.64
540.295	4.64
540.639	4.63
540.983	4.63
541.327	4.65
541.671	4.68
542.014	4.69
542.358	4.67
542.701	4.67
543.045	4.67
543.389	4.68
543.732	4.69
544.075	4.68
544.419	4.67
544.762	4.67
545.105	4.69
545.449	4.72
545.792	4.71
546.135	4.72
546.478	4.72
546.821	4.72
547.165	4.7
547.508	4.7
547.851	4.71
548.194	4.7
548.536	4.69
548.879	4.66
549.222	4.64
549.565	4.65
549.908	4.65
550.25	4.64
550.593	4.61
550.936	4.57
551.278	4.55
551.621	4.56
551.963	4.53
552.306	4.55
552.648	4.51
552.991	4.54
553.333	4.56
553.675	4.54
554.017	4.53
554.36	4.52
554.702	4.52
555.044	4.52
555.386	4.53
555.728	4.54
556.07	4.52
556.412	4.53
556.754	4.53
557.096	4.52
557.438	4.52
557.78	4.5
558.121	4.56
558.463	4.56
558.805	4.58
559.147	4.57
559.488	4.53
559.83	4.56
560.171	4.52
560.513	4.51
560.854	4.52
561.196	4.53
561.537	4.58
561.878	4.58
562.22	4.56
562.561	4.59
562.902	4.56
563.243	4.6
563.584	4.59
563.925	4.61
564.266	4.63
564.607	4.64
564.948	4.62
565.289	4.59
565.63	4.6
565.971	4.59
566.312	4.57
566.653	4.57
566.993	4.55
567.334	4.6
567.675	4.58
568.015	4.57
568.356	4.56
568.696	4.54
569.037	4.52
569.377	4.54
569.718	4.52
570.058	4.55
570.398	4.55
570.739	4.55
571.079	4.53
571.419	4.55
571.759	4.55
572.099	4.58
572.439	4.59
572.779	4.57
573.119	4.59
573.459	4.63
573.799	4.65
574.139	4.68
574.479	4.69
574.819	4.68
575.158	4.7
575.498	4.7
575.838	4.7
576.177	4.71
576.517	4.7
576.856	4.71
577.196	4.69
577.535	4.68
577.875	4.68
578.214	4.67
578.553	4.63
578.893	4.69
579.232	4.67
579.571	4.68
579.91	4.7
580.25	4.69
580.589	4.64
580.928	4.64
581.267	4.62
581.606	4.59
581.945	4.61
582.283	4.6
582.622	4.62
582.961	4.64
583.3	4.65
583.639	4.64
583.977	4.62
584.316	4.64
584.654	4.68
584.993	4.7
585.332	4.73
585.67	4.77
586.008	4.74
586.347	4.77
586.685	4.78
587.024	4.76
587.362	4.76
587.7	4.81
588.038	4.85
588.376	4.85
588.715	4.86
589.053	4.86
589.391	4.84
589.729	4.84
590.067	4.84
590.404	4.86
590.742	4.86
591.08	4.87
591.418	4.89
591.756	4.89
592.093	4.84
592.431	4.82
592.769	4.83
593.106	4.79
593.444	4.83
593.781	4.83
594.119	4.86
594.456	4.86
594.793	4.85
595.131	4.85
595.468	4.89
595.805	4.91
596.143	4.88
596.48	4.88
596.817	4.84
597.154	4.85
597.491	4.85
597.828	4.87
598.165	4.85
598.502	4.81
598.839	4.8
599.176	4.85
599.512	4.84
599.849	4.8
600.186	4.82
600.523	4.77
600.859	4.75
601.196	4.77
601.532	4.79
601.869	4.74
602.205	4.72
602.542	4.7
602.878	4.67
603.215	4.73
603.551	4.75
603.887	4.76
604.223	4.77
604.56	4.77
604.896	4.79
605.232	4.81
605.568	4.83
605.904	4.82
606.24	4.83
606.576	4.86
606.912	4.87
607.248	4.89
607.583	4.9
607.919	4.93
608.255	4.88
608.591	4.89
608.926	4.92
609.262	4.91
609.597	4.94
609.933	4.95
610.268	4.91
610.604	4.9
610.939	4.93
611.275	4.89
611.61	4.88
611.945	4.87
612.281	4.86
612.616	4.84
612.951	4.87
613.286	4.82
613.621	4.81
613.956	4.85
614.291	4.85
614.626	4.86
614.961	4.85
615.296	4.97
615.631	5.01
615.966	5.01
616.3	5.04
616.635	5.04
616.97	5.04
617.304	5.09
617.639	5.13
617.973	5.11
618.308	5.13
618.642	5.14
618.977	5.12
619.311	5.15
619.646	5.13
619.98	5.21
620.314	5.21
620.648	5.22
620.983	5.18
621.317	5.16
621.651	5.15
621.985	5.07
622.319	5.03
622.653	4.99
622.987	5
623.321	4.98
623.655	4.92
623.988	4.94
624.322	4.9
624.656	4.87
624.99	4.91
625.323	4.93
625.657	4.97
625.99	4.97
626.324	4.96
626.657	4.97
626.991	4.89
627.324	4.89
627.658	4.84
627.991	4.86
628.324	4.83
628.657	4.81
628.991	4.87
629.324	4.82
629.657	4.8
629.99	4.79
630.323	4.8
630.656	4.82
630.989	4.78
631.322	4.83
631.655	4.83
631.987	4.8
632.32	4.83
632.653	4.79
632.986	4.79
633.318	4.77
633.651	4.87
633.984	4.92
634.316	4.97
634.649	5.03
634.981	5.07
635.313	5.12
635.646	5.11
635.978	5.13
636.31	5.13
636.643	5.11
636.975	5.13
637.307	5.19
637.639	5.19
637.971	5.22
638.303	5.16
638.635	5.13
638.967	5.16
639.299	5.14
639.631	5.16
639.963	5.18
640.295	5.21
640.626	5.07
640.958	5.09
641.29	5.08
641.621	5.03
641.953	4.97
642.285	5
642.616	5.06
642.948	5.02
643.279	5.02
643.61	5.06
643.942	5.07
644.273	5.05
644.604	5.03
644.936	5.02
645.267	5.07
645.598	5.1
645.929	5.05
646.26	5.05
646.591	4.99
646.922	5.08
647.253	5.08
647.584	5.14
647.915	5.14
648.245	5.19
648.576	5.22
648.907	5.27
649.238	5.17
649.568	5.11
649.899	5.15
650.229	5.2
650.56	5.14
650.89	5.1
651.221	5.03
651.551	5.04
651.882	5.03
652.212	4.96
652.542	4.94
652.872	5.04
653.203	5.03
653.533	5.09
653.863	5.04
654.193	5.07
654.523	5.03
654.853	5.04
655.183	5.02
655.513	5.03
655.843	4.96
656.172	5.02
656.502	5.13
656.832	5.12
657.162	5.12
657.491	5.17
657.821	5.2
658.15	5.24
658.48	5.26
658.809	5.34
659.139	5.4
659.468	5.39
659.798	5.34
660.127	5.38
660.456	5.32
660.785	5.28
661.115	5.31
661.444	5.3
661.773	5.24
662.102	5.18
662.431	5.21
662.76	5.24
663.089	5.25
663.418	5.16
663.747	5.18
664.076	5.21
664.404	5.23
664.733	5.2
665.062	5.28
665.39	5.2
665.719	5.11
666.048	5.13
666.376	5.09
666.705	5.12
667.033	5.05
667.362	5.1
667.69	5.15
668.018	5.09
668.347	5.08
668.675	5.12
669.003	5.15
669.331	5.14
669.659	5.13
669.987	5.07
670.315	5.08
670.643	5.1
670.971	5.11
671.299	5.07
671.627	5.1
671.955	5.04
672.283	5.12
672.61	5.13
672.938	5.14
673.266	5.3
673.593	5.26
673.921	5.3
674.249	5.36
674.576	5.39
674.904	5.38
675.231	5.47
675.558	5.47
675.886	5.38
676.213	5.34
676.54	5.38
676.867	5.38
677.195	5.43
677.522	5.43
