Data from MVZ_BU165823_Reflection_00015.txt Node
Date: Tue Nov 19 12:10:46 EST 2019
User: vgr7
Spectrometer: USB2G7710
Scans to average: 3
Trigger mode: 4
Integration Time (sec): 2.000000E-2
Electric dark correction enabled: true
Boxcar width: 10
XAxis mode: Wavelengths
Number of Pixels in Spectrum: 2048
>>>>>Begin Spectral Data<<<<<
177.721	52.83
178.105	76.96
178.488	36.4
178.871	26.45
179.254	46.81
179.636	72.91
180.019	65.15
180.402	-75
180.785	-55.74
181.168	-69.92
181.55	-52.36
181.933	-74.09
182.316	102.89
182.698	4236.36
183.081	256.93
183.463	-214.43
183.846	-828.57
184.228	-160.53
184.611	-77.69
184.993	-58.88
185.376	-47.51
185.758	-45.47
186.14	-51.88
186.522	-44.63
186.904	-50.65
187.287	-43.27
187.669	-35.27
188.051	-33.8
188.433	-52.08
188.815	-42.57
189.197	-46.47
189.579	-47.22
189.961	-57.62
190.342	-45.94
190.724	-51.6
191.106	-58.39
191.488	-68.7
191.869	-28.05
192.251	-15.14
192.633	-1.55
193.014	5.59
193.396	0.45
193.777	9.86
194.159	9.18
194.54	4.99
194.922	16.75
195.303	-1.29
195.684	-9.94
196.065	-22.82
196.447	-28.87
196.828	-65.83
197.209	-63.14
197.59	-65.73
197.971	-68.29
198.352	-62.4
198.733	-76.08
199.114	-50.67
199.495	-66.16
199.876	-99.31
200.257	-160.84
200.638	-179.08
201.018	-187.4
201.399	-235.07
201.78	-137.62
202.16	-108.67
202.541	-99.71
202.922	-102.53
203.302	-66.94
203.683	-57.14
204.063	-56.12
204.444	-54.59
204.824	-30.77
205.204	-35.45
205.585	-29.76
205.965	-19.7
206.345	-22.6
206.725	-28.54
207.106	-30.22
207.486	-27.85
207.866	-29.4
208.246	-11.14
208.626	-19.79
209.006	-28.72
209.386	-37.49
209.766	-45.92
210.145	-57.98
210.525	-77.97
210.905	-66.41
211.285	-84.4
211.664	-81.73
212.044	-83.06
212.424	-66.02
212.803	-92.05
213.183	-86.12
213.562	-92.24
213.942	-83.91
214.321	-84.95
214.701	-83.18
215.08	-93.24
215.459	-93.61
215.838	-75.25
216.218	-93.33
216.597	-96.23
216.976	-94.14
217.355	-63.93
217.734	-131.3
218.113	-88.11
218.492	-83.78
218.871	-75.41
219.25	-72.48
219.629	-86.25
220.008	-70.76
220.387	-92.83
220.766	-81.68
221.144	-90.1
221.523	-114.71
221.902	-105
222.28	-102.51
222.659	-61.72
223.037	-58.95
223.416	-48.81
223.794	-48.93
224.173	-57.8
224.551	-45.6
224.929	-41.33
225.308	-28.93
225.686	-17.02
226.064	-9.9
226.442	-3.18
226.821	-3.45
227.199	2.95
227.577	2.71
227.955	-1
228.333	-0.64
228.711	5.14
229.089	7.47
229.467	4.66
229.845	1.89
230.222	0.22
230.6	-0.18
230.978	-0.23
231.356	-0.34
231.733	1.02
232.111	3.56
232.488	1.35
232.866	1.03
233.243	-1.19
233.621	0.5
233.998	0.85
234.376	0.52
234.753	0.59
235.13	-0.95
235.508	-1.51
235.885	-0.35
236.262	-1.87
236.639	-4.48
237.016	-3.27
237.393	-0.94
237.77	-0.32
238.147	-0.22
238.524	0.85
238.901	0.3
239.278	0.39
239.655	0.61
240.032	0.3
240.409	0.48
240.785	0.5
241.162	0.45
241.539	-0.03
241.915	-0.38
242.292	0.29
242.668	0.69
243.045	1.1
243.421	1.92
243.798	2.06
244.174	2.5
244.551	3
244.927	2.9
245.303	2.67
245.679	2.89
246.056	2.99
246.432	2.74
246.808	2.94
247.184	2.99
247.56	2.72
247.936	2.96
248.312	3.16
248.688	3.18
249.064	3.09
249.44	2.98
249.815	3.11
250.191	3.01
250.567	2.99
250.943	3.11
251.318	2.77
251.694	2.46
252.069	2.69
252.445	2.6
252.82	3.07
253.196	3.29
253.571	2.69
253.947	2.84
254.322	2.77
254.697	2.63
255.073	2.66
255.448	2.91
255.823	3.09
256.198	3.18
256.573	3.11
256.948	3.59
257.323	3.85
257.698	3.89
258.073	3.87
258.448	3.62
258.823	3.46
259.198	3.53
259.573	3.47
259.948	3.23
260.322	3.16
260.697	3.06
261.072	3.01
261.446	3.2
261.821	3
262.195	2.94
262.57	3.02
262.944	2.92
263.319	2.91
263.693	2.71
264.067	2.79
264.442	2.77
264.816	2.71
265.19	2.66
265.564	2.33
265.938	2.53
266.313	2.56
266.687	2.53
267.061	2.48
267.435	2.9
267.809	3.07
268.183	2.9
268.556	2.69
268.93	2.76
269.304	2.82
269.678	2.98
270.051	3.19
270.425	3.08
270.799	3.14
271.172	2.99
271.546	3.08
271.919	2.96
272.293	3.09
272.666	2.98
273.04	2.87
273.413	3.11
273.787	2.94
274.16	2.9
274.533	2.96
274.906	2.99
275.279	2.77
275.653	2.74
276.026	3.03
276.399	3.03
276.772	2.95
277.145	2.91
277.518	2.82
277.891	2.71
278.263	2.92
278.636	3.06
279.009	3.14
279.382	3.03
279.755	3.11
280.127	2.93
280.5	2.91
280.872	3.02
281.245	3.16
281.617	3.36
281.99	3.38
282.362	3.38
282.735	3.37
283.107	3.28
283.479	3.33
283.852	3.25
284.224	3.37
284.596	3.47
284.968	3.56
285.34	3.61
285.713	3.72
286.085	3.69
286.457	3.73
286.829	3.86
287.201	3.82
287.572	3.81
287.944	3.95
288.316	3.96
288.688	4.01
289.06	3.98
289.431	3.93
289.803	3.94
290.175	3.84
290.546	3.87
290.918	4.03
291.289	3.9
291.661	4.01
292.032	4.01
292.403	3.99
292.775	4.11
293.146	4.24
293.517	4.3
293.889	4.27
294.26	4.29
294.631	4.36
295.002	4.47
295.373	4.45
295.744	4.48
296.115	4.55
296.486	4.51
296.857	4.52
297.228	4.45
297.599	4.47
297.97	4.67
298.34	4.71
298.711	4.73
299.082	4.84
299.452	4.86
299.823	4.87
300.194	5.01
300.564	4.84
300.935	4.82
301.305	4.72
301.676	4.73
302.046	4.77
302.416	4.77
302.787	4.84
303.157	4.81
303.527	4.79
303.897	4.79
304.267	4.91
304.637	4.96
305.008	5.11
305.378	5.36
305.748	5.39
306.117	5.58
306.487	5.66
306.857	5.82
307.227	6.02
307.597	5.96
307.967	5.89
308.336	6.06
308.706	6.16
309.076	6.22
309.445	6.37
309.815	6.36
310.184	6.43
310.554	6.44
310.923	6.53
311.293	6.54
311.662	6.63
312.031	6.75
312.401	6.7
312.77	6.67
313.139	6.57
313.508	6.57
313.877	6.6
314.246	6.52
314.616	6.49
314.985	6.45
315.353	6.7
315.722	7.03
316.091	7.02
316.46	7.03
316.829	7.07
317.198	7.07
317.567	7.12
317.935	7.12
318.304	7.29
318.672	7.25
319.041	7.42
319.41	7.49
319.778	7.45
320.147	7.57
320.515	7.61
320.883	7.77
321.252	7.87
321.62	7.89
321.988	8.19
322.357	8.31
322.725	8.36
323.093	8.43
323.461	8.19
323.829	8.23
324.197	8.22
324.565	8.26
324.933	8.24
325.301	8.21
325.669	8.16
326.037	8.28
326.405	8.37
326.772	8.53
327.14	8.41
327.508	8.53
327.875	8.62
328.243	8.76
328.61	8.78
328.978	8.8
329.346	8.92
329.713	9.02
330.08	8.88
330.448	8.81
330.815	8.73
331.182	8.83
331.55	8.94
331.917	8.93
332.284	9.05
332.651	9.09
333.018	9.13
333.385	9.19
333.752	9.09
334.119	9.29
334.486	9.21
334.853	9.23
335.22	9.05
335.587	9.06
335.954	9.05
336.32	8.96
336.687	9.18
337.054	9.13
337.42	9
337.787	9.16
338.153	9.25
338.52	9.37
338.886	9.51
339.253	9.47
339.619	9.57
339.986	9.61
340.352	9.66
340.718	9.82
341.084	10.06
341.451	10.14
341.817	10.11
342.183	10.09
342.549	10.29
342.915	10.52
343.281	10.51
343.647	10.47
344.013	10.59
344.379	10.47
344.745	10.54
345.11	10.48
345.476	10.46
345.842	10.4
346.208	10.45
346.573	10.39
346.939	10.57
347.304	10.55
347.67	10.45
348.035	10.44
348.401	10.32
348.766	10.07
349.132	10.13
349.497	10.13
349.862	10.08
350.228	9.94
350.593	9.86
350.958	9.9
351.323	9.88
351.688	9.79
352.053	9.82
352.418	9.74
352.783	9.87
353.148	9.92
353.513	9.95
353.878	9.8
354.243	9.69
354.608	9.5
354.972	9.38
355.337	9.51
355.702	9.53
356.066	9.58
356.431	9.57
356.795	9.49
357.16	9.35
357.524	9.39
357.889	9.4
358.253	9.32
358.618	9.24
358.982	9.28
359.346	9.25
359.71	9.2
360.075	9.18
360.439	9.04
360.803	9.02
361.167	9
361.531	9
361.895	9.02
362.259	9.1
362.623	9.1
362.987	9.01
363.351	8.98
363.714	8.91
364.078	8.93
364.442	8.86
364.806	8.84
365.169	8.76
365.533	8.7
365.896	8.77
366.26	8.68
366.623	8.58
366.987	8.56
367.35	8.53
367.714	8.49
368.077	8.46
368.44	8.43
368.803	8.32
369.167	8.35
369.53	8.29
369.893	8.17
370.256	8.13
370.619	8.07
370.982	7.99
371.345	7.97
371.708	7.92
372.071	7.84
372.434	7.83
372.797	7.84
373.159	7.83
373.522	7.77
373.885	7.75
374.247	7.78
374.61	7.75
374.973	7.66
375.335	7.62
375.698	7.5
376.06	7.35
376.423	7.36
376.785	7.31
377.147	7.27
377.51	7.14
377.872	7.11
378.234	7.09
378.596	7.1
378.958	7.05
379.321	6.94
379.683	6.93
380.045	6.89
380.407	6.8
380.769	6.69
381.13	6.6
381.492	6.57
381.854	6.47
382.216	6.43
382.578	6.37
382.939	6.34
383.301	6.39
383.663	6.35
384.024	6.25
384.386	6.14
384.747	6.09
385.109	6.07
385.47	6.07
385.832	6.04
386.193	5.95
386.554	5.89
386.916	5.87
387.277	5.8
387.638	5.77
387.999	5.71
388.36	5.72
388.721	5.71
389.082	5.65
389.443	5.61
389.804	5.58
390.165	5.55
390.526	5.52
390.887	5.49
391.248	5.47
391.609	5.51
391.969	5.52
392.33	5.49
392.691	5.47
393.051	5.4
393.412	5.39
393.772	5.36
394.133	5.34
394.493	5.34
394.854	5.36
395.214	5.33
395.574	5.3
395.935	5.27
396.295	5.18
396.655	5.15
397.015	5.14
397.376	5.11
397.736	5.07
398.096	4.98
398.456	4.89
398.816	4.81
399.176	4.7
399.535	4.62
399.895	4.58
400.255	4.57
400.615	4.54
400.975	4.47
401.334	4.48
401.694	4.43
402.054	4.37
402.413	4.3
402.773	4.28
403.132	4.24
403.492	4.2
403.851	4.2
404.211	4.19
404.57	4.13
404.929	4.1
405.288	4.11
405.648	4.09
406.007	4.13
406.366	4.15
406.725	4.15
407.084	4.14
407.443	4.15
407.802	4.11
408.161	4.1
408.52	4.07
408.879	4.01
409.238	4
409.596	4
409.955	4
410.314	3.98
410.673	4
411.031	3.97
411.39	3.95
411.748	3.95
412.107	3.95
412.465	3.93
412.824	3.89
413.182	3.87
413.54	3.86
413.899	3.85
414.257	3.85
414.615	3.82
414.974	3.8
415.332	3.82
415.69	3.81
416.048	3.81
416.406	3.81
416.764	3.8
417.122	3.79
417.48	3.76
417.838	3.76
418.195	3.74
418.553	3.75
418.911	3.74
419.269	3.74
419.626	3.71
419.984	3.7
420.342	3.71
420.699	3.71
421.057	3.68
421.414	3.66
421.772	3.65
422.129	3.63
422.486	3.64
422.844	3.61
423.201	3.6
423.558	3.58
423.915	3.57
424.273	3.57
424.63	3.56
424.987	3.58
425.344	3.57
425.701	3.56
426.058	3.54
426.415	3.52
426.772	3.5
427.128	3.5
427.485	3.51
427.842	3.46
428.199	3.44
428.555	3.43
428.912	3.44
429.269	3.43
429.625	3.44
429.982	3.42
430.338	3.44
430.695	3.42
431.051	3.43
431.407	3.44
431.764	3.44
432.12	3.44
432.476	3.41
432.832	3.38
433.189	3.34
433.545	3.35
433.901	3.34
434.257	3.33
434.613	3.3
434.969	3.27
435.325	3.28
435.681	3.28
436.036	3.29
436.392	3.27
436.748	3.27
437.104	3.28
437.459	3.28
437.815	3.26
438.171	3.29
438.526	3.3
438.882	3.28
439.237	3.28
439.593	3.28
439.948	3.29
440.304	3.31
440.659	3.34
441.014	3.34
441.369	3.35
441.725	3.35
442.08	3.35
442.435	3.35
442.79	3.35
443.145	3.35
443.5	3.36
443.855	3.35
444.21	3.35
444.565	3.35
444.92	3.37
445.275	3.37
445.629	3.35
445.984	3.34
446.339	3.34
446.693	3.34
447.048	3.31
447.403	3.3
447.757	3.29
448.112	3.29
448.466	3.29
448.82	3.29
449.175	3.28
449.529	3.28
449.883	3.26
450.238	3.26
450.592	3.27
450.946	3.24
451.3	3.26
451.654	3.23
452.008	3.22
452.362	3.18
452.716	3.18
453.07	3.16
453.424	3.16
453.778	3.16
454.132	3.13
454.486	3.15
454.839	3.15
455.193	3.16
455.547	3.15
455.9	3.14
456.254	3.14
456.607	3.16
456.961	3.17
457.314	3.2
457.668	3.2
458.021	3.19
458.375	3.2
458.728	3.2
459.081	3.22
459.434	3.22
459.787	3.21
460.141	3.2
460.494	3.21
460.847	3.21
461.2	3.2
461.553	3.2
461.906	3.21
462.259	3.19
462.611	3.19
462.964	3.2
463.317	3.21
463.67	3.22
464.022	3.21
464.375	3.23
464.728	3.21
465.08	3.2
465.433	3.21
465.785	3.21
466.138	3.22
466.49	3.22
466.843	3.23
467.195	3.25
467.547	3.25
467.899	3.26
468.252	3.26
468.604	3.28
468.956	3.32
469.308	3.31
469.66	3.34
470.012	3.35
470.364	3.33
470.716	3.35
471.068	3.36
471.42	3.39
471.772	3.39
472.123	3.43
472.475	3.44
472.827	3.45
473.178	3.46
473.53	3.48
473.882	3.49
474.233	3.53
474.585	3.53
474.936	3.56
475.288	3.56
475.639	3.55
475.99	3.55
476.342	3.55
476.693	3.56
477.044	3.56
477.395	3.56
477.746	3.57
478.097	3.52
478.448	3.52
478.8	3.52
479.15	3.49
479.501	3.47
479.852	3.47
480.203	3.48
480.554	3.47
480.905	3.45
481.255	3.45
481.606	3.44
481.957	3.43
482.307	3.43
482.658	3.43
483.009	3.44
483.359	3.45
483.709	3.45
484.06	3.45
484.41	3.44
484.761	3.44
485.111	3.45
485.461	3.45
485.811	3.45
486.162	3.44
486.512	3.45
486.862	3.45
487.212	3.45
487.562	3.44
487.912	3.45
488.262	3.46
488.612	3.45
488.961	3.45
489.311	3.45
489.661	3.44
490.011	3.44
490.36	3.44
490.71	3.42
491.06	3.43
491.409	3.43
491.759	3.45
492.108	3.45
492.458	3.43
492.807	3.44
493.157	3.44
493.506	3.46
493.855	3.46
494.204	3.46
494.554	3.47
494.903	3.5
495.252	3.5
495.601	3.52
495.95	3.53
496.299	3.56
496.648	3.6
496.997	3.62
497.346	3.65
497.695	3.66
498.043	3.7
498.392	3.71
498.741	3.73
499.09	3.77
499.438	3.8
499.787	3.84
500.135	3.88
500.484	3.94
500.832	3.98
501.181	4.02
501.529	4.08
501.878	4.12
502.226	4.14
502.574	4.19
502.923	4.23
503.271	4.31
503.619	4.36
503.967	4.37
504.315	4.44
504.663	4.49
505.011	4.54
505.359	4.56
505.707	4.61
506.055	4.67
506.403	4.71
506.751	4.77
507.098	4.83
507.446	4.9
507.794	4.98
508.141	5.02
508.489	5.08
508.837	5.15
509.184	5.22
509.531	5.31
509.879	5.38
510.226	5.45
510.574	5.51
510.921	5.58
511.268	5.69
511.616	5.78
511.963	5.87
512.31	5.96
512.657	6.07
513.004	6.17
513.351	6.27
513.698	6.38
514.045	6.51
514.392	6.64
514.739	6.76
515.086	6.9
515.432	7.03
515.779	7.15
516.126	7.28
516.473	7.4
516.819	7.5
517.166	7.62
517.512	7.71
517.859	7.82
518.205	7.91
518.552	8.01
518.898	8.1
519.245	8.22
519.591	8.35
519.937	8.45
520.283	8.57
520.629	8.67
520.976	8.79
521.322	8.91
521.668	9.02
522.014	9.14
522.36	9.28
522.706	9.43
523.052	9.59
523.398	9.74
523.743	9.91
524.089	10.08
524.435	10.23
524.781	10.38
525.126	10.53
525.472	10.67
525.817	10.78
526.163	10.87
526.509	10.98
526.854	11.1
527.199	11.21
527.545	11.29
527.89	11.39
528.235	11.48
528.581	11.56
528.926	11.66
529.271	11.75
529.616	11.83
529.961	11.92
530.306	12.02
530.651	12.12
530.996	12.23
531.341	12.34
531.686	12.46
532.031	12.58
532.376	12.71
532.721	12.85
533.065	12.98
533.41	13.13
533.755	13.28
534.099	13.4
534.444	13.53
534.788	13.67
535.133	13.82
535.477	13.98
535.822	14.15
536.166	14.32
536.51	14.49
536.855	14.69
537.199	14.88
537.543	15.09
537.887	15.27
538.231	15.48
538.576	15.71
538.92	15.9
539.264	16.09
539.608	16.27
539.951	16.45
540.295	16.65
540.639	16.82
540.983	16.98
541.327	17.14
541.671	17.31
542.014	17.51
542.358	17.67
542.701	17.86
543.045	18.02
543.389	18.18
543.732	18.36
544.075	18.53
544.419	18.74
544.762	18.93
545.105	19.19
545.449	19.4
545.792	19.61
546.135	19.84
546.478	20.11
546.821	20.34
547.165	20.61
547.508	20.86
547.851	21.1
548.194	21.36
548.536	21.62
548.879	21.91
549.222	22.18
549.565	22.49
549.908	22.74
550.25	22.98
550.593	23.34
550.936	23.65
551.278	23.96
551.621	24.26
551.963	24.57
552.306	24.83
552.648	25.15
552.991	25.48
553.333	25.79
553.675	26.05
554.017	26.3
554.36	26.57
554.702	26.84
555.044	27.22
555.386	27.53
555.728	27.8
556.07	28.11
556.412	28.38
556.754	28.65
557.096	28.97
557.438	29.33
557.78	29.63
558.121	29.92
558.463	30.2
558.805	30.46
559.147	30.76
559.488	31.04
559.83	31.3
560.171	31.55
560.513	31.82
560.854	32.13
561.196	32.43
561.537	32.7
561.878	32.97
562.22	33.2
562.561	33.49
562.902	33.78
563.243	34.08
563.584	34.35
563.925	34.62
564.266	34.87
564.607	35.12
564.948	35.39
565.289	35.64
565.63	35.92
565.971	36.18
566.312	36.41
566.653	36.64
566.993	36.89
567.334	37.11
567.675	37.41
568.015	37.67
568.356	37.92
568.696	38.21
569.037	38.53
569.377	38.77
569.718	39
570.058	39.24
570.398	39.43
570.739	39.69
571.079	39.91
571.419	40.13
571.759	40.35
572.099	40.56
572.439	40.82
572.779	40.94
573.119	41.17
573.459	41.34
573.799	41.54
574.139	41.78
574.479	42.01
574.819	42.15
575.158	42.36
575.498	42.59
575.838	42.84
576.177	42.94
576.517	43.14
576.856	43.35
577.196	43.55
577.535	43.77
577.875	43.93
578.214	44.16
578.553	44.42
578.893	44.64
579.232	44.85
579.571	44.99
579.91	45.26
580.25	45.4
580.589	45.65
580.928	45.86
581.267	45.92
581.606	46.09
581.945	46.29
582.283	46.42
582.622	46.6
582.961	46.72
583.3	46.92
583.639	47.03
583.977	47.15
584.316	47.3
584.654	47.45
584.993	47.56
585.332	47.73
585.67	47.76
586.008	47.92
586.347	48
586.685	48.19
587.024	48.29
587.362	48.46
587.7	48.61
588.038	48.68
588.376	48.87
588.715	48.98
589.053	49.08
589.391	49.22
589.729	49.31
590.067	49.37
590.404	49.51
590.742	49.67
591.08	49.77
591.418	49.91
591.756	50.04
592.093	50.2
592.431	50.38
592.769	50.5
593.106	50.55
593.444	50.65
593.781	50.73
594.119	50.83
594.456	50.92
594.793	50.94
595.131	51.1
595.468	51.23
595.805	51.29
596.143	51.37
596.48	51.45
596.817	51.53
597.154	51.65
597.491	51.71
597.828	51.8
598.165	51.93
598.502	51.98
598.839	52.04
599.176	52.15
599.512	52.17
599.849	52.25
600.186	52.36
600.523	52.42
600.859	52.49
601.196	52.58
601.532	52.69
601.869	52.78
602.205	52.79
602.542	52.82
602.878	52.99
603.215	53.11
603.551	53.13
603.887	53.21
604.223	53.22
604.56	53.25
604.896	53.34
605.232	53.42
605.568	53.57
605.904	53.53
606.24	53.59
606.576	53.62
606.912	53.76
607.248	53.77
607.583	53.82
607.919	53.89
608.255	53.94
608.591	54
608.926	54.07
609.262	54.14
609.597	54.2
609.933	54.2
610.268	54.2
610.604	54.2
610.939	54.2
611.275	54.27
611.61	54.35
611.945	54.29
612.281	54.33
612.616	54.36
612.951	54.48
613.286	54.49
613.621	54.57
613.956	54.56
614.291	54.63
614.626	54.78
614.961	54.87
615.296	54.87
615.631	54.83
615.966	54.9
616.3	55.02
616.635	55.09
616.97	55.06
617.304	55.14
617.639	55.35
617.973	55.33
618.308	55.38
618.642	55.44
618.977	55.51
619.311	55.46
619.646	55.41
619.98	55.47
620.314	55.49
620.648	55.53
620.983	55.54
621.317	55.64
621.651	55.58
621.985	55.58
622.319	55.75
622.653	55.69
622.987	55.71
623.321	55.66
623.655	55.71
623.988	55.81
624.322	55.88
624.656	55.85
624.99	55.97
625.323	55.97
625.657	55.87
625.99	55.92
626.324	56.01
626.657	56.05
626.991	56.16
627.324	56.25
627.658	56.22
627.991	56.33
628.324	56.31
628.657	56.37
628.991	56.34
629.324	56.31
629.657	56.41
629.99	56.42
630.323	56.45
630.656	56.5
630.989	56.47
631.322	56.42
631.655	56.46
631.987	56.38
632.32	56.43
632.653	56.48
632.986	56.51
633.318	56.54
633.651	56.53
633.984	56.49
634.316	56.47
634.649	56.56
634.981	56.57
635.313	56.6
635.646	56.56
635.978	56.65
636.31	56.69
636.643	56.71
636.975	56.66
637.307	56.6
637.639	56.55
637.971	56.64
638.303	56.67
638.635	56.64
638.967	56.71
639.299	56.72
639.631	56.87
639.963	56.94
640.295	56.95
640.626	56.87
640.958	56.85
641.29	56.9
641.621	56.85
641.953	56.73
642.285	56.75
642.616	56.78
642.948	56.79
643.279	56.83
643.61	56.95
643.942	57.02
644.273	57.07
644.604	57.08
644.936	57.03
645.267	57.03
645.598	57.11
645.929	57.24
646.26	57.29
646.591	57.28
646.922	57.31
647.253	57.32
647.584	57.38
647.915	57.35
648.245	57.26
648.576	57.39
648.907	57.48
649.238	57.44
649.568	57.52
649.899	57.45
650.229	57.42
650.56	57.42
650.89	57.53
651.221	57.66
651.551	57.62
651.882	57.71
652.212	57.75
652.542	57.8
652.872	57.67
653.203	57.67
653.533	57.72
653.863	57.66
654.193	57.64
654.523	57.8
654.853	57.89
655.183	57.96
655.513	57.95
655.843	58.05
656.172	58.19
656.502	58.18
656.832	58.31
657.162	58.25
657.491	58.14
657.821	57.99
658.15	57.93
658.48	57.99
658.809	58.07
659.139	57.96
659.468	57.81
659.798	57.85
660.127	57.83
660.456	57.75
660.785	57.8
661.115	57.8
661.444	57.72
661.773	57.64
662.102	57.68
662.431	57.65
662.76	57.63
663.089	57.56
663.418	57.53
663.747	57.52
664.076	57.61
664.404	57.71
664.733	57.88
665.062	57.86
665.39	57.8
665.719	57.58
666.048	57.62
666.376	57.68
666.705	57.71
