Data from MVZ_BU136690_Reflection_00005.txt Node
Date: Tue Nov 19 12:07:56 EST 2019
User: vgr7
Spectrometer: USB2G7710
Scans to average: 3
Trigger mode: 4
Integration Time (sec): 2.000000E-2
Electric dark correction enabled: true
Boxcar width: 10
XAxis mode: Wavelengths
Number of Pixels in Spectrum: 2048
>>>>>Begin Spectral Data<<<<<
177.721	123.6
178.105	34.31
178.488	214.41
178.871	254.29
179.254	140.91
179.636	11.07
180.019	-85.78
180.402	54.55
180.785	35.71
181.168	121.03
181.55	20.28
181.933	-11.97
182.316	-34.68
182.698	-80.76
183.081	-292.44
183.463	-263.81
183.846	-123.62
184.228	-658.15
184.611	1518.48
184.993	544.23
185.376	-2223.17
185.758	800.55
186.14	378.57
186.522	1756.98
186.904	2331.25
187.287	1078.66
187.669	454.88
188.051	1023.78
188.433	1060.37
188.815	1535.34
189.197	689.29
189.579	207.9
189.961	127.87
190.342	111.84
190.724	84.46
191.106	96.73
191.488	115.68
191.869	106.67
192.251	83.06
192.633	76.56
193.014	103.47
193.396	88.24
193.777	123.44
194.159	167.47
194.54	115.02
194.922	118.29
195.303	130.22
195.684	130.5
196.065	154.36
196.447	152.85
196.828	137.89
197.209	135.17
197.59	181.41
197.971	172.58
198.352	175.68
198.733	196.66
199.114	256.12
199.495	323.61
199.876	472.07
200.257	428.89
200.638	334.76
201.018	310.49
201.399	245.52
201.78	189.12
202.16	192.93
202.541	239.4
202.922	270.58
203.302	207.93
203.683	270.69
204.063	136.21
204.444	112.64
204.824	93.48
205.204	60.53
205.585	64.44
205.965	30.16
206.345	11.14
206.725	-3.54
207.106	60.33
207.486	52.27
207.866	34.72
208.246	102.04
208.626	91.31
209.006	196.28
209.386	161.3
209.766	255.77
210.145	127.14
210.525	109.57
210.905	81.46
211.285	151.3
211.664	120.9
212.044	143.16
212.424	132.65
212.803	148.73
213.183	149.24
213.562	126.05
213.942	132.31
214.321	104.69
214.701	118.45
215.08	78.34
215.459	79.29
215.838	73.28
216.218	77.12
216.597	76.62
216.976	81.03
217.355	82.82
217.734	116.06
218.113	129.86
218.492	130.94
218.871	133.22
219.25	83.67
219.629	67.35
220.008	70.95
220.387	77.5
220.766	79.85
221.144	107.87
221.523	118.63
221.902	123.83
222.28	164.29
222.659	138.9
223.037	127.75
223.416	102.15
223.794	103.54
224.173	96.7
224.551	75.67
224.929	57.38
225.308	57.81
225.686	46.67
226.064	43.48
226.442	36.24
226.821	32.02
227.199	35.58
227.577	39.34
227.955	34.6
228.333	29.11
228.711	23.75
229.089	19.64
229.467	17.09
229.845	13.84
230.222	8.83
230.6	5.41
230.978	6.21
231.356	11.72
231.733	13.62
232.111	10.24
232.488	11.41
232.866	15.39
233.243	15.37
233.621	15.67
233.998	14.82
234.376	14.8
234.753	14.53
235.13	13.5
235.508	13.17
235.885	12.68
236.262	14.85
236.639	16.33
237.016	15.25
237.393	15.17
237.77	16.46
238.147	16.41
238.524	15.34
238.901	13.55
239.278	10.95
239.655	9.17
240.032	8.91
240.409	9.26
240.785	8.02
241.162	7.74
241.539	7.06
241.915	6.5
242.292	6.62
242.668	6.33
243.045	6.66
243.421	6.18
243.798	5.88
244.174	5.46
244.551	5.04
244.927	5.32
245.303	5.21
245.679	4.96
246.056	4.6
246.432	4.62
246.808	4.83
247.184	5.19
247.56	5.22
247.936	5.17
248.312	4.8
248.688	4.81
249.064	4.9
249.44	5.03
249.815	5.07
250.191	5.13
250.567	5.04
250.943	5.08
251.318	5.07
251.694	5.31
252.069	5.58
252.445	5.86
252.82	5.86
253.196	5.8
253.571	6.05
253.947	6.2
254.322	6.16
254.697	6.19
255.073	5.93
255.448	5.85
255.823	5.75
256.198	5.77
256.573	5.93
256.948	5.69
257.323	5.67
257.698	5.71
258.073	5.53
258.448	5.6
258.823	5.25
259.198	5.19
259.573	4.93
259.948	4.81
260.322	4.76
260.697	4.69
261.072	4.86
261.446	4.77
261.821	4.7
262.195	4.68
262.57	4.58
262.944	4.57
263.319	4.58
263.693	4.53
264.067	4.77
264.442	4.89
264.816	4.81
265.19	4.75
265.564	4.76
265.938	4.81
266.313	4.67
266.687	4.78
267.061	4.85
267.435	4.98
267.809	4.97
268.183	5.24
268.556	5.18
268.93	5.23
269.304	5.06
269.678	5.05
270.051	4.97
270.425	4.94
270.799	4.7
271.172	4.66
271.546	4.78
271.919	4.51
272.293	4.35
272.666	4.5
273.04	4.48
273.413	4.36
273.787	4.47
274.16	4.45
274.533	4.48
274.906	4.48
275.279	4.43
275.653	4.43
276.026	4.04
276.399	3.98
276.772	3.98
277.145	4.29
277.518	4.27
277.891	4.58
278.263	4.67
278.636	4.89
279.009	4.95
279.382	4.98
279.755	4.96
280.127	4.93
280.5	4.91
280.872	4.8
281.245	4.89
281.617	4.79
281.99	4.74
282.362	4.78
282.735	4.91
283.107	4.93
283.479	4.96
283.852	5.03
284.224	5.03
284.596	4.91
284.968	4.73
285.34	4.63
285.713	4.51
286.085	4.52
286.457	4.49
286.829	4.46
287.201	4.39
287.572	4.45
287.944	4.61
288.316	4.5
288.688	4.7
289.06	4.68
289.431	4.72
289.803	4.74
290.175	4.7
290.546	4.65
290.918	4.68
291.289	4.45
291.661	4.39
292.032	4.39
292.403	4.43
292.775	4.39
293.146	4.56
293.517	4.56
293.889	4.53
294.26	4.64
294.631	4.68
295.002	4.64
295.373	4.55
295.744	4.28
296.115	4.34
296.486	4.29
296.857	4.33
297.228	4.09
297.599	4.16
297.97	4.27
298.34	4.21
298.711	4.15
299.082	4.33
299.452	4.3
299.823	4.27
300.194	4.28
300.564	4.33
300.935	4.39
301.305	4.27
301.676	4.17
302.046	3.95
302.416	3.96
302.787	4.01
303.157	4.03
303.527	4.32
303.897	4.24
304.267	4.11
304.637	4.15
305.008	4.38
305.378	4.41
305.748	4.29
306.117	4.18
306.487	4.23
306.857	4.32
307.227	4.49
307.597	4.64
307.967	4.57
308.336	4.57
308.706	4.45
309.076	4.58
309.445	4.74
309.815	4.84
310.184	4.82
310.554	4.76
310.923	4.8
311.293	4.62
311.662	4.75
312.031	4.74
312.401	4.67
312.77	4.63
313.139	4.74
313.508	4.66
313.877	4.86
314.246	4.84
314.616	4.89
314.985	4.79
315.353	4.66
315.722	4.73
316.091	4.65
316.46	4.75
316.829	4.67
317.198	4.51
317.567	4.64
317.935	4.77
318.304	4.88
318.672	4.88
319.041	4.89
319.41	4.91
319.778	5.15
320.147	5.15
320.515	5.18
320.883	4.99
321.252	5.16
321.62	5.12
321.988	5.17
322.357	5.1
322.725	5.11
323.093	4.95
323.461	4.82
323.829	5.02
324.197	4.86
324.565	4.93
324.933	5.04
325.301	4.88
325.669	4.74
326.037	4.78
326.405	4.93
326.772	4.96
327.14	4.85
327.508	4.65
327.875	4.69
328.243	4.64
328.61	4.64
328.978	4.56
329.346	4.43
329.713	4.47
330.08	4.4
330.448	4.34
330.815	4.55
331.182	4.57
331.55	4.48
331.917	4.54
332.284	4.5
332.651	4.44
333.018	4.36
333.385	4.48
333.752	4.51
334.119	4.38
334.486	4.39
334.853	4.34
335.22	4.41
335.587	4.19
335.954	4.09
336.32	4.06
336.687	3.97
337.054	4.01
337.42	3.97
337.787	4
338.153	4.02
338.52	4.2
338.886	4.25
339.253	4.18
339.619	4.26
339.986	4.15
340.352	4.17
340.718	4.29
341.084	4.21
341.451	4.22
341.817	4.25
342.183	4.18
342.549	4.3
342.915	4.27
343.281	4.39
343.647	4.46
344.013	4.47
344.379	4.58
344.745	4.51
345.11	4.4
345.476	4.36
345.842	4.34
346.208	4.27
346.573	4.23
346.939	4.18
347.304	4.16
347.67	4.19
348.035	4.12
348.401	4.01
348.766	4.03
349.132	4.01
349.497	3.88
349.862	3.96
350.228	3.89
350.593	3.93
350.958	4.02
351.323	3.97
351.688	3.94
352.053	3.9
352.418	4.02
352.783	4.15
353.148	4.25
353.513	4.21
353.878	4.13
354.243	4.04
354.608	4.09
354.972	4.05
355.337	4.04
355.702	4.11
356.066	4.14
356.431	4.07
356.795	4.13
357.16	4.21
357.524	4.14
357.889	4.13
358.253	4.1
358.618	3.98
358.982	4.01
359.346	4.1
359.71	4.06
360.075	3.98
360.439	4.02
360.803	4
361.167	3.99
361.531	3.98
361.895	4.06
362.259	4.04
362.623	4.05
362.987	4.09
363.351	3.96
363.714	3.99
364.078	4.01
364.442	3.89
364.806	3.89
365.169	3.95
365.533	3.98
365.896	4
366.26	3.98
366.623	4.01
366.987	3.95
367.35	3.96
367.714	3.97
368.077	3.94
368.44	3.88
368.803	3.92
369.167	3.88
369.53	3.93
369.893	3.9
370.256	3.88
370.619	3.89
370.982	3.99
371.345	3.99
371.708	4.04
372.071	4.01
372.434	4.02
372.797	4.01
373.159	3.98
373.522	3.99
373.885	4.04
374.247	3.99
374.61	4
374.973	4
375.335	4.03
375.698	4.02
376.06	4.03
376.423	4.03
376.785	4.06
377.147	4.09
377.51	4.14
377.872	4.12
378.234	4.17
378.596	4.17
378.958	4.17
379.321	4.12
379.683	4.18
380.045	4.2
380.407	4.18
380.769	4.16
381.13	4.14
381.492	4.16
381.854	4.19
382.216	4.19
382.578	4.24
382.939	4.26
383.301	4.19
383.663	4.19
384.024	4.22
384.386	4.23
384.747	4.17
385.109	4.14
385.47	4.16
385.832	4.07
386.193	4.05
386.554	4.01
386.916	4.03
387.277	3.97
387.638	3.98
387.999	3.94
388.36	3.93
388.721	3.92
389.082	3.93
389.443	3.94
389.804	3.94
390.165	3.92
390.526	3.95
390.887	3.98
391.248	3.97
391.609	3.99
391.969	3.95
392.33	3.95
392.691	3.97
393.051	3.95
393.412	3.99
393.772	4.02
394.133	4.04
394.493	4
394.854	4.04
395.214	4
395.574	3.99
395.935	4
396.295	3.99
396.655	3.97
397.015	3.93
397.376	3.92
397.736	3.89
398.096	3.84
398.456	3.81
398.816	3.82
399.176	3.78
399.535	3.78
399.895	3.76
400.255	3.75
400.615	3.73
400.975	3.73
401.334	3.69
401.694	3.66
402.054	3.66
402.413	3.63
402.773	3.64
403.132	3.63
403.492	3.63
403.851	3.63
404.211	3.67
404.57	3.63
404.929	3.63
405.288	3.7
405.648	3.7
406.007	3.7
406.366	3.71
406.725	3.7
407.084	3.72
407.443	3.73
407.802	3.73
408.161	3.77
408.52	3.77
408.879	3.81
409.238	3.82
409.596	3.84
409.955	3.82
410.314	3.81
410.673	3.86
411.031	3.86
411.39	3.87
411.748	3.82
412.107	3.85
412.465	3.85
412.824	3.84
413.182	3.85
413.54	3.85
413.899	3.83
414.257	3.84
414.615	3.85
414.974	3.84
415.332	3.82
415.69	3.81
416.048	3.79
416.406	3.73
416.764	3.74
417.122	3.75
417.48	3.78
417.838	3.8
418.195	3.77
418.553	3.77
418.911	3.76
419.269	3.77
419.626	3.77
419.984	3.78
420.342	3.75
420.699	3.74
421.057	3.74
421.414	3.77
421.772	3.76
422.129	3.76
422.486	3.76
422.844	3.76
423.201	3.75
423.558	3.76
423.915	3.78
424.273	3.79
424.63	3.8
424.987	3.8
425.344	3.78
425.701	3.77
426.058	3.79
426.415	3.8
426.772	3.8
427.128	3.79
427.485	3.79
427.842	3.81
428.199	3.82
428.555	3.83
428.912	3.8
429.269	3.8
429.625	3.79
429.982	3.8
430.338	3.79
430.695	3.8
431.051	3.8
431.407	3.82
431.764	3.82
432.12	3.82
432.476	3.83
432.832	3.85
433.189	3.85
433.545	3.83
433.901	3.84
434.257	3.83
434.613	3.83
434.969	3.83
435.325	3.83
435.681	3.81
436.036	3.81
436.392	3.82
436.748	3.83
437.104	3.83
437.459	3.83
437.815	3.84
438.171	3.87
438.526	3.88
438.882	3.87
439.237	3.86
439.593	3.86
439.948	3.83
440.304	3.82
440.659	3.84
441.014	3.83
441.369	3.82
441.725	3.81
442.08	3.81
442.435	3.8
442.79	3.79
443.145	3.8
443.5	3.77
443.855	3.76
444.21	3.77
444.565	3.77
444.92	3.77
445.275	3.78
445.629	3.75
445.984	3.74
446.339	3.74
446.693	3.74
447.048	3.73
447.403	3.76
447.757	3.75
448.112	3.75
448.466	3.75
448.82	3.75
449.175	3.77
449.529	3.78
449.883	3.78
450.238	3.79
450.592	3.8
450.946	3.84
451.3	3.86
451.654	3.82
452.008	3.83
452.362	3.83
452.716	3.82
453.07	3.84
453.424	3.83
453.778	3.83
454.132	3.83
454.486	3.83
454.839	3.81
455.193	3.81
455.547	3.8
455.9	3.8
456.254	3.81
456.607	3.82
456.961	3.81
457.314	3.82
457.668	3.83
458.021	3.83
458.375	3.8
458.728	3.79
459.081	3.81
459.434	3.82
459.787	3.82
460.141	3.83
460.494	3.83
460.847	3.85
461.2	3.84
461.553	3.83
461.906	3.83
462.259	3.84
462.611	3.85
462.964	3.86
463.317	3.86
463.67	3.88
464.022	3.9
464.375	3.91
464.728	3.9
465.08	3.89
465.433	3.89
465.785	3.92
466.138	3.92
466.49	3.93
466.843	3.93
467.195	3.95
467.547	3.95
467.899	3.97
468.252	3.96
468.604	3.98
468.956	3.98
469.308	3.99
469.66	4.01
470.012	4
470.364	4
470.716	4.02
471.068	4.03
471.42	4.04
471.772	4.02
472.123	4.03
472.475	4
472.827	4
473.178	3.98
473.53	3.99
473.882	4.01
474.233	4.01
474.585	4.01
474.936	4.03
475.288	3.98
475.639	3.98
475.99	3.96
476.342	3.98
476.693	3.99
477.044	3.98
477.395	3.98
477.746	3.98
478.097	3.96
478.448	3.93
478.8	3.93
479.15	3.93
479.501	3.93
479.852	3.96
480.203	3.96
480.554	3.95
480.905	3.93
481.255	3.92
481.606	3.92
481.957	3.92
482.307	3.92
482.658	3.94
483.009	3.95
483.359	3.95
483.709	3.97
484.06	3.96
484.41	3.96
484.761	3.98
485.111	3.99
485.461	4
485.811	4.02
486.162	4.02
486.512	4.02
486.862	4.04
487.212	4.04
487.562	4.03
487.912	4.05
488.262	4.07
488.612	4.09
488.961	4.1
489.311	4.1
489.661	4.09
490.011	4.08
490.36	4.08
490.71	4.09
491.06	4.08
491.409	4.09
491.759	4.11
492.108	4.09
492.458	4.08
492.807	4.09
493.157	4.07
493.506	4.07
493.855	4.07
494.204	4.06
494.554	4.06
494.903	4.07
495.252	4.06
495.601	4.06
495.95	4.05
496.299	4.05
496.648	4.07
496.997	4.1
497.346	4.12
497.695	4.13
498.043	4.13
498.392	4.13
498.741	4.13
499.09	4.14
499.438	4.16
499.787	4.13
500.135	4.13
500.484	4.16
500.832	4.17
501.181	4.19
501.529	4.21
501.878	4.23
502.226	4.25
502.574	4.27
502.923	4.27
503.271	4.27
503.619	4.26
503.967	4.22
504.315	4.19
504.663	4.16
505.011	4.15
505.359	4.14
505.707	4.15
506.055	4.14
506.403	4.13
506.751	4.13
507.098	4.15
507.446	4.16
507.794	4.15
508.141	4.13
508.489	4.12
508.837	4.11
509.184	4.08
509.531	4.05
509.879	4.05
510.226	4.05
510.574	4.06
510.921	4.07
511.268	4.11
511.616	4.13
511.963	4.15
512.31	4.16
512.657	4.18
513.004	4.18
513.351	4.18
513.698	4.17
514.045	4.18
514.392	4.18
514.739	4.19
515.086	4.2
515.432	4.22
515.779	4.21
516.126	4.21
516.473	4.22
516.819	4.24
517.166	4.24
517.512	4.25
517.859	4.25
518.205	4.25
518.552	4.23
518.898	4.23
519.245	4.25
519.591	4.24
519.937	4.27
520.283	4.28
520.629	4.26
520.976	4.27
521.322	4.28
521.668	4.27
522.014	4.25
522.36	4.25
522.706	4.25
523.052	4.26
523.398	4.26
523.743	4.27
524.089	4.29
524.435	4.27
524.781	4.26
525.126	4.26
525.472	4.27
525.817	4.28
526.163	4.28
526.509	4.27
526.854	4.28
527.199	4.27
527.545	4.29
527.89	4.29
528.235	4.29
528.581	4.28
528.926	4.3
529.271	4.3
529.616	4.31
529.961	4.3
530.306	4.3
530.651	4.3
530.996	4.3
531.341	4.31
531.686	4.33
532.031	4.33
532.376	4.33
532.721	4.34
533.065	4.34
533.41	4.35
533.755	4.35
534.099	4.36
534.444	4.35
534.788	4.32
535.133	4.32
535.477	4.35
535.822	4.38
536.166	4.37
536.51	4.39
536.855	4.39
537.199	4.39
537.543	4.4
537.887	4.42
538.231	4.44
538.576	4.43
538.92	4.43
539.264	4.43
539.608	4.43
539.951	4.41
540.295	4.43
540.639	4.42
540.983	4.43
541.327	4.43
541.671	4.43
542.014	4.46
542.358	4.48
542.701	4.46
543.045	4.46
543.389	4.48
543.732	4.47
544.075	4.46
544.419	4.47
544.762	4.48
545.105	4.49
545.449	4.48
545.792	4.49
546.135	4.49
546.478	4.49
546.821	4.49
547.165	4.51
547.508	4.52
547.851	4.53
548.194	4.53
548.536	4.54
548.879	4.55
549.222	4.55
549.565	4.53
549.908	4.51
550.25	4.49
550.593	4.47
550.936	4.48
551.278	4.48
551.621	4.47
551.963	4.45
552.306	4.46
552.648	4.46
552.991	4.45
553.333	4.44
553.675	4.48
554.017	4.5
554.36	4.48
554.702	4.48
555.044	4.48
555.386	4.47
555.728	4.46
556.07	4.45
556.412	4.44
556.754	4.43
557.096	4.42
557.438	4.41
557.78	4.41
558.121	4.42
558.463	4.43
558.805	4.46
559.147	4.46
559.488	4.43
559.83	4.43
560.171	4.4
560.513	4.4
560.854	4.4
561.196	4.4
561.537	4.41
561.878	4.4
562.22	4.42
562.561	4.42
562.902	4.39
563.243	4.39
563.584	4.41
563.925	4.43
564.266	4.44
564.607	4.45
564.948	4.48
565.289	4.46
565.63	4.44
565.971	4.42
566.312	4.41
566.653	4.41
566.993	4.41
567.334	4.46
567.675	4.46
568.015	4.41
568.356	4.4
568.696	4.41
569.037	4.41
569.377	4.43
569.718	4.45
570.058	4.49
570.398	4.5
570.739	4.47
571.079	4.46
571.419	4.46
571.759	4.47
572.099	4.42
572.439	4.42
572.779	4.4
573.119	4.4
573.459	4.4
573.799	4.4
574.139	4.39
574.479	4.36
574.819	4.39
575.158	4.41
575.498	4.41
575.838	4.43
576.177	4.39
576.517	4.37
576.856	4.35
577.196	4.35
577.535	4.34
577.875	4.33
578.214	4.36
578.553	4.35
578.893	4.34
579.232	4.4
579.571	4.44
579.91	4.49
580.25	4.5
580.589	4.49
580.928	4.51
581.267	4.51
581.606	4.54
581.945	4.48
582.283	4.48
582.622	4.48
582.961	4.47
583.3	4.51
583.639	4.52
583.977	4.55
584.316	4.57
584.654	4.57
584.993	4.57
585.332	4.53
585.67	4.59
586.008	4.6
586.347	4.59
586.685	4.55
587.024	4.58
587.362	4.6
587.7	4.68
588.038	4.69
588.376	4.7
588.715	4.65
589.053	4.7
589.391	4.72
589.729	4.74
590.067	4.75
590.404	4.77
590.742	4.77
591.08	4.76
591.418	4.74
591.756	4.77
592.093	4.76
592.431	4.79
592.769	4.79
593.106	4.76
593.444	4.79
593.781	4.79
594.119	4.73
594.456	4.69
594.793	4.64
595.131	4.62
595.468	4.63
595.805	4.64
596.143	4.67
596.48	4.69
596.817	4.67
597.154	4.66
597.491	4.63
597.828	4.62
598.165	4.58
598.502	4.58
598.839	4.55
599.176	4.6
599.512	4.57
599.849	4.54
600.186	4.53
600.523	4.5
600.859	4.52
601.196	4.51
601.532	4.54
601.869	4.54
602.205	4.52
602.542	4.53
602.878	4.52
603.215	4.51
603.551	4.51
603.887	4.55
604.223	4.54
604.56	4.57
604.896	4.61
605.232	4.63
605.568	4.59
605.904	4.58
606.24	4.58
606.576	4.61
606.912	4.62
607.248	4.64
607.583	4.64
607.919	4.6
608.255	4.61
608.591	4.61
608.926	4.65
609.262	4.67
609.597	4.67
609.933	4.71
610.268	4.71
610.604	4.68
610.939	4.63
611.275	4.63
611.61	4.58
611.945	4.53
612.281	4.56
612.616	4.62
612.951	4.68
613.286	4.71
613.621	4.69
613.956	4.7
614.291	4.71
614.626	4.69
614.961	4.81
615.296	4.84
615.631	4.85
615.966	4.84
616.3	4.91
616.635	4.9
616.97	4.9
617.304	4.88
617.639	4.88
617.973	4.88
618.308	4.89
618.642	4.9
618.977	4.86
619.311	4.88
619.646	4.89
619.98	4.83
620.314	4.79
620.648	4.76
620.983	4.72
621.317	4.76
621.651	4.75
621.985	4.66
622.319	4.67
622.653	4.66
622.987	4.7
623.321	4.68
623.655	4.65
623.988	4.65
624.322	4.69
624.656	4.68
624.99	4.73
625.323	4.75
625.657	4.81
625.99	4.84
626.324	4.81
626.657	4.77
626.991	4.77
627.324	4.78
627.658	4.83
627.991	4.84
628.324	4.82
628.657	4.83
628.991	4.84
629.324	4.84
629.657	4.88
629.99	4.86
630.323	4.82
630.656	4.83
630.989	4.83
631.322	4.81
631.655	4.82
631.987	4.8
632.32	4.8
632.653	4.78
632.986	4.78
633.318	4.77
633.651	4.83
633.984	4.91
634.316	4.88
634.649	4.88
634.981	4.92
635.313	4.91
635.646	4.9
635.978	4.98
636.31	4.94
636.643	4.9
636.975	4.93
637.307	4.99
637.639	4.98
637.971	4.97
638.303	4.99
638.635	5.02
638.967	5.04
639.299	5.03
639.631	5.06
639.963	5.04
640.295	5.09
640.626	5.08
640.958	4.97
641.29	5.03
641.621	4.98
641.953	4.94
642.285	4.95
642.616	5.04
642.948	4.99
643.279	4.98
643.61	4.95
643.942	4.86
644.273	4.84
644.604	4.85
644.936	4.9
645.267	4.88
645.598	4.82
645.929	4.82
646.26	4.8
646.591	4.77
646.922	4.87
647.253	4.83
647.584	4.88
647.915	4.98
648.245	4.93
648.576	4.97
648.907	4.97
649.238	5.03
649.568	4.99
649.899	5.01
650.229	5.03
650.56	5.07
650.89	5.14
651.221	5.14
651.551	5.18
651.882	5.12
652.212	4.99
652.542	5.04
652.872	4.99
653.203	5.08
653.533	5.09
653.863	5.02
654.193	5.07
654.523	4.99
654.853	4.96
655.183	5
655.513	5.02
655.843	5.06
656.172	5.07
656.502	5.01
656.832	4.96
657.162	4.96
657.491	4.98
657.821	4.98
658.15	5
658.48	5.02
658.809	5.04
659.139	5.21
659.468	5.25
659.798	5.31
660.127	5.25
660.456	5.22
660.785	5.25
661.115	5.21
661.444	5.25
661.773	5.27
662.102	5.31
662.431	5.33
662.76	5.32
663.089	5.31
663.418	5.33
663.747	5.36
664.076	5.38
664.404	5.46
664.733	5.44
665.062	5.45
665.39	5.36
665.719	5.42
666.048	5.36
666.376	5.34
666.705	5.27
667.033	5.31
667.362	5.3
667.69	5.24
668.018	5.31
668.347	5.27
668.675	5.23
669.003	5.19
669.331	5.24
669.659	5.27
669.987	5.25
670.315	5.32
670.643	5.33
670.971	5.42
671.299	5.42
671.627	5.48
671.955	5.48
672.283	5.54
672.61	5.49
672.938	5.51
673.266	5.48
673.593	5.55
673.921	5.48
674.249	5.51
674.576	5.56
674.904	5.48
675.231	5.53
675.558	5.63
675.886	5.58
676.213	5.4
676.54	5.42
676.867	5.33
677.195	5.3
