Data from MVZ_BU8943_Reflection_00013.txt Node
Date: Tue Nov 19 12:09:25 EST 2019
User: vgr7
Spectrometer: USB2G7710
Scans to average: 3
Trigger mode: 4
Integration Time (sec): 2.000000E-2
Electric dark correction enabled: true
Boxcar width: 10
XAxis mode: Wavelengths
Number of Pixels in Spectrum: 2048
>>>>>Begin Spectral Data<<<<<
177.721	-9.4
178.105	131.91
178.488	-198.92
178.871	-84.93
179.254	-235.29
179.636	-139.64
180.019	8.16
180.402	170
180.785	-28.57
181.168	65.74
181.55	64.36
181.933	127.7
182.316	96.28
182.698	34600
183.081	-171.08
183.463	201.5
183.846	169.54
184.228	346.84
184.611	-45.91
184.993	-13.25
185.376	-32.54
185.758	-6.77
186.14	14.57
186.522	72.59
186.904	36.27
187.287	27.32
187.669	20.45
188.051	9.93
188.433	-4.69
188.815	-16.25
189.197	-1.13
189.579	11.92
189.961	22.05
190.342	13.25
190.724	-2.72
191.106	-11.82
191.488	-20.67
191.869	-0.99
192.251	0.15
192.633	-14.63
193.014	-24.42
193.396	-9.5
193.777	-43.84
194.159	-53.13
194.54	-86.45
194.922	-106.03
195.303	-130.94
195.684	-683.19
196.065	-414.6
196.447	40600
196.828	17.58
197.209	364.71
197.59	12.74
197.971	22.34
198.352	10.68
198.733	32.16
199.114	336.84
199.495	-116.76
199.876	-304.19
200.257	-71.67
200.638	-65.85
201.018	-23.1
201.399	-43.53
201.78	-34.66
202.16	-48.1
202.541	-132.22
202.922	-315.97
203.302	-239.42
203.683	-345.95
204.063	-153.4
204.444	-114.29
204.824	-71.72
205.204	-118.13
205.585	-98.64
205.965	-142.32
206.345	-155.27
206.725	-123.67
207.106	-61.31
207.486	-62.42
207.866	-52.5
208.246	-53.89
208.626	-95.46
209.006	-202.78
209.386	-232.92
209.766	-226.37
210.145	-178.61
210.525	-262.69
210.905	-318.45
211.285	-306.4
211.664	-83.5
212.044	-390.1
212.424	-232.21
212.803	264.31
213.183	524.14
213.562	255.17
213.942	490.41
214.321	-202.96
214.701	553.49
215.08	729.03
215.459	-122.77
215.838	111.81
216.218	-29.51
216.597	-149.45
216.976	-153.35
217.355	-662.3
217.734	837.29
218.113	-317.16
218.492	6236.36
218.871	513.51
219.25	396.95
219.629	566.39
220.008	102.38
220.387	78.98
220.766	75.99
221.144	73.73
221.523	51.29
221.902	49.29
222.28	50.17
222.659	60.68
223.037	48.48
223.416	48.64
223.794	39.53
224.173	19.43
224.551	11.71
224.929	9.1
225.308	11.05
225.686	8.52
226.064	8.27
226.442	8.14
226.821	8.67
227.199	7.49
227.577	8.67
227.955	12.67
228.333	11.74
228.711	7.91
229.089	8.57
229.467	11.13
229.845	5.29
230.222	7.05
230.6	1.74
230.978	4.79
231.356	3.52
231.733	2.68
232.111	1.6
232.488	1.65
232.866	1.88
233.243	3.66
233.621	3.82
233.998	6.81
234.376	6.85
234.753	2.74
235.13	2.6
235.508	1.75
235.885	1.12
236.262	2
236.639	2.43
237.016	2.19
237.393	3.93
237.77	6.4
238.147	6.11
238.524	6.47
238.901	5.01
239.278	5.08
239.655	5.28
240.032	6.45
240.409	6.16
240.785	6.24
241.162	5.82
241.539	5.96
241.915	5.35
242.292	5.43
242.668	6.18
243.045	6.86
243.421	7.03
243.798	6.58
244.174	6.57
244.551	6.26
244.927	6.29
245.303	5.95
245.679	5.86
246.056	5.88
246.432	6.47
246.808	6.58
247.184	6.8
247.56	7
247.936	6.69
248.312	6.57
248.688	6.58
249.064	6.53
249.44	6.33
249.815	6.09
250.191	5.98
250.567	5.65
250.943	5.56
251.318	5.33
251.694	5.18
252.069	5.1
252.445	5.19
252.82	5.34
253.196	5.27
253.571	5.3
253.947	5.25
254.322	4.67
254.697	4.77
255.073	4.48
255.448	4.2
255.823	4.36
256.198	4.41
256.573	4.64
256.948	4.87
257.323	5.07
257.698	5.21
258.073	5.32
258.448	5.3
258.823	5.17
259.198	5.3
259.573	5.36
259.948	5.42
260.322	5.52
260.697	5.56
261.072	5.58
261.446	5.6
261.821	5.63
262.195	5.61
262.57	5.78
262.944	5.81
263.319	5.77
263.693	5.85
264.067	6.03
264.442	6.03
264.816	5.88
265.19	5.81
265.564	5.67
265.938	5.68
266.313	5.8
266.687	5.76
267.061	5.58
267.435	5.75
267.809	5.62
268.183	5.37
268.556	5
268.93	5.11
269.304	4.98
269.678	5.01
270.051	5.02
270.425	4.84
270.799	4.69
271.172	4.74
271.546	4.77
271.919	4.58
272.293	4.47
272.666	4.67
273.04	4.76
273.413	4.97
273.787	4.8
274.16	4.89
274.533	5
274.906	5.09
275.279	4.97
275.653	4.94
276.026	5.11
276.399	5.07
276.772	5.24
277.145	5.3
277.518	5.12
277.891	5.18
278.263	5.37
278.636	5.5
279.009	5.58
279.382	5.51
279.755	5.57
280.127	5.59
280.5	5.39
280.872	5.3
281.245	5.11
281.617	5.43
281.99	5.5
282.362	5.43
282.735	5.32
283.107	5.19
283.479	5.25
283.852	5.17
284.224	5.4
284.596	5.05
284.968	5.02
285.34	4.97
285.713	5.02
286.085	4.98
286.457	4.98
286.829	5.04
287.201	5.06
287.572	5.26
287.944	5.17
288.316	5.13
288.688	5.22
289.06	5.3
289.431	5.21
289.803	5.13
290.175	5.21
290.546	5.41
290.918	5.64
291.289	5.48
291.661	5.58
292.032	5.64
292.403	5.89
292.775	5.99
293.146	6.09
293.517	6.18
293.889	6.09
294.26	6.16
294.631	6.2
295.002	6.27
295.373	6.28
295.744	6.57
296.115	6.79
296.486	6.77
296.857	6.84
297.228	6.77
297.599	6.9
297.97	6.91
298.34	6.87
298.711	6.95
299.082	7.05
299.452	7.01
299.823	7.08
300.194	7.14
300.564	7.18
300.935	7.29
301.305	7.27
301.676	7.25
302.046	7.31
302.416	7.25
302.787	7.14
303.157	7.07
303.527	7.1
303.897	7.04
304.267	7.23
304.637	7.31
305.008	7.6
305.378	7.64
305.748	7.73
306.117	7.8
306.487	7.77
306.857	7.94
307.227	8.29
307.597	8.29
307.967	8.23
308.336	8.18
308.706	8.25
309.076	8.32
309.445	8.65
309.815	8.75
310.184	8.88
310.554	9.14
310.923	9.14
311.293	9.26
311.662	9.32
312.031	9.24
312.401	9.22
312.77	9.11
313.139	9.16
313.508	9.13
313.877	9.2
314.246	9.17
314.616	9.4
314.985	9.2
315.353	9.46
315.722	9.74
316.091	9.9
316.46	10.06
316.829	10.1
317.198	9.91
317.567	10.08
317.935	10.18
318.304	10.17
318.672	10.32
319.041	10.35
319.41	10.45
319.778	10.57
320.147	10.69
320.515	10.69
320.883	10.47
321.252	10.67
321.62	10.78
321.988	11.04
322.357	10.79
322.725	10.9
323.093	10.55
323.461	10.34
323.829	10.5
324.197	10.6
324.565	10.75
324.933	10.87
325.301	10.56
325.669	10.59
326.037	10.62
326.405	10.67
326.772	10.56
327.14	10.61
327.508	10.66
327.875	10.75
328.243	10.88
328.61	11.17
328.978	11.23
329.346	11.34
329.713	11.36
330.08	11.66
330.448	11.71
330.815	11.95
331.182	12.16
331.55	12.13
331.917	11.99
332.284	12
332.651	12.08
333.018	12.21
333.385	12.27
333.752	12.39
334.119	12.42
334.486	12.47
334.853	12.39
335.22	12.42
335.587	12.42
335.954	12.49
336.32	12.64
336.687	12.66
337.054	12.8
337.42	12.79
337.787	12.7
338.153	12.74
338.52	12.92
338.886	12.89
339.253	12.93
339.619	13.09
339.986	13.21
340.352	13.39
340.718	13.45
341.084	13.48
341.451	13.55
341.817	13.58
342.183	13.52
342.549	13.78
342.915	13.86
343.281	13.95
343.647	13.89
344.013	13.84
344.379	13.8
344.745	13.65
345.11	13.71
345.476	13.81
345.842	13.87
346.208	13.83
346.573	13.88
346.939	13.84
347.304	14
347.67	14.02
348.035	13.93
348.401	13.95
348.766	13.92
349.132	13.92
349.497	14.01
349.862	13.98
350.228	13.81
350.593	13.9
350.958	14
351.323	14.14
351.688	14.17
352.053	14.24
352.418	14.23
352.783	14.27
353.148	14.17
353.513	14.04
353.878	14.02
354.243	13.91
354.608	14.03
354.972	13.91
355.337	13.87
355.702	13.84
356.066	13.85
356.431	13.91
356.795	13.91
357.16	13.99
357.524	14.15
357.889	14.21
358.253	14.15
358.618	14.07
358.982	14.03
359.346	14.03
359.71	14.11
360.075	14.09
360.439	14.06
360.803	14.17
361.167	14.3
361.531	14.24
361.895	14.28
362.259	14.29
362.623	14.23
362.987	14.15
363.351	14.18
363.714	14.24
364.078	14.16
364.442	14.05
364.806	13.93
365.169	13.89
365.533	13.8
365.896	13.71
366.26	13.72
366.623	13.69
366.987	13.69
367.35	13.56
367.714	13.59
368.077	13.61
368.44	13.49
368.803	13.37
369.167	13.35
369.53	13.35
369.893	13.24
370.256	13.2
370.619	13.27
370.982	13.15
371.345	13.17
371.708	13.18
372.071	13.2
372.434	13.17
372.797	13.19
373.159	13.22
373.522	13.18
373.885	13.07
374.247	13.01
374.61	12.88
374.973	12.84
375.335	12.79
375.698	12.69
376.06	12.67
376.423	12.59
376.785	12.56
377.147	12.51
377.51	12.45
377.872	12.47
378.234	12.31
378.596	12.29
378.958	12.15
379.321	12.09
379.683	12.03
380.045	11.93
380.407	11.79
380.769	11.64
381.13	11.57
381.492	11.5
381.854	11.42
382.216	11.46
382.578	11.38
382.939	11.28
383.301	11.22
383.663	11.23
384.024	11.26
384.386	11.21
384.747	11.15
385.109	11.09
385.47	10.99
385.832	10.94
386.193	10.92
386.554	10.84
386.916	10.82
387.277	10.75
387.638	10.72
387.999	10.68
388.36	10.69
388.721	10.68
389.082	10.64
389.443	10.63
389.804	10.52
390.165	10.48
390.526	10.44
390.887	10.4
391.248	10.26
391.609	10.21
391.969	10.19
392.33	10.15
392.691	10.1
393.051	10.04
393.412	10.06
393.772	10
394.133	10.01
394.493	9.93
394.854	9.9
395.214	9.82
395.574	9.79
395.935	9.73
396.295	9.69
396.655	9.64
397.015	9.57
397.376	9.54
397.736	9.49
398.096	9.49
398.456	9.41
398.816	9.36
399.176	9.26
399.535	9.15
399.895	9.11
400.255	9.1
400.615	9.07
400.975	8.93
401.334	8.91
401.694	8.76
402.054	8.77
402.413	8.73
402.773	8.7
403.132	8.65
403.492	8.64
403.851	8.6
404.211	8.56
404.57	8.53
404.929	8.48
405.288	8.47
405.648	8.36
406.007	8.32
406.366	8.34
406.725	8.3
407.084	8.3
407.443	8.22
407.802	8.14
408.161	8.12
408.52	8.16
408.879	8.1
409.238	8.16
409.596	8.1
409.955	8.05
410.314	8.05
410.673	8.04
411.031	8.02
411.39	7.99
411.748	7.95
412.107	7.91
412.465	7.88
412.824	7.8
413.182	7.77
413.54	7.76
413.899	7.7
414.257	7.72
414.615	7.67
414.974	7.65
415.332	7.62
415.69	7.59
416.048	7.56
416.406	7.54
416.764	7.49
417.122	7.44
417.48	7.43
417.838	7.4
418.195	7.39
418.553	7.37
418.911	7.34
419.269	7.34
419.626	7.32
419.984	7.29
420.342	7.25
420.699	7.22
421.057	7.18
421.414	7.15
421.772	7.1
422.129	7.07
422.486	7.07
422.844	7.04
423.201	7.01
423.558	6.96
423.915	6.93
424.273	6.89
424.63	6.89
424.987	6.85
425.344	6.81
425.701	6.75
426.058	6.7
426.415	6.66
426.772	6.61
427.128	6.59
427.485	6.56
427.842	6.56
428.199	6.54
428.555	6.52
428.912	6.5
429.269	6.5
429.625	6.49
429.982	6.47
430.338	6.44
430.695	6.43
431.051	6.44
431.407	6.43
431.764	6.42
432.12	6.41
432.476	6.41
432.832	6.43
433.189	6.43
433.545	6.4
433.901	6.41
434.257	6.41
434.613	6.42
434.969	6.4
435.325	6.41
435.681	6.42
436.036	6.42
436.392	6.44
436.748	6.42
437.104	6.42
437.459	6.43
437.815	6.45
438.171	6.45
438.526	6.45
438.882	6.44
439.237	6.46
439.593	6.45
439.948	6.44
440.304	6.44
440.659	6.45
441.014	6.46
441.369	6.44
441.725	6.45
442.08	6.43
442.435	6.44
442.79	6.44
443.145	6.42
443.5	6.41
443.855	6.38
444.21	6.35
444.565	6.35
444.92	6.33
445.275	6.33
445.629	6.31
445.984	6.29
446.339	6.29
446.693	6.26
447.048	6.24
447.403	6.22
447.757	6.19
448.112	6.19
448.466	6.17
448.82	6.16
449.175	6.13
449.529	6.1
449.883	6.08
450.238	6.06
450.592	6.06
450.946	6.05
451.3	6.03
451.654	6.04
452.008	6.01
452.362	5.99
452.716	5.95
453.07	5.92
453.424	5.91
453.778	5.89
454.132	5.86
454.486	5.87
454.839	5.87
455.193	5.88
455.547	5.85
455.9	5.84
456.254	5.85
456.607	5.84
456.961	5.85
457.314	5.83
457.668	5.81
458.021	5.79
458.375	5.78
458.728	5.78
459.081	5.77
459.434	5.77
459.787	5.78
460.141	5.79
460.494	5.81
460.847	5.8
461.2	5.81
461.553	5.85
461.906	5.87
462.259	5.87
462.611	5.86
462.964	5.89
463.317	5.91
463.67	5.92
464.022	5.93
464.375	5.95
464.728	5.97
465.08	6.01
465.433	6.03
465.785	6.06
466.138	6.11
466.49	6.16
466.843	6.2
467.195	6.21
467.547	6.22
467.899	6.26
468.252	6.31
468.604	6.33
468.956	6.35
469.308	6.37
469.66	6.45
470.012	6.5
470.364	6.54
470.716	6.57
471.068	6.64
471.42	6.69
471.772	6.7
472.123	6.76
472.475	6.8
472.827	6.82
473.178	6.86
473.53	6.86
473.882	6.86
474.233	6.84
474.585	6.87
474.936	6.91
475.288	6.93
475.639	6.94
475.99	6.94
476.342	6.96
476.693	6.97
477.044	6.93
477.395	6.92
477.746	6.9
478.097	6.89
478.448	6.86
478.8	6.83
479.15	6.82
479.501	6.8
479.852	6.79
480.203	6.78
480.554	6.77
480.905	6.75
481.255	6.76
481.606	6.77
481.957	6.77
482.307	6.74
482.658	6.74
483.009	6.71
483.359	6.71
483.709	6.69
484.06	6.67
484.41	6.66
484.761	6.67
485.111	6.65
485.461	6.64
485.811	6.62
486.162	6.61
486.512	6.61
486.862	6.61
487.212	6.6
487.562	6.58
487.912	6.57
488.262	6.58
488.612	6.57
488.961	6.56
489.311	6.55
489.661	6.56
490.011	6.55
490.36	6.57
490.71	6.57
491.06	6.57
491.409	6.57
491.759	6.59
492.108	6.59
492.458	6.6
492.807	6.62
493.157	6.65
493.506	6.66
493.855	6.68
494.204	6.71
494.554	6.73
494.903	6.78
495.252	6.82
495.601	6.86
495.95	6.91
496.299	6.95
496.648	7
496.997	7.07
497.346	7.12
497.695	7.17
498.043	7.24
498.392	7.32
498.741	7.39
499.09	7.44
499.438	7.51
499.787	7.6
500.135	7.7
500.484	7.75
500.832	7.84
501.181	7.95
501.529	8.04
501.878	8.17
502.226	8.28
502.574	8.39
502.923	8.5
503.271	8.62
503.619	8.76
503.967	8.87
504.315	9.01
504.663	9.12
505.011	9.28
505.359	9.38
505.707	9.51
506.055	9.66
506.403	9.8
506.751	9.95
507.098	10.11
507.446	10.23
507.794	10.42
508.141	10.58
508.489	10.73
508.837	10.91
509.184	11.06
509.531	11.19
509.879	11.35
510.226	11.52
510.574	11.66
510.921	11.8
511.268	11.97
511.616	12.09
511.963	12.29
512.31	12.48
512.657	12.67
513.004	12.86
513.351	13.08
513.698	13.32
514.045	13.53
514.392	13.74
514.739	13.96
515.086	14.19
515.432	14.4
515.779	14.64
516.126	14.83
516.473	15.02
516.819	15.22
517.166	15.43
517.512	15.59
517.859	15.79
518.205	15.97
518.552	16.14
518.898	16.36
519.245	16.55
519.591	16.7
519.937	16.9
520.283	17.1
520.629	17.27
520.976	17.45
521.322	17.65
521.668	17.85
522.014	18.07
522.36	18.28
522.706	18.5
523.052	18.71
523.398	18.99
523.743	19.25
524.089	19.52
524.435	19.76
524.781	20.02
525.126	20.23
525.472	20.45
525.817	20.63
526.163	20.78
526.509	20.91
526.854	21.1
527.199	21.24
527.545	21.37
527.89	21.53
528.235	21.69
528.581	21.86
528.926	22.01
529.271	22.18
529.616	22.34
529.961	22.5
530.306	22.68
530.651	22.83
530.996	23
531.341	23.19
531.686	23.38
532.031	23.55
532.376	23.73
532.721	23.91
533.065	24.13
533.41	24.33
533.755	24.57
534.099	24.75
534.444	24.97
534.788	25.21
535.133	25.42
535.477	25.61
535.822	25.84
536.166	26.08
536.51	26.31
536.855	26.53
537.199	26.82
537.543	27.09
537.887	27.38
538.231	27.68
538.576	27.96
538.92	28.27
539.264	28.53
539.608	28.83
539.951	29.14
540.295	29.38
540.639	29.63
540.983	29.85
541.327	30.11
541.671	30.31
542.014	30.54
542.358	30.73
542.701	30.97
543.045	31.16
543.389	31.37
543.732	31.6
544.075	31.88
544.419	32.1
544.762	32.33
545.105	32.58
545.449	32.81
545.792	33.07
546.135	33.32
546.478	33.62
546.821	33.92
547.165	34.2
547.508	34.5
547.851	34.82
548.194	35.11
548.536	35.41
548.879	35.72
549.222	35.99
549.565	36.34
549.908	36.61
550.25	36.95
550.593	37.3
550.936	37.63
551.278	37.91
551.621	38.22
551.963	38.55
552.306	38.88
552.648	39.18
552.991	39.48
553.333	39.75
553.675	40.03
554.017	40.3
554.36	40.52
554.702	40.78
555.044	41.01
555.386	41.29
555.728	41.52
556.07	41.78
556.412	42.03
556.754	42.29
557.096	42.64
557.438	42.94
557.78	43.16
558.121	43.4
558.463	43.61
558.805	43.91
559.147	44.17
559.488	44.37
559.83	44.63
560.171	44.86
560.513	45.11
560.854	45.4
561.196	45.57
561.537	45.83
561.878	46.09
562.22	46.29
562.561	46.48
562.902	46.76
563.243	47.1
563.584	47.36
563.925	47.55
564.266	47.71
564.607	47.85
564.948	47.98
565.289	48.13
565.63	48.32
565.971	48.53
566.312	48.61
566.653	48.75
566.993	48.94
567.334	49.11
567.675	49.3
568.015	49.43
568.356	49.62
568.696	49.77
569.037	49.89
569.377	50.13
569.718	50.36
570.058	50.46
570.398	50.49
570.739	50.57
571.079	50.71
571.419	50.83
571.759	50.99
572.099	51.19
572.439	51.29
572.779	51.44
573.119	51.47
573.459	51.68
573.799	51.84
574.139	51.94
574.479	52.06
574.819	52.14
575.158	52.24
575.498	52.32
575.838	52.45
576.177	52.6
576.517	52.67
576.856	52.74
577.196	52.89
577.535	52.96
577.875	53.09
578.214	53.27
578.553	53.43
578.893	53.59
579.232	53.71
579.571	53.94
579.91	54
580.25	54.12
580.589	54.16
580.928	54.27
581.267	54.36
581.606	54.43
581.945	54.53
582.283	54.64
582.622	54.67
582.961	54.78
583.3	54.98
583.639	55.06
583.977	55.06
584.316	55.13
584.654	55.31
584.993	55.45
585.332	55.4
585.67	55.46
586.008	55.45
586.347	55.57
586.685	55.52
587.024	55.61
587.362	55.67
587.7	55.74
588.038	55.85
588.376	55.91
588.715	56.06
589.053	56.09
589.391	56.08
589.729	56.32
590.067	56.38
590.404	56.28
590.742	56.31
591.08	56.46
591.418	56.48
591.756	56.56
592.093	56.57
592.431	56.69
592.769	56.71
593.106	56.88
593.444	56.93
593.781	57.09
594.119	57.24
594.456	57.29
594.793	57.37
595.131	57.31
595.468	57.42
595.805	57.44
596.143	57.56
596.48	57.62
596.817	57.57
597.154	57.6
597.491	57.66
597.828	57.74
598.165	57.7
598.502	57.77
598.839	57.81
599.176	57.9
599.512	57.9
599.849	57.99
600.186	57.93
600.523	57.95
600.859	58.05
601.196	57.95
601.532	58.09
601.869	58.2
602.205	58.35
602.542	58.35
602.878	58.39
603.215	58.44
603.551	58.52
603.887	58.48
604.223	58.5
604.56	58.57
604.896	58.6
605.232	58.66
605.568	58.75
605.904	58.72
606.24	58.73
606.576	58.85
606.912	58.91
607.248	58.98
607.583	58.98
607.919	58.92
608.255	58.95
608.591	58.88
608.926	58.82
609.262	58.83
609.597	58.83
609.933	58.83
610.268	58.79
610.604	58.83
610.939	58.93
611.275	58.99
611.61	59
611.945	58.98
612.281	59.07
612.616	59.04
612.951	59.19
613.286	59.24
613.621	59.15
613.956	59.11
614.291	59.05
614.626	59.04
614.961	59.05
615.296	59.22
615.631	59.31
615.966	59.34
616.3	59.31
616.635	59.34
616.97	59.38
617.304	59.42
617.639	59.38
617.973	59.48
618.308	59.52
618.642	59.48
618.977	59.46
619.311	59.44
619.646	59.45
619.98	59.46
620.314	59.48
620.648	59.66
620.983	59.69
621.317	59.79
621.651	59.97
621.985	60.07
622.319	59.95
622.653	60.07
622.987	60.12
623.321	60.27
623.655	60.29
623.988	60.34
624.322	60.41
624.656	60.49
624.99	60.4
625.323	60.35
625.657	60.47
625.99	60.51
626.324	60.58
626.657	60.62
626.991	60.6
627.324	60.63
627.658	60.58
627.991	60.57
628.324	60.51
628.657	60.49
628.991	60.36
629.324	60.42
629.657	60.42
629.99	60.45
630.323	60.44
630.656	60.51
630.989	60.49
631.322	60.47
631.655	60.35
631.987	60.42
632.32	60.48
632.653	60.46
632.986	60.5
633.318	60.55
633.651	60.51
633.984	60.55
634.316	60.51
634.649	60.48
634.981	60.55
635.313	60.63
635.646	60.6
635.978	60.75
636.31	60.77
636.643	60.65
636.975	60.65
637.307	60.57
637.639	60.54
637.971	60.44
638.303	60.52
638.635	60.71
638.967	60.74
639.299	60.79
639.631	60.94
639.963	60.97
640.295	60.88
640.626	60.89
640.958	60.76
641.29	60.69
641.621	60.81
641.953	60.69
642.285	60.8
642.616	60.71
642.948	60.69
643.279	60.71
643.61	60.67
643.942	60.79
644.273	60.86
644.604	60.83
644.936	61.1
645.267	60.96
645.598	60.82
645.929	60.78
646.26	60.66
646.591	60.51
646.922	60.44
647.253	60.5
647.584	60.65
647.915	60.63
648.245	60.69
648.576	60.63
648.907	60.65
649.238	60.49
649.568	60.65
649.899	60.65
650.229	60.64
650.56	60.68
650.89	60.64
651.221	60.56
651.551	60.54
651.882	60.3
652.212	60.31
652.542	60.33
652.872	60.36
653.203	60.48
653.533	60.5
653.863	60.54
654.193	60.59
654.523	60.53
654.853	60.74
655.183	60.83
655.513	60.93
655.843	60.99
656.172	61.11
656.502	61.11
656.832	61.25
657.162	61.31
657.491	61.34
657.821	61.29
658.15	61.34
658.48	61.43
658.809	61.55
659.139	61.58
659.468	61.76
659.798	61.75
660.127	61.74
660.456	61.66
660.785	61.69
661.115	61.58
661.444	61.48
661.773	61.4
662.102	61.47
