Data from MVZ_BU65311_Reflection_00003.txt Node
Date: Tue Nov 19 12:20:05 EST 2019
User: vgr7
Spectrometer: USB2G7710
Scans to average: 3
Trigger mode: 4
Integration Time (sec): 2.000000E-2
Electric dark correction enabled: true
Boxcar width: 10
XAxis mode: Wavelengths
Number of Pixels in Spectrum: 2048
>>>>>Begin Spectral Data<<<<<
177.721	130.42
178.105	-261.11
178.488	12.44
178.871	-34.44
179.254	-53.7
179.636	-76.25
180.019	-534.26
180.402	66.67
180.785	-6.79
181.168	-356.79
181.55	484.26
181.933	3204.17
182.316	1714.58
182.698	-875.69
183.081	-664.88
183.463	-407.31
183.846	-367.3
184.228	-523.51
184.611	-265.12
184.993	-234.17
185.376	-248.71
185.758	-128
186.14	-114.96
186.522	-70.82
186.904	-65.9
187.287	-71.71
187.669	-61.11
188.051	-61.45
188.433	-54.03
188.815	-46.68
189.197	-29.83
189.579	-19.27
189.961	-26.34
190.342	-27.27
190.724	-28.06
191.106	-34.49
191.488	-36.11
191.869	-22.53
192.251	-19.2
192.633	-24.63
193.014	-22.89
193.396	-17.66
193.777	-28.13
194.159	-30.8
194.54	-38.98
194.922	-51.4
195.303	-49.49
195.684	-56.92
196.065	-60.56
196.447	-67.13
196.828	-73.2
197.209	-69.1
197.59	-67.39
197.971	-62.97
198.352	-52.35
198.733	-51.97
199.114	-53.35
199.495	-50.99
199.876	-66.47
200.257	-66.87
200.638	-71.98
201.018	-64.83
201.399	-71.74
201.78	-55.13
202.16	-51.88
202.541	-44.3
202.922	-35.86
203.302	-29.66
203.683	-38.99
204.063	-34.11
204.444	-17.84
204.824	-15.86
205.204	-14.82
205.585	-8.4
205.965	-9.93
206.345	-19.08
206.725	-13.24
207.106	-5.95
207.486	-8.33
207.866	-7.56
208.246	-9.04
208.626	-6.92
209.006	-21.96
209.386	-24.8
209.766	-35.04
210.145	-30.74
210.525	-33.52
210.905	-26.46
211.285	-21.98
211.664	-9.76
212.044	-5.07
212.424	-12.67
212.803	-11.58
213.183	-24.83
213.562	-27.99
213.942	-22.12
214.321	-21.76
214.701	-19.55
215.08	-29.39
215.459	-23.2
215.838	-23.67
216.218	-25.55
216.597	-24.61
216.976	-19.03
217.355	-18.44
217.734	-30.63
218.113	-24.25
218.492	-32.43
218.871	-30.84
219.25	-34.87
219.629	-51.54
220.008	-47.72
220.387	-36.48
220.766	-27.14
221.144	-27.27
221.523	-31.91
221.902	-31.26
222.28	-29.06
222.659	-23.88
223.037	-24.87
223.416	-35.82
223.794	-31.48
224.173	-35.32
224.551	-32.72
224.929	-37.77
225.308	-38.19
225.686	-28.24
226.064	-27.28
226.442	-17.06
226.821	-17.73
227.199	-20.08
227.577	-16.02
227.955	-15.98
228.333	-16.82
228.711	-19.17
229.089	-18.21
229.467	-13.6
229.845	-15.09
230.222	-11.4
230.6	-13.63
230.978	-10.59
231.356	-10.3
231.733	-8.69
232.111	-7.46
232.488	-8.16
232.866	-5.25
233.243	-3.99
233.621	-2.69
233.998	-2.5
234.376	-2.97
234.753	-2.41
235.13	-1.56
235.508	-2.4
235.885	-2.31
236.262	-2.58
236.639	-0.63
237.016	-0.04
237.393	-1.17
237.77	0.02
238.147	-1.07
238.524	-0.84
238.901	-0.39
239.278	0.26
239.655	0.49
240.032	0.78
240.409	1.65
240.785	0.95
241.162	0.79
241.539	0.47
241.915	0.26
242.292	0.16
242.668	0.05
243.045	0.56
243.421	1.02
243.798	1.12
244.174	1.51
244.551	1.24
244.927	1.28
245.303	1.48
245.679	1.26
246.056	1.47
246.432	1.54
246.808	1.69
247.184	1.74
247.56	1.76
247.936	2.04
248.312	2.01
248.688	2.32
249.064	2.42
249.44	2.58
249.815	2.66
250.191	2.87
250.567	3
250.943	3.11
251.318	2.99
251.694	3.02
252.069	3.13
252.445	3.17
252.82	3.56
253.196	3.71
253.571	4.57
253.947	4.55
254.322	4.51
254.697	4.02
255.073	4.12
255.448	3.75
255.823	3.53
256.198	3.31
256.573	3.36
256.948	3.5
257.323	3.41
257.698	3.34
258.073	3.13
258.448	3.18
258.823	3
259.198	3.01
259.573	2.89
259.948	2.81
260.322	2.76
260.697	2.58
261.072	2.64
261.446	2.4
261.821	2.36
262.195	2.63
262.57	2.7
262.944	2.75
263.319	2.99
263.693	2.97
264.067	3.2
264.442	3.16
264.816	2.96
265.19	2.84
265.564	2.67
265.938	2.64
266.313	2.52
266.687	2.5
267.061	2.24
267.435	2.49
267.809	2.38
268.183	2.46
268.556	2.61
268.93	2.59
269.304	2.61
269.678	2.68
270.051	2.55
270.425	2.54
270.799	2.49
271.172	2.39
271.546	2.39
271.919	2.3
272.293	2.3
272.666	2.32
273.04	2.46
273.413	2.62
273.787	2.8
274.16	2.68
274.533	2.56
274.906	2.51
275.279	2.47
275.653	2.71
276.026	2.65
276.399	2.49
276.772	2.49
277.145	2.33
277.518	2.31
277.891	2.4
278.263	2.46
278.636	2.43
279.009	2.51
279.382	2.31
279.755	2.41
280.127	2.44
280.5	2.62
280.872	2.52
281.245	2.37
281.617	2.19
281.99	2.37
282.362	2.54
282.735	2.77
283.107	2.74
283.479	2.61
283.852	2.73
284.224	2.84
284.596	2.64
284.968	2.78
285.34	2.74
285.713	2.76
286.085	2.83
286.457	2.92
286.829	2.86
287.201	2.97
287.572	2.98
287.944	3.01
288.316	2.88
288.688	3
289.06	3.07
289.431	3.08
289.803	3.08
290.175	2.98
290.546	3.01
290.918	3.08
291.289	2.96
291.661	2.9
292.032	2.81
292.403	2.86
292.775	2.93
293.146	2.96
293.517	2.99
293.889	2.91
294.26	2.86
294.631	2.89
295.002	3.08
295.373	2.92
295.744	2.94
296.115	3.01
296.486	3.02
296.857	3.08
297.228	3.12
297.599	3.09
297.97	3.22
298.34	3.28
298.711	3.24
299.082	3.44
299.452	3.38
299.823	3.38
300.194	3.41
300.564	3.25
300.935	3.42
301.305	3.28
301.676	3.21
302.046	3.14
302.416	3.18
302.787	3.02
303.157	3.06
303.527	3.11
303.897	3.12
304.267	3.05
304.637	3.09
305.008	3.11
305.378	3.2
305.748	3.07
306.117	2.87
306.487	2.85
306.857	2.9
307.227	3.06
307.597	3.07
307.967	3.08
308.336	3.08
308.706	2.99
309.076	3.03
309.445	3.24
309.815	3.29
310.184	3.11
310.554	3.13
310.923	3.04
311.293	3.05
311.662	2.99
312.031	2.96
312.401	2.84
312.77	2.83
313.139	2.72
313.508	2.77
313.877	2.92
314.246	2.86
314.616	2.72
314.985	2.57
315.353	2.61
315.722	2.66
316.091	2.74
316.46	2.81
316.829	2.85
317.198	2.7
317.567	2.87
317.935	2.85
318.304	2.85
318.672	2.98
319.041	2.91
319.41	3.12
319.778	2.97
320.147	3.09
320.515	3.22
320.883	3.37
321.252	3.36
321.62	3.35
321.988	3.47
322.357	3.33
322.725	3.4
323.093	3.52
323.461	3.57
323.829	3.55
324.197	3.37
324.565	3.31
324.933	3.32
325.301	3.07
325.669	3.23
326.037	3.25
326.405	3.27
326.772	3.19
327.14	3
327.508	3.04
327.875	3
328.243	2.86
328.61	2.63
328.978	2.68
329.346	2.7
329.713	2.62
330.08	2.7
330.448	2.76
330.815	2.52
331.182	2.46
331.55	2.43
331.917	2.35
332.284	2.29
332.651	2.24
333.018	2.42
333.385	2.35
333.752	2.32
334.119	2.21
334.486	2.32
334.853	2.34
335.22	2.57
335.587	2.59
335.954	2.79
336.32	2.96
336.687	3.02
337.054	3.08
337.42	3.08
337.787	3.11
338.153	3.04
338.52	3.22
338.886	3.17
339.253	3.15
339.619	3.32
339.986	3.42
340.352	3.44
340.718	3.33
341.084	3.49
341.451	3.46
341.817	3.54
342.183	3.48
342.549	3.64
342.915	3.53
343.281	3.48
343.647	3.44
344.013	3.53
344.379	3.46
344.745	3.37
345.11	3.3
345.476	3.46
345.842	3.47
346.208	3.33
346.573	3.35
346.939	3.35
347.304	3.3
347.67	3.16
348.035	3.17
348.401	3.25
348.766	3.22
349.132	3.26
349.497	3.22
349.862	3.25
350.228	3.12
350.593	3.21
350.958	3.4
351.323	3.31
351.688	3.16
352.053	3.16
352.418	3.17
352.783	3.19
353.148	3.06
353.513	3.05
353.878	3.16
354.243	3.14
354.608	3.22
354.972	3.34
355.337	3.48
355.702	3.57
356.066	3.53
356.431	3.4
356.795	3.38
357.16	3.49
357.524	3.47
357.889	3.52
358.253	3.37
358.618	3.29
358.982	3.27
359.346	3.34
359.71	3.34
360.075	3.42
360.439	3.46
360.803	3.47
361.167	3.49
361.531	3.49
361.895	3.46
362.259	3.49
362.623	3.35
362.987	3.31
363.351	3.24
363.714	3.28
364.078	3.31
364.442	3.31
364.806	3.28
365.169	3.23
365.533	3.23
365.896	3.33
366.26	3.29
366.623	3.3
366.987	3.27
367.35	3.35
367.714	3.29
368.077	3.39
368.44	3.34
368.803	3.32
369.167	3.28
369.53	3.32
369.893	3.25
370.256	3.31
370.619	3.36
370.982	3.36
371.345	3.27
371.708	3.27
372.071	3.28
372.434	3.31
372.797	3.39
373.159	3.35
373.522	3.4
373.885	3.47
374.247	3.48
374.61	3.52
374.973	3.44
375.335	3.51
375.698	3.37
376.06	3.4
376.423	3.45
376.785	3.44
377.147	3.41
377.51	3.44
377.872	3.45
378.234	3.46
378.596	3.52
378.958	3.6
379.321	3.65
379.683	3.71
380.045	3.64
380.407	3.67
380.769	3.7
381.13	3.66
381.492	3.63
381.854	3.62
382.216	3.59
382.578	3.6
382.939	3.55
383.301	3.59
383.663	3.61
384.024	3.58
384.386	3.65
384.747	3.68
385.109	3.71
385.47	3.71
385.832	3.64
386.193	3.63
386.554	3.59
386.916	3.6
387.277	3.57
387.638	3.59
387.999	3.5
388.36	3.51
388.721	3.47
389.082	3.47
389.443	3.53
389.804	3.55
390.165	3.52
390.526	3.54
390.887	3.54
391.248	3.56
391.609	3.59
391.969	3.58
392.33	3.58
392.691	3.59
393.051	3.61
393.412	3.69
393.772	3.69
394.133	3.72
394.493	3.7
394.854	3.72
395.214	3.71
395.574	3.74
395.935	3.74
396.295	3.76
396.655	3.74
397.015	3.69
397.376	3.7
397.736	3.72
398.096	3.68
398.456	3.72
398.816	3.7
399.176	3.68
399.535	3.63
399.895	3.65
400.255	3.6
400.615	3.59
400.975	3.54
401.334	3.54
401.694	3.54
402.054	3.55
402.413	3.49
402.773	3.53
403.132	3.55
403.492	3.57
403.851	3.59
404.211	3.59
404.57	3.59
404.929	3.58
405.288	3.59
405.648	3.63
406.007	3.58
406.366	3.57
406.725	3.6
407.084	3.65
407.443	3.65
407.802	3.63
408.161	3.62
408.52	3.63
408.879	3.62
409.238	3.62
409.596	3.62
409.955	3.64
410.314	3.6
410.673	3.62
411.031	3.6
411.39	3.6
411.748	3.63
412.107	3.66
412.465	3.66
412.824	3.68
413.182	3.68
413.54	3.7
413.899	3.73
414.257	3.7
414.615	3.7
414.974	3.69
415.332	3.76
415.69	3.78
416.048	3.79
416.406	3.78
416.764	3.8
417.122	3.79
417.48	3.79
417.838	3.8
418.195	3.79
418.553	3.78
418.911	3.76
419.269	3.76
419.626	3.75
419.984	3.75
420.342	3.76
420.699	3.73
421.057	3.75
421.414	3.74
421.772	3.74
422.129	3.74
422.486	3.74
422.844	3.72
423.201	3.7
423.558	3.71
423.915	3.7
424.273	3.69
424.63	3.69
424.987	3.7
425.344	3.7
425.701	3.71
426.058	3.7
426.415	3.71
426.772	3.7
427.128	3.71
427.485	3.73
427.842	3.72
428.199	3.75
428.555	3.73
428.912	3.76
429.269	3.75
429.625	3.76
429.982	3.76
430.338	3.77
430.695	3.79
431.051	3.79
431.407	3.8
431.764	3.79
432.12	3.8
432.476	3.81
432.832	3.81
433.189	3.77
433.545	3.79
433.901	3.81
434.257	3.83
434.613	3.8
434.969	3.8
435.325	3.81
435.681	3.81
436.036	3.82
436.392	3.82
436.748	3.86
437.104	3.87
437.459	3.88
437.815	3.86
438.171	3.88
438.526	3.88
438.882	3.89
439.237	3.89
439.593	3.89
439.948	3.9
440.304	3.91
440.659	3.94
441.014	3.94
441.369	3.92
441.725	3.93
442.08	3.93
442.435	3.91
442.79	3.92
443.145	3.91
443.5	3.91
443.855	3.89
444.21	3.87
444.565	3.86
444.92	3.86
445.275	3.86
445.629	3.85
445.984	3.85
446.339	3.85
446.693	3.86
447.048	3.84
447.403	3.83
447.757	3.82
448.112	3.83
448.466	3.84
448.82	3.83
449.175	3.82
449.529	3.83
449.883	3.81
450.238	3.83
450.592	3.82
450.946	3.84
451.3	3.85
451.654	3.85
452.008	3.84
452.362	3.83
452.716	3.84
453.07	3.83
453.424	3.82
453.778	3.82
454.132	3.81
454.486	3.82
454.839	3.84
455.193	3.85
455.547	3.85
455.9	3.84
456.254	3.86
456.607	3.86
456.961	3.87
457.314	3.91
457.668	3.87
458.021	3.89
458.375	3.86
458.728	3.86
459.081	3.86
459.434	3.86
459.787	3.88
460.141	3.91
460.494	3.9
460.847	3.9
461.2	3.91
461.553	3.91
461.906	3.92
462.259	3.91
462.611	3.91
462.964	3.92
463.317	3.92
463.67	3.94
464.022	3.94
464.375	3.92
464.728	3.9
465.08	3.92
465.433	3.93
465.785	3.95
466.138	3.95
466.49	3.96
466.843	3.98
467.195	3.98
467.547	3.97
467.899	3.98
468.252	3.98
468.604	3.97
468.956	3.98
469.308	3.97
469.66	4.01
470.012	4
470.364	4
470.716	3.99
471.068	4
471.42	4.03
471.772	4.05
472.123	4.08
472.475	4.08
472.827	4.08
473.178	4.1
473.53	4.1
473.882	4.07
474.233	4.08
474.585	4.08
474.936	4.08
475.288	4.07
475.639	4.11
475.99	4.09
476.342	4.08
476.693	4.11
477.044	4.09
477.395	4.07
477.746	4.04
478.097	4.05
478.448	4.02
478.8	4
479.15	4
479.501	4
479.852	3.99
480.203	4.02
480.554	3.98
480.905	4.01
481.255	4.03
481.606	4.03
481.957	4.03
482.307	4.04
482.658	4.05
483.009	4.04
483.359	4.06
483.709	4.07
484.06	4.08
484.41	4.09
484.761	4.12
485.111	4.13
485.461	4.13
485.811	4.14
486.162	4.15
486.512	4.16
486.862	4.17
487.212	4.18
487.562	4.17
487.912	4.19
488.262	4.19
488.612	4.19
488.961	4.19
489.311	4.19
489.661	4.19
490.011	4.19
490.36	4.2
490.71	4.2
491.06	4.2
491.409	4.18
491.759	4.19
492.108	4.16
492.458	4.17
492.807	4.16
493.157	4.16
493.506	4.15
493.855	4.14
494.204	4.14
494.554	4.14
494.903	4.15
495.252	4.15
495.601	4.17
495.95	4.16
496.299	4.16
496.648	4.17
496.997	4.17
497.346	4.19
497.695	4.19
498.043	4.21
498.392	4.21
498.741	4.2
499.09	4.2
499.438	4.21
499.787	4.19
500.135	4.21
500.484	4.21
500.832	4.19
501.181	4.21
501.529	4.23
501.878	4.23
502.226	4.22
502.574	4.22
502.923	4.21
503.271	4.22
503.619	4.26
503.967	4.26
504.315	4.28
504.663	4.24
505.011	4.25
505.359	4.22
505.707	4.24
506.055	4.26
506.403	4.27
506.751	4.25
507.098	4.29
507.446	4.32
507.794	4.33
508.141	4.35
508.489	4.37
508.837	4.35
509.184	4.36
509.531	4.37
509.879	4.36
510.226	4.37
510.574	4.38
510.921	4.35
511.268	4.36
511.616	4.36
511.963	4.39
512.31	4.42
512.657	4.44
513.004	4.42
513.351	4.41
513.698	4.42
514.045	4.44
514.392	4.41
514.739	4.4
515.086	4.41
515.432	4.43
515.779	4.42
516.126	4.45
516.473	4.44
516.819	4.45
517.166	4.46
517.512	4.45
517.859	4.45
518.205	4.46
518.552	4.46
518.898	4.46
519.245	4.47
519.591	4.43
519.937	4.43
520.283	4.45
520.629	4.47
520.976	4.46
521.322	4.47
521.668	4.48
522.014	4.48
522.36	4.44
522.706	4.46
523.052	4.47
523.398	4.45
523.743	4.46
524.089	4.48
524.435	4.49
524.781	4.5
525.126	4.51
525.472	4.53
525.817	4.53
526.163	4.53
526.509	4.53
526.854	4.55
527.199	4.55
527.545	4.56
527.89	4.57
528.235	4.57
528.581	4.58
528.926	4.59
529.271	4.58
529.616	4.61
529.961	4.58
530.306	4.59
530.651	4.61
530.996	4.61
531.341	4.6
531.686	4.6
532.031	4.6
532.376	4.6
532.721	4.6
533.065	4.6
533.41	4.6
533.755	4.59
534.099	4.58
534.444	4.59
534.788	4.57
535.133	4.55
535.477	4.55
535.822	4.53
536.166	4.53
536.51	4.56
536.855	4.55
537.199	4.56
537.543	4.54
537.887	4.54
538.231	4.54
538.576	4.55
538.92	4.57
539.264	4.57
539.608	4.58
539.951	4.6
540.295	4.6
540.639	4.61
540.983	4.63
541.327	4.65
541.671	4.64
542.014	4.65
542.358	4.65
542.701	4.65
543.045	4.66
543.389	4.67
543.732	4.66
544.075	4.68
544.419	4.67
544.762	4.71
545.105	4.7
545.449	4.71
545.792	4.72
546.135	4.73
546.478	4.72
546.821	4.7
547.165	4.7
547.508	4.7
547.851	4.7
548.194	4.67
548.536	4.65
548.879	4.65
549.222	4.69
549.565	4.69
549.908	4.68
550.25	4.69
550.593	4.68
550.936	4.66
551.278	4.66
551.621	4.68
551.963	4.66
552.306	4.65
552.648	4.61
552.991	4.6
553.333	4.59
553.675	4.6
554.017	4.6
554.36	4.56
554.702	4.55
555.044	4.56
555.386	4.57
555.728	4.58
556.07	4.6
556.412	4.58
556.754	4.57
557.096	4.55
557.438	4.54
557.78	4.52
558.121	4.57
558.463	4.57
558.805	4.53
559.147	4.54
559.488	4.53
559.83	4.57
560.171	4.52
560.513	4.53
560.854	4.5
561.196	4.52
561.537	4.56
561.878	4.57
562.22	4.6
562.561	4.61
562.902	4.6
563.243	4.63
563.584	4.62
563.925	4.69
564.266	4.74
564.607	4.76
564.948	4.79
565.289	4.75
565.63	4.73
565.971	4.76
566.312	4.78
566.653	4.79
566.993	4.79
567.334	4.85
567.675	4.85
568.015	4.87
568.356	4.87
568.696	4.86
569.037	4.85
569.377	4.84
569.718	4.85
570.058	4.84
570.398	4.83
570.739	4.84
571.079	4.79
571.419	4.76
571.759	4.73
572.099	4.73
572.439	4.74
572.779	4.78
573.119	4.78
573.459	4.77
573.799	4.78
574.139	4.76
574.479	4.76
574.819	4.78
575.158	4.78
575.498	4.76
575.838	4.76
576.177	4.77
576.517	4.76
576.856	4.75
577.196	4.76
577.535	4.77
577.875	4.71
578.214	4.7
578.553	4.7
578.893	4.73
579.232	4.72
579.571	4.72
579.91	4.71
580.25	4.74
580.589	4.73
580.928	4.71
581.267	4.71
581.606	4.69
581.945	4.69
582.283	4.72
582.622	4.7
582.961	4.71
583.3	4.73
583.639	4.75
583.977	4.73
584.316	4.73
584.654	4.71
584.993	4.75
585.332	4.78
585.67	4.83
586.008	4.84
586.347	4.84
586.685	4.82
587.024	4.82
587.362	4.78
587.7	4.8
588.038	4.9
588.376	4.95
588.715	4.91
589.053	4.9
589.391	4.87
589.729	4.89
590.067	4.9
590.404	4.88
590.742	4.88
591.08	4.9
591.418	4.92
591.756	4.91
592.093	4.92
592.431	4.96
592.769	4.94
593.106	4.93
593.444	4.97
593.781	4.99
594.119	4.98
594.456	4.98
594.793	5
595.131	4.96
595.468	4.97
595.805	5.04
596.143	5.04
596.48	5.05
596.817	5.04
597.154	5.03
597.491	5.05
597.828	5.04
598.165	5.02
598.502	5.03
598.839	5.05
599.176	5.05
599.512	5.02
599.849	5.07
600.186	5.08
600.523	5.08
600.859	5.08
601.196	5.08
601.532	5.08
601.869	5.06
602.205	5.07
602.542	5.06
602.878	5.05
603.215	5.03
603.551	5.02
603.887	5.06
604.223	5.04
604.56	5.04
604.896	5.09
605.232	5.13
605.568	5.11
605.904	5.12
606.24	5.14
606.576	5.16
606.912	5.15
607.248	5.15
607.583	5.14
607.919	5.13
608.255	5.11
608.591	5.12
608.926	5.08
609.262	5.03
609.597	4.97
609.933	4.94
610.268	4.97
610.604	5
610.939	5
611.275	5.01
611.61	4.99
611.945	4.94
612.281	4.92
612.616	4.92
612.951	4.9
613.286	4.9
613.621	4.86
613.956	4.89
614.291	4.9
614.626	4.84
614.961	4.9
615.296	4.9
615.631	4.92
615.966	5
616.3	5.04
616.635	5.12
616.97	5.17
617.304	5.14
617.639	5.16
617.973	5.1
618.308	5.11
618.642	5.08
618.977	5.08
619.311	5.12
619.646	5.15
619.98	5.13
620.314	5.13
620.648	5.18
620.983	5.07
621.317	5.08
621.651	5.1
621.985	5.1
622.319	5.05
622.653	5.01
622.987	4.96
623.321	5.01
623.655	4.98
623.988	4.99
624.322	5
624.656	4.99
624.99	4.99
625.323	4.99
625.657	5.06
625.99	5.1
626.324	5.06
626.657	5.02
626.991	5.06
627.324	5.06
627.658	5.01
627.991	5.09
628.324	5.07
628.657	5.07
628.991	5.05
629.324	5.14
629.657	5.16
629.99	5.19
630.323	5.17
630.656	5.2
630.989	5.19
631.322	5.26
631.655	5.25
631.987	5.29
632.32	5.3
632.653	5.31
632.986	5.23
633.318	5.26
633.651	5.27
633.984	5.24
634.316	5.25
634.649	5.29
634.981	5.31
635.313	5.32
635.646	5.34
635.978	5.34
636.31	5.29
636.643	5.31
636.975	5.3
637.307	5.26
637.639	5.27
637.971	5.2
638.303	5.04
638.635	5.09
638.967	5.11
639.299	5.1
639.631	5.11
639.963	5.09
640.295	5.11
640.626	5.14
640.958	5.18
641.29	5.17
641.621	5.15
641.953	5.04
642.285	5.06
642.616	5.11
642.948	5.1
643.279	5.04
643.61	5.05
643.942	5.05
644.273	5.06
644.604	5
644.936	5.02
645.267	5.09
645.598	5.03
645.929	4.95
646.26	5.02
646.591	5.01
646.922	5.04
647.253	5.01
647.584	4.92
647.915	4.85
648.245	4.84
648.576	4.87
648.907	4.97
649.238	4.88
649.568	4.86
649.899	4.87
650.229	4.97
650.56	5.04
650.89	5.11
651.221	5.1
651.551	5.19
651.882	5.14
652.212	5.13
652.542	5.11
652.872	5.17
653.203	5.06
653.533	5.05
653.863	5.04
654.193	5.02
654.523	5.06
654.853	5.23
655.183	5.27
655.513	5.23
655.843	5.27
656.172	5.37
656.502	5.3
656.832	5.28
657.162	5.27
657.491	5.23
657.821	5.13
658.15	5.22
658.48	5.29
658.809	5.42
659.139	5.5
659.468	5.49
659.798	5.49
660.127	5.51
660.456	5.49
660.785	5.54
661.115	5.58
661.444	5.62
661.773	5.49
662.102	5.51
662.431	5.52
662.76	5.49
663.089	5.46
663.418	5.59
663.747	5.64
664.076	5.63
664.404	5.61
664.733	5.73
665.062	5.68
665.39	5.54
665.719	5.48
666.048	5.38
666.376	5.41
666.705	5.38
667.033	5.44
667.362	5.41
667.69	5.48
668.018	5.53
668.347	5.56
668.675	5.63
669.003	5.58
669.331	5.61
669.659	5.51
669.987	5.47
670.315	5.37
670.643	5.34
670.971	5.41
671.299	5.46
671.627	5.39
671.955	5.31
672.283	5.31
672.61	5.29
672.938	5.4
673.266	5.47
673.593	5.4
673.921	5.38
674.249	5.41
674.576	5.42
674.904	5.36
675.231	5.36
675.558	5.41
675.886	5.41
676.213	5.38
676.54	5.52
676.867	5.53
677.195	5.6
