Data from MVZ_BU165823_Reflection_00006.txt Node
Date: Tue Nov 19 12:10:25 EST 2019
User: vgr7
Spectrometer: USB2G7710
Scans to average: 3
Trigger mode: 4
Integration Time (sec): 2.000000E-2
Electric dark correction enabled: true
Boxcar width: 10
XAxis mode: Wavelengths
Number of Pixels in Spectrum: 2048
>>>>>Begin Spectral Data<<<<<
177.721	52.5
178.105	67.74
178.488	54.96
178.871	123.97
179.254	70.21
179.636	134.48
180.019	-46.51
180.402	25
180.785	201.64
181.168	198.89
181.55	336.05
181.933	177.99
182.316	521.97
182.698	9463.64
183.081	676.64
183.463	-590.72
183.846	-1144.9
184.228	-168.29
184.611	-67.65
184.993	-44.16
185.376	-40.32
185.758	-37.53
186.14	-44.03
186.522	-33.79
186.904	-16.45
187.287	-38.82
187.669	-7.66
188.051	-32.6
188.433	-47.24
188.815	-36.08
189.197	-12.64
189.579	-1.26
189.961	-17.81
190.342	-25.79
190.724	-34.52
191.106	-47.79
191.488	-61.68
191.869	-44.09
192.251	-31.98
192.633	-33.37
193.014	-39.19
193.396	-50.31
193.777	-40.99
194.159	-28.85
194.54	-50.4
194.922	-69.56
195.303	-75.48
195.684	-194.46
196.065	-221.08
196.447	-95.88
196.828	-58.95
197.209	-83.62
197.59	-96.05
197.971	-43.38
198.352	-2.47
198.733	-3.94
199.114	1.91
199.495	-11.28
199.876	-14.11
200.257	-17.23
200.638	-41.94
201.018	-63.1
201.399	-17.38
201.78	-24.34
202.16	-32.95
202.541	-7.8
202.922	-27.22
203.302	-35.05
203.683	-47.04
204.063	-31.34
204.444	-40.85
204.824	-50.13
205.204	-58.86
205.585	-66.58
205.965	-76.53
206.345	-96.27
206.725	-80.46
207.106	-64.52
207.486	-50.89
207.866	-58.19
208.246	-47.89
208.626	-58.98
209.006	-34.87
209.386	-55.76
209.766	-50.66
210.145	-67.48
210.525	-81.27
210.905	-57.24
211.285	-55.14
211.664	-38.31
212.044	-50.35
212.424	-52.2
212.803	-58.18
213.183	-59.76
213.562	-57.18
213.942	-57.1
214.321	-60.37
214.701	-76.92
215.08	-90.21
215.459	-88.97
215.838	-97.58
216.218	-111.67
216.597	-92.93
216.976	-188.87
217.355	-153.92
217.734	-217.18
218.113	-110.8
218.492	-90.61
218.871	-119.02
219.25	-93.02
219.629	-121.43
220.008	-104
220.387	-101.37
220.766	-67.75
221.144	-48.19
221.523	-42.35
221.902	-29.5
222.28	-32.59
222.659	-10.42
223.037	-18.23
223.416	-1.65
223.794	2.48
224.173	-5.09
224.551	-5.25
224.929	7.22
225.308	10.47
225.686	7.52
226.064	10.01
226.442	6.85
226.821	6.26
227.199	2.36
227.577	4.42
227.955	1.92
228.333	-0.71
228.711	-1.11
229.089	-0.82
229.467	-3.37
229.845	-8.22
230.222	-7.15
230.6	-9.68
230.978	-4.37
231.356	-8.15
231.733	-7.88
232.111	-4.64
232.488	-4.29
232.866	-3.82
233.243	-7.04
233.621	-7.95
233.998	-7.95
234.376	-5.67
234.753	-3.42
235.13	-2.51
235.508	-3.67
235.885	-2.82
236.262	-3.22
236.639	-4.69
237.016	-4.46
237.393	-3.41
237.77	-1.85
238.147	-0.87
238.524	1.17
238.901	0.18
239.278	0.28
239.655	1.21
240.032	0.29
240.409	0.77
240.785	1.21
241.162	1.98
241.539	2.29
241.915	2.47
242.292	2.38
242.668	1.6
243.045	1.94
243.421	2.69
243.798	2.9
244.174	3.2
244.551	3.35
244.927	3.32
245.303	3.32
245.679	3.27
246.056	3.47
246.432	3.27
246.808	3.64
247.184	4.08
247.56	3.72
247.936	3.85
248.312	3.83
248.688	3.44
249.064	3.36
249.44	2.92
249.815	2.78
250.191	2.76
250.567	2.96
250.943	2.74
251.318	2.55
251.694	2.38
252.069	2.46
252.445	2.57
252.82	2.74
253.196	2.69
253.571	2.62
253.947	2.34
254.322	2.49
254.697	2.02
255.073	1.58
255.448	1.76
255.823	1.87
256.198	1.7
256.573	2.03
256.948	2.3
257.323	2.88
257.698	2.99
258.073	2.77
258.448	2.96
258.823	3.04
259.198	2.9
259.573	2.8
259.948	2.78
260.322	2.73
260.697	2.74
261.072	2.85
261.446	2.97
261.821	2.79
262.195	2.85
262.57	2.93
262.944	2.93
263.319	2.96
263.693	3.06
264.067	3.23
264.442	3.15
264.816	3.1
265.19	3.06
265.564	2.93
265.938	2.9
266.313	2.87
266.687	2.77
267.061	2.73
267.435	3.04
267.809	2.72
268.183	2.7
268.556	2.72
268.93	2.66
269.304	2.68
269.678	2.88
270.051	2.54
270.425	2.52
270.799	2.44
271.172	2.45
271.546	2.35
271.919	2.3
272.293	2.35
272.666	2.37
273.04	2.36
273.413	2.6
273.787	2.48
274.16	2.21
274.533	2.22
274.906	2.45
275.279	2.18
275.653	2.52
276.026	2.5
276.399	2.36
276.772	2.34
277.145	2.45
277.518	2.39
277.891	2.51
278.263	2.52
278.636	2.52
279.009	2.55
279.382	2.55
279.755	2.52
280.127	2.51
280.5	2.56
280.872	2.55
281.245	2.28
281.617	2.56
281.99	2.63
282.362	2.67
282.735	2.53
283.107	2.63
283.479	2.52
283.852	2.57
284.224	2.63
284.596	2.58
284.968	2.33
285.34	2.31
285.713	2.24
286.085	2.23
286.457	2.29
286.829	2.26
287.201	2.32
287.572	2.45
287.944	2.6
288.316	2.59
288.688	2.49
289.06	2.53
289.431	2.52
289.803	2.74
290.175	2.69
290.546	2.69
290.918	2.57
291.289	2.52
291.661	2.48
292.032	2.47
292.403	2.42
292.775	2.55
293.146	2.63
293.517	2.63
293.889	2.7
294.26	2.79
294.631	2.83
295.002	2.79
295.373	2.73
295.744	2.61
296.115	2.54
296.486	2.61
296.857	2.75
297.228	2.64
297.599	2.31
297.97	2.39
298.34	2.51
298.711	2.75
299.082	2.76
299.452	2.64
299.823	2.66
300.194	2.81
300.564	2.74
300.935	2.73
301.305	2.76
301.676	2.69
302.046	2.62
302.416	2.58
302.787	2.51
303.157	2.62
303.527	2.78
303.897	2.64
304.267	2.62
304.637	2.42
305.008	2.47
305.378	2.69
305.748	2.64
306.117	2.42
306.487	2.38
306.857	2.4
307.227	2.6
307.597	2.53
307.967	2.36
308.336	2.43
308.706	2.46
309.076	2.64
309.445	2.67
309.815	2.59
310.184	2.73
310.554	2.72
310.923	2.58
311.293	2.25
311.662	2.54
312.031	2.45
312.401	2.5
312.77	2.53
313.139	2.7
313.508	2.77
313.877	2.85
314.246	2.7
314.616	2.8
314.985	2.69
315.353	2.62
315.722	2.84
316.091	2.85
316.46	2.66
316.829	2.48
317.198	2.41
317.567	2.5
317.935	2.39
318.304	2.61
318.672	2.63
319.041	2.91
319.41	2.87
319.778	3
320.147	3.08
320.515	2.96
320.883	2.73
321.252	2.75
321.62	2.73
321.988	2.91
322.357	2.88
322.725	2.83
323.093	2.84
323.461	2.74
323.829	2.75
324.197	2.83
324.565	3.01
324.933	3.04
325.301	2.99
325.669	2.93
326.037	2.8
326.405	2.73
326.772	2.63
327.14	2.45
327.508	2.4
327.875	2.33
328.243	2.38
328.61	2.4
328.978	2.35
329.346	2.49
329.713	2.36
330.08	2.35
330.448	2.37
330.815	2.51
331.182	2.62
331.55	2.59
331.917	2.58
332.284	2.4
332.651	2.26
333.018	2.38
333.385	2.35
333.752	2.5
334.119	2.61
334.486	2.51
334.853	2.49
335.22	2.5
335.587	2.36
335.954	2.3
336.32	2.19
336.687	2.11
337.054	2.08
337.42	2.15
337.787	2.12
338.153	2.25
338.52	2.11
338.886	2.09
339.253	2.03
339.619	2.04
339.986	2.07
340.352	2.17
340.718	2.1
341.084	2.1
341.451	2.11
341.817	1.99
342.183	2.12
342.549	2.23
342.915	2.23
343.281	2.36
343.647	2.45
344.013	2.53
344.379	2.51
344.745	2.58
345.11	2.59
345.476	2.71
345.842	2.61
346.208	2.65
346.573	2.65
346.939	2.6
347.304	2.65
347.67	2.68
348.035	2.75
348.401	2.63
348.766	2.72
349.132	2.7
349.497	2.72
349.862	2.66
350.228	2.62
350.593	2.68
350.958	2.77
351.323	2.67
351.688	2.7
352.053	2.8
352.418	2.63
352.783	2.66
353.148	2.56
353.513	2.6
353.878	2.59
354.243	2.55
354.608	2.66
354.972	2.66
355.337	2.72
355.702	2.72
356.066	2.84
356.431	2.75
356.795	2.75
357.16	2.84
357.524	2.86
357.889	2.82
358.253	2.81
358.618	2.78
358.982	2.83
359.346	2.89
359.71	2.85
360.075	2.95
360.439	2.92
360.803	2.95
361.167	2.87
361.531	2.86
361.895	2.85
362.259	2.87
362.623	2.86
362.987	2.82
363.351	2.77
363.714	2.8
364.078	2.79
364.442	2.69
364.806	2.68
365.169	2.69
365.533	2.73
365.896	2.69
366.26	2.67
366.623	2.71
366.987	2.65
367.35	2.66
367.714	2.57
368.077	2.6
368.44	2.63
368.803	2.7
369.167	2.75
369.53	2.76
369.893	2.75
370.256	2.77
370.619	2.69
370.982	2.67
371.345	2.67
371.708	2.68
372.071	2.72
372.434	2.69
372.797	2.67
373.159	2.67
373.522	2.68
373.885	2.68
374.247	2.66
374.61	2.67
374.973	2.68
375.335	2.74
375.698	2.69
376.06	2.64
376.423	2.64
376.785	2.68
377.147	2.72
377.51	2.69
377.872	2.67
378.234	2.73
378.596	2.76
378.958	2.71
379.321	2.73
379.683	2.76
380.045	2.71
380.407	2.74
380.769	2.72
381.13	2.68
381.492	2.69
381.854	2.63
382.216	2.68
382.578	2.65
382.939	2.6
383.301	2.57
383.663	2.6
384.024	2.6
384.386	2.62
384.747	2.57
385.109	2.62
385.47	2.64
385.832	2.67
386.193	2.65
386.554	2.67
386.916	2.71
387.277	2.68
387.638	2.74
387.999	2.67
388.36	2.69
388.721	2.72
389.082	2.74
389.443	2.83
389.804	2.81
390.165	2.83
390.526	2.85
390.887	2.88
391.248	2.87
391.609	2.86
391.969	2.81
392.33	2.83
392.691	2.79
393.051	2.77
393.412	2.78
393.772	2.85
394.133	2.83
394.493	2.79
394.854	2.79
395.214	2.76
395.574	2.82
395.935	2.81
396.295	2.82
396.655	2.8
397.015	2.77
397.376	2.75
397.736	2.74
398.096	2.73
398.456	2.73
398.816	2.75
399.176	2.75
399.535	2.77
399.895	2.72
400.255	2.75
400.615	2.76
400.975	2.72
401.334	2.69
401.694	2.71
402.054	2.71
402.413	2.72
402.773	2.73
403.132	2.74
403.492	2.74
403.851	2.75
404.211	2.73
404.57	2.73
404.929	2.7
405.288	2.71
405.648	2.74
406.007	2.74
406.366	2.7
406.725	2.72
407.084	2.73
407.443	2.77
407.802	2.74
408.161	2.73
408.52	2.75
408.879	2.79
409.238	2.77
409.596	2.76
409.955	2.78
410.314	2.8
410.673	2.76
411.031	2.76
411.39	2.76
411.748	2.78
412.107	2.73
412.465	2.75
412.824	2.76
413.182	2.74
413.54	2.76
413.899	2.78
414.257	2.77
414.615	2.76
414.974	2.78
415.332	2.79
415.69	2.79
416.048	2.81
416.406	2.79
416.764	2.81
417.122	2.85
417.48	2.85
417.838	2.86
418.195	2.87
418.553	2.87
418.911	2.86
419.269	2.86
419.626	2.88
419.984	2.89
420.342	2.89
420.699	2.88
421.057	2.88
421.414	2.9
421.772	2.9
422.129	2.9
422.486	2.9
422.844	2.89
423.201	2.89
423.558	2.88
423.915	2.89
424.273	2.89
424.63	2.9
424.987	2.91
425.344	2.91
425.701	2.92
426.058	2.92
426.415	2.92
426.772	2.94
427.128	2.97
427.485	2.98
427.842	2.97
428.199	2.99
428.555	2.99
428.912	2.96
429.269	2.96
429.625	2.97
429.982	2.97
430.338	3
430.695	3.01
431.051	3.02
431.407	3.02
431.764	2.99
432.12	2.97
432.476	2.95
432.832	2.93
433.189	2.94
433.545	2.94
433.901	2.97
434.257	2.95
434.613	2.92
434.969	2.9
435.325	2.93
435.681	2.93
436.036	2.94
436.392	2.95
436.748	2.96
437.104	2.97
437.459	2.96
437.815	2.95
438.171	2.97
438.526	2.96
438.882	2.95
439.237	2.96
439.593	2.99
439.948	2.98
440.304	2.99
440.659	2.99
441.014	3.01
441.369	3
441.725	3.01
442.08	3.02
442.435	3.01
442.79	2.99
443.145	2.98
443.5	2.96
443.855	2.97
444.21	2.96
444.565	2.95
444.92	2.96
445.275	2.97
445.629	2.95
445.984	2.95
446.339	2.96
446.693	2.97
447.048	2.94
447.403	2.93
447.757	2.93
448.112	2.93
448.466	2.92
448.82	2.91
449.175	2.92
449.529	2.92
449.883	2.93
450.238	2.95
450.592	2.96
450.946	2.98
451.3	2.98
451.654	2.97
452.008	2.98
452.362	2.96
452.716	2.97
453.07	2.95
453.424	2.95
453.778	2.94
454.132	2.92
454.486	2.94
454.839	2.96
455.193	2.97
455.547	2.98
455.9	2.99
456.254	2.99
456.607	2.97
456.961	2.97
457.314	2.95
457.668	2.94
458.021	2.93
458.375	2.92
458.728	2.93
459.081	2.93
459.434	2.92
459.787	2.94
460.141	2.94
460.494	2.95
460.847	2.96
461.2	2.95
461.553	2.97
461.906	2.96
462.259	2.95
462.611	2.93
462.964	2.92
463.317	2.89
463.67	2.9
464.022	2.93
464.375	2.92
464.728	2.94
465.08	2.95
465.433	2.94
465.785	2.93
466.138	2.91
466.49	2.92
466.843	2.95
467.195	2.94
467.547	2.93
467.899	2.92
468.252	2.91
468.604	2.91
468.956	2.92
469.308	2.91
469.66	2.94
470.012	2.95
470.364	2.96
470.716	2.96
471.068	2.96
471.42	2.95
471.772	2.96
472.123	2.96
472.475	2.96
472.827	2.99
473.178	3.01
473.53	3
473.882	2.99
474.233	2.96
474.585	2.97
474.936	2.97
475.288	2.98
475.639	2.98
475.99	3
476.342	3.01
476.693	3.03
477.044	3.02
477.395	3.03
477.746	3.04
478.097	3.05
478.448	3.03
478.8	3.01
479.15	3.01
479.501	2.99
479.852	3
480.203	3
480.554	3
480.905	3.02
481.255	3.03
481.606	3.03
481.957	3.05
482.307	3.04
482.658	3.06
483.009	3.06
483.359	3.05
483.709	3.06
484.06	3.06
484.41	3.06
484.761	3.07
485.111	3.07
485.461	3.06
485.811	3.07
486.162	3.08
486.512	3.08
486.862	3.09
487.212	3.1
487.562	3.08
487.912	3.09
488.262	3.1
488.612	3.1
488.961	3.1
489.311	3.08
489.661	3.09
490.011	3.07
490.36	3.08
490.71	3.07
491.06	3.06
491.409	3.06
491.759	3.07
492.108	3.05
492.458	3.05
492.807	3.05
493.157	3.05
493.506	3.05
493.855	3.05
494.204	3.03
494.554	3.04
494.903	3.06
495.252	3.04
495.601	3.04
495.95	3.07
496.299	3.07
496.648	3.1
496.997	3.11
497.346	3.11
497.695	3.12
498.043	3.14
498.392	3.13
498.741	3.15
499.09	3.13
499.438	3.14
499.787	3.15
500.135	3.14
500.484	3.14
500.832	3.14
501.181	3.15
501.529	3.19
501.878	3.17
502.226	3.18
502.574	3.2
502.923	3.17
503.271	3.15
503.619	3.15
503.967	3.1
504.315	3.08
504.663	3.09
505.011	3.07
505.359	3.06
505.707	3.06
506.055	3.06
506.403	3.06
506.751	3.04
507.098	3.03
507.446	3.04
507.794	3.03
508.141	3.05
508.489	3.06
508.837	3.04
509.184	3.04
509.531	3.04
509.879	3.03
510.226	3.04
510.574	3.05
510.921	3.04
511.268	3.08
511.616	3.1
511.963	3.12
512.31	3.11
512.657	3.13
513.004	3.12
513.351	3.12
513.698	3.11
514.045	3.12
514.392	3.12
514.739	3.14
515.086	3.17
515.432	3.16
515.779	3.15
516.126	3.16
516.473	3.16
516.819	3.16
517.166	3.18
517.512	3.18
517.859	3.15
518.205	3.14
518.552	3.14
518.898	3.15
519.245	3.14
519.591	3.14
519.937	3.13
520.283	3.15
520.629	3.14
520.976	3.17
521.322	3.19
521.668	3.19
522.014	3.17
522.36	3.15
522.706	3.16
523.052	3.16
523.398	3.16
523.743	3.16
524.089	3.16
524.435	3.15
524.781	3.15
525.126	3.18
525.472	3.19
525.817	3.19
526.163	3.19
526.509	3.21
526.854	3.21
527.199	3.22
527.545	3.23
527.89	3.24
528.235	3.24
528.581	3.23
528.926	3.23
529.271	3.23
529.616	3.23
529.961	3.24
530.306	3.24
530.651	3.24
530.996	3.24
531.341	3.25
531.686	3.25
532.031	3.26
532.376	3.25
532.721	3.26
533.065	3.25
533.41	3.24
533.755	3.24
534.099	3.24
534.444	3.24
534.788	3.23
535.133	3.23
535.477	3.22
535.822	3.24
536.166	3.24
536.51	3.24
536.855	3.25
537.199	3.23
537.543	3.25
537.887	3.26
538.231	3.26
538.576	3.27
538.92	3.28
539.264	3.28
539.608	3.28
539.951	3.28
540.295	3.28
540.639	3.3
540.983	3.3
541.327	3.32
541.671	3.32
542.014	3.33
542.358	3.34
542.701	3.35
543.045	3.35
543.389	3.38
543.732	3.38
544.075	3.39
544.419	3.4
544.762	3.4
545.105	3.41
545.449	3.42
545.792	3.42
546.135	3.43
546.478	3.42
546.821	3.44
547.165	3.45
547.508	3.46
547.851	3.46
548.194	3.44
548.536	3.41
548.879	3.41
549.222	3.4
549.565	3.36
549.908	3.37
550.25	3.35
550.593	3.3
550.936	3.31
551.278	3.29
551.621	3.32
551.963	3.33
552.306	3.32
552.648	3.31
552.991	3.3
553.333	3.29
553.675	3.3
554.017	3.3
554.36	3.3
554.702	3.31
555.044	3.32
555.386	3.32
555.728	3.34
556.07	3.3
556.412	3.28
556.754	3.29
557.096	3.27
557.438	3.27
557.78	3.29
558.121	3.31
558.463	3.32
558.805	3.3
559.147	3.28
559.488	3.26
559.83	3.26
560.171	3.25
560.513	3.25
560.854	3.23
561.196	3.22
561.537	3.23
561.878	3.25
562.22	3.23
562.561	3.25
562.902	3.25
563.243	3.29
563.584	3.29
563.925	3.32
564.266	3.32
564.607	3.3
564.948	3.29
565.289	3.27
565.63	3.27
565.971	3.27
566.312	3.29
566.653	3.29
566.993	3.28
567.334	3.28
567.675	3.27
568.015	3.3
568.356	3.31
568.696	3.3
569.037	3.28
569.377	3.26
569.718	3.23
570.058	3.24
570.398	3.23
570.739	3.24
571.079	3.22
571.419	3.23
571.759	3.27
572.099	3.25
572.439	3.28
572.779	3.29
573.119	3.28
573.459	3.27
573.799	3.27
574.139	3.27
574.479	3.25
574.819	3.25
575.158	3.27
575.498	3.25
575.838	3.27
576.177	3.25
576.517	3.26
576.856	3.25
577.196	3.22
577.535	3.24
577.875	3.22
578.214	3.24
578.553	3.26
578.893	3.22
579.232	3.24
579.571	3.24
579.91	3.24
580.25	3.25
580.589	3.27
580.928	3.23
581.267	3.27
581.606	3.29
581.945	3.28
582.283	3.27
582.622	3.25
582.961	3.22
583.3	3.29
583.639	3.32
583.977	3.35
584.316	3.38
584.654	3.39
584.993	3.42
585.332	3.42
585.67	3.41
586.008	3.41
586.347	3.41
586.685	3.39
587.024	3.36
587.362	3.31
587.7	3.33
588.038	3.37
588.376	3.3
588.715	3.29
589.053	3.3
589.391	3.31
589.729	3.33
590.067	3.34
590.404	3.32
590.742	3.29
591.08	3.33
591.418	3.34
591.756	3.36
592.093	3.37
592.431	3.36
592.769	3.36
593.106	3.35
593.444	3.34
593.781	3.32
594.119	3.33
594.456	3.33
594.793	3.32
595.131	3.33
595.468	3.4
595.805	3.41
596.143	3.47
596.48	3.44
596.817	3.45
597.154	3.43
597.491	3.4
597.828	3.41
598.165	3.33
598.502	3.32
598.839	3.28
599.176	3.27
599.512	3.28
599.849	3.32
600.186	3.3
600.523	3.31
600.859	3.32
601.196	3.34
601.532	3.36
601.869	3.35
602.205	3.3
602.542	3.29
602.878	3.29
603.215	3.26
603.551	3.27
603.887	3.28
604.223	3.29
604.56	3.31
604.896	3.34
605.232	3.36
605.568	3.4
605.904	3.36
606.24	3.34
606.576	3.33
606.912	3.28
607.248	3.35
607.583	3.36
607.919	3.34
608.255	3.33
608.591	3.35
608.926	3.36
609.262	3.39
609.597	3.38
609.933	3.4
610.268	3.4
610.604	3.39
610.939	3.37
611.275	3.34
611.61	3.34
611.945	3.27
612.281	3.3
612.616	3.27
612.951	3.31
613.286	3.32
613.621	3.33
613.956	3.42
614.291	3.36
614.626	3.36
614.961	3.41
615.296	3.41
615.631	3.41
615.966	3.41
616.3	3.39
616.635	3.42
616.97	3.4
617.304	3.42
617.639	3.43
617.973	3.39
618.308	3.44
618.642	3.46
618.977	3.46
619.311	3.48
619.646	3.48
619.98	3.51
620.314	3.51
620.648	3.5
620.983	3.4
621.317	3.44
621.651	3.43
621.985	3.39
622.319	3.4
622.653	3.38
622.987	3.38
623.321	3.3
623.655	3.3
623.988	3.27
624.322	3.28
624.656	3.29
624.99	3.31
625.323	3.28
625.657	3.31
625.99	3.36
626.324	3.33
626.657	3.33
626.991	3.3
627.324	3.26
627.658	3.16
627.991	3.19
628.324	3.18
628.657	3.17
628.991	3.16
629.324	3.13
629.657	3.11
629.99	3.14
630.323	3.22
630.656	3.17
630.989	3.21
631.322	3.18
631.655	3.16
631.987	3.16
632.32	3.21
632.653	3.17
632.986	3.16
633.318	3.2
633.651	3.22
633.984	3.23
634.316	3.32
634.649	3.43
634.981	3.4
635.313	3.39
635.646	3.47
635.978	3.55
636.31	3.53
636.643	3.56
636.975	3.52
637.307	3.54
637.639	3.55
637.971	3.5
638.303	3.45
638.635	3.46
638.967	3.47
639.299	3.42
639.631	3.38
639.963	3.4
640.295	3.39
640.626	3.35
640.958	3.32
641.29	3.31
641.621	3.3
641.953	3.28
642.285	3.25
642.616	3.19
642.948	3.13
643.279	3.13
643.61	3.12
643.942	3.15
644.273	3.14
644.604	3.13
644.936	3.16
645.267	3.21
645.598	3.19
645.929	3.21
646.26	3.2
646.591	3.3
646.922	3.27
647.253	3.27
647.584	3.32
647.915	3.36
648.245	3.32
648.576	3.31
648.907	3.33
649.238	3.31
649.568	3.33
649.899	3.31
650.229	3.38
650.56	3.4
650.89	3.41
651.221	3.43
651.551	3.46
651.882	3.42
652.212	3.46
652.542	3.49
652.872	3.49
653.203	3.51
653.533	3.41
653.863	3.41
654.193	3.36
654.523	3.33
654.853	3.34
655.183	3.36
655.513	3.41
655.843	3.49
656.172	3.61
656.502	3.61
656.832	3.63
657.162	3.6
657.491	3.62
657.821	3.61
658.15	3.66
658.48	3.74
658.809	3.79
659.139	3.77
659.468	3.79
659.798	3.82
660.127	3.79
660.456	3.8
660.785	3.73
661.115	3.79
661.444	3.79
661.773	3.81
662.102	3.75
662.431	3.75
662.76	3.77
663.089	3.74
663.418	3.73
663.747	3.74
664.076	3.68
664.404	3.69
664.733	3.71
665.062	3.66
665.39	3.57
665.719	3.64
666.048	3.62
666.376	3.64
666.705	3.58
667.033	3.67
667.362	3.69
667.69	3.81
668.018	3.79
668.347	3.81
668.675	3.79
669.003	3.82
669.331	3.76
669.659	3.71
669.987	3.7
670.315	3.72
670.643	3.76
670.971	3.88
671.299	3.88
671.627	3.85
671.955	3.84
672.283	3.86
672.61	3.79
672.938	3.88
673.266	3.78
673.593	3.85
673.921	3.84
674.249	3.9
674.576	3.85
674.904	3.84
675.231	3.84
675.558	3.84
675.886	3.87
676.213	3.94
676.54	3.96
676.867	3.92
