Data from MVZ_BU62167_Reflection_00014.txt Node
Date: Tue Nov 19 12:14:45 EST 2019
User: vgr7
Spectrometer: USB2G7710
Scans to average: 3
Trigger mode: 4
Integration Time (sec): 2.000000E-2
Electric dark correction enabled: true
Boxcar width: 10
XAxis mode: Wavelengths
Number of Pixels in Spectrum: 2048
>>>>>Begin Spectral Data<<<<<
177.721	75.14
178.105	195.24
178.488	341.78
178.871	207.02
179.254	109.8
179.636	144.67
180.019	-50.14
180.402	43.75
180.785	-506.67
181.168	341.23
181.55	-177.78
181.933	-223.75
182.316	-362.55
182.698	-624.81
183.081	3785.19
183.463	632.68
183.846	1254.32
184.228	-1909.8
184.611	-137.67
184.993	-22.6
185.376	18.9
185.758	80.06
186.14	137.78
186.522	213.03
186.904	286.27
187.287	262.1
187.669	278.79
188.051	2.52
188.433	-622.22
188.815	31.37
189.197	23.87
189.579	-141.5
189.961	-151.41
190.342	417.61
190.724	853.97
191.106	149.89
191.488	133.59
191.869	136.97
192.251	141.83
192.633	173.19
193.014	104.15
193.396	67.46
193.777	46.03
194.159	40.71
194.54	26.6
194.922	11.51
195.303	2.17
195.684	17.4
196.065	23.72
196.447	21.29
196.828	27.55
197.209	48.33
197.59	38.63
197.971	40.46
198.352	43.67
198.733	33.8
199.114	31.27
199.495	17.4
199.876	4.98
200.257	-1.97
200.638	-0.44
201.018	6.33
201.399	-4.37
201.78	-5.58
202.16	0.49
202.541	-16.1
202.922	-5
203.302	-3.98
203.683	-26.48
204.063	-26.17
204.444	-16.92
204.824	-12.64
205.204	-12.97
205.585	-18.6
205.965	-11.32
206.345	-8.04
206.725	-4.14
207.106	2.36
207.486	2.7
207.866	1.27
208.246	0.15
208.626	-8.08
209.006	-12.15
209.386	-4.83
209.766	-15.66
210.145	-28.62
210.525	-19.22
210.905	-13.23
211.285	-10.6
211.664	16.78
212.044	23.79
212.424	28.45
212.803	18.75
213.183	19.24
213.562	27.61
213.942	12.63
214.321	0.97
214.701	-3.3
215.08	-10.93
215.459	-11.41
215.838	-10.18
216.218	-3.29
216.597	-0.95
216.976	-14.28
217.355	-6.43
217.734	2.24
218.113	11.69
218.492	12.58
218.871	5.53
219.25	13.56
219.629	0.15
220.008	-9.84
220.387	-13.33
220.766	-9.98
221.144	-8.79
221.523	-13.26
221.902	-9.89
222.28	-7.63
222.659	8.04
223.037	11.1
223.416	13.63
223.794	24.5
224.173	18.22
224.551	14.15
224.929	23.28
225.308	9.53
225.686	4.06
226.064	2.54
226.442	5.77
226.821	0.63
227.199	-3.58
227.577	0.29
227.955	3.16
228.333	-0.7
228.711	-0.7
229.089	-0.46
229.467	-2.3
229.845	-2.36
230.222	-1.52
230.6	-5.68
230.978	-4.75
231.356	-7.12
231.733	-6.68
232.111	-5.99
232.488	-6.03
232.866	-4.49
233.243	-2.9
233.621	-3.06
233.998	-0.82
234.376	-2.7
234.753	-0.79
235.13	0.07
235.508	-1.37
235.885	-2.07
236.262	-1.42
236.639	-1.17
237.016	-0.86
237.393	0.87
237.77	2.21
238.147	2.45
238.524	3.47
238.901	2.24
239.278	2.99
239.655	2.97
240.032	2.92
240.409	3.58
240.785	3.26
241.162	3.1
241.539	2.73
241.915	2.41
242.292	3.51
242.668	3.87
243.045	4.55
243.421	5.02
243.798	5
244.174	5.03
244.551	5.02
244.927	4.83
245.303	4.51
245.679	4.41
246.056	4.55
246.432	4.43
246.808	4.63
247.184	4.78
247.56	4.55
247.936	4.37
248.312	4.15
248.688	4.06
249.064	3.95
249.44	4.19
249.815	4.13
250.191	3.87
250.567	3.72
250.943	3.59
251.318	3.3
251.694	3.06
252.069	3.23
252.445	3.26
252.82	3.3
253.196	3.42
253.571	3.41
253.947	3.21
254.322	3.21
254.697	3.35
255.073	3.41
255.448	3.5
255.823	3.86
256.198	3.64
256.573	3.5
256.948	3.69
257.323	3.73
257.698	3.49
258.073	3.31
258.448	3.28
258.823	3.09
259.198	3.19
259.573	3.3
259.948	3.31
260.322	3.22
260.697	3.3
261.072	3.25
261.446	3.14
261.821	3.19
262.195	3.23
262.57	3.17
262.944	3.1
263.319	3.2
263.693	3.07
264.067	3.19
264.442	3.2
264.816	3.17
265.19	3.04
265.564	2.97
265.938	3
266.313	3.03
266.687	3.09
267.061	3.1
267.435	3.17
267.809	3.09
268.183	3.17
268.556	3
268.93	3.05
269.304	2.94
269.678	2.98
270.051	2.93
270.425	2.74
270.799	2.53
271.172	2.44
271.546	2.67
271.919	2.68
272.293	2.8
272.666	2.78
273.04	2.8
273.413	2.99
273.787	3.08
274.16	2.89
274.533	2.86
274.906	2.8
275.279	2.86
275.653	3.01
276.026	2.89
276.399	2.89
276.772	3.01
277.145	3.2
277.518	3.05
277.891	2.88
278.263	3.14
278.636	3.33
279.009	3.44
279.382	3.3
279.755	3.26
280.127	3.27
280.5	3.36
280.872	3.36
281.245	3.41
281.617	3.45
281.99	3.67
282.362	3.71
282.735	3.65
283.107	3.49
283.479	3.51
283.852	3.57
284.224	3.65
284.596	3.43
284.968	3.32
285.34	3.39
285.713	3.53
286.085	3.34
286.457	3.41
286.829	3.3
287.201	3.42
287.572	3.52
287.944	3.44
288.316	3.51
288.688	3.67
289.06	3.68
289.431	3.61
289.803	3.49
290.175	3.52
290.546	3.56
290.918	3.62
291.289	3.51
291.661	3.54
292.032	3.53
292.403	3.71
292.775	3.84
293.146	4.01
293.517	4.11
293.889	4.24
294.26	4.32
294.631	4.38
295.002	4.32
295.373	4.18
295.744	4.26
296.115	4.18
296.486	4.18
296.857	4.22
297.228	4.23
297.599	4.22
297.97	4.33
298.34	4.39
298.711	4.28
299.082	4.39
299.452	4.36
299.823	4.43
300.194	4.41
300.564	4.4
300.935	4.28
301.305	4.17
301.676	4.14
302.046	3.97
302.416	3.96
302.787	3.96
303.157	4.01
303.527	4.17
303.897	4.19
304.267	4.03
304.637	3.96
305.008	3.98
305.378	4.19
305.748	4.22
306.117	4.16
306.487	4.33
306.857	4.21
307.227	4.29
307.597	4.25
307.967	4.29
308.336	4.31
308.706	4.4
309.076	4.49
309.445	4.65
309.815	4.75
310.184	4.86
310.554	4.76
310.923	4.84
311.293	4.73
311.662	4.89
312.031	5.13
312.401	5.22
312.77	5.41
313.139	5.32
313.508	5.19
313.877	5.25
314.246	5.33
314.616	5.35
314.985	5.49
315.353	5.47
315.722	5.55
316.091	5.53
316.46	5.44
316.829	5.46
317.198	5.49
317.567	5.56
317.935	5.49
318.304	5.95
318.672	5.97
319.041	6.13
319.41	6.03
319.778	6.02
320.147	6.04
320.515	5.89
320.883	6.02
321.252	6.15
321.62	6.08
321.988	6.11
322.357	6.15
322.725	6.01
323.093	6.04
323.461	6.09
323.829	6.17
324.197	6.1
324.565	6.22
324.933	6.29
325.301	6.16
325.669	6.19
326.037	6.12
326.405	6.19
326.772	6.16
327.14	6.21
327.508	6.16
327.875	6.28
328.243	6.3
328.61	6.37
328.978	6.28
329.346	6.47
329.713	6.52
330.08	6.5
330.448	6.59
330.815	6.79
331.182	6.66
331.55	6.86
331.917	6.94
332.284	7
332.651	6.99
333.018	7.19
333.385	7.22
333.752	7.04
334.119	7.1
334.486	7.14
334.853	7.07
335.22	7.1
335.587	7.07
335.954	7.13
336.32	7.12
336.687	7.32
337.054	7.32
337.42	7.3
337.787	7.4
338.153	7.57
338.52	7.59
338.886	7.8
339.253	7.69
339.619	7.93
339.986	7.94
340.352	7.97
340.718	7.98
341.084	8.1
341.451	8.27
341.817	8.25
342.183	8.31
342.549	8.43
342.915	8.5
343.281	8.6
343.647	8.64
344.013	8.64
344.379	8.51
344.745	8.47
345.11	8.41
345.476	8.58
345.842	8.44
346.208	8.46
346.573	8.35
346.939	8.42
347.304	8.32
347.67	8.29
348.035	8.14
348.401	8.1
348.766	8.02
349.132	7.83
349.497	7.85
349.862	8
350.228	7.97
350.593	7.95
350.958	7.76
351.323	7.76
351.688	7.85
352.053	7.93
352.418	8
352.783	8.09
353.148	7.97
353.513	8.03
353.878	7.95
354.243	7.84
354.608	7.71
354.972	7.73
355.337	7.68
355.702	7.79
356.066	7.83
356.431	7.87
356.795	7.99
357.16	7.97
357.524	7.83
357.889	7.86
358.253	7.77
358.618	7.7
358.982	7.7
359.346	7.65
359.71	7.63
360.075	7.58
360.439	7.57
360.803	7.56
361.167	7.55
361.531	7.54
361.895	7.66
362.259	7.8
362.623	7.78
362.987	7.8
363.351	7.77
363.714	7.75
364.078	7.74
364.442	7.73
364.806	7.65
365.169	7.6
365.533	7.56
365.896	7.62
366.26	7.64
366.623	7.64
366.987	7.62
367.35	7.62
367.714	7.59
368.077	7.59
368.44	7.62
368.803	7.56
369.167	7.52
369.53	7.49
369.893	7.36
370.256	7.36
370.619	7.26
370.982	7.2
371.345	7.19
371.708	7.09
372.071	7.01
372.434	6.99
372.797	6.91
373.159	6.84
373.522	6.73
373.885	6.78
374.247	6.7
374.61	6.64
374.973	6.56
375.335	6.52
375.698	6.48
376.06	6.42
376.423	6.4
376.785	6.43
377.147	6.33
377.51	6.28
377.872	6.18
378.234	6.25
378.596	6.23
378.958	6.18
379.321	6.14
379.683	6.14
380.045	6.15
380.407	6.15
380.769	6.1
381.13	6.06
381.492	5.98
381.854	6
382.216	6.03
382.578	5.95
382.939	5.88
383.301	5.83
383.663	5.77
384.024	5.74
384.386	5.64
384.747	5.67
385.109	5.67
385.47	5.66
385.832	5.53
386.193	5.5
386.554	5.42
386.916	5.4
387.277	5.3
387.638	5.25
387.999	5.25
388.36	5.26
388.721	5.25
389.082	5.23
389.443	5.19
389.804	5.15
390.165	5.18
390.526	5.18
390.887	5.11
391.248	5.1
391.609	5.11
391.969	5.08
392.33	5.04
392.691	5.01
393.051	4.97
393.412	5.01
393.772	5.01
394.133	5.01
394.493	4.98
394.854	5.03
395.214	5
395.574	4.92
395.935	4.86
396.295	4.84
396.655	4.81
397.015	4.74
397.376	4.67
397.736	4.61
398.096	4.59
398.456	4.6
398.816	4.54
399.176	4.44
399.535	4.44
399.895	4.36
400.255	4.32
400.615	4.28
400.975	4.22
401.334	4.12
401.694	4.15
402.054	4.13
402.413	4.06
402.773	4.03
403.132	4.05
403.492	4.05
403.851	4
404.211	3.99
404.57	3.98
404.929	3.95
405.288	3.95
405.648	3.93
406.007	3.92
406.366	3.93
406.725	3.93
407.084	3.91
407.443	3.93
407.802	3.91
408.161	3.93
408.52	3.96
408.879	4.01
409.238	3.97
409.596	3.96
409.955	3.97
410.314	3.95
410.673	3.89
411.031	3.88
411.39	3.88
411.748	3.89
412.107	3.86
412.465	3.9
412.824	3.87
413.182	3.82
413.54	3.83
413.899	3.79
414.257	3.78
414.615	3.8
414.974	3.8
415.332	3.82
415.69	3.8
416.048	3.77
416.406	3.73
416.764	3.68
417.122	3.67
417.48	3.66
417.838	3.67
418.195	3.68
418.553	3.67
418.911	3.67
419.269	3.65
419.626	3.64
419.984	3.6
420.342	3.61
420.699	3.6
421.057	3.58
421.414	3.58
421.772	3.57
422.129	3.54
422.486	3.51
422.844	3.48
423.201	3.47
423.558	3.47
423.915	3.49
424.273	3.5
424.63	3.48
424.987	3.48
425.344	3.48
425.701	3.45
426.058	3.43
426.415	3.41
426.772	3.4
427.128	3.39
427.485	3.4
427.842	3.37
428.199	3.39
428.555	3.39
428.912	3.37
429.269	3.37
429.625	3.37
429.982	3.38
430.338	3.36
430.695	3.37
431.051	3.34
431.407	3.32
431.764	3.32
432.12	3.32
432.476	3.31
432.832	3.32
433.189	3.33
433.545	3.36
433.901	3.37
434.257	3.37
434.613	3.37
434.969	3.37
435.325	3.39
435.681	3.39
436.036	3.38
436.392	3.39
436.748	3.39
437.104	3.4
437.459	3.41
437.815	3.42
438.171	3.4
438.526	3.41
438.882	3.4
439.237	3.4
439.593	3.4
439.948	3.39
440.304	3.37
440.659	3.39
441.014	3.39
441.369	3.4
441.725	3.41
442.08	3.42
442.435	3.42
442.79	3.4
443.145	3.4
443.5	3.4
443.855	3.38
444.21	3.38
444.565	3.37
444.92	3.37
445.275	3.37
445.629	3.37
445.984	3.35
446.339	3.35
446.693	3.33
447.048	3.33
447.403	3.32
447.757	3.32
448.112	3.31
448.466	3.28
448.82	3.25
449.175	3.22
449.529	3.22
449.883	3.2
450.238	3.19
450.592	3.17
450.946	3.15
451.3	3.17
451.654	3.16
452.008	3.12
452.362	3.1
452.716	3.1
453.07	3.09
453.424	3.1
453.778	3.09
454.132	3.09
454.486	3.09
454.839	3.08
455.193	3.12
455.547	3.13
455.9	3.15
456.254	3.18
456.607	3.19
456.961	3.19
457.314	3.2
457.668	3.21
458.021	3.22
458.375	3.23
458.728	3.24
459.081	3.24
459.434	3.27
459.787	3.3
460.141	3.31
460.494	3.33
460.847	3.35
461.2	3.36
461.553	3.38
461.906	3.39
462.259	3.41
462.611	3.4
462.964	3.4
463.317	3.41
463.67	3.42
464.022	3.43
464.375	3.43
464.728	3.45
465.08	3.45
465.433	3.48
465.785	3.51
466.138	3.53
466.49	3.53
466.843	3.53
467.195	3.55
467.547	3.55
467.899	3.55
468.252	3.55
468.604	3.56
468.956	3.57
469.308	3.56
469.66	3.59
470.012	3.59
470.364	3.63
470.716	3.61
471.068	3.61
471.42	3.62
471.772	3.62
472.123	3.64
472.475	3.66
472.827	3.67
473.178	3.64
473.53	3.64
473.882	3.64
474.233	3.67
474.585	3.64
474.936	3.63
475.288	3.63
475.639	3.65
475.99	3.65
476.342	3.65
476.693	3.67
477.044	3.64
477.395	3.62
477.746	3.59
478.097	3.6
478.448	3.58
478.8	3.55
479.15	3.56
479.501	3.53
479.852	3.51
480.203	3.51
480.554	3.5
480.905	3.5
481.255	3.48
481.606	3.46
481.957	3.47
482.307	3.48
482.658	3.49
483.009	3.47
483.359	3.48
483.709	3.47
484.06	3.46
484.41	3.47
484.761	3.49
485.111	3.5
485.461	3.5
485.811	3.51
486.162	3.52
486.512	3.52
486.862	3.54
487.212	3.55
487.562	3.54
487.912	3.56
488.262	3.57
488.612	3.59
488.961	3.6
489.311	3.6
489.661	3.61
490.011	3.61
490.36	3.63
490.71	3.63
491.06	3.66
491.409	3.68
491.759	3.68
492.108	3.69
492.458	3.7
492.807	3.7
493.157	3.73
493.506	3.75
493.855	3.78
494.204	3.79
494.554	3.82
494.903	3.85
495.252	3.86
495.601	3.88
495.95	3.92
496.299	3.96
496.648	4
496.997	4.04
497.346	4.08
497.695	4.12
498.043	4.19
498.392	4.2
498.741	4.26
499.09	4.31
499.438	4.37
499.787	4.41
500.135	4.48
500.484	4.53
500.832	4.6
501.181	4.66
501.529	4.73
501.878	4.8
502.226	4.87
502.574	4.93
502.923	5.02
503.271	5.12
503.619	5.21
503.967	5.29
504.315	5.39
504.663	5.47
505.011	5.56
505.359	5.61
505.707	5.72
506.055	5.82
506.403	5.91
506.751	5.99
507.098	6.1
507.446	6.22
507.794	6.34
508.141	6.43
508.489	6.56
508.837	6.66
509.184	6.77
509.531	6.89
509.879	7.02
510.226	7.15
510.574	7.25
510.921	7.38
511.268	7.51
511.616	7.64
511.963	7.78
512.31	7.9
512.657	8.04
513.004	8.18
513.351	8.33
513.698	8.49
514.045	8.64
514.392	8.81
514.739	8.94
515.086	9.09
515.432	9.25
515.779	9.37
516.126	9.53
516.473	9.68
516.819	9.81
517.166	9.97
517.512	10.07
517.859	10.21
518.205	10.29
518.552	10.42
518.898	10.54
519.245	10.66
519.591	10.83
519.937	10.96
520.283	11.1
520.629	11.23
520.976	11.37
521.322	11.54
521.668	11.7
522.014	11.88
522.36	12.03
522.706	12.21
523.052	12.4
523.398	12.59
523.743	12.79
524.089	13.01
524.435	13.19
524.781	13.43
525.126	13.61
525.472	13.82
525.817	13.97
526.163	14.12
526.509	14.28
526.854	14.4
527.199	14.55
527.545	14.66
527.89	14.79
528.235	14.92
528.581	15.03
528.926	15.15
529.271	15.3
529.616	15.45
529.961	15.58
530.306	15.72
530.651	15.88
530.996	16.06
531.341	16.24
531.686	16.42
532.031	16.58
532.376	16.78
532.721	16.96
533.065	17.17
533.41	17.39
533.755	17.57
534.099	17.78
534.444	17.99
534.788	18.22
535.133	18.44
535.477	18.66
535.822	18.93
536.166	19.22
536.51	19.49
536.855	19.77
537.199	20.09
537.543	20.42
537.887	20.72
538.231	21.03
538.576	21.34
538.92	21.65
539.264	21.95
539.608	22.24
539.951	22.51
540.295	22.77
540.639	23.01
540.983	23.28
541.327	23.56
541.671	23.81
542.014	24.09
542.358	24.33
542.701	24.58
543.045	24.84
543.389	25.11
543.732	25.37
544.075	25.63
544.419	25.9
544.762	26.21
545.105	26.51
545.449	26.78
545.792	27.1
546.135	27.42
546.478	27.77
546.821	28.15
547.165	28.56
547.508	28.95
547.851	29.32
548.194	29.71
548.536	30.09
548.879	30.51
549.222	30.87
549.565	31.29
549.908	31.7
550.25	32.09
550.593	32.45
550.936	32.86
551.278	33.26
551.621	33.63
551.963	34.04
552.306	34.42
552.648	34.85
552.991	35.21
553.333	35.55
553.675	35.94
554.017	36.28
554.36	36.59
554.702	36.92
555.044	37.27
555.386	37.62
555.728	37.93
556.07	38.25
556.412	38.62
556.754	38.93
557.096	39.29
557.438	39.67
557.78	40
558.121	40.35
558.463	40.71
558.805	41.04
559.147	41.32
559.488	41.67
559.83	42.04
560.171	42.34
560.513	42.68
560.854	42.97
561.196	43.33
561.537	43.65
561.878	43.97
562.22	44.27
562.561	44.56
562.902	44.89
563.243	45.21
563.584	45.5
563.925	45.79
564.266	46.08
564.607	46.27
564.948	46.57
565.289	46.83
565.63	47.09
565.971	47.39
566.312	47.65
566.653	47.89
566.993	48.13
567.334	48.43
567.675	48.71
568.015	48.95
568.356	49.16
568.696	49.38
569.037	49.57
569.377	49.78
569.718	49.97
570.058	50.17
570.398	50.4
570.739	50.54
571.079	50.76
571.419	50.93
571.759	51.17
572.099	51.31
572.439	51.55
572.779	51.72
573.119	51.9
573.459	52.12
573.799	52.29
574.139	52.42
574.479	52.57
574.819	52.78
575.158	52.99
575.498	53.14
575.838	53.32
576.177	53.56
576.517	53.75
576.856	53.91
577.196	54.08
577.535	54.23
577.875	54.47
578.214	54.64
578.553	54.8
578.893	54.98
579.232	55.18
579.571	55.28
579.91	55.45
580.25	55.55
580.589	55.67
580.928	55.76
581.267	55.95
581.606	56.11
581.945	56.17
582.283	56.27
582.622	56.46
582.961	56.56
583.3	56.66
583.639	56.76
583.977	57
584.316	57.19
584.654	57.41
584.993	57.48
585.332	57.59
585.67	57.7
586.008	57.77
586.347	57.85
586.685	57.94
587.024	58.06
587.362	58.24
587.7	58.41
588.038	58.55
588.376	58.69
588.715	58.85
589.053	59.03
589.391	59.13
589.729	59.24
590.067	59.46
590.404	59.57
590.742	59.67
591.08	59.8
591.418	59.89
591.756	59.9
592.093	60.05
592.431	60.23
592.769	60.37
593.106	60.54
593.444	60.75
593.781	60.99
594.119	61.13
594.456	61.17
594.793	61.21
595.131	61.31
595.468	61.47
595.805	61.46
596.143	61.49
596.48	61.47
596.817	61.48
597.154	61.45
597.491	61.45
597.828	61.66
598.165	61.67
598.502	61.76
598.839	61.79
599.176	61.87
599.512	61.91
599.849	62.05
600.186	62.15
600.523	62.21
600.859	62.14
601.196	62.28
601.532	62.52
601.869	62.62
602.205	62.75
602.542	62.76
602.878	62.81
603.215	62.86
603.551	63.01
603.887	63.14
604.223	63.27
604.56	63.37
604.896	63.33
605.232	63.46
605.568	63.48
605.904	63.61
606.24	63.69
606.576	63.67
606.912	63.63
607.248	63.63
607.583	63.6
607.919	63.76
608.255	63.66
608.591	63.65
608.926	63.66
609.262	63.65
609.597	63.65
609.933	63.68
610.268	63.73
610.604	63.79
610.939	63.77
611.275	63.77
611.61	63.83
611.945	63.88
612.281	63.91
612.616	63.99
612.951	64.05
613.286	64.04
613.621	64.16
613.956	64.26
614.291	64.32
614.626	64.46
614.961	64.49
615.296	64.55
615.631	64.55
615.966	64.65
616.3	64.72
616.635	64.93
616.97	65.06
617.304	65
617.639	65.01
617.973	64.99
618.308	65.08
618.642	65.17
618.977	65.23
619.311	65.24
619.646	65.31
619.98	65.33
620.314	65.42
620.648	65.53
620.983	65.51
621.317	65.5
621.651	65.47
621.985	65.42
622.319	65.53
622.653	65.6
622.987	65.65
623.321	65.7
623.655	65.6
623.988	65.69
624.322	65.83
624.656	65.89
624.99	65.93
625.323	65.98
625.657	65.9
625.99	65.98
626.324	65.98
626.657	65.87
626.991	65.97
627.324	65.92
627.658	65.93
627.991	66.04
628.324	66.1
628.657	66.23
628.991	66.3
629.324	66.31
629.657	66.42
629.99	66.34
630.323	66.41
630.656	66.5
630.989	66.4
631.322	66.38
631.655	66.4
631.987	66.43
632.32	66.44
632.653	66.57
632.986	66.47
633.318	66.58
633.651	66.68
633.984	66.59
634.316	66.72
634.649	66.63
634.981	66.67
635.313	66.68
635.646	66.67
635.978	66.72
636.31	66.79
636.643	66.68
636.975	66.76
637.307	66.77
637.639	66.68
637.971	66.76
638.303	66.89
638.635	66.88
638.967	67.09
639.299	67.02
639.631	67.05
639.963	67.1
640.295	66.96
640.626	66.86
640.958	66.86
641.29	66.78
641.621	66.97
641.953	66.88
642.285	66.96
642.616	66.96
642.948	66.91
643.279	66.84
643.61	66.8
643.942	66.8
644.273	66.79
644.604	66.88
644.936	67.02
645.267	66.97
645.598	67.11
645.929	67.04
646.26	67
646.591	67.08
646.922	67.21
647.253	67.33
647.584	67.38
647.915	67.36
648.245	67.43
648.576	67.32
648.907	67.56
649.238	67.68
649.568	67.8
649.899	67.97
650.229	68.02
650.56	68.17
650.89	68.23
651.221	68.19
651.551	68.19
651.882	68.28
652.212	68.37
652.542	68.37
652.872	68.23
653.203	68.31
653.533	68.2
653.863	68.17
654.193	68.16
654.523	68.29
654.853	68.42
655.183	68.55
655.513	68.69
655.843	68.45
656.172	68.31
656.502	68.38
656.832	68.37
657.162	68.53
657.491	68.62
657.821	68.57
658.15	68.51
658.48	68.45
658.809	68.39
659.139	68.26
659.468	68.23
659.798	68.46
660.127	68.52
660.456	68.57
660.785	68.76
661.115	68.84
661.444	68.78
661.773	68.72
662.102	68.62
662.431	68.54
662.76	68.67
663.089	68.75
663.418	68.41
663.747	68.25
664.076	68.15
664.404	68.02
664.733	68.07
665.062	68.17
665.39	68.24
665.719	68.18
666.048	68.36
666.376	68.47
666.705	68.43
667.033	68.48
667.362	68.45
667.69	68.29
668.018	68.14
668.347	68.29
668.675	68.45
669.003	68.52
