Data from MVZ_BU5182_Reflection_00003.txt Node
Date: Tue Nov 19 12:19:08 EST 2019
User: vgr7
Spectrometer: USB2G7710
Scans to average: 3
Trigger mode: 4
Integration Time (sec): 2.000000E-2
Electric dark correction enabled: true
Boxcar width: 10
XAxis mode: Wavelengths
Number of Pixels in Spectrum: 2048
>>>>>Begin Spectral Data<<<<<
177.721	18.66
178.105	-12.99
178.488	-8.06
178.871	-2.38
179.254	-15.56
179.636	-13.85
180.019	-40.6
180.402	136.36
180.785	-1.15
181.168	790.48
181.55	-83.01
181.933	-76.1
182.316	313.68
182.698	107.71
183.081	45.52
183.463	37.84
183.846	29.89
184.228	31.62
184.611	17.08
184.993	12.53
185.376	5.71
185.758	16.8
186.14	-7
186.522	4.42
186.904	3.08
187.287	-9.7
187.669	-6.78
188.051	-3.62
188.433	-0.73
188.815	0.08
189.197	-14.81
189.579	-33.65
189.961	-22.98
190.342	-37.31
190.724	-41.57
191.106	-53.62
191.488	-44.96
191.869	-47.4
192.251	-42.76
192.633	-27.09
193.014	-10.09
193.396	-3.29
193.777	-1.86
194.159	9.83
194.54	-2.06
194.922	-8.64
195.303	-5.65
195.684	-9.01
196.065	-9.24
196.447	-0.32
196.828	-3.69
197.209	2.84
197.59	14.3
197.971	2.36
198.352	-0.54
198.733	-12.39
199.114	-23.3
199.495	-29.75
199.876	-35
200.257	-37.01
200.638	-35.82
201.018	-47.12
201.399	-44.4
201.78	-37.69
202.16	-45.66
202.541	-53.22
202.922	-57.77
203.302	-35.87
203.683	-35.69
204.063	-39.6
204.444	-48.36
204.824	-24.66
205.204	-19.98
205.585	-24.72
205.965	-15.18
206.345	-8.02
206.725	4.12
207.106	12.15
207.486	17.3
207.866	25.06
208.246	32.51
208.626	40.44
209.006	48.14
209.386	53.71
209.766	43.06
210.145	43.39
210.525	45.25
210.905	53.19
211.285	48.92
211.664	52.52
212.044	52.77
212.424	51.01
212.803	37.25
213.183	34.95
213.562	48.79
213.942	37.23
214.321	40.49
214.701	46.87
215.08	38.66
215.459	52.68
215.838	34.41
216.218	14.88
216.597	6.04
216.976	-2.01
217.355	-6.9
217.734	-7.49
218.113	-7.2
218.492	-15.16
218.871	-8.69
219.25	-2.56
219.629	-8.43
220.008	-5.1
220.387	-15.47
220.766	-5.84
221.144	-3.66
221.523	-6.74
221.902	-5.33
222.28	-8.42
222.659	-2.3
223.037	2.96
223.416	-4.36
223.794	-2.53
224.173	-6.31
224.551	-7.3
224.929	-7.22
225.308	-5.39
225.686	-9.68
226.064	-11.65
226.442	-7.55
226.821	-5.94
227.199	-12.25
227.577	-5.45
227.955	-4.25
228.333	-1.84
228.711	-4.48
229.089	-4.52
229.467	-2.53
229.845	-0.78
230.222	1.13
230.6	-1.54
230.978	-2.08
231.356	-2.13
231.733	-2.46
232.111	0.22
232.488	-2.67
232.866	-3.04
233.243	-1.09
233.621	3.52
233.998	3.15
234.376	7.31
234.753	4.85
235.13	5.46
235.508	3
235.885	2.24
236.262	1.53
236.639	4.05
237.016	4.83
237.393	3.82
237.77	3.88
238.147	4.26
238.524	3.78
238.901	4.03
239.278	3.11
239.655	3.6
240.032	3.61
240.409	3.98
240.785	4.21
241.162	3.78
241.539	2.48
241.915	2.58
242.292	2.31
242.668	2.73
243.045	2.66
243.421	2.53
243.798	2.83
244.174	3.06
244.551	3.1
244.927	2.96
245.303	2.67
245.679	2.62
246.056	2.34
246.432	2.43
246.808	2.5
247.184	2.8
247.56	2.51
247.936	2.49
248.312	2.58
248.688	2.41
249.064	2.17
249.44	2.23
249.815	2.28
250.191	2.08
250.567	2.01
250.943	2.28
251.318	2.43
251.694	2.16
252.069	2.48
252.445	2.06
252.82	2.26
253.196	2.93
253.571	3.16
253.947	3.56
254.322	3.37
254.697	3.23
255.073	3.34
255.448	3.45
255.823	3.54
256.198	3.49
256.573	3.46
256.948	3.41
257.323	3.55
257.698	3.34
258.073	3.07
258.448	2.96
258.823	2.85
259.198	3.02
259.573	2.88
259.948	2.76
260.322	2.92
260.697	2.87
261.072	2.54
261.446	2.36
261.821	2.19
262.195	2.44
262.57	2.49
262.944	2.53
263.319	2.67
263.693	2.47
264.067	2.66
264.442	2.73
264.816	2.9
265.19	2.72
265.564	2.76
265.938	2.74
266.313	2.82
266.687	2.61
267.061	2.32
267.435	2.77
267.809	2.54
268.183	2.43
268.556	2.1
268.93	2.37
269.304	2.45
269.678	2.34
270.051	2.27
270.425	2.23
270.799	2.14
271.172	1.9
271.546	2.11
271.919	2.04
272.293	2.08
272.666	2.07
273.04	2.16
273.413	2.3
273.787	2.39
274.16	2.23
274.533	2.46
274.906	2.68
275.279	2.43
275.653	2.49
276.026	2.63
276.399	2.74
276.772	2.66
277.145	2.5
277.518	2.49
277.891	2.33
278.263	2.23
278.636	2.23
279.009	2.28
279.382	2.09
279.755	2.01
280.127	1.95
280.5	1.95
280.872	1.9
281.245	1.85
281.617	2.04
281.99	2.13
282.362	2.07
282.735	1.92
283.107	1.92
283.479	1.9
283.852	1.86
284.224	1.74
284.596	1.82
284.968	1.9
285.34	2.11
285.713	2.16
286.085	2.25
286.457	2.26
286.829	2.28
287.201	2.39
287.572	2.33
287.944	2.43
288.316	2.48
288.688	2.52
289.06	2.43
289.431	2.43
289.803	2.4
290.175	2.37
290.546	2.33
290.918	2.35
291.289	2.16
291.661	2.14
292.032	2.3
292.403	2.17
292.775	2.24
293.146	2.05
293.517	1.98
293.889	1.88
294.26	1.89
294.631	1.92
295.002	1.94
295.373	2.02
295.744	2.04
296.115	2.04
296.486	2.13
296.857	2.22
297.228	2.08
297.599	2.06
297.97	2.04
298.34	2.07
298.711	2.12
299.082	2.28
299.452	2.21
299.823	2.05
300.194	2.06
300.564	1.92
300.935	1.97
301.305	2.03
301.676	1.98
302.046	2
302.416	1.98
302.787	2.01
303.157	1.92
303.527	1.92
303.897	1.87
304.267	1.88
304.637	1.91
305.008	1.85
305.378	2.04
305.748	2.11
306.117	2.09
306.487	2.13
306.857	2.21
307.227	2.33
307.597	2.51
307.967	2.66
308.336	2.7
308.706	2.67
309.076	2.72
309.445	2.87
309.815	2.85
310.184	2.88
310.554	2.67
310.923	2.65
311.293	2.5
311.662	2.51
312.031	2.42
312.401	2.28
312.77	2.41
313.139	2.45
313.508	2.46
313.877	2.3
314.246	2.32
314.616	2.32
314.985	2.32
315.353	2.33
315.722	2.24
316.091	2.25
316.46	2.29
316.829	2.37
317.198	2.48
317.567	2.56
317.935	2.45
318.304	2.75
318.672	2.85
319.041	2.94
319.41	2.94
319.778	2.97
320.147	3.16
320.515	3.1
320.883	2.91
321.252	2.86
321.62	3.12
321.988	3.06
322.357	2.89
322.725	2.86
323.093	2.78
323.461	2.73
323.829	2.76
324.197	2.69
324.565	2.62
324.933	2.48
325.301	2.22
325.669	2.29
326.037	2.24
326.405	2.28
326.772	2.34
327.14	2.25
327.508	2.16
327.875	2.11
328.243	2.11
328.61	2.18
328.978	2.16
329.346	2.11
329.713	2.18
330.08	2.36
330.448	2.26
330.815	2.2
331.182	2.08
331.55	2.1
331.917	2.27
332.284	2.28
332.651	2.3
333.018	2.4
333.385	2.37
333.752	2.24
334.119	2.23
334.486	2.22
334.853	2.37
335.22	2.4
335.587	2.37
335.954	2.29
336.32	2.25
336.687	2.52
337.054	2.46
337.42	2.43
337.787	2.36
338.153	2.48
338.52	2.67
338.886	2.84
339.253	2.73
339.619	2.76
339.986	2.62
340.352	2.57
340.718	2.61
341.084	2.56
341.451	2.65
341.817	2.62
342.183	2.65
342.549	2.62
342.915	2.64
343.281	2.62
343.647	2.73
344.013	2.7
344.379	2.57
344.745	2.65
345.11	2.59
345.476	2.7
345.842	2.6
346.208	2.52
346.573	2.45
346.939	2.5
347.304	2.41
347.67	2.53
348.035	2.58
348.401	2.55
348.766	2.64
349.132	2.7
349.497	2.71
349.862	2.62
350.228	2.62
350.593	2.64
350.958	2.73
351.323	2.72
351.688	2.72
352.053	2.63
352.418	2.55
352.783	2.54
353.148	2.47
353.513	2.5
353.878	2.5
354.243	2.45
354.608	2.5
354.972	2.54
355.337	2.55
355.702	2.45
356.066	2.48
356.431	2.42
356.795	2.36
357.16	2.3
357.524	2.33
357.889	2.35
358.253	2.35
358.618	2.33
358.982	2.27
359.346	2.27
359.71	2.31
360.075	2.31
360.439	2.38
360.803	2.38
361.167	2.36
361.531	2.36
361.895	2.37
362.259	2.41
362.623	2.38
362.987	2.36
363.351	2.41
363.714	2.36
364.078	2.37
364.442	2.41
364.806	2.49
365.169	2.49
365.533	2.43
365.896	2.43
366.26	2.39
366.623	2.43
366.987	2.48
367.35	2.44
367.714	2.47
368.077	2.48
368.44	2.54
368.803	2.52
369.167	2.55
369.53	2.54
369.893	2.48
370.256	2.44
370.619	2.43
370.982	2.37
371.345	2.42
371.708	2.46
372.071	2.38
372.434	2.39
372.797	2.38
373.159	2.36
373.522	2.35
373.885	2.36
374.247	2.32
374.61	2.34
374.973	2.33
375.335	2.37
375.698	2.31
376.06	2.24
376.423	2.25
376.785	2.23
377.147	2.28
377.51	2.25
377.872	2.28
378.234	2.28
378.596	2.37
378.958	2.38
379.321	2.35
379.683	2.42
380.045	2.38
380.407	2.4
380.769	2.4
381.13	2.35
381.492	2.38
381.854	2.45
382.216	2.5
382.578	2.55
382.939	2.57
383.301	2.6
383.663	2.61
384.024	2.58
384.386	2.58
384.747	2.53
385.109	2.59
385.47	2.6
385.832	2.62
386.193	2.6
386.554	2.6
386.916	2.59
387.277	2.54
387.638	2.54
387.999	2.49
388.36	2.54
388.721	2.59
389.082	2.58
389.443	2.57
389.804	2.5
390.165	2.47
390.526	2.45
390.887	2.43
391.248	2.41
391.609	2.47
391.969	2.47
392.33	2.49
392.691	2.47
393.051	2.46
393.412	2.41
393.772	2.43
394.133	2.41
394.493	2.43
394.854	2.47
395.214	2.46
395.574	2.48
395.935	2.5
396.295	2.52
396.655	2.51
397.015	2.52
397.376	2.52
397.736	2.52
398.096	2.5
398.456	2.45
398.816	2.46
399.176	2.43
399.535	2.42
399.895	2.43
400.255	2.43
400.615	2.45
400.975	2.48
401.334	2.46
401.694	2.44
402.054	2.46
402.413	2.5
402.773	2.51
403.132	2.5
403.492	2.5
403.851	2.48
404.211	2.48
404.57	2.45
404.929	2.45
405.288	2.47
405.648	2.5
406.007	2.55
406.366	2.57
406.725	2.58
407.084	2.57
407.443	2.6
407.802	2.59
408.161	2.57
408.52	2.6
408.879	2.6
409.238	2.66
409.596	2.64
409.955	2.57
410.314	2.61
410.673	2.61
411.031	2.6
411.39	2.61
411.748	2.62
412.107	2.62
412.465	2.62
412.824	2.63
413.182	2.64
413.54	2.65
413.899	2.63
414.257	2.62
414.615	2.63
414.974	2.64
415.332	2.67
415.69	2.67
416.048	2.65
416.406	2.65
416.764	2.65
417.122	2.65
417.48	2.66
417.838	2.65
418.195	2.65
418.553	2.63
418.911	2.64
419.269	2.64
419.626	2.64
419.984	2.65
420.342	2.63
420.699	2.62
421.057	2.62
421.414	2.63
421.772	2.63
422.129	2.63
422.486	2.63
422.844	2.62
423.201	2.63
423.558	2.64
423.915	2.64
424.273	2.63
424.63	2.64
424.987	2.65
425.344	2.64
425.701	2.63
426.058	2.64
426.415	2.63
426.772	2.63
427.128	2.65
427.485	2.66
427.842	2.69
428.199	2.7
428.555	2.69
428.912	2.67
429.269	2.68
429.625	2.68
429.982	2.67
430.338	2.67
430.695	2.67
431.051	2.67
431.407	2.69
431.764	2.69
432.12	2.7
432.476	2.68
432.832	2.69
433.189	2.7
433.545	2.69
433.901	2.69
434.257	2.7
434.613	2.69
434.969	2.68
435.325	2.65
435.681	2.65
436.036	2.65
436.392	2.69
436.748	2.69
437.104	2.69
437.459	2.71
437.815	2.72
438.171	2.73
438.526	2.73
438.882	2.71
439.237	2.7
439.593	2.72
439.948	2.74
440.304	2.75
440.659	2.75
441.014	2.76
441.369	2.77
441.725	2.77
442.08	2.77
442.435	2.78
442.79	2.8
443.145	2.79
443.5	2.78
443.855	2.75
444.21	2.74
444.565	2.74
444.92	2.74
445.275	2.73
445.629	2.74
445.984	2.73
446.339	2.75
446.693	2.76
447.048	2.73
447.403	2.72
447.757	2.7
448.112	2.72
448.466	2.72
448.82	2.75
449.175	2.76
449.529	2.77
449.883	2.77
450.238	2.78
450.592	2.79
450.946	2.82
451.3	2.85
451.654	2.85
452.008	2.84
452.362	2.83
452.716	2.86
453.07	2.84
453.424	2.84
453.778	2.83
454.132	2.83
454.486	2.85
454.839	2.86
455.193	2.89
455.547	2.87
455.9	2.86
456.254	2.83
456.607	2.81
456.961	2.82
457.314	2.81
457.668	2.79
458.021	2.76
458.375	2.75
458.728	2.73
459.081	2.74
459.434	2.74
459.787	2.76
460.141	2.76
460.494	2.77
460.847	2.77
461.2	2.79
461.553	2.77
461.906	2.78
462.259	2.75
462.611	2.73
462.964	2.73
463.317	2.71
463.67	2.72
464.022	2.71
464.375	2.68
464.728	2.67
465.08	2.66
465.433	2.69
465.785	2.71
466.138	2.73
466.49	2.74
466.843	2.75
467.195	2.74
467.547	2.74
467.899	2.73
468.252	2.74
468.604	2.7
468.956	2.73
469.308	2.72
469.66	2.76
470.012	2.75
470.364	2.77
470.716	2.78
471.068	2.8
471.42	2.83
471.772	2.86
472.123	2.86
472.475	2.9
472.827	2.91
473.178	2.9
473.53	2.89
473.882	2.86
474.233	2.87
474.585	2.86
474.936	2.86
475.288	2.86
475.639	2.85
475.99	2.86
476.342	2.86
476.693	2.87
477.044	2.85
477.395	2.83
477.746	2.8
478.097	2.8
478.448	2.78
478.8	2.79
479.15	2.77
479.501	2.78
479.852	2.76
480.203	2.76
480.554	2.77
480.905	2.79
481.255	2.81
481.606	2.82
481.957	2.84
482.307	2.84
482.658	2.85
483.009	2.86
483.359	2.86
483.709	2.86
484.06	2.86
484.41	2.87
484.761	2.89
485.111	2.9
485.461	2.9
485.811	2.9
486.162	2.9
486.512	2.91
486.862	2.93
487.212	2.93
487.562	2.93
487.912	2.93
488.262	2.92
488.612	2.93
488.961	2.91
489.311	2.91
489.661	2.91
490.011	2.9
490.36	2.91
490.71	2.91
491.06	2.92
491.409	2.92
491.759	2.91
492.108	2.9
492.458	2.89
492.807	2.9
493.157	2.92
493.506	2.91
493.855	2.9
494.204	2.89
494.554	2.91
494.903	2.91
495.252	2.92
495.601	2.94
495.95	2.92
496.299	2.95
496.648	2.94
496.997	2.94
497.346	2.95
497.695	2.96
498.043	2.96
498.392	2.96
498.741	2.96
499.09	3.01
499.438	3.02
499.787	3.04
500.135	3.04
500.484	3.03
500.832	3.02
501.181	3.01
501.529	3.01
501.878	3.01
502.226	3.02
502.574	3.02
502.923	2.99
503.271	2.99
503.619	2.99
503.967	2.99
504.315	2.99
504.663	3.02
505.011	3.01
505.359	2.97
505.707	2.98
506.055	3
506.403	2.95
506.751	2.95
507.098	2.95
507.446	2.96
507.794	2.95
508.141	2.96
508.489	2.98
508.837	2.99
509.184	3
509.531	2.99
509.879	2.98
510.226	3
510.574	2.99
510.921	2.99
511.268	3.02
511.616	3.02
511.963	2.98
512.31	2.98
512.657	3.01
513.004	3
513.351	3
513.698	3
514.045	3
514.392	2.98
514.739	2.98
515.086	3.01
515.432	3.02
515.779	3.01
516.126	3.02
516.473	3.01
516.819	3.02
517.166	3.02
517.512	3.02
517.859	3.04
518.205	3.02
518.552	3.01
518.898	3.03
519.245	3.04
519.591	3.07
519.937	3.06
520.283	3.06
520.629	3.03
520.976	3.05
521.322	3.07
521.668	3.08
522.014	3.09
522.36	3.07
522.706	3.07
523.052	3.09
523.398	3.09
523.743	3.09
524.089	3.1
524.435	3.1
524.781	3.11
525.126	3.09
525.472	3.12
525.817	3.12
526.163	3.11
526.509	3.11
526.854	3.1
527.199	3.12
527.545	3.13
527.89	3.15
528.235	3.15
528.581	3.15
528.926	3.15
529.271	3.16
529.616	3.16
529.961	3.16
530.306	3.16
530.651	3.15
530.996	3.15
531.341	3.15
531.686	3.16
532.031	3.17
532.376	3.18
532.721	3.18
533.065	3.18
533.41	3.19
533.755	3.19
534.099	3.2
534.444	3.19
534.788	3.16
535.133	3.15
535.477	3.16
535.822	3.16
536.166	3.13
536.51	3.13
536.855	3.13
537.199	3.12
537.543	3.13
537.887	3.15
538.231	3.15
538.576	3.14
538.92	3.15
539.264	3.14
539.608	3.12
539.951	3.09
540.295	3.11
540.639	3.12
540.983	3.13
541.327	3.13
541.671	3.14
542.014	3.17
542.358	3.18
542.701	3.17
543.045	3.18
543.389	3.2
543.732	3.18
544.075	3.18
544.419	3.19
544.762	3.19
545.105	3.19
545.449	3.2
545.792	3.2
546.135	3.19
546.478	3.2
546.821	3.22
547.165	3.25
547.508	3.23
547.851	3.21
548.194	3.19
548.536	3.16
548.879	3.14
549.222	3.15
549.565	3.12
549.908	3.12
550.25	3.13
550.593	3.12
550.936	3.14
551.278	3.16
551.621	3.15
551.963	3.18
552.306	3.14
552.648	3.14
552.991	3.14
553.333	3.12
553.675	3.14
554.017	3.13
554.36	3.16
554.702	3.17
555.044	3.19
555.386	3.21
555.728	3.25
556.07	3.23
556.412	3.23
556.754	3.26
557.096	3.26
557.438	3.23
557.78	3.26
558.121	3.24
558.463	3.23
558.805	3.26
559.147	3.26
559.488	3.26
559.83	3.27
560.171	3.27
560.513	3.28
560.854	3.25
561.196	3.29
561.537	3.25
561.878	3.29
562.22	3.29
562.561	3.3
562.902	3.3
563.243	3.31
563.584	3.32
563.925	3.34
564.266	3.34
564.607	3.38
564.948	3.37
565.289	3.38
565.63	3.37
565.971	3.35
566.312	3.33
566.653	3.35
566.993	3.34
567.334	3.34
567.675	3.34
568.015	3.36
568.356	3.33
568.696	3.37
569.037	3.36
569.377	3.32
569.718	3.32
570.058	3.35
570.398	3.34
570.739	3.32
571.079	3.31
571.419	3.33
571.759	3.29
572.099	3.29
572.439	3.32
572.779	3.34
573.119	3.34
573.459	3.35
573.799	3.34
574.139	3.34
574.479	3.35
574.819	3.34
575.158	3.34
575.498	3.35
575.838	3.32
576.177	3.31
576.517	3.35
576.856	3.35
577.196	3.34
577.535	3.33
577.875	3.32
578.214	3.33
578.553	3.32
578.893	3.38
579.232	3.37
579.571	3.36
579.91	3.36
580.25	3.38
580.589	3.35
580.928	3.36
581.267	3.39
581.606	3.39
581.945	3.4
582.283	3.4
582.622	3.4
582.961	3.39
583.3	3.4
583.639	3.38
583.977	3.36
584.316	3.33
584.654	3.38
584.993	3.39
585.332	3.36
585.67	3.37
586.008	3.35
586.347	3.39
586.685	3.36
587.024	3.35
587.362	3.37
587.7	3.42
588.038	3.44
588.376	3.43
588.715	3.4
589.053	3.42
589.391	3.4
589.729	3.4
590.067	3.41
590.404	3.39
590.742	3.42
591.08	3.45
591.418	3.46
591.756	3.45
592.093	3.48
592.431	3.5
592.769	3.5
593.106	3.5
593.444	3.46
593.781	3.47
594.119	3.47
594.456	3.43
594.793	3.41
595.131	3.39
595.468	3.4
595.805	3.43
596.143	3.42
596.48	3.47
596.817	3.48
597.154	3.45
597.491	3.45
597.828	3.41
598.165	3.39
598.502	3.33
598.839	3.34
599.176	3.3
599.512	3.29
599.849	3.29
600.186	3.28
600.523	3.3
600.859	3.32
601.196	3.35
601.532	3.39
601.869	3.39
602.205	3.38
602.542	3.38
602.878	3.37
603.215	3.37
603.551	3.33
603.887	3.31
604.223	3.35
604.56	3.39
604.896	3.43
605.232	3.42
605.568	3.49
605.904	3.45
606.24	3.47
606.576	3.48
606.912	3.48
607.248	3.49
607.583	3.47
607.919	3.46
608.255	3.46
608.591	3.47
608.926	3.48
609.262	3.48
609.597	3.46
609.933	3.48
610.268	3.53
610.604	3.52
610.939	3.58
611.275	3.58
611.61	3.55
611.945	3.48
612.281	3.5
612.616	3.51
612.951	3.59
613.286	3.57
613.621	3.55
613.956	3.58
614.291	3.57
614.626	3.59
614.961	3.6
615.296	3.62
615.631	3.59
615.966	3.6
616.3	3.64
616.635	3.65
616.97	3.66
617.304	3.6
617.639	3.63
617.973	3.57
618.308	3.6
618.642	3.6
618.977	3.65
619.311	3.68
619.646	3.61
619.98	3.57
620.314	3.6
620.648	3.62
620.983	3.6
621.317	3.62
621.651	3.65
621.985	3.67
622.319	3.59
622.653	3.57
622.987	3.57
623.321	3.55
623.655	3.6
623.988	3.57
624.322	3.63
624.656	3.63
624.99	3.61
625.323	3.56
625.657	3.58
625.99	3.64
626.324	3.63
626.657	3.66
626.991	3.67
627.324	3.64
627.658	3.63
627.991	3.6
628.324	3.57
628.657	3.53
628.991	3.52
629.324	3.53
629.657	3.48
629.99	3.46
630.323	3.47
630.656	3.44
630.989	3.41
631.322	3.38
631.655	3.39
631.987	3.44
632.32	3.47
632.653	3.45
632.986	3.36
633.318	3.36
633.651	3.34
633.984	3.34
634.316	3.36
634.649	3.35
634.981	3.34
635.313	3.36
635.646	3.36
635.978	3.39
636.31	3.46
636.643	3.5
636.975	3.45
637.307	3.49
637.639	3.49
637.971	3.5
638.303	3.51
638.635	3.51
638.967	3.51
639.299	3.51
639.631	3.55
639.963	3.58
640.295	3.56
640.626	3.56
640.958	3.54
641.29	3.59
641.621	3.65
641.953	3.62
642.285	3.65
642.616	3.67
642.948	3.61
643.279	3.54
643.61	3.6
643.942	3.69
644.273	3.73
644.604	3.74
644.936	3.8
645.267	3.8
645.598	3.85
645.929	3.87
646.26	3.91
646.591	3.95
646.922	3.98
647.253	3.95
647.584	4.01
647.915	3.99
648.245	3.97
648.576	3.92
648.907	3.97
649.238	3.92
649.568	3.91
649.899	3.94
650.229	3.99
650.56	4.01
650.89	3.99
651.221	3.97
651.551	3.95
651.882	3.88
652.212	3.84
652.542	3.83
652.872	3.79
653.203	3.71
653.533	3.73
653.863	3.68
654.193	3.65
654.523	3.59
654.853	3.62
655.183	3.65
655.513	3.66
655.843	3.67
656.172	3.75
656.502	3.72
656.832	3.72
657.162	3.73
657.491	3.72
657.821	3.72
658.15	3.69
658.48	3.76
658.809	3.78
659.139	3.82
659.468	3.73
659.798	3.77
660.127	3.79
660.456	3.69
660.785	3.7
661.115	3.8
661.444	3.89
661.773	3.9
662.102	3.82
662.431	3.86
662.76	3.85
663.089	3.82
663.418	3.9
663.747	3.88
664.076	3.86
664.404	3.92
664.733	3.94
665.062	3.95
665.39	3.91
665.719	3.85
666.048	3.84
666.376	3.95
666.705	3.93
667.033	3.94
667.362	3.99
667.69	4.06
668.018	4.1
668.347	4.04
668.675	4.06
669.003	4.05
669.331	4.09
669.659	4.09
669.987	4.1
670.315	4.09
670.643	4.05
670.971	4.08
671.299	3.93
671.627	3.91
671.955	3.87
672.283	3.87
672.61	3.93
672.938	3.98
673.266	3.94
673.593	3.96
673.921	4.02
674.249	4.06
674.576	4.02
674.904	3.98
675.231	3.99
675.558	3.94
675.886	3.97
676.213	3.87
676.54	4.01
676.867	4
677.195	4.01
677.522	4.07
677.849	4.01
678.176	4.13
678.503	4.14
678.83	4.14
679.157	4.11
679.484	4.16
