Data from MVZ_BU8940_Reflection_00003.txt Node
Date: Tue Nov 19 12:16:21 EST 2019
User: vgr7
Spectrometer: USB2G7710
Scans to average: 3
Trigger mode: 4
Integration Time (sec): 2.000000E-2
Electric dark correction enabled: true
Boxcar width: 10
XAxis mode: Wavelengths
Number of Pixels in Spectrum: 2048
>>>>>Begin Spectral Data<<<<<
177.721	35.66
178.105	151.14
178.488	176.14
178.871	207.14
179.254	158.54
179.636	-596.43
180.019	-177.46
180.402	240
180.785	-140
181.168	203.96
181.55	-39.9
181.933	-50.3
182.316	-22.45
182.698	-49.64
183.081	-21.44
183.463	19.84
183.846	41
184.228	-4.32
184.611	-52.89
184.993	-101.68
185.376	-97.57
185.758	-83.56
186.14	-17.76
186.522	-186.43
186.904	-208.57
187.287	-63.14
187.669	-225.42
188.051	-177.91
188.433	-287.45
188.815	-294.46
189.197	-242.02
189.579	-2332.43
189.961	227.48
190.342	522.82
190.724	-268.98
191.106	-1321.05
191.488	2168.97
191.869	-65900
192.251	-5900
192.633	-2062.79
193.014	-413.37
193.396	-222.48
193.777	-2818.92
194.159	-1608.86
194.54	-892.13
194.922	-291.3
195.303	-186.73
195.684	-138.88
196.065	-220.16
196.447	-149.48
196.828	-149.31
197.209	-155.61
197.59	-110.33
197.971	12.96
198.352	19.92
198.733	89.62
199.114	121.2
199.495	-333.73
199.876	595.15
200.257	654.14
200.638	439.22
201.018	369.1
201.399	-571.33
201.78	-488.52
202.16	-662.16
202.541	2165.57
202.922	-1585.39
203.302	-448.64
203.683	-380
204.063	-1131.58
204.444	-1236.63
204.824	1052.94
205.204	4715.38
205.585	2132.26
205.965	-1171.19
206.345	-187.43
206.725	-494.06
207.106	-8.64
207.486	152.17
207.866	720.69
208.246	212.97
208.626	173.89
209.006	95.53
209.386	195.62
209.766	1900
210.145	-15328.57
210.525	3100
210.905	434.76
211.285	167.72
211.664	177.06
212.044	143.36
212.424	178.37
212.803	133.95
213.183	218.03
213.562	205.49
213.942	167.89
214.321	77.96
214.701	96.83
215.08	70.94
215.459	73.41
215.838	79.84
216.218	47.51
216.597	100
216.976	297.97
217.355	74.93
217.734	-196.7
218.113	-1005.26
218.492	113.57
218.871	211.63
219.25	-1295.35
219.629	-495.04
220.008	-397.63
220.387	-923.53
220.766	298.44
221.144	194.3
221.523	109.63
221.902	72.4
222.28	157.39
222.659	110.88
223.037	97.37
223.416	87.23
223.794	72.31
224.173	71.59
224.551	60.85
224.929	52.56
225.308	55.83
225.686	32.44
226.064	17.33
226.442	17.12
226.821	19.7
227.199	19.27
227.577	10.06
227.955	8.83
228.333	3.93
228.711	5.07
229.089	6.29
229.467	3.53
229.845	4.66
230.222	6.06
230.6	1.4
230.978	2.66
231.356	-1.89
231.733	-1.9
232.111	-1.12
232.488	-0.68
232.866	0.92
233.243	1.38
233.621	1.1
233.998	1.64
234.376	1.09
234.753	-0.19
235.13	0.04
235.508	1.56
235.885	-0.66
236.262	0.11
236.639	-0.85
237.016	-2.24
237.393	0.84
237.77	1.72
238.147	2.13
238.524	3.33
238.901	2.13
239.278	2.74
239.655	1.72
240.032	1.42
240.409	2.15
240.785	1.64
241.162	1.92
241.539	2.17
241.915	2.25
242.292	2.78
242.668	3.21
243.045	3.23
243.421	3.43
243.798	3.67
244.174	4.03
244.551	4.35
244.927	4.33
245.303	3.9
245.679	3.81
246.056	3.33
246.432	3.3
246.808	3.74
247.184	3.72
247.56	3.99
247.936	4.03
248.312	3.93
248.688	3.99
249.064	3.78
249.44	3.79
249.815	3.77
250.191	3.86
250.567	3.52
250.943	3.44
251.318	3.4
251.694	3.3
252.069	3.1
252.445	2.88
252.82	3.01
253.196	3.27
253.571	3.45
253.947	3.44
254.322	3.42
254.697	3.58
255.073	3.67
255.448	3.76
255.823	3.73
256.198	3.48
256.573	3.56
256.948	3.63
257.323	3.58
257.698	3.51
258.073	3.24
258.448	3.23
258.823	3.11
259.198	3.07
259.573	3.02
259.948	3
260.322	3.09
260.697	3.24
261.072	3.11
261.446	3.04
261.821	3.3
262.195	3.15
262.57	2.94
262.944	2.88
263.319	2.91
263.693	2.83
264.067	2.9
264.442	2.67
264.816	2.54
265.19	2.53
265.564	2.53
265.938	2.42
266.313	2.43
266.687	2.4
267.061	2.33
267.435	2.53
267.809	2.35
268.183	2.29
268.556	1.98
268.93	1.96
269.304	1.85
269.678	1.86
270.051	2.24
270.425	2.33
270.799	2.11
271.172	2.02
271.546	2.04
271.919	2.02
272.293	2.19
272.666	2.35
273.04	2.48
273.413	2.49
273.787	2.75
274.16	2.65
274.533	2.78
274.906	2.87
275.279	2.71
275.653	3.01
276.026	3.02
276.399	3.14
276.772	3.22
277.145	3.37
277.518	3.28
277.891	3.05
278.263	3.2
278.636	3.46
279.009	3.46
279.382	3.57
279.755	3.65
280.127	3.61
280.5	3.46
280.872	3.53
281.245	3.31
281.617	3.12
281.99	3.3
282.362	3.16
282.735	2.93
283.107	2.92
283.479	2.91
283.852	2.81
284.224	2.78
284.596	2.79
284.968	2.68
285.34	2.69
285.713	2.71
286.085	2.58
286.457	2.64
286.829	2.61
287.201	2.49
287.572	2.49
287.944	2.47
288.316	2.49
288.688	2.42
289.06	2.53
289.431	2.55
289.803	2.57
290.175	2.44
290.546	2.56
290.918	2.62
291.289	2.46
291.661	2.51
292.032	2.53
292.403	2.7
292.775	2.82
293.146	2.63
293.517	2.69
293.889	2.66
294.26	2.72
294.631	2.78
295.002	2.9
295.373	2.91
295.744	2.94
296.115	3.05
296.486	3.04
296.857	3.24
297.228	3.26
297.599	3.11
297.97	3.45
298.34	3.45
298.711	3.43
299.082	3.5
299.452	3.43
299.823	3.51
300.194	3.37
300.564	3.19
300.935	3.28
301.305	3.14
301.676	3.18
302.046	3.02
302.416	3
302.787	2.91
303.157	2.78
303.527	2.93
303.897	2.9
304.267	2.89
304.637	2.76
305.008	2.75
305.378	2.91
305.748	2.7
306.117	2.7
306.487	2.87
306.857	2.91
307.227	3.15
307.597	3.1
307.967	3.01
308.336	3.15
308.706	3.28
309.076	3.47
309.445	3.57
309.815	3.64
310.184	3.73
310.554	3.7
310.923	3.62
311.293	3.47
311.662	3.54
312.031	3.51
312.401	3.55
312.77	3.6
313.139	3.49
313.508	3.48
313.877	3.59
314.246	3.44
314.616	3.48
314.985	3.39
315.353	3.43
315.722	3.62
316.091	3.56
316.46	3.5
316.829	3.42
317.198	3.38
317.567	3.5
317.935	3.37
318.304	3.59
318.672	3.91
319.041	3.76
319.41	3.61
319.778	3.86
320.147	3.68
320.515	3.53
320.883	3.49
321.252	3.53
321.62	3.54
321.988	3.49
322.357	3.45
322.725	3.36
323.093	3.29
323.461	3.38
323.829	3.29
324.197	3.47
324.565	3.31
324.933	3.23
325.301	3.02
325.669	2.96
326.037	2.79
326.405	2.8
326.772	2.97
327.14	2.98
327.508	2.85
327.875	2.98
328.243	3.12
328.61	3.32
328.978	3.24
329.346	3.13
329.713	3.3
330.08	3.32
330.448	3.47
330.815	3.41
331.182	3.08
331.55	3.16
331.917	2.94
332.284	3.16
332.651	3.11
333.018	3.2
333.385	3.26
333.752	3.33
334.119	3.27
334.486	3.26
334.853	3.26
335.22	3.15
335.587	3.06
335.954	3.02
336.32	2.92
336.687	3.06
337.054	3.17
337.42	3.07
337.787	2.97
338.153	2.9
338.52	3.17
338.886	3.43
339.253	3.38
339.619	3.42
339.986	3.28
340.352	3.47
340.718	3.51
341.084	3.64
341.451	3.7
341.817	3.71
342.183	3.63
342.549	3.68
342.915	3.8
343.281	3.82
343.647	3.8
344.013	3.78
344.379	3.69
344.745	3.73
345.11	3.69
345.476	3.78
345.842	3.79
346.208	3.7
346.573	3.58
346.939	3.71
347.304	3.69
347.67	3.69
348.035	3.69
348.401	3.79
348.766	3.67
349.132	3.71
349.497	3.77
349.862	3.84
350.228	3.91
350.593	3.89
350.958	4.06
351.323	4.03
351.688	4.06
352.053	4.19
352.418	4.09
352.783	4.22
353.148	4.19
353.513	4.18
353.878	4.12
354.243	4.07
354.608	4.1
354.972	4.16
355.337	4.28
355.702	4.18
356.066	4.08
356.431	4.06
356.795	4.02
357.16	3.98
357.524	3.97
357.889	3.93
358.253	3.89
358.618	3.76
358.982	3.77
359.346	3.77
359.71	3.66
360.075	3.7
360.439	3.7
360.803	3.76
361.167	3.77
361.531	3.78
361.895	3.86
362.259	3.86
362.623	3.83
362.987	3.75
363.351	3.76
363.714	3.76
364.078	3.82
364.442	3.81
364.806	3.85
365.169	3.77
365.533	3.79
365.896	3.85
366.26	3.8
366.623	3.81
366.987	3.83
367.35	3.9
367.714	3.87
368.077	3.88
368.44	3.9
368.803	3.89
369.167	3.87
369.53	3.89
369.893	3.84
370.256	3.87
370.619	3.95
370.982	3.89
371.345	3.9
371.708	3.87
372.071	3.86
372.434	3.84
372.797	3.9
373.159	3.88
373.522	3.82
373.885	3.91
374.247	3.91
374.61	3.95
374.973	3.93
375.335	3.98
375.698	3.95
376.06	3.93
376.423	3.95
376.785	4.04
377.147	4.05
377.51	4
377.872	4.04
378.234	4.04
378.596	4.1
378.958	4.06
379.321	4.02
379.683	4.09
380.045	4.09
380.407	4.1
380.769	4.13
381.13	4.13
381.492	4.07
381.854	4.12
382.216	4.13
382.578	4.18
382.939	4.11
383.301	4.11
383.663	4.11
384.024	4.12
384.386	4.02
384.747	4.01
385.109	4
385.47	4
385.832	3.94
386.193	3.9
386.554	3.92
386.916	4
387.277	3.96
387.638	3.94
387.999	3.98
388.36	3.97
388.721	4
389.082	4.05
389.443	4.06
389.804	4.07
390.165	4.05
390.526	4.09
390.887	4.12
391.248	4.1
391.609	4.14
391.969	4.15
392.33	4.09
392.691	4.12
393.051	4.11
393.412	4.2
393.772	4.25
394.133	4.23
394.493	4.2
394.854	4.16
395.214	4.16
395.574	4.12
395.935	4.16
396.295	4.11
396.655	4.09
397.015	4.07
397.376	4.05
397.736	4.02
398.096	4.01
398.456	3.98
398.816	4
399.176	3.96
399.535	3.98
399.895	4.04
400.255	4.08
400.615	4.06
400.975	4.06
401.334	4.05
401.694	4.08
402.054	4.08
402.413	4.14
402.773	4.14
403.132	4.18
403.492	4.14
403.851	4.19
404.211	4.21
404.57	4.27
404.929	4.27
405.288	4.31
405.648	4.35
406.007	4.38
406.366	4.36
406.725	4.37
407.084	4.36
407.443	4.37
407.802	4.33
408.161	4.39
408.52	4.36
408.879	4.36
409.238	4.32
409.596	4.34
409.955	4.32
410.314	4.31
410.673	4.29
411.031	4.28
411.39	4.27
411.748	4.28
412.107	4.22
412.465	4.22
412.824	4.19
413.182	4.16
413.54	4.14
413.899	4.14
414.257	4.1
414.615	4.12
414.974	4.15
415.332	4.19
415.69	4.14
416.048	4.16
416.406	4.16
416.764	4.21
417.122	4.19
417.48	4.2
417.838	4.24
418.195	4.24
418.553	4.25
418.911	4.24
419.269	4.25
419.626	4.26
419.984	4.26
420.342	4.27
420.699	4.28
421.057	4.3
421.414	4.32
421.772	4.32
422.129	4.33
422.486	4.32
422.844	4.3
423.201	4.32
423.558	4.3
423.915	4.33
424.273	4.33
424.63	4.34
424.987	4.36
425.344	4.36
425.701	4.37
426.058	4.38
426.415	4.39
426.772	4.39
427.128	4.41
427.485	4.42
427.842	4.43
428.199	4.44
428.555	4.44
428.912	4.46
429.269	4.47
429.625	4.47
429.982	4.47
430.338	4.49
430.695	4.5
431.051	4.51
431.407	4.49
431.764	4.51
432.12	4.54
432.476	4.53
432.832	4.55
433.189	4.54
433.545	4.55
433.901	4.56
434.257	4.56
434.613	4.53
434.969	4.54
435.325	4.55
435.681	4.56
436.036	4.57
436.392	4.55
436.748	4.56
437.104	4.58
437.459	4.58
437.815	4.59
438.171	4.6
438.526	4.61
438.882	4.61
439.237	4.58
439.593	4.57
439.948	4.58
440.304	4.57
440.659	4.6
441.014	4.58
441.369	4.59
441.725	4.59
442.08	4.62
442.435	4.63
442.79	4.62
443.145	4.62
443.5	4.61
443.855	4.61
444.21	4.61
444.565	4.6
444.92	4.62
445.275	4.62
445.629	4.6
445.984	4.6
446.339	4.61
446.693	4.62
447.048	4.6
447.403	4.6
447.757	4.62
448.112	4.61
448.466	4.64
448.82	4.65
449.175	4.65
449.529	4.64
449.883	4.64
450.238	4.64
450.592	4.65
450.946	4.65
451.3	4.66
451.654	4.67
452.008	4.69
452.362	4.67
452.716	4.67
453.07	4.69
453.424	4.71
453.778	4.71
454.132	4.71
454.486	4.73
454.839	4.74
455.193	4.73
455.547	4.73
455.9	4.72
456.254	4.73
456.607	4.73
456.961	4.74
457.314	4.74
457.668	4.76
458.021	4.76
458.375	4.77
458.728	4.79
459.081	4.78
459.434	4.76
459.787	4.81
460.141	4.83
460.494	4.83
460.847	4.83
461.2	4.84
461.553	4.85
461.906	4.85
462.259	4.84
462.611	4.86
462.964	4.85
463.317	4.84
463.67	4.84
464.022	4.84
464.375	4.83
464.728	4.84
465.08	4.82
465.433	4.81
465.785	4.8
466.138	4.78
466.49	4.81
466.843	4.81
467.195	4.79
467.547	4.76
467.899	4.76
468.252	4.75
468.604	4.74
468.956	4.74
469.308	4.74
469.66	4.76
470.012	4.75
470.364	4.78
470.716	4.79
471.068	4.79
471.42	4.8
471.772	4.8
472.123	4.83
472.475	4.86
472.827	4.88
473.178	4.9
473.53	4.92
473.882	4.91
474.233	4.91
474.585	4.91
474.936	4.9
475.288	4.9
475.639	4.93
475.99	4.94
476.342	4.96
476.693	4.97
477.044	4.98
477.395	4.96
477.746	4.94
478.097	4.92
478.448	4.91
478.8	4.91
479.15	4.91
479.501	4.9
479.852	4.9
480.203	4.91
480.554	4.91
480.905	4.91
481.255	4.93
481.606	4.94
481.957	4.94
482.307	4.95
482.658	4.95
483.009	4.94
483.359	4.93
483.709	4.93
484.06	4.94
484.41	4.94
484.761	4.94
485.111	4.95
485.461	4.96
485.811	4.96
486.162	4.97
486.512	4.98
486.862	4.98
487.212	4.97
487.562	4.96
487.912	4.96
488.262	4.97
488.612	4.96
488.961	4.96
489.311	4.96
489.661	4.95
490.011	4.96
490.36	4.96
490.71	4.98
491.06	4.98
491.409	4.99
491.759	4.99
492.108	5
492.458	5.02
492.807	5.01
493.157	5.01
493.506	5.01
493.855	5
494.204	5
494.554	5.02
494.903	5.04
495.252	5.05
495.601	5.05
495.95	5.06
496.299	5.06
496.648	5.06
496.997	5.08
497.346	5.08
497.695	5.07
498.043	5.09
498.392	5.09
498.741	5.09
499.09	5.08
499.438	5.08
499.787	5.08
500.135	5.09
500.484	5.07
500.832	5.08
501.181	5.1
501.529	5.12
501.878	5.12
502.226	5.14
502.574	5.13
502.923	5.14
503.271	5.16
503.619	5.2
503.967	5.23
504.315	5.22
504.663	5.2
505.011	5.23
505.359	5.22
505.707	5.22
506.055	5.21
506.403	5.24
506.751	5.23
507.098	5.23
507.446	5.24
507.794	5.28
508.141	5.28
508.489	5.28
508.837	5.25
509.184	5.27
509.531	5.27
509.879	5.25
510.226	5.24
510.574	5.23
510.921	5.22
511.268	5.22
511.616	5.24
511.963	5.25
512.31	5.22
512.657	5.22
513.004	5.23
513.351	5.24
513.698	5.23
514.045	5.24
514.392	5.25
514.739	5.23
515.086	5.24
515.432	5.26
515.779	5.26
516.126	5.3
516.473	5.28
516.819	5.27
517.166	5.3
517.512	5.3
517.859	5.31
518.205	5.29
518.552	5.29
518.898	5.29
519.245	5.3
519.591	5.32
519.937	5.32
520.283	5.33
520.629	5.32
520.976	5.32
521.322	5.31
521.668	5.31
522.014	5.32
522.36	5.31
522.706	5.32
523.052	5.33
523.398	5.32
523.743	5.33
524.089	5.33
524.435	5.33
524.781	5.33
525.126	5.33
525.472	5.36
525.817	5.35
526.163	5.35
526.509	5.36
526.854	5.37
527.199	5.35
527.545	5.36
527.89	5.36
528.235	5.36
528.581	5.37
528.926	5.38
529.271	5.36
529.616	5.38
529.961	5.38
530.306	5.39
530.651	5.37
530.996	5.38
531.341	5.39
531.686	5.39
532.031	5.39
532.376	5.41
532.721	5.41
533.065	5.43
533.41	5.43
533.755	5.43
534.099	5.44
534.444	5.46
534.788	5.45
535.133	5.46
535.477	5.48
535.822	5.47
536.166	5.46
536.51	5.48
536.855	5.49
537.199	5.47
537.543	5.46
537.887	5.48
538.231	5.48
538.576	5.49
538.92	5.49
539.264	5.5
539.608	5.46
539.951	5.46
540.295	5.45
540.639	5.46
540.983	5.46
541.327	5.45
541.671	5.44
542.014	5.46
542.358	5.47
542.701	5.47
543.045	5.5
543.389	5.53
543.732	5.53
544.075	5.51
544.419	5.52
544.762	5.53
545.105	5.53
545.449	5.54
545.792	5.55
546.135	5.56
546.478	5.57
546.821	5.6
547.165	5.61
547.508	5.62
547.851	5.63
548.194	5.62
548.536	5.62
548.879	5.65
549.222	5.65
549.565	5.65
549.908	5.65
550.25	5.62
550.593	5.6
550.936	5.63
551.278	5.65
551.621	5.64
551.963	5.66
552.306	5.68
552.648	5.65
552.991	5.63
553.333	5.59
553.675	5.58
554.017	5.58
554.36	5.57
554.702	5.54
555.044	5.53
555.386	5.52
555.728	5.53
556.07	5.52
556.412	5.53
556.754	5.49
557.096	5.48
557.438	5.49
557.78	5.5
558.121	5.45
558.463	5.42
558.805	5.43
559.147	5.44
559.488	5.44
559.83	5.45
560.171	5.45
560.513	5.48
560.854	5.5
561.196	5.53
561.537	5.52
561.878	5.52
562.22	5.54
562.561	5.56
562.902	5.58
563.243	5.59
563.584	5.62
563.925	5.64
564.266	5.65
564.607	5.65
564.948	5.67
565.289	5.69
565.63	5.72
565.971	5.7
566.312	5.69
566.653	5.66
566.993	5.63
567.334	5.69
567.675	5.71
568.015	5.67
568.356	5.67
568.696	5.68
569.037	5.7
569.377	5.7
569.718	5.68
570.058	5.7
570.398	5.69
570.739	5.65
571.079	5.66
571.419	5.66
571.759	5.64
572.099	5.63
572.439	5.63
572.779	5.63
573.119	5.64
573.459	5.64
573.799	5.66
574.139	5.68
574.479	5.63
574.819	5.63
575.158	5.63
575.498	5.63
575.838	5.62
576.177	5.59
576.517	5.6
576.856	5.61
577.196	5.58
577.535	5.56
577.875	5.57
578.214	5.58
578.553	5.6
578.893	5.63
579.232	5.6
579.571	5.63
579.91	5.64
580.25	5.63
580.589	5.63
580.928	5.63
581.267	5.64
581.606	5.66
581.945	5.67
582.283	5.75
582.622	5.71
582.961	5.72
583.3	5.77
583.639	5.8
583.977	5.79
584.316	5.78
584.654	5.79
584.993	5.79
585.332	5.8
585.67	5.82
586.008	5.81
586.347	5.84
586.685	5.79
587.024	5.79
587.362	5.78
587.7	5.81
588.038	5.82
588.376	5.83
588.715	5.86
589.053	5.81
589.391	5.75
589.729	5.76
590.067	5.77
590.404	5.78
590.742	5.77
591.08	5.77
591.418	5.81
591.756	5.83
592.093	5.82
592.431	5.84
592.769	5.86
593.106	5.87
593.444	5.88
593.781	5.9
594.119	5.91
594.456	5.92
594.793	5.92
595.131	5.97
595.468	5.97
595.805	5.95
596.143	5.95
596.48	5.98
596.817	5.98
597.154	6.04
597.491	6.01
597.828	5.99
598.165	5.99
598.502	6
598.839	6
599.176	6.01
599.512	5.99
599.849	5.97
600.186	5.97
600.523	6.01
600.859	6
601.196	6.01
601.532	6.03
601.869	6.07
602.205	6.04
602.542	6.02
602.878	6.06
603.215	6.09
603.551	6.06
603.887	6.07
604.223	5.99
604.56	6.03
604.896	6.07
605.232	6.05
605.568	6.02
605.904	6.03
606.24	6.07
606.576	6.06
606.912	6.04
607.248	6.08
607.583	6.06
607.919	6.08
608.255	6.06
608.591	6.07
608.926	6.02
609.262	6.03
609.597	6.06
609.933	6.04
610.268	6.06
610.604	6.11
610.939	6.12
611.275	6.17
611.61	6.07
611.945	6.05
612.281	6.07
612.616	6.13
612.951	6.16
613.286	6.1
613.621	6.15
613.956	6.18
614.291	6.15
614.626	6.15
614.961	6.16
615.296	6.22
615.631	6.23
615.966	6.24
616.3	6.23
616.635	6.27
616.97	6.21
617.304	6.21
617.639	6.19
617.973	6.17
618.308	6.16
618.642	6.29
618.977	6.25
619.311	6.26
619.646	6.23
619.98	6.25
620.314	6.24
620.648	6.2
620.983	6.2
621.317	6.2
621.651	6.18
621.985	6.16
622.319	6.11
622.653	6.1
622.987	6.12
623.321	6.13
623.655	6.07
623.988	6.11
624.322	6.13
624.656	6.14
624.99	6.2
625.323	6.15
625.657	6.16
625.99	6.23
626.324	6.21
626.657	6.18
626.991	6.14
627.324	6.12
627.658	6.12
627.991	6.11
628.324	6.17
628.657	6.19
628.991	6.23
629.324	6.21
629.657	6.2
629.99	6.17
630.323	6.2
630.656	6.17
630.989	6.18
631.322	6.13
631.655	6.1
631.987	6.04
632.32	6.1
632.653	6.06
632.986	6.02
633.318	6.08
633.651	6.12
633.984	6.14
634.316	6.21
634.649	6.2
634.981	6.19
635.313	6.19
635.646	6.19
635.978	6.23
636.31	6.29
636.643	6.29
636.975	6.3
637.307	6.25
637.639	6.29
637.971	6.29
638.303	6.33
638.635	6.37
638.967	6.44
639.299	6.44
639.631	6.48
639.963	6.51
640.295	6.47
640.626	6.47
640.958	6.51
641.29	6.48
641.621	6.52
641.953	6.45
642.285	6.37
642.616	6.33
642.948	6.34
643.279	6.27
643.61	6.31
643.942	6.35
644.273	6.44
644.604	6.41
644.936	6.48
645.267	6.45
645.598	6.38
645.929	6.32
646.26	6.28
646.591	6.27
646.922	6.33
647.253	6.34
647.584	6.37
647.915	6.37
648.245	6.32
648.576	6.37
648.907	6.42
649.238	6.49
649.568	6.52
649.899	6.48
650.229	6.54
650.56	6.53
650.89	6.56
651.221	6.5
651.551	6.56
651.882	6.53
652.212	6.52
652.542	6.57
652.872	6.57
653.203	6.61
653.533	6.67
653.863	6.61
654.193	6.59
654.523	6.64
654.853	6.63
655.183	6.65
655.513	6.64
655.843	6.67
656.172	6.68
656.502	6.63
656.832	6.64
657.162	6.53
657.491	6.56
657.821	6.53
658.15	6.57
658.48	6.58
658.809	6.66
659.139	6.7
659.468	6.72
659.798	6.77
660.127	6.75
660.456	6.72
660.785	6.67
661.115	6.67
661.444	6.64
661.773	6.63
662.102	6.63
662.431	6.6
662.76	6.58
663.089	6.56
663.418	6.62
663.747	6.57
664.076	6.63
664.404	6.7
664.733	6.66
665.062	6.64
665.39	6.69
665.719	6.58
666.048	6.55
666.376	6.59
666.705	6.62
667.033	6.67
667.362	6.67
667.69	6.73
668.018	6.84
668.347	6.87
668.675	6.87
669.003	6.88
669.331	6.89
669.659	6.97
669.987	6.97
670.315	7.02
670.643	7.11
670.971	7.16
671.299	7.07
671.627	7.08
671.955	7.04
672.283	7
672.61	7.07
672.938	7.15
673.266	7.16
673.593	7.13
673.921	7.05
674.249	7
674.576	6.98
674.904	6.83
675.231	6.82
675.558	6.86
675.886	6.93
676.213	6.94
676.54	6.9
676.867	6.89
