Data from MVZ_BU34099_Reflection_00011.txt Node
Date: Tue Nov 19 12:15:41 EST 2019
User: vgr7
Spectrometer: USB2G7710
Scans to average: 3
Trigger mode: 4
Integration Time (sec): 2.000000E-2
Electric dark correction enabled: true
Boxcar width: 10
XAxis mode: Wavelengths
Number of Pixels in Spectrum: 2048
>>>>>Begin Spectral Data<<<<<
177.721	742.02
178.105	-391.38
178.488	-208.41
178.871	88.68
179.254	-500
179.636	664.36
180.019	32.01
180.402	-650
180.785	65.47
181.168	-190.58
181.55	3330.77
181.933	1140.82
182.316	1634.88
182.698	431.49
183.081	995.52
183.463	4484.62
183.846	318.54
184.228	834.69
184.611	-130.77
184.993	-242.86
185.376	-135.49
185.758	-36.62
186.14	-216.36
186.522	-248.03
186.904	-106.9
187.287	-133.7
187.669	-61.96
188.051	-106.27
188.433	-144.33
188.815	-214.79
189.197	-153.52
189.579	-109.43
189.961	-96.5
190.342	-72.33
190.724	-86.24
191.106	-74.4
191.488	-68.13
191.869	-58.98
192.251	-65.8
192.633	-67.96
193.014	-46.68
193.396	-58.85
193.777	-60.24
194.159	-51.95
194.54	-43.41
194.922	-55.62
195.303	-57
195.684	-61.43
196.065	-53.03
196.447	-57.5
196.828	-41.99
197.209	-40.46
197.59	-40.48
197.971	-38.14
198.352	-41.87
198.733	-42.24
199.114	-48.3
199.495	-54.03
199.876	-47.52
200.257	-38.67
200.638	-35.2
201.018	-51.46
201.399	-24.45
201.78	-26.56
202.16	-27.24
202.541	-37.9
202.922	-44.19
203.302	-40.32
203.683	-49.6
204.063	-64.54
204.444	-61.23
204.824	-53.68
205.204	-40.81
205.585	-32.92
205.965	-36.83
206.345	-42.4
206.725	-33.55
207.106	-30.17
207.486	-24.53
207.866	-24.8
208.246	-21.69
208.626	-37.57
209.006	-42.17
209.386	-44.22
209.766	-38.63
210.145	-41.22
210.525	-36.11
210.905	-22.51
211.285	-24.34
211.664	-16.64
212.044	-15.02
212.424	-9.68
212.803	-26.03
213.183	-30.08
213.562	-28.24
213.942	-29.63
214.321	-21.97
214.701	-30.88
215.08	-40.91
215.459	-42.91
215.838	-55.15
216.218	-62.51
216.597	-45.9
216.976	-43.13
217.355	-50.71
217.734	-53.07
218.113	-39.43
218.492	-35.98
218.871	-54.11
219.25	-63.61
219.629	-87.15
220.008	-70.11
220.387	-36.29
220.766	-15.33
221.144	-16.3
221.523	-31.5
221.902	-18.84
222.28	-20.79
222.659	-5.19
223.037	5.48
223.416	4.49
223.794	3.36
224.173	-1.24
224.551	-7.02
224.929	-14.14
225.308	-11.2
225.686	-9.41
226.064	-11.58
226.442	-11.97
226.821	-6.38
227.199	-5.28
227.577	-5.17
227.955	-4.38
228.333	-9.95
228.711	-11.42
229.089	-9.67
229.467	-10.56
229.845	-11.63
230.222	-9.88
230.6	-11.67
230.978	-12.16
231.356	-12.08
231.733	-10.43
232.111	-8.44
232.488	-5.6
232.866	-1.26
233.243	0.3
233.621	1.03
233.998	0.39
234.376	1.56
234.753	-0.15
235.13	-1.56
235.508	0.75
235.885	-0.04
236.262	0.89
236.639	2.01
237.016	1.66
237.393	2.9
237.77	3.6
238.147	3.27
238.524	3.09
238.901	2.78
239.278	2.34
239.655	2.84
240.032	2.54
240.409	2.34
240.785	1.43
241.162	0.97
241.539	1.01
241.915	0.81
242.292	1.04
242.668	1.47
243.045	2.7
243.421	2.82
243.798	2.71
244.174	2.82
244.551	2.87
244.927	3.07
245.303	2.99
245.679	3.07
246.056	2.88
246.432	2.99
246.808	3.2
247.184	3.19
247.56	3.05
247.936	3.11
248.312	3.16
248.688	3.28
249.064	3.29
249.44	3.37
249.815	3.65
250.191	3.69
250.567	3.68
250.943	3.42
251.318	3.19
251.694	3.1
252.069	2.99
252.445	3.04
252.82	2.88
253.196	2.91
253.571	3.17
253.947	3.3
254.322	2.94
254.697	3.19
255.073	3.36
255.448	3.27
255.823	3.08
256.198	3.02
256.573	3.12
256.948	3.31
257.323	3.32
257.698	3.38
258.073	3.19
258.448	3.19
258.823	3.06
259.198	3.03
259.573	3.2
259.948	3.22
260.322	3.05
260.697	3.22
261.072	3.28
261.446	2.96
261.821	2.98
262.195	2.96
262.57	2.81
262.944	2.96
263.319	2.96
263.693	3.07
264.067	3.02
264.442	2.98
264.816	2.91
265.19	2.76
265.564	2.57
265.938	2.71
266.313	2.66
266.687	2.58
267.061	2.51
267.435	2.4
267.809	2.3
268.183	2.42
268.556	2.12
268.93	1.99
269.304	2.01
269.678	2.13
270.051	2.29
270.425	2.31
270.799	2.04
271.172	2.21
271.546	2.17
271.919	2.24
272.293	2.16
272.666	2.3
273.04	2.29
273.413	2.38
273.787	2.36
274.16	2.42
274.533	2.58
274.906	2.6
275.279	2.49
275.653	2.77
276.026	2.74
276.399	2.84
276.772	2.98
277.145	3.11
277.518	2.99
277.891	2.99
278.263	3.09
278.636	3.22
279.009	3.17
279.382	3.18
279.755	3.22
280.127	3.37
280.5	3.15
280.872	3.19
281.245	3.08
281.617	3.06
281.99	3.01
282.362	3.09
282.735	3.04
283.107	3.19
283.479	3.05
283.852	3.12
284.224	3.1
284.596	3.17
284.968	3.17
285.34	3.17
285.713	3.22
286.085	3.05
286.457	3.01
286.829	2.94
287.201	2.87
287.572	2.84
287.944	2.76
288.316	2.85
288.688	2.82
289.06	2.9
289.431	2.86
289.803	2.87
290.175	2.8
290.546	2.91
290.918	2.79
291.289	2.75
291.661	2.74
292.032	2.77
292.403	2.68
292.775	2.72
293.146	2.84
293.517	2.9
293.889	3.09
294.26	3.2
294.631	3.25
295.002	3.44
295.373	3.43
295.744	3.47
296.115	3.54
296.486	3.65
296.857	3.74
297.228	3.72
297.599	3.8
297.97	3.97
298.34	4
298.711	4.13
299.082	4.39
299.452	4.32
299.823	4.33
300.194	4.43
300.564	4.39
300.935	4.41
301.305	4.36
301.676	4.4
302.046	4.38
302.416	4.42
302.787	4.35
303.157	4.33
303.527	4.54
303.897	4.51
304.267	4.62
304.637	4.55
305.008	4.71
305.378	4.72
305.748	4.56
306.117	4.61
306.487	4.74
306.857	4.72
307.227	5.05
307.597	5.16
307.967	5.2
308.336	5.27
308.706	5.2
309.076	5.38
309.445	5.35
309.815	5.3
310.184	5.35
310.554	5.42
310.923	5.59
311.293	5.53
311.662	5.54
312.031	5.51
312.401	5.63
312.77	5.65
313.139	5.64
313.508	5.67
313.877	5.71
314.246	5.59
314.616	5.45
314.985	5.26
315.353	5.31
315.722	5.27
316.091	5.29
316.46	5.48
316.829	5.46
317.198	5.5
317.567	5.76
317.935	5.76
318.304	6.02
318.672	6.01
319.041	5.97
319.41	5.98
319.778	6.01
320.147	5.95
320.515	5.99
320.883	6.04
321.252	6.21
321.62	6.19
321.988	6.39
322.357	6.42
322.725	6.53
323.093	6.52
323.461	6.54
323.829	6.63
324.197	6.71
324.565	6.78
324.933	6.85
325.301	6.74
325.669	6.69
326.037	6.71
326.405	6.7
326.772	6.76
327.14	6.85
327.508	7.02
327.875	7.1
328.243	7.09
328.61	7.13
328.978	7.17
329.346	7.2
329.713	7.19
330.08	7.33
330.448	7.36
330.815	7.4
331.182	7.56
331.55	7.58
331.917	7.59
332.284	7.63
332.651	7.74
333.018	7.76
333.385	7.83
333.752	7.73
334.119	7.76
334.486	7.79
334.853	7.82
335.22	7.62
335.587	7.66
335.954	7.73
336.32	7.66
336.687	7.76
337.054	7.79
337.42	7.75
337.787	7.71
338.153	7.85
338.52	7.96
338.886	7.97
339.253	7.94
339.619	7.83
339.986	7.84
340.352	7.69
340.718	7.82
341.084	7.92
341.451	8
341.817	8.09
342.183	8.15
342.549	8.15
342.915	8.23
343.281	8.18
343.647	8.31
344.013	8.55
344.379	8.48
344.745	8.56
345.11	8.61
345.476	8.68
345.842	8.62
346.208	8.56
346.573	8.59
346.939	8.64
347.304	8.77
347.67	8.65
348.035	8.67
348.401	8.67
348.766	8.67
349.132	8.72
349.497	8.72
349.862	8.65
350.228	8.67
350.593	8.73
350.958	8.78
351.323	8.68
351.688	8.58
352.053	8.62
352.418	8.6
352.783	8.62
353.148	8.6
353.513	8.69
353.878	8.72
354.243	8.72
354.608	8.84
354.972	8.69
355.337	8.71
355.702	8.76
356.066	8.68
356.431	8.6
356.795	8.52
357.16	8.54
357.524	8.64
357.889	8.55
358.253	8.5
358.618	8.46
358.982	8.45
359.346	8.46
359.71	8.43
360.075	8.41
360.439	8.31
360.803	8.31
361.167	8.2
361.531	8.1
361.895	8.06
362.259	7.98
362.623	8.02
362.987	8.04
363.351	7.98
363.714	8
364.078	8.08
364.442	8.01
364.806	7.98
365.169	7.89
365.533	7.91
365.896	7.89
366.26	7.9
366.623	7.87
366.987	7.8
367.35	7.78
367.714	7.69
368.077	7.74
368.44	7.74
368.803	7.71
369.167	7.71
369.53	7.67
369.893	7.61
370.256	7.58
370.619	7.52
370.982	7.55
371.345	7.51
371.708	7.45
372.071	7.36
372.434	7.3
372.797	7.22
373.159	7.17
373.522	7.11
373.885	7.04
374.247	6.97
374.61	6.99
374.973	6.93
375.335	6.91
375.698	6.83
376.06	6.73
376.423	6.65
376.785	6.65
377.147	6.62
377.51	6.55
377.872	6.43
378.234	6.42
378.596	6.4
378.958	6.38
379.321	6.3
379.683	6.31
380.045	6.2
380.407	6.17
380.769	6.12
381.13	6.09
381.492	6.05
381.854	6.02
382.216	5.99
382.578	5.98
382.939	5.94
383.301	5.91
383.663	5.89
384.024	5.91
384.386	5.88
384.747	5.83
385.109	5.82
385.47	5.83
385.832	5.76
386.193	5.7
386.554	5.61
386.916	5.58
387.277	5.55
387.638	5.55
387.999	5.53
388.36	5.51
388.721	5.45
389.082	5.39
389.443	5.35
389.804	5.28
390.165	5.22
390.526	5.18
390.887	5.14
391.248	5.1
391.609	5.01
391.969	4.98
392.33	4.92
392.691	4.89
393.051	4.89
393.412	4.87
393.772	4.86
394.133	4.82
394.493	4.81
394.854	4.78
395.214	4.74
395.574	4.7
395.935	4.69
396.295	4.67
396.655	4.64
397.015	4.62
397.376	4.6
397.736	4.54
398.096	4.5
398.456	4.48
398.816	4.45
399.176	4.42
399.535	4.36
399.895	4.35
400.255	4.33
400.615	4.29
400.975	4.26
401.334	4.22
401.694	4.21
402.054	4.17
402.413	4.12
402.773	4.08
403.132	4.04
403.492	4.03
403.851	4
404.211	3.98
404.57	3.96
404.929	3.93
405.288	3.96
405.648	3.95
406.007	3.93
406.366	3.91
406.725	3.92
407.084	3.9
407.443	3.9
407.802	3.87
408.161	3.84
408.52	3.82
408.879	3.8
409.238	3.8
409.596	3.77
409.955	3.78
410.314	3.77
410.673	3.77
411.031	3.72
411.39	3.71
411.748	3.7
412.107	3.66
412.465	3.62
412.824	3.56
413.182	3.55
413.54	3.55
413.899	3.54
414.257	3.52
414.615	3.5
414.974	3.5
415.332	3.51
415.69	3.48
416.048	3.45
416.406	3.43
416.764	3.39
417.122	3.39
417.48	3.37
417.838	3.36
418.195	3.34
418.553	3.34
418.911	3.32
419.269	3.3
419.626	3.3
419.984	3.31
420.342	3.3
420.699	3.28
421.057	3.26
421.414	3.25
421.772	3.24
422.129	3.23
422.486	3.21
422.844	3.19
423.201	3.19
423.558	3.19
423.915	3.18
424.273	3.19
424.63	3.17
424.987	3.17
425.344	3.17
425.701	3.16
426.058	3.13
426.415	3.15
426.772	3.15
427.128	3.15
427.485	3.14
427.842	3.16
428.199	3.16
428.555	3.16
428.912	3.17
429.269	3.15
429.625	3.15
429.982	3.13
430.338	3.14
430.695	3.12
431.051	3.12
431.407	3.13
431.764	3.11
432.12	3.13
432.476	3.12
432.832	3.13
433.189	3.13
433.545	3.13
433.901	3.11
434.257	3.11
434.613	3.1
434.969	3.08
435.325	3.05
435.681	3.04
436.036	3.05
436.392	3.03
436.748	3.03
437.104	3.04
437.459	3.04
437.815	3.03
438.171	3.05
438.526	3.05
438.882	3.04
439.237	3.04
439.593	3.02
439.948	3.03
440.304	3.01
440.659	3.02
441.014	3.04
441.369	3.01
441.725	3
442.08	2.99
442.435	2.99
442.79	2.99
443.145	3
443.5	2.99
443.855	3
444.21	2.99
444.565	3
444.92	3.01
445.275	3.02
445.629	3
445.984	2.99
446.339	2.98
446.693	2.97
447.048	2.97
447.403	2.95
447.757	2.95
448.112	2.95
448.466	2.92
448.82	2.93
449.175	2.94
449.529	2.96
449.883	2.95
450.238	2.95
450.592	2.93
450.946	2.91
451.3	2.89
451.654	2.9
452.008	2.87
452.362	2.86
452.716	2.84
453.07	2.83
453.424	2.81
453.778	2.81
454.132	2.81
454.486	2.81
454.839	2.8
455.193	2.79
455.547	2.78
455.9	2.79
456.254	2.79
456.607	2.77
456.961	2.76
457.314	2.75
457.668	2.75
458.021	2.75
458.375	2.76
458.728	2.74
459.081	2.75
459.434	2.76
459.787	2.76
460.141	2.76
460.494	2.77
460.847	2.77
461.2	2.78
461.553	2.78
461.906	2.79
462.259	2.79
462.611	2.8
462.964	2.8
463.317	2.81
463.67	2.82
464.022	2.84
464.375	2.86
464.728	2.88
465.08	2.89
465.433	2.9
465.785	2.91
466.138	2.94
466.49	2.95
466.843	2.97
467.195	2.99
467.547	3
467.899	3
468.252	3.03
468.604	3.03
468.956	3.03
469.308	3.02
469.66	3.05
470.012	3.05
470.364	3.06
470.716	3.06
471.068	3.07
471.42	3.07
471.772	3.07
472.123	3.09
472.475	3.09
472.827	3.09
473.178	3.08
473.53	3.08
473.882	3.06
474.233	3.05
474.585	3.03
474.936	3.04
475.288	3.02
475.639	3.01
475.99	3
476.342	3.01
476.693	3.03
477.044	3.03
477.395	3.02
477.746	3.01
478.097	3.01
478.448	2.99
478.8	2.99
479.15	3
479.501	3
479.852	2.99
480.203	3
480.554	3.02
480.905	3.02
481.255	3.04
481.606	3.03
481.957	3.04
482.307	3.03
482.658	3.04
483.009	3.04
483.359	3.05
483.709	3.05
484.06	3.06
484.41	3.05
484.761	3.06
485.111	3.06
485.461	3.08
485.811	3.08
486.162	3.09
486.512	3.08
486.862	3.09
487.212	3.09
487.562	3.08
487.912	3.08
488.262	3.08
488.612	3.09
488.961	3.09
489.311	3.09
489.661	3.09
490.011	3.09
490.36	3.1
490.71	3.11
491.06	3.1
491.409	3.1
491.759	3.11
492.108	3.1
492.458	3.11
492.807	3.1
493.157	3.11
493.506	3.12
493.855	3.13
494.204	3.13
494.554	3.15
494.903	3.18
495.252	3.19
495.601	3.22
495.95	3.22
496.299	3.26
496.648	3.3
496.997	3.32
497.346	3.34
497.695	3.35
498.043	3.38
498.392	3.41
498.741	3.46
499.09	3.49
499.438	3.52
499.787	3.55
500.135	3.59
500.484	3.61
500.832	3.65
501.181	3.7
501.529	3.75
501.878	3.8
502.226	3.83
502.574	3.88
502.923	3.91
503.271	3.95
503.619	4
503.967	4.04
504.315	4.09
504.663	4.15
505.011	4.21
505.359	4.27
505.707	4.31
506.055	4.35
506.403	4.39
506.751	4.45
507.098	4.53
507.446	4.6
507.794	4.68
508.141	4.75
508.489	4.81
508.837	4.87
509.184	4.95
509.531	5
509.879	5.04
510.226	5.09
510.574	5.17
510.921	5.22
511.268	5.29
511.616	5.38
511.963	5.46
512.31	5.55
512.657	5.59
513.004	5.68
513.351	5.74
513.698	5.83
514.045	5.9
514.392	5.99
514.739	6.07
515.086	6.15
515.432	6.21
515.779	6.28
516.126	6.37
516.473	6.42
516.819	6.49
517.166	6.59
517.512	6.68
517.859	6.74
518.205	6.81
518.552	6.88
518.898	6.95
519.245	7.02
519.591	7.08
519.937	7.16
520.283	7.24
520.629	7.35
520.976	7.42
521.322	7.51
521.668	7.59
522.014	7.66
522.36	7.74
522.706	7.85
523.052	7.97
523.398	8.08
523.743	8.19
524.089	8.31
524.435	8.43
524.781	8.53
525.126	8.64
525.472	8.74
525.817	8.82
526.163	8.91
526.509	8.99
526.854	9.06
527.199	9.14
527.545	9.21
527.89	9.29
528.235	9.36
528.581	9.44
528.926	9.52
529.271	9.62
529.616	9.71
529.961	9.79
530.306	9.87
530.651	9.97
530.996	10.1
531.341	10.19
531.686	10.29
532.031	10.42
532.376	10.54
532.721	10.66
533.065	10.79
533.41	10.93
533.755	11.06
534.099	11.21
534.444	11.34
534.788	11.47
535.133	11.6
535.477	11.76
535.822	11.94
536.166	12.1
536.51	12.27
536.855	12.47
537.199	12.66
537.543	12.86
537.887	13.05
538.231	13.24
538.576	13.46
538.92	13.68
539.264	13.89
539.608	14.08
539.951	14.25
540.295	14.42
540.639	14.56
540.983	14.73
541.327	14.91
541.671	15.1
542.014	15.26
542.358	15.45
542.701	15.62
543.045	15.78
543.389	15.98
543.732	16.16
544.075	16.35
544.419	16.55
544.762	16.72
545.105	16.94
545.449	17.16
545.792	17.41
546.135	17.64
546.478	17.88
546.821	18.13
547.165	18.44
547.508	18.74
547.851	19.03
548.194	19.31
548.536	19.59
548.879	19.87
549.222	20.17
549.565	20.42
549.908	20.7
550.25	20.94
550.593	21.2
550.936	21.47
551.278	21.72
551.621	22.02
551.963	22.33
552.306	22.61
552.648	22.88
552.991	23.09
553.333	23.31
553.675	23.54
554.017	23.81
554.36	24.05
554.702	24.28
555.044	24.55
555.386	24.77
555.728	25.03
556.07	25.25
556.412	25.49
556.754	25.77
557.096	26
557.438	26.33
557.78	26.6
558.121	26.86
558.463	27.14
558.805	27.4
559.147	27.72
559.488	27.99
559.83	28.25
560.171	28.55
560.513	28.83
560.854	29.13
561.196	29.41
561.537	29.68
561.878	30
562.22	30.25
562.561	30.53
562.902	30.8
563.243	31.14
563.584	31.45
563.925	31.72
564.266	31.98
564.607	32.21
564.948	32.46
565.289	32.69
565.63	32.98
565.971	33.19
566.312	33.36
566.653	33.58
566.993	33.85
567.334	34.04
567.675	34.25
568.015	34.42
568.356	34.59
568.696	34.8
569.037	35.02
569.377	35.21
569.718	35.39
570.058	35.56
570.398	35.65
570.739	35.81
571.079	35.95
571.419	36.16
571.759	36.35
572.099	36.52
572.439	36.69
572.779	36.86
573.119	37.04
573.459	37.16
573.799	37.31
574.139	37.41
574.479	37.57
574.819	37.73
575.158	37.88
575.498	38.02
575.838	38.17
576.177	38.23
576.517	38.38
576.856	38.59
577.196	38.74
577.535	38.94
577.875	39.11
578.214	39.31
578.553	39.41
578.893	39.56
579.232	39.75
579.571	39.94
579.91	40
580.25	40.15
580.589	40.4
580.928	40.56
581.267	40.67
581.606	40.81
581.945	40.99
582.283	41.17
582.622	41.34
582.961	41.48
583.3	41.69
583.639	41.82
583.977	41.94
584.316	42.1
584.654	42.18
584.993	42.24
585.332	42.36
585.67	42.58
586.008	42.67
586.347	42.74
586.685	42.81
587.024	42.91
587.362	43.01
587.7	43.11
588.038	43.24
588.376	43.38
588.715	43.5
589.053	43.53
589.391	43.6
589.729	43.72
590.067	43.82
590.404	43.81
590.742	43.94
591.08	44.06
591.418	44.11
591.756	44.24
592.093	44.37
592.431	44.47
592.769	44.48
593.106	44.52
593.444	44.53
593.781	44.62
594.119	44.76
594.456	44.83
594.793	44.85
595.131	44.92
595.468	44.96
595.805	45
596.143	45.11
596.48	45.16
596.817	45.2
597.154	45.23
597.491	45.33
597.828	45.42
598.165	45.38
598.502	45.41
598.839	45.45
599.176	45.58
599.512	45.57
599.849	45.59
600.186	45.64
600.523	45.76
600.859	45.84
601.196	45.85
601.532	45.9
601.869	45.95
602.205	45.96
602.542	45.97
602.878	45.97
603.215	46
603.551	46.08
603.887	46.13
604.223	46.15
604.56	46.14
604.896	46.17
605.232	46.32
605.568	46.45
605.904	46.49
606.24	46.51
606.576	46.59
606.912	46.7
607.248	46.76
607.583	46.8
607.919	46.84
608.255	46.88
608.591	46.87
608.926	46.99
609.262	47.06
609.597	47.18
609.933	47.3
610.268	47.39
610.604	47.4
610.939	47.48
611.275	47.55
611.61	47.72
611.945	47.7
612.281	47.64
612.616	47.62
612.951	47.63
613.286	47.62
613.621	47.65
613.956	47.66
614.291	47.72
614.626	47.79
614.961	47.85
615.296	47.98
615.631	48.04
615.966	47.98
616.3	48.05
616.635	47.97
616.97	47.88
617.304	47.91
617.639	47.96
617.973	47.91
618.308	47.97
618.642	47.92
618.977	47.99
619.311	48.08
619.646	48.15
619.98	48.22
620.314	48.29
620.648	48.4
620.983	48.4
621.317	48.47
621.651	48.42
621.985	48.33
622.319	48.31
622.653	48.4
622.987	48.47
623.321	48.49
623.655	48.61
623.988	48.67
624.322	48.74
624.656	48.78
624.99	48.83
625.323	48.79
625.657	48.84
625.99	48.89
626.324	48.92
626.657	48.9
626.991	49
627.324	48.97
627.658	49.03
627.991	49.07
628.324	49.08
628.657	49.16
628.991	49.23
629.324	49.19
629.657	49.21
629.99	49.22
630.323	49.24
630.656	49.21
630.989	49.29
631.322	49.25
631.655	49.21
631.987	49.23
632.32	49.29
632.653	49.29
632.986	49.23
633.318	49.16
633.651	49.25
633.984	49.24
634.316	49.31
634.649	49.2
634.981	49.2
635.313	49.23
635.646	49.26
635.978	49.34
636.31	49.41
636.643	49.41
636.975	49.44
637.307	49.42
637.639	49.57
637.971	49.58
638.303	49.54
638.635	49.65
638.967	49.75
639.299	49.77
639.631	49.81
639.963	49.76
640.295	49.78
640.626	49.69
640.958	49.61
641.29	49.55
641.621	49.56
641.953	49.6
642.285	49.65
642.616	49.67
642.948	49.66
643.279	49.7
643.61	49.69
643.942	49.73
644.273	49.75
644.604	49.7
644.936	49.77
645.267	49.83
645.598	49.74
645.929	49.67
646.26	49.66
646.591	49.61
646.922	49.76
647.253	49.87
647.584	49.89
647.915	49.98
648.245	49.99
648.576	49.96
648.907	49.98
649.238	49.94
649.568	49.91
649.899	49.98
650.229	49.99
650.56	49.94
650.89	49.98
651.221	50.04
651.551	50.04
651.882	49.94
652.212	49.91
652.542	50
652.872	50.04
653.203	50.07
653.533	50.09
653.863	50.1
654.193	50.13
654.523	50.17
654.853	50.05
655.183	50.18
655.513	50.44
655.843	50.57
656.172	50.67
656.502	50.65
656.832	50.53
657.162	50.61
657.491	50.68
657.821	50.65
658.15	50.68
658.48	50.7
658.809	50.72
659.139	50.82
659.468	50.88
659.798	50.9
660.127	50.84
660.456	50.94
660.785	50.88
661.115	50.77
661.444	50.8
661.773	50.9
662.102	50.88
662.431	50.8
662.76	50.68
663.089	50.58
663.418	50.62
663.747	50.65
664.076	50.67
664.404	50.67
664.733	50.65
665.062	50.63
665.39	50.56
665.719	50.63
666.048	50.54
666.376	50.41
666.705	50.43
667.033	50.54
667.362	50.43
667.69	50.45
668.018	50.57
668.347	50.55
