Data from MVZ_BU163024_Reflection_00001.txt Node
Date: Tue Nov 19 12:11:17 EST 2019
User: vgr7
Spectrometer: USB2G7710
Scans to average: 3
Trigger mode: 4
Integration Time (sec): 2.000000E-2
Electric dark correction enabled: true
Boxcar width: 10
XAxis mode: Wavelengths
Number of Pixels in Spectrum: 2048
>>>>>Begin Spectral Data<<<<<
177.721	195.24
178.105	23.25
178.488	-8.99
178.871	-81.72
179.254	-124.24
179.636	235.42
180.019	118.78
180.402	153.85
180.785	-79.05
181.168	-51.13
181.55	11.48
181.933	27.54
182.316	9.85
182.698	-1.64
183.081	-5.42
183.463	6
183.846	-16.7
184.228	-33.98
184.611	-32.34
184.993	-58.43
185.376	-92.27
185.758	-141.33
186.14	-101.17
186.522	-158.94
186.904	-174.83
187.287	-125.03
187.669	-135.22
188.051	-115.09
188.433	-66.24
188.815	-71.79
189.197	-86.82
189.579	-198.25
189.961	-176.33
190.342	-234.94
190.724	-122.22
191.106	-114.16
191.488	-127.34
191.869	-82.94
192.251	-167.03
192.633	-200.3
193.014	-62.46
193.396	-20.24
193.777	-13.26
194.159	-32.26
194.54	-4.36
194.922	-16.23
195.303	-29.29
195.684	-152.87
196.065	47.57
196.447	118.97
196.828	161.49
197.209	51.42
197.59	29.02
197.971	1.54
198.352	11.04
198.733	46.21
199.114	54.29
199.495	33.55
199.876	3.53
200.257	31.44
200.638	38.84
201.018	102.95
201.399	49.39
201.78	76.03
202.16	12.06
202.541	45.23
202.922	24.01
203.302	60.78
203.683	-433.33
204.063	-15.15
204.444	-152.53
204.824	-223.81
205.204	318.39
205.585	-1376.19
205.965	247.29
206.345	-58.73
206.725	0.24
207.106	42.66
207.486	51.52
207.866	62.14
208.246	48.44
208.626	43.98
209.006	34.09
209.386	40.62
209.766	49.1
210.145	59.56
210.525	52.1
210.905	46.04
211.285	46.06
211.664	36.28
212.044	41.22
212.424	40.12
212.803	28.14
213.183	24.42
213.562	15.21
213.942	19.45
214.321	24.41
214.701	28.88
215.08	25.77
215.459	32.12
215.838	12.2
216.218	-0.98
216.597	25.09
216.976	37.53
217.355	37.53
217.734	22.1
218.113	39.94
218.492	45.21
218.871	48.88
219.25	46
219.629	40.49
220.008	41.14
220.387	19.9
220.766	42.84
221.144	35.15
221.523	48.66
221.902	55.38
222.28	54.45
222.659	62.5
223.037	52.08
223.416	55.91
223.794	73.68
224.173	76.06
224.551	70.84
224.929	49.36
225.308	49.99
225.686	50.24
226.064	40.03
226.442	44.32
226.821	38.37
227.199	40.48
227.577	39.48
227.955	41.17
228.333	42.53
228.711	33.43
229.089	35.81
229.467	29.55
229.845	25.51
230.222	26.93
230.6	20.62
230.978	22.97
231.356	18.61
231.733	16.16
232.111	16.54
232.488	16.1
232.866	18.31
233.243	14.82
233.621	14.69
233.998	12.11
234.376	9.56
234.753	10.04
235.13	7.99
235.508	8.47
235.885	7.3
236.262	8.01
236.639	7.94
237.016	9.02
237.393	9.85
237.77	9.94
238.147	8.91
238.524	8.82
238.901	8.11
239.278	7.3
239.655	6.51
240.032	6.17
240.409	5.79
240.785	5.5
241.162	6.16
241.539	6.25
241.915	6.22
242.292	6.53
242.668	6.25
243.045	6.74
243.421	6.57
243.798	6.59
244.174	6.25
244.551	6.24
244.927	5.59
245.303	5.63
245.679	5.47
246.056	5.4
246.432	5.36
246.808	5.1
247.184	5.19
247.56	5.36
247.936	5.2
248.312	5.27
248.688	5.27
249.064	5.17
249.44	4.9
249.815	5.19
250.191	5.16
250.567	5.09
250.943	4.96
251.318	4.99
251.694	4.64
252.069	5
252.445	5.05
252.82	5.62
253.196	5.6
253.571	5.97
253.947	6.3
254.322	6.22
254.697	6.26
255.073	6.36
255.448	5.82
255.823	5.87
256.198	5.4
256.573	5.26
256.948	5.09
257.323	5.27
257.698	4.87
258.073	4.52
258.448	4.58
258.823	4.25
259.198	4.15
259.573	4.16
259.948	4.12
260.322	4.1
260.697	4.12
261.072	4.05
261.446	3.88
261.821	3.72
262.195	3.8
262.57	4.07
262.944	4
263.319	4.16
263.693	4.15
264.067	4.3
264.442	4.3
264.816	4.28
265.19	4.25
265.564	4.35
265.938	4.61
266.313	4.34
266.687	4.58
267.061	4.5
267.435	4.77
267.809	4.53
268.183	4.43
268.556	4.18
268.93	4.16
269.304	4.04
269.678	4.09
270.051	3.95
270.425	3.93
270.799	3.91
271.172	3.84
271.546	4.06
271.919	3.91
272.293	3.89
272.666	3.91
273.04	3.86
273.413	3.81
273.787	3.78
274.16	3.89
274.533	3.89
274.906	4.06
275.279	3.87
275.653	3.85
276.026	3.94
276.399	4.09
276.772	4.1
277.145	4.26
277.518	4.1
277.891	4.06
278.263	4.04
278.636	4.07
279.009	4.12
279.382	3.89
279.755	3.95
280.127	4.02
280.5	4
280.872	4.07
281.245	4.14
281.617	4.37
281.99	4.4
282.362	4.33
282.735	4.29
283.107	4.43
283.479	4.52
283.852	4.53
284.224	4.38
284.596	4.28
284.968	4
285.34	4
285.713	4.16
286.085	4.07
286.457	4.15
286.829	4.2
287.201	4.12
287.572	4.12
287.944	4.16
288.316	4.24
288.688	4.35
289.06	4.35
289.431	4.25
289.803	4.34
290.175	4.46
290.546	4.38
290.918	4.25
291.289	4.22
291.661	4.19
292.032	4.29
292.403	4.38
292.775	4.64
293.146	4.74
293.517	4.75
293.889	4.81
294.26	4.72
294.631	4.71
295.002	4.86
295.373	4.93
295.744	4.85
296.115	4.85
296.486	4.69
296.857	4.71
297.228	4.68
297.599	4.71
297.97	4.62
298.34	4.72
298.711	4.75
299.082	4.74
299.452	4.79
299.823	4.77
300.194	4.66
300.564	4.51
300.935	4.59
301.305	4.54
301.676	4.37
302.046	4.28
302.416	4.15
302.787	3.97
303.157	3.88
303.527	4.01
303.897	3.76
304.267	3.81
304.637	3.96
305.008	3.93
305.378	3.78
305.748	3.77
306.117	3.77
306.487	3.83
306.857	3.96
307.227	3.98
307.597	3.97
307.967	4.04
308.336	4.08
308.706	3.94
309.076	4.06
309.445	4.21
309.815	4.26
310.184	4.44
310.554	4.49
310.923	4.54
311.293	4.52
311.662	4.64
312.031	4.66
312.401	4.53
312.77	4.58
313.139	4.63
313.508	4.76
313.877	4.72
314.246	4.64
314.616	4.67
314.985	4.67
315.353	4.79
315.722	4.79
316.091	4.8
316.46	4.88
316.829	4.84
317.198	4.84
317.567	4.95
317.935	4.74
318.304	4.87
318.672	4.91
319.041	4.85
319.41	4.91
319.778	5.07
320.147	5.07
320.515	4.98
320.883	4.96
321.252	4.8
321.62	4.89
321.988	4.98
322.357	4.71
322.725	4.66
323.093	4.52
323.461	4.61
323.829	4.6
324.197	4.65
324.565	4.62
324.933	4.56
325.301	4.39
325.669	4.5
326.037	4.36
326.405	4.44
326.772	4.53
327.14	4.41
327.508	4.25
327.875	4.29
328.243	4.34
328.61	4.34
328.978	4.34
329.346	4.21
329.713	4.24
330.08	4.41
330.448	4.38
330.815	4.43
331.182	4.32
331.55	4.29
331.917	4.21
332.284	4.17
332.651	4.08
333.018	4.23
333.385	4.3
333.752	4.51
334.119	4.41
334.486	4.29
334.853	4.31
335.22	4.22
335.587	4.05
335.954	3.84
336.32	3.75
336.687	3.65
337.054	3.64
337.42	3.61
337.787	3.67
338.153	3.77
338.52	3.77
338.886	3.95
339.253	3.95
339.619	4.02
339.986	4.01
340.352	4.26
340.718	4.34
341.084	4.39
341.451	4.38
341.817	4.34
342.183	4.26
342.549	4.48
342.915	4.65
343.281	4.73
343.647	4.83
344.013	4.94
344.379	5.01
344.745	5.11
345.11	5.01
345.476	4.94
345.842	4.81
346.208	4.86
346.573	4.87
346.939	4.93
347.304	4.95
347.67	4.95
348.035	4.81
348.401	4.77
348.766	4.64
349.132	4.6
349.497	4.68
349.862	4.7
350.228	4.57
350.593	4.5
350.958	4.58
351.323	4.64
351.688	4.66
352.053	4.74
352.418	4.63
352.783	4.72
353.148	4.7
353.513	4.81
353.878	4.65
354.243	4.52
354.608	4.56
354.972	4.48
355.337	4.53
355.702	4.52
356.066	4.46
356.431	4.58
356.795	4.53
357.16	4.49
357.524	4.6
357.889	4.55
358.253	4.44
358.618	4.46
358.982	4.43
359.346	4.43
359.71	4.38
360.075	4.42
360.439	4.46
360.803	4.49
361.167	4.42
361.531	4.48
361.895	4.51
362.259	4.56
362.623	4.57
362.987	4.48
363.351	4.41
363.714	4.41
364.078	4.39
364.442	4.41
364.806	4.46
365.169	4.51
365.533	4.6
365.896	4.77
366.26	4.7
366.623	4.65
366.987	4.73
367.35	4.72
367.714	4.79
368.077	4.78
368.44	4.76
368.803	4.77
369.167	4.73
369.53	4.8
369.893	4.71
370.256	4.64
370.619	4.7
370.982	4.73
371.345	4.78
371.708	4.7
372.071	4.68
372.434	4.66
372.797	4.6
373.159	4.52
373.522	4.49
373.885	4.45
374.247	4.44
374.61	4.33
374.973	4.35
375.335	4.34
375.698	4.32
376.06	4.43
376.423	4.44
376.785	4.53
377.147	4.47
377.51	4.45
377.872	4.46
378.234	4.49
378.596	4.55
378.958	4.53
379.321	4.57
379.683	4.6
380.045	4.55
380.407	4.57
380.769	4.57
381.13	4.55
381.492	4.54
381.854	4.62
382.216	4.64
382.578	4.62
382.939	4.62
383.301	4.59
383.663	4.47
384.024	4.49
384.386	4.46
384.747	4.42
385.109	4.43
385.47	4.44
385.832	4.39
386.193	4.35
386.554	4.3
386.916	4.25
387.277	4.21
387.638	4.24
387.999	4.21
388.36	4.21
388.721	4.22
389.082	4.28
389.443	4.25
389.804	4.25
390.165	4.27
390.526	4.27
390.887	4.3
391.248	4.3
391.609	4.33
391.969	4.35
392.33	4.42
392.691	4.44
393.051	4.47
393.412	4.48
393.772	4.51
394.133	4.55
394.493	4.51
394.854	4.57
395.214	4.55
395.574	4.55
395.935	4.6
396.295	4.61
396.655	4.61
397.015	4.66
397.376	4.68
397.736	4.65
398.096	4.64
398.456	4.64
398.816	4.64
399.176	4.58
399.535	4.54
399.895	4.5
400.255	4.47
400.615	4.5
400.975	4.52
401.334	4.48
401.694	4.52
402.054	4.56
402.413	4.48
402.773	4.51
403.132	4.49
403.492	4.46
403.851	4.41
404.211	4.43
404.57	4.39
404.929	4.37
405.288	4.38
405.648	4.37
406.007	4.38
406.366	4.39
406.725	4.37
407.084	4.38
407.443	4.38
407.802	4.38
408.161	4.36
408.52	4.36
408.879	4.39
409.238	4.38
409.596	4.39
409.955	4.44
410.314	4.42
410.673	4.47
411.031	4.46
411.39	4.49
411.748	4.46
412.107	4.43
412.465	4.43
412.824	4.43
413.182	4.43
413.54	4.45
413.899	4.45
414.257	4.5
414.615	4.47
414.974	4.49
415.332	4.48
415.69	4.49
416.048	4.47
416.406	4.46
416.764	4.43
417.122	4.41
417.48	4.4
417.838	4.39
418.195	4.35
418.553	4.34
418.911	4.33
419.269	4.32
419.626	4.32
419.984	4.32
420.342	4.31
420.699	4.3
421.057	4.28
421.414	4.29
421.772	4.26
422.129	4.27
422.486	4.25
422.844	4.26
423.201	4.23
423.558	4.23
423.915	4.22
424.273	4.21
424.63	4.23
424.987	4.23
425.344	4.23
425.701	4.25
426.058	4.24
426.415	4.23
426.772	4.23
427.128	4.26
427.485	4.25
427.842	4.23
428.199	4.25
428.555	4.26
428.912	4.24
429.269	4.25
429.625	4.25
429.982	4.27
430.338	4.28
430.695	4.32
431.051	4.34
431.407	4.32
431.764	4.34
432.12	4.35
432.476	4.33
432.832	4.33
433.189	4.33
433.545	4.34
433.901	4.35
434.257	4.37
434.613	4.32
434.969	4.33
435.325	4.36
435.681	4.36
436.036	4.35
436.392	4.36
436.748	4.37
437.104	4.35
437.459	4.33
437.815	4.32
438.171	4.31
438.526	4.29
438.882	4.3
439.237	4.27
439.593	4.26
439.948	4.27
440.304	4.28
440.659	4.28
441.014	4.27
441.369	4.26
441.725	4.26
442.08	4.28
442.435	4.28
442.79	4.27
443.145	4.27
443.5	4.26
443.855	4.25
444.21	4.25
444.565	4.26
444.92	4.28
445.275	4.29
445.629	4.27
445.984	4.28
446.339	4.28
446.693	4.29
447.048	4.28
447.403	4.28
447.757	4.27
448.112	4.25
448.466	4.26
448.82	4.26
449.175	4.25
449.529	4.24
449.883	4.25
450.238	4.25
450.592	4.24
450.946	4.24
451.3	4.24
451.654	4.22
452.008	4.23
452.362	4.21
452.716	4.19
453.07	4.21
453.424	4.21
453.778	4.21
454.132	4.19
454.486	4.23
454.839	4.22
455.193	4.21
455.547	4.22
455.9	4.21
456.254	4.22
456.607	4.22
456.961	4.22
457.314	4.21
457.668	4.23
458.021	4.23
458.375	4.22
458.728	4.23
459.081	4.24
459.434	4.23
459.787	4.23
460.141	4.25
460.494	4.24
460.847	4.24
461.2	4.26
461.553	4.27
461.906	4.27
462.259	4.27
462.611	4.3
462.964	4.32
463.317	4.33
463.67	4.33
464.022	4.34
464.375	4.35
464.728	4.36
465.08	4.34
465.433	4.36
465.785	4.37
466.138	4.37
466.49	4.4
466.843	4.41
467.195	4.43
467.547	4.41
467.899	4.42
468.252	4.43
468.604	4.41
468.956	4.41
469.308	4.38
469.66	4.4
470.012	4.4
470.364	4.37
470.716	4.36
471.068	4.38
471.42	4.39
471.772	4.4
472.123	4.4
472.475	4.42
472.827	4.42
473.178	4.41
473.53	4.41
473.882	4.4
474.233	4.4
474.585	4.41
474.936	4.42
475.288	4.42
475.639	4.44
475.99	4.44
476.342	4.47
476.693	4.46
477.044	4.46
477.395	4.45
477.746	4.46
478.097	4.47
478.448	4.47
478.8	4.46
479.15	4.45
479.501	4.45
479.852	4.45
480.203	4.45
480.554	4.47
480.905	4.48
481.255	4.48
481.606	4.48
481.957	4.48
482.307	4.47
482.658	4.48
483.009	4.46
483.359	4.47
483.709	4.46
484.06	4.47
484.41	4.46
484.761	4.47
485.111	4.48
485.461	4.48
485.811	4.47
486.162	4.47
486.512	4.48
486.862	4.47
487.212	4.48
487.562	4.47
487.912	4.47
488.262	4.46
488.612	4.46
488.961	4.46
489.311	4.45
489.661	4.47
490.011	4.46
490.36	4.47
490.71	4.46
491.06	4.47
491.409	4.46
491.759	4.46
492.108	4.46
492.458	4.44
492.807	4.44
493.157	4.45
493.506	4.45
493.855	4.45
494.204	4.45
494.554	4.45
494.903	4.46
495.252	4.46
495.601	4.46
495.95	4.47
496.299	4.47
496.648	4.5
496.997	4.48
497.346	4.48
497.695	4.49
498.043	4.51
498.392	4.51
498.741	4.55
499.09	4.59
499.438	4.6
499.787	4.61
500.135	4.63
500.484	4.66
500.832	4.67
501.181	4.69
501.529	4.74
501.878	4.74
502.226	4.75
502.574	4.77
502.923	4.77
503.271	4.79
503.619	4.79
503.967	4.79
504.315	4.82
504.663	4.84
505.011	4.85
505.359	4.84
505.707	4.83
506.055	4.81
506.403	4.77
506.751	4.79
507.098	4.82
507.446	4.84
507.794	4.84
508.141	4.82
508.489	4.82
508.837	4.8
509.184	4.83
509.531	4.85
509.879	4.86
510.226	4.89
510.574	4.88
510.921	4.87
511.268	4.89
511.616	4.9
511.963	4.91
512.31	4.92
512.657	4.92
513.004	4.94
513.351	4.97
513.698	4.98
514.045	5
514.392	4.99
514.739	4.97
515.086	4.99
515.432	5
515.779	5
516.126	5.03
516.473	5.02
516.819	5.03
517.166	5.04
517.512	5.04
517.859	5.06
518.205	5.06
518.552	5.07
518.898	5.05
519.245	5.05
519.591	5.06
519.937	5.06
520.283	5.09
520.629	5.09
520.976	5.1
521.322	5.1
521.668	5.1
522.014	5.12
522.36	5.12
522.706	5.13
523.052	5.15
523.398	5.14
523.743	5.15
524.089	5.14
524.435	5.15
524.781	5.17
525.126	5.17
525.472	5.17
525.817	5.16
526.163	5.19
526.509	5.21
526.854	5.21
527.199	5.22
527.545	5.21
527.89	5.21
528.235	5.22
528.581	5.22
528.926	5.22
529.271	5.23
529.616	5.23
529.961	5.24
530.306	5.25
530.651	5.25
530.996	5.26
531.341	5.28
531.686	5.28
532.031	5.29
532.376	5.29
532.721	5.31
533.065	5.32
533.41	5.31
533.755	5.31
534.099	5.32
534.444	5.32
534.788	5.33
535.133	5.33
535.477	5.33
535.822	5.35
536.166	5.36
536.51	5.36
536.855	5.34
537.199	5.33
537.543	5.33
537.887	5.33
538.231	5.33
538.576	5.32
538.92	5.31
539.264	5.29
539.608	5.31
539.951	5.3
540.295	5.31
540.639	5.32
540.983	5.34
541.327	5.33
541.671	5.34
542.014	5.34
542.358	5.36
542.701	5.35
543.045	5.36
543.389	5.37
543.732	5.36
544.075	5.39
544.419	5.4
544.762	5.4
545.105	5.4
545.449	5.41
545.792	5.44
546.135	5.45
546.478	5.46
546.821	5.47
547.165	5.48
547.508	5.48
547.851	5.49
548.194	5.44
548.536	5.44
548.879	5.43
549.222	5.45
549.565	5.42
549.908	5.42
550.25	5.4
550.593	5.38
550.936	5.39
551.278	5.41
551.621	5.43
551.963	5.44
552.306	5.48
552.648	5.5
552.991	5.47
553.333	5.5
553.675	5.55
554.017	5.52
554.36	5.51
554.702	5.52
555.044	5.54
555.386	5.53
555.728	5.55
556.07	5.58
556.412	5.54
556.754	5.56
557.096	5.53
557.438	5.55
557.78	5.56
558.121	5.58
558.463	5.55
558.805	5.55
559.147	5.53
559.488	5.49
559.83	5.48
560.171	5.51
560.513	5.5
560.854	5.47
561.196	5.5
561.537	5.5
561.878	5.54
562.22	5.56
562.561	5.62
562.902	5.6
563.243	5.59
563.584	5.61
563.925	5.61
564.266	5.67
564.607	5.63
564.948	5.66
565.289	5.66
565.63	5.67
565.971	5.69
566.312	5.68
566.653	5.7
566.993	5.68
567.334	5.7
567.675	5.72
568.015	5.7
568.356	5.67
568.696	5.68
569.037	5.66
569.377	5.63
569.718	5.6
570.058	5.63
570.398	5.63
570.739	5.64
571.079	5.65
571.419	5.65
571.759	5.68
572.099	5.67
572.439	5.64
572.779	5.65
573.119	5.63
573.459	5.65
573.799	5.62
574.139	5.63
574.479	5.62
574.819	5.6
575.158	5.58
575.498	5.61
575.838	5.59
576.177	5.59
576.517	5.61
576.856	5.61
577.196	5.61
577.535	5.66
577.875	5.66
578.214	5.67
578.553	5.7
578.893	5.71
579.232	5.72
579.571	5.76
579.91	5.78
580.25	5.77
580.589	5.73
580.928	5.8
581.267	5.78
581.606	5.77
581.945	5.78
582.283	5.82
582.622	5.84
582.961	5.89
583.3	5.91
583.639	5.89
583.977	5.9
584.316	5.92
584.654	5.87
584.993	5.88
585.332	5.9
585.67	5.9
586.008	5.91
586.347	5.91
586.685	5.88
587.024	5.9
587.362	5.93
587.7	5.95
588.038	5.95
588.376	5.96
588.715	5.93
589.053	5.94
589.391	5.95
589.729	5.91
590.067	5.9
590.404	5.89
590.742	5.9
591.08	5.91
591.418	5.91
591.756	5.96
592.093	5.95
592.431	5.94
592.769	5.95
593.106	5.91
593.444	5.94
593.781	5.99
594.119	5.91
594.456	5.89
594.793	5.88
595.131	5.89
595.468	5.91
595.805	5.95
596.143	5.96
596.48	5.98
596.817	5.99
597.154	6.02
597.491	6.02
597.828	6.04
598.165	6.05
598.502	5.99
598.839	5.97
599.176	5.96
599.512	5.95
599.849	5.89
600.186	5.9
600.523	5.91
600.859	5.93
601.196	5.99
601.532	6
601.869	6.02
602.205	6.01
602.542	6
602.878	6.06
603.215	6.06
603.551	6.05
603.887	6.04
604.223	5.99
604.56	5.99
604.896	6.02
605.232	6.03
605.568	6.09
605.904	6.06
606.24	6.1
606.576	6.14
606.912	6.18
607.248	6.24
607.583	6.22
607.919	6.2
608.255	6.19
608.591	6.2
608.926	6.23
609.262	6.21
609.597	6.24
609.933	6.2
610.268	6.22
610.604	6.24
610.939	6.24
611.275	6.31
611.61	6.37
611.945	6.35
612.281	6.33
612.616	6.35
612.951	6.43
613.286	6.39
613.621	6.36
613.956	6.38
614.291	6.37
614.626	6.38
614.961	6.39
615.296	6.42
615.631	6.4
615.966	6.39
616.3	6.45
616.635	6.49
616.97	6.51
617.304	6.51
617.639	6.46
617.973	6.45
618.308	6.47
618.642	6.38
618.977	6.33
619.311	6.39
619.646	6.35
619.98	6.36
620.314	6.37
620.648	6.38
620.983	6.36
621.317	6.35
621.651	6.34
621.985	6.36
622.319	6.36
622.653	6.43
622.987	6.42
623.321	6.42
623.655	6.35
623.988	6.35
624.322	6.35
624.656	6.38
624.99	6.4
625.323	6.33
625.657	6.41
625.99	6.48
626.324	6.39
626.657	6.4
626.991	6.39
627.324	6.37
627.658	6.39
627.991	6.44
628.324	6.42
628.657	6.4
628.991	6.39
629.324	6.37
629.657	6.34
629.99	6.34
630.323	6.29
630.656	6.32
630.989	6.28
631.322	6.26
631.655	6.3
631.987	6.29
632.32	6.34
632.653	6.33
632.986	6.36
633.318	6.47
633.651	6.48
633.984	6.46
634.316	6.44
634.649	6.47
634.981	6.45
635.313	6.49
635.646	6.54
635.978	6.53
636.31	6.56
636.643	6.57
636.975	6.6
637.307	6.64
637.639	6.68
637.971	6.71
638.303	6.71
638.635	6.72
638.967	6.78
639.299	6.79
639.631	6.79
639.963	6.76
640.295	6.79
640.626	6.81
640.958	6.83
641.29	6.94
641.621	6.84
641.953	6.76
642.285	6.72
642.616	6.77
642.948	6.83
643.279	6.82
643.61	6.77
643.942	6.74
644.273	6.73
644.604	6.71
644.936	6.74
645.267	6.78
645.598	6.79
645.929	6.72
646.26	6.75
646.591	6.69
646.922	6.65
647.253	6.5
647.584	6.53
647.915	6.54
648.245	6.46
648.576	6.52
648.907	6.57
649.238	6.62
649.568	6.59
649.899	6.61
650.229	6.64
650.56	6.66
650.89	6.75
651.221	6.76
651.551	6.83
651.882	6.83
652.212	6.79
652.542	6.76
652.872	6.79
653.203	6.75
653.533	6.81
653.863	6.89
654.193	6.88
654.523	6.86
654.853	6.93
655.183	7.03
655.513	7.05
655.843	7.09
656.172	7.1
656.502	7.04
656.832	7.07
657.162	7.08
657.491	7.11
657.821	7.04
658.15	7.07
658.48	7.04
658.809	7.11
659.139	7.17
659.468	7.15
659.798	7.18
660.127	7.17
660.456	7.09
660.785	7.05
661.115	7.15
661.444	7.19
661.773	7.18
662.102	7.1
662.431	7.09
662.76	7.03
663.089	7.04
663.418	7.1
663.747	7.11
664.076	7.06
664.404	7.06
664.733	7.06
665.062	7.01
665.39	7.01
665.719	6.9
666.048	6.89
666.376	6.99
666.705	7.04
667.033	7.03
667.362	7.1
667.69	7.15
668.018	7.18
668.347	7.16
668.675	7.1
669.003	7.16
669.331	7.19
669.659	7.27
669.987	7.26
670.315	7.24
670.643	7.19
670.971	7.16
671.299	7.17
671.627	7.23
671.955	7.29
672.283	7.23
672.61	7.32
672.938	7.33
673.266	7.31
673.593	7.28
673.921	7.32
674.249	7.36
674.576	7.33
674.904	7.2
675.231	7.12
675.558	7.22
675.886	7.15
676.213	7.16
676.54	7.26
676.867	7.26
677.195	7.42
677.522	7.43
677.849	7.49
678.176	7.56
