Data from MVZ_BU8940_Reflection_00006.txt Node
Date: Tue Nov 19 12:16:27 EST 2019
User: vgr7
Spectrometer: USB2G7710
Scans to average: 3
Trigger mode: 4
Integration Time (sec): 2.000000E-2
Electric dark correction enabled: true
Boxcar width: 10
XAxis mode: Wavelengths
Number of Pixels in Spectrum: 2048
>>>>>Begin Spectral Data<<<<<
177.721	142.9
178.105	94.32
178.488	308.12
178.871	210.71
179.254	2.44
179.636	242.86
180.019	-269.94
180.402	180
180.785	-940
181.168	45.54
181.55	11.92
181.933	23.85
182.316	102.92
182.698	-4.51
183.081	-10.94
183.463	14.7
183.846	10.74
184.228	37.83
184.611	53.57
184.993	5.88
185.376	18.54
185.758	56.02
186.14	113.08
186.522	316.08
186.904	397.14
187.287	139.27
187.669	194.92
188.051	216.39
188.433	258.67
188.815	238.41
189.197	298.7
189.579	3045.95
189.961	-353.26
190.342	-973.83
190.724	1019.79
191.106	9468.42
191.488	-5624.14
191.869	136100
192.251	8023.08
192.633	1797.67
193.014	474.33
193.396	386.64
193.777	3370.27
194.159	1213.92
194.54	651.18
194.922	232.99
195.303	176.11
195.684	221.78
196.065	329.25
196.447	195.63
196.828	252.35
197.209	373.54
197.59	258.67
197.971	61.32
198.352	46.61
198.733	20.42
199.114	39.93
199.495	-309.64
199.876	954.37
200.257	641.4
200.638	506.36
201.018	601.66
201.399	-976.92
201.78	-536.36
202.16	-586.49
202.541	1640.98
202.922	-1326.97
203.302	-475.88
203.683	-438.18
204.063	-1394.74
204.444	-1335.64
204.824	1770.59
205.204	9869.23
205.585	3422.58
205.965	-1900
206.345	-588.62
206.725	-919.8
207.106	-220.33
207.486	473.91
207.866	375.86
208.246	58.16
208.626	6.4
209.006	22.5
209.386	36.25
209.766	157.14
210.145	2814.29
210.525	-1728.57
210.905	-200.43
211.285	-98.65
211.664	-50.46
212.044	4.07
212.424	41.94
212.803	39.18
213.183	77.05
213.562	64.84
213.942	26.45
214.321	-1.78
214.701	-27.77
215.08	-23.79
215.459	-14.42
215.838	-52.3
216.218	-83.04
216.597	-30.74
216.976	-148.73
217.355	-61.56
217.734	473.63
218.113	-636.84
218.492	163.35
218.871	248.84
219.25	-1062.79
219.629	-114.88
220.008	161.61
220.387	1029.41
220.766	-324.12
221.144	-137.72
221.523	-137.56
221.902	-145.73
222.28	-193.91
222.659	-80.42
223.037	-108.96
223.416	-115.32
223.794	-79.69
224.173	-55.18
224.551	-57.08
224.929	-64.35
225.308	-55.05
225.686	-33.56
226.064	-45.16
226.442	-44.04
226.821	-39.93
227.199	-33.62
227.577	-21.98
227.955	-12.05
228.333	-5.42
228.711	-6.51
229.089	-7.98
229.467	-9.41
229.845	-5.32
230.222	2.06
230.6	-0.13
230.978	3.23
231.356	0.01
231.733	-1.69
232.111	-4.72
232.488	-4.38
232.866	-1.74
233.243	-4.4
233.621	-4.28
233.998	-2.55
234.376	-0.59
234.753	-0.7
235.13	-2.46
235.508	-3.8
235.885	-5.01
236.262	-7.08
236.639	-6.03
237.016	-5
237.393	-4.05
237.77	-2.43
238.147	-3.12
238.524	-1.31
238.901	-1.78
239.278	-1.51
239.655	-0.71
240.032	-1.01
240.409	0.27
240.785	0.67
241.162	1.15
241.539	0.68
241.915	0.78
242.292	0.99
242.668	1.3
243.045	2.35
243.421	2.67
243.798	2.76
244.174	3
244.551	3.1
244.927	3.12
245.303	3.26
245.679	3.18
246.056	3
246.432	2.92
246.808	3.01
247.184	3.09
247.56	2.87
247.936	3.33
248.312	3.13
248.688	2.84
249.064	2.89
249.44	2.96
249.815	3.05
250.191	2.88
250.567	2.65
250.943	2.47
251.318	2.36
251.694	2.26
252.069	2.47
252.445	2.55
252.82	2.79
253.196	2.85
253.571	2.91
253.947	3.26
254.322	2.73
254.697	2.62
255.073	2.88
255.448	3.03
255.823	2.77
256.198	2.48
256.573	2.83
256.948	3.04
257.323	3.14
257.698	3.27
258.073	3.3
258.448	3.57
258.823	3.46
259.198	3.29
259.573	3.18
259.948	3.1
260.322	2.85
260.697	2.79
261.072	2.75
261.446	2.84
261.821	2.82
262.195	3.03
262.57	3.05
262.944	3.14
263.319	3.27
263.693	3.44
264.067	3.66
264.442	3.66
264.816	3.6
265.19	3.49
265.564	3.42
265.938	3.56
266.313	3.55
266.687	3.44
267.061	3.63
267.435	3.67
267.809	3.76
268.183	3.96
268.556	3.86
268.93	3.99
269.304	3.62
269.678	3.66
270.051	3.68
270.425	3.69
270.799	3.47
271.172	3.42
271.546	3.3
271.919	3.22
272.293	3.18
272.666	3.05
273.04	2.98
273.413	3.13
273.787	2.97
274.16	2.85
274.533	3.05
274.906	3.09
275.279	3.12
275.653	3.02
276.026	2.98
276.399	2.92
276.772	2.92
277.145	2.92
277.518	2.68
277.891	2.73
278.263	2.86
278.636	2.95
279.009	2.91
279.382	3.02
279.755	3.25
280.127	3.41
280.5	3.56
280.872	3.67
281.245	3.35
281.617	3.49
281.99	3.52
282.362	3.42
282.735	3.37
283.107	3.26
283.479	3.36
283.852	3.57
284.224	3.74
284.596	3.63
284.968	3.71
285.34	3.8
285.713	3.76
286.085	3.63
286.457	3.57
286.829	3.6
287.201	3.48
287.572	3.35
287.944	3.25
288.316	3.17
288.688	3.29
289.06	3.46
289.431	3.57
289.803	3.57
290.175	3.7
290.546	3.68
290.918	3.75
291.289	3.67
291.661	3.5
292.032	3.37
292.403	3.28
292.775	3.31
293.146	3.48
293.517	3.42
293.889	3.48
294.26	3.69
294.631	3.86
295.002	3.94
295.373	3.92
295.744	4.08
296.115	4.04
296.486	3.99
296.857	3.94
297.228	3.88
297.599	3.84
297.97	3.77
298.34	3.77
298.711	3.92
299.082	3.97
299.452	4.01
299.823	3.92
300.194	4.2
300.564	4.05
300.935	3.92
301.305	4.16
301.676	4.05
302.046	3.97
302.416	3.81
302.787	3.69
303.157	3.72
303.527	3.62
303.897	3.68
304.267	3.75
304.637	3.98
305.008	3.9
305.378	3.96
305.748	4.02
306.117	3.92
306.487	4.03
306.857	3.97
307.227	4.04
307.597	4.17
307.967	3.99
308.336	4.26
308.706	4.36
309.076	4.21
309.445	4.46
309.815	4.53
310.184	4.62
310.554	4.72
310.923	4.71
311.293	4.75
311.662	4.83
312.031	4.75
312.401	4.65
312.77	4.67
313.139	4.61
313.508	4.64
313.877	4.8
314.246	4.55
314.616	4.52
314.985	4.34
315.353	4.44
315.722	4.37
316.091	4.35
316.46	4.36
316.829	4.31
317.198	4.13
317.567	4.17
317.935	4.24
318.304	4.45
318.672	4.6
319.041	4.4
319.41	4.37
319.778	4.44
320.147	4.41
320.515	4.41
320.883	4.5
321.252	4.45
321.62	4.55
321.988	4.6
322.357	4.64
322.725	4.67
323.093	4.57
323.461	4.65
323.829	4.55
324.197	4.53
324.565	4.59
324.933	4.64
325.301	4.43
325.669	4.19
326.037	3.94
326.405	3.87
326.772	3.91
327.14	3.76
327.508	3.64
327.875	3.62
328.243	3.64
328.61	3.55
328.978	3.51
329.346	3.33
329.713	3.46
330.08	3.58
330.448	3.71
330.815	3.68
331.182	3.58
331.55	3.67
331.917	3.69
332.284	3.74
332.651	3.7
333.018	3.73
333.385	3.81
333.752	3.85
334.119	3.79
334.486	3.88
334.853	3.84
335.22	3.93
335.587	3.89
335.954	3.88
336.32	4.02
336.687	4.05
337.054	4.18
337.42	4.17
337.787	4.14
338.153	4.12
338.52	4.19
338.886	4.27
339.253	4.07
339.619	3.93
339.986	3.86
340.352	3.96
340.718	4.05
341.084	4.19
341.451	4.24
341.817	4.37
342.183	4.21
342.549	4.35
342.915	4.34
343.281	4.42
343.647	4.48
344.013	4.45
344.379	4.53
344.745	4.48
345.11	4.53
345.476	4.61
345.842	4.6
346.208	4.56
346.573	4.57
346.939	4.65
347.304	4.75
347.67	4.7
348.035	4.6
348.401	4.6
348.766	4.5
349.132	4.57
349.497	4.41
349.862	4.57
350.228	4.56
350.593	4.66
350.958	4.65
351.323	4.48
351.688	4.5
352.053	4.46
352.418	4.55
352.783	4.61
353.148	4.57
353.513	4.52
353.878	4.56
354.243	4.5
354.608	4.55
354.972	4.57
355.337	4.67
355.702	4.74
356.066	4.65
356.431	4.68
356.795	4.7
357.16	4.82
357.524	4.81
357.889	4.8
358.253	4.8
358.618	4.83
358.982	4.91
359.346	4.91
359.71	4.88
360.075	4.85
360.439	4.79
360.803	4.8
361.167	4.82
361.531	4.84
361.895	4.93
362.259	4.97
362.623	4.96
362.987	4.86
363.351	4.83
363.714	4.85
364.078	4.81
364.442	4.81
364.806	4.82
365.169	4.75
365.533	4.76
365.896	4.76
366.26	4.69
366.623	4.7
366.987	4.69
367.35	4.76
367.714	4.69
368.077	4.7
368.44	4.69
368.803	4.63
369.167	4.54
369.53	4.48
369.893	4.49
370.256	4.47
370.619	4.6
370.982	4.57
371.345	4.63
371.708	4.65
372.071	4.55
372.434	4.5
372.797	4.55
373.159	4.61
373.522	4.66
373.885	4.69
374.247	4.64
374.61	4.68
374.973	4.63
375.335	4.68
375.698	4.6
376.06	4.57
376.423	4.59
376.785	4.61
377.147	4.61
377.51	4.57
377.872	4.62
378.234	4.58
378.596	4.62
378.958	4.63
379.321	4.65
379.683	4.68
380.045	4.67
380.407	4.65
380.769	4.64
381.13	4.59
381.492	4.59
381.854	4.59
382.216	4.59
382.578	4.61
382.939	4.62
383.301	4.67
383.663	4.7
384.024	4.75
384.386	4.78
384.747	4.8
385.109	4.81
385.47	4.81
385.832	4.82
386.193	4.82
386.554	4.82
386.916	4.79
387.277	4.76
387.638	4.81
387.999	4.83
388.36	4.83
388.721	4.84
389.082	4.86
389.443	4.94
389.804	4.93
390.165	4.96
390.526	4.96
390.887	4.96
391.248	4.94
391.609	4.9
391.969	4.9
392.33	4.9
392.691	4.86
393.051	4.84
393.412	4.85
393.772	4.87
394.133	4.87
394.493	4.89
394.854	4.94
395.214	4.95
395.574	4.93
395.935	4.93
396.295	4.95
396.655	4.93
397.015	4.91
397.376	4.92
397.736	4.87
398.096	4.88
398.456	4.87
398.816	4.88
399.176	4.88
399.535	4.91
399.895	4.9
400.255	4.92
400.615	4.93
400.975	4.91
401.334	4.91
401.694	4.91
402.054	4.89
402.413	4.93
402.773	4.93
403.132	4.92
403.492	4.93
403.851	4.9
404.211	4.89
404.57	4.89
404.929	4.88
405.288	4.87
405.648	4.87
406.007	4.88
406.366	4.91
406.725	4.92
407.084	4.88
407.443	4.9
407.802	4.91
408.161	4.89
408.52	4.94
408.879	4.94
409.238	4.96
409.596	4.95
409.955	4.91
410.314	4.88
410.673	4.9
411.031	4.88
411.39	4.87
411.748	4.87
412.107	4.86
412.465	4.85
412.824	4.87
413.182	4.86
413.54	4.89
413.899	4.86
414.257	4.85
414.615	4.89
414.974	4.87
415.332	4.9
415.69	4.94
416.048	4.93
416.406	4.91
416.764	4.9
417.122	4.92
417.48	4.92
417.838	4.96
418.195	4.97
418.553	4.99
418.911	4.99
419.269	5
419.626	5
419.984	5.01
420.342	5.02
420.699	5.02
421.057	4.99
421.414	5
421.772	5
422.129	4.98
422.486	4.97
422.844	4.95
423.201	4.94
423.558	4.92
423.915	4.94
424.273	4.93
424.63	4.92
424.987	4.94
425.344	4.92
425.701	4.9
426.058	4.89
426.415	4.89
426.772	4.87
427.128	4.88
427.485	4.87
427.842	4.86
428.199	4.84
428.555	4.86
428.912	4.85
429.269	4.86
429.625	4.89
429.982	4.93
430.338	4.93
430.695	4.93
431.051	4.93
431.407	4.91
431.764	4.91
432.12	4.93
432.476	4.94
432.832	4.95
433.189	4.95
433.545	4.94
433.901	4.95
434.257	4.97
434.613	4.97
434.969	4.95
435.325	4.95
435.681	4.97
436.036	4.97
436.392	4.96
436.748	4.98
437.104	5
437.459	5
437.815	5.01
438.171	5.01
438.526	5
438.882	5.02
439.237	5.03
439.593	5.04
439.948	5.03
440.304	5.02
440.659	5.04
441.014	5.05
441.369	5.04
441.725	5.04
442.08	5.04
442.435	5.05
442.79	5.03
443.145	5.03
443.5	5
443.855	5.01
444.21	4.98
444.565	4.99
444.92	4.99
445.275	4.98
445.629	4.97
445.984	4.99
446.339	4.99
446.693	5
447.048	4.97
447.403	4.97
447.757	4.95
448.112	4.93
448.466	4.91
448.82	4.92
449.175	4.92
449.529	4.91
449.883	4.92
450.238	4.92
450.592	4.91
450.946	4.94
451.3	4.95
451.654	4.95
452.008	4.93
452.362	4.91
452.716	4.92
453.07	4.92
453.424	4.9
453.778	4.88
454.132	4.85
454.486	4.88
454.839	4.91
455.193	4.93
455.547	4.94
455.9	4.96
456.254	4.96
456.607	4.96
456.961	4.95
457.314	4.95
457.668	4.99
458.021	5
458.375	4.97
458.728	4.97
459.081	4.99
459.434	4.98
459.787	4.99
460.141	4.98
460.494	4.97
460.847	4.98
461.2	5
461.553	5.03
461.906	5.02
462.259	4.98
462.611	4.99
462.964	5.01
463.317	4.99
463.67	5
464.022	5.01
464.375	5.02
464.728	5.03
465.08	5.02
465.433	5.02
465.785	5.05
466.138	5.06
466.49	5.06
466.843	5.07
467.195	5.12
467.547	5.1
467.899	5.11
468.252	5.13
468.604	5.11
468.956	5.1
469.308	5.09
469.66	5.13
470.012	5.13
470.364	5.13
470.716	5.16
471.068	5.17
471.42	5.15
471.772	5.19
472.123	5.18
472.475	5.19
472.827	5.2
473.178	5.2
473.53	5.21
473.882	5.2
474.233	5.2
474.585	5.16
474.936	5.21
475.288	5.21
475.639	5.19
475.99	5.2
476.342	5.24
476.693	5.26
477.044	5.23
477.395	5.21
477.746	5.21
478.097	5.21
478.448	5.21
478.8	5.22
479.15	5.21
479.501	5.21
479.852	5.2
480.203	5.21
480.554	5.21
480.905	5.21
481.255	5.24
481.606	5.24
481.957	5.26
482.307	5.26
482.658	5.27
483.009	5.3
483.359	5.3
483.709	5.29
484.06	5.29
484.41	5.31
484.761	5.33
485.111	5.34
485.461	5.34
485.811	5.33
486.162	5.34
486.512	5.34
486.862	5.35
487.212	5.36
487.562	5.35
487.912	5.37
488.262	5.37
488.612	5.36
488.961	5.38
489.311	5.37
489.661	5.39
490.011	5.38
490.36	5.36
490.71	5.35
491.06	5.36
491.409	5.36
491.759	5.35
492.108	5.35
492.458	5.34
492.807	5.33
493.157	5.33
493.506	5.35
493.855	5.34
494.204	5.33
494.554	5.32
494.903	5.34
495.252	5.33
495.601	5.32
495.95	5.34
496.299	5.32
496.648	5.34
496.997	5.32
497.346	5.34
497.695	5.35
498.043	5.38
498.392	5.38
498.741	5.38
499.09	5.4
499.438	5.4
499.787	5.38
500.135	5.4
500.484	5.4
500.832	5.38
501.181	5.42
501.529	5.47
501.878	5.47
502.226	5.51
502.574	5.52
502.923	5.54
503.271	5.53
503.619	5.56
503.967	5.57
504.315	5.59
504.663	5.57
505.011	5.6
505.359	5.57
505.707	5.57
506.055	5.58
506.403	5.59
506.751	5.61
507.098	5.65
507.446	5.69
507.794	5.71
508.141	5.76
508.489	5.76
508.837	5.74
509.184	5.76
509.531	5.73
509.879	5.73
510.226	5.74
510.574	5.75
510.921	5.74
511.268	5.75
511.616	5.76
511.963	5.77
512.31	5.78
512.657	5.84
513.004	5.85
513.351	5.85
513.698	5.87
514.045	5.89
514.392	5.89
514.739	5.87
515.086	5.91
515.432	5.91
515.779	5.92
516.126	5.94
516.473	5.94
516.819	5.96
517.166	5.98
517.512	5.99
517.859	6.01
518.205	6.03
518.552	6.04
518.898	6.02
519.245	6.01
519.591	6.02
519.937	6
520.283	6.01
520.629	6.03
520.976	6.03
521.322	6.03
521.668	6.02
522.014	6.04
522.36	6.02
522.706	6.03
523.052	6.03
523.398	6.03
523.743	6.04
524.089	6.04
524.435	6.03
524.781	6.03
525.126	6.04
525.472	6.05
525.817	6.05
526.163	6.08
526.509	6.1
526.854	6.1
527.199	6.11
527.545	6.12
527.89	6.13
528.235	6.12
528.581	6.13
528.926	6.14
529.271	6.13
529.616	6.13
529.961	6.11
530.306	6.12
530.651	6.13
530.996	6.14
531.341	6.15
531.686	6.16
532.031	6.17
532.376	6.17
532.721	6.15
533.065	6.16
533.41	6.15
533.755	6.17
534.099	6.18
534.444	6.19
534.788	6.19
535.133	6.19
535.477	6.21
535.822	6.2
536.166	6.2
536.51	6.22
536.855	6.22
537.199	6.24
537.543	6.24
537.887	6.24
538.231	6.25
538.576	6.25
538.92	6.26
539.264	6.26
539.608	6.26
539.951	6.26
540.295	6.26
540.639	6.28
540.983	6.28
541.327	6.27
541.671	6.26
542.014	6.27
542.358	6.27
542.701	6.28
543.045	6.29
543.389	6.32
543.732	6.3
544.075	6.31
544.419	6.29
544.762	6.3
545.105	6.3
545.449	6.28
545.792	6.28
546.135	6.26
546.478	6.27
546.821	6.29
547.165	6.29
547.508	6.29
547.851	6.28
548.194	6.27
548.536	6.25
548.879	6.26
549.222	6.24
549.565	6.22
549.908	6.15
550.25	6.12
550.593	6.09
550.936	6.15
551.278	6.14
551.621	6.15
551.963	6.17
552.306	6.18
552.648	6.21
552.991	6.22
553.333	6.21
553.675	6.21
554.017	6.19
554.36	6.18
554.702	6.19
555.044	6.19
555.386	6.21
555.728	6.2
556.07	6.18
556.412	6.19
556.754	6.18
557.096	6.21
557.438	6.23
557.78	6.23
558.121	6.23
558.463	6.25
558.805	6.26
559.147	6.23
559.488	6.24
559.83	6.2
560.171	6.18
560.513	6.16
560.854	6.16
561.196	6.2
561.537	6.25
561.878	6.27
562.22	6.27
562.561	6.26
562.902	6.3
563.243	6.28
563.584	6.29
563.925	6.35
564.266	6.36
564.607	6.35
564.948	6.35
565.289	6.35
565.63	6.33
565.971	6.31
566.312	6.33
566.653	6.32
566.993	6.34
567.334	6.39
567.675	6.38
568.015	6.37
568.356	6.35
568.696	6.35
569.037	6.33
569.377	6.36
569.718	6.37
570.058	6.41
570.398	6.42
570.739	6.41
571.079	6.36
571.419	6.35
571.759	6.37
572.099	6.4
572.439	6.39
572.779	6.4
573.119	6.41
573.459	6.4
573.799	6.39
574.139	6.39
574.479	6.39
574.819	6.41
575.158	6.43
575.498	6.42
575.838	6.37
576.177	6.37
576.517	6.37
576.856	6.35
577.196	6.31
577.535	6.31
577.875	6.3
578.214	6.36
578.553	6.35
578.893	6.36
579.232	6.37
579.571	6.37
579.91	6.4
580.25	6.39
580.589	6.33
580.928	6.34
581.267	6.32
581.606	6.33
581.945	6.36
582.283	6.38
582.622	6.37
582.961	6.4
583.3	6.42
583.639	6.39
583.977	6.4
584.316	6.43
584.654	6.43
584.993	6.44
585.332	6.43
585.67	6.47
586.008	6.44
586.347	6.42
586.685	6.39
587.024	6.35
587.362	6.33
587.7	6.41
588.038	6.48
588.376	6.53
588.715	6.5
589.053	6.5
589.391	6.45
589.729	6.47
590.067	6.5
590.404	6.47
590.742	6.49
591.08	6.52
591.418	6.53
591.756	6.54
592.093	6.54
592.431	6.57
592.769	6.57
593.106	6.57
593.444	6.58
593.781	6.61
594.119	6.63
594.456	6.65
594.793	6.62
595.131	6.59
595.468	6.57
595.805	6.57
596.143	6.56
596.48	6.6
596.817	6.57
597.154	6.58
597.491	6.58
597.828	6.56
598.165	6.54
598.502	6.53
598.839	6.52
599.176	6.49
599.512	6.47
599.849	6.42
600.186	6.44
600.523	6.44
600.859	6.42
601.196	6.45
601.532	6.47
601.869	6.48
602.205	6.48
602.542	6.51
602.878	6.52
603.215	6.56
603.551	6.56
603.887	6.62
604.223	6.57
604.56	6.59
604.896	6.6
605.232	6.58
605.568	6.6
605.904	6.63
606.24	6.66
606.576	6.66
606.912	6.66
607.248	6.64
607.583	6.64
607.919	6.66
608.255	6.63
608.591	6.62
608.926	6.63
609.262	6.61
609.597	6.61
609.933	6.6
610.268	6.6
610.604	6.57
610.939	6.57
611.275	6.63
611.61	6.61
611.945	6.58
612.281	6.61
612.616	6.61
612.951	6.62
613.286	6.62
613.621	6.64
613.956	6.69
614.291	6.7
614.626	6.7
614.961	6.71
615.296	6.73
615.631	6.72
615.966	6.76
616.3	6.79
616.635	6.74
616.97	6.74
617.304	6.71
617.639	6.72
617.973	6.64
618.308	6.64
618.642	6.65
618.977	6.68
619.311	6.65
619.646	6.64
619.98	6.6
620.314	6.59
620.648	6.59
620.983	6.59
621.317	6.61
621.651	6.6
621.985	6.57
622.319	6.55
622.653	6.55
622.987	6.52
623.321	6.53
623.655	6.58
623.988	6.62
624.322	6.64
624.656	6.68
624.99	6.72
625.323	6.68
625.657	6.69
625.99	6.69
626.324	6.7
626.657	6.63
626.991	6.67
627.324	6.69
627.658	6.66
627.991	6.67
628.324	6.63
628.657	6.6
628.991	6.61
629.324	6.64
629.657	6.62
629.99	6.62
630.323	6.62
630.656	6.59
630.989	6.56
631.322	6.56
631.655	6.53
631.987	6.57
632.32	6.56
632.653	6.56
632.986	6.51
633.318	6.52
633.651	6.55
633.984	6.55
634.316	6.53
634.649	6.54
634.981	6.53
635.313	6.55
635.646	6.6
635.978	6.64
636.31	6.61
636.643	6.62
636.975	6.64
637.307	6.68
637.639	6.66
637.971	6.68
638.303	6.6
638.635	6.64
638.967	6.61
639.299	6.62
639.631	6.63
639.963	6.65
640.295	6.66
640.626	6.65
640.958	6.67
641.29	6.68
641.621	6.68
641.953	6.63
642.285	6.64
642.616	6.59
642.948	6.55
643.279	6.55
643.61	6.53
643.942	6.46
644.273	6.38
644.604	6.37
644.936	6.33
645.267	6.36
645.598	6.26
645.929	6.22
646.26	6.23
646.591	6.26
646.922	6.32
647.253	6.29
647.584	6.4
647.915	6.38
648.245	6.44
648.576	6.38
648.907	6.5
649.238	6.48
649.568	6.56
649.899	6.6
650.229	6.68
650.56	6.71
650.89	6.8
651.221	6.84
651.551	6.88
651.882	6.98
652.212	7.05
652.542	7.09
652.872	7.12
653.203	7.16
653.533	7.19
653.863	7.25
654.193	7.23
654.523	7.11
654.853	7.17
655.183	7.12
655.513	7.2
655.843	7.14
656.172	7.23
656.502	7.16
656.832	7.1
657.162	7.02
657.491	7.09
657.821	7.06
658.15	7.07
658.48	7.12
658.809	7.05
659.139	7.01
659.468	6.98
659.798	6.97
660.127	6.97
660.456	6.95
660.785	6.92
661.115	7
661.444	7.03
661.773	6.99
662.102	7.03
662.431	7.09
662.76	7.1
663.089	7
663.418	7.08
663.747	7.11
664.076	7.17
664.404	7.13
664.733	7.06
665.062	7.01
665.39	6.95
665.719	6.92
666.048	6.97
666.376	7.09
666.705	7.06
667.033	7.05
667.362	6.99
667.69	6.97
668.018	6.84
668.347	6.85
668.675	6.83
669.003	6.74
669.331	6.6
669.659	6.59
669.987	6.67
670.315	6.57
670.643	6.57
670.971	6.57
671.299	6.49
671.627	6.55
671.955	6.56
672.283	6.53
672.61	6.63
672.938	6.59
673.266	6.48
673.593	6.49
673.921	6.5
674.249	6.49
674.576	6.47
674.904	6.46
675.231	6.5
675.558	6.46
675.886	6.53
676.213	6.54
676.54	6.66
676.867	6.63
