Data from MVZ_BU95633_Reflection_00013.txt Node
Date: Tue Nov 19 12:21:20 EST 2019
User: vgr7
Spectrometer: USB2G7710
Scans to average: 3
Trigger mode: 4
Integration Time (sec): 2.000000E-2
Electric dark correction enabled: true
Boxcar width: 10
XAxis mode: Wavelengths
Number of Pixels in Spectrum: 2048
>>>>>Begin Spectral Data<<<<<
177.721	154.53
178.105	131.4
178.488	86.95
178.871	256.67
179.254	-130.3
179.636	259.2
180.019	52.38
180.402	153.57
180.785	-75.44
181.168	25.41
181.55	41.07
181.933	47.18
182.316	102.36
182.698	97.3
183.081	70.65
183.463	24.49
183.846	2.89
184.228	5.39
184.611	8.9
184.993	-65.59
185.376	-532.48
185.758	-1455.56
186.14	947.62
186.522	282.13
186.904	228.74
187.287	836.43
187.669	179.28
188.051	147.36
188.433	174.68
188.815	127.68
189.197	132.12
189.579	144.31
189.961	206.24
190.342	300.33
190.724	293.36
191.106	275.81
191.488	189.41
191.869	121.1
192.251	103.99
192.633	172.37
193.014	127.73
193.396	153.84
193.777	148.04
194.159	161.76
194.54	198.51
194.922	237.02
195.303	165.61
195.684	205.04
196.065	178.28
196.447	155.13
196.828	181.41
197.209	162.45
197.59	115.87
197.971	91.68
198.352	65.47
198.733	54.52
199.114	51.9
199.495	37.88
199.876	39.66
200.257	38.9
200.638	11.87
201.018	12.35
201.399	22.01
201.78	26.7
202.16	27.44
202.541	18.87
202.922	7.92
203.302	17.03
203.683	3.21
204.063	-19.17
204.444	-16.96
204.824	-1.08
205.204	-6.97
205.585	-2.47
205.965	-2.41
206.345	6.06
206.725	11.18
207.106	15.07
207.486	29.81
207.866	19.68
208.246	26.11
208.626	29
209.006	26.39
209.386	17.66
209.766	12.07
210.145	14.95
210.525	11.36
210.905	20.79
211.285	15.29
211.664	16.15
212.044	17.76
212.424	20.28
212.803	11.81
213.183	8.13
213.562	11.34
213.942	15.74
214.321	21.13
214.701	10.82
215.08	8.74
215.459	3.3
215.838	14.56
216.218	5.7
216.597	-1.56
216.976	2.96
217.355	1.55
217.734	-13.1
218.113	-7.39
218.492	5.94
218.871	1.81
219.25	-2.48
219.629	9.87
220.008	22.63
220.387	6.46
220.766	14.9
221.144	19.86
221.523	11.45
221.902	25.98
222.28	22.53
222.659	34.69
223.037	29.25
223.416	37.94
223.794	31.97
224.173	33.71
224.551	38.95
224.929	30.06
225.308	32.24
225.686	35.86
226.064	28.26
226.442	25.15
226.821	26.44
227.199	28.04
227.577	26.3
227.955	26.6
228.333	33.8
228.711	35.44
229.089	34.98
229.467	34.16
229.845	30.05
230.222	27.84
230.6	25.84
230.978	25.76
231.356	19.37
231.733	19.97
232.111	15.26
232.488	13.82
232.866	16.23
233.243	17.05
233.621	18.17
233.998	17.95
234.376	18.49
234.753	18.14
235.13	14.62
235.508	11.76
235.885	10.62
236.262	7.53
236.639	4.75
237.016	2.42
237.393	3.55
237.77	3.32
238.147	2.75
238.524	3.32
238.901	2.77
239.278	3.52
239.655	4.31
240.032	5.81
240.409	5.92
240.785	4.97
241.162	4.77
241.539	4.1
241.915	4.19
242.292	4.08
242.668	3.31
243.045	3.87
243.421	4.43
243.798	4.61
244.174	4.72
244.551	4.99
244.927	5.5
245.303	5.3
245.679	5.38
246.056	5.64
246.432	5.62
246.808	5.81
247.184	5.72
247.56	5.49
247.936	5.29
248.312	5.22
248.688	5.34
249.064	5.3
249.44	5.27
249.815	5.5
250.191	5.5
250.567	5.81
250.943	5.99
251.318	5.79
251.694	5.66
252.069	5.88
252.445	6.1
252.82	6.12
253.196	5.92
253.571	6.1
253.947	5.91
254.322	5.82
254.697	5.7
255.073	5.73
255.448	5.81
255.823	5.83
256.198	5.62
256.573	5.5
256.948	5.53
257.323	5.58
257.698	5.24
258.073	5.25
258.448	5.3
258.823	5.12
259.198	5.27
259.573	5.07
259.948	4.9
260.322	4.58
260.697	4.62
261.072	4.89
261.446	4.89
261.821	4.85
262.195	4.79
262.57	4.8
262.944	5.01
263.319	5.01
263.693	5.07
264.067	5.18
264.442	5.27
264.816	5.14
265.19	5.17
265.564	5.34
265.938	5.4
266.313	5.21
266.687	5.13
267.061	4.89
267.435	5.27
267.809	5.15
268.183	5.22
268.556	5.03
268.93	4.78
269.304	4.61
269.678	4.73
270.051	4.71
270.425	4.5
270.799	4.02
271.172	4.04
271.546	4.04
271.919	4.12
272.293	4.15
272.666	4.17
273.04	4.08
273.413	4.03
273.787	3.69
274.16	3.71
274.533	3.86
274.906	4.06
275.279	3.86
275.653	3.97
276.026	4.08
276.399	4.18
276.772	4.36
277.145	4.57
277.518	4.5
277.891	4.58
278.263	4.74
278.636	5.17
279.009	5.13
279.382	4.97
279.755	4.8
280.127	4.71
280.5	4.69
280.872	4.59
281.245	4.61
281.617	4.89
281.99	4.95
282.362	4.99
282.735	4.82
283.107	4.8
283.479	4.79
283.852	4.77
284.224	4.69
284.596	4.54
284.968	4.41
285.34	4.55
285.713	4.59
286.085	4.44
286.457	4.35
286.829	4.29
287.201	4.34
287.572	4.48
287.944	4.54
288.316	4.55
288.688	4.79
289.06	4.76
289.431	4.8
289.803	4.83
290.175	4.66
290.546	4.71
290.918	4.78
291.289	4.73
291.661	4.81
292.032	4.73
292.403	4.78
292.775	4.85
293.146	4.85
293.517	4.86
293.889	4.96
294.26	4.99
294.631	5.01
295.002	5.22
295.373	5.25
295.744	5.26
296.115	5.32
296.486	5.31
296.857	5.43
297.228	5.36
297.599	5.19
297.97	5.33
298.34	5.35
298.711	5.46
299.082	5.52
299.452	5.6
299.823	5.7
300.194	5.91
300.564	5.75
300.935	5.74
301.305	5.76
301.676	5.86
302.046	5.92
302.416	5.98
302.787	5.98
303.157	5.95
303.527	6.03
303.897	6.18
304.267	6.15
304.637	6.19
305.008	6.32
305.378	6.69
305.748	6.71
306.117	6.7
306.487	6.58
306.857	6.71
307.227	6.67
307.597	6.89
307.967	6.82
308.336	7.07
308.706	7.07
309.076	7.15
309.445	7.25
309.815	7.3
310.184	7.41
310.554	7.4
310.923	7.43
311.293	7.44
311.662	7.48
312.031	7.61
312.401	7.6
312.77	7.6
313.139	7.66
313.508	7.74
313.877	7.88
314.246	8.01
314.616	8.08
314.985	8.3
315.353	8.27
315.722	8.5
316.091	8.41
316.46	8.52
316.829	8.55
317.198	8.76
317.567	8.95
317.935	9.06
318.304	9.2
318.672	9.29
319.041	9.42
319.41	9.33
319.778	9.35
320.147	9.41
320.515	9.38
320.883	9.2
321.252	9.32
321.62	9.44
321.988	9.46
322.357	9.45
322.725	9.12
323.093	9.04
323.461	8.93
323.829	8.89
324.197	9
324.565	9.06
324.933	8.89
325.301	8.79
325.669	8.81
326.037	8.75
326.405	8.81
326.772	8.8
327.14	8.83
327.508	8.81
327.875	8.95
328.243	8.98
328.61	9.08
328.978	9.15
329.346	9.21
329.713	9.27
330.08	9.42
330.448	9.72
330.815	9.87
331.182	9.78
331.55	10
331.917	9.98
332.284	9.95
332.651	10.09
333.018	10.04
333.385	10.01
333.752	9.96
334.119	9.93
334.486	9.94
334.853	9.98
335.22	9.97
335.587	9.81
335.954	9.84
336.32	9.87
336.687	9.88
337.054	9.81
337.42	9.92
337.787	9.88
338.153	9.82
338.52	9.89
338.886	9.98
339.253	10.01
339.619	10.04
339.986	9.95
340.352	9.9
340.718	9.88
341.084	10.03
341.451	10.11
341.817	10.08
342.183	10.03
342.549	10.09
342.915	10.03
343.281	10.08
343.647	10.11
344.013	10.09
344.379	10.05
344.745	10.27
345.11	10.12
345.476	10.16
345.842	10.18
346.208	10.2
346.573	10.2
346.939	10.13
347.304	10.14
347.67	10.17
348.035	10.14
348.401	10.23
348.766	10.13
349.132	10.11
349.497	10.17
349.862	10.05
350.228	10.12
350.593	10.22
350.958	10.39
351.323	10.39
351.688	10.41
352.053	10.42
352.418	10.23
352.783	10.32
353.148	10.27
353.513	10.09
353.878	9.94
354.243	9.81
354.608	9.87
354.972	9.77
355.337	9.85
355.702	9.79
356.066	9.8
356.431	9.68
356.795	9.7
357.16	9.71
357.524	9.88
357.889	9.76
358.253	9.66
358.618	9.55
358.982	9.56
359.346	9.47
359.71	9.43
360.075	9.44
360.439	9.46
360.803	9.47
361.167	9.54
361.531	9.56
361.895	9.55
362.259	9.5
362.623	9.54
362.987	9.45
363.351	9.47
363.714	9.42
364.078	9.44
364.442	9.37
364.806	9.3
365.169	9.18
365.533	9.19
365.896	9.25
366.26	9.21
366.623	9.08
366.987	9.11
367.35	9.13
367.714	9.07
368.077	8.82
368.44	8.69
368.803	8.6
369.167	8.54
369.53	8.52
369.893	8.45
370.256	8.29
370.619	8.29
370.982	8.2
371.345	8.1
371.708	8.09
372.071	8.01
372.434	7.9
372.797	7.82
373.159	7.78
373.522	7.65
373.885	7.57
374.247	7.56
374.61	7.46
374.973	7.39
375.335	7.37
375.698	7.42
376.06	7.34
376.423	7.29
376.785	7.25
377.147	7.23
377.51	7.21
377.872	7.21
378.234	7.17
378.596	7.13
378.958	7.18
379.321	7.08
379.683	7.08
380.045	7.08
380.407	7.03
380.769	6.92
381.13	6.87
381.492	6.85
381.854	6.78
382.216	6.77
382.578	6.7
382.939	6.61
383.301	6.52
383.663	6.5
384.024	6.46
384.386	6.4
384.747	6.37
385.109	6.35
385.47	6.31
385.832	6.22
386.193	6.15
386.554	6.06
386.916	5.98
387.277	5.9
387.638	5.87
387.999	5.86
388.36	5.81
388.721	5.81
389.082	5.78
389.443	5.79
389.804	5.74
390.165	5.68
390.526	5.62
390.887	5.66
391.248	5.62
391.609	5.62
391.969	5.58
392.33	5.57
392.691	5.51
393.051	5.5
393.412	5.47
393.772	5.49
394.133	5.44
394.493	5.44
394.854	5.48
395.214	5.42
395.574	5.4
395.935	5.37
396.295	5.32
396.655	5.27
397.015	5.23
397.376	5.21
397.736	5.16
398.096	5.14
398.456	5.07
398.816	5.09
399.176	4.98
399.535	4.94
399.895	4.93
400.255	4.9
400.615	4.84
400.975	4.84
401.334	4.82
401.694	4.83
402.054	4.8
402.413	4.7
402.773	4.66
403.132	4.62
403.492	4.62
403.851	4.6
404.211	4.59
404.57	4.57
404.929	4.52
405.288	4.52
405.648	4.49
406.007	4.46
406.366	4.44
406.725	4.47
407.084	4.49
407.443	4.46
407.802	4.43
408.161	4.44
408.52	4.44
408.879	4.4
409.238	4.37
409.596	4.4
409.955	4.42
410.314	4.45
410.673	4.45
411.031	4.45
411.39	4.43
411.748	4.42
412.107	4.4
412.465	4.39
412.824	4.38
413.182	4.4
413.54	4.4
413.899	4.36
414.257	4.36
414.615	4.3
414.974	4.3
415.332	4.27
415.69	4.22
416.048	4.19
416.406	4.15
416.764	4.14
417.122	4.08
417.48	4.08
417.838	4.07
418.195	4.04
418.553	4.02
418.911	3.99
419.269	3.97
419.626	3.96
419.984	3.94
420.342	3.9
420.699	3.88
421.057	3.89
421.414	3.87
421.772	3.85
422.129	3.84
422.486	3.82
422.844	3.83
423.201	3.82
423.558	3.82
423.915	3.82
424.273	3.82
424.63	3.81
424.987	3.8
425.344	3.79
425.701	3.8
426.058	3.79
426.415	3.79
426.772	3.8
427.128	3.79
427.485	3.78
427.842	3.8
428.199	3.79
428.555	3.76
428.912	3.77
429.269	3.74
429.625	3.73
429.982	3.71
430.338	3.7
430.695	3.69
431.051	3.66
431.407	3.67
431.764	3.65
432.12	3.66
432.476	3.67
432.832	3.67
433.189	3.64
433.545	3.64
433.901	3.65
434.257	3.64
434.613	3.63
434.969	3.64
435.325	3.65
435.681	3.68
436.036	3.67
436.392	3.67
436.748	3.7
437.104	3.7
437.459	3.7
437.815	3.71
438.171	3.73
438.526	3.74
438.882	3.74
439.237	3.75
439.593	3.76
439.948	3.74
440.304	3.74
440.659	3.76
441.014	3.77
441.369	3.76
441.725	3.76
442.08	3.77
442.435	3.77
442.79	3.75
443.145	3.71
443.5	3.71
443.855	3.71
444.21	3.71
444.565	3.72
444.92	3.73
445.275	3.71
445.629	3.68
445.984	3.69
446.339	3.69
446.693	3.69
447.048	3.67
447.403	3.67
447.757	3.66
448.112	3.64
448.466	3.62
448.82	3.63
449.175	3.63
449.529	3.63
449.883	3.63
450.238	3.63
450.592	3.66
450.946	3.67
451.3	3.64
451.654	3.64
452.008	3.63
452.362	3.6
452.716	3.62
453.07	3.64
453.424	3.63
453.778	3.62
454.132	3.61
454.486	3.61
454.839	3.61
455.193	3.61
455.547	3.63
455.9	3.64
456.254	3.63
456.607	3.63
456.961	3.61
457.314	3.62
457.668	3.61
458.021	3.61
458.375	3.61
458.728	3.62
459.081	3.61
459.434	3.62
459.787	3.63
460.141	3.63
460.494	3.65
460.847	3.64
461.2	3.64
461.553	3.65
461.906	3.67
462.259	3.67
462.611	3.69
462.964	3.7
463.317	3.72
463.67	3.73
464.022	3.75
464.375	3.77
464.728	3.78
465.08	3.82
465.433	3.85
465.785	3.87
466.138	3.89
466.49	3.93
466.843	3.94
467.195	3.98
467.547	4
467.899	3.99
468.252	4.02
468.604	4.05
468.956	4.07
469.308	4.05
469.66	4.07
470.012	4.09
470.364	4.09
470.716	4.11
471.068	4.12
471.42	4.11
471.772	4.14
472.123	4.15
472.475	4.18
472.827	4.15
473.178	4.17
473.53	4.18
473.882	4.19
474.233	4.21
474.585	4.21
474.936	4.22
475.288	4.23
475.639	4.23
475.99	4.23
476.342	4.23
476.693	4.24
477.044	4.22
477.395	4.21
477.746	4.2
478.097	4.16
478.448	4.15
478.8	4.14
479.15	4.09
479.501	4.07
479.852	4.04
480.203	4.04
480.554	4.02
480.905	4
481.255	3.99
481.606	3.96
481.957	3.96
482.307	3.94
482.658	3.94
483.009	3.92
483.359	3.92
483.709	3.92
484.06	3.91
484.41	3.91
484.761	3.91
485.111	3.89
485.461	3.89
485.811	3.88
486.162	3.87
486.512	3.88
486.862	3.88
487.212	3.87
487.562	3.86
487.912	3.85
488.262	3.86
488.612	3.86
488.961	3.87
489.311	3.85
489.661	3.85
490.011	3.86
490.36	3.86
490.71	3.86
491.06	3.85
491.409	3.85
491.759	3.86
492.108	3.86
492.458	3.88
492.807	3.89
493.157	3.92
493.506	3.94
493.855	3.96
494.204	3.97
494.554	4.01
494.903	4.03
495.252	4.07
495.601	4.12
495.95	4.16
496.299	4.19
496.648	4.25
496.997	4.31
497.346	4.35
497.695	4.42
498.043	4.48
498.392	4.55
498.741	4.6
499.09	4.66
499.438	4.72
499.787	4.79
500.135	4.87
500.484	4.92
500.832	4.99
501.181	5.08
501.529	5.18
501.878	5.26
502.226	5.38
502.574	5.46
502.923	5.53
503.271	5.63
503.619	5.72
503.967	5.83
504.315	5.97
504.663	6.09
505.011	6.2
505.359	6.33
505.707	6.48
506.055	6.63
506.403	6.77
506.751	6.94
507.098	7.12
507.446	7.31
507.794	7.5
508.141	7.69
508.489	7.86
508.837	8.03
509.184	8.26
509.531	8.44
509.879	8.67
510.226	8.9
510.574	9.1
510.921	9.31
511.268	9.57
511.616	9.8
511.963	10.08
512.31	10.3
512.657	10.55
513.004	10.82
513.351	11.13
513.698	11.44
514.045	11.78
514.392	12.09
514.739	12.4
515.086	12.74
515.432	13.06
515.779	13.38
516.126	13.73
516.473	14.03
516.819	14.33
517.166	14.61
517.512	14.91
517.859	15.19
518.205	15.48
518.552	15.73
518.898	15.95
519.245	16.18
519.591	16.48
519.937	16.8
520.283	17.1
520.629	17.38
520.976	17.69
521.322	17.98
521.668	18.29
522.014	18.62
522.36	18.93
522.706	19.25
523.052	19.64
523.398	20
523.743	20.35
524.089	20.76
524.435	21.16
524.781	21.47
525.126	21.76
525.472	22.08
525.817	22.35
526.163	22.6
526.509	22.85
526.854	23.04
527.199	23.23
527.545	23.41
527.89	23.63
528.235	23.83
528.581	24.02
528.926	24.22
529.271	24.39
529.616	24.6
529.961	24.81
530.306	24.99
530.651	25.2
530.996	25.42
531.341	25.61
531.686	25.81
532.031	26.05
532.376	26.32
532.721	26.52
533.065	26.73
533.41	27
533.755	27.22
534.099	27.49
534.444	27.71
534.788	27.94
535.133	28.15
535.477	28.38
535.822	28.59
536.166	28.87
536.51	29.18
536.855	29.46
537.199	29.74
537.543	30.03
537.887	30.32
538.231	30.62
538.576	30.94
538.92	31.21
539.264	31.48
539.608	31.73
539.951	31.97
540.295	32.23
540.639	32.43
540.983	32.63
541.327	32.84
541.671	33.07
542.014	33.29
542.358	33.47
542.701	33.68
543.045	33.87
543.389	34.07
543.732	34.22
544.075	34.37
544.419	34.56
544.762	34.75
545.105	34.9
545.449	35.09
545.792	35.27
546.135	35.46
546.478	35.64
546.821	35.87
547.165	36.05
547.508	36.22
547.851	36.42
548.194	36.62
548.536	36.78
548.879	36.94
549.222	37.15
549.565	37.34
549.908	37.47
550.25	37.68
550.593	37.81
550.936	37.96
551.278	38.12
551.621	38.26
551.963	38.46
552.306	38.67
552.648	38.82
552.991	38.98
553.333	39.16
553.675	39.34
554.017	39.48
554.36	39.69
554.702	39.84
555.044	40.02
555.386	40.21
555.728	40.44
556.07	40.6
556.412	40.74
556.754	40.93
557.096	41.11
557.438	41.28
557.78	41.43
558.121	41.65
558.463	41.87
558.805	42.12
559.147	42.21
559.488	42.38
559.83	42.52
560.171	42.67
560.513	42.78
560.854	42.91
561.196	42.98
561.537	43.08
561.878	43.24
562.22	43.38
562.561	43.45
562.902	43.55
563.243	43.66
563.584	43.74
563.925	43.84
564.266	43.9
564.607	43.99
564.948	44.08
565.289	44.2
565.63	44.36
565.971	44.39
566.312	44.54
566.653	44.64
566.993	44.73
567.334	44.78
567.675	44.86
568.015	44.91
568.356	45.01
568.696	45.13
569.037	45.18
569.377	45.24
569.718	45.35
570.058	45.35
570.398	45.42
570.739	45.48
571.079	45.54
571.419	45.67
571.759	45.75
572.099	45.8
572.439	45.85
572.779	45.83
573.119	45.94
573.459	45.96
573.799	46
574.139	46.04
574.479	46.16
574.819	46.31
575.158	46.39
575.498	46.46
575.838	46.45
576.177	46.53
576.517	46.57
576.856	46.59
577.196	46.78
577.535	46.8
577.875	46.85
578.214	46.91
578.553	46.95
578.893	46.99
579.232	47.11
579.571	47.19
579.91	47.26
580.25	47.26
580.589	47.39
580.928	47.5
581.267	47.63
581.606	47.73
581.945	47.67
582.283	47.8
582.622	47.89
582.961	47.94
583.3	48
583.639	48.02
583.977	48.18
584.316	48.16
584.654	48.28
584.993	48.32
585.332	48.38
585.67	48.43
586.008	48.47
586.347	48.57
586.685	48.6
587.024	48.68
587.362	48.82
587.7	48.88
588.038	48.93
588.376	48.97
588.715	48.92
589.053	48.95
589.391	48.97
589.729	49.04
590.067	49.09
590.404	49.2
590.742	49.27
591.08	49.24
591.418	49.41
591.756	49.46
592.093	49.55
592.431	49.69
592.769	49.71
593.106	49.85
593.444	49.89
593.781	49.91
594.119	49.96
594.456	49.9
594.793	49.98
595.131	50
595.468	49.97
595.805	50.01
596.143	50.11
596.48	50.15
596.817	50.16
597.154	50.2
597.491	50.23
597.828	50.33
598.165	50.42
598.502	50.34
598.839	50.41
599.176	50.46
599.512	50.47
599.849	50.63
600.186	50.64
600.523	50.65
600.859	50.69
601.196	50.77
601.532	50.8
601.869	50.75
602.205	50.78
602.542	50.88
602.878	50.96
603.215	50.98
603.551	50.99
603.887	51.01
604.223	51.11
604.56	51.14
604.896	51.15
605.232	51.21
605.568	51.28
605.904	51.3
606.24	51.31
606.576	51.34
606.912	51.3
607.248	51.29
607.583	51.26
607.919	51.29
608.255	51.28
608.591	51.38
608.926	51.46
609.262	51.46
609.597	51.52
609.933	51.55
610.268	51.6
610.604	51.62
610.939	51.71
611.275	51.75
611.61	51.83
611.945	51.88
612.281	51.83
612.616	51.84
612.951	51.89
613.286	51.95
613.621	51.97
613.956	52.04
614.291	52.04
614.626	52.08
614.961	52.15
615.296	52.17
615.631	52.21
615.966	52.22
616.3	52.33
616.635	52.31
616.97	52.31
617.304	52.28
617.639	52.34
617.973	52.29
618.308	52.31
618.642	52.39
618.977	52.43
619.311	52.4
619.646	52.37
619.98	52.42
620.314	52.43
620.648	52.47
620.983	52.46
621.317	52.52
621.651	52.56
621.985	52.51
622.319	52.54
622.653	52.56
622.987	52.68
623.321	52.67
623.655	52.7
623.988	52.76
624.322	52.91
624.656	52.94
624.99	53.02
625.323	52.97
625.657	52.88
625.99	52.87
626.324	52.95
626.657	53.08
626.991	53.08
627.324	53.09
627.658	53.14
627.991	53.21
628.324	53.26
628.657	53.32
628.991	53.37
629.324	53.38
629.657	53.42
629.99	53.36
630.323	53.35
630.656	53.36
630.989	53.35
631.322	53.32
631.655	53.29
631.987	53.3
632.32	53.26
632.653	53.23
632.986	53.23
633.318	53.31
633.651	53.37
633.984	53.32
634.316	53.37
634.649	53.41
634.981	53.41
635.313	53.45
635.646	53.47
635.978	53.52
636.31	53.45
636.643	53.46
636.975	53.53
637.307	53.57
637.639	53.53
637.971	53.41
638.303	53.34
638.635	53.34
638.967	53.34
639.299	53.48
639.631	53.52
639.963	53.54
640.295	53.43
640.626	53.36
640.958	53.48
641.29	53.44
641.621	53.26
641.953	53.17
642.285	53.09
642.616	53.09
642.948	53.2
643.279	53.39
643.61	53.43
643.942	53.31
644.273	53.28
644.604	53.32
644.936	53.5
645.267	53.52
645.598	53.66
645.929	53.64
646.26	53.64
646.591	53.65
646.922	53.71
647.253	53.81
647.584	53.84
647.915	53.67
648.245	53.72
648.576	53.86
648.907	53.95
649.238	53.96
649.568	53.98
649.899	53.86
650.229	53.81
650.56	53.72
650.89	53.75
651.221	53.74
651.551	53.8
651.882	53.84
652.212	53.88
652.542	53.83
652.872	53.94
653.203	53.89
653.533	54.07
653.863	54.02
654.193	53.99
654.523	53.95
654.853	54.07
655.183	54.14
655.513	54.16
655.843	54.17
656.172	54.22
656.502	54.22
656.832	54.33
657.162	54.42
657.491	54.51
657.821	54.47
658.15	54.54
658.48	54.56
658.809	54.44
659.139	54.4
659.468	54.43
659.798	54.4
660.127	54.43
660.456	54.28
660.785	54.26
661.115	54.26
661.444	54.34
661.773	54.4
662.102	54.28
662.431	54.26
662.76	54.41
663.089	54.48
663.418	54.47
663.747	54.39
664.076	54.28
664.404	54.34
664.733	54.47
665.062	54.44
665.39	54.37
665.719	54.52
666.048	54.67
666.376	54.65
666.705	54.66
667.033	54.73
667.362	54.76
