Data from MVZ_BU65311_Reflection_00010.txt Node
Date: Tue Nov 19 12:20:19 EST 2019
User: vgr7
Spectrometer: USB2G7710
Scans to average: 3
Trigger mode: 4
Integration Time (sec): 2.000000E-2
Electric dark correction enabled: true
Boxcar width: 10
XAxis mode: Wavelengths
Number of Pixels in Spectrum: 2048
>>>>>Begin Spectral Data<<<<<
177.721	-106.35
178.105	-66.67
178.488	-5.07
178.871	-13.33
179.254	0
179.636	-32.18
180.019	-177.78
180.402	91.67
180.785	-70.37
181.168	-825.93
181.55	294.44
181.933	600
182.316	37.5
182.698	37.5
183.081	-150
183.463	-136.84
183.846	-140.51
184.228	-239.29
184.611	-90.72
184.993	-55
185.376	-21.36
185.758	13.71
186.14	10.26
186.522	18.6
186.904	29.23
187.287	33.12
187.669	36
188.051	36.09
188.433	31.88
188.815	36.66
189.197	39.72
189.579	17.55
189.961	5.62
190.342	9.53
190.724	9.54
191.106	5.84
191.488	12.83
191.869	16.16
192.251	21.05
192.633	16.52
193.014	21.47
193.396	15.36
193.777	17.1
194.159	12.44
194.54	-1.18
194.922	-14.73
195.303	-10.69
195.684	-30.02
196.065	-29.7
196.447	-21.32
196.828	-13.24
197.209	-3.09
197.59	13.64
197.971	17.95
198.352	7.34
198.733	9.88
199.114	15.98
199.495	8.03
199.876	13.19
200.257	11.62
200.638	11.99
201.018	15.65
201.399	19.31
201.78	20.9
202.16	19.72
202.541	46.9
202.922	58.45
203.302	56.68
203.683	85.71
204.063	64.06
204.444	57.06
204.824	58.06
205.204	43.18
205.585	34.54
205.965	27.97
206.345	48.86
206.725	44.79
207.106	32.15
207.486	34.29
207.866	28.57
208.246	28.02
208.626	20.63
209.006	-5.34
209.386	3.85
209.766	-3.41
210.145	1.81
210.525	-4.49
210.905	-6.99
211.285	3.73
211.664	8.11
212.044	11.87
212.424	7.94
212.803	-2.42
213.183	-8.33
213.562	-10.68
213.942	-10.45
214.321	-16.8
214.701	-14.69
215.08	-1.21
215.459	-1.69
215.838	4.32
216.218	6.19
216.597	8.32
216.976	6.89
217.355	-9.41
217.734	-14.98
218.113	-15.47
218.492	-29.11
218.871	-28.74
219.25	-33.89
219.629	-59.89
220.008	-49.14
220.387	-34.44
220.766	-25.26
221.144	-24.51
221.523	-26.64
221.902	-10.67
222.28	-13.27
222.659	-6.64
223.037	-20.99
223.416	-21.93
223.794	-30.77
224.173	-38.54
224.551	-31.47
224.929	-24.5
225.308	-14.52
225.686	-5.84
226.064	-9.5
226.442	4.29
226.821	4.57
227.199	4.3
227.577	5.71
227.955	6.34
228.333	4.03
228.711	4.9
229.089	5.25
229.467	3.66
229.845	-0.13
230.222	-0.6
230.6	-3.02
230.978	2.45
231.356	3.52
231.733	5.05
232.111	9
232.488	8.4
232.866	6.18
233.243	4.66
233.621	2.69
233.998	5.92
234.376	2.01
234.753	1.43
235.13	3.78
235.508	2.88
235.885	2.38
236.262	3.12
236.639	2.65
237.016	1.26
237.393	2.94
237.77	4.94
238.147	5.52
238.524	6.99
238.901	5.77
239.278	5.21
239.655	4.48
240.032	4.62
240.409	4.72
240.785	5.08
241.162	5.17
241.539	5.41
241.915	4.46
242.292	4.47
242.668	5
243.045	4.29
243.421	4.93
243.798	4.9
244.174	4.72
244.551	5.14
244.927	5.44
245.303	5.18
245.679	4.89
246.056	4.92
246.432	4.85
246.808	4.68
247.184	4.92
247.56	4.94
247.936	4.76
248.312	4.87
248.688	5.01
249.064	5.04
249.44	4.85
249.815	5.09
250.191	5.42
250.567	5.07
250.943	5.01
251.318	4.94
251.694	4.7
252.069	4.84
252.445	4.72
252.82	4.97
253.196	5
253.571	5.13
253.947	4.97
254.322	4.76
254.697	4.67
255.073	4.68
255.448	4.65
255.823	4.68
256.198	4.67
256.573	4.55
256.948	4.52
257.323	4.76
257.698	4.74
258.073	4.48
258.448	4.65
258.823	4.48
259.198	4.51
259.573	4.48
259.948	4.69
260.322	4.63
260.697	4.56
261.072	4.62
261.446	4.64
261.821	4.73
262.195	4.67
262.57	4.92
262.944	4.76
263.319	4.67
263.693	4.6
264.067	4.73
264.442	4.73
264.816	4.81
265.19	4.74
265.564	4.54
265.938	4.34
266.313	4.28
266.687	4.49
267.061	4.4
267.435	4.64
267.809	4.28
268.183	4.08
268.556	3.93
268.93	3.94
269.304	3.56
269.678	3.42
270.051	3.54
270.425	3.4
270.799	3.32
271.172	3.44
271.546	3.64
271.919	3.47
272.293	3.69
272.666	3.82
273.04	3.71
273.413	3.85
273.787	4.08
274.16	4.11
274.533	4.1
274.906	4.16
275.279	3.84
275.653	3.98
276.026	4.09
276.399	4.12
276.772	4.17
277.145	4.25
277.518	4.17
277.891	4.04
278.263	4.1
278.636	4.15
279.009	4.16
279.382	3.93
279.755	3.85
280.127	3.53
280.5	3.38
280.872	3.48
281.245	3.52
281.617	3.52
281.99	3.44
282.362	3.55
282.735	3.42
283.107	3.55
283.479	3.55
283.852	3.76
284.224	3.8
284.596	3.73
284.968	3.89
285.34	3.99
285.713	4.03
286.085	3.97
286.457	4.14
286.829	4.01
287.201	4
287.572	4.01
287.944	4.16
288.316	4.14
288.688	4.2
289.06	4.18
289.431	4.09
289.803	4.18
290.175	4.16
290.546	4.2
290.918	4.21
291.289	4.08
291.661	3.86
292.032	4.03
292.403	4.16
292.775	4.17
293.146	4.25
293.517	4.21
293.889	4.17
294.26	4.04
294.631	4.19
295.002	4.2
295.373	4.34
295.744	4.33
296.115	4.35
296.486	4.39
296.857	4.39
297.228	4.52
297.599	4.49
297.97	4.5
298.34	4.56
298.711	4.68
299.082	4.69
299.452	4.74
299.823	4.53
300.194	4.43
300.564	4.43
300.935	4.51
301.305	4.63
301.676	4.62
302.046	4.59
302.416	4.61
302.787	4.61
303.157	4.58
303.527	4.53
303.897	4.52
304.267	4.47
304.637	4.43
305.008	4.34
305.378	4.42
305.748	4.36
306.117	4.36
306.487	4.41
306.857	4.59
307.227	4.77
307.597	4.92
307.967	4.95
308.336	4.74
308.706	4.6
309.076	4.59
309.445	4.67
309.815	4.7
310.184	4.64
310.554	4.66
310.923	4.63
311.293	4.68
311.662	4.67
312.031	4.67
312.401	4.63
312.77	4.66
313.139	4.58
313.508	4.61
313.877	4.63
314.246	4.51
314.616	4.4
314.985	4.21
315.353	4.18
315.722	4.4
316.091	4.66
316.46	4.71
316.829	4.75
317.198	4.74
317.567	4.89
317.935	5.12
318.304	5.3
318.672	5.44
319.041	5.51
319.41	5.5
319.778	5.56
320.147	5.59
320.515	5.63
320.883	5.61
321.252	5.62
321.62	5.52
321.988	5.54
322.357	5.58
322.725	5.63
323.093	5.68
323.461	5.41
323.829	5.42
324.197	5.42
324.565	5.55
324.933	5.56
325.301	5.38
325.669	5.41
326.037	5.47
326.405	5.44
326.772	5.44
327.14	5.64
327.508	5.63
327.875	5.78
328.243	5.82
328.61	5.98
328.978	6.06
329.346	6.16
329.713	6.3
330.08	6.51
330.448	6.56
330.815	6.58
331.182	6.72
331.55	6.79
331.917	6.71
332.284	6.59
332.651	6.7
333.018	6.66
333.385	6.45
333.752	6.33
334.119	6.35
334.486	6.51
334.853	6.49
335.22	6.41
335.587	6.31
335.954	6.09
336.32	6.05
336.687	6.08
337.054	6.1
337.42	6.11
337.787	5.99
338.153	6.02
338.52	5.98
338.886	5.99
339.253	5.93
339.619	6.01
339.986	6
340.352	6.04
340.718	6.17
341.084	6.29
341.451	6.42
341.817	6.33
342.183	6.17
342.549	6.09
342.915	6.18
343.281	6.2
343.647	6.46
344.013	6.36
344.379	6.4
344.745	6.37
345.11	6.26
345.476	6.33
345.842	6.33
346.208	6.34
346.573	6.33
346.939	6.28
347.304	6.35
347.67	6.27
348.035	6.32
348.401	6.39
348.766	6.38
349.132	6.42
349.497	6.54
349.862	6.51
350.228	6.47
350.593	6.35
350.958	6.38
351.323	6.35
351.688	6.54
352.053	6.51
352.418	6.51
352.783	6.53
353.148	6.52
353.513	6.47
353.878	6.47
354.243	6.45
354.608	6.54
354.972	6.51
355.337	6.66
355.702	6.56
356.066	6.45
356.431	6.48
356.795	6.34
357.16	6.36
357.524	6.4
357.889	6.37
358.253	6.47
358.618	6.43
358.982	6.4
359.346	6.27
359.71	6.24
360.075	6.27
360.439	6.37
360.803	6.41
361.167	6.46
361.531	6.41
361.895	6.39
362.259	6.42
362.623	6.48
362.987	6.42
363.351	6.39
363.714	6.37
364.078	6.29
364.442	6.29
364.806	6.23
365.169	6.19
365.533	6.26
365.896	6.29
366.26	6.28
366.623	6.28
366.987	6.34
367.35	6.34
367.714	6.37
368.077	6.28
368.44	6.25
368.803	6.15
369.167	6.16
369.53	6.19
369.893	6.1
370.256	5.99
370.619	6.09
370.982	6.09
371.345	6.18
371.708	6.16
372.071	6.17
372.434	6.17
372.797	6.2
373.159	6.19
373.522	6.13
373.885	6.15
374.247	6.08
374.61	6.09
374.973	6.04
375.335	6
375.698	6.01
376.06	6
376.423	6.01
376.785	5.99
377.147	5.97
377.51	5.96
377.872	5.94
378.234	5.8
378.596	5.82
378.958	5.79
379.321	5.75
379.683	5.83
380.045	5.85
380.407	5.8
380.769	5.79
381.13	5.76
381.492	5.74
381.854	5.76
382.216	5.75
382.578	5.73
382.939	5.75
383.301	5.77
383.663	5.71
384.024	5.77
384.386	5.79
384.747	5.74
385.109	5.72
385.47	5.73
385.832	5.74
386.193	5.72
386.554	5.72
386.916	5.76
387.277	5.64
387.638	5.62
387.999	5.59
388.36	5.57
388.721	5.57
389.082	5.54
389.443	5.53
389.804	5.53
390.165	5.56
390.526	5.52
390.887	5.47
391.248	5.46
391.609	5.46
391.969	5.46
392.33	5.46
392.691	5.48
393.051	5.46
393.412	5.45
393.772	5.45
394.133	5.4
394.493	5.41
394.854	5.47
395.214	5.43
395.574	5.4
395.935	5.34
396.295	5.32
396.655	5.3
397.015	5.31
397.376	5.28
397.736	5.21
398.096	5.18
398.456	5.2
398.816	5.21
399.176	5.11
399.535	5.08
399.895	5.06
400.255	5.06
400.615	5.07
400.975	5.06
401.334	5.04
401.694	5.06
402.054	5.03
402.413	5.03
402.773	5.03
403.132	5.04
403.492	5.11
403.851	5.13
404.211	5.16
404.57	5.17
404.929	5.14
405.288	5.17
405.648	5.19
406.007	5.18
406.366	5.16
406.725	5.17
407.084	5.16
407.443	5.19
407.802	5.17
408.161	5.17
408.52	5.17
408.879	5.17
409.238	5.15
409.596	5.19
409.955	5.15
410.314	5.13
410.673	5.16
411.031	5.09
411.39	5.06
411.748	5.06
412.107	5.03
412.465	5.04
412.824	5.02
413.182	5.02
413.54	4.99
413.899	4.99
414.257	5.01
414.615	5
414.974	4.97
415.332	4.95
415.69	4.91
416.048	4.9
416.406	4.89
416.764	4.88
417.122	4.84
417.48	4.81
417.838	4.81
418.195	4.78
418.553	4.81
418.911	4.81
419.269	4.79
419.626	4.79
419.984	4.79
420.342	4.78
420.699	4.76
421.057	4.77
421.414	4.77
421.772	4.77
422.129	4.77
422.486	4.77
422.844	4.77
423.201	4.79
423.558	4.79
423.915	4.78
424.273	4.81
424.63	4.8
424.987	4.83
425.344	4.82
425.701	4.82
426.058	4.81
426.415	4.82
426.772	4.82
427.128	4.81
427.485	4.8
427.842	4.8
428.199	4.81
428.555	4.8
428.912	4.78
429.269	4.76
429.625	4.76
429.982	4.77
430.338	4.78
430.695	4.78
431.051	4.77
431.407	4.77
431.764	4.75
432.12	4.77
432.476	4.77
432.832	4.76
433.189	4.78
433.545	4.78
433.901	4.76
434.257	4.76
434.613	4.76
434.969	4.77
435.325	4.77
435.681	4.77
436.036	4.76
436.392	4.76
436.748	4.78
437.104	4.78
437.459	4.79
437.815	4.79
438.171	4.76
438.526	4.76
438.882	4.77
439.237	4.77
439.593	4.77
439.948	4.75
440.304	4.77
440.659	4.75
441.014	4.74
441.369	4.76
441.725	4.75
442.08	4.76
442.435	4.78
442.79	4.77
443.145	4.77
443.5	4.79
443.855	4.78
444.21	4.77
444.565	4.77
444.92	4.76
445.275	4.76
445.629	4.77
445.984	4.77
446.339	4.78
446.693	4.77
447.048	4.75
447.403	4.75
447.757	4.75
448.112	4.75
448.466	4.76
448.82	4.74
449.175	4.76
449.529	4.76
449.883	4.73
450.238	4.74
450.592	4.7
450.946	4.69
451.3	4.71
451.654	4.69
452.008	4.68
452.362	4.66
452.716	4.65
453.07	4.64
453.424	4.64
453.778	4.62
454.132	4.62
454.486	4.62
454.839	4.63
455.193	4.62
455.547	4.65
455.9	4.64
456.254	4.65
456.607	4.64
456.961	4.62
457.314	4.61
457.668	4.63
458.021	4.67
458.375	4.66
458.728	4.66
459.081	4.68
459.434	4.7
459.787	4.71
460.141	4.73
460.494	4.75
460.847	4.73
461.2	4.71
461.553	4.75
461.906	4.76
462.259	4.74
462.611	4.76
462.964	4.75
463.317	4.75
463.67	4.74
464.022	4.75
464.375	4.76
464.728	4.79
465.08	4.8
465.433	4.79
465.785	4.8
466.138	4.81
466.49	4.82
466.843	4.83
467.195	4.81
467.547	4.82
467.899	4.82
468.252	4.85
468.604	4.88
468.956	4.86
469.308	4.87
469.66	4.92
470.012	4.91
470.364	4.93
470.716	4.92
471.068	4.94
471.42	4.96
471.772	4.99
472.123	5.01
472.475	5.02
472.827	5.04
473.178	5.07
473.53	5.09
473.882	5.08
474.233	5.04
474.585	5.07
474.936	5.06
475.288	5.06
475.639	5.08
475.99	5.05
476.342	5.04
476.693	5.04
477.044	5.04
477.395	5.04
477.746	5.03
478.097	5.05
478.448	5.03
478.8	5.02
479.15	4.99
479.501	4.98
479.852	4.96
480.203	4.95
480.554	4.95
480.905	4.93
481.255	4.95
481.606	4.96
481.957	4.97
482.307	4.98
482.658	4.99
483.009	4.97
483.359	4.98
483.709	4.99
484.06	4.98
484.41	4.98
484.761	4.98
485.111	4.99
485.461	4.98
485.811	4.99
486.162	5
486.512	5.02
486.862	5.02
487.212	5.02
487.562	5.02
487.912	5.02
488.262	5.02
488.612	5.02
488.961	5.03
489.311	5.01
489.661	5.01
490.011	5
490.36	5.01
490.71	5.02
491.06	5.04
491.409	5.05
491.759	5.08
492.108	5.06
492.458	5.08
492.807	5.1
493.157	5.09
493.506	5.09
493.855	5.1
494.204	5.1
494.554	5.13
494.903	5.16
495.252	5.17
495.601	5.2
495.95	5.21
496.299	5.23
496.648	5.27
496.997	5.3
497.346	5.35
497.695	5.37
498.043	5.41
498.392	5.43
498.741	5.46
499.09	5.48
499.438	5.56
499.787	5.58
500.135	5.6
500.484	5.65
500.832	5.67
501.181	5.7
501.529	5.8
501.878	5.81
502.226	5.87
502.574	5.91
502.923	5.95
503.271	6.01
503.619	6.09
503.967	6.15
504.315	6.21
504.663	6.23
505.011	6.29
505.359	6.32
505.707	6.36
506.055	6.43
506.403	6.48
506.751	6.52
507.098	6.61
507.446	6.71
507.794	6.77
508.141	6.86
508.489	6.94
508.837	6.96
509.184	7.05
509.531	7.14
509.879	7.23
510.226	7.33
510.574	7.41
510.921	7.5
511.268	7.59
511.616	7.68
511.963	7.79
512.31	7.88
512.657	8.02
513.004	8.12
513.351	8.23
513.698	8.37
514.045	8.51
514.392	8.64
514.739	8.8
515.086	8.96
515.432	9.12
515.779	9.25
516.126	9.45
516.473	9.6
516.819	9.76
517.166	9.93
517.512	10.07
517.859	10.22
518.205	10.35
518.552	10.47
518.898	10.61
519.245	10.77
519.591	10.94
519.937	11.09
520.283	11.3
520.629	11.49
520.976	11.69
521.322	11.9
521.668	12.12
522.014	12.32
522.36	12.54
522.706	12.76
523.052	13.02
523.398	13.23
523.743	13.5
524.089	13.77
524.435	14.02
524.781	14.26
525.126	14.48
525.472	14.73
525.817	14.91
526.163	15.12
526.509	15.26
526.854	15.43
527.199	15.6
527.545	15.74
527.89	15.87
528.235	15.99
528.581	16.15
528.926	16.27
529.271	16.42
529.616	16.58
529.961	16.73
530.306	16.88
530.651	17.06
530.996	17.24
531.341	17.41
531.686	17.6
532.031	17.82
532.376	18.02
532.721	18.18
533.065	18.43
533.41	18.63
533.755	18.86
534.099	19.07
534.444	19.27
534.788	19.48
535.133	19.71
535.477	19.95
535.822	20.17
536.166	20.41
536.51	20.66
536.855	20.91
537.199	21.18
537.543	21.49
537.887	21.78
538.231	22.05
538.576	22.31
538.92	22.55
539.264	22.79
539.608	23.02
539.951	23.26
540.295	23.49
540.639	23.69
540.983	23.93
541.327	24.13
541.671	24.33
542.014	24.52
542.358	24.7
542.701	24.89
543.045	25.07
543.389	25.29
543.732	25.48
544.075	25.68
544.419	25.87
544.762	26.03
545.105	26.21
545.449	26.43
545.792	26.68
546.135	26.95
546.478	27.2
546.821	27.46
547.165	27.7
547.508	27.95
547.851	28.2
548.194	28.43
548.536	28.69
548.879	28.96
549.222	29.26
549.565	29.53
549.908	29.77
550.25	30.07
550.593	30.34
550.936	30.58
551.278	30.85
551.621	31.1
551.963	31.4
552.306	31.63
552.648	31.9
552.991	32.14
553.333	32.39
553.675	32.64
554.017	32.88
554.36	33.09
554.702	33.28
555.044	33.54
555.386	33.77
555.728	33.99
556.07	34.17
556.412	34.32
556.754	34.57
557.096	34.84
557.438	35.02
557.78	35.19
558.121	35.43
558.463	35.67
558.805	35.96
559.147	36.18
559.488	36.44
559.83	36.69
560.171	36.94
560.513	37.07
560.854	37.26
561.196	37.46
561.537	37.67
561.878	37.89
562.22	38.13
562.561	38.32
562.902	38.53
563.243	38.77
563.584	39
563.925	39.22
564.266	39.37
564.607	39.59
564.948	39.79
565.289	40.05
565.63	40.19
565.971	40.35
566.312	40.5
566.653	40.67
566.993	40.86
567.334	40.97
567.675	41.17
568.015	41.3
568.356	41.48
568.696	41.66
569.037	41.76
569.377	41.93
569.718	42.07
570.058	42.18
570.398	42.33
570.739	42.47
571.079	42.6
571.419	42.83
571.759	42.95
572.099	43.09
572.439	43.15
572.779	43.33
573.119	43.45
573.459	43.59
573.799	43.73
574.139	43.75
574.479	43.92
574.819	44.04
575.158	44.09
575.498	44.23
575.838	44.31
576.177	44.48
576.517	44.56
576.856	44.74
577.196	44.95
577.535	45.1
577.875	45.26
578.214	45.33
578.553	45.44
578.893	45.62
579.232	45.74
579.571	45.89
579.91	45.97
580.25	46.1
580.589	46.17
580.928	46.27
581.267	46.46
581.606	46.57
581.945	46.65
582.283	46.81
582.622	46.93
582.961	47.1
583.3	47.14
583.639	47.25
583.977	47.33
584.316	47.42
584.654	47.5
584.993	47.61
585.332	47.75
585.67	47.77
586.008	47.82
586.347	47.93
586.685	47.98
587.024	48.06
587.362	48.13
587.7	48.29
588.038	48.4
588.376	48.43
588.715	48.51
589.053	48.58
589.391	48.65
589.729	48.71
590.067	48.82
590.404	48.97
590.742	49.04
591.08	49.15
591.418	49.24
591.756	49.27
592.093	49.41
592.431	49.48
592.769	49.6
593.106	49.73
593.444	49.9
593.781	50.13
594.119	50.23
594.456	50.38
594.793	50.43
595.131	50.48
595.468	50.56
595.805	50.61
596.143	50.69
596.48	50.79
596.817	50.9
597.154	50.97
597.491	51.01
597.828	51.14
598.165	51.14
598.502	51.2
598.839	51.31
599.176	51.39
599.512	51.51
599.849	51.57
600.186	51.65
600.523	51.61
600.859	51.54
601.196	51.7
601.532	51.69
601.869	51.85
602.205	51.87
602.542	51.96
602.878	52.03
603.215	52.2
603.551	52.3
603.887	52.31
604.223	52.37
604.56	52.4
604.896	52.43
605.232	52.52
605.568	52.54
605.904	52.65
606.24	52.64
606.576	52.65
606.912	52.72
607.248	52.76
607.583	52.88
607.919	52.9
608.255	52.92
608.591	53.01
608.926	52.99
609.262	53.03
609.597	53.08
609.933	53.09
610.268	53.07
610.604	53.17
610.939	53.17
611.275	53.2
611.61	53.29
611.945	53.3
612.281	53.27
612.616	53.39
612.951	53.35
613.286	53.37
613.621	53.35
613.956	53.36
614.291	53.36
614.626	53.33
614.961	53.49
615.296	53.39
615.631	53.43
615.966	53.43
616.3	53.58
616.635	53.65
616.97	53.78
617.304	53.76
617.639	53.73
617.973	53.8
618.308	53.92
618.642	53.84
618.977	53.87
619.311	54.03
619.646	53.95
619.98	54.01
620.314	54.1
620.648	54.27
620.983	54.31
621.317	54.37
621.651	54.44
621.985	54.43
622.319	54.56
622.653	54.63
622.987	54.63
623.321	54.67
623.655	54.64
623.988	54.67
624.322	54.79
624.656	54.82
624.99	54.92
625.323	54.85
625.657	54.96
625.99	55
626.324	55.01
626.657	55.06
626.991	55.15
627.324	55.12
627.658	55.09
627.991	55.11
628.324	55.18
628.657	55.18
628.991	55.28
629.324	55.28
629.657	55.33
629.99	55.41
630.323	55.51
630.656	55.6
630.989	55.58
631.322	55.6
631.655	55.55
631.987	55.56
632.32	55.55
632.653	55.53
632.986	55.67
633.318	55.67
633.651	55.7
633.984	55.7
634.316	55.84
634.649	55.89
634.981	55.87
635.313	55.83
635.646	55.86
635.978	55.95
636.31	56.08
636.643	56.05
636.975	56.04
637.307	56.1
637.639	56.07
637.971	56.02
638.303	56.04
638.635	56.17
638.967	56.15
639.299	56.18
639.631	56.41
639.963	56.37
640.295	56.33
640.626	56.3
640.958	56.29
641.29	56.23
641.621	56.24
641.953	56.35
642.285	56.5
642.616	56.61
642.948	56.5
643.279	56.52
643.61	56.62
643.942	56.73
644.273	56.65
644.604	56.66
644.936	56.73
645.267	56.7
645.598	56.68
645.929	56.75
646.26	56.8
646.591	56.72
646.922	56.67
647.253	56.69
647.584	56.71
647.915	56.75
648.245	56.8
648.576	56.83
648.907	56.8
649.238	56.72
649.568	56.7
649.899	56.77
650.229	56.74
650.56	56.63
650.89	56.53
651.221	56.47
651.551	56.65
651.882	56.66
652.212	56.73
652.542	56.77
652.872	56.83
653.203	56.99
653.533	56.93
653.863	57.05
654.193	57.09
654.523	57.19
654.853	57.14
655.183	57.07
655.513	56.97
655.843	57
656.172	57.04
656.502	57.06
656.832	57.15
657.162	57.22
657.491	57.48
657.821	57.64
658.15	57.64
658.48	57.52
658.809	57.61
659.139	57.56
659.468	57.53
659.798	57.51
660.127	57.59
660.456	57.6
660.785	57.5
661.115	57.59
661.444	57.61
661.773	57.78
662.102	57.88
662.431	58.01
662.76	58.15
663.089	58.19
663.418	58.19
663.747	58.03
664.076	57.91
664.404	57.77
664.733	57.7
665.062	57.84
665.39	57.86
665.719	57.93
666.048	58.23
666.376	58.29
666.705	58.27
667.033	58.13
667.362	58.24
667.69	58.31
668.018	58.38
668.347	58.41
668.675	58.32
669.003	58.5
669.331	58.5
