Data from MVZ_BU65311_Reflection_00013.txt Node
Date: Tue Nov 19 12:20:24 EST 2019
User: vgr7
Spectrometer: USB2G7710
Scans to average: 3
Trigger mode: 4
Integration Time (sec): 2.000000E-2
Electric dark correction enabled: true
Boxcar width: 10
XAxis mode: Wavelengths
Number of Pixels in Spectrum: 2048
>>>>>Begin Spectral Data<<<<<
177.721	134.39
178.105	-94.44
178.488	-7.49
178.871	38.89
179.254	29.63
179.636	21.46
180.019	-48.15
180.402	58.33
180.785	-53.09
181.168	-597.53
181.55	192.59
181.933	1516.67
182.316	683.33
182.698	-240.28
183.081	-120.24
183.463	-174.85
183.846	-123.63
184.228	-277.98
184.611	-113.06
184.993	-101.67
185.376	-139.48
185.758	-81.05
186.14	-64.96
186.522	-55.04
186.904	-48.21
187.287	-59.77
187.669	-51.11
188.051	-32
188.433	-26.39
188.815	-21.74
189.197	-11.51
189.579	-12.4
189.961	-6.76
190.342	-3.44
190.724	-1.72
191.106	1.76
191.488	3.47
191.869	3.54
192.251	9.46
192.633	0.06
193.014	-2.39
193.396	-5.88
193.777	-5
194.159	-6.66
194.54	-5.68
194.922	-9.87
195.303	-4.83
195.684	-5.88
196.065	-10.28
196.447	-14.28
196.828	-15.27
197.209	-23.14
197.59	-28.09
197.971	-30.63
198.352	-29.67
198.733	-25.32
199.114	-42.46
199.495	-38.83
199.876	-48.53
200.257	-44.47
200.638	-43.28
201.018	-40.99
201.399	-30.07
201.78	-34.65
202.16	-28.64
202.541	-28.81
202.922	-22.25
203.302	-26.96
203.683	-38.1
204.063	-52.08
204.444	-47.75
204.824	-37.63
205.204	-16.95
205.585	-20.24
205.965	-21.94
206.345	-19.79
206.725	-17.08
207.106	-9.64
207.486	2.38
207.866	18.13
208.246	28.88
208.626	26.81
209.006	39.14
209.386	31.09
209.766	39.39
210.145	39.8
210.525	47.94
210.905	57.06
211.285	56.18
211.664	51.95
212.044	43.94
212.424	43.74
212.803	39.17
213.183	30.9
213.562	31.72
213.942	25.71
214.321	21.79
214.701	13.15
215.08	16.67
215.459	14.94
215.838	4.94
216.218	-7.25
216.597	-3.34
216.976	-10.18
217.355	-6.68
217.734	-17.44
218.113	-25.93
218.492	-31.85
218.871	-31.42
219.25	-28.36
219.629	-31.89
220.008	-22.66
220.387	-23.7
220.766	-21.49
221.144	-18.03
221.523	-16.08
221.902	-15.94
222.28	-14.45
222.659	-10.85
223.037	-10.84
223.416	-19.59
223.794	-7.98
224.173	-2.43
224.551	-5.13
224.929	-8.66
225.308	-14.1
225.686	-10.3
226.064	-6.89
226.442	-1.11
226.821	-4.72
227.199	-9.75
227.577	-7.9
227.955	-4.23
228.333	-8.79
228.711	-8
229.089	-5.43
229.467	-6.25
229.845	-7.11
230.222	-4.32
230.6	-6.08
230.978	-7.32
231.356	-4.57
231.733	-7.03
232.111	-6.83
232.488	-4.26
232.866	-0.22
233.243	1.16
233.621	1.53
233.998	1.83
234.376	-1.41
234.753	-0.68
235.13	1.33
235.508	-0.78
235.885	-1.65
236.262	0.19
236.639	-0.72
237.016	0.38
237.393	1.36
237.77	3.2
238.147	3.02
238.524	3.98
238.901	4.76
239.278	4.48
239.655	4.73
240.032	4.33
240.409	3.43
240.785	3.02
241.162	3.02
241.539	3.31
241.915	3.12
242.292	3.98
242.668	4.21
243.045	4.07
243.421	4.72
243.798	4.97
244.174	4.99
244.551	4.98
244.927	4.87
245.303	4.57
245.679	4.66
246.056	4.45
246.432	4.45
246.808	4.47
247.184	4.51
247.56	4.21
247.936	4.16
248.312	4.41
248.688	4.45
249.064	4.39
249.44	4.18
249.815	4.26
250.191	4.12
250.567	4.06
250.943	4.16
251.318	4.21
251.694	4.39
252.069	4.71
252.445	5.22
252.82	5.41
253.196	5.43
253.571	5.29
253.947	5.65
254.322	5.52
254.697	5.46
255.073	4.95
255.448	5.25
255.823	5.28
256.198	4.93
256.573	4.62
256.948	4.56
257.323	4.49
257.698	4.51
258.073	4.41
258.448	4.36
258.823	4.27
259.198	4.38
259.573	4.02
259.948	3.98
260.322	3.8
260.697	3.69
261.072	3.96
261.446	4.06
261.821	3.9
262.195	3.97
262.57	3.95
262.944	4
263.319	4.03
263.693	3.99
264.067	4.11
264.442	4.03
264.816	4.1
265.19	4.03
265.564	3.98
265.938	3.97
266.313	3.72
266.687	3.74
267.061	3.42
267.435	3.64
267.809	3.3
268.183	2.99
268.556	2.94
268.93	2.92
269.304	2.74
269.678	2.84
270.051	2.8
270.425	2.88
270.799	2.92
271.172	2.9
271.546	3.03
271.919	2.86
272.293	3.08
272.666	3.22
273.04	3.45
273.413	3.43
273.787	3.57
274.16	3.78
274.533	3.73
274.906	3.94
275.279	3.87
275.653	4.06
276.026	4.47
276.399	4.4
276.772	4.35
277.145	4.3
277.518	4.09
277.891	4.07
278.263	4.3
278.636	4.44
279.009	4.31
279.382	4.21
279.755	4.41
280.127	4.39
280.5	4.1
280.872	4.04
281.245	3.91
281.617	3.76
281.99	3.8
282.362	3.85
282.735	3.7
283.107	3.7
283.479	3.79
283.852	3.66
284.224	3.79
284.596	3.69
284.968	3.84
285.34	3.9
285.713	3.97
286.085	3.67
286.457	3.64
286.829	3.72
287.201	3.75
287.572	3.71
287.944	3.76
288.316	3.89
288.688	3.87
289.06	3.98
289.431	3.96
289.803	3.94
290.175	4
290.546	4.02
290.918	4.06
291.289	4.03
291.661	4.08
292.032	4.15
292.403	4.14
292.775	4.15
293.146	4.36
293.517	4.37
293.889	4.43
294.26	4.47
294.631	4.44
295.002	4.5
295.373	4.6
295.744	4.46
296.115	4.37
296.486	4.34
296.857	4.38
297.228	4.3
297.599	4.17
297.97	4.03
298.34	4.05
298.711	4.03
299.082	3.93
299.452	3.95
299.823	3.75
300.194	3.81
300.564	3.74
300.935	3.69
301.305	3.73
301.676	3.77
302.046	3.75
302.416	3.72
302.787	3.69
303.157	3.62
303.527	3.54
303.897	3.68
304.267	3.79
304.637	3.83
305.008	4.01
305.378	4.16
305.748	4.21
306.117	4.2
306.487	4.33
306.857	4.46
307.227	4.48
307.597	4.75
307.967	4.84
308.336	4.98
308.706	4.91
309.076	4.87
309.445	4.97
309.815	5.02
310.184	5.08
310.554	5.02
310.923	4.97
311.293	5.14
311.662	5.11
312.031	5.14
312.401	5.07
312.77	5.03
313.139	5.05
313.508	5.17
313.877	5.19
314.246	5.07
314.616	5.14
314.985	5.11
315.353	5.03
315.722	5.03
316.091	4.8
316.46	4.99
316.829	4.98
317.198	5.02
317.567	5.08
317.935	5.13
318.304	5.24
318.672	5.25
319.041	5.23
319.41	5.29
319.778	5.2
320.147	5.26
320.515	5.35
320.883	5.41
321.252	5.24
321.62	5.35
321.988	5.36
322.357	5.25
322.725	5.31
323.093	5.22
323.461	5.2
323.829	5.47
324.197	5.3
324.565	5.38
324.933	5.17
325.301	5.06
325.669	5.04
326.037	5.04
326.405	5.12
326.772	5.32
327.14	5.22
327.508	5.17
327.875	5.25
328.243	5.31
328.61	5.29
328.978	5.32
329.346	5.31
329.713	5.45
330.08	5.54
330.448	5.54
330.815	5.59
331.182	5.63
331.55	5.65
331.917	5.57
332.284	5.6
332.651	5.67
333.018	5.66
333.385	5.74
333.752	5.57
334.119	5.63
334.486	5.58
334.853	5.65
335.22	5.59
335.587	5.41
335.954	5.46
336.32	5.48
336.687	5.54
337.054	5.53
337.42	5.4
337.787	5.38
338.153	5.37
338.52	5.42
338.886	5.43
339.253	5.34
339.619	5.34
339.986	5.3
340.352	5.39
340.718	5.49
341.084	5.51
341.451	5.6
341.817	5.64
342.183	5.51
342.549	5.58
342.915	5.69
343.281	5.77
343.647	5.74
344.013	5.74
344.379	5.79
344.745	5.84
345.11	5.99
345.476	6
345.842	6.02
346.208	6.09
346.573	6.14
346.939	6.21
347.304	6.43
347.67	6.44
348.035	6.34
348.401	6.27
348.766	6.25
349.132	6.43
349.497	6.38
349.862	6.45
350.228	6.39
350.593	6.44
350.958	6.55
351.323	6.48
351.688	6.53
352.053	6.55
352.418	6.51
352.783	6.48
353.148	6.5
353.513	6.56
353.878	6.5
354.243	6.44
354.608	6.52
354.972	6.42
355.337	6.43
355.702	6.5
356.066	6.58
356.431	6.58
356.795	6.46
357.16	6.44
357.524	6.42
357.889	6.37
358.253	6.42
358.618	6.33
358.982	6.37
359.346	6.34
359.71	6.23
360.075	6.26
360.439	6.21
360.803	6.26
361.167	6.11
361.531	6.11
361.895	6.1
362.259	6
362.623	5.99
362.987	5.95
363.351	5.87
363.714	5.84
364.078	5.89
364.442	5.9
364.806	5.92
365.169	5.91
365.533	6
365.896	5.92
366.26	5.96
366.623	5.88
366.987	5.83
367.35	5.97
367.714	5.95
368.077	6.03
368.44	5.94
368.803	5.98
369.167	5.99
369.53	6.03
369.893	6.02
370.256	6
370.619	6.03
370.982	6.01
371.345	6.03
371.708	5.94
372.071	5.83
372.434	5.79
372.797	5.85
373.159	5.7
373.522	5.67
373.885	5.71
374.247	5.71
374.61	5.75
374.973	5.67
375.335	5.58
375.698	5.49
376.06	5.46
376.423	5.47
376.785	5.44
377.147	5.37
377.51	5.34
377.872	5.34
378.234	5.34
378.596	5.38
378.958	5.34
379.321	5.3
379.683	5.31
380.045	5.33
380.407	5.27
380.769	5.22
381.13	5.22
381.492	5.14
381.854	5.12
382.216	5.1
382.578	5.09
382.939	5.06
383.301	5.06
383.663	5.04
384.024	5.04
384.386	5.05
384.747	5.03
385.109	5.07
385.47	5.03
385.832	4.94
386.193	4.87
386.554	4.78
386.916	4.78
387.277	4.78
387.638	4.78
387.999	4.73
388.36	4.8
388.721	4.77
389.082	4.76
389.443	4.78
389.804	4.73
390.165	4.72
390.526	4.76
390.887	4.73
391.248	4.71
391.609	4.72
391.969	4.7
392.33	4.67
392.691	4.62
393.051	4.64
393.412	4.67
393.772	4.68
394.133	4.74
394.493	4.72
394.854	4.7
395.214	4.65
395.574	4.62
395.935	4.57
396.295	4.6
396.655	4.56
397.015	4.54
397.376	4.52
397.736	4.52
398.096	4.48
398.456	4.44
398.816	4.45
399.176	4.4
399.535	4.36
399.895	4.39
400.255	4.39
400.615	4.38
400.975	4.36
401.334	4.4
401.694	4.38
402.054	4.38
402.413	4.39
402.773	4.38
403.132	4.37
403.492	4.35
403.851	4.32
404.211	4.37
404.57	4.38
404.929	4.37
405.288	4.36
405.648	4.37
406.007	4.39
406.366	4.35
406.725	4.32
407.084	4.36
407.443	4.33
407.802	4.33
408.161	4.32
408.52	4.33
408.879	4.3
409.238	4.28
409.596	4.27
409.955	4.23
410.314	4.21
410.673	4.25
411.031	4.22
411.39	4.22
411.748	4.19
412.107	4.16
412.465	4.18
412.824	4.15
413.182	4.12
413.54	4.08
413.899	4.07
414.257	4.1
414.615	4.06
414.974	4.05
415.332	4.02
415.69	3.99
416.048	3.97
416.406	3.97
416.764	3.97
417.122	3.92
417.48	3.94
417.838	3.96
418.195	3.92
418.553	3.95
418.911	3.91
419.269	3.9
419.626	3.89
419.984	3.86
420.342	3.84
420.699	3.83
421.057	3.84
421.414	3.85
421.772	3.86
422.129	3.85
422.486	3.85
422.844	3.83
423.201	3.85
423.558	3.84
423.915	3.85
424.273	3.83
424.63	3.84
424.987	3.85
425.344	3.83
425.701	3.84
426.058	3.84
426.415	3.86
426.772	3.85
427.128	3.88
427.485	3.9
427.842	3.9
428.199	3.93
428.555	3.92
428.912	3.92
429.269	3.87
429.625	3.88
429.982	3.88
430.338	3.89
430.695	3.86
431.051	3.87
431.407	3.83
431.764	3.85
432.12	3.88
432.476	3.87
432.832	3.84
433.189	3.85
433.545	3.82
433.901	3.82
434.257	3.82
434.613	3.8
434.969	3.82
435.325	3.84
435.681	3.81
436.036	3.79
436.392	3.81
436.748	3.83
437.104	3.85
437.459	3.86
437.815	3.86
438.171	3.9
438.526	3.92
438.882	3.94
439.237	3.92
439.593	3.91
439.948	3.9
440.304	3.92
440.659	3.93
441.014	3.93
441.369	3.94
441.725	3.94
442.08	3.93
442.435	3.9
442.79	3.88
443.145	3.9
443.5	3.91
443.855	3.89
444.21	3.88
444.565	3.86
444.92	3.86
445.275	3.88
445.629	3.86
445.984	3.84
446.339	3.83
446.693	3.84
447.048	3.83
447.403	3.83
447.757	3.82
448.112	3.82
448.466	3.82
448.82	3.81
449.175	3.82
449.529	3.82
449.883	3.83
450.238	3.86
450.592	3.87
450.946	3.88
451.3	3.89
451.654	3.89
452.008	3.88
452.362	3.87
452.716	3.85
453.07	3.85
453.424	3.83
453.778	3.83
454.132	3.83
454.486	3.84
454.839	3.85
455.193	3.85
455.547	3.84
455.9	3.81
456.254	3.82
456.607	3.81
456.961	3.81
457.314	3.81
457.668	3.79
458.021	3.77
458.375	3.76
458.728	3.77
459.081	3.78
459.434	3.77
459.787	3.78
460.141	3.79
460.494	3.8
460.847	3.8
461.2	3.82
461.553	3.85
461.906	3.85
462.259	3.83
462.611	3.85
462.964	3.86
463.317	3.88
463.67	3.89
464.022	3.89
464.375	3.89
464.728	3.89
465.08	3.91
465.433	3.96
465.785	3.97
466.138	3.99
466.49	4
466.843	4.01
467.195	4
467.547	4
467.899	4.01
468.252	4.03
468.604	4.02
468.956	4.01
469.308	3.99
469.66	4.03
470.012	4.02
470.364	4.01
470.716	4.03
471.068	4.03
471.42	4.04
471.772	4.06
472.123	4.11
472.475	4.1
472.827	4.09
473.178	4.08
473.53	4.07
473.882	4.07
474.233	4.07
474.585	4.08
474.936	4.1
475.288	4.09
475.639	4.09
475.99	4.08
476.342	4.06
476.693	4.08
477.044	4.06
477.395	4.07
477.746	4.09
478.097	4.08
478.448	4.07
478.8	4.05
479.15	4.02
479.501	3.97
479.852	3.96
480.203	3.94
480.554	3.95
480.905	3.96
481.255	3.97
481.606	3.98
481.957	3.99
482.307	3.99
482.658	3.99
483.009	4
483.359	4
483.709	4.01
484.06	4.01
484.41	4
484.761	4.01
485.111	4.01
485.461	4.01
485.811	4.02
486.162	4.02
486.512	4.03
486.862	4.05
487.212	4.06
487.562	4.07
487.912	4.09
488.262	4.08
488.612	4.09
488.961	4.09
489.311	4.08
489.661	4.09
490.011	4.1
490.36	4.09
490.71	4.1
491.06	4.1
491.409	4.1
491.759	4.13
492.108	4.12
492.458	4.12
492.807	4.13
493.157	4.14
493.506	4.15
493.855	4.16
494.204	4.17
494.554	4.17
494.903	4.17
495.252	4.17
495.601	4.2
495.95	4.2
496.299	4.22
496.648	4.24
496.997	4.28
497.346	4.3
497.695	4.32
498.043	4.35
498.392	4.38
498.741	4.4
499.09	4.43
499.438	4.48
499.787	4.49
500.135	4.51
500.484	4.56
500.832	4.6
501.181	4.64
501.529	4.7
501.878	4.74
502.226	4.8
502.574	4.83
502.923	4.88
503.271	4.89
503.619	4.97
503.967	5.01
504.315	5.03
504.663	5.04
505.011	5.1
505.359	5.12
505.707	5.17
506.055	5.24
506.403	5.29
506.751	5.33
507.098	5.4
507.446	5.5
507.794	5.57
508.141	5.66
508.489	5.72
508.837	5.75
509.184	5.81
509.531	5.87
509.879	5.96
510.226	5.99
510.574	6.12
510.921	6.2
511.268	6.29
511.616	6.39
511.963	6.5
512.31	6.61
512.657	6.75
513.004	6.84
513.351	6.97
513.698	7.1
514.045	7.22
514.392	7.38
514.739	7.49
515.086	7.6
515.432	7.73
515.779	7.88
516.126	8.05
516.473	8.21
516.819	8.36
517.166	8.51
517.512	8.66
517.859	8.82
518.205	8.93
518.552	9.07
518.898	9.2
519.245	9.36
519.591	9.5
519.937	9.64
520.283	9.81
520.629	9.97
520.976	10.16
521.322	10.35
521.668	10.54
522.014	10.77
522.36	10.99
522.706	11.23
523.052	11.49
523.398	11.75
523.743	12.05
524.089	12.31
524.435	12.58
524.781	12.84
525.126	13.03
525.472	13.25
525.817	13.45
526.163	13.64
526.509	13.81
526.854	13.99
527.199	14.16
527.545	14.3
527.89	14.46
528.235	14.61
528.581	14.78
528.926	14.94
529.271	15.08
529.616	15.24
529.961	15.39
530.306	15.53
530.651	15.68
530.996	15.87
531.341	16.05
531.686	16.22
532.031	16.41
532.376	16.62
532.721	16.82
533.065	17.02
533.41	17.23
533.755	17.45
534.099	17.67
534.444	17.89
534.788	18.1
535.133	18.3
535.477	18.53
535.822	18.74
536.166	18.96
536.51	19.22
536.855	19.47
537.199	19.7
537.543	19.99
537.887	20.26
538.231	20.5
538.576	20.78
538.92	21.02
539.264	21.24
539.608	21.47
539.951	21.69
540.295	21.89
540.639	22.09
540.983	22.31
541.327	22.5
541.671	22.69
542.014	22.91
542.358	23.12
542.701	23.3
543.045	23.46
543.389	23.63
543.732	23.78
544.075	23.98
544.419	24.22
544.762	24.42
545.105	24.65
545.449	24.87
545.792	25.1
546.135	25.35
546.478	25.59
546.821	25.83
547.165	26.11
547.508	26.39
547.851	26.63
548.194	26.83
548.536	27.1
548.879	27.36
549.222	27.58
549.565	27.8
549.908	28.01
550.25	28.27
550.593	28.57
550.936	28.87
551.278	29.11
551.621	29.29
551.963	29.53
552.306	29.73
552.648	29.95
552.991	30.17
553.333	30.4
553.675	30.63
554.017	30.84
554.36	31.06
554.702	31.27
555.044	31.46
555.386	31.68
555.728	31.83
556.07	31.95
556.412	32.13
556.754	32.35
557.096	32.6
557.438	32.81
557.78	32.97
558.121	33.21
558.463	33.39
558.805	33.66
559.147	33.82
559.488	34.02
559.83	34.26
560.171	34.52
560.513	34.7
560.854	34.89
561.196	35.09
561.537	35.24
561.878	35.43
562.22	35.61
562.561	35.8
562.902	36.02
563.243	36.26
563.584	36.38
563.925	36.57
564.266	36.72
564.607	36.91
564.948	37.06
565.289	37.23
565.63	37.38
565.971	37.51
566.312	37.67
566.653	37.79
566.993	37.89
567.334	38
567.675	38.15
568.015	38.33
568.356	38.54
568.696	38.64
569.037	38.73
569.377	38.95
569.718	39.09
570.058	39.2
570.398	39.32
570.739	39.49
571.079	39.65
571.419	39.83
571.759	39.95
572.099	40.09
572.439	40.18
572.779	40.32
573.119	40.4
573.459	40.54
573.799	40.68
574.139	40.81
574.479	40.88
574.819	40.95
575.158	41.03
575.498	41.08
575.838	41.19
576.177	41.34
576.517	41.43
576.856	41.57
577.196	41.69
577.535	41.88
577.875	42.01
578.214	42.07
578.553	42.16
578.893	42.29
579.232	42.44
579.571	42.68
579.91	42.81
580.25	42.97
580.589	43.07
580.928	43.19
581.267	43.29
581.606	43.44
581.945	43.65
582.283	43.81
582.622	43.91
582.961	44.01
583.3	44.13
583.639	44.26
583.977	44.28
584.316	44.37
584.654	44.46
584.993	44.54
585.332	44.69
585.67	44.72
586.008	44.79
586.347	44.88
586.685	44.82
587.024	44.92
587.362	44.99
587.7	45.12
588.038	45.22
588.376	45.29
588.715	45.4
589.053	45.41
589.391	45.45
589.729	45.49
590.067	45.7
590.404	45.81
590.742	45.8
591.08	46
591.418	46.12
591.756	46.15
592.093	46.35
592.431	46.34
592.769	46.51
593.106	46.65
593.444	46.75
593.781	46.91
594.119	46.92
594.456	47.03
594.793	47.2
595.131	47.33
595.468	47.38
595.805	47.43
596.143	47.52
596.48	47.64
596.817	47.73
597.154	47.78
597.491	47.77
597.828	47.92
598.165	47.94
598.502	47.94
598.839	48
599.176	48.04
599.512	48.17
599.849	48.16
600.186	48.2
600.523	48.27
600.859	48.24
601.196	48.38
601.532	48.37
601.869	48.34
602.205	48.34
602.542	48.48
602.878	48.54
603.215	48.6
603.551	48.66
603.887	48.73
604.223	48.74
604.56	48.8
604.896	48.88
605.232	48.9
605.568	48.93
605.904	48.97
606.24	49.03
606.576	49.07
606.912	49.17
607.248	49.25
607.583	49.32
607.919	49.42
608.255	49.51
608.591	49.65
608.926	49.77
609.262	49.86
609.597	49.87
609.933	49.82
610.268	49.84
610.604	49.89
610.939	49.97
611.275	50.04
611.61	50.17
611.945	50.19
612.281	50.22
612.616	50.41
612.951	50.48
613.286	50.59
613.621	50.63
613.956	50.62
614.291	50.64
614.626	50.65
614.961	50.68
615.296	50.65
615.631	50.8
615.966	50.69
616.3	50.82
616.635	50.82
616.97	50.9
617.304	51.03
617.639	51.11
617.973	51.16
618.308	51.14
618.642	51.13
618.977	51.15
619.311	51.31
619.646	51.27
619.98	51.36
620.314	51.32
620.648	51.43
620.983	51.52
621.317	51.6
621.651	51.73
621.985	51.75
622.319	51.83
622.653	51.82
622.987	51.9
623.321	51.82
623.655	51.94
623.988	52.03
624.322	52.05
624.656	52
624.99	52.04
625.323	52.12
625.657	52.18
625.99	52.2
626.324	52.24
626.657	52.26
626.991	52.38
627.324	52.41
627.658	52.42
627.991	52.51
628.324	52.66
628.657	52.62
628.991	52.83
629.324	52.87
629.657	52.82
629.99	52.84
630.323	53
630.656	52.96
630.989	52.96
631.322	52.95
631.655	52.95
631.987	52.94
632.32	52.97
632.653	53.02
632.986	53.08
633.318	53.02
633.651	53.17
633.984	53.13
634.316	53.21
634.649	53.22
634.981	53.18
635.313	53.09
635.646	53.13
635.978	53.03
636.31	52.99
636.643	53.08
636.975	53.18
637.307	53.11
637.639	53.27
637.971	53.33
638.303	53.56
638.635	53.75
638.967	53.8
639.299	53.85
639.631	53.85
639.963	54.02
640.295	54.01
640.626	53.94
640.958	54.01
641.29	53.98
641.621	53.99
641.953	53.98
642.285	54.07
642.616	54.21
642.948	54.26
643.279	54.3
643.61	54.27
643.942	54.3
644.273	54.36
644.604	54.3
644.936	54.22
645.267	54.07
645.598	54
645.929	54.09
646.26	54.08
646.591	54.16
646.922	54.14
647.253	54.32
647.584	54.39
647.915	54.4
648.245	54.37
648.576	54.37
648.907	54.54
649.238	54.6
649.568	54.47
649.899	54.46
650.229	54.59
650.56	54.62
650.89	54.58
651.221	54.56
651.551	54.76
651.882	54.91
652.212	54.91
652.542	54.97
652.872	55.04
653.203	54.99
653.533	55
653.863	54.98
654.193	55.02
654.523	54.99
654.853	54.89
655.183	55.01
655.513	55.1
655.843	55.06
656.172	55.04
656.502	55.16
656.832	55.25
657.162	55.36
657.491	55.47
657.821	55.48
658.15	55.51
658.48	55.42
658.809	55.52
659.139	55.66
659.468	55.7
659.798	55.66
660.127	55.92
660.456	55.89
660.785	55.82
661.115	55.73
661.444	55.85
661.773	56.02
662.102	55.99
662.431	56.01
662.76	56.04
663.089	56.14
663.418	56.11
663.747	56
664.076	55.9
664.404	55.85
664.733	55.91
665.062	56.11
665.39	56.14
665.719	56.09
666.048	56.02
666.376	55.92
666.705	55.89
667.033	55.85
667.362	55.97
667.69	56.16
668.018	56.28
668.347	56.26
668.675	56.32
