Data from MVZ_BU5182_Reflection_00005.txt Node
Date: Tue Nov 19 12:19:12 EST 2019
User: vgr7
Spectrometer: USB2G7710
Scans to average: 3
Trigger mode: 4
Integration Time (sec): 2.000000E-2
Electric dark correction enabled: true
Boxcar width: 10
XAxis mode: Wavelengths
Number of Pixels in Spectrum: 2048
>>>>>Begin Spectral Data<<<<<
177.721	37.47
178.105	85.88
178.488	50.96
178.871	84.52
179.254	15.56
179.636	97.65
180.019	155.29
180.402	100
180.785	159.77
181.168	480.95
181.55	106.54
181.933	30.82
182.316	-11.11
182.698	11.37
183.081	-0.65
183.463	3.65
183.846	17.14
184.228	-3.22
184.611	-9.07
184.993	-8.27
185.376	-10.37
185.758	-22.06
186.14	-29.97
186.522	-43.13
186.904	-51.82
187.287	-79.63
187.669	-59.89
188.051	-68.96
188.433	-113.39
188.815	-176.58
189.197	-145.27
189.579	-103.33
189.961	-98.8
190.342	-102.65
190.724	-139.14
191.106	-200.52
191.488	-178.88
191.869	-178.57
192.251	-171.77
192.633	-139.63
193.014	-121.71
193.396	-107.85
193.777	-90.65
194.159	-104.81
194.54	-98.86
194.922	-85.62
195.303	-79.6
195.684	-75.96
196.065	-62.63
196.447	-53.87
196.828	-44.83
197.209	-41.64
197.59	-41.2
197.971	-36.11
198.352	-35.77
198.733	-28.96
199.114	-28.23
199.495	-38.86
199.876	-35.76
200.257	-30.42
200.638	-13.31
201.018	-17.7
201.399	-17.77
201.78	-8.96
202.16	15.41
202.541	-0.06
202.922	-1.9
203.302	-11.11
203.683	-17.4
204.063	-37.32
204.444	-32.84
204.824	-25.75
205.204	-31.11
205.585	-21.58
205.965	-45.44
206.345	-52.06
206.725	-49.71
207.106	-35.35
207.486	-45.72
207.866	-47.85
208.246	-43.2
208.626	-63.52
209.006	-66.15
209.386	-69.58
209.766	-74.41
210.145	-73.16
210.525	-70.37
210.905	-70.91
211.285	-58.42
211.664	-57.4
212.044	-51.33
212.424	-59.64
212.803	-77.73
213.183	-94.34
213.562	-124.28
213.942	-108.98
214.321	-107.66
214.701	-117.68
215.08	-123.73
215.459	-95.11
215.838	-100.2
216.218	-101.62
216.597	-69.7
216.976	-82.4
217.355	-85.63
217.734	-78.37
218.113	-77.18
218.492	-73.59
218.871	-54.82
219.25	-62.5
219.629	-74.56
220.008	-70.31
220.387	-73.52
220.766	-63.36
221.144	-57.87
221.523	-51.32
221.902	-44.86
222.28	-40.72
222.659	-34.32
223.037	-33.93
223.416	-41.24
223.794	-40.63
224.173	-42.39
224.551	-44.91
224.929	-44.34
225.308	-41.62
225.686	-41.48
226.064	-37.99
226.442	-30.26
226.821	-33.05
227.199	-30.09
227.577	-24.15
227.955	-24.72
228.333	-23.96
228.711	-19.45
229.089	-16.87
229.467	-20.86
229.845	-20.86
230.222	-21.81
230.6	-21.83
230.978	-19.84
231.356	-18.85
231.733	-16.57
232.111	-15.74
232.488	-15.71
232.866	-10.82
233.243	-9.05
233.621	-8.34
233.998	-8.47
234.376	-9.18
234.753	-11.23
235.13	-12.17
235.508	-13.51
235.885	-13.74
236.262	-11.98
236.639	-13.48
237.016	-11.86
237.393	-7.12
237.77	-5.83
238.147	-4.11
238.524	-4.05
238.901	-5.27
239.278	-4.29
239.655	-3.65
240.032	-3.03
240.409	-2.26
240.785	-2.49
241.162	-2.29
241.539	-1.93
241.915	-2.04
242.292	-1.19
242.668	-0.21
243.045	1.15
243.421	2.41
243.798	2.76
244.174	3
244.551	3.14
244.927	3.14
245.303	3.05
245.679	3.14
246.056	3.09
246.432	3.66
246.808	4.12
247.184	4.4
247.56	4.45
247.936	4.56
248.312	4.49
248.688	4.8
249.064	4.8
249.44	4.61
249.815	4.76
250.191	4.48
250.567	4.46
250.943	4.13
251.318	3.72
251.694	3.65
252.069	3.68
252.445	3.86
252.82	3.8
253.196	3.83
253.571	3.89
253.947	4.14
254.322	3.65
254.697	3.68
255.073	3.35
255.448	3.27
255.823	3.28
256.198	3.3
256.573	3.12
256.948	3.24
257.323	3.39
257.698	3.53
258.073	3.6
258.448	3.42
258.823	3.2
259.198	3.12
259.573	3.13
259.948	3.16
260.322	3.17
260.697	3.15
261.072	3.08
261.446	2.97
261.821	2.78
262.195	2.82
262.57	2.79
262.944	2.78
263.319	2.81
263.693	2.58
264.067	2.62
264.442	2.64
264.816	2.62
265.19	2.49
265.564	2.51
265.938	2.59
266.313	2.64
266.687	2.98
267.061	3.06
267.435	3.28
267.809	3.03
268.183	2.91
268.556	2.89
268.93	3.2
269.304	3.26
269.678	3.39
270.051	3.36
270.425	3.26
270.799	3.2
271.172	3.22
271.546	3.44
271.919	3.52
272.293	3.47
272.666	3.47
273.04	3.56
273.413	3.5
273.787	3.57
274.16	3.55
274.533	3.57
274.906	3.56
275.279	3.29
275.653	3.35
276.026	3.61
276.399	3.56
276.772	3.25
277.145	3.27
277.518	3.05
277.891	3.03
278.263	3.2
278.636	3.26
279.009	3.39
279.382	3.37
279.755	3.2
280.127	3.25
280.5	3.22
280.872	3.38
281.245	3.25
281.617	3.08
281.99	3.23
282.362	3.04
282.735	2.99
283.107	3.2
283.479	3.38
283.852	3.31
284.224	3.41
284.596	3.49
284.968	3.42
285.34	3.4
285.713	3.39
286.085	3.2
286.457	3.22
286.829	3.08
287.201	3.14
287.572	3.38
287.944	3.35
288.316	3.48
288.688	3.49
289.06	3.64
289.431	3.69
289.803	3.69
290.175	3.71
290.546	3.76
290.918	3.8
291.289	3.69
291.661	3.67
292.032	3.68
292.403	3.63
292.775	3.7
293.146	3.86
293.517	3.88
293.889	3.95
294.26	3.97
294.631	3.97
295.002	4
295.373	3.69
295.744	3.71
296.115	3.59
296.486	3.56
296.857	3.55
297.228	3.35
297.599	3.29
297.97	3.41
298.34	3.55
298.711	3.51
299.082	3.52
299.452	3.51
299.823	3.51
300.194	3.52
300.564	3.45
300.935	3.57
301.305	3.61
301.676	3.53
302.046	3.4
302.416	3.45
302.787	3.37
303.157	3.55
303.527	3.55
303.897	3.55
304.267	3.55
304.637	3.48
305.008	3.73
305.378	3.62
305.748	3.6
306.117	3.54
306.487	3.5
306.857	3.44
307.227	3.38
307.597	3.42
307.967	3.46
308.336	3.59
308.706	3.48
309.076	3.6
309.445	3.82
309.815	4.03
310.184	4.04
310.554	4.02
310.923	3.97
311.293	3.97
311.662	3.97
312.031	3.76
312.401	3.75
312.77	3.67
313.139	3.82
313.508	3.74
313.877	3.63
314.246	3.6
314.616	3.71
314.985	3.73
315.353	3.73
315.722	3.96
316.091	3.82
316.46	3.88
316.829	3.76
317.198	3.66
317.567	3.51
317.935	3.48
318.304	3.48
318.672	3.48
319.041	3.41
319.41	3.44
319.778	3.56
320.147	3.66
320.515	3.71
320.883	3.63
321.252	3.62
321.62	3.66
321.988	3.73
322.357	3.73
322.725	3.8
323.093	3.71
323.461	3.63
323.829	3.77
324.197	3.6
324.565	3.56
324.933	3.47
325.301	3.4
325.669	3.44
326.037	3.55
326.405	3.55
326.772	3.64
327.14	3.7
327.508	3.74
327.875	3.6
328.243	3.56
328.61	3.56
328.978	3.46
329.346	3.46
329.713	3.54
330.08	3.53
330.448	3.41
330.815	3.49
331.182	3.48
331.55	3.39
331.917	3.51
332.284	3.6
332.651	3.59
333.018	3.67
333.385	3.56
333.752	3.51
334.119	3.53
334.486	3.54
334.853	3.37
335.22	3.28
335.587	3.36
335.954	3.37
336.32	3.42
336.687	3.53
337.054	3.59
337.42	3.47
337.787	3.5
338.153	3.67
338.52	3.6
338.886	3.45
339.253	3.38
339.619	3.38
339.986	3.28
340.352	3.34
340.718	3.42
341.084	3.54
341.451	3.6
341.817	3.63
342.183	3.64
342.549	3.81
342.915	3.88
343.281	3.88
343.647	3.96
344.013	3.87
344.379	3.86
344.745	3.88
345.11	3.87
345.476	3.85
345.842	3.85
346.208	3.84
346.573	3.9
346.939	4.08
347.304	4.14
347.67	4.05
348.035	4.08
348.401	4.02
348.766	4.03
349.132	3.93
349.497	3.87
349.862	3.82
350.228	3.82
350.593	3.81
350.958	3.88
351.323	3.76
351.688	3.83
352.053	3.95
352.418	4.01
352.783	4.01
353.148	4
353.513	3.95
353.878	4.09
354.243	4
354.608	4.06
354.972	4.05
355.337	4.2
355.702	4.13
356.066	4.15
356.431	4.15
356.795	4.17
357.16	4.23
357.524	4.27
357.889	4.24
358.253	4.25
358.618	4.25
358.982	4.32
359.346	4.32
359.71	4.24
360.075	4.32
360.439	4.42
360.803	4.42
361.167	4.39
361.531	4.35
361.895	4.38
362.259	4.32
362.623	4.28
362.987	4.28
363.351	4.33
363.714	4.37
364.078	4.37
364.442	4.37
364.806	4.41
365.169	4.4
365.533	4.4
365.896	4.48
366.26	4.42
366.623	4.39
366.987	4.43
367.35	4.48
367.714	4.31
368.077	4.25
368.44	4.23
368.803	4.23
369.167	4.18
369.53	4.18
369.893	4.18
370.256	4.15
370.619	4.15
370.982	4.18
371.345	4.16
371.708	4.15
372.071	4.2
372.434	4.08
372.797	4.14
373.159	4.09
373.522	4.04
373.885	4.09
374.247	4.13
374.61	4.14
374.973	4.1
375.335	4.13
375.698	4.09
376.06	4.1
376.423	4.14
376.785	4.16
377.147	4.13
377.51	4.13
377.872	4.17
378.234	4.12
378.596	4.09
378.958	4.07
379.321	4.04
379.683	4.01
380.045	4
380.407	3.99
380.769	4.02
381.13	3.98
381.492	3.97
381.854	3.97
382.216	3.97
382.578	4.05
382.939	4.02
383.301	4.04
383.663	4.08
384.024	4.02
384.386	4
384.747	4.04
385.109	4
385.47	4.03
385.832	4.02
386.193	4.04
386.554	3.96
386.916	4.02
387.277	4.01
387.638	4.06
387.999	4.03
388.36	4
388.721	4.04
389.082	4.04
389.443	4.05
389.804	4.03
390.165	4.01
390.526	4.03
390.887	4.02
391.248	4
391.609	4.05
391.969	4.08
392.33	4.09
392.691	4.1
393.051	4.08
393.412	4.09
393.772	4.1
394.133	4.12
394.493	4.06
394.854	4.11
395.214	4.11
395.574	4.1
395.935	4.15
396.295	4.16
396.655	4.14
397.015	4.14
397.376	4.13
397.736	4.12
398.096	4.11
398.456	4.14
398.816	4.15
399.176	4.13
399.535	4.13
399.895	4.14
400.255	4.16
400.615	4.16
400.975	4.2
401.334	4.19
401.694	4.21
402.054	4.22
402.413	4.21
402.773	4.21
403.132	4.2
403.492	4.21
403.851	4.19
404.211	4.19
404.57	4.21
404.929	4.2
405.288	4.2
405.648	4.23
406.007	4.23
406.366	4.22
406.725	4.24
407.084	4.26
407.443	4.26
407.802	4.26
408.161	4.26
408.52	4.24
408.879	4.26
409.238	4.3
409.596	4.31
409.955	4.29
410.314	4.31
410.673	4.34
411.031	4.3
411.39	4.3
411.748	4.35
412.107	4.36
412.465	4.36
412.824	4.34
413.182	4.34
413.54	4.34
413.899	4.34
414.257	4.37
414.615	4.36
414.974	4.35
415.332	4.34
415.69	4.34
416.048	4.34
416.406	4.33
416.764	4.33
417.122	4.33
417.48	4.35
417.838	4.34
418.195	4.33
418.553	4.36
418.911	4.35
419.269	4.33
419.626	4.34
419.984	4.33
420.342	4.35
420.699	4.35
421.057	4.33
421.414	4.33
421.772	4.32
422.129	4.31
422.486	4.3
422.844	4.3
423.201	4.3
423.558	4.3
423.915	4.3
424.273	4.29
424.63	4.29
424.987	4.28
425.344	4.25
425.701	4.26
426.058	4.25
426.415	4.24
426.772	4.23
427.128	4.22
427.485	4.21
427.842	4.22
428.199	4.21
428.555	4.21
428.912	4.19
429.269	4.16
429.625	4.17
429.982	4.18
430.338	4.19
430.695	4.16
431.051	4.15
431.407	4.14
431.764	4.12
432.12	4.14
432.476	4.14
432.832	4.18
433.189	4.15
433.545	4.15
433.901	4.16
434.257	4.17
434.613	4.15
434.969	4.15
435.325	4.15
435.681	4.16
436.036	4.18
436.392	4.19
436.748	4.21
437.104	4.22
437.459	4.21
437.815	4.21
438.171	4.25
438.526	4.26
438.882	4.27
439.237	4.3
439.593	4.3
439.948	4.28
440.304	4.29
440.659	4.29
441.014	4.3
441.369	4.31
441.725	4.31
442.08	4.32
442.435	4.33
442.79	4.32
443.145	4.33
443.5	4.32
443.855	4.32
444.21	4.32
444.565	4.31
444.92	4.31
445.275	4.32
445.629	4.3
445.984	4.3
446.339	4.3
446.693	4.3
447.048	4.29
447.403	4.31
447.757	4.3
448.112	4.32
448.466	4.3
448.82	4.28
449.175	4.3
449.529	4.29
449.883	4.29
450.238	4.28
450.592	4.27
450.946	4.27
451.3	4.28
451.654	4.27
452.008	4.27
452.362	4.27
452.716	4.27
453.07	4.26
453.424	4.27
453.778	4.27
454.132	4.27
454.486	4.28
454.839	4.28
455.193	4.3
455.547	4.27
455.9	4.31
456.254	4.32
456.607	4.31
456.961	4.31
457.314	4.34
457.668	4.36
458.021	4.36
458.375	4.36
458.728	4.38
459.081	4.38
459.434	4.38
459.787	4.4
460.141	4.39
460.494	4.4
460.847	4.39
461.2	4.4
461.553	4.4
461.906	4.4
462.259	4.39
462.611	4.38
462.964	4.4
463.317	4.4
463.67	4.39
464.022	4.41
464.375	4.42
464.728	4.39
465.08	4.4
465.433	4.41
465.785	4.42
466.138	4.38
466.49	4.38
466.843	4.4
467.195	4.41
467.547	4.39
467.899	4.39
468.252	4.41
468.604	4.43
468.956	4.43
469.308	4.42
469.66	4.45
470.012	4.45
470.364	4.44
470.716	4.45
471.068	4.46
471.42	4.45
471.772	4.45
472.123	4.46
472.475	4.43
472.827	4.43
473.178	4.44
473.53	4.46
473.882	4.49
474.233	4.48
474.585	4.45
474.936	4.5
475.288	4.49
475.639	4.51
475.99	4.49
476.342	4.5
476.693	4.51
477.044	4.51
477.395	4.52
477.746	4.52
478.097	4.53
478.448	4.52
478.8	4.52
479.15	4.52
479.501	4.51
479.852	4.52
480.203	4.53
480.554	4.54
480.905	4.55
481.255	4.55
481.606	4.57
481.957	4.59
482.307	4.59
482.658	4.6
483.009	4.59
483.359	4.6
483.709	4.61
484.06	4.62
484.41	4.61
484.761	4.62
485.111	4.63
485.461	4.63
485.811	4.65
486.162	4.66
486.512	4.66
486.862	4.68
487.212	4.68
487.562	4.68
487.912	4.69
488.262	4.69
488.612	4.7
488.961	4.69
489.311	4.69
489.661	4.68
490.011	4.68
490.36	4.68
490.71	4.68
491.06	4.66
491.409	4.66
491.759	4.65
492.108	4.66
492.458	4.65
492.807	4.64
493.157	4.64
493.506	4.64
493.855	4.64
494.204	4.64
494.554	4.65
494.903	4.63
495.252	4.61
495.601	4.61
495.95	4.61
496.299	4.61
496.648	4.61
496.997	4.6
497.346	4.61
497.695	4.61
498.043	4.63
498.392	4.66
498.741	4.67
499.09	4.7
499.438	4.7
499.787	4.7
500.135	4.72
500.484	4.72
500.832	4.72
501.181	4.72
501.529	4.76
501.878	4.76
502.226	4.82
502.574	4.82
502.923	4.84
503.271	4.85
503.619	4.86
503.967	4.87
504.315	4.89
504.663	4.9
505.011	4.91
505.359	4.9
505.707	4.9
506.055	4.92
506.403	4.9
506.751	4.91
507.098	4.92
507.446	4.91
507.794	4.92
508.141	4.92
508.489	4.93
508.837	4.92
509.184	4.93
509.531	4.89
509.879	4.9
510.226	4.9
510.574	4.91
510.921	4.92
511.268	4.93
511.616	4.97
511.963	4.97
512.31	5
512.657	5.01
513.004	5.01
513.351	5.02
513.698	5.04
514.045	5.04
514.392	5.07
514.739	5.09
515.086	5.09
515.432	5.1
515.779	5.1
516.126	5.1
516.473	5.12
516.819	5.15
517.166	5.18
517.512	5.19
517.859	5.21
518.205	5.22
518.552	5.21
518.898	5.21
519.245	5.23
519.591	5.22
519.937	5.22
520.283	5.23
520.629	5.22
520.976	5.22
521.322	5.24
521.668	5.22
522.014	5.22
522.36	5.24
522.706	5.24
523.052	5.26
523.398	5.28
523.743	5.29
524.089	5.31
524.435	5.31
524.781	5.33
525.126	5.32
525.472	5.32
525.817	5.34
526.163	5.34
526.509	5.35
526.854	5.34
527.199	5.35
527.545	5.36
527.89	5.37
528.235	5.37
528.581	5.37
528.926	5.38
529.271	5.39
529.616	5.4
529.961	5.41
530.306	5.41
530.651	5.41
530.996	5.41
531.341	5.42
531.686	5.41
532.031	5.41
532.376	5.4
532.721	5.42
533.065	5.43
533.41	5.42
533.755	5.41
534.099	5.41
534.444	5.4
534.788	5.4
535.133	5.41
535.477	5.41
535.822	5.42
536.166	5.42
536.51	5.43
536.855	5.4
537.199	5.4
537.543	5.41
537.887	5.41
538.231	5.42
538.576	5.43
538.92	5.45
539.264	5.45
539.608	5.44
539.951	5.44
540.295	5.44
540.639	5.46
540.983	5.48
541.327	5.48
541.671	5.49
542.014	5.5
542.358	5.5
542.701	5.5
543.045	5.51
543.389	5.51
543.732	5.51
544.075	5.53
544.419	5.52
544.762	5.52
545.105	5.52
545.449	5.52
545.792	5.52
546.135	5.5
546.478	5.51
546.821	5.54
547.165	5.55
547.508	5.55
547.851	5.54
548.194	5.55
548.536	5.58
548.879	5.59
549.222	5.59
549.565	5.58
549.908	5.59
550.25	5.56
550.593	5.59
550.936	5.58
551.278	5.55
551.621	5.58
551.963	5.61
552.306	5.58
552.648	5.56
552.991	5.55
553.333	5.55
553.675	5.57
554.017	5.54
554.36	5.52
554.702	5.52
555.044	5.49
555.386	5.49
555.728	5.45
556.07	5.42
556.412	5.43
556.754	5.41
557.096	5.42
557.438	5.43
557.78	5.42
558.121	5.39
558.463	5.42
558.805	5.4
559.147	5.39
559.488	5.41
559.83	5.45
560.171	5.4
560.513	5.4
560.854	5.36
561.196	5.41
561.537	5.44
561.878	5.47
562.22	5.48
562.561	5.49
562.902	5.54
563.243	5.59
563.584	5.58
563.925	5.61
564.266	5.57
564.607	5.6
564.948	5.61
565.289	5.63
565.63	5.64
565.971	5.63
566.312	5.64
566.653	5.63
566.993	5.62
567.334	5.68
567.675	5.68
568.015	5.7
568.356	5.66
568.696	5.62
569.037	5.6
569.377	5.62
569.718	5.6
570.058	5.59
570.398	5.57
570.739	5.57
571.079	5.56
571.419	5.57
571.759	5.54
572.099	5.53
572.439	5.52
572.779	5.52
573.119	5.56
573.459	5.52
573.799	5.51
574.139	5.48
574.479	5.49
574.819	5.5
575.158	5.49
575.498	5.5
575.838	5.54
576.177	5.51
576.517	5.53
576.856	5.53
577.196	5.52
577.535	5.52
577.875	5.52
578.214	5.52
578.553	5.53
578.893	5.55
579.232	5.57
579.571	5.57
579.91	5.59
580.25	5.54
580.589	5.59
580.928	5.62
581.267	5.66
581.606	5.64
581.945	5.63
582.283	5.61
582.622	5.6
582.961	5.58
583.3	5.62
583.639	5.55
583.977	5.54
584.316	5.55
584.654	5.58
584.993	5.57
585.332	5.55
585.67	5.52
586.008	5.52
586.347	5.49
586.685	5.47
587.024	5.47
587.362	5.49
587.7	5.5
588.038	5.53
588.376	5.5
588.715	5.51
589.053	5.5
589.391	5.57
589.729	5.57
590.067	5.6
590.404	5.6
590.742	5.65
591.08	5.67
591.418	5.68
591.756	5.69
592.093	5.73
592.431	5.77
592.769	5.83
593.106	5.83
593.444	5.84
593.781	5.88
594.119	5.84
594.456	5.82
594.793	5.8
595.131	5.74
595.468	5.78
595.805	5.75
596.143	5.76
596.48	5.75
596.817	5.81
597.154	5.81
597.491	5.82
597.828	5.77
598.165	5.74
598.502	5.68
598.839	5.67
599.176	5.64
599.512	5.65
599.849	5.69
600.186	5.71
600.523	5.74
600.859	5.73
601.196	5.75
601.532	5.77
601.869	5.81
602.205	5.85
602.542	5.83
602.878	5.86
603.215	5.9
603.551	5.88
603.887	5.83
604.223	5.84
604.56	5.85
604.896	5.93
605.232	5.96
605.568	6.03
605.904	6.01
606.24	6.02
606.576	6
606.912	5.98
607.248	5.97
607.583	5.98
607.919	5.97
608.255	5.97
608.591	5.98
608.926	5.99
609.262	5.97
609.597	5.96
609.933	5.95
610.268	5.91
610.604	5.9
610.939	5.93
611.275	5.94
611.61	5.92
611.945	5.83
612.281	5.79
612.616	5.74
612.951	5.81
613.286	5.81
613.621	5.85
613.956	5.83
614.291	5.81
614.626	5.78
614.961	5.82
615.296	5.79
615.631	5.81
615.966	5.77
616.3	5.83
616.635	5.86
616.97	5.9
617.304	5.9
617.639	5.93
617.973	5.9
618.308	5.9
618.642	5.92
618.977	5.94
619.311	5.96
619.646	5.99
619.98	5.89
620.314	5.86
620.648	5.85
620.983	5.86
621.317	5.92
621.651	5.87
621.985	5.85
622.319	5.88
622.653	5.91
622.987	5.87
623.321	5.88
623.655	5.88
623.988	5.91
624.322	5.93
624.656	5.95
624.99	5.97
625.323	5.92
625.657	5.95
625.99	6.01
626.324	5.97
626.657	5.97
626.991	5.99
627.324	6
627.658	6.02
627.991	6
628.324	5.98
628.657	6.02
628.991	6.05
629.324	6.03
629.657	5.97
629.99	6.03
630.323	6.01
630.656	6.02
630.989	6
631.322	6
631.655	5.97
631.987	5.96
632.32	6
632.653	5.98
632.986	5.93
633.318	5.96
633.651	5.98
633.984	5.95
634.316	5.94
634.649	5.92
634.981	5.89
635.313	5.91
635.646	5.9
635.978	5.9
636.31	5.93
636.643	5.93
636.975	5.92
637.307	5.96
637.639	5.95
637.971	5.94
638.303	5.94
638.635	5.92
638.967	6
639.299	5.97
639.631	5.92
639.963	5.95
640.295	5.98
640.626	5.98
640.958	6.01
641.29	6.04
641.621	6.01
641.953	6
642.285	6.02
642.616	6.07
642.948	6.11
643.279	6.06
643.61	6.17
643.942	6.22
644.273	6.18
644.604	6.17
644.936	6.19
645.267	6.19
645.598	6.21
645.929	6.1
646.26	6.15
646.591	6.2
646.922	6.25
647.253	6.25
647.584	6.26
647.915	6.26
648.245	6.3
648.576	6.32
648.907	6.43
649.238	6.36
649.568	6.38
649.899	6.33
650.229	6.4
650.56	6.32
650.89	6.21
651.221	6.18
651.551	6.28
651.882	6.25
652.212	6.18
652.542	6.23
652.872	6.28
653.203	6.26
653.533	6.21
653.863	6.17
654.193	6.09
654.523	5.99
654.853	6.04
655.183	6
655.513	5.97
655.843	5.93
656.172	6.06
656.502	6.02
656.832	6.03
657.162	6.02
657.491	6.11
657.821	6.14
658.15	6.16
658.48	6.17
658.809	6.15
659.139	6.19
659.468	6.18
659.798	6.16
660.127	6.14
660.456	6.2
660.785	6.18
661.115	6.32
661.444	6.4
661.773	6.44
662.102	6.46
662.431	6.48
662.76	6.5
663.089	6.4
663.418	6.44
663.747	6.4
664.076	6.4
664.404	6.37
664.733	6.35
665.062	6.4
665.39	6.3
665.719	6.34
666.048	6.36
666.376	6.37
666.705	6.44
667.033	6.51
667.362	6.63
667.69	6.67
668.018	6.61
668.347	6.61
668.675	6.66
669.003	6.66
669.331	6.69
669.659	6.69
669.987	6.75
670.315	6.68
670.643	6.72
670.971	6.7
671.299	6.66
671.627	6.72
671.955	6.67
672.283	6.63
672.61	6.63
672.938	6.69
673.266	6.67
673.593	6.69
673.921	6.69
674.249	6.52
674.576	6.51
674.904	6.55
675.231	6.63
675.558	6.61
675.886	6.62
676.213	6.62
676.54	6.72
676.867	6.66
677.195	6.75
