Data from MVZ_BU123442_Reflection_00008.txt Node
Date: Tue Nov 19 12:12:31 EST 2019
User: vgr7
Spectrometer: USB2G7710
Scans to average: 3
Trigger mode: 4
Integration Time (sec): 2.000000E-2
Electric dark correction enabled: true
Boxcar width: 10
XAxis mode: Wavelengths
Number of Pixels in Spectrum: 2048
>>>>>Begin Spectral Data<<<<<
177.721	65.29
178.105	184.42
178.488	103.89
178.871	57.63
179.254	73.68
179.636	103.11
180.019	1637.74
180.402	30.77
180.785	33.73
181.168	129.41
181.55	72.3
181.933	32.99
182.316	50.35
182.698	3.33
183.081	5.55
183.463	26.49
183.846	22.13
184.228	29.89
184.611	-43.63
184.993	-376
185.376	-2617.39
185.758	228.46
186.14	287.8
186.522	618.35
186.904	-616
187.287	-621.48
187.669	-258.18
188.051	-159.2
188.433	-232.87
188.815	-113.86
189.197	-118.89
189.579	-154.03
189.961	-159.23
190.342	-195.36
190.724	-144.01
191.106	-114.07
191.488	-112.84
191.869	-105.37
192.251	-94.64
192.633	-129.31
193.014	-134.96
193.396	-129.71
193.777	-90.46
194.159	-98.25
194.54	-77.83
194.922	-110.43
195.303	-116.6
195.684	-117.91
196.065	-143.3
196.447	-144.26
196.828	-218.56
197.209	-218.83
197.59	-157.95
197.971	-110.54
198.352	-92.14
198.733	-94.57
199.114	-103.17
199.495	-124.23
199.876	-104.69
200.257	-148.6
200.638	-162.08
201.018	-230.84
201.399	-207.97
201.78	-228.37
202.16	-300.72
202.541	-455.66
202.922	-331.71
203.302	-375.69
203.683	-1454.05
204.063	-820.9
204.444	-2025.95
204.824	-558.24
205.204	-416.16
205.585	-764.74
205.965	-4874.58
206.345	1790.18
206.725	2710.09
207.106	1725.83
207.486	2000
207.866	548.02
208.246	1081.33
208.626	-12269.57
209.006	-731.54
209.386	-699.19
209.766	-509.57
210.145	-250.43
210.525	-253.46
210.905	-333.95
211.285	-272.66
211.664	-143.97
212.044	-148.71
212.424	-118.18
212.803	-135.11
213.183	-126.28
213.562	-86.75
213.942	-79.44
214.321	-88.47
214.701	-96.2
215.08	-113.87
215.459	-90.54
215.838	-94.11
216.218	-82.3
216.597	-85.77
216.976	-104.25
217.355	-92.03
217.734	-90.31
218.113	-79.32
218.492	-61.77
218.871	-61.05
219.25	-66.95
219.629	-88.9
220.008	-79.39
220.387	-75.64
220.766	-69.43
221.144	-74.57
221.523	-87.53
221.902	-81.91
222.28	-66.54
222.659	-59.02
223.037	-62.63
223.416	-64.34
223.794	-43.24
224.173	-62.13
224.551	-36.65
224.929	-40.86
225.308	-46
225.686	-45.81
226.064	-55.41
226.442	-50.05
226.821	-47.31
227.199	-45.69
227.577	-43.42
227.955	-38.21
228.333	-36.09
228.711	-30.26
229.089	-27.36
229.467	-22.46
229.845	-20.27
230.222	-19.66
230.6	-22.03
230.978	-16.39
231.356	-17.03
231.733	-19.36
232.111	-13.78
232.488	-15.54
232.866	-12.22
233.243	-12.75
233.621	-9.6
233.998	-9.69
234.376	-9.11
234.753	-7.82
235.13	-8.59
235.508	-7.97
235.885	-9.26
236.262	-10.15
236.639	-12.04
237.016	-11.07
237.393	-10.41
237.77	-8.86
238.147	-8.06
238.524	-4.87
238.901	-6.35
239.278	-4.36
239.655	-3.25
240.032	-3.28
240.409	-2.7
240.785	-2.7
241.162	-1.74
241.539	-1.9
241.915	-1.48
242.292	-0.96
242.668	-0.36
243.045	0.15
243.421	0.73
243.798	1.08
244.174	1.69
244.551	1.97
244.927	1.79
245.303	1.63
245.679	1.53
246.056	1.5
246.432	1.41
246.808	1.81
247.184	1.74
247.56	1.58
247.936	1.63
248.312	1.76
248.688	2.04
249.064	1.94
249.44	1.86
249.815	2.09
250.191	1.82
250.567	1.74
250.943	1.82
251.318	1.49
251.694	1.36
252.069	1.15
252.445	1.13
252.82	1.4
253.196	1.47
253.571	1.61
253.947	1.85
254.322	1.42
254.697	1.49
255.073	1.09
255.448	1.5
255.823	1.84
256.198	1.82
256.573	1.54
256.948	1.74
257.323	1.95
257.698	1.78
258.073	1.83
258.448	2.02
258.823	1.94
259.198	1.97
259.573	1.93
259.948	1.91
260.322	1.76
260.697	1.69
261.072	1.59
261.446	1.51
261.821	1.38
262.195	1.39
262.57	1.35
262.944	1.38
263.319	1.44
263.693	1.41
264.067	1.25
264.442	1.44
264.816	1.15
265.19	1.05
265.564	1.02
265.938	1.02
266.313	0.83
266.687	0.89
267.061	0.83
267.435	0.72
267.809	0.49
268.183	0.73
268.556	0.87
268.93	1.22
269.304	1.23
269.678	1.33
270.051	1.54
270.425	1.43
270.799	1.58
271.172	1.61
271.546	1.52
271.919	1.55
272.293	1.52
272.666	1.73
273.04	1.7
273.413	1.66
273.787	1.9
274.16	1.71
274.533	1.79
274.906	2.01
275.279	2.22
275.653	2.47
276.026	2.51
276.399	2.19
276.772	2.1
277.145	2.1
277.518	1.99
277.891	1.81
278.263	1.96
278.636	1.99
279.009	1.91
279.382	1.95
279.755	1.95
280.127	1.95
280.5	1.97
280.872	2.07
281.245	2.11
281.617	2.05
281.99	2.29
282.362	2.23
282.735	1.98
283.107	1.95
283.479	1.89
283.852	1.81
284.224	2.03
284.596	1.93
284.968	2.11
285.34	2.12
285.713	2.38
286.085	2.22
286.457	2.21
286.829	2.16
287.201	2.26
287.572	2.4
287.944	2.53
288.316	2.6
288.688	2.68
289.06	2.75
289.431	2.64
289.803	2.62
290.175	2.6
290.546	2.85
290.918	2.92
291.289	2.93
291.661	2.96
292.032	2.97
292.403	2.91
292.775	2.9
293.146	3.2
293.517	2.98
293.889	3.12
294.26	3.26
294.631	3.34
295.002	3.18
295.373	3.11
295.744	3.06
296.115	3.05
296.486	2.96
296.857	3.05
297.228	3.1
297.599	3.09
297.97	3.14
298.34	3.17
298.711	3.2
299.082	3.32
299.452	3.22
299.823	3.42
300.194	3.75
300.564	3.63
300.935	3.49
301.305	3.69
301.676	3.77
302.046	3.65
302.416	3.63
302.787	3.64
303.157	3.71
303.527	3.68
303.897	3.5
304.267	3.54
304.637	3.35
305.008	3.33
305.378	3.61
305.748	3.53
306.117	3.49
306.487	3.58
306.857	3.74
307.227	4.03
307.597	3.8
307.967	3.71
308.336	3.83
308.706	3.89
309.076	4.05
309.445	3.97
309.815	3.97
310.184	3.96
310.554	4.08
310.923	4.04
311.293	4.08
311.662	4.29
312.031	4.31
312.401	4.48
312.77	4.6
313.139	4.42
313.508	4.57
313.877	4.64
314.246	4.56
314.616	4.47
314.985	4.47
315.353	4.54
315.722	4.58
316.091	4.43
316.46	4.31
316.829	4.15
317.198	4.06
317.567	4.23
317.935	4.22
318.304	4.43
318.672	4.51
319.041	4.4
319.41	4.41
319.778	4.57
320.147	4.65
320.515	4.52
320.883	4.49
321.252	4.39
321.62	4.4
321.988	4.46
322.357	4.47
322.725	4.45
323.093	4.63
323.461	4.62
323.829	4.81
324.197	4.91
324.565	4.83
324.933	4.92
325.301	4.72
325.669	4.81
326.037	4.74
326.405	4.65
326.772	4.79
327.14	4.76
327.508	4.64
327.875	4.59
328.243	4.65
328.61	4.76
328.978	4.86
329.346	4.8
329.713	5.05
330.08	5.06
330.448	5.08
330.815	5.11
331.182	5.01
331.55	5
331.917	4.94
332.284	5.02
332.651	5.14
333.018	5.34
333.385	5.29
333.752	5.2
334.119	5.29
334.486	5.29
334.853	5.22
335.22	5.23
335.587	5.1
335.954	5.11
336.32	5.07
336.687	5.22
337.054	5.32
337.42	5.02
337.787	4.93
338.153	4.97
338.52	4.96
338.886	5.1
339.253	5.08
339.619	5.15
339.986	5.13
340.352	5.13
340.718	5.08
341.084	5.11
341.451	5.34
341.817	5.42
342.183	5.32
342.549	5.54
342.915	5.68
343.281	5.79
343.647	5.92
344.013	6.01
344.379	6.05
344.745	5.99
345.11	6.05
345.476	6.21
345.842	6.18
346.208	6.22
346.573	6.25
346.939	6.33
347.304	6.34
347.67	6.37
348.035	6.28
348.401	6.47
348.766	6.53
349.132	6.47
349.497	6.5
349.862	6.62
350.228	6.54
350.593	6.47
350.958	6.61
351.323	6.58
351.688	6.55
352.053	6.47
352.418	6.53
352.783	6.6
353.148	6.58
353.513	6.67
353.878	6.64
354.243	6.61
354.608	6.63
354.972	6.6
355.337	6.63
355.702	6.73
356.066	6.61
356.431	6.58
356.795	6.6
357.16	6.56
357.524	6.56
357.889	6.51
358.253	6.46
358.618	6.48
358.982	6.43
359.346	6.45
359.71	6.42
360.075	6.43
360.439	6.54
360.803	6.53
361.167	6.51
361.531	6.48
361.895	6.4
362.259	6.38
362.623	6.42
362.987	6.44
363.351	6.4
363.714	6.44
364.078	6.48
364.442	6.4
364.806	6.42
365.169	6.45
365.533	6.54
365.896	6.6
366.26	6.43
366.623	6.44
366.987	6.4
367.35	6.42
367.714	6.4
368.077	6.29
368.44	6.29
368.803	6.24
369.167	6.24
369.53	6.26
369.893	6.27
370.256	6.24
370.619	6.24
370.982	6.19
371.345	6.13
371.708	6.13
372.071	6.13
372.434	6.06
372.797	6.07
373.159	5.98
373.522	5.87
373.885	5.95
374.247	5.89
374.61	5.89
374.973	5.8
375.335	5.72
375.698	5.64
376.06	5.62
376.423	5.59
376.785	5.57
377.147	5.59
377.51	5.53
377.872	5.51
378.234	5.45
378.596	5.48
378.958	5.45
379.321	5.39
379.683	5.37
380.045	5.34
380.407	5.28
380.769	5.22
381.13	5.23
381.492	5.16
381.854	5.19
382.216	5.17
382.578	5.22
382.939	5.21
383.301	5.17
383.663	5.13
384.024	5.16
384.386	5.15
384.747	5.09
385.109	5.09
385.47	5.07
385.832	4.99
386.193	4.97
386.554	4.89
386.916	4.88
387.277	4.82
387.638	4.84
387.999	4.81
388.36	4.82
388.721	4.81
389.082	4.84
389.443	4.79
389.804	4.8
390.165	4.8
390.526	4.85
390.887	4.86
391.248	4.83
391.609	4.8
391.969	4.74
392.33	4.75
392.691	4.73
393.051	4.69
393.412	4.73
393.772	4.73
394.133	4.74
394.493	4.68
394.854	4.69
395.214	4.64
395.574	4.6
395.935	4.54
396.295	4.51
396.655	4.46
397.015	4.46
397.376	4.39
397.736	4.34
398.096	4.26
398.456	4.26
398.816	4.25
399.176	4.15
399.535	4.13
399.895	4.07
400.255	4.05
400.615	4.08
400.975	4.04
401.334	3.99
401.694	4.02
402.054	4.02
402.413	4.04
402.773	4.01
403.132	4.01
403.492	4.03
403.851	4.02
404.211	4.02
404.57	4
404.929	4.01
405.288	4
405.648	3.98
406.007	3.95
406.366	3.95
406.725	3.97
407.084	3.95
407.443	3.96
407.802	3.95
408.161	3.91
408.52	3.91
408.879	3.93
409.238	3.89
409.596	3.89
409.955	3.85
410.314	3.87
410.673	3.85
411.031	3.84
411.39	3.84
411.748	3.85
412.107	3.82
412.465	3.79
412.824	3.78
413.182	3.76
413.54	3.76
413.899	3.73
414.257	3.73
414.615	3.77
414.974	3.79
415.332	3.79
415.69	3.81
416.048	3.78
416.406	3.76
416.764	3.79
417.122	3.79
417.48	3.8
417.838	3.8
418.195	3.8
418.553	3.8
418.911	3.78
419.269	3.75
419.626	3.76
419.984	3.79
420.342	3.77
420.699	3.78
421.057	3.78
421.414	3.78
421.772	3.79
422.129	3.76
422.486	3.75
422.844	3.75
423.201	3.75
423.558	3.77
423.915	3.77
424.273	3.74
424.63	3.72
424.987	3.73
425.344	3.72
425.701	3.71
426.058	3.69
426.415	3.69
426.772	3.68
427.128	3.68
427.485	3.66
427.842	3.65
428.199	3.64
428.555	3.63
428.912	3.61
429.269	3.59
429.625	3.6
429.982	3.58
430.338	3.57
430.695	3.55
431.051	3.52
431.407	3.49
431.764	3.5
432.12	3.51
432.476	3.47
432.832	3.45
433.189	3.46
433.545	3.47
433.901	3.47
434.257	3.48
434.613	3.49
434.969	3.49
435.325	3.5
435.681	3.51
436.036	3.53
436.392	3.53
436.748	3.57
437.104	3.56
437.459	3.57
437.815	3.57
438.171	3.57
438.526	3.58
438.882	3.6
439.237	3.6
439.593	3.6
439.948	3.6
440.304	3.61
440.659	3.6
441.014	3.6
441.369	3.61
441.725	3.61
442.08	3.59
442.435	3.59
442.79	3.57
443.145	3.57
443.5	3.54
443.855	3.54
444.21	3.54
444.565	3.53
444.92	3.52
445.275	3.5
445.629	3.5
445.984	3.49
446.339	3.48
446.693	3.47
447.048	3.48
447.403	3.49
447.757	3.49
448.112	3.51
448.466	3.49
448.82	3.48
449.175	3.48
449.529	3.49
449.883	3.48
450.238	3.46
450.592	3.44
450.946	3.45
451.3	3.46
451.654	3.43
452.008	3.43
452.362	3.43
452.716	3.42
453.07	3.42
453.424	3.44
453.778	3.43
454.132	3.44
454.486	3.41
454.839	3.42
455.193	3.43
455.547	3.42
455.9	3.45
456.254	3.47
456.607	3.45
456.961	3.45
457.314	3.46
457.668	3.49
458.021	3.5
458.375	3.5
458.728	3.48
459.081	3.51
459.434	3.52
459.787	3.53
460.141	3.54
460.494	3.54
460.847	3.54
461.2	3.55
461.553	3.56
461.906	3.59
462.259	3.57
462.611	3.57
462.964	3.57
463.317	3.57
463.67	3.58
464.022	3.61
464.375	3.61
464.728	3.61
465.08	3.62
465.433	3.64
465.785	3.66
466.138	3.67
466.49	3.67
466.843	3.7
467.195	3.72
467.547	3.75
467.899	3.78
468.252	3.77
468.604	3.79
468.956	3.8
469.308	3.78
469.66	3.81
470.012	3.82
470.364	3.81
470.716	3.83
471.068	3.83
471.42	3.82
471.772	3.84
472.123	3.82
472.475	3.84
472.827	3.84
473.178	3.81
473.53	3.83
473.882	3.82
474.233	3.8
474.585	3.78
474.936	3.76
475.288	3.74
475.639	3.77
475.99	3.75
476.342	3.74
476.693	3.75
477.044	3.74
477.395	3.73
477.746	3.74
478.097	3.73
478.448	3.71
478.8	3.72
479.15	3.72
479.501	3.74
479.852	3.74
480.203	3.74
480.554	3.75
480.905	3.74
481.255	3.75
481.606	3.76
481.957	3.75
482.307	3.76
482.658	3.77
483.009	3.77
483.359	3.77
483.709	3.78
484.06	3.77
484.41	3.77
484.761	3.77
485.111	3.78
485.461	3.79
485.811	3.8
486.162	3.8
486.512	3.81
486.862	3.81
487.212	3.81
487.562	3.82
487.912	3.82
488.262	3.83
488.612	3.83
488.961	3.83
489.311	3.85
489.661	3.85
490.011	3.85
490.36	3.85
490.71	3.85
491.06	3.85
491.409	3.86
491.759	3.87
492.108	3.87
492.458	3.87
492.807	3.88
493.157	3.89
493.506	3.9
493.855	3.89
494.204	3.9
494.554	3.92
494.903	3.92
495.252	3.95
495.601	3.96
495.95	3.99
496.299	4.01
496.648	4.03
496.997	4.07
497.346	4.11
497.695	4.15
498.043	4.19
498.392	4.23
498.741	4.29
499.09	4.33
499.438	4.38
499.787	4.41
500.135	4.45
500.484	4.49
500.832	4.52
501.181	4.57
501.529	4.63
501.878	4.65
502.226	4.73
502.574	4.78
502.923	4.85
503.271	4.9
503.619	4.97
503.967	5.03
504.315	5.1
504.663	5.17
505.011	5.24
505.359	5.32
505.707	5.36
506.055	5.43
506.403	5.51
506.751	5.58
507.098	5.66
507.446	5.71
507.794	5.81
508.141	5.92
508.489	6
508.837	6.08
509.184	6.19
509.531	6.25
509.879	6.33
510.226	6.39
510.574	6.47
510.921	6.58
511.268	6.66
511.616	6.72
511.963	6.8
512.31	6.87
512.657	6.94
513.004	7.03
513.351	7.13
513.698	7.22
514.045	7.33
514.392	7.45
514.739	7.58
515.086	7.69
515.432	7.78
515.779	7.89
516.126	8
516.473	8.08
516.819	8.15
517.166	8.26
517.512	8.35
517.859	8.44
518.205	8.49
518.552	8.57
518.898	8.65
519.245	8.75
519.591	8.84
519.937	8.92
520.283	9.03
520.629	9.12
520.976	9.18
521.322	9.29
521.668	9.37
522.014	9.47
522.36	9.57
522.706	9.68
523.052	9.79
523.398	9.92
523.743	10.05
524.089	10.22
524.435	10.33
524.781	10.49
525.126	10.59
525.472	10.72
525.817	10.83
526.163	10.92
526.509	11.03
526.854	11.11
527.199	11.21
527.545	11.3
527.89	11.39
528.235	11.49
528.581	11.57
528.926	11.69
529.271	11.78
529.616	11.88
529.961	11.98
530.306	12.08
530.651	12.18
530.996	12.29
531.341	12.41
531.686	12.52
532.031	12.64
532.376	12.76
532.721	12.88
533.065	13.02
533.41	13.18
533.755	13.31
534.099	13.47
534.444	13.63
534.788	13.78
535.133	13.9
535.477	14.08
535.822	14.27
536.166	14.44
536.51	14.64
536.855	14.82
537.199	15.02
537.543	15.25
537.887	15.49
538.231	15.71
538.576	15.95
538.92	16.19
539.264	16.4
539.608	16.62
539.951	16.82
540.295	17.01
540.639	17.19
540.983	17.38
541.327	17.58
541.671	17.78
542.014	17.97
542.358	18.2
542.701	18.35
543.045	18.55
543.389	18.71
543.732	18.89
544.075	19.09
544.419	19.29
544.762	19.47
545.105	19.65
545.449	19.88
545.792	20.08
546.135	20.34
546.478	20.58
546.821	20.84
547.165	21.15
547.508	21.47
547.851	21.75
548.194	22.03
548.536	22.27
548.879	22.51
549.222	22.81
549.565	23.06
549.908	23.34
550.25	23.59
550.593	23.91
550.936	24.2
551.278	24.5
551.621	24.79
551.963	25.13
552.306	25.43
552.648	25.72
552.991	26.02
553.333	26.26
553.675	26.54
554.017	26.82
554.36	27.01
554.702	27.23
555.044	27.54
555.386	27.8
555.728	28.04
556.07	28.29
556.412	28.56
556.754	28.79
557.096	29.08
557.438	29.38
557.78	29.63
558.121	29.86
558.463	30.14
558.805	30.43
559.147	30.71
559.488	30.97
559.83	31.25
560.171	31.46
560.513	31.72
560.854	31.96
561.196	32.26
561.537	32.54
561.878	32.77
562.22	32.95
562.561	33.15
562.902	33.34
563.243	33.61
563.584	33.82
563.925	34.09
564.266	34.3
564.607	34.45
564.948	34.63
565.289	34.88
565.63	35.11
565.971	35.3
566.312	35.48
566.653	35.67
566.993	35.85
567.334	36.08
567.675	36.25
568.015	36.39
568.356	36.52
568.696	36.69
569.037	36.89
569.377	37.1
569.718	37.31
570.058	37.53
570.398	37.69
570.739	37.88
571.079	38.06
571.419	38.22
571.759	38.43
572.099	38.55
572.439	38.72
572.779	38.78
573.119	38.97
573.459	39.12
573.799	39.21
574.139	39.29
574.479	39.44
574.819	39.57
575.158	39.82
575.498	39.98
575.838	40.09
576.177	40.15
576.517	40.27
576.856	40.39
577.196	40.58
577.535	40.67
577.875	40.77
578.214	40.9
578.553	41.04
578.893	41.14
579.232	41.35
579.571	41.51
579.91	41.73
580.25	41.83
580.589	41.88
580.928	42.05
581.267	42.15
581.606	42.21
581.945	42.35
582.283	42.41
582.622	42.48
582.961	42.68
583.3	42.86
583.639	42.96
583.977	43.03
584.316	43.07
584.654	43.16
584.993	43.35
585.332	43.36
585.67	43.4
586.008	43.5
586.347	43.61
586.685	43.63
587.024	43.74
587.362	43.77
587.7	43.95
588.038	44.06
588.376	44.18
588.715	44.25
589.053	44.33
589.391	44.36
589.729	44.51
590.067	44.61
590.404	44.78
590.742	44.89
591.08	45.02
591.418	45.09
591.756	45.26
592.093	45.33
592.431	45.47
592.769	45.64
593.106	45.76
593.444	45.8
593.781	45.88
594.119	45.89
594.456	46.02
594.793	46.03
595.131	46.11
595.468	46.22
595.805	46.33
596.143	46.45
596.48	46.55
596.817	46.67
597.154	46.68
597.491	46.66
597.828	46.74
598.165	46.81
598.502	46.93
598.839	46.96
599.176	46.99
599.512	47.04
599.849	47.07
600.186	47.07
600.523	47.22
600.859	47.36
601.196	47.49
601.532	47.5
601.869	47.61
602.205	47.66
602.542	47.71
602.878	47.74
603.215	47.77
603.551	47.78
603.887	47.72
604.223	47.77
604.56	47.78
604.896	47.84
605.232	47.85
605.568	47.87
605.904	47.87
606.24	47.94
606.576	48.02
606.912	48.12
607.248	48.2
607.583	48.24
607.919	48.24
608.255	48.23
608.591	48.28
608.926	48.38
609.262	48.46
609.597	48.53
609.933	48.59
610.268	48.56
610.604	48.64
610.939	48.7
611.275	48.67
611.61	48.73
611.945	48.78
612.281	48.86
612.616	48.89
612.951	49.02
613.286	48.99
613.621	49.05
613.956	49.1
614.291	49.13
614.626	49.13
614.961	49.23
615.296	49.25
615.631	49.32
615.966	49.26
616.3	49.28
616.635	49.3
616.97	49.3
617.304	49.46
617.639	49.42
617.973	49.5
618.308	49.61
618.642	49.59
618.977	49.5
619.311	49.61
619.646	49.71
619.98	49.66
620.314	49.74
620.648	49.8
620.983	49.79
621.317	49.83
621.651	49.86
621.985	49.72
622.319	49.7
622.653	49.74
622.987	49.75
623.321	49.78
623.655	49.82
623.988	49.88
624.322	49.82
624.656	49.95
624.99	49.93
625.323	49.94
625.657	50.01
625.99	50.13
626.324	50
626.657	50.05
626.991	50.08
627.324	50.13
627.658	50.08
627.991	50.03
628.324	50.06
628.657	50.13
628.991	50.23
629.324	50.3
629.657	50.27
629.99	50.28
630.323	50.24
630.656	50.19
630.989	50.2
631.322	50.3
631.655	50.29
631.987	50.31
632.32	50.41
632.653	50.5
632.986	50.44
633.318	50.49
633.651	50.44
633.984	50.46
634.316	50.44
634.649	50.46
634.981	50.52
635.313	50.53
635.646	50.49
635.978	50.54
636.31	50.67
636.643	50.77
636.975	51
637.307	51.03
637.639	51.12
637.971	51.13
638.303	51.15
638.635	51.11
638.967	51.18
639.299	51.17
639.631	51.08
639.963	51.11
640.295	51.18
640.626	51.23
640.958	51.32
641.29	51.39
641.621	51.4
641.953	51.49
642.285	51.54
642.616	51.54
642.948	51.51
643.279	51.49
643.61	51.46
643.942	51.31
644.273	51.34
644.604	51.39
644.936	51.44
645.267	51.31
645.598	51.34
645.929	51.32
646.26	51.15
646.591	51.11
646.922	51.29
647.253	51.44
647.584	51.42
647.915	51.38
648.245	51.49
648.576	51.49
648.907	51.42
649.238	51.45
649.568	51.47
649.899	51.59
650.229	51.61
650.56	51.69
650.89	51.75
651.221	51.74
651.551	51.68
651.882	51.57
652.212	51.65
652.542	51.74
652.872	51.88
653.203	52.07
653.533	52.24
653.863	52.16
654.193	52.07
654.523	52.06
654.853	51.92
655.183	51.79
655.513	51.84
655.843	51.94
656.172	51.94
656.502	51.93
656.832	51.78
657.162	51.76
657.491	51.9
657.821	51.89
658.15	51.97
658.48	51.94
658.809	51.96
659.139	51.98
659.468	52.04
659.798	51.85
660.127	51.87
660.456	51.79
660.785	51.85
661.115	51.89
661.444	51.93
661.773	52.07
662.102	52.01
662.431	51.99
662.76	51.96
663.089	51.96
663.418	52.06
663.747	52.15
664.076	52.13
664.404	52.04
