Data from MVZ_BU163024_Reflection_00008.txt Node
Date: Tue Nov 19 12:11:37 EST 2019
User: vgr7
Spectrometer: USB2G7710
Scans to average: 3
Trigger mode: 4
Integration Time (sec): 2.000000E-2
Electric dark correction enabled: true
Boxcar width: 10
XAxis mode: Wavelengths
Number of Pixels in Spectrum: 2048
>>>>>Begin Spectral Data<<<<<
177.721	-414.65
178.105	-55.7
178.488	-69.85
178.871	-91.4
179.254	-60.61
179.636	282.29
180.019	55.4
180.402	38.46
180.785	135.24
181.168	152.26
181.55	55.05
181.933	53.23
182.316	47.21
182.698	15.16
183.081	22.42
183.463	35.29
183.846	19.4
184.228	-3.71
184.611	-5.8
184.993	-3.14
185.376	-15.46
185.758	-53.09
186.14	-29.24
186.522	-45.21
186.904	-58.5
187.287	2.73
187.669	-5.03
188.051	5.71
188.433	38.42
188.815	11.83
189.197	0.2
189.579	-9.25
189.961	3.97
190.342	18.68
190.724	80.59
191.106	111.23
191.488	86.94
191.869	26.49
192.251	29.1
192.633	47.45
193.014	-7.84
193.396	23.14
193.777	0.26
194.159	3.93
194.54	-11.96
194.922	11.14
195.303	-50.51
195.684	-377.01
196.065	98.13
196.447	196.21
196.828	166.34
197.209	104.19
197.59	57.54
197.971	63.82
198.352	48.02
198.733	59.17
199.114	59.31
199.495	73.74
199.876	65.14
200.257	-0.47
200.638	-39.14
201.018	-69.62
201.399	-31.76
201.78	-64.49
202.16	-19.86
202.541	-36.93
202.922	-40.76
203.302	-69.47
203.683	266.67
204.063	157.58
204.444	438.38
204.824	533.33
205.204	-629.89
205.585	2266.67
205.965	-368.99
206.345	298.41
206.725	-69.1
207.106	12.05
207.486	-4.33
207.866	-20.01
208.246	-7.45
208.626	-15.09
209.006	-31.55
209.386	-36.1
209.766	-48.75
210.145	-58.84
210.525	-61.49
210.905	-33.38
211.285	-21.58
211.664	-16.21
212.044	-14.22
212.424	-4.02
212.803	-0.26
213.183	-7.13
213.562	1.37
213.942	-7.35
214.321	-12.05
214.701	-11.04
215.08	-20.56
215.459	-11.81
215.838	-16.02
216.218	-13.88
216.597	10.76
216.976	17.34
217.355	23.62
217.734	23.88
218.113	41.87
218.492	40.82
218.871	45.81
219.25	49.68
219.629	38.13
220.008	40.34
220.387	25.32
220.766	34.5
221.144	26.26
221.523	22.78
221.902	48.31
222.28	53.83
222.659	56.71
223.037	53.66
223.416	45.86
223.794	48.55
224.173	51.25
224.551	41.84
224.929	32.83
225.308	35.68
225.686	28.13
226.064	12.32
226.442	17.11
226.821	8.48
227.199	2.27
227.577	4.35
227.955	4.87
228.333	4.19
228.711	4.45
229.089	2.88
229.467	3.01
229.845	1.28
230.222	-2.32
230.6	-9.35
230.978	-8.35
231.356	-8.27
231.733	-7.3
232.111	-7.14
232.488	-5.72
232.866	-3.21
233.243	-6.36
233.621	-3.2
233.998	0.08
234.376	0.22
234.753	2.89
235.13	5.87
235.508	6.84
235.885	4.93
236.262	4.61
236.639	3.42
237.016	6.01
237.393	5.9
237.77	5.54
238.147	6.11
238.524	7.36
238.901	6.99
239.278	7.64
239.655	7
240.032	7.36
240.409	6.82
240.785	6.6
241.162	7.47
241.539	6.47
241.915	6.31
242.292	5.77
242.668	5.09
243.045	5.05
243.421	4.72
243.798	5.08
244.174	5.23
244.551	5.29
244.927	5.08
245.303	4.88
245.679	4.47
246.056	4.49
246.432	4.45
246.808	4.4
247.184	4.41
247.56	4.51
247.936	4.41
248.312	4.34
248.688	4.47
249.064	4.33
249.44	4.56
249.815	4.56
250.191	4.65
250.567	4.48
250.943	4.16
251.318	4.23
251.694	4.04
252.069	3.93
252.445	3.86
252.82	4
253.196	4.19
253.571	4.54
253.947	4.3
254.322	4.09
254.697	4.14
255.073	3.75
255.448	3.78
255.823	4.07
256.198	4.24
256.573	4.07
256.948	3.98
257.323	3.96
257.698	3.89
258.073	3.87
258.448	4.3
258.823	4.34
259.198	4.5
259.573	4.64
259.948	4.71
260.322	4.83
260.697	4.79
261.072	4.78
261.446	4.59
261.821	4.52
262.195	4.67
262.57	4.83
262.944	4.95
263.319	4.75
263.693	4.47
264.067	4.45
264.442	4.41
264.816	4.42
265.19	4.39
265.564	4.44
265.938	4.28
266.313	4.04
266.687	3.84
267.061	3.56
267.435	3.57
267.809	3.43
268.183	3.41
268.556	3.28
268.93	3.32
269.304	3.64
269.678	3.84
270.051	3.73
270.425	3.53
270.799	3.39
271.172	3.62
271.546	3.68
271.919	3.66
272.293	3.87
272.666	3.99
273.04	4.09
273.413	3.95
273.787	4.03
274.16	3.88
274.533	4
274.906	4
275.279	4.08
275.653	4.18
276.026	4.23
276.399	4.25
276.772	4.13
277.145	4.04
277.518	4.04
277.891	4.05
278.263	4.23
278.636	4.5
279.009	4.44
279.382	4.58
279.755	4.71
280.127	4.6
280.5	4.37
280.872	4.32
281.245	4.42
281.617	4.52
281.99	4.46
282.362	4.56
282.735	4.66
283.107	4.61
283.479	4.57
283.852	4.58
284.224	4.6
284.596	4.63
284.968	4.48
285.34	4.3
285.713	4.28
286.085	4.13
286.457	4.17
286.829	4.18
287.201	4.21
287.572	4.03
287.944	4.13
288.316	4.37
288.688	4.52
289.06	4.44
289.431	4.55
289.803	4.82
290.175	5.03
290.546	4.99
290.918	4.94
291.289	5.02
291.661	5.01
292.032	4.97
292.403	5.02
292.775	5.15
293.146	5.42
293.517	5.64
293.889	5.7
294.26	5.64
294.631	5.66
295.002	5.73
295.373	5.81
295.744	5.82
296.115	5.66
296.486	5.64
296.857	5.8
297.228	5.63
297.599	5.63
297.97	5.64
298.34	5.63
298.711	5.81
299.082	5.86
299.452	5.82
299.823	5.93
300.194	6.06
300.564	6.04
300.935	6.06
301.305	6
301.676	6
302.046	5.98
302.416	6.18
302.787	6.02
303.157	6.15
303.527	6.22
303.897	6.32
304.267	6.44
304.637	6.52
305.008	6.73
305.378	6.8
305.748	6.67
306.117	6.82
306.487	6.73
306.857	6.85
307.227	7.13
307.597	7.24
307.967	7.2
308.336	7.36
308.706	7.36
309.076	7.45
309.445	7.7
309.815	7.86
310.184	7.94
310.554	7.99
310.923	8.14
311.293	8.09
311.662	8.22
312.031	8.3
312.401	8.42
312.77	8.51
313.139	8.47
313.508	8.55
313.877	8.69
314.246	8.74
314.616	8.7
314.985	8.58
315.353	8.7
315.722	8.9
316.091	8.99
316.46	9.12
316.829	9.32
317.198	9.29
317.567	9.53
317.935	9.44
318.304	9.84
318.672	9.79
319.041	10.13
319.41	10.17
319.778	10.08
320.147	10.15
320.515	10.3
320.883	10.26
321.252	10.29
321.62	10.35
321.988	10.57
322.357	10.71
322.725	10.88
323.093	10.89
323.461	10.84
323.829	10.8
324.197	10.86
324.565	10.96
324.933	11
325.301	10.78
325.669	10.81
326.037	10.82
326.405	10.87
326.772	10.92
327.14	10.76
327.508	10.77
327.875	10.68
328.243	10.59
328.61	10.88
328.978	10.91
329.346	10.96
329.713	11.17
330.08	11.15
330.448	11.23
330.815	11.29
331.182	11.45
331.55	11.48
331.917	11.52
332.284	11.51
332.651	11.58
333.018	11.7
333.385	11.92
333.752	11.94
334.119	12.13
334.486	11.97
334.853	12.22
335.22	12.27
335.587	12.38
335.954	12.43
336.32	12.31
336.687	12.38
337.054	12.49
337.42	12.24
337.787	12.34
338.153	12.41
338.52	12.4
338.886	12.35
339.253	12.48
339.619	12.64
339.986	12.58
340.352	12.7
340.718	12.81
341.084	12.82
341.451	12.94
341.817	12.84
342.183	12.87
342.549	13
342.915	13.01
343.281	13.08
343.647	13.05
344.013	13.1
344.379	13.13
344.745	13.13
345.11	13.34
345.476	13.4
345.842	13.42
346.208	13.52
346.573	13.65
346.939	13.6
347.304	13.5
347.67	13.47
348.035	13.43
348.401	13.38
348.766	13.26
349.132	13.21
349.497	13.19
349.862	13.37
350.228	13.44
350.593	13.42
350.958	13.46
351.323	13.52
351.688	13.64
352.053	13.68
352.418	13.67
352.783	13.64
353.148	13.62
353.513	13.6
353.878	13.56
354.243	13.57
354.608	13.74
354.972	13.73
355.337	13.77
355.702	13.77
356.066	13.87
356.431	13.93
356.795	13.9
357.16	13.98
357.524	13.95
357.889	13.73
358.253	13.77
358.618	13.7
358.982	13.66
359.346	13.74
359.71	13.69
360.075	13.63
360.439	13.62
360.803	13.61
361.167	13.57
361.531	13.54
361.895	13.54
362.259	13.53
362.623	13.49
362.987	13.54
363.351	13.47
363.714	13.39
364.078	13.36
364.442	13.27
364.806	13.22
365.169	13.15
365.533	13.23
365.896	13.18
366.26	13.19
366.623	13.13
366.987	13.03
367.35	13.02
367.714	12.99
368.077	12.92
368.44	12.83
368.803	12.81
369.167	12.7
369.53	12.62
369.893	12.57
370.256	12.49
370.619	12.41
370.982	12.38
371.345	12.34
371.708	12.32
372.071	12.31
372.434	12.24
372.797	12.2
373.159	12.08
373.522	12.08
373.885	11.97
374.247	11.95
374.61	11.86
374.973	11.75
375.335	11.7
375.698	11.57
376.06	11.54
376.423	11.5
376.785	11.45
377.147	11.33
377.51	11.2
377.872	11.16
378.234	11.07
378.596	11.03
378.958	10.99
379.321	10.88
379.683	10.84
380.045	10.7
380.407	10.62
380.769	10.58
381.13	10.45
381.492	10.39
381.854	10.27
382.216	10.2
382.578	10.14
382.939	10.05
383.301	10.04
383.663	9.99
384.024	9.89
384.386	9.83
384.747	9.76
385.109	9.66
385.47	9.6
385.832	9.52
386.193	9.48
386.554	9.41
386.916	9.35
387.277	9.22
387.638	9.27
387.999	9.22
388.36	9.15
388.721	9.13
389.082	9.14
389.443	9.12
389.804	9.03
390.165	8.99
390.526	8.95
390.887	8.88
391.248	8.82
391.609	8.74
391.969	8.73
392.33	8.69
392.691	8.65
393.051	8.59
393.412	8.54
393.772	8.43
394.133	8.36
394.493	8.3
394.854	8.28
395.214	8.2
395.574	8.12
395.935	8.05
396.295	7.97
396.655	7.85
397.015	7.76
397.376	7.71
397.736	7.64
398.096	7.58
398.456	7.56
398.816	7.49
399.176	7.43
399.535	7.35
399.895	7.28
400.255	7.21
400.615	7.16
400.975	7.09
401.334	7.05
401.694	6.99
402.054	6.94
402.413	6.86
402.773	6.79
403.132	6.74
403.492	6.7
403.851	6.66
404.211	6.63
404.57	6.61
404.929	6.58
405.288	6.54
405.648	6.52
406.007	6.45
406.366	6.45
406.725	6.39
407.084	6.35
407.443	6.34
407.802	6.32
408.161	6.29
408.52	6.3
408.879	6.32
409.238	6.31
409.596	6.27
409.955	6.29
410.314	6.26
410.673	6.28
411.031	6.27
411.39	6.25
411.748	6.22
412.107	6.2
412.465	6.19
412.824	6.15
413.182	6.12
413.54	6.09
413.899	6
414.257	6
414.615	5.99
414.974	5.99
415.332	5.99
415.69	5.96
416.048	5.91
416.406	5.85
416.764	5.83
417.122	5.83
417.48	5.79
417.838	5.77
418.195	5.73
418.553	5.7
418.911	5.69
419.269	5.66
419.626	5.63
419.984	5.59
420.342	5.58
420.699	5.55
421.057	5.53
421.414	5.53
421.772	5.51
422.129	5.47
422.486	5.44
422.844	5.4
423.201	5.38
423.558	5.38
423.915	5.36
424.273	5.32
424.63	5.3
424.987	5.29
425.344	5.27
425.701	5.25
426.058	5.23
426.415	5.21
426.772	5.2
427.128	5.2
427.485	5.17
427.842	5.15
428.199	5.12
428.555	5.1
428.912	5.08
429.269	5.07
429.625	5.06
429.982	5.03
430.338	5.02
430.695	4.98
431.051	4.95
431.407	4.92
431.764	4.93
432.12	4.94
432.476	4.93
432.832	4.93
433.189	4.91
433.545	4.89
433.901	4.89
434.257	4.86
434.613	4.86
434.969	4.84
435.325	4.84
435.681	4.85
436.036	4.84
436.392	4.83
436.748	4.84
437.104	4.86
437.459	4.86
437.815	4.88
438.171	4.9
438.526	4.93
438.882	4.95
439.237	4.94
439.593	4.93
439.948	4.92
440.304	4.91
440.659	4.92
441.014	4.92
441.369	4.93
441.725	4.92
442.08	4.91
442.435	4.93
442.79	4.93
443.145	4.94
443.5	4.93
443.855	4.94
444.21	4.93
444.565	4.91
444.92	4.9
445.275	4.89
445.629	4.87
445.984	4.83
446.339	4.82
446.693	4.82
447.048	4.81
447.403	4.8
447.757	4.8
448.112	4.78
448.466	4.77
448.82	4.74
449.175	4.73
449.529	4.74
449.883	4.72
450.238	4.69
450.592	4.69
450.946	4.67
451.3	4.65
451.654	4.61
452.008	4.58
452.362	4.53
452.716	4.5
453.07	4.49
453.424	4.51
453.778	4.47
454.132	4.47
454.486	4.46
454.839	4.43
455.193	4.42
455.547	4.4
455.9	4.4
456.254	4.41
456.607	4.41
456.961	4.41
457.314	4.4
457.668	4.41
458.021	4.4
458.375	4.41
458.728	4.43
459.081	4.43
459.434	4.45
459.787	4.48
460.141	4.5
460.494	4.51
460.847	4.51
461.2	4.52
461.553	4.51
461.906	4.52
462.259	4.54
462.611	4.56
462.964	4.59
463.317	4.6
463.67	4.6
464.022	4.6
464.375	4.58
464.728	4.6
465.08	4.61
465.433	4.63
465.785	4.64
466.138	4.66
466.49	4.7
466.843	4.72
467.195	4.74
467.547	4.77
467.899	4.8
468.252	4.83
468.604	4.87
468.956	4.88
469.308	4.89
469.66	4.93
470.012	4.97
470.364	4.98
470.716	5.03
471.068	5.09
471.42	5.13
471.772	5.18
472.123	5.22
472.475	5.24
472.827	5.26
473.178	5.3
473.53	5.29
473.882	5.33
474.233	5.32
474.585	5.31
474.936	5.33
475.288	5.33
475.639	5.34
475.99	5.33
476.342	5.36
476.693	5.4
477.044	5.42
477.395	5.37
477.746	5.37
478.097	5.34
478.448	5.3
478.8	5.28
479.15	5.25
479.501	5.21
479.852	5.2
480.203	5.2
480.554	5.17
480.905	5.16
481.255	5.14
481.606	5.15
481.957	5.16
482.307	5.14
482.658	5.13
483.009	5.12
483.359	5.11
483.709	5.1
484.06	5.09
484.41	5.07
484.761	5.07
485.111	5.07
485.461	5.07
485.811	5.08
486.162	5.08
486.512	5.08
486.862	5.08
487.212	5.07
487.562	5.05
487.912	5.05
488.262	5.05
488.612	5.03
488.961	5.03
489.311	5.02
489.661	5.02
490.011	5.02
490.36	5.02
490.71	5.03
491.06	5.04
491.409	5.05
491.759	5.06
492.108	5.07
492.458	5.06
492.807	5.08
493.157	5.09
493.506	5.11
493.855	5.14
494.204	5.15
494.554	5.18
494.903	5.23
495.252	5.27
495.601	5.32
495.95	5.39
496.299	5.43
496.648	5.5
496.997	5.54
497.346	5.6
497.695	5.66
498.043	5.71
498.392	5.77
498.741	5.85
499.09	5.92
499.438	6.01
499.787	6.12
500.135	6.19
500.484	6.27
500.832	6.38
501.181	6.5
501.529	6.63
501.878	6.77
502.226	6.92
502.574	7.04
502.923	7.17
503.271	7.33
503.619	7.49
503.967	7.6
504.315	7.77
504.663	7.96
505.011	8.16
505.359	8.29
505.707	8.43
506.055	8.62
506.403	8.81
506.751	8.98
507.098	9.16
507.446	9.35
507.794	9.56
508.141	9.77
508.489	9.97
508.837	10.15
509.184	10.32
509.531	10.51
509.879	10.69
510.226	10.88
510.574	11.07
510.921	11.26
511.268	11.48
511.616	11.7
511.963	11.9
512.31	12.09
512.657	12.36
513.004	12.6
513.351	12.82
513.698	13.06
514.045	13.31
514.392	13.59
514.739	13.85
515.086	14.1
515.432	14.33
515.779	14.61
516.126	14.9
516.473	15.17
516.819	15.43
517.166	15.68
517.512	15.93
517.859	16.16
518.205	16.36
518.552	16.58
518.898	16.81
519.245	17.01
519.591	17.25
519.937	17.42
520.283	17.68
520.629	17.9
520.976	18.14
521.322	18.4
521.668	18.65
522.014	18.91
522.36	19.16
522.706	19.42
523.052	19.69
523.398	19.97
523.743	20.27
524.089	20.58
524.435	20.9
524.781	21.16
525.126	21.41
525.472	21.68
525.817	21.92
526.163	22.14
526.509	22.34
526.854	22.52
527.199	22.73
527.545	22.92
527.89	23.1
528.235	23.31
528.581	23.49
528.926	23.68
529.271	23.86
529.616	24.07
529.961	24.3
530.306	24.52
530.651	24.73
530.996	24.94
531.341	25.18
531.686	25.42
532.031	25.67
532.376	25.91
532.721	26.16
533.065	26.42
533.41	26.66
533.755	26.96
534.099	27.26
534.444	27.55
534.788	27.78
535.133	28.07
535.477	28.33
535.822	28.62
536.166	28.9
536.51	29.23
536.855	29.53
537.199	29.85
537.543	30.18
537.887	30.53
538.231	30.9
538.576	31.22
538.92	31.53
539.264	31.87
539.608	32.19
539.951	32.47
540.295	32.8
540.639	33.09
540.983	33.34
541.327	33.6
541.671	33.85
542.014	34.11
542.358	34.37
542.701	34.56
543.045	34.83
543.389	35.1
543.732	35.34
544.075	35.61
544.419	35.86
544.762	36.12
545.105	36.36
545.449	36.64
545.792	36.94
546.135	37.24
546.478	37.55
546.821	37.9
547.165	38.25
547.508	38.5
547.851	38.76
548.194	39.1
548.536	39.38
548.879	39.7
549.222	40.03
549.565	40.3
549.908	40.65
550.25	40.93
550.593	41.21
550.936	41.55
551.278	41.79
551.621	42.05
551.963	42.32
552.306	42.63
552.648	42.9
552.991	43.09
553.333	43.36
553.675	43.58
554.017	43.77
554.36	44.02
554.702	44.24
555.044	44.51
555.386	44.71
555.728	44.92
556.07	45.14
556.412	45.36
556.754	45.69
557.096	45.95
557.438	46.15
557.78	46.31
558.121	46.49
558.463	46.81
558.805	47.1
559.147	47.36
559.488	47.57
559.83	47.75
560.171	48.02
560.513	48.27
560.854	48.56
561.196	48.82
561.537	48.95
561.878	49.24
562.22	49.48
562.561	49.75
562.902	49.93
563.243	50.14
563.584	50.29
563.925	50.43
564.266	50.63
564.607	50.82
564.948	51.04
565.289	51.29
565.63	51.41
565.971	51.53
566.312	51.7
566.653	51.84
566.993	51.95
567.334	52.1
567.675	52.25
568.015	52.34
568.356	52.45
568.696	52.66
569.037	52.77
569.377	52.89
569.718	52.98
570.058	53.13
570.398	53.26
570.739	53.49
571.079	53.63
571.419	53.81
571.759	53.98
572.099	54.08
572.439	54.16
572.779	54.28
573.119	54.44
573.459	54.52
573.799	54.67
574.139	54.78
574.479	54.94
574.819	55.04
575.158	55.15
575.498	55.31
575.838	55.33
576.177	55.38
576.517	55.49
576.856	55.58
577.196	55.67
577.535	55.8
577.875	55.85
578.214	55.95
578.553	55.97
578.893	56.05
579.232	56.24
579.571	56.37
579.91	56.46
580.25	56.53
580.589	56.63
580.928	56.73
581.267	56.89
581.606	57
581.945	57.04
582.283	57.06
582.622	57.08
582.961	57.23
583.3	57.35
583.639	57.39
583.977	57.46
584.316	57.6
584.654	57.67
584.993	57.76
585.332	57.75
585.67	57.78
586.008	57.89
586.347	57.87
586.685	57.86
587.024	57.96
587.362	58.15
587.7	58.24
588.038	58.35
588.376	58.35
588.715	58.37
589.053	58.4
589.391	58.5
589.729	58.56
590.067	58.72
590.404	58.83
590.742	58.86
591.08	58.9
591.418	58.94
591.756	59
592.093	59.03
592.431	59.19
592.769	59.21
593.106	59.25
593.444	59.32
593.781	59.42
594.119	59.44
594.456	59.43
594.793	59.51
595.131	59.56
595.468	59.64
595.805	59.63
596.143	59.69
596.48	59.73
596.817	59.79
597.154	59.79
597.491	59.86
597.828	59.9
598.165	59.93
598.502	59.99
598.839	60.01
599.176	60.03
599.512	60
599.849	60.03
600.186	60.07
600.523	60.13
600.859	60.21
601.196	60.29
601.532	60.25
601.869	60.28
602.205	60.26
602.542	60.36
602.878	60.44
603.215	60.52
603.551	60.59
603.887	60.52
604.223	60.48
604.56	60.45
604.896	60.56
605.232	60.66
605.568	60.68
605.904	60.66
606.24	60.8
606.576	60.81
606.912	60.98
607.248	60.98
607.583	61.02
607.919	61.08
608.255	61.05
608.591	61.15
608.926	61.12
609.262	61.2
609.597	61.2
609.933	61.23
610.268	61.26
610.604	61.26
610.939	61.42
611.275	61.51
611.61	61.47
611.945	61.51
612.281	61.58
612.616	61.61
612.951	61.72
613.286	61.67
613.621	61.82
613.956	61.78
614.291	61.84
614.626	61.87
614.961	61.84
615.296	61.83
615.631	61.79
615.966	61.83
616.3	61.9
616.635	61.97
616.97	61.86
617.304	61.87
617.639	61.91
617.973	61.93
618.308	62.01
618.642	62.14
618.977	62.03
619.311	61.98
619.646	61.97
619.98	61.9
620.314	61.92
620.648	61.86
620.983	61.86
621.317	61.91
621.651	61.92
621.985	61.78
622.319	61.85
622.653	61.86
622.987	61.86
623.321	61.75
623.655	61.71
623.988	61.81
624.322	61.82
624.656	61.89
624.99	61.88
625.323	61.84
625.657	61.92
625.99	62.01
626.324	62.04
626.657	62.01
626.991	62.06
627.324	62.05
627.658	62.06
627.991	62.12
628.324	62.06
628.657	62.1
628.991	62.31
629.324	62.37
629.657	62.42
629.99	62.46
630.323	62.45
630.656	62.49
630.989	62.48
631.322	62.49
631.655	62.48
631.987	62.48
632.32	62.52
632.653	62.53
632.986	62.54
633.318	62.54
633.651	62.57
633.984	62.58
634.316	62.52
634.649	62.6
634.981	62.54
635.313	62.51
635.646	62.48
635.978	62.42
636.31	62.38
636.643	62.34
636.975	62.33
637.307	62.45
637.639	62.44
637.971	62.48
638.303	62.48
638.635	62.38
638.967	62.51
639.299	62.48
639.631	62.48
639.963	62.47
640.295	62.41
640.626	62.46
640.958	62.48
641.29	62.59
641.621	62.39
641.953	62.43
642.285	62.43
642.616	62.51
642.948	62.49
643.279	62.46
643.61	62.44
643.942	62.45
644.273	62.47
644.604	62.52
644.936	62.62
645.267	62.63
645.598	62.71
645.929	62.52
646.26	62.54
646.591	62.52
646.922	62.51
647.253	62.5
647.584	62.6
647.915	62.66
648.245	62.75
648.576	62.96
648.907	62.96
649.238	63.07
649.568	63.06
649.899	63.12
650.229	63.21
650.56	63.3
650.89	63.23
651.221	63.27
651.551	63.28
651.882	63.24
652.212	63.2
652.542	63.18
652.872	63.28
653.203	63.25
653.533	63.12
653.863	63.11
654.193	63.14
654.523	63.1
654.853	63.12
655.183	63.16
655.513	63.1
655.843	63.16
656.172	63.24
656.502	63.17
656.832	63.13
657.162	63.2
657.491	63.24
657.821	63.33
658.15	63.24
658.48	63.3
658.809	63.26
659.139	63.26
659.468	63.27
659.798	63.27
660.127	63.43
660.456	63.49
660.785	63.57
661.115	63.63
661.444	63.62
661.773	63.59
662.102	63.3
662.431	63.29
662.76	63.32
663.089	63.31
663.418	63.45
663.747	63.55
664.076	63.39
664.404	63.48
