Data from MVZ_BU165823_Reflection_00002.txt Node
Date: Tue Nov 19 12:10:17 EST 2019
User: vgr7
Spectrometer: USB2G7710
Scans to average: 3
Trigger mode: 4
Integration Time (sec): 2.000000E-2
Electric dark correction enabled: true
Boxcar width: 10
XAxis mode: Wavelengths
Number of Pixels in Spectrum: 2048
>>>>>Begin Spectral Data<<<<<
177.721	78.53
178.105	51.61
178.488	59.83
178.871	65.29
179.254	10.64
179.636	29.8
180.019	14.65
180.402	212.5
180.785	31.15
181.168	141.78
181.55	241.63
181.933	208.64
182.316	533.53
182.698	6918.18
183.081	735.04
183.463	-1229.9
183.846	-3267.35
184.228	-398.89
184.611	-179.81
184.993	-110.15
185.376	-90.19
185.758	-57.57
186.14	-72.01
186.522	-61.82
186.904	-59.79
187.287	-77.58
187.669	-64.27
188.051	-75.2
188.433	-101.25
188.815	-91.42
189.197	-60.44
189.579	-55.39
189.961	-47.72
190.342	-39.87
190.724	-62.38
191.106	-67.17
191.488	-55.58
191.869	-19.2
192.251	-16.29
192.633	-14.55
193.014	-47.18
193.396	-41.33
193.777	-53.46
194.159	-58.39
194.54	-23.26
194.922	-34.83
195.303	-27.74
195.684	-20.46
196.065	-16.05
196.447	-14.87
196.828	-38.92
197.209	-58.52
197.59	-52.33
197.971	-45.81
198.352	-56.45
198.733	-42.28
199.114	-12.21
199.495	-12.82
199.876	-38.78
200.257	-54.75
200.638	-60.09
201.018	-48.48
201.399	-122.88
201.78	-73.87
202.16	-83.82
202.541	-122.33
202.922	-135.73
203.302	-131.15
203.683	-127.87
204.063	-98.81
204.444	-82.35
204.824	-60.74
205.204	-61.83
205.585	-46.27
205.965	-50.86
206.345	-41.53
206.725	-33.26
207.106	-28.42
207.486	-26.08
207.866	-35.83
208.246	-22.66
208.626	-31.66
209.006	-26.14
209.386	-7.19
209.766	-7.02
210.145	-6.05
210.525	8.86
210.905	20.41
211.285	25.09
211.664	36.35
212.044	32.95
212.424	29.93
212.803	21.75
213.183	19.11
213.562	25.18
213.942	25.96
214.321	20.85
214.701	15.08
215.08	14.24
215.459	31.19
215.838	40.09
216.218	33.25
216.597	26.3
216.976	18.44
217.355	5.9
217.734	5.16
218.113	5.23
218.492	-16.33
218.871	-37.7
219.25	-43.5
219.629	-72.37
220.008	-87.86
220.387	-94.54
220.766	-70.72
221.144	-59
221.523	-84.29
221.902	-85.38
222.28	-93.87
222.659	-59.19
223.037	-68.66
223.416	-75.05
223.794	-57.69
224.173	-56.68
224.551	-49.13
224.929	-37.95
225.308	-31.74
225.686	-27.66
226.064	-25.94
226.442	-20.36
226.821	-12.06
227.199	-9.53
227.577	-7.48
227.955	-0.07
228.333	0.26
228.711	-5.1
229.089	-4.61
229.467	-3.25
229.845	-2
230.222	-1.39
230.6	-3.49
230.978	-0.81
231.356	-0.29
231.733	-0.4
232.111	0.23
232.488	0.33
232.866	0.82
233.243	1.27
233.621	1.02
233.998	0.42
234.376	2.37
234.753	1.51
235.13	-0.25
235.508	-0.21
235.885	-0.72
236.262	-3.16
236.639	-1.06
237.016	-0.59
237.393	0.92
237.77	1.35
238.147	1.31
238.524	3.04
238.901	2.51
239.278	2.93
239.655	2.83
240.032	2.44
240.409	2.32
240.785	2.44
241.162	2.41
241.539	2.76
241.915	2.13
242.292	2.12
242.668	2.08
243.045	3.08
243.421	3.53
243.798	3.51
244.174	4.25
244.551	4.08
244.927	3.98
245.303	3.88
245.679	3.9
246.056	4.19
246.432	3.86
246.808	3.79
247.184	3.82
247.56	3.71
247.936	3.78
248.312	3.94
248.688	3.98
249.064	3.91
249.44	3.89
249.815	4.18
250.191	3.93
250.567	3.63
250.943	3.42
251.318	3.14
251.694	3.17
252.069	3.03
252.445	3.07
252.82	3.26
253.196	3.39
253.571	3.67
253.947	3.81
254.322	3.82
254.697	3.88
255.073	3.75
255.448	3.66
255.823	3.9
256.198	3.69
256.573	3.43
256.948	3.72
257.323	3.76
257.698	3.82
258.073	3.79
258.448	3.93
258.823	3.78
259.198	3.89
259.573	3.6
259.948	3.58
260.322	3.31
260.697	3.15
261.072	3.12
261.446	3.03
261.821	2.91
262.195	2.91
262.57	2.86
262.944	2.73
263.319	2.62
263.693	2.42
264.067	2.51
264.442	2.53
264.816	2.32
265.19	2.21
265.564	2.22
265.938	2.27
266.313	2.2
266.687	2.41
267.061	2.15
267.435	2.38
267.809	2.3
268.183	2.66
268.556	2.61
268.93	2.4
269.304	2.27
269.678	2.08
270.051	2.11
270.425	2.28
270.799	2.36
271.172	2.42
271.546	2.56
271.919	2.51
272.293	2.67
272.666	2.83
273.04	2.87
273.413	2.69
273.787	2.69
274.16	2.74
274.533	2.76
274.906	2.94
275.279	2.79
275.653	2.84
276.026	2.86
276.399	2.93
276.772	3.02
277.145	3.35
277.518	3.34
277.891	3.24
278.263	3.28
278.636	3.38
279.009	3.59
279.382	3.44
279.755	3.41
280.127	3.38
280.5	3.17
280.872	3.08
281.245	3.19
281.617	3.31
281.99	3.29
282.362	3.21
282.735	3.15
283.107	3.18
283.479	3.1
283.852	2.95
284.224	2.9
284.596	2.95
284.968	2.74
285.34	2.79
285.713	2.85
286.085	2.78
286.457	2.69
286.829	2.51
287.201	2.7
287.572	2.71
287.944	2.63
288.316	2.62
288.688	2.79
289.06	2.74
289.431	2.72
289.803	2.72
290.175	2.65
290.546	2.57
290.918	2.67
291.289	2.59
291.661	2.8
292.032	2.8
292.403	2.66
292.775	2.73
293.146	2.79
293.517	2.92
293.889	2.92
294.26	2.86
294.631	3.06
295.002	3.08
295.373	3.03
295.744	3.11
296.115	3.1
296.486	3.01
296.857	3.11
297.228	3.13
297.599	3.14
297.97	3.19
298.34	3.35
298.711	3.49
299.082	3.63
299.452	3.59
299.823	3.7
300.194	3.91
300.564	3.76
300.935	3.72
301.305	3.64
301.676	3.62
302.046	3.77
302.416	3.65
302.787	3.65
303.157	3.78
303.527	3.83
303.897	3.89
304.267	4.05
304.637	4.16
305.008	4.21
305.378	4.25
305.748	4.3
306.117	4.25
306.487	4.2
306.857	4.32
307.227	4.33
307.597	4.21
307.967	4.06
308.336	4.02
308.706	4.12
309.076	4.09
309.445	4.13
309.815	3.98
310.184	3.86
310.554	3.72
310.923	3.7
311.293	3.7
311.662	3.8
312.031	3.65
312.401	3.32
312.77	3.2
313.139	3.21
313.508	3.19
313.877	3.05
314.246	2.81
314.616	2.68
314.985	2.67
315.353	2.77
315.722	2.87
316.091	3.04
316.46	3.03
316.829	2.97
317.198	2.96
317.567	3.18
317.935	3.35
318.304	3.42
318.672	3.33
319.041	3.22
319.41	3.16
319.778	3.21
320.147	3.5
320.515	3.55
320.883	3.41
321.252	3.32
321.62	3.3
321.988	3.52
322.357	3.54
322.725	3.33
323.093	3.33
323.461	3.25
323.829	3.33
324.197	3.24
324.565	3.38
324.933	3.26
325.301	3.02
325.669	2.93
326.037	2.88
326.405	2.9
326.772	2.93
327.14	2.94
327.508	2.77
327.875	2.68
328.243	2.62
328.61	2.64
328.978	2.76
329.346	2.97
329.713	3.04
330.08	3.03
330.448	3.08
330.815	2.92
331.182	2.88
331.55	2.77
331.917	2.91
332.284	2.78
332.651	3.03
333.018	3.12
333.385	3.21
333.752	3.19
334.119	3.31
334.486	3.3
334.853	3.13
335.22	3.16
335.587	3.19
335.954	3.2
336.32	3.17
336.687	3.16
337.054	3.11
337.42	2.89
337.787	3
338.153	3.14
338.52	3.31
338.886	3.33
339.253	3.27
339.619	3.22
339.986	3.24
340.352	3.04
340.718	3.19
341.084	3.16
341.451	3.28
341.817	3.14
342.183	3.16
342.549	3.36
342.915	3.42
343.281	3.43
343.647	3.39
344.013	3.55
344.379	3.47
344.745	3.36
345.11	3.45
345.476	3.43
345.842	3.25
346.208	3.25
346.573	3.35
346.939	3.42
347.304	3.33
347.67	3.33
348.035	3.41
348.401	3.32
348.766	3.26
349.132	3.28
349.497	3.28
349.862	3.27
350.228	3.17
350.593	3.11
350.958	3.08
351.323	3.06
351.688	2.89
352.053	2.94
352.418	3.02
352.783	3.04
353.148	2.89
353.513	3.04
353.878	2.93
354.243	2.89
354.608	2.83
354.972	2.86
355.337	2.89
355.702	2.84
356.066	2.85
356.431	2.86
356.795	2.85
357.16	2.92
357.524	2.82
357.889	2.73
358.253	2.8
358.618	2.82
358.982	2.92
359.346	3.04
359.71	3.01
360.075	3.03
360.439	3.02
360.803	3.13
361.167	3.11
361.531	3.12
361.895	3.12
362.259	3.14
362.623	3.2
362.987	3.17
363.351	3.21
363.714	3.2
364.078	3.23
364.442	3.16
364.806	3.15
365.169	3.2
365.533	3.31
365.896	3.34
366.26	3.33
366.623	3.28
366.987	3.28
367.35	3.3
367.714	3.3
368.077	3.36
368.44	3.29
368.803	3.27
369.167	3.23
369.53	3.21
369.893	3.24
370.256	3.1
370.619	3.1
370.982	2.98
371.345	2.96
371.708	2.97
372.071	3
372.434	3.03
372.797	3.12
373.159	3.11
373.522	3.09
373.885	3.03
374.247	3.03
374.61	3.03
374.973	2.98
375.335	3
375.698	2.91
376.06	2.88
376.423	2.87
376.785	2.94
377.147	2.93
377.51	2.91
377.872	2.98
378.234	3.01
378.596	3.1
378.958	3.1
379.321	3.09
379.683	3.08
380.045	3.07
380.407	3.03
380.769	3.04
381.13	3.02
381.492	3.02
381.854	3.05
382.216	3.05
382.578	3.08
382.939	3.06
383.301	3.06
383.663	3.14
384.024	3.13
384.386	3.09
384.747	3.07
385.109	3.08
385.47	3.07
385.832	3.08
386.193	3.04
386.554	3.03
386.916	3.06
387.277	3.06
387.638	3.07
387.999	3.12
388.36	3.11
388.721	3.11
389.082	3.18
389.443	3.17
389.804	3.14
390.165	3.17
390.526	3.18
390.887	3.16
391.248	3.1
391.609	3.11
391.969	3.13
392.33	3.15
392.691	3.18
393.051	3.19
393.412	3.2
393.772	3.23
394.133	3.26
394.493	3.27
394.854	3.28
395.214	3.32
395.574	3.25
395.935	3.24
396.295	3.26
396.655	3.23
397.015	3.23
397.376	3.25
397.736	3.21
398.096	3.22
398.456	3.25
398.816	3.25
399.176	3.2
399.535	3.19
399.895	3.15
400.255	3.12
400.615	3.14
400.975	3.13
401.334	3.12
401.694	3.09
402.054	3.09
402.413	3.08
402.773	3.02
403.132	3.08
403.492	3.12
403.851	3.1
404.211	3.11
404.57	3.14
404.929	3.11
405.288	3.14
405.648	3.11
406.007	3.13
406.366	3.14
406.725	3.17
407.084	3.2
407.443	3.25
407.802	3.26
408.161	3.26
408.52	3.29
408.879	3.29
409.238	3.31
409.596	3.3
409.955	3.29
410.314	3.32
410.673	3.28
411.031	3.25
411.39	3.27
411.748	3.29
412.107	3.24
412.465	3.26
412.824	3.23
413.182	3.25
413.54	3.23
413.899	3.24
414.257	3.25
414.615	3.21
414.974	3.22
415.332	3.2
415.69	3.2
416.048	3.18
416.406	3.17
416.764	3.18
417.122	3.17
417.48	3.19
417.838	3.21
418.195	3.21
418.553	3.22
418.911	3.21
419.269	3.22
419.626	3.23
419.984	3.22
420.342	3.23
420.699	3.24
421.057	3.23
421.414	3.25
421.772	3.25
422.129	3.26
422.486	3.24
422.844	3.26
423.201	3.25
423.558	3.24
423.915	3.25
424.273	3.25
424.63	3.25
424.987	3.25
425.344	3.23
425.701	3.24
426.058	3.23
426.415	3.22
426.772	3.2
427.128	3.21
427.485	3.23
427.842	3.22
428.199	3.22
428.555	3.23
428.912	3.2
429.269	3.2
429.625	3.2
429.982	3.23
430.338	3.23
430.695	3.22
431.051	3.24
431.407	3.26
431.764	3.25
432.12	3.29
432.476	3.28
432.832	3.29
433.189	3.27
433.545	3.28
433.901	3.3
434.257	3.3
434.613	3.29
434.969	3.28
435.325	3.28
435.681	3.27
436.036	3.27
436.392	3.29
436.748	3.28
437.104	3.3
437.459	3.28
437.815	3.28
438.171	3.29
438.526	3.31
438.882	3.31
439.237	3.35
439.593	3.34
439.948	3.35
440.304	3.36
440.659	3.37
441.014	3.36
441.369	3.37
441.725	3.37
442.08	3.39
442.435	3.4
442.79	3.39
443.145	3.41
443.5	3.41
443.855	3.4
444.21	3.41
444.565	3.42
444.92	3.42
445.275	3.43
445.629	3.44
445.984	3.41
446.339	3.42
446.693	3.4
447.048	3.37
447.403	3.36
447.757	3.36
448.112	3.36
448.466	3.37
448.82	3.38
449.175	3.37
449.529	3.38
449.883	3.37
450.238	3.36
450.592	3.35
450.946	3.35
451.3	3.38
451.654	3.38
452.008	3.38
452.362	3.38
452.716	3.36
453.07	3.36
453.424	3.36
453.778	3.36
454.132	3.36
454.486	3.39
454.839	3.38
455.193	3.38
455.547	3.37
455.9	3.33
456.254	3.33
456.607	3.32
456.961	3.31
457.314	3.33
457.668	3.35
458.021	3.36
458.375	3.35
458.728	3.34
459.081	3.35
459.434	3.33
459.787	3.35
460.141	3.36
460.494	3.37
460.847	3.37
461.2	3.38
461.553	3.4
461.906	3.37
462.259	3.37
462.611	3.4
462.964	3.42
463.317	3.44
463.67	3.44
464.022	3.46
464.375	3.44
464.728	3.44
465.08	3.43
465.433	3.44
465.785	3.46
466.138	3.46
466.49	3.47
466.843	3.49
467.195	3.46
467.547	3.45
467.899	3.45
468.252	3.44
468.604	3.42
468.956	3.4
469.308	3.42
469.66	3.43
470.012	3.42
470.364	3.42
470.716	3.44
471.068	3.45
471.42	3.46
471.772	3.47
472.123	3.47
472.475	3.49
472.827	3.48
473.178	3.51
473.53	3.48
473.882	3.48
474.233	3.48
474.585	3.49
474.936	3.5
475.288	3.5
475.639	3.51
475.99	3.51
476.342	3.53
476.693	3.51
477.044	3.52
477.395	3.51
477.746	3.5
478.097	3.48
478.448	3.48
478.8	3.47
479.15	3.49
479.501	3.46
479.852	3.45
480.203	3.47
480.554	3.46
480.905	3.48
481.255	3.47
481.606	3.48
481.957	3.48
482.307	3.48
482.658	3.49
483.009	3.49
483.359	3.5
483.709	3.51
484.06	3.51
484.41	3.52
484.761	3.52
485.111	3.53
485.461	3.53
485.811	3.53
486.162	3.52
486.512	3.52
486.862	3.53
487.212	3.54
487.562	3.53
487.912	3.53
488.262	3.53
488.612	3.54
488.961	3.54
489.311	3.53
489.661	3.53
490.011	3.52
490.36	3.52
490.71	3.52
491.06	3.52
491.409	3.51
491.759	3.51
492.108	3.5
492.458	3.5
492.807	3.49
493.157	3.5
493.506	3.5
493.855	3.5
494.204	3.49
494.554	3.49
494.903	3.49
495.252	3.48
495.601	3.48
495.95	3.48
496.299	3.47
496.648	3.46
496.997	3.46
497.346	3.47
497.695	3.46
498.043	3.47
498.392	3.46
498.741	3.46
499.09	3.47
499.438	3.49
499.787	3.5
500.135	3.51
500.484	3.51
500.832	3.5
501.181	3.52
501.529	3.53
501.878	3.52
502.226	3.51
502.574	3.54
502.923	3.52
503.271	3.55
503.619	3.56
503.967	3.57
504.315	3.57
504.663	3.56
505.011	3.55
505.359	3.53
505.707	3.54
506.055	3.55
506.403	3.55
506.751	3.55
507.098	3.55
507.446	3.54
507.794	3.53
508.141	3.54
508.489	3.54
508.837	3.54
509.184	3.55
509.531	3.55
509.879	3.56
510.226	3.59
510.574	3.57
510.921	3.57
511.268	3.58
511.616	3.58
511.963	3.6
512.31	3.6
512.657	3.62
513.004	3.58
513.351	3.57
513.698	3.58
514.045	3.55
514.392	3.54
514.739	3.57
515.086	3.6
515.432	3.62
515.779	3.62
516.126	3.64
516.473	3.65
516.819	3.66
517.166	3.65
517.512	3.62
517.859	3.63
518.205	3.62
518.552	3.63
518.898	3.63
519.245	3.63
519.591	3.65
519.937	3.68
520.283	3.7
520.629	3.69
520.976	3.7
521.322	3.72
521.668	3.7
522.014	3.7
522.36	3.67
522.706	3.64
523.052	3.65
523.398	3.64
523.743	3.64
524.089	3.64
524.435	3.64
524.781	3.67
525.126	3.66
525.472	3.67
525.817	3.66
526.163	3.66
526.509	3.67
526.854	3.66
527.199	3.65
527.545	3.65
527.89	3.67
528.235	3.66
528.581	3.65
528.926	3.65
529.271	3.65
529.616	3.67
529.961	3.68
530.306	3.67
530.651	3.67
530.996	3.68
531.341	3.69
531.686	3.69
532.031	3.69
532.376	3.7
532.721	3.71
533.065	3.72
533.41	3.73
533.755	3.72
534.099	3.74
534.444	3.73
534.788	3.72
535.133	3.72
535.477	3.74
535.822	3.75
536.166	3.77
536.51	3.76
536.855	3.76
537.199	3.75
537.543	3.76
537.887	3.77
538.231	3.77
538.576	3.76
538.92	3.76
539.264	3.76
539.608	3.76
539.951	3.76
540.295	3.77
540.639	3.77
540.983	3.77
541.327	3.76
541.671	3.76
542.014	3.79
542.358	3.81
542.701	3.8
543.045	3.81
543.389	3.81
543.732	3.82
544.075	3.84
544.419	3.85
544.762	3.86
545.105	3.85
545.449	3.85
545.792	3.86
546.135	3.86
546.478	3.87
546.821	3.88
547.165	3.87
547.508	3.87
547.851	3.87
548.194	3.85
548.536	3.86
548.879	3.83
549.222	3.81
549.565	3.77
549.908	3.79
550.25	3.76
550.593	3.77
550.936	3.76
551.278	3.73
551.621	3.73
551.963	3.73
552.306	3.74
552.648	3.75
552.991	3.74
553.333	3.71
553.675	3.68
554.017	3.67
554.36	3.67
554.702	3.66
555.044	3.66
555.386	3.69
555.728	3.69
556.07	3.73
556.412	3.73
556.754	3.74
557.096	3.73
557.438	3.75
557.78	3.75
558.121	3.75
558.463	3.75
558.805	3.74
559.147	3.72
559.488	3.73
559.83	3.73
560.171	3.72
560.513	3.73
560.854	3.74
561.196	3.75
561.537	3.79
561.878	3.8
562.22	3.82
562.561	3.82
562.902	3.8
563.243	3.82
563.584	3.85
563.925	3.91
564.266	3.88
564.607	3.85
564.948	3.82
565.289	3.82
565.63	3.82
565.971	3.83
566.312	3.82
566.653	3.82
566.993	3.81
567.334	3.84
567.675	3.87
568.015	3.86
568.356	3.86
568.696	3.85
569.037	3.87
569.377	3.85
569.718	3.85
570.058	3.86
570.398	3.79
570.739	3.77
571.079	3.73
571.419	3.75
571.759	3.76
572.099	3.76
572.439	3.73
572.779	3.73
573.119	3.73
573.459	3.75
573.799	3.72
574.139	3.71
574.479	3.73
574.819	3.72
575.158	3.76
575.498	3.77
575.838	3.75
576.177	3.73
576.517	3.74
576.856	3.72
577.196	3.75
577.535	3.79
577.875	3.81
578.214	3.8
578.553	3.81
578.893	3.83
579.232	3.86
579.571	3.89
579.91	3.93
580.25	3.93
580.589	3.92
580.928	3.94
581.267	3.97
581.606	3.93
581.945	3.88
582.283	3.86
582.622	3.81
582.961	3.83
583.3	3.78
583.639	3.75
583.977	3.8
584.316	3.81
584.654	3.84
584.993	3.83
585.332	3.81
585.67	3.8
586.008	3.77
586.347	3.77
586.685	3.75
587.024	3.74
587.362	3.77
587.7	3.77
588.038	3.81
588.376	3.82
588.715	3.79
589.053	3.82
589.391	3.82
589.729	3.84
590.067	3.83
590.404	3.91
590.742	3.94
591.08	3.91
591.418	3.9
591.756	3.89
592.093	3.9
592.431	3.91
592.769	3.94
593.106	3.95
593.444	3.92
593.781	3.94
594.119	3.96
594.456	3.93
594.793	3.95
595.131	3.96
595.468	3.99
595.805	4.01
596.143	4.02
596.48	3.99
596.817	4.02
597.154	4.02
597.491	4.01
597.828	3.98
598.165	3.95
598.502	3.93
598.839	3.94
599.176	3.96
599.512	3.98
599.849	3.98
600.186	3.97
600.523	4.01
600.859	4.04
601.196	3.98
601.532	3.99
601.869	3.97
602.205	3.94
602.542	3.9
602.878	3.9
603.215	3.92
603.551	3.94
603.887	3.91
604.223	3.91
604.56	3.89
604.896	3.91
605.232	3.94
605.568	3.96
605.904	3.96
606.24	3.95
606.576	3.95
606.912	3.92
607.248	3.97
607.583	3.97
607.919	3.93
608.255	3.98
608.591	3.99
608.926	3.97
609.262	3.96
609.597	3.98
609.933	3.99
610.268	3.98
610.604	4.01
610.939	4.04
611.275	4
611.61	4.02
611.945	3.95
612.281	3.98
612.616	4
612.951	4.04
613.286	4.03
613.621	4.03
613.956	4.08
614.291	4.08
614.626	4.11
614.961	4.15
615.296	4.16
615.631	4.15
615.966	4.18
616.3	4.2
616.635	4.15
616.97	4.16
617.304	4.19
617.639	4.16
617.973	4.16
618.308	4.25
618.642	4.24
618.977	4.3
619.311	4.27
619.646	4.28
619.98	4.25
620.314	4.22
620.648	4.19
620.983	4.1
621.317	4.09
621.651	4.06
621.985	4.06
622.319	4.03
622.653	4.04
622.987	4.04
623.321	4.01
623.655	4.06
623.988	4.06
624.322	4.08
624.656	4.07
624.99	4.02
625.323	3.95
625.657	3.98
625.99	4.03
626.324	4.02
626.657	3.98
626.991	3.98
627.324	3.99
627.658	3.98
627.991	4.08
628.324	4.05
628.657	4.08
628.991	4.1
629.324	4.09
629.657	4.09
629.99	4.14
630.323	4.17
630.656	4.13
630.989	4.14
631.322	4.1
631.655	4.14
631.987	4.17
632.32	4.19
632.653	4.21
632.986	4.13
633.318	4.15
633.651	4.16
633.984	4.17
634.316	4.2
634.649	4.26
634.981	4.26
635.313	4.24
635.646	4.21
635.978	4.16
636.31	4.17
636.643	4.14
636.975	4.13
637.307	4.15
637.639	4.16
637.971	4.16
638.303	4.14
638.635	4.12
638.967	4.12
639.299	4.11
639.631	4.15
639.963	4.14
640.295	4.13
640.626	4.14
640.958	4.1
641.29	4.1
641.621	4.04
641.953	3.97
642.285	4.06
642.616	4.06
642.948	4.08
643.279	4.12
643.61	4.18
643.942	4.18
644.273	4.19
644.604	4.25
644.936	4.28
645.267	4.22
645.598	4.23
645.929	4.21
646.26	4.22
646.591	4.15
646.922	4.18
647.253	4.15
647.584	4.1
647.915	4.12
648.245	4.16
648.576	4.11
648.907	4.12
649.238	4
649.568	3.93
649.899	3.93
650.229	3.92
650.56	3.88
650.89	3.89
651.221	3.83
651.551	3.88
651.882	3.83
652.212	3.91
652.542	3.92
652.872	3.93
653.203	3.95
653.533	4
653.863	4.09
654.193	4.07
654.523	4.09
654.853	4.2
655.183	4.23
655.513	4.35
655.843	4.39
656.172	4.51
656.502	4.53
656.832	4.49
657.162	4.46
657.491	4.52
657.821	4.52
658.15	4.6
658.48	4.54
658.809	4.55
659.139	4.54
659.468	4.52
659.798	4.51
660.127	4.47
660.456	4.4
660.785	4.3
661.115	4.39
661.444	4.37
661.773	4.29
662.102	4.16
662.431	4.13
662.76	4.16
663.089	4.13
663.418	4.24
663.747	4.3
664.076	4.3
664.404	4.36
664.733	4.38
665.062	4.4
665.39	4.38
665.719	4.38
666.048	4.42
666.376	4.44
666.705	4.44
667.033	4.5
667.362	4.55
667.69	4.66
668.018	4.66
668.347	4.79
668.675	4.81
669.003	4.89
669.331	4.88
669.659	4.83
669.987	4.84
670.315	4.69
670.643	4.66
670.971	4.66
671.299	4.6
671.627	4.45
671.955	4.42
672.283	4.45
672.61	4.51
672.938	4.65
673.266	4.59
673.593	4.55
673.921	4.49
674.249	4.5
674.576	4.52
674.904	4.44
675.231	4.36
675.558	4.34
675.886	4.38
676.213	4.39
676.54	4.35
676.867	4.34
677.195	4.48
