Data from MVZ_BU8943_Reflection_00005.txt Node
Date: Tue Nov 19 12:09:03 EST 2019
User: vgr7
Spectrometer: USB2G7710
Scans to average: 3
Trigger mode: 4
Integration Time (sec): 2.000000E-2
Electric dark correction enabled: true
Boxcar width: 10
XAxis mode: Wavelengths
Number of Pixels in Spectrum: 2048
>>>>>Begin Spectral Data<<<<<
177.721	-6.97
178.105	-442.55
178.488	320.83
178.871	153.42
179.254	452.94
179.636	117.75
180.019	19.94
180.402	120
180.785	37.66
181.168	153.3
181.55	112.96
181.933	171.24
182.316	181.89
182.698	87100
183.081	-659.04
183.463	618.8
183.846	735.76
184.228	1239.24
184.611	-308.56
184.993	-126.49
185.376	-131.42
185.758	-117.04
186.14	-205.96
186.522	-203.29
186.904	-130.05
187.287	-114.46
187.669	-76.36
188.051	-86.81
188.433	-92.71
188.815	-81.19
189.197	-63.66
189.579	-65.88
189.961	-59.96
190.342	-48.16
190.724	-72.5
191.106	-103.75
191.488	-119.75
191.869	-89.01
192.251	-129.53
192.633	-161.3
193.014	-187.98
193.396	-254.58
193.777	-258.66
194.159	-202.96
194.54	-232.59
194.922	-312.07
195.303	-331.65
195.684	-2103.54
196.065	-1783.21
196.447	204100
196.828	2308.79
197.209	-10664.71
197.59	365.93
197.971	418.8
198.352	278.64
198.733	718.09
199.114	821.8
199.495	-732.37
199.876	-780.24
200.257	-226.45
200.638	-261.18
201.018	-255.62
201.399	-113.88
201.78	-106.68
202.16	-188.61
202.541	-226.36
202.922	-555.46
203.302	-381.75
203.683	-418.92
204.063	-133.01
204.444	-122.03
204.824	-65.52
205.204	-93.9
205.585	-72.05
205.965	-100.27
206.345	-94.49
206.725	-72.37
207.106	-37.21
207.486	-41.4
207.866	-100.3
208.246	-44.62
208.626	-58.13
209.006	-136.66
209.386	-139.4
209.766	-176.92
210.145	-91.37
210.525	-177.61
210.905	-144.64
211.285	-239.9
211.664	-57.28
212.044	-375.25
212.424	-302.68
212.803	290.81
213.183	700
213.562	803.45
213.942	1250.68
214.321	-535.47
214.701	2262.79
215.08	3874.19
215.459	-761.39
215.838	548.82
216.218	165.93
216.597	252.99
216.976	317.16
217.355	1919.67
217.734	-2238.98
218.113	810.06
218.492	-12718.18
218.871	-743.24
219.25	-813.71
219.629	-1412.61
220.008	-210.02
220.387	-144.59
220.766	-71.86
221.144	-65.14
221.523	-41.1
221.902	-30.73
222.28	-40.34
222.659	-28.83
223.037	-32.9
223.416	-35.48
223.794	-17.42
224.173	-13.63
224.551	-12.21
224.929	-19.19
225.308	-25.99
225.686	-29.27
226.064	-38.41
226.442	-29.88
226.821	-31.66
227.199	-25.02
227.577	-17.46
227.955	-15.3
228.333	-18.39
228.711	-14.65
229.089	-16.86
229.467	-20.06
229.845	-23.98
230.222	-21.76
230.6	-22.87
230.978	-21.72
231.356	-19.75
231.733	-21.54
232.111	-19.38
232.488	-16.67
232.866	-11.3
233.243	-9.73
233.621	-5.69
233.998	-4
234.376	-5.87
234.753	-3.95
235.13	-2.63
235.508	-3.7
235.885	-5.36
236.262	-4.84
236.639	-5.41
237.016	-3.79
237.393	-2.74
237.77	-0.27
238.147	0.24
238.524	0.37
238.901	0.38
239.278	0.06
239.655	0.82
240.032	1.29
240.409	1.17
240.785	0.84
241.162	0.84
241.539	1.06
241.915	2.07
242.292	2.94
242.668	2.96
243.045	2.63
243.421	2.89
243.798	3.12
244.174	3.53
244.551	3.66
244.927	3.9
245.303	4.09
245.679	3.97
246.056	4.08
246.432	4.51
246.808	4.63
247.184	4.87
247.56	4.84
247.936	4.5
248.312	4.66
248.688	4.64
249.064	4.61
249.44	4.31
249.815	4.08
250.191	3.89
250.567	3.82
250.943	3.95
251.318	4
251.694	3.73
252.069	3.54
252.445	3.45
252.82	3.52
253.196	3.46
253.571	3.55
253.947	3.5
254.322	3.4
254.697	3.43
255.073	3.36
255.448	3.35
255.823	4.06
256.198	3.8
256.573	3.71
256.948	3.98
257.323	4.26
257.698	4.48
258.073	4.58
258.448	4.76
258.823	4.49
259.198	4.42
259.573	4.54
259.948	4.64
260.322	4.6
260.697	4.39
261.072	4.44
261.446	4.47
261.821	4.26
262.195	4.14
262.57	4.12
262.944	4.08
263.319	4.19
263.693	3.9
264.067	3.89
264.442	4.07
264.816	4.07
265.19	4
265.564	3.64
265.938	3.69
266.313	3.37
266.687	3.53
267.061	3.51
267.435	3.51
267.809	3.29
268.183	3.06
268.556	3.21
268.93	3.29
269.304	3.17
269.678	3.47
270.051	3.34
270.425	3.36
270.799	3.12
271.172	2.89
271.546	3.09
271.919	3.03
272.293	3.02
272.666	2.92
273.04	3.05
273.413	3.17
273.787	3.11
274.16	3.19
274.533	3.38
274.906	3.3
275.279	3.17
275.653	3.17
276.026	3.45
276.399	3.58
276.772	3.33
277.145	3.34
277.518	3.14
277.891	3.34
278.263	3.46
278.636	3.84
279.009	4.13
279.382	3.92
279.755	4.04
280.127	4.02
280.5	3.92
280.872	3.84
281.245	3.93
281.617	3.91
281.99	4.01
282.362	3.65
282.735	3.72
283.107	3.81
283.479	3.9
283.852	3.93
284.224	3.81
284.596	3.85
284.968	3.8
285.34	3.79
285.713	3.81
286.085	3.74
286.457	3.72
286.829	3.7
287.201	3.66
287.572	3.65
287.944	3.7
288.316	3.84
288.688	4.04
289.06	4.01
289.431	4.14
289.803	4.27
290.175	4.33
290.546	4.47
290.918	4.51
291.289	4.41
291.661	4.24
292.032	4.28
292.403	4.38
292.775	4.73
293.146	4.91
293.517	4.98
293.889	5.01
294.26	4.85
294.631	4.82
295.002	5.03
295.373	4.97
295.744	4.93
296.115	4.9
296.486	4.74
296.857	4.73
297.228	4.49
297.599	4.43
297.97	4.64
298.34	4.47
298.711	4.43
299.082	4.54
299.452	4.49
299.823	4.4
300.194	4.39
300.564	4.14
300.935	4.29
301.305	4.14
301.676	4.09
302.046	4.11
302.416	4.25
302.787	4.19
303.157	4.19
303.527	4.27
303.897	4.28
304.267	4.16
304.637	4.29
305.008	4.46
305.378	4.23
305.748	4.06
306.117	4.07
306.487	4.05
306.857	4.07
307.227	4.35
307.597	4.24
307.967	4.26
308.336	4.34
308.706	4.19
309.076	4.34
309.445	4.47
309.815	4.5
310.184	4.2
310.554	4.13
310.923	4.15
311.293	4.13
311.662	4.2
312.031	4.37
312.401	4.33
312.77	4.27
313.139	4.35
313.508	4.36
313.877	4.37
314.246	4.4
314.616	4.45
314.985	4.19
315.353	4.5
315.722	4.51
316.091	4.41
316.46	4.43
316.829	4.37
317.198	4.29
317.567	4.4
317.935	4.59
318.304	4.72
318.672	4.88
319.041	4.88
319.41	4.58
319.778	4.57
320.147	4.53
320.515	4.68
320.883	4.77
321.252	4.89
321.62	5.04
321.988	5.05
322.357	4.88
322.725	5.06
323.093	4.93
323.461	4.87
323.829	4.94
324.197	4.8
324.565	4.81
324.933	4.74
325.301	4.64
325.669	4.69
326.037	4.7
326.405	4.66
326.772	4.71
327.14	4.84
327.508	4.85
327.875	4.78
328.243	4.71
328.61	4.7
328.978	4.74
329.346	4.71
329.713	4.78
330.08	4.94
330.448	4.98
330.815	5.03
331.182	4.97
331.55	4.96
331.917	4.86
332.284	4.91
332.651	4.94
333.018	4.88
333.385	4.98
333.752	5
334.119	5.1
334.486	5.03
334.853	5.13
335.22	5.05
335.587	5.17
335.954	5.09
336.32	5.05
336.687	5.07
337.054	5.12
337.42	5.1
337.787	5.11
338.153	5.15
338.52	5.06
338.886	5.26
339.253	5.33
339.619	5.46
339.986	5.42
340.352	5.42
340.718	5.5
341.084	5.49
341.451	5.47
341.817	5.34
342.183	5.32
342.549	5.36
342.915	5.5
343.281	5.48
343.647	5.58
344.013	5.62
344.379	5.53
344.745	5.52
345.11	5.45
345.476	5.52
345.842	5.48
346.208	5.61
346.573	5.61
346.939	5.53
347.304	5.55
347.67	5.47
348.035	5.51
348.401	5.48
348.766	5.36
349.132	5.31
349.497	5.4
349.862	5.51
350.228	5.45
350.593	5.26
350.958	5.48
351.323	5.41
351.688	5.46
352.053	5.52
352.418	5.59
352.783	5.7
353.148	5.6
353.513	5.55
353.878	5.47
354.243	5.43
354.608	5.56
354.972	5.52
355.337	5.63
355.702	5.59
356.066	5.63
356.431	5.73
356.795	5.81
357.16	5.87
357.524	5.78
357.889	5.8
358.253	5.83
358.618	5.73
358.982	5.74
359.346	5.79
359.71	5.79
360.075	5.79
360.439	5.79
360.803	5.8
361.167	5.86
361.531	5.83
361.895	5.8
362.259	5.79
362.623	5.8
362.987	5.85
363.351	5.79
363.714	5.84
364.078	5.84
364.442	5.74
364.806	5.68
365.169	5.7
365.533	5.76
365.896	5.85
366.26	5.79
366.623	5.84
366.987	5.77
367.35	5.74
367.714	5.64
368.077	5.63
368.44	5.66
368.803	5.67
369.167	5.64
369.53	5.67
369.893	5.62
370.256	5.62
370.619	5.46
370.982	5.47
371.345	5.49
371.708	5.4
372.071	5.43
372.434	5.44
372.797	5.42
373.159	5.37
373.522	5.38
373.885	5.4
374.247	5.32
374.61	5.28
374.973	5.33
375.335	5.41
375.698	5.38
376.06	5.36
376.423	5.32
376.785	5.35
377.147	5.33
377.51	5.34
377.872	5.34
378.234	5.37
378.596	5.46
378.958	5.43
379.321	5.47
379.683	5.48
380.045	5.44
380.407	5.47
380.769	5.41
381.13	5.32
381.492	5.36
381.854	5.44
382.216	5.47
382.578	5.41
382.939	5.37
383.301	5.37
383.663	5.36
384.024	5.38
384.386	5.37
384.747	5.37
385.109	5.42
385.47	5.48
385.832	5.46
386.193	5.43
386.554	5.4
386.916	5.41
387.277	5.4
387.638	5.41
387.999	5.39
388.36	5.41
388.721	5.48
389.082	5.45
389.443	5.41
389.804	5.42
390.165	5.46
390.526	5.48
390.887	5.47
391.248	5.47
391.609	5.45
391.969	5.48
392.33	5.46
392.691	5.41
393.051	5.37
393.412	5.4
393.772	5.43
394.133	5.47
394.493	5.47
394.854	5.49
395.214	5.53
395.574	5.56
395.935	5.56
396.295	5.53
396.655	5.5
397.015	5.51
397.376	5.54
397.736	5.52
398.096	5.49
398.456	5.48
398.816	5.45
399.176	5.43
399.535	5.41
399.895	5.42
400.255	5.42
400.615	5.44
400.975	5.45
401.334	5.39
401.694	5.35
402.054	5.33
402.413	5.3
402.773	5.26
403.132	5.26
403.492	5.28
403.851	5.29
404.211	5.29
404.57	5.29
404.929	5.24
405.288	5.26
405.648	5.27
406.007	5.28
406.366	5.3
406.725	5.31
407.084	5.29
407.443	5.29
407.802	5.3
408.161	5.3
408.52	5.27
408.879	5.29
409.238	5.3
409.596	5.28
409.955	5.28
410.314	5.27
410.673	5.25
411.031	5.22
411.39	5.22
411.748	5.27
412.107	5.27
412.465	5.25
412.824	5.21
413.182	5.19
413.54	5.19
413.899	5.19
414.257	5.19
414.615	5.18
414.974	5.17
415.332	5.18
415.69	5.14
416.048	5.16
416.406	5.12
416.764	5.12
417.122	5.1
417.48	5.11
417.838	5.11
418.195	5.1
418.553	5.12
418.911	5.11
419.269	5.07
419.626	5.07
419.984	5.07
420.342	5.08
420.699	5.09
421.057	5.08
421.414	5.09
421.772	5.09
422.129	5.1
422.486	5.08
422.844	5.05
423.201	5.05
423.558	5.05
423.915	5.07
424.273	5.07
424.63	5.09
424.987	5.09
425.344	5.1
425.701	5.1
426.058	5.08
426.415	5.07
426.772	5.09
427.128	5.09
427.485	5.1
427.842	5.09
428.199	5.09
428.555	5.08
428.912	5.07
429.269	5.04
429.625	5.01
429.982	5.04
430.338	5.06
430.695	5.05
431.051	5.06
431.407	5.03
431.764	5.02
432.12	5.01
432.476	4.99
432.832	5
433.189	5.02
433.545	5.03
433.901	5.03
434.257	5
434.613	4.98
434.969	4.98
435.325	4.99
435.681	4.97
436.036	4.96
436.392	4.95
436.748	4.98
437.104	4.97
437.459	4.96
437.815	4.99
438.171	4.97
438.526	4.97
438.882	4.99
439.237	4.97
439.593	4.99
439.948	5
440.304	4.98
440.659	4.97
441.014	4.95
441.369	4.97
441.725	4.99
442.08	4.98
442.435	4.98
442.79	4.97
443.145	4.99
443.5	4.98
443.855	5
444.21	5
444.565	5.01
444.92	5.01
445.275	5
445.629	5.04
445.984	5.04
446.339	5.03
446.693	5.06
447.048	5.06
447.403	5.05
447.757	5.05
448.112	5.04
448.466	5.05
448.82	5.02
449.175	5.02
449.529	5.04
449.883	5.02
450.238	5.03
450.592	5.03
450.946	5.05
451.3	5.05
451.654	5.04
452.008	5.05
452.362	5.04
452.716	5.02
453.07	5.03
453.424	5.02
453.778	5.02
454.132	4.99
454.486	4.99
454.839	4.99
455.193	4.98
455.547	5
455.9	5.01
456.254	5.02
456.607	4.99
456.961	4.99
457.314	4.99
457.668	4.96
458.021	4.93
458.375	4.92
458.728	4.9
459.081	4.88
459.434	4.89
459.787	4.89
460.141	4.91
460.494	4.9
460.847	4.88
461.2	4.9
461.553	4.9
461.906	4.9
462.259	4.89
462.611	4.89
462.964	4.89
463.317	4.85
463.67	4.86
464.022	4.89
464.375	4.89
464.728	4.91
465.08	4.95
465.433	4.99
465.785	4.99
466.138	5.03
466.49	5.07
466.843	5.07
467.195	5.1
467.547	5.09
467.899	5.1
468.252	5.14
468.604	5.14
468.956	5.15
469.308	5.14
469.66	5.16
470.012	5.2
470.364	5.2
470.716	5.22
471.068	5.23
471.42	5.24
471.772	5.25
472.123	5.28
472.475	5.28
472.827	5.28
473.178	5.31
473.53	5.3
473.882	5.29
474.233	5.29
474.585	5.3
474.936	5.29
475.288	5.3
475.639	5.26
475.99	5.25
476.342	5.27
476.693	5.3
477.044	5.31
477.395	5.28
477.746	5.3
478.097	5.32
478.448	5.31
478.8	5.31
479.15	5.31
479.501	5.32
479.852	5.31
480.203	5.33
480.554	5.32
480.905	5.34
481.255	5.35
481.606	5.34
481.957	5.35
482.307	5.36
482.658	5.38
483.009	5.37
483.359	5.38
483.709	5.38
484.06	5.39
484.41	5.38
484.761	5.39
485.111	5.39
485.461	5.39
485.811	5.39
486.162	5.39
486.512	5.4
486.862	5.4
487.212	5.4
487.562	5.39
487.912	5.41
488.262	5.41
488.612	5.4
488.961	5.41
489.311	5.41
489.661	5.4
490.011	5.39
490.36	5.4
490.71	5.41
491.06	5.4
491.409	5.38
491.759	5.39
492.108	5.38
492.458	5.36
492.807	5.36
493.157	5.38
493.506	5.39
493.855	5.4
494.204	5.41
494.554	5.41
494.903	5.41
495.252	5.42
495.601	5.42
495.95	5.44
496.299	5.45
496.648	5.49
496.997	5.52
497.346	5.54
497.695	5.56
498.043	5.62
498.392	5.65
498.741	5.7
499.09	5.73
499.438	5.75
499.787	5.79
500.135	5.8
500.484	5.82
500.832	5.84
501.181	5.86
501.529	5.89
501.878	5.93
502.226	5.97
502.574	5.99
502.923	6.03
503.271	6.05
503.619	6.09
503.967	6.08
504.315	6.15
504.663	6.18
505.011	6.21
505.359	6.18
505.707	6.2
506.055	6.22
506.403	6.28
506.751	6.31
507.098	6.37
507.446	6.41
507.794	6.44
508.141	6.47
508.489	6.51
508.837	6.57
509.184	6.6
509.531	6.62
509.879	6.64
510.226	6.67
510.574	6.72
510.921	6.73
511.268	6.81
511.616	6.81
511.963	6.86
512.31	6.88
512.657	6.92
513.004	6.96
513.351	6.97
513.698	6.98
514.045	7.02
514.392	7.05
514.739	7.09
515.086	7.15
515.432	7.19
515.779	7.2
516.126	7.22
516.473	7.23
516.819	7.29
517.166	7.33
517.512	7.33
517.859	7.35
518.205	7.38
518.552	7.38
518.898	7.39
519.245	7.4
519.591	7.42
519.937	7.43
520.283	7.46
520.629	7.51
520.976	7.53
521.322	7.55
521.668	7.58
522.014	7.61
522.36	7.61
522.706	7.63
523.052	7.68
523.398	7.68
523.743	7.73
524.089	7.75
524.435	7.78
524.781	7.84
525.126	7.84
525.472	7.88
525.817	7.9
526.163	7.93
526.509	7.97
526.854	7.98
527.199	8.02
527.545	8.04
527.89	8.06
528.235	8.09
528.581	8.11
528.926	8.13
529.271	8.15
529.616	8.17
529.961	8.19
530.306	8.2
530.651	8.22
530.996	8.24
531.341	8.28
531.686	8.28
532.031	8.31
532.376	8.33
532.721	8.34
533.065	8.36
533.41	8.38
533.755	8.39
534.099	8.39
534.444	8.4
534.788	8.41
535.133	8.42
535.477	8.44
535.822	8.44
536.166	8.46
536.51	8.45
536.855	8.49
537.199	8.48
537.543	8.51
537.887	8.5
538.231	8.51
538.576	8.51
538.92	8.54
539.264	8.52
539.608	8.57
539.951	8.59
540.295	8.61
540.639	8.63
540.983	8.66
541.327	8.69
541.671	8.72
542.014	8.74
542.358	8.75
542.701	8.78
543.045	8.81
543.389	8.81
543.732	8.82
544.075	8.84
544.419	8.87
544.762	8.87
545.105	8.92
545.449	8.95
545.792	8.97
546.135	8.98
546.478	8.98
546.821	8.98
547.165	9.01
547.508	9.01
547.851	9.01
548.194	8.98
548.536	8.98
548.879	8.98
549.222	8.97
549.565	8.97
549.908	8.95
550.25	8.93
550.593	8.95
550.936	8.98
551.278	8.97
551.621	8.98
551.963	8.99
552.306	8.97
552.648	8.95
552.991	8.92
553.333	8.89
553.675	8.95
554.017	8.94
554.36	8.91
554.702	8.91
555.044	8.9
555.386	8.92
555.728	8.96
556.07	8.93
556.412	8.94
556.754	8.93
557.096	8.93
557.438	8.94
557.78	8.93
558.121	8.93
558.463	8.95
558.805	8.95
559.147	8.95
559.488	8.97
559.83	9.02
560.171	9.07
560.513	9.09
560.854	9.09
561.196	9.13
561.537	9.15
561.878	9.18
562.22	9.18
562.561	9.2
562.902	9.21
563.243	9.27
563.584	9.26
563.925	9.34
564.266	9.36
564.607	9.37
564.948	9.36
565.289	9.34
565.63	9.33
565.971	9.34
566.312	9.34
566.653	9.37
566.993	9.33
567.334	9.33
567.675	9.36
568.015	9.33
568.356	9.32
568.696	9.31
569.037	9.31
569.377	9.33
569.718	9.34
570.058	9.36
570.398	9.35
570.739	9.38
571.079	9.33
571.419	9.36
571.759	9.34
572.099	9.37
572.439	9.42
572.779	9.45
573.119	9.46
573.459	9.48
573.799	9.51
574.139	9.55
574.479	9.56
574.819	9.58
575.158	9.66
575.498	9.67
575.838	9.69
576.177	9.66
576.517	9.69
576.856	9.71
577.196	9.7
577.535	9.68
577.875	9.68
578.214	9.69
578.553	9.71
578.893	9.74
579.232	9.74
579.571	9.75
579.91	9.7
580.25	9.71
580.589	9.68
580.928	9.65
581.267	9.6
581.606	9.62
581.945	9.57
582.283	9.52
582.622	9.51
582.961	9.51
583.3	9.54
583.639	9.53
583.977	9.51
584.316	9.54
584.654	9.52
584.993	9.54
585.332	9.59
585.67	9.59
586.008	9.58
586.347	9.6
586.685	9.56
587.024	9.62
587.362	9.6
587.7	9.65
588.038	9.68
588.376	9.72
588.715	9.71
589.053	9.74
589.391	9.77
589.729	9.81
590.067	9.81
590.404	9.81
590.742	9.78
591.08	9.79
591.418	9.79
591.756	9.83
592.093	9.83
592.431	9.82
592.769	9.79
593.106	9.8
593.444	9.83
593.781	9.85
594.119	9.8
594.456	9.81
594.793	9.79
595.131	9.75
595.468	9.75
595.805	9.75
596.143	9.78
596.48	9.74
596.817	9.75
597.154	9.79
597.491	9.79
597.828	9.8
598.165	9.81
598.502	9.81
598.839	9.79
599.176	9.81
599.512	9.78
599.849	9.79
600.186	9.8
600.523	9.79
600.859	9.79
601.196	9.84
601.532	9.83
601.869	9.86
602.205	9.87
602.542	9.85
602.878	9.92
603.215	9.93
603.551	9.95
603.887	9.97
604.223	9.9
604.56	9.95
604.896	9.97
605.232	10.03
605.568	10.03
605.904	10.03
606.24	10.03
606.576	10.06
606.912	10.07
607.248	10.07
607.583	10.1
607.919	10.15
608.255	10.17
608.591	10.2
608.926	10.16
609.262	10.21
609.597	10.22
609.933	10.19
610.268	10.16
610.604	10.15
610.939	10.14
611.275	10.22
611.61	10.22
611.945	10.22
612.281	10.22
612.616	10.24
612.951	10.31
613.286	10.28
613.621	10.28
613.956	10.29
614.291	10.3
614.626	10.27
614.961	10.22
615.296	10.22
615.631	10.21
615.966	10.33
616.3	10.32
616.635	10.36
616.97	10.32
617.304	10.39
617.639	10.42
617.973	10.44
618.308	10.4
618.642	10.33
618.977	10.31
619.311	10.28
619.646	10.22
619.98	10.18
620.314	10.2
620.648	10.23
620.983	10.26
621.317	10.28
621.651	10.34
621.985	10.4
622.319	10.33
622.653	10.37
622.987	10.27
623.321	10.26
623.655	10.2
623.988	10.2
624.322	10.18
624.656	10.19
624.99	10.19
625.323	10.18
625.657	10.26
625.99	10.33
626.324	10.31
626.657	10.35
626.991	10.34
627.324	10.34
627.658	10.35
627.991	10.31
628.324	10.3
628.657	10.26
628.991	10.24
629.324	10.31
629.657	10.28
629.99	10.31
630.323	10.33
630.656	10.38
630.989	10.33
631.322	10.32
631.655	10.33
631.987	10.37
632.32	10.44
632.653	10.44
632.986	10.38
633.318	10.35
633.651	10.42
633.984	10.46
634.316	10.43
634.649	10.44
634.981	10.47
635.313	10.43
635.646	10.49
635.978	10.56
636.31	10.49
636.643	10.52
636.975	10.41
637.307	10.45
637.639	10.49
637.971	10.54
638.303	10.55
638.635	10.56
638.967	10.54
639.299	10.59
639.631	10.54
639.963	10.59
640.295	10.65
640.626	10.6
640.958	10.53
641.29	10.56
641.621	10.57
641.953	10.5
642.285	10.63
642.616	10.58
642.948	10.58
643.279	10.63
643.61	10.67
643.942	10.82
644.273	10.71
644.604	10.68
644.936	10.77
645.267	10.79
645.598	10.74
645.929	10.72
646.26	10.7
646.591	10.74
646.922	10.68
647.253	10.65
647.584	10.68
647.915	10.73
648.245	10.79
648.576	10.8
648.907	10.88
649.238	10.85
649.568	10.86
649.899	10.82
650.229	10.9
650.56	10.86
650.89	10.85
651.221	10.94
651.551	10.97
651.882	10.93
652.212	10.85
652.542	10.94
652.872	10.86
653.203	10.82
653.533	10.76
653.863	10.82
654.193	10.82
654.523	10.86
654.853	10.86
655.183	10.84
655.513	10.88
655.843	10.92
656.172	10.96
656.502	10.92
656.832	10.98
657.162	10.92
657.491	10.9
657.821	10.93
658.15	10.85
658.48	10.83
658.809	10.86
659.139	10.92
659.468	10.91
659.798	11.02
660.127	11.03
660.456	11.08
660.785	11.09
661.115	11.15
661.444	11.1
661.773	11.12
662.102	11.08
662.431	11.09
662.76	10.97
663.089	10.94
663.418	10.98
663.747	10.91
664.076	10.95
664.404	11.09
664.733	11.03
665.062	11.13
665.39	11.21
665.719	11.25
666.048	11.24
666.376	11.22
666.705	11.22
667.033	11.26
667.362	11.23
667.69	11.18
668.018	11.16
668.347	11.1
668.675	11.07
669.003	11.08
669.331	11.08
669.659	11.16
669.987	11.05
670.315	10.96
