Data from MVZ_BU147393_Reflection_00006.txt Node
Date: Tue Nov 19 12:06:58 EST 2019
User: vgr7
Spectrometer: USB2G7710
Scans to average: 3
Trigger mode: 4
Integration Time (sec): 2.000000E-2
Electric dark correction enabled: true
Boxcar width: 10
XAxis mode: Wavelengths
Number of Pixels in Spectrum: 2048
>>>>>Begin Spectral Data<<<<<
177.721	73.52
178.105	-150
178.488	6.5
178.871	65.63
179.254	-231.82
179.636	8.37
180.019	1.08
180.402	-533.33
180.785	-85.23
181.168	184.95
181.55	-615.52
181.933	-82.38
182.316	-46.21
182.698	-110.18
183.081	-21.89
183.463	-6.03
183.846	-176.55
184.228	-123.05
184.611	-86.97
184.993	-334.62
185.376	4162.5
185.758	7350
186.14	-90
186.522	8.9
186.904	690
187.287	707.14
187.669	98.08
188.051	124.55
188.433	24.62
188.815	92.15
189.197	-22.59
189.579	-55.44
189.961	-37.65
190.342	-51.35
190.724	-37.95
191.106	-13.07
191.488	-16.34
191.869	-33.15
192.251	-19.3
192.633	1.25
193.014	10.76
193.396	21.6
193.777	37.31
194.159	36.54
194.54	59.58
194.922	37.32
195.303	23.44
195.684	29.36
196.065	16.32
196.447	34.54
196.828	39.25
197.209	42.88
197.59	53.11
197.971	54.76
198.352	45.04
198.733	51.95
199.114	46.45
199.495	70.02
199.876	82.18
200.257	88.2
200.638	59.45
201.018	39.53
201.399	40.9
201.78	20.51
202.16	15.83
202.541	5.09
202.922	8.07
203.302	20.09
203.683	16.91
204.063	32.22
204.444	18.18
204.824	8.12
205.204	12.84
205.585	18.72
205.965	17.92
206.345	29.46
206.725	27.2
207.106	31.88
207.486	25.07
207.866	19.21
208.246	20.31
208.626	18.59
209.006	18.18
209.386	20.1
209.766	25.52
210.145	34.52
210.525	36.89
210.905	43.32
211.285	37.35
211.664	47.14
212.044	44.56
212.424	47.01
212.803	49.18
213.183	51.65
213.562	46.65
213.942	58.62
214.321	38.66
214.701	55.02
215.08	50.87
215.459	74.67
215.838	113.18
216.218	138.33
216.597	124.89
216.976	204.02
217.355	208.3
217.734	133.38
218.113	75.2
218.492	59.93
218.871	54.95
219.25	76.71
219.629	99.26
220.008	106.22
220.387	127.7
220.766	133.75
221.144	154.32
221.523	128.16
221.902	132.82
222.28	190.68
222.659	107.6
223.037	82.04
223.416	60.69
223.794	47.69
224.173	33.43
224.551	47.01
224.929	31.79
225.308	35.9
225.686	41.91
226.064	43.91
226.442	42.22
226.821	39.78
227.199	35.05
227.577	26.9
227.955	20.08
228.333	21.42
228.711	18.2
229.089	17.94
229.467	18.62
229.845	15.47
230.222	14.88
230.6	11.59
230.978	11.41
231.356	11.19
231.733	10.9
232.111	12.18
232.488	10.49
232.866	12.23
233.243	8.87
233.621	8.54
233.998	10.73
234.376	11.1
234.753	9.44
235.13	9.18
235.508	11.43
235.885	12.27
236.262	10.11
236.639	9.57
237.016	9.66
237.393	9.7
237.77	9.13
238.147	7.82
238.524	7.17
238.901	6.6
239.278	5.58
239.655	4.71
240.032	5.48
240.409	5.85
240.785	5.4
241.162	5.45
241.539	4.73
241.915	3.9
242.292	3.73
242.668	3.71
243.045	3.9
243.421	3.91
243.798	3.66
244.174	4.15
244.551	4.21
244.927	3.87
245.303	3.97
245.679	4.26
246.056	4.14
246.432	4.39
246.808	4.48
247.184	4.78
247.56	4.65
247.936	4.33
248.312	4.38
248.688	4.6
249.064	4.63
249.44	4.62
249.815	4.76
250.191	4.78
250.567	4.89
250.943	4.97
251.318	5.05
251.694	5.11
252.069	5.03
252.445	4.78
252.82	5.15
253.196	5
253.571	4.88
253.947	5.06
254.322	4.96
254.697	5.06
255.073	4.83
255.448	5.03
255.823	5.07
256.198	4.91
256.573	4.95
256.948	4.83
257.323	4.74
257.698	4.75
258.073	4.45
258.448	4.2
258.823	3.87
259.198	3.91
259.573	3.65
259.948	3.88
260.322	3.96
260.697	3.93
261.072	3.87
261.446	3.92
261.821	3.82
262.195	3.88
262.57	4.06
262.944	4.13
263.319	4.22
263.693	4.17
264.067	4.04
264.442	4.03
264.816	4.2
265.19	4.38
265.564	4.26
265.938	4.38
266.313	4.44
266.687	4.53
267.061	4.31
267.435	4.67
267.809	4.4
268.183	4.35
268.556	4.27
268.93	4.2
269.304	4.1
269.678	4.37
270.051	4.36
270.425	4.25
270.799	4.07
271.172	4.07
271.546	4.14
271.919	4.23
272.293	4.19
272.666	4.14
273.04	4.16
273.413	4.21
273.787	4.21
274.16	4.4
274.533	4.62
274.906	4.69
275.279	4.52
275.653	4.56
276.026	4.76
276.399	4.88
276.772	4.96
277.145	4.95
277.518	4.86
277.891	4.68
278.263	4.7
278.636	4.81
279.009	4.77
279.382	4.69
279.755	4.74
280.127	4.61
280.5	4.44
280.872	4.34
281.245	4.38
281.617	4.44
281.99	4.14
282.362	3.9
282.735	3.67
283.107	3.76
283.479	3.6
283.852	3.52
284.224	3.53
284.596	3.49
284.968	3.52
285.34	3.39
285.713	3.55
286.085	3.4
286.457	3.56
286.829	3.53
287.201	3.4
287.572	3.37
287.944	3.45
288.316	3.54
288.688	3.68
289.06	3.8
289.431	3.77
289.803	4.01
290.175	4.06
290.546	4.33
290.918	4.46
291.289	4.62
291.661	4.57
292.032	4.61
292.403	4.73
292.775	4.73
293.146	4.81
293.517	4.65
293.889	4.72
294.26	4.51
294.631	4.46
295.002	4.71
295.373	4.65
295.744	4.65
296.115	4.64
296.486	4.65
296.857	4.48
297.228	4.44
297.599	4.27
297.97	4.41
298.34	4.31
298.711	4.16
299.082	4.19
299.452	4.13
299.823	4.04
300.194	4.03
300.564	3.99
300.935	3.94
301.305	3.99
301.676	3.92
302.046	3.94
302.416	3.96
302.787	3.87
303.157	3.88
303.527	3.88
303.897	3.8
304.267	3.73
304.637	3.76
305.008	3.67
305.378	3.76
305.748	3.73
306.117	3.73
306.487	3.89
306.857	3.91
307.227	3.88
307.597	3.85
307.967	3.62
308.336	3.69
308.706	3.65
309.076	3.73
309.445	3.8
309.815	3.76
310.184	3.83
310.554	3.75
310.923	3.72
311.293	3.69
311.662	3.88
312.031	3.87
312.401	3.82
312.77	3.86
313.139	3.84
313.508	3.76
313.877	3.76
314.246	3.69
314.616	3.73
314.985	3.71
315.353	3.68
315.722	4.02
316.091	4
316.46	4.07
316.829	3.93
317.198	3.92
317.567	4.08
317.935	3.99
318.304	4.15
318.672	4.15
319.041	3.92
319.41	3.79
319.778	3.78
320.147	3.83
320.515	3.87
320.883	3.87
321.252	3.92
321.62	3.99
321.988	3.94
322.357	3.79
322.725	3.82
323.093	3.85
323.461	3.68
323.829	3.69
324.197	3.58
324.565	3.68
324.933	3.7
325.301	3.55
325.669	3.6
326.037	3.58
326.405	3.62
326.772	3.87
327.14	3.78
327.508	3.71
327.875	3.69
328.243	3.69
328.61	3.67
328.978	3.66
329.346	3.66
329.713	3.59
330.08	3.75
330.448	3.81
330.815	3.76
331.182	3.76
331.55	3.9
331.917	3.99
332.284	4.06
332.651	4.11
333.018	4.23
333.385	4.19
333.752	4.17
334.119	4.14
334.486	4.04
334.853	4.04
335.22	4.02
335.587	4.05
335.954	3.98
336.32	4.12
336.687	4.16
337.054	4.04
337.42	4
337.787	3.92
338.153	4.01
338.52	4.09
338.886	4.06
339.253	3.97
339.619	4.04
339.986	3.98
340.352	3.94
340.718	4
341.084	4.03
341.451	3.97
341.817	4
342.183	4
342.549	3.99
342.915	4.06
343.281	3.94
343.647	3.98
344.013	3.9
344.379	3.84
344.745	3.91
345.11	4.02
345.476	4
345.842	3.88
346.208	3.82
346.573	3.9
346.939	3.92
347.304	3.88
347.67	3.8
348.035	3.79
348.401	3.75
348.766	3.74
349.132	3.9
349.497	3.96
349.862	3.91
350.228	3.97
350.593	4.03
350.958	4.18
351.323	4.16
351.688	4.17
352.053	4.18
352.418	4.24
352.783	4.24
353.148	4.23
353.513	4.24
353.878	4.24
354.243	4.21
354.608	4.21
354.972	4.22
355.337	4.26
355.702	4.23
356.066	4.27
356.431	4.28
356.795	4.21
357.16	4.11
357.524	4.22
357.889	4.25
358.253	4.11
358.618	4.09
358.982	4.02
359.346	4.04
359.71	3.98
360.075	3.97
360.439	3.97
360.803	3.96
361.167	4
361.531	4
361.895	3.95
362.259	3.96
362.623	3.88
362.987	3.89
363.351	3.94
363.714	3.87
364.078	3.86
364.442	3.81
364.806	3.81
365.169	3.71
365.533	3.7
365.896	3.77
366.26	3.7
366.623	3.77
366.987	3.73
367.35	3.79
367.714	3.72
368.077	3.71
368.44	3.71
368.803	3.64
369.167	3.56
369.53	3.63
369.893	3.57
370.256	3.58
370.619	3.58
370.982	3.44
371.345	3.42
371.708	3.42
372.071	3.42
372.434	3.39
372.797	3.43
373.159	3.33
373.522	3.31
373.885	3.38
374.247	3.37
374.61	3.37
374.973	3.38
375.335	3.43
375.698	3.45
376.06	3.45
376.423	3.46
376.785	3.57
377.147	3.54
377.51	3.51
377.872	3.6
378.234	3.62
378.596	3.65
378.958	3.73
379.321	3.7
379.683	3.74
380.045	3.73
380.407	3.71
380.769	3.72
381.13	3.66
381.492	3.61
381.854	3.59
382.216	3.59
382.578	3.57
382.939	3.56
383.301	3.59
383.663	3.62
384.024	3.61
384.386	3.61
384.747	3.6
385.109	3.62
385.47	3.58
385.832	3.55
386.193	3.59
386.554	3.51
386.916	3.51
387.277	3.48
387.638	3.52
387.999	3.57
388.36	3.62
388.721	3.68
389.082	3.72
389.443	3.76
389.804	3.77
390.165	3.78
390.526	3.82
390.887	3.82
391.248	3.85
391.609	3.86
391.969	3.83
392.33	3.82
392.691	3.77
393.051	3.75
393.412	3.78
393.772	3.82
394.133	3.83
394.493	3.8
394.854	3.78
395.214	3.8
395.574	3.76
395.935	3.75
396.295	3.77
396.655	3.74
397.015	3.72
397.376	3.69
397.736	3.66
398.096	3.61
398.456	3.58
398.816	3.53
399.176	3.48
399.535	3.5
399.895	3.49
400.255	3.53
400.615	3.57
400.975	3.6
401.334	3.58
401.694	3.6
402.054	3.65
402.413	3.67
402.773	3.66
403.132	3.66
403.492	3.65
403.851	3.61
404.211	3.64
404.57	3.67
404.929	3.68
405.288	3.68
405.648	3.67
406.007	3.63
406.366	3.65
406.725	3.68
407.084	3.66
407.443	3.67
407.802	3.69
408.161	3.67
408.52	3.61
408.879	3.59
409.238	3.6
409.596	3.62
409.955	3.63
410.314	3.62
410.673	3.61
411.031	3.6
411.39	3.63
411.748	3.6
412.107	3.57
412.465	3.58
412.824	3.59
413.182	3.59
413.54	3.62
413.899	3.6
414.257	3.61
414.615	3.59
414.974	3.6
415.332	3.59
415.69	3.58
416.048	3.59
416.406	3.56
416.764	3.55
417.122	3.54
417.48	3.51
417.838	3.5
418.195	3.52
418.553	3.54
418.911	3.53
419.269	3.53
419.626	3.53
419.984	3.54
420.342	3.52
420.699	3.5
421.057	3.51
421.414	3.53
421.772	3.53
422.129	3.53
422.486	3.54
422.844	3.54
423.201	3.53
423.558	3.53
423.915	3.53
424.273	3.53
424.63	3.52
424.987	3.53
425.344	3.55
425.701	3.55
426.058	3.52
426.415	3.53
426.772	3.51
427.128	3.53
427.485	3.52
427.842	3.52
428.199	3.52
428.555	3.51
428.912	3.49
429.269	3.48
429.625	3.47
429.982	3.47
430.338	3.49
430.695	3.49
431.051	3.51
431.407	3.55
431.764	3.54
432.12	3.54
432.476	3.55
432.832	3.55
433.189	3.54
433.545	3.56
433.901	3.56
434.257	3.59
434.613	3.58
434.969	3.56
435.325	3.56
435.681	3.57
436.036	3.58
436.392	3.59
436.748	3.59
437.104	3.63
437.459	3.62
437.815	3.6
438.171	3.6
438.526	3.6
438.882	3.58
439.237	3.57
439.593	3.57
439.948	3.56
440.304	3.55
440.659	3.55
441.014	3.56
441.369	3.56
441.725	3.54
442.08	3.54
442.435	3.57
442.79	3.57
443.145	3.57
443.5	3.55
443.855	3.55
444.21	3.54
444.565	3.54
444.92	3.53
445.275	3.53
445.629	3.52
445.984	3.52
446.339	3.52
446.693	3.55
447.048	3.53
447.403	3.52
447.757	3.52
448.112	3.53
448.466	3.52
448.82	3.53
449.175	3.54
449.529	3.52
449.883	3.51
450.238	3.52
450.592	3.51
450.946	3.53
451.3	3.53
451.654	3.51
452.008	3.48
452.362	3.49
452.716	3.48
453.07	3.49
453.424	3.48
453.778	3.48
454.132	3.44
454.486	3.46
454.839	3.47
455.193	3.47
455.547	3.47
455.9	3.48
456.254	3.47
456.607	3.46
456.961	3.48
457.314	3.48
457.668	3.5
458.021	3.52
458.375	3.51
458.728	3.49
459.081	3.52
459.434	3.52
459.787	3.52
460.141	3.53
460.494	3.53
460.847	3.53
461.2	3.53
461.553	3.56
461.906	3.56
462.259	3.55
462.611	3.54
462.964	3.55
463.317	3.54
463.67	3.55
464.022	3.55
464.375	3.52
464.728	3.54
465.08	3.5
465.433	3.48
465.785	3.51
466.138	3.52
466.49	3.52
466.843	3.55
467.195	3.56
467.547	3.56
467.899	3.57
468.252	3.59
468.604	3.6
468.956	3.58
469.308	3.58
469.66	3.58
470.012	3.59
470.364	3.6
470.716	3.6
471.068	3.59
471.42	3.59
471.772	3.63
472.123	3.64
472.475	3.65
472.827	3.67
473.178	3.65
473.53	3.66
473.882	3.66
474.233	3.64
474.585	3.64
474.936	3.65
475.288	3.65
475.639	3.64
475.99	3.63
476.342	3.64
476.693	3.66
477.044	3.67
477.395	3.67
477.746	3.66
478.097	3.64
478.448	3.64
478.8	3.63
479.15	3.62
479.501	3.6
479.852	3.62
480.203	3.6
480.554	3.62
480.905	3.62
481.255	3.62
481.606	3.63
481.957	3.64
482.307	3.63
482.658	3.63
483.009	3.62
483.359	3.62
483.709	3.63
484.06	3.63
484.41	3.63
484.761	3.64
485.111	3.64
485.461	3.64
485.811	3.64
486.162	3.65
486.512	3.66
486.862	3.67
487.212	3.66
487.562	3.67
487.912	3.67
488.262	3.67
488.612	3.67
488.961	3.66
489.311	3.66
489.661	3.66
490.011	3.65
490.36	3.66
490.71	3.66
491.06	3.65
491.409	3.64
491.759	3.63
492.108	3.64
492.458	3.66
492.807	3.66
493.157	3.66
493.506	3.65
493.855	3.66
494.204	3.65
494.554	3.66
494.903	3.66
495.252	3.65
495.601	3.67
495.95	3.67
496.299	3.69
496.648	3.71
496.997	3.73
497.346	3.75
497.695	3.75
498.043	3.78
498.392	3.8
498.741	3.82
499.09	3.84
499.438	3.84
499.787	3.83
500.135	3.81
500.484	3.8
500.832	3.82
501.181	3.83
501.529	3.85
501.878	3.84
502.226	3.83
502.574	3.86
502.923	3.87
503.271	3.89
503.619	3.89
503.967	3.86
504.315	3.86
504.663	3.87
505.011	3.89
505.359	3.87
505.707	3.85
506.055	3.87
506.403	3.88
506.751	3.85
507.098	3.87
507.446	3.91
507.794	3.92
508.141	3.93
508.489	3.94
508.837	3.93
509.184	3.95
509.531	3.97
509.879	3.97
510.226	3.97
510.574	3.96
510.921	3.94
511.268	3.95
511.616	3.95
511.963	3.95
512.31	3.97
512.657	3.98
513.004	3.99
513.351	3.99
513.698	3.97
514.045	3.99
514.392	4
514.739	4
515.086	4.01
515.432	4.04
515.779	4.04
516.126	4.06
516.473	4.08
516.819	4.07
517.166	4.07
517.512	4.07
517.859	4.08
518.205	4.08
518.552	4.08
518.898	4.08
519.245	4.1
519.591	4.09
519.937	4.11
520.283	4.11
520.629	4.13
520.976	4.17
521.322	4.18
521.668	4.18
522.014	4.2
522.36	4.2
522.706	4.19
523.052	4.18
523.398	4.18
523.743	4.18
524.089	4.2
524.435	4.21
524.781	4.22
525.126	4.21
525.472	4.24
525.817	4.24
526.163	4.23
526.509	4.24
526.854	4.24
527.199	4.25
527.545	4.26
527.89	4.26
528.235	4.25
528.581	4.24
528.926	4.24
529.271	4.24
529.616	4.24
529.961	4.26
530.306	4.26
530.651	4.25
530.996	4.26
531.341	4.26
531.686	4.26
532.031	4.26
532.376	4.27
532.721	4.26
533.065	4.27
533.41	4.29
533.755	4.28
534.099	4.29
534.444	4.28
534.788	4.27
535.133	4.27
535.477	4.27
535.822	4.29
536.166	4.3
536.51	4.29
536.855	4.29
537.199	4.28
537.543	4.3
537.887	4.32
538.231	4.32
538.576	4.3
538.92	4.31
539.264	4.33
539.608	4.32
539.951	4.32
540.295	4.33
540.639	4.33
540.983	4.35
541.327	4.33
541.671	4.35
542.014	4.36
542.358	4.37
542.701	4.37
543.045	4.38
543.389	4.37
543.732	4.36
544.075	4.38
544.419	4.37
544.762	4.36
545.105	4.37
545.449	4.38
545.792	4.41
546.135	4.41
546.478	4.38
546.821	4.41
547.165	4.41
547.508	4.41
547.851	4.4
548.194	4.37
548.536	4.37
548.879	4.36
549.222	4.33
549.565	4.32
549.908	4.31
550.25	4.27
550.593	4.28
550.936	4.31
551.278	4.28
551.621	4.3
551.963	4.32
552.306	4.34
552.648	4.32
552.991	4.31
553.333	4.33
553.675	4.38
554.017	4.35
554.36	4.38
554.702	4.36
555.044	4.37
555.386	4.39
555.728	4.41
556.07	4.4
556.412	4.39
556.754	4.4
557.096	4.43
557.438	4.45
557.78	4.44
558.121	4.44
558.463	4.47
558.805	4.48
559.147	4.48
559.488	4.46
559.83	4.47
560.171	4.47
560.513	4.46
560.854	4.45
561.196	4.47
561.537	4.5
561.878	4.53
562.22	4.54
562.561	4.51
562.902	4.5
563.243	4.46
563.584	4.5
563.925	4.53
564.266	4.53
564.607	4.53
564.948	4.55
565.289	4.54
565.63	4.54
565.971	4.54
566.312	4.51
566.653	4.5
566.993	4.5
567.334	4.49
567.675	4.49
568.015	4.46
568.356	4.47
568.696	4.47
569.037	4.48
569.377	4.49
569.718	4.49
570.058	4.49
570.398	4.51
570.739	4.52
571.079	4.52
571.419	4.52
571.759	4.56
572.099	4.54
572.439	4.53
572.779	4.51
573.119	4.52
573.459	4.55
573.799	4.54
574.139	4.53
574.479	4.52
574.819	4.51
575.158	4.53
575.498	4.54
575.838	4.53
576.177	4.48
576.517	4.5
576.856	4.52
577.196	4.54
577.535	4.56
577.875	4.53
578.214	4.51
578.553	4.47
578.893	4.44
579.232	4.48
579.571	4.49
579.91	4.51
580.25	4.5
580.589	4.48
580.928	4.5
581.267	4.49
581.606	4.5
581.945	4.48
582.283	4.53
582.622	4.48
582.961	4.47
583.3	4.49
583.639	4.51
583.977	4.52
584.316	4.54
584.654	4.55
584.993	4.54
585.332	4.54
585.67	4.59
586.008	4.61
586.347	4.6
586.685	4.59
587.024	4.64
587.362	4.65
587.7	4.66
588.038	4.67
588.376	4.66
588.715	4.67
589.053	4.68
589.391	4.65
589.729	4.67
590.067	4.68
590.404	4.7
590.742	4.69
591.08	4.69
591.418	4.69
591.756	4.7
592.093	4.73
592.431	4.78
592.769	4.77
593.106	4.72
593.444	4.74
593.781	4.76
594.119	4.7
594.456	4.72
594.793	4.72
595.131	4.71
595.468	4.76
595.805	4.78
596.143	4.81
596.48	4.82
596.817	4.84
597.154	4.84
597.491	4.85
597.828	4.86
598.165	4.87
598.502	4.84
598.839	4.85
599.176	4.89
599.512	4.85
599.849	4.87
600.186	4.92
600.523	4.88
600.859	4.89
601.196	4.89
601.532	4.89
601.869	4.9
602.205	4.91
602.542	4.9
602.878	4.91
603.215	4.9
603.551	4.89
603.887	4.89
604.223	4.88
604.56	4.89
604.896	4.89
605.232	4.87
605.568	4.9
605.904	4.88
606.24	4.87
606.576	4.9
606.912	4.87
607.248	4.9
607.583	4.89
607.919	4.87
608.255	4.93
608.591	4.92
608.926	4.92
609.262	4.92
609.597	4.94
609.933	4.89
610.268	4.91
610.604	4.94
610.939	4.9
611.275	4.92
611.61	4.88
611.945	4.9
612.281	4.92
612.616	4.92
612.951	4.97
613.286	4.94
613.621	4.92
613.956	4.9
614.291	4.85
614.626	4.91
614.961	4.91
615.296	4.91
615.631	4.91
615.966	4.91
616.3	4.94
616.635	4.94
616.97	4.97
617.304	4.96
617.639	4.98
617.973	5.01
618.308	5.03
618.642	5.05
618.977	4.96
619.311	4.97
619.646	4.99
619.98	4.93
620.314	4.96
620.648	4.98
620.983	4.99
621.317	5.02
621.651	5.02
621.985	5.06
622.319	5.04
622.653	5.06
622.987	5.07
623.321	5.07
623.655	5.04
623.988	5.09
624.322	5.03
624.656	5.01
624.99	5.04
625.323	4.95
625.657	5.01
625.99	5.02
626.324	5.01
626.657	4.97
626.991	5.01
627.324	5.01
627.658	4.98
627.991	5.03
628.324	5.04
628.657	5
628.991	4.99
629.324	4.98
629.657	4.99
629.99	4.99
630.323	5.01
630.656	5.01
630.989	5
631.322	5.03
631.655	5.02
631.987	4.98
632.32	5.04
632.653	4.99
632.986	5.02
633.318	5.09
633.651	5.14
633.984	5.13
634.316	5.09
634.649	5.16
634.981	5.14
635.313	5.19
635.646	5.2
635.978	5.28
636.31	5.3
636.643	5.24
636.975	5.2
637.307	5.23
637.639	5.33
637.971	5.3
638.303	5.31
638.635	5.33
638.967	5.37
639.299	5.37
639.631	5.41
639.963	5.39
640.295	5.4
640.626	5.36
640.958	5.36
641.29	5.44
641.621	5.34
641.953	5.29
642.285	5.31
642.616	5.29
642.948	5.19
643.279	5.1
643.61	5.1
643.942	5.17
644.273	5.13
644.604	5.03
644.936	5.08
645.267	5.11
645.598	5.17
645.929	5.13
646.26	5.19
646.591	5.16
646.922	5.15
647.253	5.11
647.584	5.08
647.915	5.13
648.245	5.11
648.576	5.12
648.907	5.15
649.238	5.04
649.568	5.09
649.899	5.07
650.229	5.15
650.56	5.27
650.89	5.2
651.221	5.16
651.551	5.28
651.882	5.18
652.212	5.11
652.542	5.07
652.872	5.11
653.203	5.11
653.533	5.16
653.863	5.22
654.193	5.14
654.523	5.16
654.853	5.15
655.183	5.18
655.513	5.25
655.843	5.23
656.172	5.32
656.502	5.33
656.832	5.35
657.162	5.32
657.491	5.27
657.821	5.28
658.15	5.33
658.48	5.27
658.809	5.33
659.139	5.41
659.468	5.42
659.798	5.41
660.127	5.39
660.456	5.36
660.785	5.35
661.115	5.42
661.444	5.43
661.773	5.46
662.102	5.43
662.431	5.45
662.76	5.48
663.089	5.45
663.418	5.39
663.747	5.41
664.076	5.42
664.404	5.42
664.733	5.49
665.062	5.42
665.39	5.34
665.719	5.31
666.048	5.26
666.376	5.26
666.705	5.3
667.033	5.38
667.362	5.41
667.69	5.33
668.018	5.4
668.347	5.4
668.675	5.36
669.003	5.38
669.331	5.35
669.659	5.28
669.987	5.24
670.315	5.32
670.643	5.38
670.971	5.49
671.299	5.5
671.627	5.45
671.955	5.54
672.283	5.61
672.61	5.69
672.938	5.72
673.266	5.74
673.593	5.72
673.921	5.65
674.249	5.68
674.576	5.85
674.904	5.78
675.231	5.82
675.558	5.75
675.886	5.78
676.213	5.75
676.54	5.8
676.867	5.86
677.195	5.86
677.522	5.8
677.849	5.78
678.176	5.81
678.503	5.78
678.83	5.77
679.157	5.76
