Data from MVZ_BU28167_Reflection_00001.txt Node
Date: Tue Nov 19 12:17:12 EST 2019
User: vgr7
Spectrometer: USB2G7710
Scans to average: 3
Trigger mode: 4
Integration Time (sec): 2.000000E-2
Electric dark correction enabled: true
Boxcar width: 10
XAxis mode: Wavelengths
Number of Pixels in Spectrum: 2048
>>>>>Begin Spectral Data<<<<<
177.721	203.6
178.105	155.56
178.488	-66.67
178.871	5.21
179.254	-11.11
179.636	89.18
180.019	42.92
180.402	-20
180.785	123.33
181.168	228.79
181.55	126.1
181.933	81.18
182.316	51.83
182.698	37.7
183.081	27.04
183.463	15.37
183.846	9.81
184.228	4.2
184.611	29.9
184.993	21.09
185.376	22.64
185.758	27
186.14	46.45
186.522	77.03
186.904	70.29
187.287	60.02
187.669	46.45
188.051	52.23
188.433	46.63
188.815	44.14
189.197	34.1
189.579	43.06
189.961	57.01
190.342	66
190.724	152.96
191.106	230.63
191.488	285.45
191.869	988.89
192.251	-1174.51
192.633	2433.33
193.014	9933.33
193.396	761.46
193.777	11933.33
194.159	6391.67
194.54	-798.99
194.922	-940.23
195.303	-872.22
195.684	-4108.33
196.065	-2747.22
196.447	-2304.76
196.828	-2483.33
197.209	-749.21
197.59	-676.52
197.971	-1798.15
198.352	576.61
198.733	298.88
199.114	305.25
199.495	273.2
199.876	323.48
200.257	278.1
200.638	613.89
201.018	504.37
201.399	4195.24
201.78	4044.44
202.16	-633.33
202.541	-865.28
202.922	2627.78
203.302	-176.42
203.683	-130.16
204.063	-105.33
204.444	-69.43
204.824	-54.44
205.204	-72.48
205.585	-58.84
205.965	-46.99
206.345	-47.83
206.725	-37.68
207.106	-24.52
207.486	-29.52
207.866	-19.33
208.246	-14.92
208.626	-38.89
209.006	-36.87
209.386	-46.46
209.766	-92.59
210.145	-73.52
210.525	-33.33
210.905	-64.97
211.285	-100.85
211.664	-45.24
212.044	-13.17
212.424	-32.85
212.803	-39.88
213.183	-71.79
213.562	-102.56
213.942	-89.81
214.321	-143.06
214.701	-118.91
215.08	-131.64
215.459	-184.04
215.838	-289.94
216.218	-496.49
216.597	-111.48
216.976	-114.48
217.355	-91.58
217.734	-118.3
218.113	-83.69
218.492	-90.76
218.871	-104.17
219.25	-89.92
219.629	-96.02
220.008	-117.03
220.387	-128.74
220.766	-131.36
221.144	-82.62
221.523	-85.55
221.902	-88.54
222.28	-58.33
222.659	-40.46
223.037	-66.16
223.416	-57.44
223.794	-41.99
224.173	-42.1
224.551	-55.06
224.929	-68.62
225.308	-47.5
225.686	-33.13
226.064	-33.96
226.442	-28.19
226.821	-18.28
227.199	-14.62
227.577	-14.54
227.955	-13.4
228.333	-10.38
228.711	-11.06
229.089	-10.33
229.467	-6.69
229.845	-9.64
230.222	-10.95
230.6	-13.27
230.978	-4.52
231.356	-4.27
231.733	-3.6
232.111	-2.02
232.488	-1.56
232.866	2.7
233.243	-0.27
233.621	1.43
233.998	2.63
234.376	3.71
234.753	0.46
235.13	-1.38
235.508	-1.55
235.885	-0.9
236.262	-1.1
236.639	-1.06
237.016	-1.45
237.393	1.04
237.77	2.51
238.147	3.22
238.524	4.17
238.901	2.55
239.278	2.31
239.655	2.37
240.032	1.91
240.409	2.86
240.785	2.04
241.162	2.73
241.539	2.04
241.915	1.55
242.292	1.53
242.668	1.78
243.045	2.53
243.421	2.69
243.798	2.51
244.174	2.62
244.551	2.76
244.927	2.86
245.303	2.38
245.679	2.57
246.056	2.47
246.432	2.46
246.808	2.8
247.184	2.99
247.56	2.97
247.936	3.43
248.312	3.22
248.688	3.3
249.064	3.19
249.44	3.29
249.815	3.59
250.191	3.73
250.567	3.81
250.943	3.44
251.318	3.25
251.694	3.35
252.069	3.38
252.445	3.59
252.82	3.74
253.196	3.69
253.571	3.83
253.947	3.93
254.322	3.64
254.697	3
255.073	2.74
255.448	2.52
255.823	2.43
256.198	2.29
256.573	2.24
256.948	2.58
257.323	2.63
257.698	2.49
258.073	2.41
258.448	2.53
258.823	2.34
259.198	2.29
259.573	2.09
259.948	2.11
260.322	2
260.697	1.95
261.072	2.13
261.446	2.1
261.821	1.99
262.195	2.11
262.57	2.25
262.944	2.34
263.319	2.41
263.693	2.3
264.067	2.49
264.442	2.48
264.816	2.28
265.19	2.16
265.564	2.02
265.938	2.11
266.313	1.88
266.687	2.14
267.061	2.44
267.435	2.64
267.809	2.53
268.183	2.6
268.556	2.39
268.93	2.21
269.304	2.19
269.678	2.26
270.051	2.22
270.425	2.17
270.799	1.89
271.172	1.97
271.546	1.94
271.919	1.9
272.293	1.91
272.666	2.06
273.04	2.07
273.413	2.13
273.787	1.97
274.16	2.02
274.533	2
274.906	1.75
275.279	1.82
275.653	1.91
276.026	1.98
276.399	2.19
276.772	2.33
277.145	2.31
277.518	2.32
277.891	2.28
278.263	2.64
278.636	2.97
279.009	2.99
279.382	2.94
279.755	2.9
280.127	2.87
280.5	2.68
280.872	2.73
281.245	2.68
281.617	2.72
281.99	2.75
282.362	2.75
282.735	2.86
283.107	2.78
283.479	2.75
283.852	2.6
284.224	2.67
284.596	2.68
284.968	2.73
285.34	2.7
285.713	2.79
286.085	2.61
286.457	2.56
286.829	2.39
287.201	2.46
287.572	2.47
287.944	2.57
288.316	2.61
288.688	2.7
289.06	2.78
289.431	2.8
289.803	2.95
290.175	2.96
290.546	2.94
290.918	3
291.289	2.93
291.661	2.97
292.032	2.96
292.403	2.73
292.775	2.84
293.146	2.79
293.517	2.75
293.889	2.65
294.26	2.75
294.631	2.87
295.002	2.75
295.373	2.68
295.744	2.79
296.115	2.84
296.486	2.86
296.857	2.9
297.228	2.88
297.599	2.7
297.97	2.69
298.34	2.75
298.711	2.79
299.082	2.85
299.452	2.9
299.823	2.73
300.194	2.95
300.564	2.84
300.935	3.06
301.305	3.04
301.676	2.97
302.046	2.89
302.416	2.82
302.787	2.92
303.157	3.05
303.527	3.02
303.897	2.97
304.267	2.85
304.637	2.83
305.008	2.87
305.378	2.96
305.748	2.99
306.117	2.91
306.487	2.8
306.857	2.95
307.227	3.05
307.597	2.92
307.967	2.81
308.336	2.77
308.706	2.58
309.076	2.55
309.445	2.84
309.815	2.85
310.184	2.92
310.554	2.9
310.923	2.87
311.293	2.72
311.662	2.68
312.031	2.6
312.401	2.57
312.77	2.63
313.139	2.55
313.508	2.43
313.877	2.36
314.246	2.35
314.616	2.32
314.985	2.1
315.353	2.42
315.722	2.5
316.091	2.62
316.46	2.6
316.829	2.61
317.198	2.32
317.567	2.4
317.935	2.36
318.304	2.52
318.672	2.57
319.041	2.6
319.41	2.59
319.778	2.63
320.147	2.51
320.515	2.42
320.883	2.36
321.252	2.47
321.62	2.64
321.988	2.65
322.357	2.4
322.725	2.41
323.093	2.27
323.461	1.97
323.829	1.92
324.197	1.95
324.565	2.04
324.933	2.12
325.301	1.87
325.669	1.96
326.037	1.75
326.405	1.81
326.772	1.96
327.14	1.87
327.508	1.94
327.875	2.01
328.243	2.02
328.61	2.11
328.978	2.09
329.346	2.14
329.713	2.23
330.08	2.39
330.448	2.38
330.815	2.46
331.182	2.65
331.55	2.54
331.917	2.56
332.284	2.54
332.651	2.49
333.018	2.58
333.385	2.55
333.752	2.5
334.119	2.42
334.486	2.28
334.853	2.48
335.22	2.4
335.587	2.35
335.954	2.32
336.32	2.27
336.687	2.35
337.054	2.21
337.42	2.1
337.787	2.08
338.153	2.22
338.52	2.1
338.886	2.13
339.253	2.13
339.619	2.37
339.986	2.29
340.352	2.35
340.718	2.49
341.084	2.53
341.451	2.61
341.817	2.57
342.183	2.58
342.549	2.49
342.915	2.53
343.281	2.54
343.647	2.47
344.013	2.59
344.379	2.53
344.745	2.66
345.11	2.68
345.476	2.72
345.842	2.62
346.208	2.68
346.573	2.54
346.939	2.6
347.304	2.51
347.67	2.49
348.035	2.49
348.401	2.46
348.766	2.35
349.132	2.45
349.497	2.51
349.862	2.51
350.228	2.63
350.593	2.65
350.958	2.75
351.323	2.73
351.688	2.67
352.053	2.65
352.418	2.63
352.783	2.72
353.148	2.72
353.513	2.73
353.878	2.75
354.243	2.79
354.608	2.85
354.972	2.81
355.337	2.86
355.702	2.83
356.066	2.77
356.431	2.82
356.795	2.85
357.16	2.82
357.524	2.85
357.889	2.75
358.253	2.75
358.618	2.75
358.982	2.84
359.346	2.89
359.71	2.95
360.075	2.92
360.439	2.86
360.803	2.92
361.167	2.92
361.531	2.89
361.895	2.91
362.259	2.87
362.623	2.79
362.987	2.79
363.351	2.81
363.714	2.85
364.078	2.86
364.442	2.73
364.806	2.81
365.169	2.85
365.533	2.89
365.896	2.91
366.26	2.84
366.623	2.81
366.987	2.73
367.35	2.65
367.714	2.65
368.077	2.66
368.44	2.6
368.803	2.66
369.167	2.66
369.53	2.72
369.893	2.7
370.256	2.76
370.619	2.75
370.982	2.69
371.345	2.63
371.708	2.64
372.071	2.71
372.434	2.64
372.797	2.65
373.159	2.62
373.522	2.54
373.885	2.58
374.247	2.51
374.61	2.56
374.973	2.62
375.335	2.66
375.698	2.63
376.06	2.62
376.423	2.63
376.785	2.67
377.147	2.62
377.51	2.6
377.872	2.56
378.234	2.61
378.596	2.7
378.958	2.73
379.321	2.7
379.683	2.68
380.045	2.68
380.407	2.68
380.769	2.69
381.13	2.77
381.492	2.76
381.854	2.86
382.216	2.89
382.578	2.91
382.939	2.85
383.301	2.84
383.663	2.83
384.024	2.83
384.386	2.83
384.747	2.81
385.109	2.86
385.47	2.86
385.832	2.8
386.193	2.78
386.554	2.74
386.916	2.73
387.277	2.73
387.638	2.75
387.999	2.78
388.36	2.78
388.721	2.78
389.082	2.83
389.443	2.82
389.804	2.8
390.165	2.78
390.526	2.85
390.887	2.89
391.248	2.9
391.609	2.89
391.969	2.84
392.33	2.87
392.691	2.89
393.051	2.92
393.412	2.93
393.772	2.96
394.133	2.99
394.493	3.04
394.854	3.06
395.214	3.05
395.574	2.97
395.935	2.97
396.295	2.93
396.655	2.91
397.015	2.89
397.376	2.91
397.736	2.9
398.096	2.88
398.456	2.88
398.816	2.88
399.176	2.87
399.535	2.91
399.895	2.94
400.255	2.9
400.615	2.89
400.975	2.91
401.334	2.86
401.694	2.89
402.054	2.86
402.413	2.85
402.773	2.86
403.132	2.89
403.492	2.91
403.851	2.94
404.211	2.94
404.57	2.95
404.929	2.92
405.288	2.95
405.648	2.94
406.007	2.94
406.366	2.94
406.725	2.96
407.084	2.97
407.443	2.97
407.802	3.02
408.161	3.05
408.52	3.05
408.879	3.07
409.238	3.05
409.596	3.05
409.955	3.06
410.314	3.09
410.673	3.06
411.031	3.03
411.39	3.04
411.748	3.04
412.107	3.04
412.465	3.03
412.824	3
413.182	3
413.54	3
413.899	3.02
414.257	3
414.615	3.03
414.974	3.02
415.332	2.99
415.69	2.98
416.048	3
416.406	3.01
416.764	3.03
417.122	3.01
417.48	3.04
417.838	3.01
418.195	3.05
418.553	3.06
418.911	3.06
419.269	3.07
419.626	3.05
419.984	3.07
420.342	3.07
420.699	3.08
421.057	3.09
421.414	3.08
421.772	3.09
422.129	3.07
422.486	3.06
422.844	3.06
423.201	3.08
423.558	3.08
423.915	3.09
424.273	3.09
424.63	3.11
424.987	3.11
425.344	3.11
425.701	3.1
426.058	3.11
426.415	3.11
426.772	3.1
427.128	3.13
427.485	3.12
427.842	3.14
428.199	3.14
428.555	3.14
428.912	3.15
429.269	3.15
429.625	3.18
429.982	3.21
430.338	3.22
430.695	3.21
431.051	3.22
431.407	3.22
431.764	3.21
432.12	3.2
432.476	3.21
432.832	3.23
433.189	3.24
433.545	3.21
433.901	3.22
434.257	3.23
434.613	3.22
434.969	3.24
435.325	3.23
435.681	3.23
436.036	3.22
436.392	3.21
436.748	3.23
437.104	3.23
437.459	3.21
437.815	3.22
438.171	3.21
438.526	3.21
438.882	3.2
439.237	3.21
439.593	3.24
439.948	3.21
440.304	3.19
440.659	3.19
441.014	3.21
441.369	3.21
441.725	3.23
442.08	3.21
442.435	3.23
442.79	3.23
443.145	3.23
443.5	3.22
443.855	3.22
444.21	3.22
444.565	3.22
444.92	3.22
445.275	3.21
445.629	3.2
445.984	3.21
446.339	3.22
446.693	3.23
447.048	3.2
447.403	3.22
447.757	3.22
448.112	3.22
448.466	3.22
448.82	3.22
449.175	3.2
449.529	3.22
449.883	3.2
450.238	3.21
450.592	3.21
450.946	3.24
451.3	3.24
451.654	3.24
452.008	3.26
452.362	3.26
452.716	3.27
453.07	3.3
453.424	3.3
453.778	3.28
454.132	3.28
454.486	3.3
454.839	3.28
455.193	3.32
455.547	3.33
455.9	3.35
456.254	3.34
456.607	3.33
456.961	3.35
457.314	3.36
457.668	3.35
458.021	3.35
458.375	3.34
458.728	3.33
459.081	3.33
459.434	3.31
459.787	3.32
460.141	3.34
460.494	3.31
460.847	3.3
461.2	3.3
461.553	3.3
461.906	3.31
462.259	3.32
462.611	3.31
462.964	3.3
463.317	3.29
463.67	3.32
464.022	3.32
464.375	3.31
464.728	3.33
465.08	3.34
465.433	3.35
465.785	3.36
466.138	3.38
466.49	3.39
466.843	3.39
467.195	3.38
467.547	3.37
467.899	3.41
468.252	3.39
468.604	3.43
468.956	3.44
469.308	3.43
469.66	3.44
470.012	3.41
470.364	3.43
470.716	3.46
471.068	3.45
471.42	3.45
471.772	3.45
472.123	3.45
472.475	3.46
472.827	3.46
473.178	3.43
473.53	3.41
473.882	3.38
474.233	3.37
474.585	3.38
474.936	3.35
475.288	3.35
475.639	3.37
475.99	3.34
476.342	3.35
476.693	3.35
477.044	3.36
477.395	3.36
477.746	3.34
478.097	3.31
478.448	3.3
478.8	3.3
479.15	3.32
479.501	3.31
479.852	3.31
480.203	3.33
480.554	3.35
480.905	3.36
481.255	3.38
481.606	3.38
481.957	3.39
482.307	3.41
482.658	3.42
483.009	3.42
483.359	3.43
483.709	3.44
484.06	3.44
484.41	3.44
484.761	3.46
485.111	3.47
485.461	3.47
485.811	3.47
486.162	3.47
486.512	3.47
486.862	3.48
487.212	3.49
487.562	3.49
487.912	3.5
488.262	3.51
488.612	3.5
488.961	3.51
489.311	3.51
489.661	3.51
490.011	3.5
490.36	3.49
490.71	3.49
491.06	3.48
491.409	3.48
491.759	3.49
492.108	3.48
492.458	3.48
492.807	3.48
493.157	3.49
493.506	3.49
493.855	3.48
494.204	3.48
494.554	3.48
494.903	3.49
495.252	3.48
495.601	3.48
495.95	3.48
496.299	3.47
496.648	3.46
496.997	3.47
497.346	3.49
497.695	3.52
498.043	3.53
498.392	3.54
498.741	3.55
499.09	3.54
499.438	3.55
499.787	3.53
500.135	3.53
500.484	3.54
500.832	3.55
501.181	3.55
501.529	3.59
501.878	3.59
502.226	3.58
502.574	3.6
502.923	3.61
503.271	3.64
503.619	3.67
503.967	3.65
504.315	3.64
504.663	3.65
505.011	3.67
505.359	3.65
505.707	3.66
506.055	3.65
506.403	3.64
506.751	3.61
507.098	3.65
507.446	3.65
507.794	3.64
508.141	3.64
508.489	3.64
508.837	3.61
509.184	3.6
509.531	3.6
509.879	3.6
510.226	3.58
510.574	3.59
510.921	3.58
511.268	3.62
511.616	3.64
511.963	3.63
512.31	3.62
512.657	3.63
513.004	3.6
513.351	3.6
513.698	3.62
514.045	3.64
514.392	3.64
514.739	3.66
515.086	3.7
515.432	3.7
515.779	3.71
516.126	3.72
516.473	3.71
516.819	3.72
517.166	3.7
517.512	3.71
517.859	3.7
518.205	3.68
518.552	3.68
518.898	3.66
519.245	3.68
519.591	3.67
519.937	3.69
520.283	3.7
520.629	3.7
520.976	3.71
521.322	3.7
521.668	3.7
522.014	3.69
522.36	3.69
522.706	3.69
523.052	3.68
523.398	3.7
523.743	3.71
524.089	3.72
524.435	3.74
524.781	3.73
525.126	3.71
525.472	3.73
525.817	3.73
526.163	3.73
526.509	3.72
526.854	3.73
527.199	3.74
527.545	3.75
527.89	3.74
528.235	3.74
528.581	3.74
528.926	3.73
529.271	3.73
529.616	3.72
529.961	3.73
530.306	3.73
530.651	3.73
530.996	3.74
531.341	3.73
531.686	3.73
532.031	3.73
532.376	3.75
532.721	3.75
533.065	3.75
533.41	3.74
533.755	3.75
534.099	3.76
534.444	3.75
534.788	3.75
535.133	3.76
535.477	3.76
535.822	3.77
536.166	3.77
536.51	3.77
536.855	3.77
537.199	3.75
537.543	3.77
537.887	3.77
538.231	3.77
538.576	3.76
538.92	3.77
539.264	3.79
539.608	3.79
539.951	3.77
540.295	3.79
540.639	3.81
540.983	3.82
541.327	3.82
541.671	3.82
542.014	3.83
542.358	3.84
542.701	3.85
543.045	3.86
543.389	3.87
543.732	3.88
544.075	3.89
544.419	3.91
544.762	3.9
545.105	3.92
545.449	3.91
545.792	3.94
546.135	3.92
546.478	3.92
546.821	3.93
547.165	3.97
547.508	3.96
547.851	3.94
548.194	3.94
548.536	3.91
548.879	3.88
549.222	3.88
549.565	3.86
549.908	3.85
550.25	3.83
550.593	3.83
550.936	3.84
551.278	3.83
551.621	3.83
551.963	3.85
552.306	3.83
552.648	3.86
552.991	3.86
553.333	3.88
553.675	3.89
554.017	3.86
554.36	3.84
554.702	3.84
555.044	3.87
555.386	3.83
555.728	3.87
556.07	3.89
556.412	3.9
556.754	3.9
557.096	3.86
557.438	3.85
557.78	3.83
558.121	3.82
558.463	3.83
558.805	3.83
559.147	3.84
559.488	3.8
559.83	3.81
560.171	3.8
560.513	3.81
560.854	3.78
561.196	3.85
561.537	3.85
561.878	3.87
562.22	3.84
562.561	3.87
562.902	3.87
563.243	3.89
563.584	3.88
563.925	3.9
564.266	3.91
564.607	3.95
564.948	3.94
565.289	3.95
565.63	3.96
565.971	3.95
566.312	3.95
566.653	3.96
566.993	3.95
567.334	3.99
567.675	4
568.015	3.98
568.356	3.93
568.696	3.93
569.037	3.92
569.377	3.91
569.718	3.94
570.058	3.92
570.398	3.92
570.739	3.91
571.079	3.89
571.419	3.9
571.759	3.85
572.099	3.85
572.439	3.85
572.779	3.86
573.119	3.91
573.459	3.88
573.799	3.89
574.139	3.87
574.479	3.84
574.819	3.86
575.158	3.89
575.498	3.92
575.838	3.9
576.177	3.9
576.517	3.93
576.856	3.89
577.196	3.91
577.535	3.93
577.875	3.93
578.214	3.95
578.553	3.95
578.893	3.99
579.232	4
579.571	4.01
579.91	4.01
580.25	3.93
580.589	3.97
580.928	3.97
581.267	3.96
581.606	3.98
581.945	3.9
582.283	3.92
582.622	3.9
582.961	3.97
583.3	3.97
583.639	3.92
583.977	3.92
584.316	3.94
584.654	3.94
584.993	3.96
585.332	4
585.67	4.01
586.008	4.04
586.347	4.06
586.685	4.02
587.024	3.99
587.362	4.05
587.7	4.07
588.038	4.11
588.376	4.1
588.715	4.11
589.053	4.13
589.391	4.11
589.729	4.14
590.067	4.07
590.404	4.09
590.742	4.13
591.08	4.14
591.418	4.14
591.756	4.13
592.093	4.12
592.431	4.1
592.769	4.15
593.106	4.13
593.444	4.15
593.781	4.19
594.119	4.19
594.456	4.15
594.793	4.12
595.131	4.11
595.468	4.14
595.805	4.15
596.143	4.18
596.48	4.19
596.817	4.16
597.154	4.19
597.491	4.16
597.828	4.17
598.165	4.2
598.502	4.17
598.839	4.21
599.176	4.26
599.512	4.26
599.849	4.21
600.186	4.2
600.523	4.21
600.859	4.19
601.196	4.22
601.532	4.22
601.869	4.24
602.205	4.24
602.542	4.23
602.878	4.2
603.215	4.18
603.551	4.17
603.887	4.18
604.223	4.16
604.56	4.2
604.896	4.21
605.232	4.19
605.568	4.2
605.904	4.16
606.24	4.12
606.576	4.14
606.912	4.15
607.248	4.19
607.583	4.19
607.919	4.17
608.255	4.16
608.591	4.23
608.926	4.2
609.262	4.18
609.597	4.18
609.933	4.18
610.268	4.2
610.604	4.23
610.939	4.28
611.275	4.3
611.61	4.27
611.945	4.24
612.281	4.26
612.616	4.27
612.951	4.32
613.286	4.34
613.621	4.3
613.956	4.3
614.291	4.25
614.626	4.22
614.961	4.24
615.296	4.27
615.631	4.21
615.966	4.2
616.3	4.26
616.635	4.27
616.97	4.3
617.304	4.3
617.639	4.28
617.973	4.23
618.308	4.22
618.642	4.23
618.977	4.21
619.311	4.24
619.646	4.25
619.98	4.27
620.314	4.22
620.648	4.3
620.983	4.32
621.317	4.42
621.651	4.44
621.985	4.44
622.319	4.44
622.653	4.45
622.987	4.48
623.321	4.46
623.655	4.49
623.988	4.46
624.322	4.45
624.656	4.45
624.99	4.47
625.323	4.48
625.657	4.49
625.99	4.5
626.324	4.43
626.657	4.45
626.991	4.42
627.324	4.44
627.658	4.46
627.991	4.49
628.324	4.38
628.657	4.38
628.991	4.38
629.324	4.38
629.657	4.39
629.99	4.37
630.323	4.38
630.656	4.41
630.989	4.42
631.322	4.41
631.655	4.4
631.987	4.41
632.32	4.43
632.653	4.45
632.986	4.49
633.318	4.54
633.651	4.57
633.984	4.59
634.316	4.6
634.649	4.53
634.981	4.49
635.313	4.58
635.646	4.63
635.978	4.62
636.31	4.63
636.643	4.62
636.975	4.69
637.307	4.69
637.639	4.64
637.971	4.65
638.303	4.66
638.635	4.68
638.967	4.7
639.299	4.68
639.631	4.67
639.963	4.66
640.295	4.71
640.626	4.7
640.958	4.69
641.29	4.68
641.621	4.69
641.953	4.66
642.285	4.63
642.616	4.6
642.948	4.61
643.279	4.58
643.61	4.62
643.942	4.6
644.273	4.59
644.604	4.59
644.936	4.64
645.267	4.62
645.598	4.65
645.929	4.57
646.26	4.58
646.591	4.63
646.922	4.6
647.253	4.55
647.584	4.52
647.915	4.5
648.245	4.5
648.576	4.43
648.907	4.49
649.238	4.47
649.568	4.44
649.899	4.43
650.229	4.44
650.56	4.43
650.89	4.42
651.221	4.42
651.551	4.39
651.882	4.3
652.212	4.29
652.542	4.33
652.872	4.32
653.203	4.33
653.533	4.3
653.863	4.31
654.193	4.27
654.523	4.33
654.853	4.38
655.183	4.4
655.513	4.52
655.843	4.47
656.172	4.58
656.502	4.55
656.832	4.58
657.162	4.59
657.491	4.62
657.821	4.55
658.15	4.55
658.48	4.64
658.809	4.72
659.139	4.78
659.468	4.75
659.798	4.86
660.127	4.91
660.456	4.89
660.785	4.92
661.115	4.99
661.444	4.98
661.773	5.02
662.102	5.02
662.431	4.96
662.76	4.94
663.089	4.9
663.418	4.94
663.747	4.96
664.076	4.96
664.404	4.91
664.733	4.98
665.062	4.97
665.39	4.79
665.719	4.8
666.048	4.74
666.376	4.76
666.705	4.71
667.033	4.74
667.362	4.71
667.69	4.63
668.018	4.57
668.347	4.52
668.675	4.42
669.003	4.48
669.331	4.46
669.659	4.42
669.987	4.42
670.315	4.51
670.643	4.55
670.971	4.59
671.299	4.54
671.627	4.59
671.955	4.6
672.283	4.64
672.61	4.62
672.938	4.67
673.266	4.65
673.593	4.64
673.921	4.7
674.249	4.75
674.576	4.85
674.904	4.94
675.231	5.11
675.558	5.15
675.886	5.08
676.213	5.16
676.54	5.32
676.867	5.31
