Data from MVZ_BU5182_Reflection_00012.txt Node
Date: Tue Nov 19 12:19:26 EST 2019
User: vgr7
Spectrometer: USB2G7710
Scans to average: 3
Trigger mode: 4
Integration Time (sec): 2.000000E-2
Electric dark correction enabled: true
Boxcar width: 10
XAxis mode: Wavelengths
Number of Pixels in Spectrum: 2048
>>>>>Begin Spectral Data<<<<<
177.721	-0.61
178.105	-32.77
178.488	-76.23
178.871	-140.48
179.254	-131.11
179.636	-39.67
180.019	55.77
180.402	100
180.785	-191.95
181.168	-2519.05
181.55	204.58
181.933	181.76
182.316	-395.73
182.698	-179.38
183.081	-89.29
183.463	-49.96
183.846	-63.16
184.228	-56.48
184.611	-19.09
184.993	-47.99
185.376	-63.62
185.758	-69.68
186.14	-80.39
186.522	-80.98
186.904	-92.16
187.287	-90.48
187.669	-82.66
188.051	-67.43
188.433	-101.46
188.815	-116.63
189.197	-110.05
189.579	-90.85
189.961	-86.32
190.342	-90.4
190.724	-83.31
191.106	-104.33
191.488	-114.86
191.869	-79.18
192.251	-73.54
192.633	-66.94
193.014	-40.3
193.396	-28.47
193.777	-38.33
194.159	-48.51
194.54	-55.5
194.922	-52.79
195.303	-52.28
195.684	-36
196.065	-39.45
196.447	-37.98
196.828	-27.92
197.209	-21.45
197.59	-24.73
197.971	-25.44
198.352	-28.08
198.733	-27.18
199.114	-30.84
199.495	-37.92
199.876	-43.72
200.257	-42.91
200.638	-57.55
201.018	-71.92
201.399	-80.19
201.78	-83.26
202.16	-90.48
202.541	-90.12
202.922	-101.35
203.302	-90.56
203.683	-114.75
204.063	-115.95
204.444	-111.05
204.824	-98.92
205.204	-84.81
205.585	-74.07
205.965	-87.9
206.345	-67.36
206.725	-61.92
207.106	-49.22
207.486	-38.07
207.866	-37.67
208.246	-33.95
208.626	-41.32
209.006	-30.33
209.386	-38.08
209.766	-37.66
210.145	-31.2
210.525	-28.82
210.905	-26.61
211.285	-33.2
211.664	-27.15
212.044	-21.34
212.424	-24.7
212.803	-32.03
213.183	-44.65
213.562	-55.41
213.942	-41.04
214.321	-66.46
214.701	-83.83
215.08	-117.7
215.459	-104.68
215.838	-106.07
216.218	-113.03
216.597	-71.85
216.976	-85.82
217.355	-75.88
217.734	-76.33
218.113	-75.11
218.492	-77.64
218.871	-70.93
219.25	-73.62
219.629	-86.64
220.008	-85.5
220.387	-80.22
220.766	-65.08
221.144	-62.06
221.523	-55.26
221.902	-54.81
222.28	-39.33
222.659	-31.1
223.037	-21.13
223.416	-28.47
223.794	-27.25
224.173	-28.57
224.551	-33.1
224.929	-34.73
225.308	-30.18
225.686	-28.59
226.064	-24.5
226.442	-21.9
226.821	-21.31
227.199	-20.28
227.577	-15.29
227.955	-14.25
228.333	-17.46
228.711	-16.77
229.089	-18.18
229.467	-17.68
229.845	-19.94
230.222	-21.52
230.6	-23.27
230.978	-21.49
231.356	-21.25
231.733	-18.94
232.111	-15.48
232.488	-14.71
232.866	-12.25
233.243	-10.42
233.621	-9.21
233.998	-10.59
234.376	-11.3
234.753	-11.44
235.13	-9.73
235.508	-9.71
235.885	-6.89
236.262	-7.33
236.639	-8.02
237.016	-6.44
237.393	-4.68
237.77	-2.07
238.147	-0.67
238.524	-0.24
238.901	-0.92
239.278	-0.91
239.655	-0.49
240.032	-0.81
240.409	-0.1
240.785	-0.54
241.162	-0.87
241.539	-1.16
241.915	-0.71
242.292	-0.07
242.668	0.52
243.045	1.34
243.421	1.75
243.798	1.78
244.174	2.17
244.551	2.23
244.927	2.18
245.303	2.06
245.679	1.98
246.056	2.17
246.432	2.41
246.808	2.62
247.184	2.97
247.56	2.63
247.936	2.82
248.312	2.72
248.688	3.01
249.064	3
249.44	3.24
249.815	3.21
250.191	3.16
250.567	2.87
250.943	2.57
251.318	2.36
251.694	2.03
252.069	2.18
252.445	2.16
252.82	2.6
253.196	2.75
253.571	2.81
253.947	2.46
254.322	2.15
254.697	2.18
255.073	1.99
255.448	2.44
255.823	2.26
256.198	2.07
256.573	1.91
256.948	2.07
257.323	2.12
257.698	2.12
258.073	2.18
258.448	2.41
258.823	2.33
259.198	2.52
259.573	2.36
259.948	2.49
260.322	2.63
260.697	2.57
261.072	2.3
261.446	2.33
261.821	2.34
262.195	2.41
262.57	2.37
262.944	2.41
263.319	2.34
263.693	2.28
264.067	2.44
264.442	2.6
264.816	2.64
265.19	2.63
265.564	2.73
265.938	2.63
266.313	2.62
266.687	2.61
267.061	2.44
267.435	2.62
267.809	2.34
268.183	2.19
268.556	2.07
268.93	2.34
269.304	2.15
269.678	2.27
270.051	2.34
270.425	2.31
270.799	2.14
271.172	2.29
271.546	2.54
271.919	2.35
272.293	2.3
272.666	2.24
273.04	2.33
273.413	2.14
273.787	2.23
274.16	2.12
274.533	2.29
274.906	2.38
275.279	2.41
275.653	2.57
276.026	2.6
276.399	2.55
276.772	2.47
277.145	2.72
277.518	2.62
277.891	2.45
278.263	2.53
278.636	2.7
279.009	2.5
279.382	2.17
279.755	2.25
280.127	2.41
280.5	2.41
280.872	2.49
281.245	2.62
281.617	2.64
281.99	2.85
282.362	2.83
282.735	2.64
283.107	2.77
283.479	2.7
283.852	2.71
284.224	2.84
284.596	2.83
284.968	2.62
285.34	2.64
285.713	2.72
286.085	2.72
286.457	2.68
286.829	2.68
287.201	2.85
287.572	2.88
287.944	2.74
288.316	2.73
288.688	2.72
289.06	2.75
289.431	2.79
289.803	2.83
290.175	2.74
290.546	2.81
290.918	2.85
291.289	2.77
291.661	2.61
292.032	2.57
292.403	2.6
292.775	2.69
293.146	2.63
293.517	2.55
293.889	2.56
294.26	2.68
294.631	2.96
295.002	2.94
295.373	3.07
295.744	3.08
296.115	3.14
296.486	2.97
296.857	2.99
297.228	2.85
297.599	2.63
297.97	2.65
298.34	2.72
298.711	2.71
299.082	2.74
299.452	2.88
299.823	2.91
300.194	2.96
300.564	3.05
300.935	3.17
301.305	3.35
301.676	3.19
302.046	3.13
302.416	3.07
302.787	2.98
303.157	2.87
303.527	2.97
303.897	2.97
304.267	3.11
304.637	3.05
305.008	3.23
305.378	3.47
305.748	3.51
306.117	3.42
306.487	3.48
306.857	3.58
307.227	3.62
307.597	3.66
307.967	3.66
308.336	3.53
308.706	3.46
309.076	3.44
309.445	3.65
309.815	3.71
310.184	3.51
310.554	3.61
310.923	3.48
311.293	3.51
311.662	3.63
312.031	3.71
312.401	3.75
312.77	3.77
313.139	3.85
313.508	3.84
313.877	3.85
314.246	3.79
314.616	3.8
314.985	3.85
315.353	3.78
315.722	3.88
316.091	3.87
316.46	3.89
316.829	3.9
317.198	3.99
317.567	3.87
317.935	4.05
318.304	4.18
318.672	4.41
319.041	4.43
319.41	4.34
319.778	4.25
320.147	4.33
320.515	4.31
320.883	4.18
321.252	4.28
321.62	4.35
321.988	4.33
322.357	4.26
322.725	4.16
323.093	4.06
323.461	4.02
323.829	4.17
324.197	4.18
324.565	4.27
324.933	4.07
325.301	4.05
325.669	3.89
326.037	3.96
326.405	3.94
326.772	3.86
327.14	3.75
327.508	3.76
327.875	3.74
328.243	3.67
328.61	3.74
328.978	3.68
329.346	3.75
329.713	3.72
330.08	3.64
330.448	3.77
330.815	3.99
331.182	3.86
331.55	3.99
331.917	3.97
332.284	3.81
332.651	3.85
333.018	4.01
333.385	4.11
333.752	3.98
334.119	3.97
334.486	4.11
334.853	4.24
335.22	4.09
335.587	4.14
335.954	3.94
336.32	4
336.687	4.03
337.054	3.92
337.42	4.01
337.787	4.19
338.153	4.19
338.52	4.18
338.886	4.37
339.253	4.37
339.619	4.41
339.986	4.47
340.352	4.54
340.718	4.46
341.084	4.44
341.451	4.49
341.817	4.53
342.183	4.43
342.549	4.45
342.915	4.5
343.281	4.52
343.647	4.73
344.013	4.7
344.379	4.74
344.745	4.78
345.11	4.79
345.476	4.87
345.842	4.88
346.208	4.95
346.573	4.91
346.939	4.82
347.304	4.95
347.67	4.95
348.035	4.9
348.401	5.06
348.766	5.12
349.132	5.18
349.497	5.23
349.862	5.26
350.228	5.19
350.593	5.31
350.958	5.38
351.323	5.36
351.688	5.39
352.053	5.49
352.418	5.56
352.783	5.51
353.148	5.49
353.513	5.6
353.878	5.54
354.243	5.52
354.608	5.62
354.972	5.55
355.337	5.58
355.702	5.71
356.066	5.62
356.431	5.6
356.795	5.57
357.16	5.57
357.524	5.51
357.889	5.52
358.253	5.43
358.618	5.36
358.982	5.35
359.346	5.32
359.71	5.23
360.075	5.21
360.439	5.24
360.803	5.2
361.167	5.1
361.531	5.13
361.895	5.19
362.259	5.11
362.623	5.11
362.987	5.12
363.351	5.02
363.714	5.03
364.078	5.06
364.442	5.04
364.806	5.02
365.169	5.03
365.533	5.06
365.896	5.14
366.26	5.15
366.623	5.14
366.987	5.06
367.35	5.13
367.714	5.1
368.077	5.1
368.44	5.13
368.803	5.1
369.167	5.02
369.53	4.86
369.893	4.91
370.256	4.87
370.619	4.77
370.982	4.77
371.345	4.77
371.708	4.67
372.071	4.71
372.434	4.77
372.797	4.85
373.159	4.77
373.522	4.68
373.885	4.64
374.247	4.64
374.61	4.68
374.973	4.66
375.335	4.77
375.698	4.74
376.06	4.6
376.423	4.52
376.785	4.58
377.147	4.61
377.51	4.57
377.872	4.55
378.234	4.55
378.596	4.51
378.958	4.53
379.321	4.57
379.683	4.54
380.045	4.49
380.407	4.41
380.769	4.41
381.13	4.45
381.492	4.4
381.854	4.35
382.216	4.38
382.578	4.31
382.939	4.18
383.301	4.15
383.663	4.19
384.024	4.25
384.386	4.14
384.747	4.14
385.109	4.11
385.47	4.12
385.832	4.07
386.193	4.1
386.554	4.03
386.916	4.03
387.277	4
387.638	3.95
387.999	3.95
388.36	3.94
388.721	3.91
389.082	3.95
389.443	3.99
389.804	3.93
390.165	3.91
390.526	3.95
390.887	3.96
391.248	3.92
391.609	3.89
391.969	3.94
392.33	3.92
392.691	3.94
393.051	3.89
393.412	3.93
393.772	3.89
394.133	3.9
394.493	3.86
394.854	3.82
395.214	3.82
395.574	3.81
395.935	3.77
396.295	3.74
396.655	3.75
397.015	3.72
397.376	3.69
397.736	3.69
398.096	3.66
398.456	3.65
398.816	3.71
399.176	3.7
399.535	3.63
399.895	3.63
400.255	3.59
400.615	3.62
400.975	3.58
401.334	3.61
401.694	3.59
402.054	3.6
402.413	3.61
402.773	3.63
403.132	3.57
403.492	3.59
403.851	3.57
404.211	3.52
404.57	3.5
404.929	3.52
405.288	3.52
405.648	3.49
406.007	3.47
406.366	3.42
406.725	3.41
407.084	3.45
407.443	3.44
407.802	3.45
408.161	3.47
408.52	3.51
408.879	3.5
409.238	3.5
409.596	3.46
409.955	3.47
410.314	3.4
410.673	3.43
411.031	3.44
411.39	3.44
411.748	3.46
412.107	3.45
412.465	3.44
412.824	3.42
413.182	3.4
413.54	3.4
413.899	3.42
414.257	3.42
414.615	3.42
414.974	3.39
415.332	3.39
415.69	3.34
416.048	3.34
416.406	3.3
416.764	3.32
417.122	3.34
417.48	3.34
417.838	3.33
418.195	3.3
418.553	3.31
418.911	3.3
419.269	3.32
419.626	3.33
419.984	3.33
420.342	3.33
420.699	3.32
421.057	3.32
421.414	3.31
421.772	3.31
422.129	3.3
422.486	3.3
422.844	3.29
423.201	3.29
423.558	3.29
423.915	3.3
424.273	3.29
424.63	3.28
424.987	3.28
425.344	3.29
425.701	3.3
426.058	3.28
426.415	3.3
426.772	3.27
427.128	3.28
427.485	3.29
427.842	3.28
428.199	3.28
428.555	3.25
428.912	3.23
429.269	3.22
429.625	3.22
429.982	3.24
430.338	3.24
430.695	3.22
431.051	3.24
431.407	3.23
431.764	3.21
432.12	3.22
432.476	3.22
432.832	3.22
433.189	3.22
433.545	3.23
433.901	3.21
434.257	3.22
434.613	3.22
434.969	3.2
435.325	3.22
435.681	3.21
436.036	3.22
436.392	3.25
436.748	3.25
437.104	3.25
437.459	3.23
437.815	3.23
438.171	3.24
438.526	3.22
438.882	3.22
439.237	3.23
439.593	3.22
439.948	3.23
440.304	3.24
440.659	3.25
441.014	3.26
441.369	3.26
441.725	3.27
442.08	3.25
442.435	3.24
442.79	3.23
443.145	3.25
443.5	3.25
443.855	3.22
444.21	3.24
444.565	3.23
444.92	3.26
445.275	3.28
445.629	3.27
445.984	3.28
446.339	3.28
446.693	3.28
447.048	3.26
447.403	3.25
447.757	3.25
448.112	3.24
448.466	3.22
448.82	3.24
449.175	3.22
449.529	3.22
449.883	3.23
450.238	3.25
450.592	3.24
450.946	3.23
451.3	3.23
451.654	3.22
452.008	3.22
452.362	3.2
452.716	3.18
453.07	3.2
453.424	3.18
453.778	3.18
454.132	3.15
454.486	3.19
454.839	3.18
455.193	3.2
455.547	3.18
455.9	3.19
456.254	3.2
456.607	3.2
456.961	3.2
457.314	3.22
457.668	3.2
458.021	3.19
458.375	3.21
458.728	3.22
459.081	3.21
459.434	3.21
459.787	3.22
460.141	3.22
460.494	3.22
460.847	3.2
461.2	3.21
461.553	3.22
461.906	3.21
462.259	3.21
462.611	3.21
462.964	3.24
463.317	3.21
463.67	3.19
464.022	3.19
464.375	3.2
464.728	3.19
465.08	3.19
465.433	3.21
465.785	3.21
466.138	3.23
466.49	3.23
466.843	3.28
467.195	3.27
467.547	3.29
467.899	3.3
468.252	3.33
468.604	3.32
468.956	3.34
469.308	3.32
469.66	3.34
470.012	3.33
470.364	3.35
470.716	3.38
471.068	3.4
471.42	3.4
471.772	3.4
472.123	3.41
472.475	3.42
472.827	3.43
473.178	3.4
473.53	3.38
473.882	3.39
474.233	3.34
474.585	3.34
474.936	3.33
475.288	3.3
475.639	3.32
475.99	3.34
476.342	3.34
476.693	3.36
477.044	3.35
477.395	3.33
477.746	3.32
478.097	3.31
478.448	3.3
478.8	3.31
479.15	3.31
479.501	3.3
479.852	3.3
480.203	3.3
480.554	3.33
480.905	3.34
481.255	3.36
481.606	3.38
481.957	3.37
482.307	3.38
482.658	3.39
483.009	3.38
483.359	3.39
483.709	3.4
484.06	3.4
484.41	3.39
484.761	3.4
485.111	3.4
485.461	3.4
485.811	3.4
486.162	3.4
486.512	3.4
486.862	3.42
487.212	3.42
487.562	3.42
487.912	3.42
488.262	3.42
488.612	3.41
488.961	3.41
489.311	3.42
489.661	3.41
490.011	3.39
490.36	3.39
490.71	3.39
491.06	3.38
491.409	3.39
491.759	3.41
492.108	3.39
492.458	3.39
492.807	3.4
493.157	3.43
493.506	3.42
493.855	3.43
494.204	3.42
494.554	3.42
494.903	3.45
495.252	3.46
495.601	3.46
495.95	3.48
496.299	3.48
496.648	3.49
496.997	3.51
497.346	3.55
497.695	3.57
498.043	3.58
498.392	3.58
498.741	3.59
499.09	3.63
499.438	3.68
499.787	3.72
500.135	3.73
500.484	3.73
500.832	3.78
501.181	3.8
501.529	3.84
501.878	3.88
502.226	3.87
502.574	3.89
502.923	3.89
503.271	3.91
503.619	3.96
503.967	4
504.315	4.05
504.663	4.08
505.011	4.13
505.359	4.18
505.707	4.23
506.055	4.3
506.403	4.35
506.751	4.38
507.098	4.41
507.446	4.47
507.794	4.54
508.141	4.59
508.489	4.65
508.837	4.72
509.184	4.79
509.531	4.88
509.879	4.93
510.226	5.05
510.574	5.13
510.921	5.17
511.268	5.24
511.616	5.32
511.963	5.41
512.31	5.48
512.657	5.58
513.004	5.65
513.351	5.72
513.698	5.82
514.045	5.93
514.392	6.04
514.739	6.15
515.086	6.23
515.432	6.36
515.779	6.46
516.126	6.58
516.473	6.67
516.819	6.75
517.166	6.85
517.512	6.92
517.859	7.02
518.205	7.13
518.552	7.24
518.898	7.32
519.245	7.41
519.591	7.54
519.937	7.62
520.283	7.73
520.629	7.82
520.976	7.92
521.322	8.03
521.668	8.14
522.014	8.25
522.36	8.38
522.706	8.51
523.052	8.66
523.398	8.8
523.743	8.97
524.089	9.17
524.435	9.34
524.781	9.5
525.126	9.62
525.472	9.75
525.817	9.86
526.163	9.99
526.509	10.09
526.854	10.18
527.199	10.29
527.545	10.4
527.89	10.5
528.235	10.61
528.581	10.71
528.926	10.83
529.271	10.96
529.616	11.07
529.961	11.17
530.306	11.27
530.651	11.39
530.996	11.51
531.341	11.62
531.686	11.75
532.031	11.9
532.376	12.03
532.721	12.16
533.065	12.31
533.41	12.46
533.755	12.6
534.099	12.78
534.444	12.92
534.788	13.06
535.133	13.21
535.477	13.35
535.822	13.54
536.166	13.71
536.51	13.89
536.855	14.11
537.199	14.32
537.543	14.54
537.887	14.76
538.231	14.97
538.576	15.19
538.92	15.38
539.264	15.58
539.608	15.78
539.951	15.95
540.295	16.16
540.639	16.33
540.983	16.53
541.327	16.71
541.671	16.9
542.014	17.09
542.358	17.28
542.701	17.47
543.045	17.64
543.389	17.81
543.732	17.96
544.075	18.11
544.419	18.32
544.762	18.51
545.105	18.73
545.449	18.95
545.792	19.17
546.135	19.42
546.478	19.65
546.821	19.9
547.165	20.22
547.508	20.47
547.851	20.71
548.194	20.95
548.536	21.19
548.879	21.45
549.222	21.69
549.565	21.92
549.908	22.17
550.25	22.41
550.593	22.69
550.936	22.94
551.278	23.22
551.621	23.45
551.963	23.73
552.306	23.94
552.648	24.18
552.991	24.43
553.333	24.65
553.675	24.91
554.017	25.15
554.36	25.35
554.702	25.59
555.044	25.86
555.386	26.09
555.728	26.33
556.07	26.54
556.412	26.78
556.754	27.03
557.096	27.24
557.438	27.5
557.78	27.69
558.121	27.99
558.463	28.21
558.805	28.44
559.147	28.67
559.488	28.89
559.83	29.13
560.171	29.33
560.513	29.54
560.854	29.75
561.196	30
561.537	30.14
561.878	30.34
562.22	30.5
562.561	30.72
562.902	30.88
563.243	31.05
563.584	31.24
563.925	31.42
564.266	31.66
564.607	31.82
564.948	32
565.289	32.13
565.63	32.29
565.971	32.47
566.312	32.61
566.653	32.79
566.993	32.94
567.334	33.09
567.675	33.24
568.015	33.37
568.356	33.48
568.696	33.68
569.037	33.81
569.377	33.94
569.718	34.07
570.058	34.27
570.398	34.44
570.739	34.59
571.079	34.77
571.419	34.93
571.759	35.07
572.099	35.2
572.439	35.29
572.779	35.42
573.119	35.55
573.459	35.67
573.799	35.78
574.139	35.86
574.479	36.01
574.819	36.16
575.158	36.27
575.498	36.36
575.838	36.48
576.177	36.6
576.517	36.72
576.856	36.83
577.196	36.87
577.535	36.95
577.875	37.09
578.214	37.16
578.553	37.16
578.893	37.24
579.232	37.36
579.571	37.52
579.91	37.59
580.25	37.7
580.589	37.76
580.928	37.88
581.267	37.98
581.606	38.01
581.945	38.06
582.283	38.17
582.622	38.25
582.961	38.35
583.3	38.43
583.639	38.56
583.977	38.64
584.316	38.74
584.654	38.89
584.993	38.97
585.332	39.08
585.67	39.3
586.008	39.3
586.347	39.37
586.685	39.44
587.024	39.56
587.362	39.54
587.7	39.65
588.038	39.7
588.376	39.79
588.715	39.98
589.053	40.07
589.391	40.1
589.729	40.2
590.067	40.31
590.404	40.4
590.742	40.45
591.08	40.6
591.418	40.67
591.756	40.74
592.093	40.78
592.431	40.8
592.769	40.8
593.106	40.92
593.444	41.02
593.781	41.1
594.119	41.18
594.456	41.27
594.793	41.33
595.131	41.39
595.468	41.46
595.805	41.46
596.143	41.49
596.48	41.51
596.817	41.56
597.154	41.64
597.491	41.65
597.828	41.68
598.165	41.69
598.502	41.81
598.839	41.83
599.176	41.89
599.512	41.94
599.849	42
600.186	42.07
600.523	42.11
600.859	42.13
601.196	42.22
601.532	42.29
601.869	42.37
602.205	42.43
602.542	42.47
602.878	42.52
603.215	42.58
603.551	42.72
603.887	42.75
604.223	42.74
604.56	42.79
604.896	42.87
605.232	42.94
605.568	42.97
605.904	42.98
606.24	43.08
606.576	43.11
606.912	43.18
607.248	43.26
607.583	43.3
607.919	43.3
608.255	43.34
608.591	43.39
608.926	43.44
609.262	43.44
609.597	43.51
609.933	43.5
610.268	43.58
610.604	43.61
610.939	43.68
611.275	43.77
611.61	43.74
611.945	43.7
612.281	43.66
612.616	43.65
612.951	43.71
613.286	43.72
613.621	43.8
613.956	43.87
614.291	43.82
614.626	43.83
614.961	43.94
615.296	44.06
615.631	44.09
615.966	44.05
616.3	44.12
616.635	44.17
616.97	44.17
617.304	44.12
617.639	44.08
617.973	44.08
618.308	44.07
618.642	44.2
618.977	44.4
619.311	44.4
619.646	44.43
619.98	44.46
620.314	44.43
620.648	44.44
620.983	44.34
621.317	44.38
621.651	44.43
621.985	44.47
622.319	44.4
622.653	44.49
622.987	44.59
623.321	44.66
623.655	44.67
623.988	44.76
624.322	44.76
624.656	44.86
624.99	44.86
625.323	44.85
625.657	44.89
625.99	44.9
626.324	45.07
626.657	45.1
626.991	45.23
627.324	45.3
627.658	45.36
627.991	45.48
628.324	45.54
628.657	45.56
628.991	45.58
629.324	45.61
629.657	45.54
629.99	45.58
630.323	45.56
630.656	45.6
630.989	45.65
631.322	45.69
631.655	45.61
631.987	45.71
632.32	45.72
632.653	45.71
632.986	45.65
633.318	45.68
633.651	45.77
633.984	45.67
634.316	45.6
634.649	45.58
634.981	45.54
635.313	45.58
635.646	45.52
635.978	45.59
636.31	45.57
636.643	45.59
636.975	45.58
637.307	45.59
637.639	45.58
637.971	45.56
638.303	45.62
638.635	45.74
638.967	45.82
639.299	45.87
639.631	45.84
639.963	45.9
640.295	45.8
640.626	45.82
640.958	45.86
641.29	45.89
641.621	46.04
641.953	46.01
642.285	45.98
642.616	46.12
642.948	46.15
643.279	46.15
643.61	46.2
643.942	46.27
644.273	46.39
644.604	46.4
644.936	46.47
645.267	46.52
645.598	46.52
645.929	46.56
646.26	46.63
646.591	46.75
646.922	46.76
647.253	46.76
647.584	46.79
647.915	46.87
648.245	46.86
648.576	46.8
648.907	46.85
649.238	46.87
649.568	46.78
649.899	46.83
650.229	46.78
650.56	46.84
650.89	46.79
651.221	46.62
651.551	46.59
651.882	46.61
652.212	46.6
652.542	46.6
652.872	46.46
653.203	46.48
653.533	46.41
653.863	46.46
654.193	46.4
654.523	46.4
654.853	46.44
655.183	46.55
655.513	46.62
655.843	46.65
656.172	46.68
656.502	46.62
656.832	46.45
657.162	46.56
657.491	46.56
657.821	46.75
658.15	46.82
658.48	46.93
658.809	46.84
659.139	46.82
659.468	46.82
659.798	46.88
660.127	46.82
660.456	46.82
660.785	46.78
661.115	46.92
661.444	47
661.773	46.97
662.102	46.93
662.431	46.84
662.76	46.85
663.089	46.91
663.418	47.05
663.747	47.25
664.076	47.38
664.404	47.33
664.733	47.27
665.062	47.35
665.39	47.38
665.719	47.48
666.048	47.56
