Data from MVZ_BU5182_Reflection_00007.txt Node
Date: Tue Nov 19 12:19:17 EST 2019
User: vgr7
Spectrometer: USB2G7710
Scans to average: 3
Trigger mode: 4
Integration Time (sec): 2.000000E-2
Electric dark correction enabled: true
Boxcar width: 10
XAxis mode: Wavelengths
Number of Pixels in Spectrum: 2048
>>>>>Begin Spectral Data<<<<<
177.721	100.94
178.105	179.1
178.488	163.18
178.871	95.24
179.254	108.89
179.636	97.65
180.019	69.98
180.402	118.18
180.785	-67.82
181.168	-1661.9
181.55	165.36
181.933	87.42
182.316	14.53
182.698	51.83
183.081	32.59
183.463	10.64
183.846	22.88
184.228	36.23
184.611	36
184.993	22.93
185.376	34.55
185.758	35.41
186.14	33.89
186.522	39.84
186.904	15.41
187.287	7.17
187.669	-7.86
188.051	-3.11
188.433	-13.98
188.815	-8.71
189.197	-6.33
189.579	-22.2
189.961	-32.22
190.342	-35.27
190.724	-59.62
191.106	-70.77
191.488	-55.26
191.869	-48.75
192.251	-44.07
192.633	-33.01
193.014	-34.15
193.396	-31.03
193.777	-30
194.159	-28.93
194.54	-26.59
194.922	-21.14
195.303	-20.58
195.684	-6.55
196.065	-17.32
196.447	-10.62
196.828	-11.86
197.209	-6.53
197.59	9.12
197.971	13.35
198.352	3.62
198.733	2.99
199.114	-10.82
199.495	-5.87
199.876	-14.14
200.257	-11.69
200.638	-8.65
201.018	-7.61
201.399	-10.28
201.78	-5.99
202.16	-11.48
202.541	-20.7
202.922	-20.32
203.302	-12.84
203.683	-20.94
204.063	-4.84
204.444	-3.04
204.824	5.15
205.204	9.53
205.585	12.07
205.965	18.98
206.345	16.09
206.725	38.49
207.106	66.79
207.486	58.11
207.866	64.06
208.246	76.02
208.626	71.88
209.006	80.21
209.386	90.28
209.766	89.91
210.145	85.68
210.525	81.32
210.905	79.89
211.285	86.1
211.664	88.94
212.044	90.35
212.424	93.49
212.803	97.46
213.183	95.96
213.562	106.18
213.942	96.03
214.321	105.83
214.701	93.89
215.08	102.51
215.459	107.44
215.838	81.89
216.218	72.42
216.597	48.2
216.976	40.46
217.355	40.05
217.734	22.35
218.113	26.23
218.492	17.6
218.871	17.22
219.25	7.01
219.629	8.02
220.008	7.57
220.387	-1.75
220.766	0.49
221.144	-0.03
221.523	-2.54
221.902	-1.25
222.28	-1.96
222.659	12.1
223.037	4.46
223.416	3.75
223.794	6.18
224.173	3.67
224.551	11.79
224.929	9.93
225.308	14.02
225.686	16.8
226.064	16.95
226.442	17.22
226.821	20.61
227.199	24.67
227.577	23.83
227.955	21.7
228.333	19.83
228.711	19.43
229.089	20.52
229.467	20.14
229.845	16.44
230.222	16.3
230.6	10.9
230.978	10.65
231.356	9.71
231.733	9.72
232.111	9.1
232.488	9.05
232.866	8.47
233.243	7.24
233.621	6.41
233.998	5.77
234.376	7.59
234.753	5.35
235.13	5.73
235.508	4.87
235.885	3.87
236.262	6.24
236.639	4.81
237.016	3.41
237.393	4.79
237.77	5.18
238.147	5.7
238.524	6.94
238.901	5.55
239.278	4.4
239.655	4.42
240.032	4.71
240.409	3.85
240.785	3.22
241.162	3.4
241.539	3.86
241.915	3.69
242.292	3.62
242.668	4.04
243.045	3.83
243.421	3.73
243.798	4.02
244.174	3.34
244.551	3.85
244.927	3.92
245.303	3.18
245.679	3.23
246.056	3.26
246.432	3.11
246.808	3.76
247.184	3.89
247.56	3.67
247.936	3.61
248.312	3.78
248.688	4.1
249.064	4.08
249.44	3.8
249.815	3.79
250.191	3.59
250.567	3.51
250.943	3.32
251.318	3.27
251.694	3.05
252.069	3.37
252.445	3.22
252.82	3.37
253.196	3.64
253.571	3.66
253.947	3.57
254.322	3.79
254.697	3.34
255.073	3.38
255.448	3.58
255.823	3.46
256.198	3.5
256.573	3.36
256.948	3.24
257.323	3.46
257.698	3.46
258.073	3.64
258.448	3.84
258.823	4.04
259.198	4.18
259.573	4.25
259.948	4.22
260.322	4.1
260.697	4.27
261.072	4.28
261.446	4.37
261.821	4.22
262.195	4.16
262.57	4.29
262.944	4.39
263.319	4.4
263.693	4.41
264.067	4.4
264.442	4.36
264.816	4.46
265.19	4.34
265.564	4.5
265.938	4.5
266.313	4.27
266.687	4.15
267.061	4
267.435	3.96
267.809	3.93
268.183	4
268.556	3.72
268.93	3.71
269.304	3.53
269.678	3.56
270.051	3.54
270.425	3.42
270.799	3.25
271.172	3.2
271.546	3.46
271.919	3.49
272.293	3.68
272.666	3.65
273.04	3.69
273.413	3.41
273.787	3.37
274.16	3.17
274.533	3.07
274.906	2.98
275.279	3.17
275.653	3.33
276.026	3.21
276.399	3.37
276.772	3.36
277.145	3.33
277.518	3.45
277.891	3.44
278.263	3.56
278.636	3.97
279.009	3.96
279.382	3.73
279.755	3.63
280.127	3.57
280.5	3.45
280.872	3.48
281.245	3.66
281.617	3.64
281.99	3.85
282.362	3.92
282.735	4.04
283.107	3.85
283.479	3.77
283.852	3.93
284.224	3.78
284.596	3.82
284.968	3.93
285.34	3.88
285.713	3.75
286.085	3.67
286.457	3.47
286.829	3.49
287.201	3.42
287.572	3.56
287.944	3.59
288.316	3.6
288.688	3.76
289.06	3.71
289.431	3.78
289.803	3.87
290.175	3.83
290.546	3.78
290.918	3.81
291.289	3.63
291.661	3.54
292.032	3.59
292.403	3.63
292.775	3.63
293.146	3.78
293.517	3.91
293.889	3.92
294.26	3.85
294.631	3.93
295.002	4.18
295.373	4.04
295.744	4.11
296.115	4.17
296.486	4.07
296.857	4.16
297.228	4.1
297.599	4.08
297.97	4.23
298.34	4.45
298.711	4.63
299.082	4.73
299.452	4.74
299.823	4.81
300.194	4.82
300.564	4.87
300.935	4.85
301.305	4.97
301.676	4.92
302.046	5.03
302.416	5.18
302.787	5.12
303.157	5.24
303.527	5.31
303.897	5.43
304.267	5.57
304.637	5.59
305.008	5.66
305.378	5.78
305.748	5.63
306.117	5.43
306.487	5.37
306.857	5.5
307.227	5.47
307.597	5.52
307.967	5.54
308.336	5.49
308.706	5.35
309.076	5.4
309.445	5.55
309.815	5.69
310.184	5.64
310.554	5.52
310.923	5.54
311.293	5.48
311.662	5.58
312.031	5.55
312.401	5.5
312.77	5.4
313.139	5.26
313.508	5.46
313.877	5.56
314.246	5.48
314.616	5.53
314.985	5.61
315.353	5.66
315.722	5.74
316.091	5.77
316.46	6.03
316.829	6.07
317.198	6.07
317.567	6.15
317.935	6.18
318.304	6.42
318.672	6.49
319.041	6.71
319.41	6.51
319.778	6.55
320.147	6.68
320.515	6.79
320.883	6.74
321.252	6.8
321.62	6.86
321.988	6.97
322.357	6.86
322.725	6.96
323.093	6.93
323.461	6.78
323.829	6.73
324.197	6.74
324.565	6.7
324.933	6.67
325.301	6.37
325.669	6.3
326.037	6.28
326.405	6.24
326.772	6.13
327.14	6.16
327.508	6.13
327.875	6.1
328.243	6.14
328.61	6.29
328.978	6.25
329.346	6.22
329.713	6.29
330.08	6.33
330.448	6.32
330.815	6.37
331.182	6.56
331.55	6.63
331.917	6.51
332.284	6.48
332.651	6.51
333.018	6.76
333.385	6.9
333.752	7
334.119	7.08
334.486	7.15
334.853	7.27
335.22	7.25
335.587	7.31
335.954	7.26
336.32	7.41
336.687	7.38
337.054	7.42
337.42	7.41
337.787	7.52
338.153	7.65
338.52	7.64
338.886	7.51
339.253	7.53
339.619	7.67
339.986	7.7
340.352	7.67
340.718	7.58
341.084	7.54
341.451	7.55
341.817	7.64
342.183	7.48
342.549	7.7
342.915	7.83
343.281	7.88
343.647	7.91
344.013	7.82
344.379	7.84
344.745	7.88
345.11	7.94
345.476	7.95
345.842	7.93
346.208	7.96
346.573	8.06
346.939	8.12
347.304	8.11
347.67	8.19
348.035	8.28
348.401	8.33
348.766	8.32
349.132	8.24
349.497	8.19
349.862	8.36
350.228	8.17
350.593	8.08
350.958	8.11
351.323	8.19
351.688	8.22
352.053	8.21
352.418	8.19
352.783	8.14
353.148	8.04
353.513	7.95
353.878	7.87
354.243	7.81
354.608	7.86
354.972	7.87
355.337	7.78
355.702	7.72
356.066	7.77
356.431	7.76
356.795	7.73
357.16	7.7
357.524	7.65
357.889	7.65
358.253	7.61
358.618	7.57
358.982	7.58
359.346	7.53
359.71	7.51
360.075	7.57
360.439	7.58
360.803	7.62
361.167	7.62
361.531	7.64
361.895	7.65
362.259	7.61
362.623	7.57
362.987	7.55
363.351	7.55
363.714	7.58
364.078	7.54
364.442	7.51
364.806	7.57
365.169	7.5
365.533	7.5
365.896	7.54
366.26	7.5
366.623	7.42
366.987	7.46
367.35	7.53
367.714	7.45
368.077	7.45
368.44	7.43
368.803	7.45
369.167	7.42
369.53	7.42
369.893	7.38
370.256	7.3
370.619	7.31
370.982	7.23
371.345	7.16
371.708	7.17
372.071	7.21
372.434	7.07
372.797	7.07
373.159	7.04
373.522	6.95
373.885	6.87
374.247	6.83
374.61	6.78
374.973	6.7
375.335	6.74
375.698	6.64
376.06	6.63
376.423	6.58
376.785	6.61
377.147	6.53
377.51	6.5
377.872	6.51
378.234	6.49
378.596	6.53
378.958	6.51
379.321	6.47
379.683	6.44
380.045	6.41
380.407	6.43
380.769	6.36
381.13	6.37
381.492	6.34
381.854	6.34
382.216	6.35
382.578	6.26
382.939	6.12
383.301	6.1
383.663	6.09
384.024	6.06
384.386	6.02
384.747	6.03
385.109	5.99
385.47	6
385.832	5.9
386.193	5.82
386.554	5.73
386.916	5.71
387.277	5.65
387.638	5.71
387.999	5.7
388.36	5.66
388.721	5.66
389.082	5.69
389.443	5.66
389.804	5.6
390.165	5.58
390.526	5.63
390.887	5.62
391.248	5.58
391.609	5.57
391.969	5.52
392.33	5.5
392.691	5.48
393.051	5.42
393.412	5.46
393.772	5.45
394.133	5.43
394.493	5.39
394.854	5.39
395.214	5.35
395.574	5.29
395.935	5.23
396.295	5.18
396.655	5.11
397.015	5.1
397.376	5.08
397.736	5.03
398.096	4.98
398.456	4.94
398.816	4.9
399.176	4.83
399.535	4.81
399.895	4.8
400.255	4.79
400.615	4.76
400.975	4.72
401.334	4.71
401.694	4.7
402.054	4.72
402.413	4.68
402.773	4.65
403.132	4.65
403.492	4.67
403.851	4.65
404.211	4.65
404.57	4.66
404.929	4.62
405.288	4.65
405.648	4.61
406.007	4.61
406.366	4.61
406.725	4.64
407.084	4.62
407.443	4.59
407.802	4.59
408.161	4.62
408.52	4.62
408.879	4.64
409.238	4.65
409.596	4.59
409.955	4.6
410.314	4.55
410.673	4.55
411.031	4.58
411.39	4.59
411.748	4.63
412.107	4.6
412.465	4.59
412.824	4.56
413.182	4.59
413.54	4.59
413.899	4.58
414.257	4.54
414.615	4.56
414.974	4.56
415.332	4.57
415.69	4.54
416.048	4.51
416.406	4.5
416.764	4.48
417.122	4.47
417.48	4.49
417.838	4.5
418.195	4.48
418.553	4.42
418.911	4.4
419.269	4.37
419.626	4.35
419.984	4.33
420.342	4.34
420.699	4.33
421.057	4.3
421.414	4.3
421.772	4.31
422.129	4.27
422.486	4.27
422.844	4.25
423.201	4.25
423.558	4.24
423.915	4.22
424.273	4.22
424.63	4.22
424.987	4.18
425.344	4.17
425.701	4.15
426.058	4.18
426.415	4.17
426.772	4.14
427.128	4.15
427.485	4.17
427.842	4.17
428.199	4.14
428.555	4.15
428.912	4.13
429.269	4.11
429.625	4.1
429.982	4.09
430.338	4.08
430.695	4.04
431.051	4.05
431.407	4.07
431.764	4.06
432.12	4.07
432.476	4.1
432.832	4.11
433.189	4.11
433.545	4.09
433.901	4.1
434.257	4.12
434.613	4.1
434.969	4.09
435.325	4.08
435.681	4.1
436.036	4.11
436.392	4.11
436.748	4.12
437.104	4.12
437.459	4.13
437.815	4.12
438.171	4.14
438.526	4.15
438.882	4.16
439.237	4.16
439.593	4.17
439.948	4.17
440.304	4.15
440.659	4.18
441.014	4.18
441.369	4.17
441.725	4.18
442.08	4.17
442.435	4.17
442.79	4.16
443.145	4.16
443.5	4.16
443.855	4.16
444.21	4.16
444.565	4.16
444.92	4.16
445.275	4.16
445.629	4.15
445.984	4.14
446.339	4.13
446.693	4.13
447.048	4.09
447.403	4.09
447.757	4.09
448.112	4.08
448.466	4.1
448.82	4.1
449.175	4.08
449.529	4.07
449.883	4.07
450.238	4.07
450.592	4.05
450.946	4.04
451.3	4.04
451.654	4.05
452.008	4.04
452.362	4.05
452.716	4.04
453.07	4.05
453.424	4.05
453.778	4.04
454.132	4.03
454.486	4.05
454.839	4.04
455.193	4.05
455.547	4.02
455.9	3.99
456.254	4
456.607	4
456.961	4.01
457.314	4.01
457.668	4.01
458.021	4.01
458.375	4.01
458.728	4
459.081	4
459.434	4.01
459.787	4.01
460.141	4.01
460.494	4.02
460.847	4.02
461.2	4.02
461.553	4.04
461.906	4.05
462.259	4.06
462.611	4.07
462.964	4.1
463.317	4.11
463.67	4.12
464.022	4.12
464.375	4.11
464.728	4.13
465.08	4.11
465.433	4.13
465.785	4.16
466.138	4.17
466.49	4.17
466.843	4.17
467.195	4.18
467.547	4.18
467.899	4.21
468.252	4.23
468.604	4.23
468.956	4.23
469.308	4.21
469.66	4.23
470.012	4.2
470.364	4.21
470.716	4.21
471.068	4.2
471.42	4.22
471.772	4.24
472.123	4.23
472.475	4.29
472.827	4.29
473.178	4.29
473.53	4.32
473.882	4.33
474.233	4.34
474.585	4.32
474.936	4.34
475.288	4.32
475.639	4.32
475.99	4.33
476.342	4.35
476.693	4.39
477.044	4.37
477.395	4.39
477.746	4.38
478.097	4.38
478.448	4.37
478.8	4.38
479.15	4.38
479.501	4.39
479.852	4.37
480.203	4.36
480.554	4.36
480.905	4.34
481.255	4.33
481.606	4.32
481.957	4.34
482.307	4.33
482.658	4.32
483.009	4.33
483.359	4.32
483.709	4.31
484.06	4.3
484.41	4.31
484.761	4.32
485.111	4.32
485.461	4.32
485.811	4.31
486.162	4.32
486.512	4.32
486.862	4.32
487.212	4.34
487.562	4.33
487.912	4.33
488.262	4.33
488.612	4.34
488.961	4.34
489.311	4.34
489.661	4.35
490.011	4.35
490.36	4.34
490.71	4.34
491.06	4.35
491.409	4.34
491.759	4.33
492.108	4.33
492.458	4.32
492.807	4.34
493.157	4.37
493.506	4.36
493.855	4.37
494.204	4.37
494.554	4.35
494.903	4.39
495.252	4.41
495.601	4.43
495.95	4.45
496.299	4.49
496.648	4.5
496.997	4.53
497.346	4.58
497.695	4.61
498.043	4.67
498.392	4.69
498.741	4.75
499.09	4.82
499.438	4.85
499.787	4.9
500.135	4.92
500.484	4.94
500.832	5.01
501.181	5.04
501.529	5.1
501.878	5.17
502.226	5.2
502.574	5.26
502.923	5.32
503.271	5.38
503.619	5.45
503.967	5.49
504.315	5.55
504.663	5.61
505.011	5.67
505.359	5.72
505.707	5.79
506.055	5.85
506.403	5.89
506.751	5.97
507.098	6.05
507.446	6.17
507.794	6.25
508.141	6.32
508.489	6.42
508.837	6.5
509.184	6.6
509.531	6.69
509.879	6.78
510.226	6.87
510.574	6.98
510.921	7.06
511.268	7.18
511.616	7.32
511.963	7.43
512.31	7.56
512.657	7.69
513.004	7.82
513.351	7.97
513.698	8.12
514.045	8.28
514.392	8.46
514.739	8.6
515.086	8.77
515.432	8.95
515.779	9.12
516.126	9.3
516.473	9.44
516.819	9.6
517.166	9.73
517.512	9.88
517.859	10.02
518.205	10.13
518.552	10.24
518.898	10.35
519.245	10.46
519.591	10.58
519.937	10.7
520.283	10.85
520.629	11
520.976	11.16
521.322	11.31
521.668	11.43
522.014	11.63
522.36	11.79
522.706	11.95
523.052	12.14
523.398	12.3
523.743	12.53
524.089	12.71
524.435	12.91
524.781	13.11
525.126	13.24
525.472	13.44
525.817	13.59
526.163	13.7
526.509	13.82
526.854	13.93
527.199	14.06
527.545	14.17
527.89	14.28
528.235	14.37
528.581	14.51
528.926	14.64
529.271	14.74
529.616	14.86
529.961	14.98
530.306	15.09
530.651	15.21
530.996	15.34
531.341	15.49
531.686	15.64
532.031	15.76
532.376	15.93
532.721	16.06
533.065	16.23
533.41	16.43
533.755	16.63
534.099	16.84
534.444	17.01
534.788	17.18
535.133	17.34
535.477	17.56
535.822	17.73
536.166	17.93
536.51	18.15
536.855	18.38
537.199	18.62
537.543	18.88
537.887	19.13
538.231	19.37
538.576	19.6
538.92	19.84
539.264	20.09
539.608	20.35
539.951	20.57
540.295	20.77
540.639	20.94
540.983	21.12
541.327	21.31
541.671	21.51
542.014	21.71
542.358	21.91
542.701	22.08
543.045	22.25
543.389	22.42
543.732	22.59
544.075	22.76
544.419	22.95
544.762	23.14
545.105	23.36
545.449	23.58
545.792	23.82
546.135	24.05
546.478	24.3
546.821	24.53
547.165	24.82
547.508	25.1
547.851	25.38
548.194	25.64
548.536	25.9
548.879	26.2
549.222	26.43
549.565	26.69
549.908	26.95
550.25	27.2
550.593	27.5
550.936	27.75
551.278	28.08
551.621	28.31
551.963	28.54
552.306	28.73
552.648	28.94
552.991	29.19
553.333	29.41
553.675	29.64
554.017	29.81
554.36	29.98
554.702	30.18
555.044	30.46
555.386	30.66
555.728	30.92
556.07	31.07
556.412	31.31
556.754	31.51
557.096	31.72
557.438	31.95
557.78	32.18
558.121	32.4
558.463	32.67
558.805	32.93
559.147	33.22
559.488	33.47
559.83	33.62
560.171	33.77
560.513	33.96
560.854	34.1
561.196	34.3
561.537	34.51
561.878	34.67
562.22	34.91
562.561	35.1
562.902	35.22
563.243	35.35
563.584	35.52
563.925	35.71
564.266	35.9
564.607	36.06
564.948	36.2
565.289	36.38
565.63	36.49
565.971	36.62
566.312	36.77
566.653	36.87
566.993	37.06
567.334	37.19
567.675	37.38
568.015	37.52
568.356	37.68
568.696	37.81
569.037	37.91
569.377	37.95
569.718	38.05
570.058	38.18
570.398	38.31
570.739	38.44
571.079	38.53
571.419	38.66
571.759	38.7
572.099	38.79
572.439	38.87
572.779	38.92
573.119	39.03
573.459	39.07
573.799	39.24
574.139	39.37
574.479	39.51
574.819	39.55
575.158	39.66
575.498	39.78
575.838	39.86
576.177	39.97
576.517	40.05
576.856	40.19
577.196	40.3
577.535	40.49
577.875	40.56
578.214	40.64
578.553	40.67
578.893	40.86
579.232	40.95
579.571	41.04
579.91	41.1
580.25	41.18
580.589	41.27
580.928	41.3
581.267	41.23
581.606	41.26
581.945	41.31
582.283	41.4
582.622	41.42
582.961	41.5
583.3	41.56
583.639	41.68
583.977	41.69
584.316	41.77
584.654	41.8
584.993	41.85
585.332	41.94
585.67	42.11
586.008	42.12
586.347	42.22
586.685	42.32
587.024	42.44
587.362	42.42
587.7	42.51
588.038	42.66
588.376	42.9
588.715	43.07
589.053	43.19
589.391	43.15
589.729	43.21
590.067	43.32
590.404	43.37
590.742	43.41
591.08	43.51
591.418	43.58
591.756	43.62
592.093	43.72
592.431	43.79
592.769	43.79
593.106	43.81
593.444	43.89
593.781	43.99
594.119	44.12
594.456	44.18
594.793	44.2
595.131	44.21
595.468	44.19
595.805	44.21
596.143	44.23
596.48	44.37
596.817	44.44
597.154	44.43
597.491	44.46
597.828	44.48
598.165	44.55
598.502	44.55
598.839	44.56
599.176	44.63
599.512	44.74
599.849	44.79
600.186	44.9
600.523	44.91
600.859	44.89
601.196	44.9
601.532	44.99
601.869	45.07
602.205	45.11
602.542	45.16
602.878	45.22
603.215	45.26
603.551	45.26
603.887	45.32
604.223	45.36
604.56	45.46
604.896	45.54
605.232	45.6
605.568	45.59
605.904	45.65
606.24	45.7
606.576	45.67
606.912	45.72
607.248	45.79
607.583	45.81
607.919	45.79
608.255	45.79
608.591	45.85
608.926	45.86
609.262	45.86
609.597	45.89
609.933	45.83
610.268	45.88
610.604	45.86
610.939	45.86
611.275	45.9
611.61	45.87
611.945	45.83
612.281	45.83
612.616	45.93
612.951	46
613.286	45.99
613.621	46.02
613.956	46.02
614.291	45.93
614.626	45.98
614.961	46.08
615.296	46.16
615.631	46.09
615.966	46.08
616.3	46.25
616.635	46.27
616.97	46.31
617.304	46.3
617.639	46.34
617.973	46.32
618.308	46.38
618.642	46.34
618.977	46.32
619.311	46.19
619.646	46.23
619.98	46.17
620.314	46.21
620.648	46.27
620.983	46.31
621.317	46.44
621.651	46.48
621.985	46.5
622.319	46.57
622.653	46.66
622.987	46.73
623.321	46.69
623.655	46.71
623.988	46.71
624.322	46.74
624.656	46.83
624.99	46.86
625.323	46.83
625.657	46.91
625.99	47.03
626.324	47.18
626.657	47.17
626.991	47.22
627.324	47.22
627.658	47.2
627.991	47.21
628.324	47.23
628.657	47.22
628.991	47.26
629.324	47.21
629.657	47.16
629.99	47.15
630.323	47.14
630.656	47.16
630.989	47.2
631.322	47.16
631.655	47.07
631.987	47.13
632.32	47.16
632.653	47.17
632.986	47.07
633.318	47.02
633.651	47.08
633.984	47.07
634.316	47.05
634.649	47.12
634.981	47.17
635.313	47.14
635.646	47.13
635.978	47.08
636.31	47.07
636.643	47.12
636.975	47.14
637.307	47.17
637.639	47.21
637.971	47.26
638.303	47.41
638.635	47.52
638.967	47.59
639.299	47.67
639.631	47.64
639.963	47.63
640.295	47.72
640.626	47.77
640.958	47.74
641.29	47.69
641.621	47.7
641.953	47.57
642.285	47.63
642.616	47.68
642.948	47.82
643.279	47.92
643.61	47.94
643.942	48.01
644.273	48.02
644.604	47.98
644.936	48.01
645.267	48.04
645.598	48.06
645.929	47.96
646.26	47.87
646.591	47.95
646.922	48.1
647.253	48.15
647.584	48.1
647.915	48.25
648.245	48.38
648.576	48.37
648.907	48.63
649.238	48.6
649.568	48.6
649.899	48.56
650.229	48.51
650.56	48.6
650.89	48.56
651.221	48.42
651.551	48.41
651.882	48.34
652.212	48.22
652.542	48.25
652.872	48.26
653.203	48.4
653.533	48.41
653.863	48.37
654.193	48.41
654.523	48.29
654.853	48.28
655.183	48.29
655.513	48.31
655.843	48.1
656.172	48.18
656.502	48.15
656.832	48.13
657.162	48.26
657.491	48.32
657.821	48.44
658.15	48.51
658.48	48.56
658.809	48.62
659.139	48.63
659.468	48.57
659.798	48.57
660.127	48.45
660.456	48.39
660.785	48.52
661.115	48.49
661.444	48.58
661.773	48.53
662.102	48.49
662.431	48.49
662.76	48.55
663.089	48.56
663.418	48.65
663.747	48.75
664.076	48.71
664.404	48.74
664.733	48.64
665.062	48.75
665.39	48.81
665.719	48.83
666.048	48.85
666.376	48.97
666.705	48.91
667.033	49.05
667.362	49.06
667.69	49.02
668.018	49
668.347	48.99
668.675	49.13
669.003	49.16
