Data from MVZ_BU8940_Reflection_00005.txt Node
Date: Tue Nov 19 12:16:25 EST 2019
User: vgr7
Spectrometer: USB2G7710
Scans to average: 3
Trigger mode: 4
Integration Time (sec): 2.000000E-2
Electric dark correction enabled: true
Boxcar width: 10
XAxis mode: Wavelengths
Number of Pixels in Spectrum: 2048
>>>>>Begin Spectral Data<<<<<
177.721	-496.51
178.105	-468.18
178.488	-1313.71
178.871	-657.14
179.254	-165.85
179.636	483.93
180.019	380.35
180.402	480
180.785	2120
181.168	-444.55
181.55	50.78
181.933	44.89
182.316	37.32
182.698	20.43
183.081	4.8
183.463	0.82
183.846	-50.53
184.228	17.28
184.611	38.28
184.993	38.66
185.376	119.93
185.758	121.99
186.14	104.67
186.522	142.71
186.904	337.14
187.287	343.2
187.669	413.56
188.051	191.45
188.433	419.19
188.815	357.79
189.197	381.76
189.579	4140.54
189.961	-374.5
190.342	-681.88
190.724	514.44
191.106	4652.63
191.488	-3089.66
191.869	68600
192.251	4676.92
192.633	786.05
193.014	17.11
193.396	-77.52
193.777	-1210.81
194.159	-893.67
194.54	-352.76
194.922	-108.44
195.303	-107.96
195.684	-182.2
196.065	-174.7
196.447	-100.62
196.828	-109.14
197.209	-211.66
197.59	-256.09
197.971	-86.65
198.352	-36.55
198.733	-36.68
199.114	-177.39
199.495	865.06
199.876	-312.62
200.257	-533.76
200.638	-230.39
201.018	-170.76
201.399	355.24
201.78	202.87
202.16	135.14
202.541	-301.64
202.922	408.99
203.302	171.98
203.683	-61.82
204.063	-242.11
204.444	-132.67
204.824	-188.24
205.204	-2476.92
205.585	-1077.42
205.965	820.34
206.345	444.31
206.725	817.82
207.106	184.96
207.486	-400
207.866	2703.45
208.246	189.96
208.626	102.46
209.006	24.74
209.386	-41.43
209.766	371.43
210.145	-5114.29
210.525	1400
210.905	205.15
211.285	13.09
211.664	67.89
212.044	45.47
212.424	48.48
212.803	28.57
213.183	52.46
213.562	41.76
213.942	41.3
214.321	24.97
214.701	5.49
215.08	3.66
215.459	23.05
215.838	-6.94
216.218	-4.31
216.597	29.76
216.976	-171.57
217.355	-107.52
217.734	720.88
218.113	2757.89
218.492	-304.98
218.871	-302.33
219.25	367.44
219.629	170.25
220.008	54.98
220.387	376.47
220.766	-14.79
221.144	18.47
221.523	18.94
221.902	-5.78
222.28	-24.35
222.659	16.14
223.037	10.89
223.416	13.62
223.794	13.54
224.173	4
224.551	4.54
224.929	26.93
225.308	27.46
225.686	23.21
226.064	10.91
226.442	10.15
226.821	4.13
227.199	1.42
227.577	3.46
227.955	3.84
228.333	7.52
228.711	6.41
229.089	8.78
229.467	5.48
229.845	6.19
230.222	7.89
230.6	3.23
230.978	3.75
231.356	2.53
231.733	3.5
232.111	4.77
232.488	4.38
232.866	5.32
233.243	5.14
233.621	4.27
233.998	4.19
234.376	3.64
234.753	6.52
235.13	5.36
235.508	4.56
235.885	6.1
236.262	3.99
236.639	3.58
237.016	2.19
237.393	1.95
237.77	1.32
238.147	0.37
238.524	1.74
238.901	0.79
239.278	0.55
239.655	0.49
240.032	1.19
240.409	1.62
240.785	1.65
241.162	2.28
241.539	2.7
241.915	2.81
242.292	3.36
242.668	3.43
243.045	4.06
243.421	4.46
243.798	4.33
244.174	4.34
244.551	4.21
244.927	4.23
245.303	4.25
245.679	4.15
246.056	4.34
246.432	4.25
246.808	4.6
247.184	4.84
247.56	4.61
247.936	4.41
248.312	4.59
248.688	4.31
249.064	4.32
249.44	3.97
249.815	3.95
250.191	3.89
250.567	3.6
250.943	3.47
251.318	3.2
251.694	2.84
252.069	2.94
252.445	2.86
252.82	2.71
253.196	2.8
253.571	3.06
253.947	3.47
254.322	3.46
254.697	3.32
255.073	2.96
255.448	3.58
255.823	3.62
256.198	3.48
256.573	3.85
256.948	3.91
257.323	4.22
257.698	4.17
258.073	4.21
258.448	4.28
258.823	4.33
259.198	4.42
259.573	4.47
259.948	4.53
260.322	4.66
260.697	4.76
261.072	4.87
261.446	4.8
261.821	4.34
262.195	4.27
262.57	4.16
262.944	4.31
263.319	4.29
263.693	4.3
264.067	4.12
264.442	4
264.816	3.97
265.19	3.87
265.564	3.97
265.938	3.9
266.313	3.87
266.687	3.9
267.061	3.85
267.435	3.85
267.809	3.66
268.183	3.43
268.556	3.18
268.93	3.03
269.304	3.13
269.678	3.37
270.051	3.54
270.425	3.59
270.799	3.39
271.172	3.11
271.546	3.15
271.919	3.37
272.293	3.41
272.666	3.41
273.04	3.54
273.413	3.34
273.787	3.34
274.16	3.26
274.533	3.14
274.906	3.06
275.279	2.99
275.653	3.23
276.026	3.44
276.399	3.52
276.772	3.59
277.145	3.56
277.518	3.54
277.891	3.4
278.263	3.39
278.636	3.65
279.009	4
279.382	4.12
279.755	4.06
280.127	4.11
280.5	3.91
280.872	3.89
281.245	4.03
281.617	4.01
281.99	4.1
282.362	4.14
282.735	4.2
283.107	4.18
283.479	4.1
283.852	3.85
284.224	3.83
284.596	3.9
284.968	3.8
285.34	3.92
285.713	4.03
286.085	3.94
286.457	3.86
286.829	3.71
287.201	3.73
287.572	3.68
287.944	3.62
288.316	3.7
288.688	3.74
289.06	3.81
289.431	3.93
289.803	4
290.175	3.94
290.546	4.09
290.918	4.18
291.289	4.17
291.661	4.25
292.032	4.5
292.403	4.51
292.775	4.64
293.146	4.72
293.517	4.61
293.889	4.64
294.26	4.56
294.631	4.57
295.002	4.53
295.373	4.57
295.744	4.69
296.115	4.69
296.486	4.67
296.857	4.71
297.228	4.65
297.599	4.51
297.97	4.64
298.34	4.4
298.711	4.3
299.082	4.29
299.452	4.27
299.823	4.24
300.194	4.23
300.564	4.21
300.935	3.99
301.305	3.92
301.676	4.01
302.046	4.14
302.416	4.11
302.787	4.1
303.157	4.03
303.527	3.96
303.897	3.93
304.267	3.87
304.637	3.76
305.008	3.75
305.378	3.72
305.748	3.63
306.117	3.67
306.487	3.87
306.857	3.86
307.227	4.17
307.597	4.04
307.967	4.03
308.336	4.08
308.706	4.08
309.076	4.29
309.445	4.48
309.815	4.51
310.184	4.68
310.554	4.65
310.923	4.68
311.293	4.67
311.662	4.64
312.031	4.65
312.401	4.72
312.77	4.72
313.139	4.87
313.508	4.86
313.877	4.86
314.246	4.79
314.616	4.73
314.985	4.53
315.353	4.67
315.722	4.75
316.091	4.67
316.46	4.77
316.829	4.74
317.198	4.66
317.567	4.6
317.935	4.48
318.304	4.68
318.672	4.8
319.041	4.92
319.41	4.92
319.778	4.91
320.147	5.02
320.515	5.14
320.883	5.15
321.252	5.2
321.62	5.41
321.988	5.35
322.357	5.57
322.725	5.61
323.093	5.46
323.461	5.33
323.829	5.34
324.197	5.17
324.565	5.15
324.933	5.13
325.301	5.03
325.669	5.02
326.037	4.77
326.405	4.66
326.772	4.51
327.14	4.52
327.508	4.47
327.875	4.35
328.243	4.17
328.61	4.16
328.978	4.2
329.346	4.21
329.713	4.33
330.08	4.39
330.448	4.39
330.815	4.48
331.182	4.37
331.55	4.39
331.917	4.48
332.284	4.51
332.651	4.47
333.018	4.5
333.385	4.31
333.752	4.41
334.119	4.49
334.486	4.57
334.853	4.59
335.22	4.63
335.587	4.65
335.954	4.6
336.32	4.56
336.687	4.57
337.054	4.52
337.42	4.63
337.787	4.51
338.153	4.53
338.52	4.52
338.886	4.65
339.253	4.59
339.619	4.69
339.986	4.73
340.352	4.67
340.718	4.71
341.084	4.84
341.451	4.91
341.817	4.86
342.183	4.78
342.549	4.96
342.915	5.02
343.281	5.03
343.647	5.23
344.013	5.24
344.379	5.26
344.745	5.26
345.11	5.13
345.476	5.12
345.842	5.12
346.208	5.1
346.573	4.97
346.939	5.04
347.304	5.03
347.67	4.87
348.035	4.91
348.401	4.96
348.766	5.05
349.132	4.95
349.497	4.95
349.862	5.02
350.228	4.95
350.593	4.99
350.958	4.95
351.323	4.76
351.688	4.72
352.053	4.69
352.418	4.71
352.783	4.68
353.148	4.75
353.513	4.65
353.878	4.65
354.243	4.67
354.608	4.67
354.972	4.61
355.337	4.73
355.702	4.72
356.066	4.64
356.431	4.61
356.795	4.74
357.16	4.64
357.524	4.65
357.889	4.68
358.253	4.71
358.618	4.67
358.982	4.77
359.346	4.82
359.71	4.74
360.075	4.73
360.439	4.77
360.803	4.69
361.167	4.69
361.531	4.69
361.895	4.8
362.259	4.82
362.623	4.82
362.987	4.83
363.351	4.8
363.714	4.88
364.078	4.93
364.442	4.79
364.806	4.95
365.169	4.98
365.533	4.98
365.896	4.93
366.26	4.94
366.623	4.98
366.987	5.01
367.35	5.12
367.714	5.07
368.077	5.14
368.44	5.2
368.803	5.26
369.167	5.25
369.53	5.18
369.893	5.13
370.256	5.13
370.619	5.09
370.982	5.07
371.345	5.1
371.708	4.98
372.071	4.95
372.434	4.85
372.797	4.83
373.159	4.82
373.522	4.82
373.885	4.85
374.247	4.86
374.61	4.79
374.973	4.8
375.335	4.88
375.698	4.85
376.06	4.83
376.423	4.81
376.785	4.81
377.147	4.85
377.51	4.85
377.872	4.88
378.234	4.92
378.596	4.93
378.958	4.92
379.321	4.92
379.683	5
380.045	5.02
380.407	5.03
380.769	4.99
381.13	5.02
381.492	5.02
381.854	5.02
382.216	5.08
382.578	5.06
382.939	5.03
383.301	4.98
383.663	4.97
384.024	5
384.386	5.03
384.747	5.01
385.109	5.01
385.47	5.01
385.832	4.96
386.193	5.01
386.554	4.93
386.916	4.94
387.277	4.93
387.638	4.94
387.999	4.93
388.36	4.91
388.721	4.83
389.082	4.81
389.443	4.82
389.804	4.83
390.165	4.84
390.526	4.84
390.887	4.85
391.248	4.86
391.609	4.83
391.969	4.81
392.33	4.85
392.691	4.85
393.051	4.83
393.412	4.86
393.772	4.89
394.133	4.97
394.493	4.97
394.854	5.02
395.214	5
395.574	5
395.935	5.02
396.295	5.07
396.655	5.1
397.015	5.11
397.376	5.08
397.736	5.03
398.096	5.06
398.456	5.1
398.816	5.09
399.176	5.07
399.535	5.07
399.895	5.03
400.255	5.05
400.615	5.09
400.975	5.07
401.334	5.07
401.694	5.04
402.054	5.08
402.413	5.04
402.773	5.08
403.132	5.09
403.492	5.1
403.851	5.11
404.211	5.12
404.57	5.11
404.929	5.13
405.288	5.16
405.648	5.11
406.007	5.08
406.366	5.12
406.725	5.13
407.084	5.17
407.443	5.17
407.802	5.13
408.161	5.15
408.52	5.17
408.879	5.18
409.238	5.2
409.596	5.18
409.955	5.18
410.314	5.15
410.673	5.17
411.031	5.16
411.39	5.15
411.748	5.17
412.107	5.12
412.465	5.12
412.824	5.12
413.182	5.12
413.54	5.12
413.899	5.12
414.257	5.14
414.615	5.13
414.974	5.14
415.332	5.16
415.69	5.15
416.048	5.13
416.406	5.06
416.764	5.07
417.122	5.05
417.48	5.08
417.838	5.07
418.195	5.05
418.553	5.05
418.911	5.05
419.269	5.05
419.626	5.06
419.984	5.06
420.342	5.07
420.699	5.07
421.057	5.08
421.414	5.06
421.772	5.06
422.129	5.04
422.486	5.04
422.844	5.05
423.201	5.06
423.558	5.08
423.915	5.12
424.273	5.1
424.63	5.12
424.987	5.11
425.344	5.12
425.701	5.13
426.058	5.12
426.415	5.11
426.772	5.09
427.128	5.1
427.485	5.1
427.842	5.09
428.199	5.11
428.555	5.09
428.912	5.1
429.269	5.11
429.625	5.12
429.982	5.1
430.338	5.09
430.695	5.05
431.051	5.03
431.407	5.02
431.764	5.01
432.12	5
432.476	5.01
432.832	5.01
433.189	5.02
433.545	5.04
433.901	5.06
434.257	5.04
434.613	5.02
434.969	5.04
435.325	5.06
435.681	5.08
436.036	5.08
436.392	5.1
436.748	5.1
437.104	5.1
437.459	5.12
437.815	5.13
438.171	5.14
438.526	5.13
438.882	5.14
439.237	5.14
439.593	5.15
439.948	5.15
440.304	5.14
440.659	5.14
441.014	5.12
441.369	5.14
441.725	5.17
442.08	5.18
442.435	5.19
442.79	5.16
443.145	5.16
443.5	5.15
443.855	5.14
444.21	5.14
444.565	5.15
444.92	5.15
445.275	5.14
445.629	5.15
445.984	5.13
446.339	5.14
446.693	5.15
447.048	5.15
447.403	5.16
447.757	5.17
448.112	5.17
448.466	5.18
448.82	5.18
449.175	5.18
449.529	5.19
449.883	5.19
450.238	5.19
450.592	5.2
450.946	5.21
451.3	5.22
451.654	5.21
452.008	5.21
452.362	5.21
452.716	5.21
453.07	5.21
453.424	5.25
453.778	5.23
454.132	5.23
454.486	5.2
454.839	5.2
455.193	5.21
455.547	5.18
455.9	5.19
456.254	5.22
456.607	5.19
456.961	5.18
457.314	5.18
457.668	5.18
458.021	5.18
458.375	5.19
458.728	5.19
459.081	5.2
459.434	5.2
459.787	5.19
460.141	5.19
460.494	5.19
460.847	5.18
461.2	5.19
461.553	5.2
461.906	5.23
462.259	5.24
462.611	5.25
462.964	5.28
463.317	5.28
463.67	5.26
464.022	5.27
464.375	5.25
464.728	5.24
465.08	5.24
465.433	5.24
465.785	5.23
466.138	5.23
466.49	5.24
466.843	5.25
467.195	5.26
467.547	5.26
467.899	5.26
468.252	5.26
468.604	5.27
468.956	5.26
469.308	5.24
469.66	5.26
470.012	5.24
470.364	5.24
470.716	5.22
471.068	5.24
471.42	5.25
471.772	5.27
472.123	5.31
472.475	5.32
472.827	5.34
473.178	5.36
473.53	5.34
473.882	5.35
474.233	5.33
474.585	5.36
474.936	5.38
475.288	5.38
475.639	5.39
475.99	5.4
476.342	5.41
476.693	5.41
477.044	5.39
477.395	5.41
477.746	5.39
478.097	5.39
478.448	5.4
478.8	5.41
479.15	5.4
479.501	5.41
479.852	5.41
480.203	5.42
480.554	5.43
480.905	5.43
481.255	5.43
481.606	5.45
481.957	5.45
482.307	5.43
482.658	5.45
483.009	5.45
483.359	5.45
483.709	5.46
484.06	5.47
484.41	5.47
484.761	5.48
485.111	5.49
485.461	5.49
485.811	5.47
486.162	5.48
486.512	5.48
486.862	5.47
487.212	5.46
487.562	5.46
487.912	5.46
488.262	5.46
488.612	5.47
488.961	5.46
489.311	5.46
489.661	5.47
490.011	5.45
490.36	5.45
490.71	5.44
491.06	5.42
491.409	5.42
491.759	5.42
492.108	5.4
492.458	5.39
492.807	5.4
493.157	5.42
493.506	5.4
493.855	5.39
494.204	5.4
494.554	5.42
494.903	5.42
495.252	5.41
495.601	5.41
495.95	5.43
496.299	5.41
496.648	5.42
496.997	5.44
497.346	5.46
497.695	5.46
498.043	5.48
498.392	5.48
498.741	5.49
499.09	5.53
499.438	5.55
499.787	5.55
500.135	5.55
500.484	5.53
500.832	5.55
501.181	5.6
501.529	5.62
501.878	5.62
502.226	5.65
502.574	5.66
502.923	5.67
503.271	5.65
503.619	5.67
503.967	5.65
504.315	5.65
504.663	5.66
505.011	5.68
505.359	5.67
505.707	5.7
506.055	5.72
506.403	5.71
506.751	5.7
507.098	5.76
507.446	5.78
507.794	5.82
508.141	5.84
508.489	5.86
508.837	5.85
509.184	5.85
509.531	5.85
509.879	5.87
510.226	5.86
510.574	5.89
510.921	5.9
511.268	5.92
511.616	5.93
511.963	5.95
512.31	5.97
512.657	5.99
513.004	5.99
513.351	5.97
513.698	5.97
514.045	5.98
514.392	5.96
514.739	5.94
515.086	5.93
515.432	5.93
515.779	5.92
516.126	5.95
516.473	5.95
516.819	5.93
517.166	5.93
517.512	5.93
517.859	5.94
518.205	5.93
518.552	5.94
518.898	5.93
519.245	5.93
519.591	5.88
519.937	5.87
520.283	5.88
520.629	5.89
520.976	5.89
521.322	5.91
521.668	5.92
522.014	5.95
522.36	5.96
522.706	5.95
523.052	5.97
523.398	5.96
523.743	5.98
524.089	5.99
524.435	6.02
524.781	6.02
525.126	6.02
525.472	6.06
525.817	6.07
526.163	6.07
526.509	6.06
526.854	6.09
527.199	6.1
527.545	6.11
527.89	6.13
528.235	6.11
528.581	6.11
528.926	6.11
529.271	6.11
529.616	6.11
529.961	6.12
530.306	6.12
530.651	6.11
530.996	6.12
531.341	6.13
531.686	6.13
532.031	6.14
532.376	6.14
532.721	6.12
533.065	6.11
533.41	6.12
533.755	6.13
534.099	6.12
534.444	6.13
534.788	6.11
535.133	6.1
535.477	6.11
535.822	6.13
536.166	6.13
536.51	6.1
536.855	6.11
537.199	6.09
537.543	6.09
537.887	6.11
538.231	6.1
538.576	6.08
538.92	6.09
539.264	6.1
539.608	6.1
539.951	6.1
540.295	6.1
540.639	6.12
540.983	6.14
541.327	6.16
541.671	6.14
542.014	6.18
542.358	6.18
542.701	6.19
543.045	6.18
543.389	6.18
543.732	6.2
544.075	6.19
544.419	6.2
544.762	6.2
545.105	6.21
545.449	6.19
545.792	6.19
546.135	6.19
546.478	6.18
546.821	6.18
547.165	6.2
547.508	6.18
547.851	6.16
548.194	6.14
548.536	6.13
548.879	6.15
549.222	6.15
549.565	6.14
549.908	6.12
550.25	6.12
550.593	6.12
550.936	6.12
551.278	6.13
551.621	6.13
551.963	6.14
552.306	6.15
552.648	6.17
552.991	6.19
553.333	6.18
553.675	6.2
554.017	6.21
554.36	6.22
554.702	6.24
555.044	6.26
555.386	6.28
555.728	6.25
556.07	6.22
556.412	6.18
556.754	6.16
557.096	6.2
557.438	6.2
557.78	6.17
558.121	6.16
558.463	6.15
558.805	6.14
559.147	6.14
559.488	6.13
559.83	6.15
560.171	6.14
560.513	6.18
560.854	6.17
561.196	6.18
561.537	6.19
561.878	6.19
562.22	6.21
562.561	6.22
562.902	6.25
563.243	6.29
563.584	6.31
563.925	6.36
564.266	6.34
564.607	6.37
564.948	6.37
565.289	6.4
565.63	6.42
565.971	6.42
566.312	6.43
566.653	6.43
566.993	6.42
567.334	6.48
567.675	6.44
568.015	6.46
568.356	6.45
568.696	6.47
569.037	6.47
569.377	6.46
569.718	6.43
570.058	6.42
570.398	6.39
570.739	6.37
571.079	6.34
571.419	6.33
571.759	6.31
572.099	6.31
572.439	6.29
572.779	6.31
573.119	6.35
573.459	6.36
573.799	6.35
574.139	6.37
574.479	6.34
574.819	6.37
575.158	6.36
575.498	6.36
575.838	6.32
576.177	6.31
576.517	6.32
576.856	6.32
577.196	6.34
577.535	6.35
577.875	6.34
578.214	6.38
578.553	6.39
578.893	6.39
579.232	6.4
579.571	6.41
579.91	6.39
580.25	6.38
580.589	6.41
580.928	6.42
581.267	6.39
581.606	6.41
581.945	6.37
582.283	6.39
582.622	6.37
582.961	6.38
583.3	6.41
583.639	6.38
583.977	6.41
584.316	6.39
584.654	6.44
584.993	6.46
585.332	6.42
585.67	6.42
586.008	6.43
586.347	6.47
586.685	6.44
587.024	6.42
587.362	6.38
587.7	6.38
588.038	6.37
588.376	6.41
588.715	6.33
589.053	6.34
589.391	6.36
589.729	6.37
590.067	6.37
590.404	6.4
590.742	6.43
591.08	6.43
591.418	6.43
591.756	6.43
592.093	6.4
592.431	6.42
592.769	6.44
593.106	6.43
593.444	6.4
593.781	6.43
594.119	6.47
594.456	6.47
594.793	6.44
595.131	6.45
595.468	6.44
595.805	6.5
596.143	6.55
596.48	6.51
596.817	6.51
597.154	6.53
597.491	6.48
597.828	6.46
598.165	6.46
598.502	6.45
598.839	6.44
599.176	6.51
599.512	6.52
599.849	6.52
600.186	6.51
600.523	6.54
600.859	6.56
601.196	6.55
601.532	6.54
601.869	6.54
602.205	6.51
602.542	6.52
602.878	6.54
603.215	6.49
603.551	6.5
603.887	6.52
604.223	6.52
604.56	6.55
604.896	6.56
605.232	6.58
605.568	6.6
605.904	6.6
606.24	6.59
606.576	6.61
606.912	6.58
607.248	6.61
607.583	6.62
607.919	6.54
608.255	6.53
608.591	6.59
608.926	6.59
609.262	6.59
609.597	6.59
609.933	6.56
610.268	6.54
610.604	6.53
610.939	6.52
611.275	6.52
611.61	6.46
611.945	6.37
612.281	6.36
612.616	6.38
612.951	6.42
613.286	6.37
613.621	6.36
613.956	6.37
614.291	6.34
614.626	6.38
614.961	6.5
615.296	6.49
615.631	6.48
615.966	6.51
616.3	6.56
616.635	6.54
616.97	6.56
617.304	6.58
617.639	6.55
617.973	6.57
618.308	6.56
618.642	6.59
618.977	6.66
619.311	6.67
619.646	6.7
619.98	6.64
620.314	6.6
620.648	6.63
620.983	6.64
621.317	6.72
621.651	6.61
621.985	6.6
622.319	6.59
622.653	6.56
622.987	6.55
623.321	6.55
623.655	6.55
623.988	6.56
624.322	6.58
624.656	6.58
624.99	6.56
625.323	6.56
625.657	6.61
625.99	6.6
626.324	6.6
626.657	6.55
626.991	6.6
627.324	6.61
627.658	6.58
627.991	6.63
628.324	6.56
628.657	6.59
628.991	6.55
629.324	6.61
629.657	6.61
629.99	6.61
630.323	6.57
630.656	6.59
630.989	6.54
631.322	6.54
631.655	6.58
631.987	6.62
632.32	6.64
632.653	6.63
632.986	6.66
633.318	6.62
633.651	6.65
633.984	6.65
634.316	6.66
634.649	6.64
634.981	6.6
635.313	6.71
635.646	6.73
635.978	6.77
636.31	6.75
636.643	6.64
636.975	6.64
637.307	6.71
637.639	6.71
637.971	6.7
638.303	6.68
638.635	6.68
638.967	6.64
639.299	6.67
639.631	6.7
639.963	6.68
640.295	6.7
640.626	6.67
640.958	6.65
641.29	6.67
641.621	6.67
641.953	6.63
642.285	6.55
642.616	6.55
642.948	6.53
643.279	6.46
643.61	6.63
643.942	6.67
644.273	6.67
644.604	6.69
644.936	6.8
645.267	6.84
645.598	6.8
645.929	6.75
646.26	6.74
646.591	6.7
646.922	6.78
647.253	6.79
647.584	6.79
647.915	6.81
648.245	6.8
648.576	6.91
648.907	6.88
649.238	6.81
649.568	6.75
649.899	6.68
650.229	6.8
650.56	6.75
650.89	6.68
651.221	6.62
651.551	6.61
651.882	6.57
652.212	6.59
652.542	6.64
652.872	6.69
653.203	6.73
653.533	6.73
653.863	6.69
654.193	6.68
654.523	6.7
654.853	6.71
655.183	6.74
655.513	6.63
655.843	6.67
656.172	6.71
656.502	6.72
656.832	6.75
657.162	6.66
657.491	6.72
657.821	6.81
658.15	6.78
658.48	6.8
658.809	6.78
659.139	6.8
659.468	6.79
659.798	6.77
660.127	6.73
660.456	6.72
660.785	6.66
661.115	6.69
661.444	6.72
661.773	6.79
662.102	6.76
662.431	6.77
662.76	6.86
663.089	6.88
663.418	6.9
663.747	6.92
664.076	6.99
664.404	7.01
664.733	7
665.062	7.09
665.39	7.06
665.719	7.07
666.048	7.03
666.376	6.99
666.705	7.16
667.033	7.14
667.362	7.11
667.69	7.16
668.018	7.24
668.347	7.22
668.675	7.16
669.003	7.22
669.331	7.27
669.659	7.24
669.987	7.22
670.315	7.29
670.643	7.29
670.971	7.25
671.299	7.19
671.627	7.1
671.955	7.11
672.283	7.1
672.61	7.06
672.938	7.1
673.266	7.12
673.593	6.91
673.921	6.99
674.249	7.1
674.576	7.16
674.904	6.95
675.231	6.91
675.558	6.94
675.886	7
676.213	6.96
676.54	7.06
676.867	7.07
677.195	7.09
677.522	7.17
