Data from MVZ_BU57658_Reflection_00011.txt Node
Date: Tue Nov 19 12:13:38 EST 2019
User: vgr7
Spectrometer: USB2G7710
Scans to average: 3
Trigger mode: 4
Integration Time (sec): 2.000000E-2
Electric dark correction enabled: true
Boxcar width: 10
XAxis mode: Wavelengths
Number of Pixels in Spectrum: 2048
>>>>>Begin Spectral Data<<<<<
177.721	235.59
178.105	47.37
178.488	47.02
178.871	50
179.254	300
179.636	394.12
180.019	-491.84
180.402	68.75
180.785	104.88
181.168	175.19
181.55	58.51
181.933	83.61
182.316	4.06
182.698	-17.1
183.081	-10.43
183.463	-21.76
183.846	-44.65
184.228	-43.19
184.611	-111.84
184.993	-188.89
185.376	-112.36
185.758	-119.92
186.14	-137.21
186.522	-241.46
186.904	-1460
187.287	-456.7
187.669	-412
188.051	-295.21
188.433	-1197.3
188.815	640.23
189.197	704.4
189.579	199.67
189.961	268.58
190.342	126.92
190.724	88.16
191.106	82.73
191.488	88.58
191.869	71.77
192.251	61.28
192.633	47.98
193.014	54.99
193.396	38.83
193.777	42.93
194.159	49.15
194.54	65.76
194.922	48.49
195.303	45.05
195.684	35.87
196.065	40.87
196.447	36.94
196.828	32.86
197.209	28.8
197.59	58.17
197.971	50.28
198.352	-677.78
198.733	100
199.114	-83.1
199.495	9.09
199.876	-321.05
200.257	-4900
200.638	290.48
201.018	451.35
201.399	21.35
201.78	-16.88
202.16	100
202.541	688.24
202.922	-207.69
203.302	-25.63
203.683	-30.67
204.063	-5.26
204.444	-0.56
204.824	0.93
205.204	-1.97
205.585	-10.61
205.965	-39.95
206.345	-32.95
206.725	-13.21
207.106	-23.91
207.486	-21.74
207.866	-15.73
208.246	-11.33
208.626	-21.65
209.006	-6.63
209.386	-47.21
209.766	-107.41
210.145	-123.14
210.525	-113.33
210.905	7.8
211.285	13.04
211.664	182.35
212.044	114.93
212.424	-2042.86
212.803	-113.11
213.183	-71.43
213.562	-18.52
213.942	-22.3
214.321	9.91
214.701	-45.73
215.08	-15.51
215.459	-29.96
215.838	-39.3
216.218	-53.53
216.597	-20.1
216.976	-32.87
217.355	-14.72
217.734	-24.28
218.113	-9.89
218.492	-24.08
218.871	-35.34
219.25	-42.64
219.629	-63.72
220.008	-64.3
220.387	-78.51
220.766	-49.51
221.144	-47.34
221.523	-41.82
221.902	-14.93
222.28	-15.61
222.659	-10.34
223.037	-20.85
223.416	-9.32
223.794	2.59
224.173	2.88
224.551	-9.13
224.929	-4.15
225.308	-8.41
225.686	-4.59
226.064	-14.29
226.442	-10.23
226.821	-9.62
227.199	-1.26
227.577	-3.16
227.955	3.98
228.333	-1.19
228.711	-1.98
229.089	0.36
229.467	-1.63
229.845	-6.08
230.222	-3.6
230.6	-3.83
230.978	-0.6
231.356	-1.93
231.733	-3.42
232.111	-0.69
232.488	2.04
232.866	1.9
233.243	3.97
233.621	5.25
233.998	5.92
234.376	6.71
234.753	8.41
235.13	7.94
235.508	7.64
235.885	5.9
236.262	6.65
236.639	5.12
237.016	3.96
237.393	5.32
237.77	6.41
238.147	6.6
238.524	8.24
238.901	6.94
239.278	6.82
239.655	5.78
240.032	5.34
240.409	5.28
240.785	4.54
241.162	4.57
241.539	4.55
241.915	4.42
242.292	4.23
242.668	4.3
243.045	4.32
243.421	5
243.798	5.53
244.174	5.33
244.551	5.74
244.927	5.75
245.303	5.73
245.679	5.37
246.056	5.36
246.432	4.97
246.808	5.36
247.184	5.62
247.56	5.63
247.936	5.64
248.312	5.3
248.688	5.54
249.064	5.55
249.44	5.29
249.815	5.33
250.191	5.49
250.567	5.22
250.943	5.29
251.318	5.02
251.694	4.46
252.069	4.71
252.445	4.44
252.82	4.63
253.196	4.4
253.571	4.65
253.947	4.7
254.322	4.73
254.697	4.58
255.073	4.22
255.448	4.45
255.823	4.56
256.198	4.91
256.573	4.78
256.948	4.42
257.323	4.43
257.698	4.49
258.073	4.3
258.448	4.31
258.823	4.15
259.198	4.16
259.573	4.29
259.948	4.49
260.322	4.49
260.697	4.53
261.072	4.7
261.446	4.61
261.821	4.44
262.195	4.31
262.57	4.22
262.944	4.24
263.319	4.32
263.693	4.13
264.067	4.15
264.442	4.33
264.816	4.45
265.19	4.51
265.564	4.43
265.938	4.58
266.313	4.82
266.687	4.61
267.061	4.62
267.435	4.74
267.809	4.44
268.183	4.34
268.556	4.31
268.93	4.13
269.304	4.21
269.678	4.32
270.051	4.25
270.425	4.22
270.799	4.13
271.172	3.92
271.546	4.25
271.919	3.92
272.293	3.7
272.666	3.64
273.04	3.63
273.413	3.72
273.787	3.65
274.16	3.38
274.533	3.58
274.906	3.59
275.279	3.33
275.653	3.15
276.026	3.14
276.399	3.13
276.772	3.15
277.145	3.12
277.518	3.03
277.891	3.19
278.263	3.28
278.636	3.42
279.009	3.54
279.382	3.27
279.755	3.59
280.127	3.6
280.5	3.61
280.872	3.61
281.245	3.49
281.617	3.56
281.99	3.62
282.362	3.67
282.735	3.5
283.107	3.57
283.479	3.8
283.852	3.74
284.224	3.62
284.596	3.62
284.968	3.63
285.34	3.7
285.713	3.75
286.085	3.56
286.457	3.57
286.829	3.61
287.201	3.62
287.572	3.7
287.944	3.76
288.316	3.77
288.688	3.82
289.06	3.77
289.431	3.91
289.803	3.95
290.175	3.97
290.546	4.13
290.918	4.13
291.289	4.03
291.661	4.22
292.032	4.35
292.403	4.35
292.775	4.41
293.146	4.36
293.517	4.38
293.889	4.67
294.26	4.53
294.631	4.58
295.002	4.67
295.373	4.57
295.744	4.73
296.115	4.72
296.486	4.78
296.857	4.94
297.228	4.78
297.599	4.86
297.97	4.79
298.34	4.87
298.711	4.98
299.082	5.22
299.452	5.05
299.823	5.03
300.194	5.1
300.564	5.14
300.935	5.3
301.305	5.23
301.676	5.07
302.046	5.2
302.416	5.15
302.787	5.07
303.157	5.09
303.527	5.05
303.897	5.26
304.267	5.24
304.637	5.32
305.008	5.59
305.378	5.68
305.748	5.67
306.117	5.56
306.487	5.65
306.857	5.46
307.227	5.71
307.597	5.77
307.967	5.86
308.336	5.84
308.706	5.8
309.076	5.95
309.445	6.06
309.815	6.04
310.184	5.96
310.554	6.15
310.923	6.24
311.293	6.13
311.662	6.08
312.031	6.11
312.401	6
312.77	5.94
313.139	5.98
313.508	6.12
313.877	6.08
314.246	6.09
314.616	6.2
314.985	6.22
315.353	6.34
315.722	6.3
316.091	6.31
316.46	6.29
316.829	6.42
317.198	6.34
317.567	6.52
317.935	6.8
318.304	6.84
318.672	6.98
319.041	7.15
319.41	7.33
319.778	7.35
320.147	7.58
320.515	7.58
320.883	7.45
321.252	7.53
321.62	7.86
321.988	7.95
322.357	8
322.725	8.05
323.093	8.01
323.461	8.06
323.829	8.13
324.197	8.17
324.565	8.12
324.933	8.29
325.301	8.21
325.669	8.18
326.037	8.23
326.405	8.24
326.772	8.24
327.14	8.09
327.508	8.24
327.875	8.07
328.243	7.96
328.61	8.06
328.978	8.12
329.346	7.93
329.713	7.97
330.08	7.97
330.448	7.94
330.815	7.81
331.182	7.78
331.55	7.85
331.917	7.74
332.284	7.65
332.651	7.52
333.018	7.56
333.385	7.56
333.752	7.47
334.119	7.44
334.486	7.43
334.853	7.48
335.22	7.34
335.587	7.47
335.954	7.6
336.32	7.64
336.687	7.5
337.054	7.67
337.42	7.62
337.787	7.56
338.153	7.6
338.52	7.88
338.886	7.96
339.253	7.92
339.619	8.08
339.986	8.03
340.352	8.16
340.718	8.31
341.084	8.27
341.451	8.29
341.817	8.32
342.183	8.24
342.549	8.25
342.915	8.27
343.281	8.18
343.647	8.22
344.013	8.24
344.379	8.27
344.745	8.27
345.11	8.24
345.476	8.42
345.842	8.43
346.208	8.27
346.573	8.25
346.939	8.23
347.304	8.22
347.67	8.35
348.035	8.23
348.401	8.18
348.766	8.2
349.132	8.27
349.497	8.21
349.862	8.4
350.228	8.45
350.593	8.52
350.958	8.61
351.323	8.54
351.688	8.64
352.053	8.67
352.418	8.74
352.783	8.77
353.148	8.7
353.513	8.69
353.878	8.75
354.243	8.77
354.608	8.81
354.972	8.79
355.337	8.79
355.702	8.86
356.066	8.78
356.431	8.8
356.795	8.69
357.16	8.66
357.524	8.64
357.889	8.62
358.253	8.58
358.618	8.59
358.982	8.59
359.346	8.44
359.71	8.45
360.075	8.31
360.439	8.29
360.803	8.26
361.167	8.22
361.531	8.2
361.895	8.09
362.259	8.12
362.623	8.14
362.987	8.15
363.351	8.1
363.714	8.18
364.078	8.15
364.442	8.18
364.806	8.18
365.169	8.11
365.533	8.07
365.896	8.17
366.26	8.07
366.623	8.04
366.987	8.08
367.35	8.06
367.714	8.08
368.077	7.97
368.44	7.99
368.803	8
369.167	7.93
369.53	7.98
369.893	7.82
370.256	7.78
370.619	7.67
370.982	7.54
371.345	7.43
371.708	7.4
372.071	7.32
372.434	7.23
372.797	7.19
373.159	7.17
373.522	6.96
373.885	6.92
374.247	6.84
374.61	6.74
374.973	6.73
375.335	6.7
375.698	6.65
376.06	6.54
376.423	6.46
376.785	6.45
377.147	6.38
377.51	6.37
377.872	6.31
378.234	6.32
378.596	6.34
378.958	6.3
379.321	6.21
379.683	6.24
380.045	6.26
380.407	6.22
380.769	6.13
381.13	6.12
381.492	6.11
381.854	6.14
382.216	6.14
382.578	6.04
382.939	5.99
383.301	5.97
383.663	5.92
384.024	5.91
384.386	5.85
384.747	5.79
385.109	5.76
385.47	5.71
385.832	5.65
386.193	5.63
386.554	5.56
386.916	5.57
387.277	5.46
387.638	5.41
387.999	5.4
388.36	5.38
388.721	5.33
389.082	5.32
389.443	5.27
389.804	5.24
390.165	5.26
390.526	5.25
390.887	5.28
391.248	5.23
391.609	5.23
391.969	5.24
392.33	5.26
392.691	5.22
393.051	5.23
393.412	5.21
393.772	5.22
394.133	5.23
394.493	5.21
394.854	5.24
395.214	5.24
395.574	5.17
395.935	5.16
396.295	5.14
396.655	5.12
397.015	5.03
397.376	5.02
397.736	4.92
398.096	4.88
398.456	4.8
398.816	4.81
399.176	4.75
399.535	4.67
399.895	4.64
400.255	4.68
400.615	4.63
400.975	4.62
401.334	4.54
401.694	4.49
402.054	4.48
402.413	4.41
402.773	4.34
403.132	4.34
403.492	4.3
403.851	4.29
404.211	4.29
404.57	4.35
404.929	4.32
405.288	4.32
405.648	4.31
406.007	4.3
406.366	4.31
406.725	4.3
407.084	4.32
407.443	4.3
407.802	4.26
408.161	4.25
408.52	4.25
408.879	4.25
409.238	4.27
409.596	4.28
409.955	4.28
410.314	4.29
410.673	4.26
411.031	4.25
411.39	4.25
411.748	4.23
412.107	4.21
412.465	4.22
412.824	4.23
413.182	4.19
413.54	4.22
413.899	4.18
414.257	4.15
414.615	4.15
414.974	4.14
415.332	4.14
415.69	4.12
416.048	4.09
416.406	4.06
416.764	4.05
417.122	4.01
417.48	4.04
417.838	4.03
418.195	4.03
418.553	4.02
418.911	4
419.269	3.98
419.626	3.95
419.984	3.92
420.342	3.89
420.699	3.89
421.057	3.86
421.414	3.86
421.772	3.85
422.129	3.82
422.486	3.81
422.844	3.78
423.201	3.79
423.558	3.78
423.915	3.77
424.273	3.77
424.63	3.77
424.987	3.75
425.344	3.73
425.701	3.73
426.058	3.73
426.415	3.71
426.772	3.7
427.128	3.69
427.485	3.7
427.842	3.71
428.199	3.71
428.555	3.71
428.912	3.7
429.269	3.7
429.625	3.71
429.982	3.7
430.338	3.73
430.695	3.73
431.051	3.74
431.407	3.75
431.764	3.74
432.12	3.71
432.476	3.7
432.832	3.71
433.189	3.69
433.545	3.69
433.901	3.68
434.257	3.69
434.613	3.7
434.969	3.69
435.325	3.68
435.681	3.67
436.036	3.68
436.392	3.68
436.748	3.68
437.104	3.67
437.459	3.68
437.815	3.65
438.171	3.65
438.526	3.62
438.882	3.62
439.237	3.61
439.593	3.61
439.948	3.63
440.304	3.62
440.659	3.63
441.014	3.62
441.369	3.64
441.725	3.62
442.08	3.62
442.435	3.64
442.79	3.64
443.145	3.66
443.5	3.66
443.855	3.65
444.21	3.66
444.565	3.67
444.92	3.67
445.275	3.68
445.629	3.65
445.984	3.66
446.339	3.66
446.693	3.67
447.048	3.66
447.403	3.64
447.757	3.64
448.112	3.65
448.466	3.64
448.82	3.65
449.175	3.68
449.529	3.69
449.883	3.66
450.238	3.64
450.592	3.62
450.946	3.61
451.3	3.61
451.654	3.59
452.008	3.58
452.362	3.57
452.716	3.57
453.07	3.59
453.424	3.58
453.778	3.58
454.132	3.58
454.486	3.59
454.839	3.59
455.193	3.61
455.547	3.64
455.9	3.64
456.254	3.61
456.607	3.59
456.961	3.59
457.314	3.61
457.668	3.64
458.021	3.65
458.375	3.63
458.728	3.63
459.081	3.64
459.434	3.65
459.787	3.65
460.141	3.65
460.494	3.67
460.847	3.66
461.2	3.67
461.553	3.67
461.906	3.69
462.259	3.69
462.611	3.68
462.964	3.68
463.317	3.68
463.67	3.71
464.022	3.72
464.375	3.7
464.728	3.71
465.08	3.71
465.433	3.72
465.785	3.73
466.138	3.74
466.49	3.76
466.843	3.78
467.195	3.8
467.547	3.82
467.899	3.8
468.252	3.82
468.604	3.84
468.956	3.85
469.308	3.85
469.66	3.88
470.012	3.9
470.364	3.89
470.716	3.88
471.068	3.88
471.42	3.9
471.772	3.91
472.123	3.91
472.475	3.91
472.827	3.91
473.178	3.94
473.53	3.96
473.882	3.93
474.233	3.9
474.585	3.91
474.936	3.9
475.288	3.92
475.639	3.95
475.99	3.92
476.342	3.93
476.693	3.93
477.044	3.92
477.395	3.93
477.746	3.88
478.097	3.9
478.448	3.88
478.8	3.87
479.15	3.85
479.501	3.82
479.852	3.83
480.203	3.84
480.554	3.82
480.905	3.83
481.255	3.82
481.606	3.83
481.957	3.82
482.307	3.81
482.658	3.81
483.009	3.8
483.359	3.8
483.709	3.79
484.06	3.79
484.41	3.79
484.761	3.79
485.111	3.79
485.461	3.8
485.811	3.8
486.162	3.8
486.512	3.81
486.862	3.81
487.212	3.81
487.562	3.79
487.912	3.79
488.262	3.78
488.612	3.79
488.961	3.79
489.311	3.78
489.661	3.79
490.011	3.77
490.36	3.76
490.71	3.77
491.06	3.76
491.409	3.75
491.759	3.75
492.108	3.75
492.458	3.77
492.807	3.76
493.157	3.77
493.506	3.79
493.855	3.81
494.204	3.81
494.554	3.83
494.903	3.87
495.252	3.89
495.601	3.9
495.95	3.92
496.299	3.96
496.648	3.99
496.997	4.03
497.346	4.09
497.695	4.12
498.043	4.16
498.392	4.19
498.741	4.24
499.09	4.28
499.438	4.32
499.787	4.36
500.135	4.4
500.484	4.44
500.832	4.47
501.181	4.53
501.529	4.6
501.878	4.67
502.226	4.72
502.574	4.78
502.923	4.86
503.271	4.92
503.619	5
503.967	5.07
504.315	5.15
504.663	5.22
505.011	5.33
505.359	5.41
505.707	5.5
506.055	5.59
506.403	5.66
506.751	5.76
507.098	5.86
507.446	5.99
507.794	6.11
508.141	6.21
508.489	6.32
508.837	6.44
509.184	6.55
509.531	6.64
509.879	6.76
510.226	6.89
510.574	7.02
510.921	7.12
511.268	7.24
511.616	7.41
511.963	7.51
512.31	7.66
512.657	7.84
513.004	8
513.351	8.17
513.698	8.34
514.045	8.5
514.392	8.67
514.739	8.82
515.086	8.98
515.432	9.16
515.779	9.32
516.126	9.5
516.473	9.66
516.819	9.87
517.166	10.03
517.512	10.16
517.859	10.34
518.205	10.49
518.552	10.65
518.898	10.77
519.245	10.96
519.591	11.12
519.937	11.29
520.283	11.44
520.629	11.6
520.976	11.8
521.322	12.02
521.668	12.22
522.014	12.43
522.36	12.63
522.706	12.85
523.052	13.07
523.398	13.3
523.743	13.57
524.089	13.81
524.435	14.05
524.781	14.29
525.126	14.51
525.472	14.72
525.817	14.91
526.163	15.06
526.509	15.22
526.854	15.37
527.199	15.48
527.545	15.65
527.89	15.8
528.235	15.94
528.581	16.08
528.926	16.24
529.271	16.42
529.616	16.59
529.961	16.77
530.306	16.93
530.651	17.11
530.996	17.31
531.341	17.5
531.686	17.7
532.031	17.9
532.376	18.11
532.721	18.3
533.065	18.54
533.41	18.79
533.755	19.03
534.099	19.29
534.444	19.55
534.788	19.78
535.133	20.01
535.477	20.27
535.822	20.56
536.166	20.82
536.51	21.08
536.855	21.4
537.199	21.7
537.543	22.04
537.887	22.36
538.231	22.66
538.576	23
538.92	23.32
539.264	23.65
539.608	23.93
539.951	24.21
540.295	24.46
540.639	24.75
540.983	25
541.327	25.21
541.671	25.48
542.014	25.73
542.358	25.98
542.701	26.21
543.045	26.42
543.389	26.66
543.732	26.91
544.075	27.15
544.419	27.39
544.762	27.66
545.105	27.96
545.449	28.22
545.792	28.52
546.135	28.83
546.478	29.1
546.821	29.44
547.165	29.78
547.508	30.1
547.851	30.41
548.194	30.72
548.536	31.09
548.879	31.37
549.222	31.67
549.565	32.03
549.908	32.34
550.25	32.64
550.593	32.96
550.936	33.3
551.278	33.63
551.621	33.95
551.963	34.28
552.306	34.53
552.648	34.82
552.991	35.08
553.333	35.33
553.675	35.65
554.017	35.9
554.36	36.17
554.702	36.39
555.044	36.65
555.386	36.91
555.728	37.18
556.07	37.51
556.412	37.75
556.754	37.97
557.096	38.24
557.438	38.55
557.78	38.8
558.121	39.04
558.463	39.28
558.805	39.57
559.147	39.76
559.488	40.03
559.83	40.3
560.171	40.53
560.513	40.78
560.854	41.01
561.196	41.3
561.537	41.55
561.878	41.83
562.22	41.99
562.561	42.21
562.902	42.42
563.243	42.6
563.584	42.85
563.925	43.06
564.266	43.25
564.607	43.39
564.948	43.6
565.289	43.79
565.63	43.96
565.971	44.09
566.312	44.26
566.653	44.45
566.993	44.6
567.334	44.78
567.675	44.96
568.015	45.11
568.356	45.3
568.696	45.45
569.037	45.55
569.377	45.74
569.718	45.92
570.058	46.04
570.398	46.2
570.739	46.3
571.079	46.53
571.419	46.75
571.759	46.91
572.099	47.04
572.439	47.15
572.779	47.3
573.119	47.43
573.459	47.58
573.799	47.65
574.139	47.79
574.479	47.91
574.819	48.03
575.158	48.2
575.498	48.24
575.838	48.36
576.177	48.55
576.517	48.7
576.856	48.76
577.196	48.92
577.535	49.04
577.875	49.21
578.214	49.21
578.553	49.36
578.893	49.54
579.232	49.69
579.571	49.84
579.91	49.99
580.25	50.11
580.589	50.19
580.928	50.35
581.267	50.49
581.606	50.64
581.945	50.73
582.283	50.76
582.622	50.88
582.961	50.98
583.3	51.02
583.639	51.08
583.977	51.24
584.316	51.35
584.654	51.53
584.993	51.64
585.332	51.8
585.67	51.89
586.008	51.98
586.347	52.05
586.685	52.16
587.024	52.24
587.362	52.33
587.7	52.55
588.038	52.59
588.376	52.68
588.715	52.62
589.053	52.76
589.391	52.89
589.729	52.92
590.067	52.98
590.404	53.01
590.742	53.14
591.08	53.27
591.418	53.32
591.756	53.34
592.093	53.38
592.431	53.4
592.769	53.4
593.106	53.49
593.444	53.58
593.781	53.65
594.119	53.7
594.456	53.78
594.793	53.76
595.131	53.84
595.468	53.9
595.805	54.01
596.143	54.03
596.48	53.99
596.817	54.08
597.154	54.21
597.491	54.35
597.828	54.34
598.165	54.37
598.502	54.45
598.839	54.53
599.176	54.67
599.512	54.86
599.849	54.96
600.186	54.99
600.523	55.06
600.859	55.12
601.196	55.14
601.532	55.2
601.869	55.33
602.205	55.47
602.542	55.49
602.878	55.5
603.215	55.59
603.551	55.77
603.887	55.83
604.223	55.89
604.56	55.89
604.896	55.98
605.232	56.03
605.568	56.07
605.904	56.06
606.24	56.03
606.576	56.01
606.912	56.03
607.248	56.11
607.583	56.17
607.919	56.24
608.255	56.29
608.591	56.29
608.926	56.27
609.262	56.23
609.597	56.3
609.933	56.4
610.268	56.37
610.604	56.31
610.939	56.37
611.275	56.32
611.61	56.36
611.945	56.33
612.281	56.37
612.616	56.45
612.951	56.62
613.286	56.7
613.621	56.69
613.956	56.71
614.291	56.68
614.626	56.68
614.961	56.71
615.296	56.77
615.631	56.98
615.966	56.97
616.3	57.06
616.635	57.12
616.97	57.15
617.304	57.23
617.639	57.2
617.973	57.09
618.308	57.11
618.642	57.17
618.977	57.27
619.311	57.21
619.646	57.18
619.98	57.07
620.314	57.09
620.648	57.08
620.983	57.16
621.317	57.23
621.651	57.24
621.985	57.3
622.319	57.27
622.653	57.22
622.987	57.32
623.321	57.29
623.655	57.2
623.988	57.22
624.322	57.27
624.656	57.41
624.99	57.53
625.323	57.65
625.657	57.71
625.99	57.71
626.324	57.78
626.657	57.78
626.991	57.85
627.324	57.9
627.658	57.94
627.991	57.86
628.324	57.86
628.657	57.86
628.991	57.9
629.324	58.02
629.657	58.07
629.99	58.05
630.323	58.09
630.656	58.14
630.989	58.21
631.322	58.25
631.655	58.3
631.987	58.34
632.32	58.36
632.653	58.3
632.986	58.34
633.318	58.3
633.651	58.37
633.984	58.28
634.316	58.33
634.649	58.43
634.981	58.55
635.313	58.5
635.646	58.52
635.978	58.42
636.31	58.42
636.643	58.29
636.975	58.36
637.307	58.37
637.639	58.47
637.971	58.41
638.303	58.34
638.635	58.26
638.967	58.23
639.299	58.2
639.631	58.24
639.963	58.33
640.295	58.46
640.626	58.48
640.958	58.63
641.29	58.55
641.621	58.47
641.953	58.52
642.285	58.73
642.616	58.71
642.948	58.81
643.279	58.85
643.61	58.99
643.942	58.91
644.273	58.94
644.604	58.95
644.936	59.02
645.267	58.95
645.598	59.02
645.929	59.16
646.26	59.21
646.591	59.2
646.922	59.21
647.253	59.11
647.584	59.22
647.915	59.28
648.245	59.31
648.576	59.3
648.907	59.4
649.238	59.36
649.568	59.56
649.899	59.51
650.229	59.55
650.56	59.56
650.89	59.71
651.221	59.84
651.551	59.88
651.882	59.91
652.212	60.04
652.542	60.12
652.872	60.08
653.203	60.05
653.533	60.21
653.863	60.27
654.193	60.36
654.523	60.22
654.853	60.32
655.183	60.41
655.513	60.5
655.843	60.33
656.172	60.3
656.502	60.25
656.832	60.2
657.162	60.23
657.491	60.28
657.821	60.24
658.15	60.18
658.48	60.14
658.809	60.11
659.139	60.26
659.468	60.23
659.798	60.24
660.127	60.27
660.456	60.24
660.785	60.06
661.115	60
661.444	60.17
661.773	59.99
662.102	59.99
662.431	60.03
662.76	60.04
663.089	60.18
663.418	60.17
663.747	60.17
664.076	60.1
664.404	60.16
664.733	60.23
665.062	60.24
665.39	60.3
665.719	60.34
666.048	60.1
666.376	60.18
666.705	60.18
667.033	60.26
667.362	60.23
667.69	60.41
668.018	60.48
