Data from MVZ_BU8940_Reflection_00007.txt Node
Date: Tue Nov 19 12:16:29 EST 2019
User: vgr7
Spectrometer: USB2G7710
Scans to average: 3
Trigger mode: 4
Integration Time (sec): 2.000000E-2
Electric dark correction enabled: true
Boxcar width: 10
XAxis mode: Wavelengths
Number of Pixels in Spectrum: 2048
>>>>>Begin Spectral Data<<<<<
177.721	-875.87
178.105	-439.77
178.488	-808.63
178.871	-417.86
179.254	-109.76
179.636	707.14
180.019	-15.61
180.402	640
180.785	-900
181.168	-98.02
181.55	-60.62
181.933	-28.26
182.316	-77.84
182.698	-123.28
183.081	-117.39
183.463	-52.11
183.846	-19.52
184.228	-8.54
184.611	-26.84
184.993	-108.4
185.376	-172.1
185.758	-223.14
186.14	-182.24
186.522	-417.59
186.904	-420
187.287	-75.23
187.669	-137.29
188.051	-9.26
188.433	-3.32
188.815	34.26
189.197	-40.07
189.579	72.97
189.961	-33.14
190.342	6.04
190.724	78.61
191.106	-426.32
191.488	1582.76
191.869	-87900
192.251	-8515.38
192.633	-2713.95
193.014	-531.02
193.396	-284.36
193.777	-2764.86
194.159	-975.95
194.54	-781.89
194.922	-278.52
195.303	-278.76
195.684	-344.96
196.065	-662.85
196.447	-401.04
196.828	-526.04
197.209	-846.19
197.59	-733.95
197.971	-377.76
198.352	-370.23
198.733	-536.68
199.114	-422.97
199.495	1015.66
199.876	-754.37
200.257	-498.73
200.638	-253.36
201.018	-262.13
201.399	547.55
201.78	363.16
202.16	445.95
202.541	-998.36
202.922	684.27
203.302	232.3
203.683	180
204.063	394.74
204.444	109.9
204.824	-52.94
205.204	-438.46
205.585	67.74
205.965	167.8
206.345	267.66
206.725	763.37
207.106	311.7
207.486	-1343.48
207.866	5100
208.246	568.62
208.626	592.61
209.006	155.14
209.386	426.69
209.766	1757.14
210.145	-9042.86
210.525	1328.57
210.905	155.79
211.285	81.94
211.664	145.87
212.044	124.97
212.424	144.99
212.803	114.14
213.183	250.82
213.562	148.35
213.942	114.14
214.321	38.09
214.701	28.19
215.08	20.34
215.459	4.11
215.838	0.34
216.218	-15.75
216.597	-23.78
216.976	-138.58
217.355	-14.21
217.734	-438.46
218.113	-2952.63
218.492	240.27
218.871	244.19
219.25	-1806.98
219.629	-304.96
220.008	-217.54
220.387	-688.24
220.766	407.39
221.144	184.48
221.523	120.87
221.902	97.37
222.28	153.91
222.659	90.03
223.037	40.3
223.416	42.13
223.794	21.23
224.173	9
224.551	17.83
224.929	12.79
225.308	-3.51
225.686	-7.6
226.064	-13.51
226.442	-6.73
226.821	-8.81
227.199	-14.18
227.577	-8.79
227.955	-5.76
228.333	-10.83
228.711	-11.74
229.089	-9.73
229.467	-8.78
229.845	-14.21
230.222	-13.6
230.6	-17.21
230.978	-8.88
231.356	-11.2
231.733	-8.71
232.111	-5.7
232.488	-7.26
232.866	-2.34
233.243	-1.51
233.621	-2.19
233.998	-1.03
234.376	-0.21
234.753	0.11
235.13	1.43
235.508	1.21
235.885	-0.39
236.262	0.56
236.639	-0.24
237.016	-1.5
237.393	1.04
237.77	3.46
238.147	5.22
238.524	7.63
238.901	6.25
239.278	6.52
239.655	5.91
240.032	6.41
240.409	6.82
240.785	5.86
241.162	5.56
241.539	5.2
241.915	5
242.292	5.36
242.668	5.55
243.045	5.22
243.421	5.08
243.798	4.83
244.174	5.03
244.551	5.39
244.927	5.76
245.303	5.35
245.679	5.23
246.056	4.8
246.432	4.71
246.808	4.85
247.184	5.12
247.56	5.02
247.936	4.92
248.312	4.85
248.688	4.78
249.064	4.71
249.44	4.93
249.815	5.18
250.191	4.78
250.567	4.65
250.943	4.72
251.318	4.71
251.694	4.57
252.069	4.66
252.445	4.56
252.82	4.59
253.196	4.7
253.571	5.23
253.947	5.33
254.322	4.79
254.697	4.57
255.073	4.34
255.448	4.65
255.823	4.7
256.198	4.47
256.573	4.33
256.948	4.67
257.323	4.63
257.698	4.42
258.073	4.43
258.448	4.57
258.823	4.39
259.198	4.4
259.573	4.49
259.948	4.35
260.322	4.24
260.697	4.09
261.072	4.11
261.446	3.78
261.821	3.75
262.195	3.7
262.57	3.75
262.944	3.79
263.319	3.94
263.693	3.99
264.067	3.98
264.442	3.98
264.816	3.84
265.19	3.84
265.564	3.88
265.938	3.84
266.313	3.58
266.687	3.52
267.061	3.41
267.435	3.77
267.809	3.66
268.183	3.79
268.556	3.95
268.93	3.9
269.304	3.9
269.678	4
270.051	4.29
270.425	4.34
270.799	4.06
271.172	3.93
271.546	3.87
271.919	3.91
272.293	4.02
272.666	4.19
273.04	4.15
273.413	4.13
273.787	4.11
274.16	4.17
274.533	4.38
274.906	4.29
275.279	3.98
275.653	4.19
276.026	4.16
276.399	4.01
276.772	4.12
277.145	4.11
277.518	4.25
277.891	3.98
278.263	4.01
278.636	4.31
279.009	4.31
279.382	4.06
279.755	4.12
280.127	4.08
280.5	3.9
280.872	3.94
281.245	4.08
281.617	4.25
281.99	4.39
282.362	4.34
282.735	4.51
283.107	4.45
283.479	4.36
283.852	4.25
284.224	4.31
284.596	4.3
284.968	4.09
285.34	3.92
285.713	4.16
286.085	4.04
286.457	3.82
286.829	3.67
287.201	3.73
287.572	3.95
287.944	4
288.316	3.99
288.688	4.09
289.06	4.11
289.431	4.04
289.803	4.08
290.175	4.02
290.546	4.03
290.918	4.07
291.289	4.02
291.661	4.16
292.032	4.16
292.403	4.17
292.775	4.46
293.146	4.54
293.517	4.39
293.889	4.42
294.26	4.65
294.631	4.75
295.002	4.92
295.373	4.77
295.744	4.76
296.115	4.96
296.486	5.08
296.857	5.01
297.228	4.95
297.599	4.82
297.97	4.95
298.34	4.99
298.711	4.99
299.082	4.97
299.452	4.95
299.823	5.01
300.194	5.1
300.564	4.99
300.935	4.97
301.305	5.01
301.676	5.02
302.046	4.86
302.416	4.91
302.787	4.95
303.157	4.98
303.527	5.17
303.897	5.04
304.267	4.78
304.637	4.88
305.008	5.17
305.378	5.31
305.748	5.18
306.117	5.06
306.487	5.27
306.857	5.51
307.227	5.58
307.597	5.51
307.967	5.6
308.336	5.67
308.706	5.6
309.076	5.75
309.445	5.87
309.815	6.04
310.184	6.13
310.554	6.08
310.923	6.09
311.293	6
311.662	6.03
312.031	6.22
312.401	6.12
312.77	6.02
313.139	6.07
313.508	6.16
313.877	6.35
314.246	6.47
314.616	6.55
314.985	6.65
315.353	6.83
315.722	6.87
316.091	7.09
316.46	7.29
316.829	7.41
317.198	7.52
317.567	7.6
317.935	7.55
318.304	7.5
318.672	7.55
319.041	7.65
319.41	7.8
319.778	7.62
320.147	7.69
320.515	7.78
320.883	7.92
321.252	8.14
321.62	8.11
321.988	8.13
322.357	8.17
322.725	8.13
323.093	8.18
323.461	8.27
323.829	8.24
324.197	8.3
324.565	8.19
324.933	8.17
325.301	8.23
325.669	8.2
326.037	8.36
326.405	8.61
326.772	8.58
327.14	8.57
327.508	8.69
327.875	8.85
328.243	8.91
328.61	8.87
328.978	8.79
329.346	8.88
329.713	8.88
330.08	8.9
330.448	8.96
330.815	8.91
331.182	8.86
331.55	8.89
331.917	8.85
332.284	9.03
332.651	9.01
333.018	9.09
333.385	9.36
333.752	9.34
334.119	9.3
334.486	9.41
334.853	9.33
335.22	9.43
335.587	9.32
335.954	9.13
336.32	8.99
336.687	9.02
337.054	9.09
337.42	8.9
337.787	8.82
338.153	8.97
338.52	9.07
338.886	9.07
339.253	9.12
339.619	9.25
339.986	9.03
340.352	9.12
340.718	9.14
341.084	9.03
341.451	9.12
341.817	9.05
342.183	8.88
342.549	8.97
342.915	8.99
343.281	9.03
343.647	9.17
344.013	9.27
344.379	9.2
344.745	9.18
345.11	9.34
345.476	9.41
345.842	9.27
346.208	9.35
346.573	9.35
346.939	9.24
347.304	9.22
347.67	9.4
348.035	9.4
348.401	9.36
348.766	9.41
349.132	9.47
349.497	9.42
349.862	9.69
350.228	9.72
350.593	9.64
350.958	9.74
351.323	9.71
351.688	9.83
352.053	10.02
352.418	10.06
352.783	10.05
353.148	10.09
353.513	10.09
353.878	9.99
354.243	9.99
354.608	10.11
354.972	10.05
355.337	10.05
355.702	10
356.066	9.97
356.431	10.02
356.795	9.94
357.16	10.04
357.524	9.98
357.889	10.02
358.253	10.06
358.618	10.06
358.982	10.2
359.346	10.22
359.71	10.1
360.075	10.07
360.439	10.12
360.803	10.06
361.167	10.11
361.531	10.12
361.895	10.1
362.259	10.08
362.623	10.06
362.987	10.07
363.351	10.1
363.714	10.17
364.078	10.1
364.442	10.09
364.806	10.03
365.169	10.06
365.533	10
365.896	9.92
366.26	9.88
366.623	9.76
366.987	9.77
367.35	9.84
367.714	9.81
368.077	9.77
368.44	9.78
368.803	9.75
369.167	9.72
369.53	9.7
369.893	9.58
370.256	9.55
370.619	9.36
370.982	9.27
371.345	9.18
371.708	9.21
372.071	9.18
372.434	9.15
372.797	9.02
373.159	9.01
373.522	9.11
373.885	9.07
374.247	9.02
374.61	8.97
374.973	8.86
375.335	8.85
375.698	8.75
376.06	8.69
376.423	8.69
376.785	8.75
377.147	8.75
377.51	8.79
377.872	8.82
378.234	8.92
378.596	8.9
378.958	8.9
379.321	8.84
379.683	8.83
380.045	8.8
380.407	8.85
380.769	8.78
381.13	8.77
381.492	8.72
381.854	8.73
382.216	8.65
382.578	8.65
382.939	8.62
383.301	8.63
383.663	8.67
384.024	8.56
384.386	8.5
384.747	8.5
385.109	8.41
385.47	8.37
385.832	8.31
386.193	8.32
386.554	8.27
386.916	8.19
387.277	8.12
387.638	8.13
387.999	8.07
388.36	8.04
388.721	7.99
389.082	8.02
389.443	7.99
389.804	7.95
390.165	7.93
390.526	7.91
390.887	7.9
391.248	7.83
391.609	7.88
391.969	7.81
392.33	7.68
392.691	7.68
393.051	7.69
393.412	7.68
393.772	7.68
394.133	7.65
394.493	7.62
394.854	7.6
395.214	7.53
395.574	7.54
395.935	7.48
396.295	7.42
396.655	7.3
397.015	7.24
397.376	7.22
397.736	7.17
398.096	7.12
398.456	7.07
398.816	7.05
399.176	6.96
399.535	6.97
399.895	7.01
400.255	6.97
400.615	6.87
400.975	6.84
401.334	6.77
401.694	6.72
402.054	6.71
402.413	6.74
402.773	6.73
403.132	6.66
403.492	6.7
403.851	6.67
404.211	6.69
404.57	6.71
404.929	6.67
405.288	6.67
405.648	6.63
406.007	6.6
406.366	6.59
406.725	6.6
407.084	6.57
407.443	6.55
407.802	6.56
408.161	6.58
408.52	6.55
408.879	6.55
409.238	6.55
409.596	6.55
409.955	6.48
410.314	6.47
410.673	6.47
411.031	6.45
411.39	6.44
411.748	6.44
412.107	6.42
412.465	6.44
412.824	6.37
413.182	6.36
413.54	6.36
413.899	6.34
414.257	6.31
414.615	6.27
414.974	6.25
415.332	6.24
415.69	6.21
416.048	6.19
416.406	6.14
416.764	6.12
417.122	6.1
417.48	6.08
417.838	6.07
418.195	6.03
418.553	5.99
418.911	5.98
419.269	5.95
419.626	5.94
419.984	5.9
420.342	5.9
420.699	5.87
421.057	5.84
421.414	5.85
421.772	5.83
422.129	5.8
422.486	5.78
422.844	5.76
423.201	5.76
423.558	5.76
423.915	5.76
424.273	5.75
424.63	5.75
424.987	5.76
425.344	5.73
425.701	5.73
426.058	5.74
426.415	5.72
426.772	5.74
427.128	5.73
427.485	5.73
427.842	5.73
428.199	5.75
428.555	5.74
428.912	5.71
429.269	5.71
429.625	5.73
429.982	5.74
430.338	5.72
430.695	5.71
431.051	5.71
431.407	5.68
431.764	5.7
432.12	5.7
432.476	5.7
432.832	5.72
433.189	5.72
433.545	5.71
433.901	5.69
434.257	5.69
434.613	5.67
434.969	5.68
435.325	5.67
435.681	5.66
436.036	5.66
436.392	5.67
436.748	5.66
437.104	5.66
437.459	5.66
437.815	5.67
438.171	5.69
438.526	5.68
438.882	5.7
439.237	5.68
439.593	5.68
439.948	5.66
440.304	5.65
440.659	5.66
441.014	5.67
441.369	5.69
441.725	5.69
442.08	5.7
442.435	5.69
442.79	5.7
443.145	5.7
443.5	5.7
443.855	5.69
444.21	5.69
444.565	5.7
444.92	5.7
445.275	5.69
445.629	5.67
445.984	5.67
446.339	5.66
446.693	5.64
447.048	5.61
447.403	5.61
447.757	5.61
448.112	5.6
448.466	5.58
448.82	5.56
449.175	5.54
449.529	5.53
449.883	5.52
450.238	5.49
450.592	5.48
450.946	5.49
451.3	5.5
451.654	5.5
452.008	5.47
452.362	5.45
452.716	5.45
453.07	5.44
453.424	5.45
453.778	5.45
454.132	5.47
454.486	5.5
454.839	5.5
455.193	5.48
455.547	5.47
455.9	5.51
456.254	5.49
456.607	5.48
456.961	5.49
457.314	5.48
457.668	5.5
458.021	5.49
458.375	5.49
458.728	5.47
459.081	5.48
459.434	5.47
459.787	5.48
460.141	5.49
460.494	5.49
460.847	5.48
461.2	5.49
461.553	5.51
461.906	5.52
462.259	5.55
462.611	5.56
462.964	5.58
463.317	5.56
463.67	5.61
464.022	5.65
464.375	5.65
464.728	5.67
465.08	5.68
465.433	5.73
465.785	5.74
466.138	5.77
466.49	5.78
466.843	5.82
467.195	5.85
467.547	5.84
467.899	5.89
468.252	5.91
468.604	5.94
468.956	5.96
469.308	5.96
469.66	5.97
470.012	5.99
470.364	6.01
470.716	6.05
471.068	6.08
471.42	6.1
471.772	6.15
472.123	6.16
472.475	6.2
472.827	6.22
473.178	6.22
473.53	6.21
473.882	6.24
474.233	6.23
474.585	6.23
474.936	6.27
475.288	6.28
475.639	6.3
475.99	6.28
476.342	6.27
476.693	6.26
477.044	6.25
477.395	6.24
477.746	6.22
478.097	6.21
478.448	6.16
478.8	6.12
479.15	6.07
479.501	6.06
479.852	6.03
480.203	6.02
480.554	6.01
480.905	6
481.255	5.98
481.606	5.98
481.957	5.98
482.307	5.96
482.658	5.95
483.009	5.94
483.359	5.94
483.709	5.94
484.06	5.95
484.41	5.95
484.761	5.95
485.111	5.96
485.461	5.95
485.811	5.96
486.162	5.95
486.512	5.97
486.862	5.98
487.212	5.98
487.562	5.97
487.912	5.99
488.262	5.99
488.612	6
488.961	6.01
489.311	6.02
489.661	6.03
490.011	6.04
490.36	6.04
490.71	6.06
491.06	6.08
491.409	6.09
491.759	6.11
492.108	6.12
492.458	6.12
492.807	6.15
493.157	6.18
493.506	6.23
493.855	6.24
494.204	6.27
494.554	6.31
494.903	6.35
495.252	6.37
495.601	6.4
495.95	6.45
496.299	6.52
496.648	6.57
496.997	6.61
497.346	6.64
497.695	6.7
498.043	6.76
498.392	6.78
498.741	6.82
499.09	6.89
499.438	6.96
499.787	7.06
500.135	7.12
500.484	7.2
500.832	7.25
501.181	7.35
501.529	7.44
501.878	7.53
502.226	7.62
502.574	7.76
502.923	7.88
503.271	7.98
503.619	8.07
503.967	8.18
504.315	8.33
504.663	8.48
505.011	8.61
505.359	8.75
505.707	8.88
506.055	9.02
506.403	9.15
506.751	9.29
507.098	9.44
507.446	9.59
507.794	9.76
508.141	9.94
508.489	10.09
508.837	10.26
509.184	10.4
509.531	10.59
509.879	10.77
510.226	10.94
510.574	11.11
510.921	11.29
511.268	11.48
511.616	11.66
511.963	11.9
512.31	12.1
512.657	12.3
513.004	12.52
513.351	12.76
513.698	13.01
514.045	13.31
514.392	13.54
514.739	13.8
515.086	14.05
515.432	14.27
515.779	14.49
516.126	14.72
516.473	14.96
516.819	15.19
517.166	15.36
517.512	15.58
517.859	15.79
518.205	16
518.552	16.2
518.898	16.4
519.245	16.57
519.591	16.75
519.937	16.93
520.283	17.12
520.629	17.33
520.976	17.52
521.322	17.7
521.668	17.89
522.014	18.13
522.36	18.36
522.706	18.63
523.052	18.91
523.398	19.18
523.743	19.46
524.089	19.73
524.435	20.03
524.781	20.3
525.126	20.52
525.472	20.76
525.817	20.96
526.163	21.15
526.509	21.33
526.854	21.53
527.199	21.71
527.545	21.87
527.89	22.02
528.235	22.19
528.581	22.34
528.926	22.51
529.271	22.68
529.616	22.84
529.961	23.01
530.306	23.19
530.651	23.35
530.996	23.53
531.341	23.71
531.686	23.9
532.031	24.1
532.376	24.3
532.721	24.53
533.065	24.77
533.41	24.99
533.755	25.21
534.099	25.43
534.444	25.64
534.788	25.88
535.133	26.12
535.477	26.35
535.822	26.6
536.166	26.84
536.51	27.07
536.855	27.33
537.199	27.59
537.543	27.88
537.887	28.22
538.231	28.5
538.576	28.79
538.92	29.07
539.264	29.33
539.608	29.58
539.951	29.8
540.295	29.99
540.639	30.17
540.983	30.39
541.327	30.59
541.671	30.79
542.014	30.99
542.358	31.17
542.701	31.34
543.045	31.52
543.389	31.74
543.732	31.97
544.075	32.18
544.419	32.35
544.762	32.55
545.105	32.75
545.449	32.98
545.792	33.21
546.135	33.42
546.478	33.66
546.821	33.9
547.165	34.11
547.508	34.39
547.851	34.7
548.194	34.91
548.536	35.1
548.879	35.36
549.222	35.59
549.565	35.83
549.908	36.14
550.25	36.38
550.593	36.58
550.936	36.81
551.278	37.01
551.621	37.28
551.963	37.48
552.306	37.68
552.648	37.92
552.991	38.15
553.333	38.38
553.675	38.54
554.017	38.79
554.36	39.03
554.702	39.19
555.044	39.41
555.386	39.68
555.728	39.92
556.07	40.11
556.412	40.34
556.754	40.5
557.096	40.68
557.438	40.9
557.78	41.09
558.121	41.29
558.463	41.51
558.805	41.66
559.147	41.87
559.488	42.09
559.83	42.24
560.171	42.35
560.513	42.58
560.854	42.82
561.196	42.9
561.537	43.06
561.878	43.23
562.22	43.35
562.561	43.42
562.902	43.61
563.243	43.73
563.584	43.85
563.925	44.01
564.266	44.08
564.607	44.21
564.948	44.31
565.289	44.39
565.63	44.51
565.971	44.68
566.312	44.78
566.653	44.89
566.993	44.98
567.334	45.15
567.675	45.19
568.015	45.32
568.356	45.45
568.696	45.57
569.037	45.71
569.377	45.82
569.718	45.89
570.058	45.97
570.398	46.08
570.739	46.18
571.079	46.27
571.419	46.42
571.759	46.58
572.099	46.71
572.439	46.75
572.779	46.83
573.119	46.88
573.459	46.98
573.799	47.04
574.139	47.15
574.479	47.21
574.819	47.33
575.158	47.36
575.498	47.46
575.838	47.51
576.177	47.55
576.517	47.65
576.856	47.78
577.196	47.88
577.535	47.96
577.875	48.05
578.214	48.14
578.553	48.18
578.893	48.18
579.232	48.3
579.571	48.44
579.91	48.54
580.25	48.64
580.589	48.74
580.928	48.8
581.267	48.87
581.606	48.93
581.945	48.92
582.283	49
582.622	49.08
582.961	49.09
583.3	49.19
583.639	49.21
583.977	49.34
584.316	49.38
584.654	49.52
584.993	49.58
585.332	49.62
585.67	49.68
586.008	49.68
586.347	49.74
586.685	49.82
587.024	49.77
587.362	49.85
587.7	49.84
588.038	49.98
588.376	50.02
588.715	50.04
589.053	50.12
589.391	50.21
589.729	50.21
590.067	50.28
590.404	50.35
590.742	50.42
591.08	50.47
591.418	50.5
591.756	50.54
592.093	50.57
592.431	50.7
592.769	50.79
593.106	50.92
593.444	50.92
593.781	51.02
594.119	51.18
594.456	51.2
594.793	51.28
595.131	51.27
595.468	51.33
595.805	51.34
596.143	51.4
596.48	51.39
596.817	51.45
597.154	51.5
597.491	51.42
597.828	51.44
598.165	51.44
598.502	51.46
598.839	51.41
599.176	51.49
599.512	51.51
599.849	51.57
600.186	51.59
600.523	51.63
600.859	51.62
601.196	51.66
601.532	51.71
601.869	51.72
602.205	51.73
602.542	51.75
602.878	51.86
603.215	51.92
603.551	51.95
603.887	52.02
604.223	52.05
604.56	52.18
604.896	52.27
605.232	52.3
605.568	52.4
605.904	52.48
606.24	52.48
606.576	52.56
606.912	52.6
607.248	52.67
607.583	52.77
607.919	52.82
608.255	52.85
608.591	52.87
608.926	52.92
609.262	52.96
609.597	53
609.933	53.02
610.268	53
610.604	53.05
610.939	53.07
611.275	53.14
611.61	53.13
611.945	53.03
612.281	53.04
612.616	53.01
612.951	53.05
613.286	53.03
613.621	53
613.956	52.96
614.291	52.9
614.626	52.87
614.961	52.84
615.296	52.75
615.631	52.77
615.966	52.72
616.3	52.8
616.635	52.86
616.97	52.87
617.304	52.97
617.639	52.95
617.973	52.88
618.308	52.88
618.642	52.91
618.977	52.97
619.311	53.05
619.646	53.15
619.98	53.1
620.314	53.19
620.648	53.18
620.983	53.14
621.317	53.18
621.651	53.22
621.985	53.32
622.319	53.32
622.653	53.29
622.987	53.37
623.321	53.41
623.655	53.41
623.988	53.44
624.322	53.42
624.656	53.5
624.99	53.56
625.323	53.56
625.657	53.46
625.99	53.55
626.324	53.49
626.657	53.47
626.991	53.48
627.324	53.53
627.658	53.49
627.991	53.58
628.324	53.6
628.657	53.63
628.991	53.5
629.324	53.59
629.657	53.72
629.99	53.8
630.323	53.81
630.656	53.81
630.989	53.8
631.322	53.88
631.655	53.84
631.987	53.89
632.32	54.04
632.653	54.08
632.986	54.03
633.318	54.04
633.651	54.05
633.984	54.18
634.316	54.2
634.649	54.31
634.981	54.39
635.313	54.49
635.646	54.5
635.978	54.59
636.31	54.67
636.643	54.59
636.975	54.43
637.307	54.4
637.639	54.42
637.971	54.39
638.303	54.31
638.635	54.33
638.967	54.32
639.299	54.26
639.631	54.35
639.963	54.44
640.295	54.53
640.626	54.46
640.958	54.31
641.29	54.25
641.621	54.12
641.953	53.99
642.285	53.86
642.616	53.89
642.948	53.91
643.279	53.8
643.61	53.9
643.942	54.01
644.273	54.07
644.604	54.1
644.936	54.17
645.267	54.18
645.598	54.15
645.929	54.09
646.26	54.11
646.591	54.06
646.922	54.06
647.253	54.02
647.584	54.09
647.915	54.05
648.245	53.96
648.576	54.04
648.907	54.12
649.238	54.16
649.568	54.07
649.899	54.13
650.229	54.15
650.56	54.16
650.89	54.14
651.221	54.04
651.551	54.07
651.882	54.17
652.212	54.22
652.542	54.33
652.872	54.31
653.203	54.31
653.533	54.41
653.863	54.33
654.193	54.45
654.523	54.49
654.853	54.72
655.183	54.92
655.513	54.92
655.843	54.94
656.172	55.1
656.502	55.33
656.832	55.28
657.162	55.34
657.491	55.28
657.821	55.37
658.15	55.44
658.48	55.45
658.809	55.4
659.139	55.43
659.468	55.45
659.798	55.45
660.127	55.44
660.456	55.43
660.785	55.46
661.115	55.41
661.444	55.38
661.773	55.3
662.102	55.25
662.431	55.38
662.76	55.38
663.089	55.36
663.418	55.19
663.747	55.3
664.076	55.37
664.404	55.53
664.733	55.61
665.062	55.63
