Data from MVZ_BU34099_Reflection_00007.txt Node
Date: Tue Nov 19 12:15:33 EST 2019
User: vgr7
Spectrometer: USB2G7710
Scans to average: 3
Trigger mode: 4
Integration Time (sec): 2.000000E-2
Electric dark correction enabled: true
Boxcar width: 10
XAxis mode: Wavelengths
Number of Pixels in Spectrum: 2048
>>>>>Begin Spectral Data<<<<<
177.721	96.11
178.105	39.66
178.488	455.14
178.871	-133.96
179.254	227.27
179.636	372.28
180.019	-64.31
180.402	-316.67
180.785	-74.1
181.168	-180.1
181.55	2484.62
181.933	1100
182.316	1518.6
182.698	320.99
183.081	876.12
183.463	4792.31
183.846	265.56
184.228	793.88
184.611	6407.69
184.993	-2671.43
185.376	-364.16
185.758	-163.76
186.14	-438.18
186.522	-264.27
186.904	-149.66
187.287	-206.84
187.669	-122.09
188.051	-101.21
188.433	-157.68
188.815	-125.03
189.197	-99.35
189.579	-66.82
189.961	-67.56
190.342	-39.59
190.724	-48.51
191.106	-44.31
191.488	-33.86
191.869	-40.25
192.251	-45.02
192.633	-34.04
193.014	-30.8
193.396	-32.84
193.777	-39.8
194.159	-40.3
194.54	-42.64
194.922	-54.8
195.303	-37.93
195.684	-30.04
196.065	-45.41
196.447	-29.12
196.828	-22.98
197.209	-28.28
197.59	-30.19
197.971	-12.89
198.352	-20.26
198.733	-28.41
199.114	-28.61
199.495	-36.13
199.876	-37.24
200.257	-37.85
200.638	-38.71
201.018	-47.75
201.399	-35.72
201.78	-20.93
202.16	-8.96
202.541	-0.5
202.922	-0.54
203.302	6.46
203.683	4.56
204.063	9.7
204.444	18.13
204.824	9.54
205.204	13.72
205.585	19.49
205.965	9.76
206.345	2.67
206.725	7.32
207.106	12.82
207.486	3.95
207.866	8.22
208.246	19.22
208.626	8.29
209.006	11.45
209.386	12.63
209.766	-5.73
210.145	-0.75
210.525	-11.53
210.905	-0.57
211.285	-2.38
211.664	0.7
212.044	-1.68
212.424	-18.75
212.803	-17.49
213.183	-21.34
213.562	-15.73
213.942	-9.84
214.321	-9.05
214.701	-8.89
215.08	-19.76
215.459	-15.19
215.838	-22.16
216.218	-37.54
216.597	-18.57
216.976	-28.01
217.355	-32.96
217.734	-23.34
218.113	-28.73
218.492	-23.03
218.871	-26.74
219.25	-37.39
219.629	-80.36
220.008	-80.79
220.387	-40.17
220.766	-15.78
221.144	-19.22
221.523	-31.95
221.902	-30.35
222.28	-22.54
222.659	-6.52
223.037	1.5
223.416	16.35
223.794	20
224.173	26.67
224.551	25.62
224.929	31.16
225.308	27.11
225.686	27.63
226.064	22.74
226.442	16.43
226.821	14.44
227.199	10.47
227.577	15.15
227.955	19.87
228.333	16.97
228.711	8.9
229.089	8.46
229.467	7.31
229.845	4.15
230.222	3.26
230.6	0.68
230.978	-0.14
231.356	-4.2
231.733	-2.74
232.111	-2.79
232.488	-4.65
232.866	-6
233.243	-5.62
233.621	-5.31
233.998	-4.92
234.376	-4.2
234.753	-4.84
235.13	-3.21
235.508	-2.93
235.885	-5.6
236.262	-5.25
236.639	-3.45
237.016	-1.91
237.393	-1.55
237.77	0.1
238.147	0.93
238.524	1.56
238.901	1.47
239.278	1.21
239.655	0.86
240.032	0.86
240.409	1.31
240.785	1.28
241.162	2.38
241.539	2.69
241.915	2.92
242.292	3.18
242.668	3.4
243.045	3.32
243.421	3.42
243.798	3.8
244.174	3.74
244.551	3.72
244.927	3.58
245.303	3.67
245.679	3.64
246.056	3.48
246.432	3.55
246.808	3.77
247.184	3.82
247.56	3.95
247.936	3.94
248.312	4.01
248.688	4.41
249.064	4.12
249.44	3.89
249.815	3.96
250.191	4.03
250.567	3.97
250.943	3.9
251.318	3.66
251.694	3.26
252.069	3.23
252.445	3.06
252.82	3.28
253.196	3.44
253.571	3.37
253.947	3.29
254.322	3.29
254.697	3.21
255.073	3.67
255.448	3.29
255.823	3.37
256.198	3.39
256.573	3.47
256.948	3.51
257.323	3.92
257.698	4.02
258.073	3.99
258.448	3.93
258.823	3.86
259.198	3.96
259.573	3.89
259.948	4.03
260.322	4.2
260.697	4.17
261.072	4.15
261.446	4.14
261.821	4.33
262.195	4.23
262.57	4.11
262.944	3.98
263.319	4.1
263.693	4.05
264.067	3.98
264.442	3.82
264.816	3.86
265.19	3.64
265.564	3.48
265.938	3.35
266.313	3.17
266.687	3.21
267.061	3.17
267.435	3.42
267.809	3.35
268.183	3.25
268.556	3.22
268.93	3.27
269.304	3.31
269.678	3.28
270.051	3.41
270.425	3.55
270.799	3.18
271.172	3.16
271.546	3.26
271.919	3.2
272.293	3.24
272.666	3.18
273.04	3.15
273.413	3.13
273.787	3.24
274.16	3.4
274.533	3.46
274.906	3.39
275.279	3.28
275.653	3.34
276.026	3.37
276.399	3.32
276.772	3.34
277.145	3.14
277.518	2.98
277.891	2.9
278.263	2.97
278.636	3.41
279.009	3.4
279.382	3.31
279.755	3.37
280.127	3.34
280.5	3.3
280.872	3.32
281.245	3.35
281.617	3.29
281.99	3.25
282.362	3.3
282.735	3.48
283.107	3.5
283.479	3.4
283.852	3.49
284.224	3.53
284.596	3.42
284.968	3.56
285.34	3.52
285.713	3.63
286.085	3.57
286.457	3.53
286.829	3.51
287.201	3.62
287.572	3.73
287.944	3.87
288.316	3.83
288.688	3.79
289.06	3.87
289.431	3.86
289.803	3.94
290.175	3.91
290.546	3.86
290.918	3.92
291.289	3.96
291.661	3.87
292.032	3.9
292.403	4.01
292.775	3.95
293.146	4.05
293.517	4.07
293.889	4.06
294.26	4.06
294.631	4.14
295.002	4
295.373	3.95
295.744	3.89
296.115	4.03
296.486	4.17
296.857	4.04
297.228	4.15
297.599	4.09
297.97	4.17
298.34	4.23
298.711	4.36
299.082	4.35
299.452	4.3
299.823	4.39
300.194	4.44
300.564	4.51
300.935	4.72
301.305	4.7
301.676	4.63
302.046	4.74
302.416	4.79
302.787	4.99
303.157	4.9
303.527	5.02
303.897	5.07
304.267	5.07
304.637	5.25
305.008	5.19
305.378	5.32
305.748	5.27
306.117	5.41
306.487	5.45
306.857	5.59
307.227	5.85
307.597	5.6
307.967	5.62
308.336	5.68
308.706	5.64
309.076	5.78
309.445	6.05
309.815	6.01
310.184	5.92
310.554	5.94
310.923	6.13
311.293	6.11
311.662	6.17
312.031	6.2
312.401	6.22
312.77	6.35
313.139	6.42
313.508	6.46
313.877	6.32
314.246	6.27
314.616	6.44
314.985	6.34
315.353	6.66
315.722	6.72
316.091	6.8
316.46	6.82
316.829	6.89
317.198	6.82
317.567	7.07
317.935	7.26
318.304	7.45
318.672	7.46
319.041	7.47
319.41	7.45
319.778	7.51
320.147	7.56
320.515	7.56
320.883	7.58
321.252	7.67
321.62	7.88
321.988	7.93
322.357	7.8
322.725	7.9
323.093	7.79
323.461	7.83
323.829	7.7
324.197	7.74
324.565	7.69
324.933	7.69
325.301	7.57
325.669	7.67
326.037	7.64
326.405	7.68
326.772	7.63
327.14	7.68
327.508	7.62
327.875	7.65
328.243	7.69
328.61	7.68
328.978	7.72
329.346	7.65
329.713	7.79
330.08	7.94
330.448	8.06
330.815	8.16
331.182	8.09
331.55	8.25
331.917	8.42
332.284	8.34
332.651	8.42
333.018	8.4
333.385	8.35
333.752	8.3
334.119	8.36
334.486	8.48
334.853	8.57
335.22	8.64
335.587	8.63
335.954	8.74
336.32	8.73
336.687	8.84
337.054	8.91
337.42	8.78
337.787	8.8
338.153	8.78
338.52	8.87
338.886	8.95
339.253	8.91
339.619	8.79
339.986	8.92
340.352	8.9
340.718	9.01
341.084	9
341.451	9.09
341.817	9.15
342.183	9.14
342.549	9.07
342.915	9.17
343.281	9.21
343.647	9.17
344.013	9.25
344.379	9.17
344.745	9.27
345.11	9.37
345.476	9.32
345.842	9.29
346.208	9.19
346.573	9.2
346.939	9.29
347.304	9.35
347.67	9.31
348.035	9.38
348.401	9.36
348.766	9.36
349.132	9.36
349.497	9.34
349.862	9.42
350.228	9.53
350.593	9.49
350.958	9.51
351.323	9.47
351.688	9.52
352.053	9.6
352.418	9.55
352.783	9.55
353.148	9.5
353.513	9.5
353.878	9.61
354.243	9.57
354.608	9.57
354.972	9.61
355.337	9.65
355.702	9.63
356.066	9.65
356.431	9.68
356.795	9.61
357.16	9.59
357.524	9.57
357.889	9.47
358.253	9.47
358.618	9.46
358.982	9.47
359.346	9.4
359.71	9.32
360.075	9.31
360.439	9.29
360.803	9.36
361.167	9.29
361.531	9.18
361.895	9.14
362.259	9.14
362.623	9.07
362.987	9.08
363.351	9.05
363.714	8.95
364.078	8.94
364.442	8.95
364.806	8.94
365.169	8.86
365.533	8.86
365.896	8.86
366.26	8.74
366.623	8.7
366.987	8.73
367.35	8.69
367.714	8.67
368.077	8.57
368.44	8.5
368.803	8.49
369.167	8.5
369.53	8.57
369.893	8.45
370.256	8.37
370.619	8.28
370.982	8.16
371.345	8.22
371.708	8.19
372.071	8.09
372.434	8.06
372.797	8.09
373.159	8.07
373.522	7.98
373.885	8.01
374.247	7.94
374.61	7.89
374.973	7.88
375.335	7.81
375.698	7.74
376.06	7.69
376.423	7.71
376.785	7.71
377.147	7.63
377.51	7.69
377.872	7.65
378.234	7.57
378.596	7.66
378.958	7.58
379.321	7.53
379.683	7.55
380.045	7.45
380.407	7.38
380.769	7.33
381.13	7.25
381.492	7.17
381.854	7.19
382.216	7.15
382.578	7.12
382.939	7.03
383.301	7.03
383.663	6.98
384.024	6.89
384.386	6.82
384.747	6.75
385.109	6.62
385.47	6.57
385.832	6.54
386.193	6.44
386.554	6.39
386.916	6.34
387.277	6.24
387.638	6.23
387.999	6.17
388.36	6.1
388.721	6.15
389.082	6.18
389.443	6.1
389.804	6.08
390.165	6.03
390.526	6.01
390.887	5.95
391.248	5.9
391.609	5.9
391.969	5.85
392.33	5.83
392.691	5.82
393.051	5.79
393.412	5.76
393.772	5.71
394.133	5.69
394.493	5.66
394.854	5.66
395.214	5.62
395.574	5.6
395.935	5.55
396.295	5.47
396.655	5.38
397.015	5.32
397.376	5.28
397.736	5.23
398.096	5.19
398.456	5.2
398.816	5.16
399.176	5.08
399.535	5.05
399.895	5
400.255	4.98
400.615	4.96
400.975	4.91
401.334	4.88
401.694	4.84
402.054	4.8
402.413	4.77
402.773	4.79
403.132	4.78
403.492	4.75
403.851	4.7
404.211	4.67
404.57	4.67
404.929	4.62
405.288	4.61
405.648	4.62
406.007	4.59
406.366	4.58
406.725	4.55
407.084	4.52
407.443	4.54
407.802	4.52
408.161	4.51
408.52	4.51
408.879	4.55
409.238	4.54
409.596	4.51
409.955	4.53
410.314	4.5
410.673	4.48
411.031	4.48
411.39	4.48
411.748	4.5
412.107	4.47
412.465	4.47
412.824	4.42
413.182	4.38
413.54	4.35
413.899	4.32
414.257	4.33
414.615	4.35
414.974	4.29
415.332	4.29
415.69	4.28
416.048	4.24
416.406	4.2
416.764	4.18
417.122	4.14
417.48	4.11
417.838	4.08
418.195	4.07
418.553	4.05
418.911	4.04
419.269	4.03
419.626	4.03
419.984	4.01
420.342	3.99
420.699	3.98
421.057	3.97
421.414	3.97
421.772	3.93
422.129	3.9
422.486	3.9
422.844	3.88
423.201	3.87
423.558	3.86
423.915	3.84
424.273	3.85
424.63	3.84
424.987	3.84
425.344	3.83
425.701	3.82
426.058	3.8
426.415	3.78
426.772	3.75
427.128	3.75
427.485	3.75
427.842	3.73
428.199	3.75
428.555	3.74
428.912	3.72
429.269	3.73
429.625	3.71
429.982	3.71
430.338	3.71
430.695	3.68
431.051	3.66
431.407	3.65
431.764	3.65
432.12	3.69
432.476	3.69
432.832	3.68
433.189	3.68
433.545	3.68
433.901	3.69
434.257	3.71
434.613	3.7
434.969	3.67
435.325	3.67
435.681	3.65
436.036	3.63
436.392	3.64
436.748	3.64
437.104	3.64
437.459	3.64
437.815	3.64
438.171	3.66
438.526	3.67
438.882	3.67
439.237	3.64
439.593	3.6
439.948	3.58
440.304	3.58
440.659	3.58
441.014	3.58
441.369	3.59
441.725	3.59
442.08	3.58
442.435	3.6
442.79	3.6
443.145	3.6
443.5	3.59
443.855	3.57
444.21	3.58
444.565	3.58
444.92	3.57
445.275	3.58
445.629	3.56
445.984	3.55
446.339	3.54
446.693	3.56
447.048	3.56
447.403	3.57
447.757	3.56
448.112	3.56
448.466	3.54
448.82	3.53
449.175	3.52
449.529	3.52
449.883	3.49
450.238	3.49
450.592	3.49
450.946	3.5
451.3	3.5
451.654	3.48
452.008	3.48
452.362	3.48
452.716	3.46
453.07	3.45
453.424	3.45
453.778	3.45
454.132	3.44
454.486	3.42
454.839	3.42
455.193	3.41
455.547	3.42
455.9	3.45
456.254	3.45
456.607	3.42
456.961	3.42
457.314	3.43
457.668	3.43
458.021	3.44
458.375	3.43
458.728	3.43
459.081	3.43
459.434	3.43
459.787	3.43
460.141	3.44
460.494	3.46
460.847	3.46
461.2	3.47
461.553	3.47
461.906	3.49
462.259	3.49
462.611	3.5
462.964	3.5
463.317	3.48
463.67	3.49
464.022	3.52
464.375	3.54
464.728	3.54
465.08	3.53
465.433	3.53
465.785	3.55
466.138	3.54
466.49	3.56
466.843	3.58
467.195	3.57
467.547	3.58
467.899	3.59
468.252	3.6
468.604	3.62
468.956	3.63
469.308	3.64
469.66	3.65
470.012	3.64
470.364	3.65
470.716	3.67
471.068	3.68
471.42	3.69
471.772	3.67
472.123	3.7
472.475	3.73
472.827	3.71
473.178	3.73
473.53	3.74
473.882	3.74
474.233	3.74
474.585	3.74
474.936	3.74
475.288	3.73
475.639	3.73
475.99	3.7
476.342	3.68
476.693	3.7
477.044	3.69
477.395	3.67
477.746	3.67
478.097	3.65
478.448	3.63
478.8	3.62
479.15	3.61
479.501	3.6
479.852	3.61
480.203	3.63
480.554	3.63
480.905	3.64
481.255	3.64
481.606	3.65
481.957	3.65
482.307	3.65
482.658	3.65
483.009	3.66
483.359	3.68
483.709	3.69
484.06	3.69
484.41	3.7
484.761	3.71
485.111	3.71
485.461	3.73
485.811	3.73
486.162	3.73
486.512	3.74
486.862	3.74
487.212	3.75
487.562	3.74
487.912	3.74
488.262	3.74
488.612	3.74
488.961	3.74
489.311	3.75
489.661	3.75
490.011	3.74
490.36	3.74
490.71	3.72
491.06	3.71
491.409	3.7
491.759	3.7
492.108	3.7
492.458	3.71
492.807	3.71
493.157	3.72
493.506	3.72
493.855	3.73
494.204	3.74
494.554	3.75
494.903	3.77
495.252	3.79
495.601	3.79
495.95	3.8
496.299	3.81
496.648	3.84
496.997	3.89
497.346	3.94
497.695	3.97
498.043	4.03
498.392	4.08
498.741	4.1
499.09	4.14
499.438	4.18
499.787	4.21
500.135	4.24
500.484	4.3
500.832	4.35
501.181	4.4
501.529	4.44
501.878	4.48
502.226	4.55
502.574	4.61
502.923	4.69
503.271	4.75
503.619	4.81
503.967	4.85
504.315	4.87
504.663	4.91
505.011	4.96
505.359	4.98
505.707	5.05
506.055	5.13
506.403	5.18
506.751	5.21
507.098	5.27
507.446	5.34
507.794	5.37
508.141	5.42
508.489	5.49
508.837	5.54
509.184	5.6
509.531	5.65
509.879	5.7
510.226	5.74
510.574	5.81
510.921	5.87
511.268	5.92
511.616	5.98
511.963	6.05
512.31	6.14
512.657	6.2
513.004	6.24
513.351	6.3
513.698	6.37
514.045	6.46
514.392	6.55
514.739	6.61
515.086	6.7
515.432	6.79
515.779	6.85
516.126	6.92
516.473	6.99
516.819	7.07
517.166	7.16
517.512	7.21
517.859	7.27
518.205	7.33
518.552	7.38
518.898	7.44
519.245	7.51
519.591	7.57
519.937	7.64
520.283	7.72
520.629	7.77
520.976	7.87
521.322	7.96
521.668	8.04
522.014	8.12
522.36	8.22
522.706	8.29
523.052	8.42
523.398	8.52
523.743	8.65
524.089	8.74
524.435	8.84
524.781	8.96
525.126	9.05
525.472	9.16
525.817	9.26
526.163	9.35
526.509	9.42
526.854	9.49
527.199	9.56
527.545	9.63
527.89	9.71
528.235	9.78
528.581	9.85
528.926	9.93
529.271	10.03
529.616	10.11
529.961	10.2
530.306	10.28
530.651	10.38
530.996	10.48
531.341	10.58
531.686	10.68
532.031	10.79
532.376	10.92
532.721	11.04
533.065	11.17
533.41	11.3
533.755	11.43
534.099	11.57
534.444	11.71
534.788	11.85
535.133	12.01
535.477	12.16
535.822	12.33
536.166	12.51
536.51	12.66
536.855	12.85
537.199	13.04
537.543	13.26
537.887	13.46
538.231	13.66
538.576	13.86
538.92	14.08
539.264	14.28
539.608	14.48
539.951	14.65
540.295	14.82
540.639	15.01
540.983	15.19
541.327	15.37
541.671	15.56
542.014	15.72
542.358	15.9
542.701	16.1
543.045	16.27
543.389	16.43
543.732	16.64
544.075	16.83
544.419	17.03
544.762	17.21
545.105	17.43
545.449	17.67
545.792	17.92
546.135	18.14
546.478	18.41
546.821	18.65
547.165	18.97
547.508	19.25
547.851	19.55
548.194	19.82
548.536	20.12
548.879	20.43
549.222	20.74
549.565	21.02
549.908	21.3
550.25	21.6
550.593	21.94
550.936	22.21
551.278	22.52
551.621	22.82
551.963	23.13
552.306	23.42
552.648	23.72
552.991	24.02
553.333	24.3
553.675	24.61
554.017	24.92
554.36	25.19
554.702	25.46
555.044	25.72
555.386	26.04
555.728	26.32
556.07	26.58
556.412	26.89
556.754	27.18
557.096	27.44
557.438	27.77
557.78	28.04
558.121	28.38
558.463	28.67
558.805	28.98
559.147	29.34
559.488	29.65
559.83	29.95
560.171	30.25
560.513	30.62
560.854	30.9
561.196	31.21
561.537	31.47
561.878	31.83
562.22	32.1
562.561	32.35
562.902	32.62
563.243	32.93
563.584	33.2
563.925	33.45
564.266	33.7
564.607	33.91
564.948	34.19
565.289	34.44
565.63	34.71
565.971	34.94
566.312	35.06
566.653	35.26
566.993	35.47
567.334	35.72
567.675	35.94
568.015	36.13
568.356	36.3
568.696	36.53
569.037	36.69
569.377	36.9
569.718	37.17
570.058	37.35
570.398	37.57
570.739	37.78
571.079	37.98
571.419	38.21
571.759	38.43
572.099	38.59
572.439	38.78
572.779	38.93
573.119	39.15
573.459	39.36
573.799	39.52
574.139	39.7
574.479	39.84
574.819	39.98
575.158	40.11
575.498	40.27
575.838	40.42
576.177	40.55
576.517	40.7
576.856	40.82
577.196	41.02
577.535	41.09
577.875	41.2
578.214	41.34
578.553	41.4
578.893	41.5
579.232	41.67
579.571	41.79
579.91	41.95
580.25	42.05
580.589	42.24
580.928	42.39
581.267	42.49
581.606	42.63
581.945	42.7
582.283	42.89
582.622	43.02
582.961	43.2
583.3	43.4
583.639	43.54
583.977	43.63
584.316	43.75
584.654	43.89
584.993	44.05
585.332	44.21
585.67	44.44
586.008	44.59
586.347	44.69
586.685	44.8
587.024	44.84
587.362	44.89
587.7	45.01
588.038	45.14
588.376	45.29
588.715	45.37
589.053	45.48
589.391	45.54
589.729	45.66
590.067	45.72
590.404	45.75
590.742	45.91
591.08	46.02
591.418	46.06
591.756	46.17
592.093	46.28
592.431	46.34
592.769	46.37
593.106	46.46
593.444	46.55
593.781	46.59
594.119	46.78
594.456	46.9
594.793	46.95
595.131	46.99
595.468	47.01
595.805	47.05
596.143	47.17
596.48	47.22
596.817	47.22
597.154	47.24
597.491	47.33
597.828	47.37
598.165	47.39
598.502	47.47
598.839	47.49
599.176	47.54
599.512	47.58
599.849	47.63
600.186	47.69
600.523	47.77
600.859	47.85
601.196	47.88
601.532	47.98
601.869	47.92
602.205	47.94
602.542	47.91
602.878	47.97
603.215	47.94
603.551	48.03
603.887	48.07
604.223	48.15
604.56	48.15
604.896	48.07
605.232	48.24
605.568	48.28
605.904	48.35
606.24	48.44
606.576	48.47
606.912	48.55
607.248	48.64
607.583	48.62
607.919	48.67
608.255	48.66
608.591	48.65
608.926	48.79
609.262	48.91
609.597	49.05
609.933	49.07
610.268	49.17
610.604	49.23
610.939	49.4
611.275	49.44
611.61	49.53
611.945	49.65
612.281	49.58
612.616	49.67
612.951	49.68
613.286	49.66
613.621	49.72
613.956	49.78
614.291	49.71
614.626	49.82
614.961	49.8
615.296	49.9
615.631	49.93
615.966	50.01
616.3	49.98
616.635	49.96
616.97	49.96
617.304	50.04
617.639	50.01
617.973	49.93
618.308	50
618.642	50
618.977	49.99
619.311	50.04
619.646	50.01
619.98	50.06
620.314	50.08
620.648	50.24
620.983	50.23
621.317	50.34
621.651	50.34
621.985	50.42
622.319	50.42
622.653	50.45
622.987	50.59
623.321	50.62
623.655	50.65
623.988	50.76
624.322	50.74
624.656	50.78
624.99	50.79
625.323	50.79
625.657	50.82
625.99	50.98
626.324	50.97
626.657	50.97
626.991	51.1
627.324	51.13
627.658	51.11
627.991	51.18
628.324	51.14
628.657	51.19
628.991	51.22
629.324	51.27
629.657	51.34
629.99	51.27
630.323	51.37
630.656	51.42
630.989	51.52
631.322	51.57
631.655	51.64
631.987	51.67
632.32	51.7
632.653	51.78
632.986	51.69
633.318	51.74
633.651	51.8
633.984	51.68
634.316	51.69
634.649	51.64
634.981	51.54
635.313	51.56
635.646	51.56
635.978	51.64
636.31	51.61
636.643	51.54
636.975	51.53
637.307	51.51
637.639	51.51
637.971	51.47
638.303	51.5
638.635	51.55
638.967	51.55
639.299	51.52
639.631	51.48
639.963	51.51
640.295	51.44
640.626	51.46
640.958	51.45
641.29	51.4
641.621	51.4
641.953	51.5
642.285	51.56
642.616	51.59
642.948	51.5
643.279	51.51
643.61	51.52
643.942	51.57
644.273	51.53
644.604	51.55
644.936	51.5
645.267	51.48
645.598	51.4
645.929	51.49
646.26	51.52
646.591	51.54
646.922	51.61
647.253	51.73
647.584	51.71
647.915	51.78
648.245	51.89
648.576	51.92
648.907	51.91
649.238	51.76
649.568	51.76
649.899	51.8
650.229	51.78
650.56	51.88
650.89	51.81
651.221	51.89
651.551	51.88
651.882	51.96
652.212	51.93
652.542	51.93
652.872	51.88
653.203	51.84
653.533	51.89
653.863	51.85
654.193	51.84
654.523	51.82
654.853	51.8
655.183	51.83
655.513	51.85
655.843	52.02
656.172	52.19
656.502	52.22
656.832	52.17
657.162	52.32
657.491	52.33
657.821	52.45
658.15	52.44
658.48	52.4
658.809	52.41
659.139	52.5
659.468	52.67
659.798	52.68
660.127	52.66
660.456	52.65
660.785	52.53
661.115	52.6
661.444	52.75
661.773	52.82
662.102	52.78
662.431	52.88
662.76	52.71
663.089	52.68
663.418	52.72
663.747	52.75
664.076	52.6
664.404	52.52
664.733	52.39
665.062	52.45
665.39	52.58
665.719	52.49
666.048	52.46
666.376	52.34
666.705	52.35
667.033	52.45
667.362	52.51
667.69	52.6
668.018	52.43
