Data from MVZ_BU62167_Reflection_00008.txt Node
Date: Tue Nov 19 12:14:32 EST 2019
User: vgr7
Spectrometer: USB2G7710
Scans to average: 3
Trigger mode: 4
Integration Time (sec): 2.000000E-2
Electric dark correction enabled: true
Boxcar width: 10
XAxis mode: Wavelengths
Number of Pixels in Spectrum: 2048
>>>>>Begin Spectral Data<<<<<
177.721	-8.8
178.105	-150
178.488	-76.06
178.871	47.37
179.254	-94.12
179.636	-95.88
180.019	-143.8
180.402	112.5
180.785	1920
181.168	-781.58
181.55	165.22
181.933	105.75
182.316	128.09
182.698	-51.16
183.081	488.89
183.463	11.76
183.846	7.41
184.228	482.35
184.611	43.79
184.993	23.73
185.376	25.29
185.758	59.33
186.14	306.67
186.522	289.66
186.904	458.82
187.287	449.32
187.669	745.45
188.051	750.94
188.433	15266.67
188.815	1776.47
189.197	229.63
189.579	-440.82
189.961	-400
190.342	203.77
190.724	409.52
191.106	84.08
191.488	29.66
191.869	57.34
192.251	51.74
192.633	55.03
193.014	17.91
193.396	-29.48
193.777	-29.89
194.159	-75.07
194.54	-44.77
194.922	-30.39
195.303	-24.39
195.684	-25.22
196.065	-20.03
196.447	-13.77
196.828	7.41
197.209	52.21
197.59	60.73
197.971	53.98
198.352	65.85
198.733	75.67
199.114	72.45
199.495	78.11
199.876	79.05
200.257	67.65
200.638	56.49
201.018	54.82
201.399	56.49
201.78	51.66
202.16	65.19
202.541	69.82
202.922	46.77
203.302	25.31
203.683	11.35
204.063	7.41
204.444	-6.51
204.824	-13.07
205.204	-16.8
205.585	-28.37
205.965	-30.91
206.345	-22.59
206.725	-27.24
207.106	-21.26
207.486	-20.81
207.866	-13.66
208.246	4.21
208.626	3.46
209.006	7.46
209.386	8.65
209.766	16.11
210.145	15.05
210.525	3.68
210.905	11.3
211.285	28.38
211.664	31.29
212.044	34.19
212.424	50.18
212.803	42.19
213.183	46.98
213.562	48.52
213.942	46.72
214.321	33.92
214.701	27.7
215.08	37.43
215.459	34.02
215.838	23.12
216.218	16.76
216.597	29.35
216.976	28.42
217.355	31.54
217.734	32.32
218.113	32.62
218.492	37.3
218.871	42.49
219.25	35.57
219.629	43.59
220.008	46.66
220.387	37.07
220.766	48.01
221.144	41.67
221.523	42.04
221.902	45.14
222.28	53.73
222.659	60.85
223.037	51.97
223.416	58.67
223.794	66.05
224.173	64.95
224.551	51.16
224.929	43.75
225.308	43.02
225.686	36.41
226.064	29.91
226.442	24.43
226.821	26.35
227.199	25.01
227.577	19.93
227.955	19.35
228.333	15.64
228.711	13.07
229.089	12.42
229.467	13.61
229.845	14.24
230.222	16.26
230.6	14.57
230.978	18.22
231.356	16.55
231.733	17.41
232.111	15.85
232.488	14.36
232.866	13.86
233.243	15.7
233.621	17.61
233.998	19.98
234.376	20.04
234.753	15.32
235.13	12.78
235.508	12.79
235.885	9.98
236.262	11.97
236.639	9.1
237.016	8.96
237.393	7.44
237.77	6.64
238.147	5.89
238.524	5.81
238.901	3.41
239.278	3.66
239.655	3.12
240.032	4.42
240.409	4.51
240.785	4.66
241.162	4.41
241.539	3.64
241.915	3.33
242.292	3.38
242.668	3.96
243.045	4.88
243.421	5.19
243.798	5.07
244.174	4.83
244.551	5.05
244.927	4.75
245.303	4.86
245.679	4.74
246.056	4.48
246.432	4.33
246.808	4.36
247.184	4.27
247.56	4.26
247.936	3.89
248.312	3.95
248.688	4.21
249.064	4.07
249.44	4.05
249.815	4.12
250.191	4.33
250.567	4.05
250.943	3.85
251.318	3.65
251.694	3.8
252.069	4.02
252.445	3.98
252.82	4.27
253.196	4.35
253.571	4.27
253.947	4.54
254.322	4.7
254.697	4.9
255.073	4.51
255.448	4.59
255.823	4.71
256.198	4.21
256.573	4.07
256.948	4.15
257.323	4.14
257.698	3.97
258.073	3.82
258.448	3.72
258.823	3.47
259.198	3.46
259.573	3.37
259.948	3.13
260.322	3.12
260.697	3.12
261.072	3.01
261.446	2.92
261.821	2.63
262.195	2.61
262.57	2.58
262.944	2.77
263.319	2.91
263.693	2.78
264.067	2.96
264.442	2.95
264.816	2.76
265.19	2.68
265.564	2.62
265.938	2.48
266.313	2.39
266.687	2.55
267.061	2.59
267.435	2.71
267.809	2.85
268.183	2.79
268.556	2.64
268.93	2.6
269.304	2.94
269.678	3.19
270.051	3.28
270.425	3.18
270.799	2.9
271.172	2.67
271.546	2.86
271.919	2.91
272.293	2.95
272.666	2.94
273.04	2.99
273.413	3
273.787	3.23
274.16	3.34
274.533	3.3
274.906	3.2
275.279	3.16
275.653	3.18
276.026	3.35
276.399	3.51
276.772	3.64
277.145	3.58
277.518	3.54
277.891	3.53
278.263	3.77
278.636	4.19
279.009	4.26
279.382	4.07
279.755	4.06
280.127	3.99
280.5	4.03
280.872	4.04
281.245	3.92
281.617	3.69
281.99	3.53
282.362	3.76
282.735	3.7
283.107	3.79
283.479	3.68
283.852	3.69
284.224	3.69
284.596	3.69
284.968	3.52
285.34	3.55
285.713	3.57
286.085	3.5
286.457	3.31
286.829	3.25
287.201	3.17
287.572	3.17
287.944	3.18
288.316	3.2
288.688	3.24
289.06	3.37
289.431	3.48
289.803	3.71
290.175	3.74
290.546	3.72
290.918	3.63
291.289	3.72
291.661	3.72
292.032	3.62
292.403	3.64
292.775	3.73
293.146	3.85
293.517	3.71
293.889	3.67
294.26	3.71
294.631	3.66
295.002	3.92
295.373	3.86
295.744	3.83
296.115	3.86
296.486	3.84
296.857	3.96
297.228	3.97
297.599	3.89
297.97	3.91
298.34	3.98
298.711	4.16
299.082	3.99
299.452	4.06
299.823	4.08
300.194	4.06
300.564	4.13
300.935	4
301.305	4.03
301.676	3.94
302.046	4.04
302.416	4.11
302.787	3.76
303.157	3.98
303.527	4.24
303.897	4.11
304.267	4.15
304.637	4.05
305.008	4.1
305.378	4.18
305.748	4
306.117	4.14
306.487	4.03
306.857	4.46
307.227	4.49
307.597	4.49
307.967	4.54
308.336	4.52
308.706	4.64
309.076	4.58
309.445	4.78
309.815	4.62
310.184	4.62
310.554	4.87
310.923	4.78
311.293	4.7
311.662	4.87
312.031	4.88
312.401	4.91
312.77	4.89
313.139	4.94
313.508	4.92
313.877	4.81
314.246	4.75
314.616	4.53
314.985	4.28
315.353	4.4
315.722	4.49
316.091	4.35
316.46	4.28
316.829	4.37
317.198	4.25
317.567	4.51
317.935	4.63
318.304	4.82
318.672	4.85
319.041	4.83
319.41	4.86
319.778	4.86
320.147	4.78
320.515	4.89
320.883	4.78
321.252	4.98
321.62	5.11
321.988	5.26
322.357	5.27
322.725	5.37
323.093	5.28
323.461	5.21
323.829	5.41
324.197	5.49
324.565	5.6
324.933	5.81
325.301	5.59
325.669	5.61
326.037	5.48
326.405	5.44
326.772	5.44
327.14	5.49
327.508	5.53
327.875	5.48
328.243	5.5
328.61	5.55
328.978	5.44
329.346	5.41
329.713	5.51
330.08	5.69
330.448	5.69
330.815	5.71
331.182	5.66
331.55	5.58
331.917	5.48
332.284	5.51
332.651	5.65
333.018	5.92
333.385	6
333.752	6.04
334.119	6.14
334.486	6.13
334.853	6.03
335.22	6.09
335.587	6.3
335.954	6.23
336.32	6.37
336.687	6.56
337.054	6.52
337.42	6.43
337.787	6.23
338.153	6.28
338.52	6.34
338.886	6.34
339.253	6.44
339.619	6.49
339.986	6.54
340.352	6.36
340.718	6.19
341.084	6.09
341.451	5.96
341.817	6.01
342.183	5.98
342.549	6.01
342.915	6.03
343.281	5.97
343.647	6.01
344.013	5.94
344.379	5.83
344.745	5.82
345.11	5.75
345.476	5.97
345.842	5.99
346.208	6.04
346.573	6.03
346.939	5.97
347.304	6
347.67	6.03
348.035	6.09
348.401	6.16
348.766	6.22
349.132	6.33
349.497	6.3
349.862	6.34
350.228	6.45
350.593	6.41
350.958	6.59
351.323	6.64
351.688	6.73
352.053	6.78
352.418	6.82
352.783	6.87
353.148	6.76
353.513	6.76
353.878	6.68
354.243	6.69
354.608	6.71
354.972	6.66
355.337	6.59
355.702	6.45
356.066	6.56
356.431	6.53
356.795	6.5
357.16	6.41
357.524	6.43
357.889	6.27
358.253	6.22
358.618	6.04
358.982	5.99
359.346	5.95
359.71	5.95
360.075	6.04
360.439	6.06
360.803	6.08
361.167	5.99
361.531	6
361.895	6.04
362.259	6.09
362.623	6.2
362.987	6.12
363.351	6.16
363.714	6.06
364.078	6.02
364.442	6
364.806	6.01
365.169	5.93
365.533	6
365.896	6.12
366.26	6.11
366.623	6.14
366.987	6.12
367.35	6.1
367.714	6.05
368.077	6
368.44	5.95
368.803	5.99
369.167	5.91
369.53	5.87
369.893	5.78
370.256	5.58
370.619	5.53
370.982	5.44
371.345	5.47
371.708	5.41
372.071	5.29
372.434	5.27
372.797	5.28
373.159	5.15
373.522	5.02
373.885	4.99
374.247	4.89
374.61	4.81
374.973	4.78
375.335	4.7
375.698	4.66
376.06	4.61
376.423	4.59
376.785	4.62
377.147	4.59
377.51	4.57
377.872	4.64
378.234	4.68
378.596	4.75
378.958	4.69
379.321	4.69
379.683	4.76
380.045	4.72
380.407	4.68
380.769	4.73
381.13	4.69
381.492	4.68
381.854	4.65
382.216	4.69
382.578	4.61
382.939	4.6
383.301	4.56
383.663	4.54
384.024	4.56
384.386	4.55
384.747	4.54
385.109	4.54
385.47	4.52
385.832	4.51
386.193	4.5
386.554	4.44
386.916	4.43
387.277	4.36
387.638	4.37
387.999	4.32
388.36	4.29
388.721	4.33
389.082	4.29
389.443	4.28
389.804	4.25
390.165	4.25
390.526	4.3
390.887	4.28
391.248	4.24
391.609	4.18
391.969	4.12
392.33	4.09
392.691	4.04
393.051	3.97
393.412	3.92
393.772	3.89
394.133	3.92
394.493	3.89
394.854	3.9
395.214	3.86
395.574	3.85
395.935	3.82
396.295	3.78
396.655	3.77
397.015	3.74
397.376	3.71
397.736	3.67
398.096	3.6
398.456	3.63
398.816	3.61
399.176	3.6
399.535	3.59
399.895	3.55
400.255	3.53
400.615	3.57
400.975	3.58
401.334	3.55
401.694	3.53
402.054	3.54
402.413	3.51
402.773	3.49
403.132	3.51
403.492	3.48
403.851	3.44
404.211	3.45
404.57	3.46
404.929	3.45
405.288	3.47
405.648	3.44
406.007	3.4
406.366	3.4
406.725	3.39
407.084	3.38
407.443	3.4
407.802	3.38
408.161	3.35
408.52	3.34
408.879	3.3
409.238	3.3
409.596	3.3
409.955	3.28
410.314	3.28
410.673	3.27
411.031	3.28
411.39	3.3
411.748	3.32
412.107	3.32
412.465	3.3
412.824	3.27
413.182	3.25
413.54	3.25
413.899	3.23
414.257	3.27
414.615	3.25
414.974	3.27
415.332	3.28
415.69	3.28
416.048	3.28
416.406	3.27
416.764	3.24
417.122	3.22
417.48	3.22
417.838	3.21
418.195	3.2
418.553	3.21
418.911	3.2
419.269	3.16
419.626	3.18
419.984	3.18
420.342	3.17
420.699	3.18
421.057	3.15
421.414	3.16
421.772	3.14
422.129	3.14
422.486	3.1
422.844	3.1
423.201	3.11
423.558	3.1
423.915	3.11
424.273	3.13
424.63	3.13
424.987	3.15
425.344	3.15
425.701	3.14
426.058	3.14
426.415	3.11
426.772	3.1
427.128	3.08
427.485	3.06
427.842	3.07
428.199	3.07
428.555	3.07
428.912	3.07
429.269	3.09
429.625	3.09
429.982	3.1
430.338	3.09
430.695	3.06
431.051	3.07
431.407	3.07
431.764	3.04
432.12	3.05
432.476	3.04
432.832	3.04
433.189	3.03
433.545	3.03
433.901	3.03
434.257	3.05
434.613	3.04
434.969	3.05
435.325	3.04
435.681	3.06
436.036	3.06
436.392	3.06
436.748	3.05
437.104	3.03
437.459	3.03
437.815	3.05
438.171	3.05
438.526	3.04
438.882	3.03
439.237	3.03
439.593	3.04
439.948	3.04
440.304	3.04
440.659	3.05
441.014	3.04
441.369	3.07
441.725	3.06
442.08	3.07
442.435	3.09
442.79	3.08
443.145	3.06
443.5	3.07
443.855	3.06
444.21	3.07
444.565	3.07
444.92	3.08
445.275	3.06
445.629	3.06
445.984	3.07
446.339	3.08
446.693	3.07
447.048	3.04
447.403	3.02
447.757	3.01
448.112	3.01
448.466	3.02
448.82	2.98
449.175	2.99
449.529	2.98
449.883	2.95
450.238	2.96
450.592	2.97
450.946	2.98
451.3	2.98
451.654	2.94
452.008	2.94
452.362	2.92
452.716	2.93
453.07	2.93
453.424	2.9
453.778	2.91
454.132	2.91
454.486	2.93
454.839	2.94
455.193	2.95
455.547	2.97
455.9	2.98
456.254	2.98
456.607	2.98
456.961	2.96
457.314	2.97
457.668	2.98
458.021	2.98
458.375	2.96
458.728	2.96
459.081	2.99
459.434	3.01
459.787	3.04
460.141	3.04
460.494	3.05
460.847	3.06
461.2	3.07
461.553	3.1
461.906	3.11
462.259	3.09
462.611	3.09
462.964	3.07
463.317	3.07
463.67	3.08
464.022	3.08
464.375	3.1
464.728	3.11
465.08	3.11
465.433	3.1
465.785	3.12
466.138	3.14
466.49	3.16
466.843	3.16
467.195	3.16
467.547	3.15
467.899	3.17
468.252	3.19
468.604	3.19
468.956	3.16
469.308	3.15
469.66	3.2
470.012	3.2
470.364	3.21
470.716	3.23
471.068	3.23
471.42	3.27
471.772	3.28
472.123	3.28
472.475	3.29
472.827	3.3
473.178	3.3
473.53	3.27
473.882	3.26
474.233	3.25
474.585	3.26
474.936	3.27
475.288	3.26
475.639	3.24
475.99	3.23
476.342	3.24
476.693	3.22
477.044	3.24
477.395	3.23
477.746	3.22
478.097	3.2
478.448	3.19
478.8	3.18
479.15	3.17
479.501	3.17
479.852	3.16
480.203	3.16
480.554	3.14
480.905	3.15
481.255	3.14
481.606	3.14
481.957	3.13
482.307	3.12
482.658	3.13
483.009	3.14
483.359	3.14
483.709	3.14
484.06	3.14
484.41	3.14
484.761	3.15
485.111	3.14
485.461	3.14
485.811	3.15
486.162	3.15
486.512	3.16
486.862	3.16
487.212	3.16
487.562	3.16
487.912	3.17
488.262	3.18
488.612	3.18
488.961	3.19
489.311	3.2
489.661	3.21
490.011	3.21
490.36	3.21
490.71	3.21
491.06	3.21
491.409	3.22
491.759	3.23
492.108	3.24
492.458	3.26
492.807	3.28
493.157	3.31
493.506	3.31
493.855	3.32
494.204	3.33
494.554	3.34
494.903	3.38
495.252	3.4
495.601	3.43
495.95	3.45
496.299	3.49
496.648	3.52
496.997	3.52
497.346	3.55
497.695	3.57
498.043	3.62
498.392	3.66
498.741	3.7
499.09	3.73
499.438	3.77
499.787	3.81
500.135	3.84
500.484	3.88
500.832	3.91
501.181	3.94
501.529	4.02
501.878	4.06
502.226	4.1
502.574	4.16
502.923	4.18
503.271	4.24
503.619	4.29
503.967	4.32
504.315	4.4
504.663	4.46
505.011	4.51
505.359	4.56
505.707	4.6
506.055	4.68
506.403	4.74
506.751	4.78
507.098	4.86
507.446	4.91
507.794	4.98
508.141	5.06
508.489	5.15
508.837	5.18
509.184	5.23
509.531	5.29
509.879	5.35
510.226	5.43
510.574	5.51
510.921	5.61
511.268	5.67
511.616	5.76
511.963	5.85
512.31	5.93
512.657	6
513.004	6.07
513.351	6.13
513.698	6.21
514.045	6.32
514.392	6.4
514.739	6.5
515.086	6.61
515.432	6.7
515.779	6.75
516.126	6.87
516.473	6.96
516.819	7.05
517.166	7.15
517.512	7.23
517.859	7.3
518.205	7.35
518.552	7.45
518.898	7.51
519.245	7.59
519.591	7.7
519.937	7.79
520.283	7.9
520.629	8
520.976	8.1
521.322	8.18
521.668	8.27
522.014	8.37
522.36	8.45
522.706	8.6
523.052	8.73
523.398	8.87
523.743	9.01
524.089	9.15
524.435	9.25
524.781	9.36
525.126	9.47
525.472	9.59
525.817	9.69
526.163	9.8
526.509	9.9
526.854	9.97
527.199	10.06
527.545	10.14
527.89	10.22
528.235	10.32
528.581	10.42
528.926	10.52
529.271	10.62
529.616	10.72
529.961	10.79
530.306	10.89
530.651	10.99
530.996	11.1
531.341	11.22
531.686	11.35
532.031	11.5
532.376	11.63
532.721	11.77
533.065	11.91
533.41	12.05
533.755	12.19
534.099	12.35
534.444	12.52
534.788	12.67
535.133	12.85
535.477	13.01
535.822	13.16
536.166	13.34
536.51	13.54
536.855	13.75
537.199	13.99
537.543	14.25
537.887	14.49
538.231	14.71
538.576	14.93
538.92	15.16
539.264	15.38
539.608	15.6
539.951	15.78
540.295	15.97
540.639	16.17
540.983	16.35
541.327	16.55
541.671	16.74
542.014	16.94
542.358	17.1
542.701	17.27
543.045	17.48
543.389	17.69
543.732	17.85
544.075	18.03
544.419	18.22
544.762	18.44
545.105	18.66
545.449	18.89
545.792	19.15
546.135	19.41
546.478	19.67
546.821	19.95
547.165	20.25
547.508	20.55
547.851	20.86
548.194	21.18
548.536	21.49
548.879	21.83
549.222	22.13
549.565	22.44
549.908	22.75
550.25	23.03
550.593	23.37
550.936	23.72
551.278	24.08
551.621	24.37
551.963	24.65
552.306	24.93
552.648	25.24
552.991	25.53
553.333	25.83
553.675	26.1
554.017	26.38
554.36	26.68
554.702	26.96
555.044	27.26
555.386	27.52
555.728	27.75
556.07	27.98
556.412	28.28
556.754	28.6
557.096	28.95
557.438	29.28
557.78	29.53
558.121	29.77
558.463	30.02
558.805	30.33
559.147	30.6
559.488	30.89
559.83	31.22
560.171	31.49
560.513	31.7
560.854	32.03
561.196	32.35
561.537	32.66
561.878	32.9
562.22	33.19
562.561	33.49
562.902	33.76
563.243	34.04
563.584	34.28
563.925	34.51
564.266	34.73
564.607	34.94
564.948	35.19
565.289	35.46
565.63	35.69
565.971	35.91
566.312	36.17
566.653	36.35
566.993	36.53
567.334	36.72
567.675	37.03
568.015	37.21
568.356	37.38
568.696	37.54
569.037	37.76
569.377	37.91
569.718	38.05
570.058	38.22
570.398	38.4
570.739	38.56
571.079	38.79
571.419	38.95
571.759	39.11
572.099	39.2
572.439	39.41
572.779	39.63
573.119	39.79
573.459	39.93
573.799	40.13
574.139	40.28
574.479	40.47
574.819	40.64
575.158	40.85
575.498	40.96
575.838	41.11
576.177	41.31
576.517	41.5
576.856	41.67
577.196	41.89
577.535	42.04
577.875	42.26
578.214	42.38
578.553	42.58
578.893	42.82
579.232	43.07
579.571	43.21
579.91	43.29
580.25	43.42
580.589	43.59
580.928	43.66
581.267	43.8
581.606	43.93
581.945	43.97
582.283	44.06
582.622	44.3
582.961	44.4
583.3	44.49
583.639	44.54
583.977	44.73
584.316	44.77
584.654	44.97
584.993	44.95
585.332	45.09
585.67	45.08
586.008	45.08
586.347	45.18
586.685	45.24
587.024	45.4
587.362	45.47
587.7	45.52
588.038	45.66
588.376	45.77
588.715	45.82
589.053	45.86
589.391	45.99
589.729	46.02
590.067	46.23
590.404	46.32
590.742	46.4
591.08	46.44
591.418	46.62
591.756	46.59
592.093	46.83
592.431	46.91
592.769	47.1
593.106	47.23
593.444	47.39
593.781	47.47
594.119	47.54
594.456	47.71
594.793	47.81
595.131	47.87
595.468	47.95
595.805	48.09
596.143	48.27
596.48	48.23
596.817	48.31
597.154	48.27
597.491	48.26
597.828	48.39
598.165	48.43
598.502	48.47
598.839	48.59
599.176	48.58
599.512	48.62
599.849	48.75
600.186	48.84
600.523	48.82
600.859	48.89
601.196	49.03
601.532	49.15
601.869	49.24
602.205	49.38
602.542	49.44
602.878	49.46
603.215	49.38
603.551	49.46
603.887	49.52
604.223	49.6
604.56	49.69
604.896	49.76
605.232	49.85
605.568	49.92
605.904	49.98
606.24	50.04
606.576	50.1
606.912	50.01
607.248	50.05
607.583	50.15
607.919	50.25
608.255	50.22
608.591	50.25
608.926	50.26
609.262	50.27
609.597	50.31
609.933	50.34
610.268	50.5
610.604	50.51
610.939	50.6
611.275	50.67
611.61	50.74
611.945	50.75
612.281	50.81
612.616	50.81
612.951	50.86
613.286	50.91
613.621	50.96
613.956	51.1
614.291	51.16
614.626	51.16
614.961	51.19
615.296	51.22
615.631	51.22
615.966	51.27
616.3	51.26
616.635	51.34
616.97	51.43
617.304	51.42
617.639	51.44
617.973	51.5
618.308	51.56
618.642	51.54
618.977	51.57
619.311	51.51
619.646	51.7
619.98	51.78
620.314	51.77
620.648	51.83
620.983	51.87
621.317	51.82
621.651	51.85
621.985	51.77
622.319	51.92
622.653	51.88
622.987	51.96
623.321	52.06
623.655	52.05
623.988	52.09
624.322	52.16
624.656	52.32
624.99	52.24
625.323	52.18
625.657	52.23
625.99	52.25
626.324	52.36
626.657	52.22
626.991	52.19
627.324	52.26
627.658	52.22
627.991	52.2
628.324	52.28
628.657	52.3
628.991	52.45
629.324	52.4
629.657	52.53
629.99	52.6
630.323	52.63
630.656	52.67
630.989	52.61
631.322	52.58
631.655	52.49
631.987	52.51
632.32	52.55
632.653	52.62
632.986	52.69
633.318	52.72
633.651	52.76
633.984	52.7
634.316	52.75
634.649	52.84
634.981	52.95
635.313	52.98
635.646	53.14
635.978	53.11
636.31	53.13
636.643	53.16
636.975	53.18
637.307	53.22
637.639	53.18
637.971	53.2
638.303	53.37
638.635	53.4
638.967	53.55
639.299	53.64
639.631	53.65
639.963	53.5
640.295	53.53
640.626	53.54
640.958	53.62
641.29	53.61
641.621	53.61
641.953	53.59
642.285	53.62
642.616	53.47
642.948	53.5
643.279	53.52
643.61	53.55
643.942	53.45
644.273	53.42
644.604	53.54
644.936	53.61
645.267	53.54
645.598	53.6
645.929	53.58
646.26	53.57
646.591	53.63
646.922	53.82
647.253	53.82
647.584	53.87
647.915	53.84
648.245	53.85
648.576	53.88
648.907	53.92
649.238	53.98
649.568	54.03
649.899	54.08
650.229	54.02
650.56	54.02
650.89	54.13
651.221	54.05
651.551	54
651.882	54.1
652.212	54.12
652.542	54.21
652.872	54.19
653.203	54.16
653.533	54.09
653.863	54.09
654.193	54.1
654.523	54.05
654.853	54.12
655.183	54.15
655.513	54.16
655.843	54.14
656.172	54.11
656.502	54.25
656.832	54.36
657.162	54.45
657.491	54.47
657.821	54.41
658.15	54.5
658.48	54.5
658.809	54.57
659.139	54.56
659.468	54.56
659.798	54.57
660.127	54.58
660.456	54.72
660.785	54.74
661.115	54.67
661.444	54.71
661.773	54.79
662.102	54.69
662.431	54.67
662.76	54.67
663.089	54.76
663.418	54.69
663.747	54.57
664.076	54.56
664.404	54.59
664.733	54.57
665.062	54.67
665.39	54.69
665.719	54.54
666.048	54.54
666.376	54.5
666.705	54.56
667.033	54.7
667.362	54.64
667.69	54.69
668.018	54.81
668.347	54.83
668.675	54.86
669.003	54.94
