Data from MVZ_BU65311_Reflection_00002.txt Node
Date: Tue Nov 19 12:20:04 EST 2019
User: vgr7
Spectrometer: USB2G7710
Scans to average: 3
Trigger mode: 4
Integration Time (sec): 2.000000E-2
Electric dark correction enabled: true
Boxcar width: 10
XAxis mode: Wavelengths
Number of Pixels in Spectrum: 2048
>>>>>Begin Spectral Data<<<<<
177.721	-108.99
178.105	-205.56
178.488	51.69
178.871	-35.56
179.254	-7.41
179.636	-34.1
180.019	525.93
180.402	50
180.785	-32.1
181.168	56.79
181.55	396.3
181.933	1558.33
182.316	1391.67
182.698	-226.39
183.081	-215.48
183.463	-54.97
183.846	-56.12
184.228	-182.74
184.611	-119.93
184.993	-158.33
185.376	-165.37
185.758	-112.35
186.14	-109.4
186.522	-65.56
186.904	-81.03
187.287	-87.37
187.669	-96.89
188.051	-93.82
188.433	-116.8
188.815	-120.58
189.197	-118.28
189.579	-88.87
189.961	-93.44
190.342	-90.34
190.724	-102.45
191.106	-88.01
191.488	-101.07
191.869	-95.98
192.251	-79.2
192.633	-72.05
193.014	-69.87
193.396	-67.25
193.777	-63.76
194.159	-66.67
194.54	-66.67
194.922	-70.09
195.303	-64.63
195.684	-53.29
196.065	-52.88
196.447	-42.16
196.828	-40.82
197.209	-39.75
197.59	-44.79
197.971	-51.22
198.352	-55.08
198.733	-56.65
199.114	-64.59
199.495	-62.44
199.876	-73.23
200.257	-75.14
200.638	-84.52
201.018	-76.85
201.399	-75.49
201.78	-77.5
202.16	-72.77
202.541	-70.6
202.922	-59.98
203.302	-58.24
203.683	-77.98
204.063	-61.98
204.444	-72.8
204.824	-72.04
205.204	-61.46
205.585	-65.27
205.965	-60.55
206.345	-54.36
206.725	-55.93
207.106	-49.95
207.486	-52.38
207.866	-38.68
208.246	-38.39
208.626	-41.09
209.006	-59.64
209.386	-59.46
209.766	-58.71
210.145	-56.51
210.525	-67.04
210.905	-64.48
211.285	-54.93
211.664	-44.74
212.044	-44.48
212.424	-39.59
212.803	-50.53
213.183	-59.03
213.562	-43.37
213.942	-34.78
214.321	-40.03
214.701	-41.52
215.08	-53.51
215.459	-47.52
215.838	-44.15
216.218	-46.97
216.597	-47.13
216.976	-36.56
217.355	-39.74
217.734	-51.55
218.113	-55.46
218.492	-55.71
218.871	-55.94
219.25	-72.59
219.629	-94.67
220.008	-87.86
220.387	-85.19
220.766	-75.22
221.144	-70.88
221.523	-90.68
221.902	-91.37
222.28	-70.5
222.659	-56.13
223.037	-47.97
223.416	-53.22
223.794	-62.96
224.173	-62.28
224.551	-51
224.929	-51.05
225.308	-46.85
225.686	-42.74
226.064	-44.51
226.442	-37.46
226.821	-36.83
227.199	-32.66
227.577	-29.03
227.955	-25.62
228.333	-25.72
228.711	-23.37
229.089	-19.86
229.467	-17.46
229.845	-18.17
230.222	-20.98
230.6	-23.35
230.978	-23.06
231.356	-24.11
231.733	-22.17
232.111	-19.92
232.488	-21.71
232.866	-19.95
233.243	-19.49
233.621	-18.7
233.998	-15.36
234.376	-16.52
234.753	-18.26
235.13	-18.42
235.508	-16.21
235.885	-17.23
236.262	-15.09
236.639	-14.39
237.016	-12.48
237.393	-9.72
237.77	-6.44
238.147	-5.32
238.524	-3.91
238.901	-4.06
239.278	-2.91
239.655	-2.05
240.032	-1.85
240.409	-1.27
240.785	-0.92
241.162	-0.61
241.539	0.21
241.915	0.08
242.292	0.94
242.668	2.05
243.045	2.69
243.421	3.06
243.798	3.09
244.174	3.13
244.551	3.5
244.927	2.98
245.303	2.72
245.679	2.7
246.056	3.14
246.432	3.1
246.808	3.37
247.184	3.16
247.56	3.01
247.936	3.15
248.312	3.5
248.688	3.44
249.064	3.53
249.44	3.4
249.815	3.29
250.191	3.48
250.567	3.34
250.943	3.34
251.318	3.03
251.694	3
252.069	3.2
252.445	2.66
252.82	3
253.196	2.86
253.571	2.7
253.947	2.53
254.322	2.49
254.697	2.46
255.073	2.81
255.448	2.98
255.823	3.21
256.198	2.83
256.573	2.79
256.948	2.92
257.323	2.78
257.698	3.2
258.073	2.83
258.448	3.07
258.823	2.86
259.198	2.75
259.573	2.53
259.948	2.21
260.322	2.25
260.697	2.28
261.072	2.34
261.446	2.4
261.821	2.12
262.195	2.12
262.57	2.1
262.944	2.21
263.319	2.22
263.693	1.96
264.067	1.99
264.442	2.02
264.816	2.07
265.19	2.27
265.564	1.85
265.938	2.09
266.313	1.84
266.687	1.67
267.061	1.91
267.435	2.41
267.809	2.76
268.183	3.07
268.556	2.96
268.93	3.03
269.304	3.1
269.678	3.37
270.051	3.49
270.425	3.57
270.799	3.34
271.172	3.23
271.546	3.26
271.919	3.3
272.293	3.42
272.666	3.37
273.04	3.21
273.413	3.29
273.787	3.23
274.16	3.19
274.533	3.41
274.906	3.39
275.279	3.35
275.653	3.32
276.026	3.19
276.399	3.2
276.772	3.27
277.145	3.21
277.518	3.1
277.891	2.96
278.263	2.83
278.636	2.81
279.009	2.97
279.382	3.02
279.755	2.96
280.127	2.85
280.5	2.69
280.872	2.78
281.245	2.82
281.617	2.73
281.99	2.77
282.362	2.75
282.735	2.6
283.107	2.64
283.479	2.58
283.852	2.59
284.224	2.54
284.596	2.44
284.968	2.33
285.34	2.38
285.713	2.29
286.085	2.32
286.457	2.36
286.829	2.24
287.201	2.19
287.572	2.17
287.944	2.16
288.316	2.16
288.688	2.22
289.06	2.28
289.431	2.25
289.803	2.39
290.175	2.24
290.546	2.27
290.918	2.09
291.289	1.91
291.661	1.94
292.032	2.02
292.403	2
292.775	2.03
293.146	2.03
293.517	2.22
293.889	2.24
294.26	2.32
294.631	2.48
295.002	2.53
295.373	2.62
295.744	2.74
296.115	2.68
296.486	2.62
296.857	2.61
297.228	2.62
297.599	2.38
297.97	2.52
298.34	2.6
298.711	2.67
299.082	2.77
299.452	2.86
299.823	2.88
300.194	3.01
300.564	2.84
300.935	2.76
301.305	2.65
301.676	2.6
302.046	2.53
302.416	2.37
302.787	2.32
303.157	2.21
303.527	2.31
303.897	2.34
304.267	2.39
304.637	2.2
305.008	2.24
305.378	2.38
305.748	2.36
306.117	2.29
306.487	2.33
306.857	2.4
307.227	2.44
307.597	2.48
307.967	2.42
308.336	2.63
308.706	2.73
309.076	2.87
309.445	3.2
309.815	3.25
310.184	3.25
310.554	3.19
310.923	3.15
311.293	3.02
311.662	3.01
312.031	3.06
312.401	3.04
312.77	2.9
313.139	2.93
313.508	2.94
313.877	2.88
314.246	2.73
314.616	2.71
314.985	2.33
315.353	2.32
315.722	2.36
316.091	2.35
316.46	2.38
316.829	2.18
317.198	1.83
317.567	1.81
317.935	1.74
318.304	1.92
318.672	2.04
319.041	2.07
319.41	2.25
319.778	2.3
320.147	2.39
320.515	2.54
320.883	2.42
321.252	2.49
321.62	2.58
321.988	2.7
322.357	2.72
322.725	3.04
323.093	2.95
323.461	2.87
323.829	3.04
324.197	3
324.565	3.12
324.933	3.02
325.301	2.96
325.669	3.05
326.037	2.95
326.405	2.93
326.772	2.79
327.14	2.5
327.508	2.45
327.875	2.45
328.243	2.39
328.61	2.46
328.978	2.37
329.346	2.46
329.713	2.57
330.08	2.63
330.448	2.5
330.815	2.46
331.182	2.43
331.55	2.25
331.917	2.14
332.284	2.12
332.651	2.37
333.018	2.57
333.385	2.65
333.752	2.67
334.119	2.7
334.486	2.7
334.853	2.78
335.22	2.71
335.587	2.72
335.954	2.7
336.32	2.64
336.687	2.78
337.054	2.74
337.42	2.63
337.787	2.6
338.153	2.66
338.52	2.69
338.886	2.75
339.253	2.78
339.619	2.89
339.986	3.02
340.352	2.95
340.718	2.77
341.084	2.68
341.451	2.67
341.817	2.69
342.183	2.66
342.549	2.87
342.915	2.97
343.281	3.11
343.647	3.19
344.013	3.25
344.379	3.1
344.745	3.09
345.11	3.17
345.476	3.12
345.842	3.12
346.208	3.16
346.573	3.08
346.939	3.12
347.304	3
347.67	2.9
348.035	2.81
348.401	2.8
348.766	2.79
349.132	2.83
349.497	2.83
349.862	2.96
350.228	2.95
350.593	2.98
350.958	2.95
351.323	2.75
351.688	2.79
352.053	2.85
352.418	2.79
352.783	2.81
353.148	2.89
353.513	2.85
353.878	2.76
354.243	2.82
354.608	2.72
354.972	2.76
355.337	2.77
355.702	2.83
356.066	2.84
356.431	2.86
356.795	2.8
357.16	2.76
357.524	2.72
357.889	2.64
358.253	2.61
358.618	2.57
358.982	2.7
359.346	2.67
359.71	2.69
360.075	2.78
360.439	2.75
360.803	2.77
361.167	2.76
361.531	2.83
361.895	2.86
362.259	2.9
362.623	2.9
362.987	2.88
363.351	2.82
363.714	2.91
364.078	2.95
364.442	2.99
364.806	3
365.169	2.99
365.533	3.01
365.896	3.06
366.26	3.07
366.623	3.07
366.987	3.11
367.35	3.11
367.714	3.09
368.077	3.11
368.44	3.1
368.803	3.14
369.167	3.1
369.53	3.08
369.893	3.1
370.256	3.15
370.619	3.17
370.982	3.19
371.345	3.14
371.708	3.09
372.071	3.01
372.434	3.05
372.797	3.1
373.159	3.1
373.522	3.01
373.885	2.99
374.247	3
374.61	3.05
374.973	2.98
375.335	3.01
375.698	3.01
376.06	2.93
376.423	2.99
376.785	3
377.147	2.98
377.51	2.98
377.872	2.98
378.234	2.98
378.596	3.05
378.958	3.03
379.321	3.02
379.683	3.14
380.045	3.14
380.407	3.12
380.769	3.16
381.13	3.12
381.492	3.11
381.854	3.16
382.216	3.13
382.578	3.18
382.939	3.13
383.301	3.16
383.663	3.19
384.024	3.15
384.386	3.18
384.747	3.17
385.109	3.19
385.47	3.22
385.832	3.24
386.193	3.17
386.554	3.17
386.916	3.26
387.277	3.23
387.638	3.27
387.999	3.25
388.36	3.23
388.721	3.28
389.082	3.35
389.443	3.32
389.804	3.37
390.165	3.39
390.526	3.44
390.887	3.42
391.248	3.44
391.609	3.48
391.969	3.49
392.33	3.51
392.691	3.5
393.051	3.47
393.412	3.48
393.772	3.54
394.133	3.57
394.493	3.57
394.854	3.54
395.214	3.49
395.574	3.51
395.935	3.51
396.295	3.54
396.655	3.51
397.015	3.52
397.376	3.49
397.736	3.5
398.096	3.47
398.456	3.47
398.816	3.46
399.176	3.44
399.535	3.43
399.895	3.42
400.255	3.4
400.615	3.4
400.975	3.4
401.334	3.37
401.694	3.36
402.054	3.36
402.413	3.37
402.773	3.37
403.132	3.37
403.492	3.43
403.851	3.44
404.211	3.43
404.57	3.45
404.929	3.45
405.288	3.46
405.648	3.45
406.007	3.46
406.366	3.45
406.725	3.45
407.084	3.5
407.443	3.55
407.802	3.56
408.161	3.61
408.52	3.6
408.879	3.6
409.238	3.61
409.596	3.6
409.955	3.58
410.314	3.63
410.673	3.61
411.031	3.56
411.39	3.55
411.748	3.57
412.107	3.56
412.465	3.55
412.824	3.55
413.182	3.58
413.54	3.63
413.899	3.65
414.257	3.66
414.615	3.64
414.974	3.62
415.332	3.64
415.69	3.62
416.048	3.65
416.406	3.67
416.764	3.7
417.122	3.7
417.48	3.71
417.838	3.7
418.195	3.7
418.553	3.7
418.911	3.7
419.269	3.7
419.626	3.7
419.984	3.7
420.342	3.69
420.699	3.68
421.057	3.67
421.414	3.67
421.772	3.66
422.129	3.66
422.486	3.65
422.844	3.64
423.201	3.65
423.558	3.64
423.915	3.63
424.273	3.62
424.63	3.62
424.987	3.62
425.344	3.62
425.701	3.62
426.058	3.62
426.415	3.6
426.772	3.62
427.128	3.64
427.485	3.63
427.842	3.63
428.199	3.64
428.555	3.64
428.912	3.63
429.269	3.65
429.625	3.67
429.982	3.68
430.338	3.68
430.695	3.68
431.051	3.67
431.407	3.66
431.764	3.68
432.12	3.68
432.476	3.73
432.832	3.72
433.189	3.72
433.545	3.75
433.901	3.75
434.257	3.73
434.613	3.72
434.969	3.74
435.325	3.74
435.681	3.72
436.036	3.71
436.392	3.71
436.748	3.72
437.104	3.69
437.459	3.69
437.815	3.7
438.171	3.72
438.526	3.72
438.882	3.73
439.237	3.69
439.593	3.71
439.948	3.7
440.304	3.71
440.659	3.72
441.014	3.71
441.369	3.73
441.725	3.75
442.08	3.75
442.435	3.73
442.79	3.73
443.145	3.74
443.5	3.74
443.855	3.75
444.21	3.75
444.565	3.75
444.92	3.75
445.275	3.74
445.629	3.75
445.984	3.75
446.339	3.76
446.693	3.81
447.048	3.79
447.403	3.79
447.757	3.78
448.112	3.77
448.466	3.78
448.82	3.77
449.175	3.76
449.529	3.77
449.883	3.77
450.238	3.79
450.592	3.8
450.946	3.79
451.3	3.79
451.654	3.77
452.008	3.8
452.362	3.81
452.716	3.82
453.07	3.81
453.424	3.81
453.778	3.81
454.132	3.77
454.486	3.76
454.839	3.75
455.193	3.77
455.547	3.76
455.9	3.75
456.254	3.74
456.607	3.74
456.961	3.75
457.314	3.76
457.668	3.75
458.021	3.75
458.375	3.77
458.728	3.79
459.081	3.8
459.434	3.8
459.787	3.81
460.141	3.82
460.494	3.83
460.847	3.82
461.2	3.83
461.553	3.84
461.906	3.87
462.259	3.86
462.611	3.85
462.964	3.86
463.317	3.85
463.67	3.87
464.022	3.86
464.375	3.85
464.728	3.83
465.08	3.83
465.433	3.86
465.785	3.87
466.138	3.89
466.49	3.89
466.843	3.89
467.195	3.88
467.547	3.89
467.899	3.86
468.252	3.87
468.604	3.86
468.956	3.86
469.308	3.82
469.66	3.83
470.012	3.84
470.364	3.84
470.716	3.89
471.068	3.91
471.42	3.95
471.772	3.99
472.123	4.01
472.475	4.02
472.827	3.99
473.178	3.97
473.53	3.96
473.882	3.95
474.233	3.96
474.585	3.97
474.936	3.96
475.288	3.96
475.639	3.93
475.99	3.93
476.342	3.94
476.693	3.97
477.044	3.98
477.395	4
477.746	3.98
478.097	3.97
478.448	3.93
478.8	3.91
479.15	3.89
479.501	3.88
479.852	3.9
480.203	3.93
480.554	3.92
480.905	3.93
481.255	3.94
481.606	3.94
481.957	3.94
482.307	3.95
482.658	3.97
483.009	3.99
483.359	4
483.709	4.01
484.06	4.02
484.41	4.02
484.761	4.02
485.111	4.03
485.461	4.03
485.811	4.05
486.162	4.05
486.512	4.06
486.862	4.07
487.212	4.07
487.562	4.07
487.912	4.07
488.262	4.07
488.612	4.07
488.961	4.07
489.311	4.07
489.661	4.08
490.011	4.08
490.36	4.07
490.71	4.07
491.06	4.05
491.409	4.05
491.759	4.05
492.108	4.04
492.458	4.04
492.807	4.03
493.157	4.03
493.506	4.03
493.855	4.03
494.204	4.03
494.554	4.04
494.903	4.03
495.252	4.05
495.601	4.07
495.95	4.06
496.299	4.07
496.648	4.09
496.997	4.08
497.346	4.07
497.695	4.11
498.043	4.11
498.392	4.14
498.741	4.15
499.09	4.15
499.438	4.17
499.787	4.17
500.135	4.16
500.484	4.17
500.832	4.19
501.181	4.19
501.529	4.19
501.878	4.19
502.226	4.18
502.574	4.18
502.923	4.16
503.271	4.17
503.619	4.18
503.967	4.16
504.315	4.14
504.663	4.13
505.011	4.12
505.359	4.11
505.707	4.12
506.055	4.1
506.403	4.11
506.751	4.12
507.098	4.12
507.446	4.15
507.794	4.15
508.141	4.15
508.489	4.16
508.837	4.18
509.184	4.17
509.531	4.2
509.879	4.2
510.226	4.21
510.574	4.23
510.921	4.23
511.268	4.24
511.616	4.27
511.963	4.3
512.31	4.32
512.657	4.31
513.004	4.29
513.351	4.28
513.698	4.26
514.045	4.24
514.392	4.26
514.739	4.27
515.086	4.27
515.432	4.27
515.779	4.27
516.126	4.29
516.473	4.31
516.819	4.3
517.166	4.33
517.512	4.35
517.859	4.35
518.205	4.35
518.552	4.35
518.898	4.35
519.245	4.34
519.591	4.34
519.937	4.37
520.283	4.39
520.629	4.39
520.976	4.39
521.322	4.41
521.668	4.4
522.014	4.4
522.36	4.42
522.706	4.41
523.052	4.41
523.398	4.42
523.743	4.42
524.089	4.42
524.435	4.39
524.781	4.4
525.126	4.37
525.472	4.4
525.817	4.39
526.163	4.4
526.509	4.41
526.854	4.4
527.199	4.38
527.545	4.38
527.89	4.39
528.235	4.39
528.581	4.4
528.926	4.39
529.271	4.39
529.616	4.39
529.961	4.4
530.306	4.4
530.651	4.37
530.996	4.36
531.341	4.37
531.686	4.38
532.031	4.38
532.376	4.39
532.721	4.39
533.065	4.4
533.41	4.4
533.755	4.4
534.099	4.4
534.444	4.41
534.788	4.41
535.133	4.4
535.477	4.41
535.822	4.41
536.166	4.42
536.51	4.42
536.855	4.4
537.199	4.39
537.543	4.4
537.887	4.43
538.231	4.44
538.576	4.45
538.92	4.44
539.264	4.44
539.608	4.45
539.951	4.44
540.295	4.44
540.639	4.45
540.983	4.45
541.327	4.46
541.671	4.47
542.014	4.49
542.358	4.49
542.701	4.53
543.045	4.53
543.389	4.54
543.732	4.56
544.075	4.57
544.419	4.6
544.762	4.61
545.105	4.61
545.449	4.6
545.792	4.61
546.135	4.61
546.478	4.6
546.821	4.6
547.165	4.62
547.508	4.6
547.851	4.6
548.194	4.59
548.536	4.59
548.879	4.57
549.222	4.55
549.565	4.56
549.908	4.54
550.25	4.54
550.593	4.56
550.936	4.52
551.278	4.52
551.621	4.49
551.963	4.49
552.306	4.47
552.648	4.46
552.991	4.47
553.333	4.46
553.675	4.5
554.017	4.5
554.36	4.49
554.702	4.51
555.044	4.51
555.386	4.51
555.728	4.52
556.07	4.51
556.412	4.54
556.754	4.55
557.096	4.54
557.438	4.54
557.78	4.51
558.121	4.52
558.463	4.5
558.805	4.53
559.147	4.5
559.488	4.5
559.83	4.52
560.171	4.5
560.513	4.51
560.854	4.46
561.196	4.48
561.537	4.51
561.878	4.48
562.22	4.5
562.561	4.5
562.902	4.5
563.243	4.53
563.584	4.52
563.925	4.54
564.266	4.53
564.607	4.53
564.948	4.52
565.289	4.53
565.63	4.54
565.971	4.55
566.312	4.57
566.653	4.57
566.993	4.55
567.334	4.57
567.675	4.58
568.015	4.57
568.356	4.55
568.696	4.54
569.037	4.55
569.377	4.55
569.718	4.55
570.058	4.53
570.398	4.53
570.739	4.52
571.079	4.51
571.419	4.5
571.759	4.51
572.099	4.52
572.439	4.52
572.779	4.55
573.119	4.54
573.459	4.54
573.799	4.53
574.139	4.57
574.479	4.54
574.819	4.55
575.158	4.57
575.498	4.57
575.838	4.56
576.177	4.56
576.517	4.56
576.856	4.56
577.196	4.57
577.535	4.57
577.875	4.57
578.214	4.61
578.553	4.6
578.893	4.64
579.232	4.64
579.571	4.65
579.91	4.64
580.25	4.65
580.589	4.65
580.928	4.63
581.267	4.6
581.606	4.6
581.945	4.61
582.283	4.64
582.622	4.64
582.961	4.64
583.3	4.65
583.639	4.69
583.977	4.68
584.316	4.72
584.654	4.73
584.993	4.74
585.332	4.7
585.67	4.71
586.008	4.67
586.347	4.63
586.685	4.6
587.024	4.57
587.362	4.6
587.7	4.62
588.038	4.68
588.376	4.66
588.715	4.67
589.053	4.64
589.391	4.63
589.729	4.65
590.067	4.66
590.404	4.7
590.742	4.62
591.08	4.62
591.418	4.62
591.756	4.62
592.093	4.63
592.431	4.63
592.769	4.63
593.106	4.65
593.444	4.7
593.781	4.74
594.119	4.76
594.456	4.72
594.793	4.71
595.131	4.72
595.468	4.77
595.805	4.78
596.143	4.79
596.48	4.8
596.817	4.81
597.154	4.81
597.491	4.79
597.828	4.82
598.165	4.84
598.502	4.81
598.839	4.86
599.176	4.87
599.512	4.83
599.849	4.84
600.186	4.84
600.523	4.85
600.859	4.86
601.196	4.87
601.532	4.89
601.869	4.91
602.205	4.92
602.542	4.9
602.878	4.9
603.215	4.94
603.551	4.95
603.887	4.93
604.223	4.97
604.56	4.96
604.896	4.99
605.232	4.99
605.568	4.99
605.904	4.95
606.24	4.92
606.576	4.96
606.912	4.96
607.248	4.96
607.583	4.95
607.919	4.89
608.255	4.9
608.591	4.93
608.926	4.87
609.262	4.82
609.597	4.79
609.933	4.77
610.268	4.71
610.604	4.67
610.939	4.71
611.275	4.66
611.61	4.61
611.945	4.54
612.281	4.52
612.616	4.52
612.951	4.54
613.286	4.58
613.621	4.53
613.956	4.52
614.291	4.49
614.626	4.47
614.961	4.51
615.296	4.49
615.631	4.46
615.966	4.49
616.3	4.52
616.635	4.56
616.97	4.58
617.304	4.59
617.639	4.59
617.973	4.53
618.308	4.56
618.642	4.61
618.977	4.62
619.311	4.66
619.646	4.69
619.98	4.71
620.314	4.66
620.648	4.71
620.983	4.71
621.317	4.72
621.651	4.8
621.985	4.79
622.319	4.82
622.653	4.81
622.987	4.82
623.321	4.81
623.655	4.77
623.988	4.8
624.322	4.82
624.656	4.82
624.99	4.84
625.323	4.84
625.657	4.87
625.99	4.94
626.324	4.93
626.657	4.9
626.991	4.9
627.324	4.89
627.658	4.88
627.991	4.89
628.324	4.9
628.657	4.84
628.991	4.82
629.324	4.82
629.657	4.8
629.99	4.81
630.323	4.86
630.656	4.92
630.989	4.89
631.322	4.86
631.655	4.91
631.987	4.9
632.32	4.88
632.653	4.86
632.986	4.82
633.318	4.85
633.651	4.86
633.984	4.82
634.316	4.86
634.649	4.95
634.981	4.98
635.313	4.98
635.646	5.04
635.978	5.1
636.31	5.09
636.643	5.15
636.975	5.14
637.307	5.17
637.639	5.19
637.971	5.16
638.303	5.2
638.635	5.16
638.967	5.18
639.299	5.22
639.631	5.22
639.963	5.22
640.295	5.21
640.626	5.12
640.958	5.13
641.29	5.15
641.621	5.04
641.953	5
642.285	5.08
642.616	5.04
642.948	5.09
643.279	5.05
643.61	5.09
643.942	5.11
644.273	5.01
644.604	4.95
644.936	4.97
645.267	5.03
645.598	5.07
645.929	5.09
646.26	5.09
646.591	5.14
646.922	5.21
647.253	5.16
647.584	5.28
647.915	5.34
648.245	5.28
648.576	5.27
648.907	5.27
649.238	5.17
649.568	5.15
649.899	5.1
650.229	5.16
650.56	5.09
650.89	5.14
651.221	5.25
651.551	5.26
651.882	5.25
652.212	5.15
652.542	5.16
652.872	5.22
653.203	5.26
653.533	5.24
653.863	5.21
654.193	5.24
654.523	5.2
654.853	5.23
655.183	5.29
655.513	5.33
655.843	5.36
656.172	5.41
656.502	5.37
656.832	5.3
657.162	5.23
657.491	5.28
657.821	5.16
658.15	5.13
658.48	5.19
658.809	5.23
659.139	5.29
659.468	5.24
659.798	5.2
660.127	5.19
660.456	5.15
660.785	5.16
661.115	5.15
661.444	5.18
661.773	5.17
662.102	5.13
662.431	5.15
662.76	5.07
663.089	5.15
663.418	5.21
663.747	5.28
664.076	5.29
664.404	5.29
664.733	5.33
665.062	5.31
665.39	5.29
665.719	5.26
666.048	5.2
666.376	5.24
666.705	5.22
667.033	5.22
667.362	5.24
667.69	5.26
668.018	5.25
668.347	5.27
668.675	5.25
669.003	5.31
669.331	5.25
669.659	5.26
669.987	5.21
670.315	5.2
670.643	5.12
670.971	5.19
671.299	5.16
671.627	5.24
671.955	5.24
672.283	5.17
672.61	5.14
672.938	5.22
673.266	5.22
673.593	5.19
673.921	5.13
674.249	5.21
674.576	5.15
674.904	5.17
675.231	5.12
675.558	5.12
675.886	4.99
676.213	5.09
