Data from MVZ_BU147393_Reflection_00008.txt Node
Date: Tue Nov 19 12:07:03 EST 2019
User: vgr7
Spectrometer: USB2G7710
Scans to average: 3
Trigger mode: 4
Integration Time (sec): 2.000000E-2
Electric dark correction enabled: true
Boxcar width: 10
XAxis mode: Wavelengths
Number of Pixels in Spectrum: 2048
>>>>>Begin Spectral Data<<<<<
177.721	50.74
178.105	-3400
178.488	-163.78
178.871	-71.87
179.254	-263.64
179.636	-107.17
180.019	-281.29
180.402	-400
180.785	-243.18
181.168	-370.87
181.55	1100
181.933	288.52
182.316	122.32
182.698	184.07
183.081	80.43
183.463	122.32
183.846	423.01
184.228	300.6
184.611	293.28
184.993	476.92
185.376	-7525
185.758	-33400
186.14	-2380
186.522	-514.41
186.904	-1900
187.287	-8542.86
187.669	-400
188.051	-373.21
188.433	-182.44
188.815	-117.49
189.197	-58.3
189.579	-60.46
189.961	-46.89
190.342	-63.44
190.724	-81.66
191.106	-59.9
191.488	-53.26
191.869	-33.4
192.251	-34.58
192.633	-36.45
193.014	-34.63
193.396	-41.47
193.777	-44.7
194.159	-39.26
194.54	-57.92
194.922	-65.09
195.303	-61.16
195.684	-66.52
196.065	-74.96
196.447	-67.98
196.828	-64.94
197.209	-81.86
197.59	-70.51
197.971	-85.22
198.352	-89.9
198.733	-90.13
199.114	-98.67
199.495	-103.14
199.876	-131.89
200.257	-130.23
200.638	-118.05
201.018	-116.92
201.399	-108.75
201.78	-89.18
202.16	-100
202.541	-73.24
202.922	-56.23
203.302	-60.88
203.683	-66.18
204.063	-66.2
204.444	-71.42
204.824	-75.16
205.204	-65.71
205.585	-63.36
205.965	-54.53
206.345	-55.85
206.725	-58.89
207.106	-54.44
207.486	-47.31
207.866	-32.31
208.246	-32.34
208.626	-36.27
209.006	-42.02
209.386	-42.6
209.766	-52.54
210.145	-48.62
210.525	-69.51
210.905	-85.38
211.285	-86.55
211.664	-82.86
212.044	-76.37
212.424	-57.53
212.803	-70.42
213.183	-58.96
213.562	-42.58
213.942	-56.22
214.321	-46.59
214.701	-46.62
215.08	-63.95
215.459	-59.24
215.838	-88.25
216.218	-170.05
216.597	-142.58
216.976	-237.41
217.355	-272.47
217.734	-208.24
218.113	-206.97
218.492	-152.39
218.871	-108.91
219.25	-106.27
219.629	-159.64
220.008	-138.69
220.387	-189.19
220.766	-92.02
221.144	-125.13
221.523	-193.96
221.902	-203.07
222.28	-216.95
222.659	-75.31
223.037	-61.29
223.416	-79.39
223.794	-77.46
224.173	-52.65
224.551	-45.25
224.929	-34.3
225.308	-21.8
225.686	-20.38
226.064	-15.28
226.442	-10.76
226.821	-14.37
227.199	-18.15
227.577	-16.3
227.955	-15.43
228.333	-16.96
228.711	-17.1
229.089	-20.19
229.467	-18.92
229.845	-18.54
230.222	-19.49
230.6	-20.98
230.978	-17.54
231.356	-14.68
231.733	-8.56
232.111	-7.67
232.488	-7.76
232.866	-5.21
233.243	-5.35
233.621	-3.53
233.998	-4.44
234.376	-4.67
234.753	-3.84
235.13	-2.25
235.508	-1.71
235.885	-1.76
236.262	-1.71
236.639	-3.11
237.016	-2.84
237.393	-0.38
237.77	1.83
238.147	3.14
238.524	2.35
238.901	1.55
239.278	1.15
239.655	0.78
240.032	0.28
240.409	1.26
240.785	0.8
241.162	0.92
241.539	1.25
241.915	1.68
242.292	1.77
242.668	1.83
243.045	2.47
243.421	3
243.798	3.15
244.174	3.25
244.551	3.55
244.927	3.66
245.303	3.12
245.679	3.17
246.056	3.04
246.432	3.2
246.808	3.4
247.184	3.22
247.56	3.07
247.936	3.24
248.312	3.11
248.688	3.16
249.064	2.98
249.44	2.56
249.815	2.57
250.191	2.6
250.567	2.59
250.943	2.63
251.318	2.21
251.694	1.95
252.069	2.25
252.445	2.05
252.82	2.33
253.196	2.75
253.571	2.21
253.947	2.39
254.322	2.42
254.697	2.57
255.073	2.67
255.448	2.48
255.823	2.73
256.198	2.49
256.573	2.82
256.948	2.63
257.323	2.84
257.698	2.76
258.073	2.91
258.448	3.24
258.823	3.07
259.198	3.33
259.573	3.3
259.948	3.2
260.322	3.33
260.697	3.16
261.072	2.97
261.446	3.09
261.821	2.96
262.195	2.85
262.57	2.93
262.944	3
263.319	3.29
263.693	3.21
264.067	3.22
264.442	2.81
264.816	3.06
265.19	3.08
265.564	3.18
265.938	3.28
266.313	3.08
266.687	3.05
267.061	3.07
267.435	3.31
267.809	3.08
268.183	2.74
268.556	2.63
268.93	2.75
269.304	2.9
269.678	3.16
270.051	3.27
270.425	3.11
270.799	2.96
271.172	2.84
271.546	3.01
271.919	2.99
272.293	3.17
272.666	3.1
273.04	3.09
273.413	3.19
273.787	3.02
274.16	3.06
274.533	3.15
274.906	2.98
275.279	2.88
275.653	2.95
276.026	3.03
276.399	3.12
276.772	3.19
277.145	3.38
277.518	3.21
277.891	3.28
278.263	3.31
278.636	3.43
279.009	3.51
279.382	3.26
279.755	3.4
280.127	3.4
280.5	3.4
280.872	3.4
281.245	3.36
281.617	3.43
281.99	3.37
282.362	3.24
282.735	3.21
283.107	3.31
283.479	3.41
283.852	3.49
284.224	3.62
284.596	3.6
284.968	3.39
285.34	3.33
285.713	3.32
286.085	3.21
286.457	3.17
286.829	3.19
287.201	3.28
287.572	3.49
287.944	3.65
288.316	3.77
288.688	3.92
289.06	3.93
289.431	3.97
289.803	4.07
290.175	4.21
290.546	4.39
290.918	4.21
291.289	4.03
291.661	4.21
292.032	4.1
292.403	4
292.775	4.16
293.146	4.19
293.517	4.1
293.889	4.26
294.26	4.43
294.631	4.55
295.002	4.51
295.373	4.37
295.744	4.4
296.115	4.33
296.486	4.28
296.857	4.3
297.228	4.2
297.599	4.12
297.97	4.16
298.34	4.03
298.711	4.26
299.082	4.43
299.452	4.34
299.823	4.37
300.194	4.46
300.564	4.43
300.935	4.6
301.305	4.66
301.676	4.63
302.046	4.6
302.416	4.42
302.787	4.43
303.157	4.41
303.527	4.41
303.897	4.46
304.267	4.54
304.637	4.49
305.008	4.53
305.378	4.63
305.748	4.64
306.117	4.64
306.487	4.66
306.857	4.69
307.227	4.8
307.597	5.05
307.967	5.19
308.336	5.17
308.706	5.06
309.076	5.17
309.445	5.39
309.815	5.55
310.184	5.68
310.554	5.85
310.923	5.88
311.293	5.9
311.662	5.98
312.031	5.88
312.401	5.92
312.77	6.04
313.139	5.97
313.508	5.96
313.877	6.1
314.246	6.13
314.616	6.34
314.985	6.38
315.353	6.37
315.722	6.52
316.091	6.66
316.46	6.9
316.829	7.14
317.198	7.03
317.567	7.06
317.935	7.06
318.304	7.05
318.672	7.11
319.041	7.23
319.41	7.26
319.778	7.44
320.147	7.55
320.515	7.49
320.883	7.68
321.252	7.69
321.62	7.55
321.988	7.57
322.357	7.42
322.725	7.29
323.093	7.23
323.461	7.16
323.829	7.21
324.197	7.1
324.565	6.9
324.933	6.87
325.301	6.72
325.669	6.9
326.037	6.77
326.405	6.82
326.772	6.61
327.14	6.69
327.508	6.65
327.875	6.65
328.243	6.65
328.61	6.6
328.978	6.79
329.346	6.89
329.713	6.99
330.08	6.98
330.448	7.22
330.815	7.22
331.182	6.96
331.55	6.94
331.917	6.92
332.284	7.01
332.651	7.11
333.018	7.32
333.385	7.43
333.752	7.65
334.119	7.67
334.486	7.8
334.853	7.9
335.22	7.99
335.587	8.08
335.954	8.21
336.32	8.28
336.687	8.24
337.054	8.41
337.42	8.37
337.787	8.48
338.153	8.53
338.52	8.51
338.886	8.87
339.253	9
339.619	9.22
339.986	9.36
340.352	9.26
340.718	9.24
341.084	9.27
341.451	9.39
341.817	9.41
342.183	9.35
342.549	9.25
342.915	9.23
343.281	9.23
343.647	9.2
344.013	9.24
344.379	9.17
344.745	9.29
345.11	9.25
345.476	9.35
345.842	9.28
346.208	9.47
346.573	9.39
346.939	9.32
347.304	9.25
347.67	9.11
348.035	9.17
348.401	9.21
348.766	9.09
349.132	9.13
349.497	9.2
349.862	9.32
350.228	9.43
350.593	9.5
350.958	9.54
351.323	9.53
351.688	9.5
352.053	9.59
352.418	9.49
352.783	9.54
353.148	9.5
353.513	9.45
353.878	9.48
354.243	9.44
354.608	9.44
354.972	9.57
355.337	9.68
355.702	9.71
356.066	9.75
356.431	9.8
356.795	9.7
357.16	9.65
357.524	9.7
357.889	9.59
358.253	9.56
358.618	9.58
358.982	9.61
359.346	9.67
359.71	9.67
360.075	9.67
360.439	9.68
360.803	9.68
361.167	9.62
361.531	9.5
361.895	9.61
362.259	9.62
362.623	9.54
362.987	9.45
363.351	9.44
363.714	9.42
364.078	9.36
364.442	9.29
364.806	9.35
365.169	9.27
365.533	9.31
365.896	9.35
366.26	9.32
366.623	9.31
366.987	9.23
367.35	9.16
367.714	9.12
368.077	9.16
368.44	9.13
368.803	9.16
369.167	9.11
369.53	9
369.893	8.94
370.256	8.97
370.619	8.94
370.982	8.91
371.345	8.89
371.708	8.87
372.071	8.88
372.434	8.83
372.797	8.82
373.159	8.73
373.522	8.67
373.885	8.6
374.247	8.54
374.61	8.54
374.973	8.55
375.335	8.52
375.698	8.43
376.06	8.35
376.423	8.36
376.785	8.37
377.147	8.36
377.51	8.34
377.872	8.27
378.234	8.28
378.596	8.28
378.958	8.21
379.321	8.13
379.683	8.17
380.045	8.09
380.407	8.08
380.769	8.04
381.13	7.96
381.492	7.9
381.854	7.92
382.216	7.95
382.578	7.9
382.939	7.86
383.301	7.84
383.663	7.84
384.024	7.8
384.386	7.75
384.747	7.68
385.109	7.65
385.47	7.58
385.832	7.49
386.193	7.46
386.554	7.42
386.916	7.43
387.277	7.34
387.638	7.33
387.999	7.25
388.36	7.22
388.721	7.2
389.082	7.25
389.443	7.17
389.804	7.08
390.165	7.08
390.526	7.02
390.887	6.91
391.248	6.89
391.609	6.82
391.969	6.8
392.33	6.77
392.691	6.72
393.051	6.7
393.412	6.73
393.772	6.7
394.133	6.67
394.493	6.59
394.854	6.56
395.214	6.51
395.574	6.5
395.935	6.49
396.295	6.45
396.655	6.38
397.015	6.36
397.376	6.3
397.736	6.26
398.096	6.18
398.456	6.19
398.816	6.14
399.176	6.1
399.535	6.08
399.895	6.05
400.255	5.99
400.615	5.97
400.975	5.87
401.334	5.8
401.694	5.78
402.054	5.78
402.413	5.73
402.773	5.71
403.132	5.67
403.492	5.62
403.851	5.61
404.211	5.56
404.57	5.51
404.929	5.51
405.288	5.48
405.648	5.47
406.007	5.43
406.366	5.42
406.725	5.4
407.084	5.37
407.443	5.33
407.802	5.34
408.161	5.32
408.52	5.31
408.879	5.33
409.238	5.29
409.596	5.26
409.955	5.25
410.314	5.26
410.673	5.21
411.031	5.22
411.39	5.2
411.748	5.19
412.107	5.2
412.465	5.17
412.824	5.15
413.182	5.17
413.54	5.15
413.899	5.14
414.257	5.15
414.615	5.12
414.974	5.11
415.332	5.07
415.69	5.05
416.048	5.08
416.406	5.04
416.764	5.03
417.122	5.04
417.48	5.02
417.838	4.96
418.195	4.97
418.553	4.93
418.911	4.9
419.269	4.9
419.626	4.88
419.984	4.85
420.342	4.85
420.699	4.82
421.057	4.82
421.414	4.81
421.772	4.78
422.129	4.76
422.486	4.75
422.844	4.73
423.201	4.71
423.558	4.67
423.915	4.65
424.273	4.63
424.63	4.61
424.987	4.6
425.344	4.6
425.701	4.57
426.058	4.57
426.415	4.55
426.772	4.53
427.128	4.52
427.485	4.51
427.842	4.47
428.199	4.44
428.555	4.43
428.912	4.4
429.269	4.38
429.625	4.38
429.982	4.37
430.338	4.4
430.695	4.39
431.051	4.4
431.407	4.4
431.764	4.4
432.12	4.42
432.476	4.42
432.832	4.43
433.189	4.42
433.545	4.4
433.901	4.42
434.257	4.42
434.613	4.41
434.969	4.41
435.325	4.43
435.681	4.44
436.036	4.41
436.392	4.39
436.748	4.41
437.104	4.43
437.459	4.41
437.815	4.41
438.171	4.42
438.526	4.41
438.882	4.41
439.237	4.41
439.593	4.38
439.948	4.36
440.304	4.35
440.659	4.35
441.014	4.35
441.369	4.33
441.725	4.32
442.08	4.32
442.435	4.33
442.79	4.33
443.145	4.34
443.5	4.35
443.855	4.34
444.21	4.34
444.565	4.33
444.92	4.35
445.275	4.32
445.629	4.3
445.984	4.33
446.339	4.33
446.693	4.34
447.048	4.32
447.403	4.31
447.757	4.31
448.112	4.32
448.466	4.34
448.82	4.34
449.175	4.33
449.529	4.32
449.883	4.28
450.238	4.25
450.592	4.24
450.946	4.23
451.3	4.24
451.654	4.21
452.008	4.2
452.362	4.18
452.716	4.18
453.07	4.17
453.424	4.14
453.778	4.13
454.132	4.08
454.486	4.08
454.839	4.07
455.193	4.07
455.547	4.07
455.9	4.06
456.254	4.05
456.607	4.05
456.961	4.08
457.314	4.1
457.668	4.11
458.021	4.11
458.375	4.11
458.728	4.11
459.081	4.12
459.434	4.11
459.787	4.12
460.141	4.13
460.494	4.15
460.847	4.14
461.2	4.14
461.553	4.17
461.906	4.18
462.259	4.18
462.611	4.19
462.964	4.2
463.317	4.22
463.67	4.25
464.022	4.3
464.375	4.29
464.728	4.3
465.08	4.33
465.433	4.35
465.785	4.37
466.138	4.38
466.49	4.4
466.843	4.44
467.195	4.47
467.547	4.49
467.899	4.5
468.252	4.53
468.604	4.57
468.956	4.59
469.308	4.6
469.66	4.65
470.012	4.67
470.364	4.69
470.716	4.7
471.068	4.71
471.42	4.7
471.772	4.74
472.123	4.77
472.475	4.77
472.827	4.77
473.178	4.8
473.53	4.83
473.882	4.84
474.233	4.85
474.585	4.86
474.936	4.87
475.288	4.87
475.639	4.86
475.99	4.86
476.342	4.85
476.693	4.86
477.044	4.84
477.395	4.82
477.746	4.8
478.097	4.76
478.448	4.74
478.8	4.72
479.15	4.68
479.501	4.65
479.852	4.64
480.203	4.66
480.554	4.63
480.905	4.63
481.255	4.61
481.606	4.6
481.957	4.59
482.307	4.58
482.658	4.57
483.009	4.58
483.359	4.56
483.709	4.57
484.06	4.57
484.41	4.58
484.761	4.56
485.111	4.57
485.461	4.58
485.811	4.58
486.162	4.57
486.512	4.57
486.862	4.58
487.212	4.58
487.562	4.56
487.912	4.57
488.262	4.55
488.612	4.56
488.961	4.55
489.311	4.55
489.661	4.56
490.011	4.56
490.36	4.54
490.71	4.56
491.06	4.56
491.409	4.56
491.759	4.57
492.108	4.57
492.458	4.59
492.807	4.6
493.157	4.62
493.506	4.65
493.855	4.68
494.204	4.7
494.554	4.72
494.903	4.78
495.252	4.81
495.601	4.86
495.95	4.93
496.299	4.98
496.648	5.02
496.997	5.06
497.346	5.14
497.695	5.2
498.043	5.27
498.392	5.33
498.741	5.39
499.09	5.47
499.438	5.58
499.787	5.66
500.135	5.74
500.484	5.82
500.832	5.92
501.181	6.02
501.529	6.14
501.878	6.24
502.226	6.36
502.574	6.49
502.923	6.59
503.271	6.72
503.619	6.88
503.967	7.02
504.315	7.18
504.663	7.31
505.011	7.48
505.359	7.63
505.707	7.8
506.055	7.99
506.403	8.15
506.751	8.32
507.098	8.5
507.446	8.7
507.794	8.88
508.141	9.08
508.489	9.27
508.837	9.47
509.184	9.67
509.531	9.85
509.879	10.05
510.226	10.26
510.574	10.47
510.921	10.65
511.268	10.89
511.616	11.09
511.963	11.3
512.31	11.51
512.657	11.74
513.004	11.96
513.351	12.18
513.698	12.41
514.045	12.68
514.392	12.95
514.739	13.21
515.086	13.5
515.432	13.74
515.779	13.99
516.126	14.24
516.473	14.48
516.819	14.71
517.166	14.91
517.512	15.11
517.859	15.3
518.205	15.49
518.552	15.66
518.898	15.87
519.245	16.04
519.591	16.25
519.937	16.48
520.283	16.68
520.629	16.9
520.976	17.13
521.322	17.34
521.668	17.54
522.014	17.8
522.36	18.01
522.706	18.28
523.052	18.54
523.398	18.82
523.743	19.13
524.089	19.42
524.435	19.69
524.781	19.98
525.126	20.22
525.472	20.49
525.817	20.7
526.163	20.89
526.509	21.08
526.854	21.24
527.199	21.4
527.545	21.57
527.89	21.71
528.235	21.87
528.581	22
528.926	22.18
529.271	22.33
529.616	22.5
529.961	22.64
530.306	22.79
530.651	22.94
530.996	23.1
531.341	23.28
531.686	23.48
532.031	23.66
532.376	23.85
532.721	24.03
533.065	24.21
533.41	24.42
533.755	24.63
534.099	24.84
534.444	25.03
534.788	25.24
535.133	25.47
535.477	25.68
535.822	25.93
536.166	26.15
536.51	26.39
536.855	26.63
537.199	26.88
537.543	27.18
537.887	27.47
538.231	27.76
538.576	28
538.92	28.24
539.264	28.46
539.608	28.72
539.951	28.94
540.295	29.18
540.639	29.38
540.983	29.58
541.327	29.78
541.671	29.97
542.014	30.12
542.358	30.32
542.701	30.49
543.045	30.69
543.389	30.86
543.732	31.02
544.075	31.24
544.419	31.42
544.762	31.58
545.105	31.78
545.449	31.96
545.792	32.16
546.135	32.38
546.478	32.63
546.821	32.84
547.165	33.04
547.508	33.25
547.851	33.51
548.194	33.71
548.536	33.92
548.879	34.18
549.222	34.42
549.565	34.58
549.908	34.81
550.25	34.98
550.593	35.14
550.936	35.35
551.278	35.57
551.621	35.76
551.963	35.99
552.306	36.18
552.648	36.36
552.991	36.54
553.333	36.68
553.675	36.85
554.017	37.02
554.36	37.17
554.702	37.34
555.044	37.44
555.386	37.58
555.728	37.74
556.07	37.91
556.412	38.05
556.754	38.23
557.096	38.38
557.438	38.61
557.78	38.82
558.121	38.95
558.463	39.06
558.805	39.21
559.147	39.35
559.488	39.4
559.83	39.55
560.171	39.66
560.513	39.87
560.854	40.02
561.196	40.13
561.537	40.31
561.878	40.39
562.22	40.54
562.561	40.72
562.902	40.87
563.243	40.94
563.584	41.05
563.925	41.21
564.266	41.24
564.607	41.29
564.948	41.4
565.289	41.55
565.63	41.57
565.971	41.71
566.312	41.82
566.653	41.99
566.993	42.07
567.334	42.2
567.675	42.26
568.015	42.36
568.356	42.49
568.696	42.6
569.037	42.71
569.377	42.77
569.718	42.87
570.058	42.94
570.398	43.1
570.739	43.18
571.079	43.24
571.419	43.38
571.759	43.46
572.099	43.5
572.439	43.5
572.779	43.67
573.119	43.73
573.459	43.76
573.799	43.78
574.139	43.86
574.479	43.92
574.819	43.96
575.158	44
575.498	44.01
575.838	43.97
576.177	44.09
576.517	44.19
576.856	44.23
577.196	44.29
577.535	44.33
577.875	44.41
578.214	44.46
578.553	44.51
578.893	44.56
579.232	44.6
579.571	44.7
579.91	44.71
580.25	44.8
580.589	44.89
580.928	45.03
581.267	45.07
581.606	45.11
581.945	45.19
582.283	45.25
582.622	45.32
582.961	45.45
583.3	45.45
583.639	45.48
583.977	45.5
584.316	45.58
584.654	45.6
584.993	45.69
585.332	45.79
585.67	45.91
586.008	45.91
586.347	46.04
586.685	46.15
587.024	46.21
587.362	46.28
587.7	46.29
588.038	46.37
588.376	46.39
588.715	46.42
589.053	46.52
589.391	46.61
589.729	46.7
590.067	46.74
590.404	46.78
590.742	46.78
591.08	46.81
591.418	46.82
591.756	46.87
592.093	46.82
592.431	46.86
592.769	46.83
593.106	46.87
593.444	46.94
593.781	47.04
594.119	47.03
594.456	46.97
594.793	47.03
595.131	47.04
595.468	47.16
595.805	47.27
596.143	47.22
596.48	47.23
596.817	47.21
597.154	47.26
597.491	47.34
597.828	47.43
598.165	47.5
598.502	47.51
598.839	47.56
599.176	47.66
599.512	47.68
599.849	47.8
600.186	47.92
600.523	47.89
600.859	47.86
601.196	47.95
601.532	47.99
601.869	47.95
602.205	47.95
602.542	47.94
602.878	48.02
603.215	48.05
603.551	48.08
603.887	48.22
604.223	48.26
604.56	48.3
604.896	48.32
605.232	48.37
605.568	48.44
605.904	48.5
606.24	48.52
606.576	48.53
606.912	48.5
607.248	48.55
607.583	48.58
607.919	48.56
608.255	48.64
608.591	48.76
608.926	48.87
609.262	49
609.597	48.97
609.933	48.87
610.268	48.9
610.604	48.84
610.939	48.8
611.275	48.8
611.61	48.8
611.945	48.85
612.281	48.88
612.616	48.9
612.951	48.91
613.286	48.91
613.621	48.92
613.956	48.88
614.291	48.85
614.626	48.89
614.961	49.05
615.296	49.11
615.631	49.13
615.966	49.1
616.3	49.09
616.635	49.16
616.97	49.22
617.304	49.22
617.639	49.43
617.973	49.39
618.308	49.41
618.642	49.41
618.977	49.39
619.311	49.34
619.646	49.32
619.98	49.39
620.314	49.5
620.648	49.48
620.983	49.6
621.317	49.67
621.651	49.71
621.985	49.67
622.319	49.58
622.653	49.51
622.987	49.51
623.321	49.51
623.655	49.52
623.988	49.59
624.322	49.65
624.656	49.58
624.99	49.67
625.323	49.73
625.657	49.78
625.99	49.79
626.324	49.88
626.657	49.85
626.991	49.81
627.324	49.78
627.658	49.82
627.991	49.85
628.324	49.76
628.657	49.77
628.991	49.71
629.324	49.78
629.657	49.84
629.99	49.86
630.323	49.87
630.656	49.88
630.989	49.88
631.322	49.96
631.655	50.02
631.987	49.95
632.32	49.97
632.653	49.92
632.986	49.9
633.318	49.82
633.651	49.88
633.984	49.94
634.316	49.96
634.649	49.99
634.981	49.99
635.313	50.11
635.646	50.06
635.978	50.17
636.31	50.07
636.643	50.04
636.975	50.08
637.307	49.97
637.639	50.09
637.971	50.11
638.303	50.12
638.635	50.02
638.967	49.99
639.299	49.87
639.631	49.87
639.963	49.94
640.295	49.99
640.626	50.01
640.958	49.91
641.29	49.94
641.621	49.9
641.953	49.87
642.285	49.91
642.616	49.95
642.948	49.85
643.279	49.86
643.61	49.87
643.942	49.93
644.273	50.09
644.604	49.92
644.936	49.92
645.267	49.88
645.598	50.05
645.929	50.17
646.26	50.16
646.591	50.27
646.922	50.29
647.253	50.35
647.584	50.36
647.915	50.47
648.245	50.35
648.576	50.41
648.907	50.43
649.238	50.31
649.568	50.37
649.899	50.43
650.229	50.52
650.56	50.63
650.89	50.74
651.221	50.7
651.551	50.72
651.882	50.76
652.212	50.77
652.542	50.79
652.872	50.85
653.203	51
653.533	50.9
653.863	50.9
654.193	50.9
654.523	50.89
654.853	50.92
655.183	51.01
655.513	51.07
655.843	51.06
656.172	51.09
656.502	51.06
656.832	51.16
657.162	51.23
657.491	51.2
657.821	51.06
658.15	51.12
658.48	51.1
658.809	51.07
659.139	51.18
659.468	51.11
659.798	51.1
660.127	51.1
660.456	51.12
660.785	51.05
661.115	51.05
661.444	51.07
661.773	51.04
662.102	51.04
662.431	51.01
662.76	51.05
663.089	51.14
663.418	51.21
663.747	51.17
664.076	51.03
664.404	51.04
664.733	51.06
665.062	50.98
665.39	51.05
