Data from MVZ_BU147395_Reflection_00009.txt Node
Date: Tue Nov 19 12:05:07 EST 2019
User: vgr7
Spectrometer: USB2G7710
Scans to average: 3
Trigger mode: 4
Integration Time (sec): 2.000000E-2
Electric dark correction enabled: true
Boxcar width: 10
XAxis mode: Wavelengths
Number of Pixels in Spectrum: 2048
>>>>>Begin Spectral Data<<<<<
177.721	107.52
178.105	104.05
178.488	119.55
178.871	132.08
179.254	93.07
179.636	215.61
180.019	4907.69
180.402	45.45
180.785	54.66
181.168	20.52
181.55	-265.67
181.933	24.16
182.316	-1.16
182.698	547.37
183.081	-463.83
183.463	-436.14
183.846	739.24
184.228	1050.55
184.611	459.93
184.993	300.99
185.376	323.17
185.758	201.61
186.14	184.94
186.522	153.49
186.904	143.91
187.287	118.17
187.669	150.71
188.051	146.43
188.433	143.38
188.815	140.45
189.197	149.24
189.579	144.21
189.961	107.94
190.342	117.24
190.724	104.02
191.106	83.34
191.488	83.67
191.869	78.62
192.251	76.97
192.633	74.29
193.014	68.85
193.396	53.97
193.777	44.53
194.159	37.76
194.54	42.08
194.922	29.97
195.303	30.33
195.684	28.15
196.065	31.33
196.447	29.47
196.828	35.84
197.209	35.42
197.59	39.24
197.971	29.23
198.352	26.69
198.733	38.77
199.114	42.21
199.495	35.87
199.876	34.9
200.257	33.02
200.638	44.56
201.018	70.26
201.399	88.1
201.78	106.81
202.16	143.46
202.541	160.22
202.922	170.71
203.302	198.12
203.683	174.83
204.063	135.33
204.444	141.61
204.824	134.19
205.204	114.99
205.585	115.78
205.965	128.35
206.345	143.9
206.725	105.23
207.106	87.59
207.486	91.47
207.866	83.87
208.246	89.3
208.626	71.12
209.006	41.57
209.386	32.68
209.766	30.02
210.145	26.12
210.525	19.6
210.905	29.13
211.285	32.7
211.664	28.42
212.044	28.11
212.424	28.06
212.803	28.75
213.183	26.04
213.562	39.64
213.942	45.78
214.321	45.09
214.701	44.54
215.08	45.32
215.459	58.35
215.838	60.61
216.218	53.18
216.597	50.26
216.976	56.48
217.355	44.59
217.734	48.32
218.113	55.15
218.492	54.59
218.871	54.82
219.25	53.87
219.629	57.67
220.008	58.87
220.387	61.28
220.766	60.68
221.144	63.85
221.523	54.89
221.902	49.06
222.28	45.03
222.659	46.2
223.037	47.37
223.416	42.6
223.794	42.43
224.173	37.33
224.551	35.61
224.929	32.19
225.308	32.25
225.686	27.51
226.064	19.96
226.442	22.37
226.821	18.97
227.199	20.02
227.577	16.79
227.955	17.66
228.333	16.73
228.711	17.09
229.089	12.59
229.467	15.52
229.845	16.2
230.222	15.78
230.6	13.26
230.978	11.41
231.356	8.9
231.733	9.08
232.111	10.65
232.488	9.86
232.866	11.47
233.243	11.9
233.621	12.92
233.998	14.1
234.376	12.84
234.753	13.23
235.13	13.81
235.508	13.61
235.885	12.8
236.262	10.88
236.639	9.92
237.016	8.65
237.393	6.88
237.77	6.14
238.147	4.97
238.524	5.59
238.901	5.63
239.278	5.56
239.655	5.39
240.032	5.47
240.409	5.34
240.785	5.34
241.162	4.87
241.539	4.65
241.915	5.18
242.292	5.38
242.668	5.23
243.045	5.06
243.421	4.96
243.798	4.96
244.174	5.08
244.551	4.82
244.927	4.88
245.303	4.69
245.679	4.77
246.056	5.01
246.432	5.07
246.808	5.4
247.184	5.54
247.56	5.63
247.936	5.7
248.312	5.8
248.688	5.58
249.064	5.65
249.44	5.82
249.815	5.74
250.191	5.71
250.567	5.78
250.943	5.77
251.318	5.84
251.694	5.53
252.069	5.5
252.445	5.49
252.82	5.97
253.196	6.11
253.571	6.41
253.947	6.4
254.322	6
254.697	5.75
255.073	5.07
255.448	4.74
255.823	4.64
256.198	4.67
256.573	4.59
256.948	4.61
257.323	4.37
257.698	4.3
258.073	4.1
258.448	4.06
258.823	3.85
259.198	3.89
259.573	3.94
259.948	3.83
260.322	3.79
260.697	3.79
261.072	3.87
261.446	3.77
261.821	3.67
262.195	3.68
262.57	3.58
262.944	3.84
263.319	3.87
263.693	3.74
264.067	3.7
264.442	3.75
264.816	3.66
265.19	3.81
265.564	3.66
265.938	3.89
266.313	3.75
266.687	3.76
267.061	3.84
267.435	4.1
267.809	4.21
268.183	4.33
268.556	4.11
268.93	4
269.304	3.91
269.678	3.89
270.051	4.02
270.425	3.99
270.799	3.82
271.172	3.72
271.546	3.86
271.919	3.72
272.293	3.92
272.666	4.01
273.04	3.82
273.413	3.92
273.787	3.93
274.16	3.93
274.533	4.13
274.906	4.14
275.279	4.05
275.653	4.08
276.026	4.03
276.399	4.07
276.772	4.12
277.145	4.1
277.518	4.11
277.891	4
278.263	4.11
278.636	4.31
279.009	4.6
279.382	4.68
279.755	4.8
280.127	4.46
280.5	4.4
280.872	4.54
281.245	4.35
281.617	4.2
281.99	4.21
282.362	4.06
282.735	3.88
283.107	3.77
283.479	3.78
283.852	3.79
284.224	3.8
284.596	3.88
284.968	3.94
285.34	3.96
285.713	4.05
286.085	3.96
286.457	3.98
286.829	3.86
287.201	3.72
287.572	3.75
287.944	3.91
288.316	3.94
288.688	3.9
289.06	4.04
289.431	4.11
289.803	4.24
290.175	4.28
290.546	4.42
290.918	4.58
291.289	4.48
291.661	4.49
292.032	4.49
292.403	4.52
292.775	4.56
293.146	4.56
293.517	4.56
293.889	4.59
294.26	4.47
294.631	4.47
295.002	4.53
295.373	4.57
295.744	4.69
296.115	4.74
296.486	4.78
296.857	4.8
297.228	4.8
297.599	4.7
297.97	4.78
298.34	4.8
298.711	4.84
299.082	4.91
299.452	5.01
299.823	5.02
300.194	5.01
300.564	5.01
300.935	5.14
301.305	5.25
301.676	5.3
302.046	5.33
302.416	5.49
302.787	5.63
303.157	5.58
303.527	5.57
303.897	5.47
304.267	5.48
304.637	5.61
305.008	5.6
305.378	5.59
305.748	5.48
306.117	5.48
306.487	5.49
306.857	5.67
307.227	5.85
307.597	6.06
307.967	6.06
308.336	6.22
308.706	6.22
309.076	6.28
309.445	6.58
309.815	6.75
310.184	6.62
310.554	6.56
310.923	6.56
311.293	6.57
311.662	6.67
312.031	6.73
312.401	6.65
312.77	6.78
313.139	6.89
313.508	6.95
313.877	7.02
314.246	7.03
314.616	7.13
314.985	6.99
315.353	6.98
315.722	7.07
316.091	6.94
316.46	6.94
316.829	6.98
317.198	6.78
317.567	6.79
317.935	6.97
318.304	7.15
318.672	7.42
319.041	7.4
319.41	7.57
319.778	7.64
320.147	7.66
320.515	7.68
320.883	7.62
321.252	7.68
321.62	7.92
321.988	8.13
322.357	8.05
322.725	8.16
323.093	8
323.461	8.1
323.829	8.23
324.197	8.25
324.565	8.22
324.933	8.23
325.301	8.08
325.669	8.02
326.037	7.96
326.405	7.84
326.772	7.94
327.14	7.91
327.508	7.93
327.875	7.98
328.243	7.92
328.61	7.98
328.978	8.11
329.346	8.03
329.713	8.01
330.08	8.12
330.448	8.23
330.815	8.45
331.182	8.41
331.55	8.32
331.917	8.42
332.284	8.53
332.651	8.51
333.018	8.66
333.385	8.79
333.752	8.7
334.119	8.83
334.486	8.81
334.853	8.93
335.22	8.83
335.587	8.82
335.954	8.83
336.32	8.86
336.687	8.77
337.054	8.81
337.42	8.75
337.787	8.72
338.153	8.7
338.52	8.67
338.886	8.76
339.253	8.85
339.619	8.89
339.986	8.79
340.352	8.92
340.718	9.04
341.084	9.09
341.451	9.28
341.817	9.2
342.183	9.17
342.549	9.1
342.915	9.18
343.281	9.28
343.647	9.35
344.013	9.43
344.379	9.53
344.745	9.5
345.11	9.49
345.476	9.46
345.842	9.43
346.208	9.49
346.573	9.42
346.939	9.43
347.304	9.37
347.67	9.37
348.035	9.25
348.401	9.24
348.766	9.19
349.132	9.18
349.497	9.14
349.862	9.2
350.228	9.21
350.593	9.24
350.958	9.29
351.323	9.24
351.688	9.19
352.053	9.19
352.418	9.16
352.783	9.18
353.148	9.29
353.513	9.22
353.878	9.2
354.243	9.12
354.608	9.19
354.972	9.2
355.337	9.24
355.702	9.36
356.066	9.35
356.431	9.28
356.795	9.28
357.16	9.36
357.524	9.35
357.889	9.33
358.253	9.3
358.618	9.21
358.982	9.22
359.346	9.25
359.71	9.19
360.075	9.23
360.439	9.24
360.803	9.2
361.167	9.24
361.531	9.17
361.895	9.25
362.259	9.26
362.623	9.27
362.987	9.2
363.351	9.14
363.714	9.12
364.078	9.11
364.442	9.12
364.806	9.09
365.169	9.09
365.533	9.11
365.896	9.15
366.26	9.15
366.623	9.09
366.987	9.03
367.35	9.12
367.714	9.06
368.077	9.08
368.44	9.04
368.803	9.05
369.167	9.03
369.53	8.98
369.893	8.93
370.256	8.87
370.619	8.93
370.982	8.89
371.345	8.88
371.708	8.96
372.071	8.93
372.434	8.91
372.797	8.87
373.159	8.82
373.522	8.72
373.885	8.73
374.247	8.76
374.61	8.81
374.973	8.78
375.335	8.79
375.698	8.7
376.06	8.7
376.423	8.65
376.785	8.64
377.147	8.66
377.51	8.56
377.872	8.55
378.234	8.47
378.596	8.43
378.958	8.41
379.321	8.33
379.683	8.29
380.045	8.21
380.407	8.18
380.769	8.15
381.13	8.11
381.492	8.03
381.854	7.98
382.216	7.92
382.578	7.87
382.939	7.84
383.301	7.79
383.663	7.72
384.024	7.73
384.386	7.73
384.747	7.65
385.109	7.71
385.47	7.71
385.832	7.69
386.193	7.68
386.554	7.57
386.916	7.56
387.277	7.48
387.638	7.49
387.999	7.48
388.36	7.45
388.721	7.45
389.082	7.43
389.443	7.37
389.804	7.35
390.165	7.32
390.526	7.26
390.887	7.24
391.248	7.21
391.609	7.17
391.969	7.12
392.33	7.09
392.691	7.02
393.051	6.94
393.412	6.94
393.772	6.9
394.133	6.89
394.493	6.85
394.854	6.82
395.214	6.78
395.574	6.74
395.935	6.65
396.295	6.62
396.655	6.55
397.015	6.54
397.376	6.46
397.736	6.4
398.096	6.35
398.456	6.29
398.816	6.28
399.176	6.18
399.535	6.14
399.895	6.09
400.255	6.03
400.615	6.03
400.975	5.96
401.334	5.93
401.694	5.88
402.054	5.84
402.413	5.81
402.773	5.81
403.132	5.77
403.492	5.83
403.851	5.76
404.211	5.74
404.57	5.7
404.929	5.68
405.288	5.67
405.648	5.66
406.007	5.64
406.366	5.59
406.725	5.55
407.084	5.55
407.443	5.53
407.802	5.53
408.161	5.52
408.52	5.51
408.879	5.5
409.238	5.51
409.596	5.5
409.955	5.5
410.314	5.48
410.673	5.43
411.031	5.37
411.39	5.4
411.748	5.41
412.107	5.42
412.465	5.41
412.824	5.38
413.182	5.35
413.54	5.31
413.899	5.33
414.257	5.36
414.615	5.33
414.974	5.29
415.332	5.26
415.69	5.2
416.048	5.19
416.406	5.14
416.764	5.1
417.122	5.09
417.48	5.07
417.838	5.04
418.195	5.04
418.553	5.02
418.911	4.98
419.269	4.96
419.626	4.94
419.984	4.93
420.342	4.91
420.699	4.9
421.057	4.9
421.414	4.88
421.772	4.85
422.129	4.83
422.486	4.82
422.844	4.8
423.201	4.8
423.558	4.77
423.915	4.79
424.273	4.78
424.63	4.76
424.987	4.76
425.344	4.76
425.701	4.75
426.058	4.73
426.415	4.73
426.772	4.7
427.128	4.69
427.485	4.67
427.842	4.65
428.199	4.62
428.555	4.62
428.912	4.61
429.269	4.59
429.625	4.59
429.982	4.6
430.338	4.61
430.695	4.59
431.051	4.6
431.407	4.56
431.764	4.55
432.12	4.51
432.476	4.5
432.832	4.48
433.189	4.47
433.545	4.47
433.901	4.47
434.257	4.49
434.613	4.47
434.969	4.47
435.325	4.49
435.681	4.5
436.036	4.49
436.392	4.5
436.748	4.51
437.104	4.54
437.459	4.52
437.815	4.52
438.171	4.54
438.526	4.53
438.882	4.55
439.237	4.56
439.593	4.57
439.948	4.56
440.304	4.56
440.659	4.57
441.014	4.57
441.369	4.58
441.725	4.56
442.08	4.57
442.435	4.57
442.79	4.56
443.145	4.56
443.5	4.55
443.855	4.53
444.21	4.52
444.565	4.49
444.92	4.49
445.275	4.48
445.629	4.47
445.984	4.47
446.339	4.45
446.693	4.44
447.048	4.42
447.403	4.41
447.757	4.41
448.112	4.39
448.466	4.38
448.82	4.36
449.175	4.35
449.529	4.34
449.883	4.32
450.238	4.31
450.592	4.29
450.946	4.28
451.3	4.28
451.654	4.27
452.008	4.27
452.362	4.25
452.716	4.23
453.07	4.23
453.424	4.2
453.778	4.21
454.132	4.19
454.486	4.21
454.839	4.21
455.193	4.2
455.547	4.19
455.9	4.2
456.254	4.21
456.607	4.22
456.961	4.21
457.314	4.21
457.668	4.21
458.021	4.21
458.375	4.21
458.728	4.21
459.081	4.22
459.434	4.21
459.787	4.21
460.141	4.22
460.494	4.23
460.847	4.25
461.2	4.26
461.553	4.27
461.906	4.26
462.259	4.27
462.611	4.29
462.964	4.3
463.317	4.3
463.67	4.3
464.022	4.29
464.375	4.29
464.728	4.32
465.08	4.33
465.433	4.37
465.785	4.39
466.138	4.4
466.49	4.43
466.843	4.46
467.195	4.46
467.547	4.48
467.899	4.5
468.252	4.51
468.604	4.53
468.956	4.56
469.308	4.6
469.66	4.62
470.012	4.63
470.364	4.68
470.716	4.67
471.068	4.71
471.42	4.74
471.772	4.8
472.123	4.82
472.475	4.84
472.827	4.85
473.178	4.87
473.53	4.88
473.882	4.89
474.233	4.89
474.585	4.91
474.936	4.91
475.288	4.91
475.639	4.92
475.99	4.91
476.342	4.92
476.693	4.93
477.044	4.93
477.395	4.95
477.746	4.91
478.097	4.91
478.448	4.9
478.8	4.91
479.15	4.88
479.501	4.87
479.852	4.85
480.203	4.86
480.554	4.84
480.905	4.83
481.255	4.82
481.606	4.81
481.957	4.81
482.307	4.8
482.658	4.8
483.009	4.8
483.359	4.79
483.709	4.78
484.06	4.77
484.41	4.76
484.761	4.75
485.111	4.75
485.461	4.75
485.811	4.74
486.162	4.73
486.512	4.74
486.862	4.73
487.212	4.73
487.562	4.71
487.912	4.71
488.262	4.72
488.612	4.72
488.961	4.72
489.311	4.71
489.661	4.72
490.011	4.73
490.36	4.71
490.71	4.73
491.06	4.72
491.409	4.72
491.759	4.72
492.108	4.73
492.458	4.74
492.807	4.76
493.157	4.77
493.506	4.8
493.855	4.8
494.204	4.83
494.554	4.86
494.903	4.88
495.252	4.91
495.601	4.93
495.95	4.96
496.299	4.99
496.648	5.04
496.997	5.06
497.346	5.09
497.695	5.15
498.043	5.18
498.392	5.23
498.741	5.3
499.09	5.37
499.438	5.42
499.787	5.47
500.135	5.52
500.484	5.6
500.832	5.63
501.181	5.71
501.529	5.79
501.878	5.86
502.226	5.94
502.574	6.02
502.923	6.08
503.271	6.2
503.619	6.29
503.967	6.36
504.315	6.44
504.663	6.54
505.011	6.64
505.359	6.73
505.707	6.84
506.055	6.93
506.403	7.02
506.751	7.12
507.098	7.24
507.446	7.36
507.794	7.47
508.141	7.6
508.489	7.72
508.837	7.82
509.184	7.93
509.531	8.04
509.879	8.15
510.226	8.26
510.574	8.38
510.921	8.51
511.268	8.66
511.616	8.81
511.963	8.94
512.31	9.11
512.657	9.27
513.004	9.41
513.351	9.58
513.698	9.74
514.045	9.93
514.392	10.11
514.739	10.29
515.086	10.46
515.432	10.62
515.779	10.8
516.126	10.99
516.473	11.18
516.819	11.36
517.166	11.54
517.512	11.73
517.859	11.86
518.205	12.02
518.552	12.15
518.898	12.31
519.245	12.46
519.591	12.61
519.937	12.77
520.283	12.97
520.629	13.16
520.976	13.36
521.322	13.55
521.668	13.74
522.014	13.94
522.36	14.14
522.706	14.38
523.052	14.63
523.398	14.85
523.743	15.08
524.089	15.33
524.435	15.55
524.781	15.76
525.126	15.96
525.472	16.13
525.817	16.31
526.163	16.48
526.509	16.63
526.854	16.75
527.199	16.9
527.545	17.02
527.89	17.18
528.235	17.29
528.581	17.44
528.926	17.58
529.271	17.72
529.616	17.86
529.961	18
530.306	18.12
530.651	18.28
530.996	18.45
531.341	18.6
531.686	18.78
532.031	18.97
532.376	19.17
532.721	19.37
533.065	19.54
533.41	19.75
533.755	19.94
534.099	20.16
534.444	20.35
534.788	20.55
535.133	20.72
535.477	20.94
535.822	21.15
536.166	21.37
536.51	21.59
536.855	21.86
537.199	22.11
537.543	22.4
537.887	22.68
538.231	22.93
538.576	23.2
538.92	23.43
539.264	23.65
539.608	23.88
539.951	24.1
540.295	24.35
540.639	24.54
540.983	24.71
541.327	24.91
541.671	25.1
542.014	25.3
542.358	25.51
542.701	25.69
543.045	25.86
543.389	26.03
543.732	26.24
544.075	26.4
544.419	26.61
544.762	26.79
545.105	26.98
545.449	27.2
545.792	27.41
546.135	27.68
546.478	27.95
546.821	28.22
547.165	28.46
547.508	28.71
547.851	28.98
548.194	29.27
548.536	29.54
548.879	29.82
549.222	30.05
549.565	30.3
549.908	30.57
550.25	30.84
550.593	31.13
550.936	31.37
551.278	31.68
551.621	31.9
551.963	32.16
552.306	32.42
552.648	32.7
552.991	32.97
553.333	33.17
553.675	33.41
554.017	33.6
554.36	33.84
554.702	34
555.044	34.2
555.386	34.44
555.728	34.68
556.07	34.9
556.412	35.12
556.754	35.33
557.096	35.54
557.438	35.79
557.78	36.03
558.121	36.31
558.463	36.49
558.805	36.72
559.147	36.94
559.488	37.09
559.83	37.27
560.171	37.48
560.513	37.64
560.854	37.78
561.196	38.01
561.537	38.19
561.878	38.42
562.22	38.64
562.561	38.78
562.902	38.93
563.243	39.07
563.584	39.2
563.925	39.38
564.266	39.49
564.607	39.57
564.948	39.72
565.289	39.84
565.63	39.99
565.971	40.13
566.312	40.28
566.653	40.42
566.993	40.57
567.334	40.73
567.675	40.88
568.015	41.01
568.356	41.12
568.696	41.27
569.037	41.36
569.377	41.43
569.718	41.52
570.058	41.69
570.398	41.81
570.739	41.98
571.079	42.13
571.419	42.28
571.759	42.47
572.099	42.57
572.439	42.66
572.779	42.78
573.119	42.87
573.459	42.96
573.799	43.05
574.139	43.13
574.479	43.13
574.819	43.25
575.158	43.37
575.498	43.49
575.838	43.57
576.177	43.66
576.517	43.82
576.856	43.97
577.196	44.05
577.535	44.15
577.875	44.26
578.214	44.36
578.553	44.48
578.893	44.56
579.232	44.71
579.571	44.88
579.91	44.95
580.25	45.05
580.589	45.14
580.928	45.27
581.267	45.33
581.606	45.45
581.945	45.54
582.283	45.58
582.622	45.63
582.961	45.76
583.3	45.91
583.639	46.03
583.977	46.12
584.316	46.19
584.654	46.3
584.993	46.37
585.332	46.43
585.67	46.43
586.008	46.54
586.347	46.49
586.685	46.47
587.024	46.56
587.362	46.65
587.7	46.78
588.038	46.89
588.376	46.95
588.715	47.07
589.053	47.2
589.391	47.33
589.729	47.42
590.067	47.5
590.404	47.56
590.742	47.55
591.08	47.58
591.418	47.69
591.756	47.74
592.093	47.77
592.431	47.78
592.769	47.91
593.106	47.9
593.444	48.01
593.781	48.1
594.119	48.15
594.456	48.17
594.793	48.13
595.131	48.16
595.468	48.23
595.805	48.3
596.143	48.3
596.48	48.4
596.817	48.4
597.154	48.41
597.491	48.47
597.828	48.56
598.165	48.65
598.502	48.62
598.839	48.62
599.176	48.78
599.512	48.77
599.849	48.77
600.186	48.86
600.523	48.94
600.859	48.99
601.196	49.08
601.532	49.21
601.869	49.29
602.205	49.35
602.542	49.38
602.878	49.35
603.215	49.44
603.551	49.39
603.887	49.5
604.223	49.48
604.56	49.46
604.896	49.51
605.232	49.48
605.568	49.57
605.904	49.66
606.24	49.71
606.576	49.8
606.912	49.86
607.248	49.94
607.583	49.92
607.919	49.97
608.255	50.02
608.591	50
608.926	50.04
609.262	50.12
609.597	50.24
609.933	50.34
610.268	50.32
610.604	50.39
610.939	50.41
611.275	50.53
611.61	50.67
611.945	50.61
612.281	50.69
612.616	50.72
612.951	50.77
613.286	50.7
613.621	50.77
613.956	50.85
614.291	50.87
614.626	51.03
614.961	51.12
615.296	51.07
615.631	51.24
615.966	51.32
616.3	51.29
616.635	51.3
616.97	51.26
617.304	51.34
617.639	51.38
617.973	51.38
618.308	51.38
618.642	51.27
618.977	51.37
619.311	51.42
619.646	51.54
619.98	51.45
620.314	51.54
620.648	51.54
620.983	51.49
621.317	51.44
621.651	51.47
621.985	51.46
622.319	51.53
622.653	51.48
622.987	51.38
623.321	51.42
623.655	51.47
623.988	51.62
624.322	51.65
624.656	51.77
624.99	51.79
625.323	51.8
625.657	51.83
625.99	51.89
626.324	51.94
626.657	51.85
626.991	52.01
627.324	51.96
627.658	51.99
627.991	52
628.324	52.01
628.657	51.96
628.991	51.98
629.324	52.08
629.657	52.04
629.99	52.09
630.323	52.15
630.656	52.09
630.989	52.07
631.322	52.05
631.655	52.09
631.987	52.13
632.32	52.18
632.653	52.19
632.986	52.13
633.318	52.19
633.651	52.23
633.984	52.13
634.316	52.26
634.649	52.27
634.981	52.34
635.313	52.39
635.646	52.38
635.978	52.4
636.31	52.31
636.643	52.35
636.975	52.49
637.307	52.45
637.639	52.38
637.971	52.39
638.303	52.34
638.635	52.14
638.967	52.15
639.299	52.08
639.631	52.04
639.963	52.09
640.295	51.98
640.626	51.97
640.958	51.98
641.29	51.93
641.621	51.93
641.953	51.85
642.285	51.89
642.616	52.08
642.948	52.03
643.279	52.1
643.61	52.01
643.942	51.82
644.273	51.82
644.604	51.92
644.936	51.93
645.267	51.88
645.598	51.92
645.929	51.84
646.26	52.03
646.591	52.15
646.922	52.16
647.253	52.23
647.584	52.32
647.915	52.4
648.245	52.37
648.576	52.5
648.907	52.59
649.238	52.54
649.568	52.41
649.899	52.41
650.229	52.45
650.56	52.61
650.89	52.75
651.221	52.75
651.551	52.83
651.882	52.84
652.212	53
652.542	53.06
652.872	53.15
653.203	53.05
653.533	53.14
653.863	53.12
654.193	53.12
654.523	53.12
654.853	53.14
655.183	53.3
655.513	53.21
655.843	53.26
656.172	53.39
656.502	53.37
656.832	53.43
657.162	53.41
657.491	53.48
657.821	53.51
658.15	53.55
658.48	53.63
658.809	53.68
659.139	53.69
659.468	53.68
659.798	53.73
660.127	53.75
660.456	53.74
660.785	53.8
661.115	53.82
661.444	53.81
661.773	53.82
662.102	53.72
662.431	53.73
662.76	53.67
663.089	53.69
663.418	53.84
663.747	53.84
664.076	53.9
664.404	53.84
664.733	53.89
665.062	53.87
665.39	53.78
665.719	53.67
666.048	53.59
666.376	53.67
666.705	53.63
667.033	53.63
667.362	53.56
667.69	53.52
668.018	53.49
