Data from MVZ_BU8942_Reflection_00015.txt Node
Date: Tue Nov 19 12:04:17 EST 2019
User: vgr7
Spectrometer: USB2G7710
Scans to average: 3
Trigger mode: 4
Integration Time (sec): 2.000000E-2
Electric dark correction enabled: true
Boxcar width: 10
XAxis mode: Wavelengths
Number of Pixels in Spectrum: 2048
>>>>>Begin Spectral Data<<<<<
177.721	-2.64
178.105	-127.27
178.488	-324.16
178.871	885.71
179.254	-550
179.636	-38.69
180.019	-333.17
180.402	172.73
180.785	59
181.168	280.23
181.55	-346.43
181.933	38.56
182.316	76.52
182.698	112.32
183.081	112.59
183.463	188.84
183.846	131.68
184.228	121.3
184.611	132.16
184.993	132.89
185.376	38.58
185.758	69.41
186.14	24.47
186.522	140.25
186.904	148.44
187.287	128.8
187.669	172.37
188.051	210.32
188.433	90.07
188.815	67.35
189.197	45.6
189.579	43.99
189.961	-9.07
190.342	-9.67
190.724	1.39
191.106	-7.06
191.488	-34.75
191.869	-54.36
192.251	-25
192.633	-14.92
193.014	-7.71
193.396	-9.39
193.777	-5
194.159	-4.5
194.54	-16.7
194.922	-23.9
195.303	-28.09
195.684	-25.44
196.065	-34.64
196.447	-13.28
196.828	-15.95
197.209	-5.88
197.59	9.56
197.971	23.05
198.352	31.44
198.733	33.55
199.114	64.96
199.495	141.51
199.876	123.06
200.257	61.35
200.638	58.07
201.018	72.33
201.399	96.83
201.78	104.1
202.16	103.57
202.541	153.28
202.922	312.09
203.302	181.9
203.683	224.38
204.063	248.7
204.444	242.06
204.824	246.62
205.204	170.4
205.585	148.31
205.965	219.01
206.345	150.55
206.725	93.39
207.106	86.13
207.486	93.11
207.866	136.94
208.246	173.39
208.626	209.91
209.006	186.52
209.386	274.54
209.766	430.49
210.145	203.56
210.525	202.03
210.905	109.81
211.285	131.51
211.664	95.26
212.044	70.74
212.424	73.52
212.803	79.96
213.183	87.03
213.562	90.65
213.942	108.16
214.321	110.49
214.701	162.89
215.08	137.47
215.459	78.56
215.838	40.72
216.218	34.09
216.597	21.66
216.976	0.58
217.355	-0.91
217.734	-39.95
218.113	0.09
218.492	-19.49
218.871	-21.48
219.25	-15.56
219.629	-16.13
220.008	-7.93
220.387	-12.65
220.766	3.6
221.144	-10.19
221.523	-12.35
221.902	3.23
222.28	22.85
222.659	29.28
223.037	34.47
223.416	41.26
223.794	33.88
224.173	32.84
224.551	36.91
224.929	30.46
225.308	30.83
225.686	35.71
226.064	26.48
226.442	27.19
226.821	23.79
227.199	16.69
227.577	18.08
227.955	14.96
228.333	14.11
228.711	6.74
229.089	5.23
229.467	4.79
229.845	0.77
230.222	-0.94
230.6	-7.03
230.978	-4.42
231.356	-6.77
231.733	-3.55
232.111	-4.43
232.488	-1.43
232.866	-0.68
233.243	-2.84
233.621	-0.41
233.998	0.18
234.376	0.09
234.753	1.19
235.13	1.36
235.508	1.55
235.885	0.83
236.262	-0.31
236.639	2.7
237.016	2.92
237.393	3.19
237.77	4.69
238.147	4.55
238.524	6.11
238.901	5.39
239.278	6.19
239.655	5.68
240.032	5.66
240.409	5.08
240.785	5.91
241.162	5.87
241.539	4.34
241.915	4.07
242.292	3.86
242.668	3.77
243.045	4.18
243.421	3.93
243.798	4.27
244.174	4.52
244.551	4.38
244.927	4.67
245.303	4.37
245.679	3.94
246.056	4.01
246.432	3.98
246.808	3.98
247.184	3.71
247.56	3.69
247.936	3.6
248.312	3.58
248.688	3.16
249.064	3.07
249.44	3.23
249.815	3.32
250.191	3.33
250.567	3.46
250.943	3.72
251.318	3.97
251.694	3.85
252.069	4.08
252.445	4.04
252.82	3.94
253.196	4.31
253.571	4.69
253.947	4.64
254.322	4.31
254.697	3.91
255.073	4.18
255.448	3.98
255.823	4.35
256.198	4.28
256.573	4.61
256.948	4.61
257.323	4.99
257.698	5.05
258.073	4.98
258.448	4.96
258.823	4.4
259.198	4.27
259.573	4.3
259.948	4.17
260.322	4.14
260.697	4.15
261.072	3.89
261.446	3.76
261.821	3.76
262.195	3.99
262.57	4.19
262.944	4.07
263.319	4.14
263.693	3.99
264.067	4.03
264.442	3.91
264.816	3.79
265.19	3.54
265.564	3.39
265.938	3.26
266.313	3.1
266.687	3.45
267.061	3.37
267.435	3.4
267.809	3.31
268.183	3.32
268.556	3.29
268.93	3.41
269.304	3.24
269.678	3.06
270.051	3.03
270.425	3.08
270.799	2.79
271.172	2.93
271.546	2.99
271.919	2.95
272.293	2.9
272.666	3.13
273.04	3.23
273.413	3.36
273.787	3.46
274.16	3.27
274.533	3.39
274.906	3.29
275.279	3.25
275.653	3.48
276.026	3.53
276.399	3.5
276.772	3.62
277.145	3.77
277.518	3.84
277.891	3.87
278.263	3.88
278.636	4.21
279.009	4.07
279.382	3.93
279.755	3.83
280.127	3.88
280.5	3.65
280.872	3.63
281.245	3.53
281.617	3.63
281.99	3.78
282.362	3.67
282.735	3.74
283.107	3.7
283.479	3.56
283.852	3.49
284.224	3.45
284.596	3.33
284.968	3.36
285.34	3.38
285.713	3.39
286.085	3.25
286.457	3.31
286.829	3.23
287.201	3.39
287.572	3.54
287.944	3.53
288.316	3.69
288.688	3.69
289.06	3.75
289.431	3.81
289.803	3.89
290.175	3.65
290.546	3.65
290.918	3.66
291.289	3.63
291.661	3.76
292.032	3.9
292.403	4.03
292.775	4.11
293.146	4.23
293.517	4.24
293.889	4.26
294.26	4.26
294.631	4.49
295.002	4.5
295.373	4.37
295.744	4.48
296.115	4.45
296.486	4.46
296.857	4.57
297.228	4.55
297.599	4.48
297.97	4.7
298.34	4.71
298.711	4.8
299.082	4.84
299.452	4.84
299.823	4.81
300.194	4.87
300.564	4.84
300.935	5.01
301.305	5.16
301.676	5.14
302.046	5.17
302.416	5.06
302.787	4.97
303.157	5.1
303.527	5.25
303.897	5.23
304.267	5.39
304.637	5.38
305.008	5.54
305.378	5.75
305.748	5.9
306.117	5.92
306.487	6.06
306.857	6.13
307.227	6.24
307.597	6.3
307.967	6.23
308.336	6.33
308.706	6.26
309.076	6.18
309.445	6.41
309.815	6.46
310.184	6.6
310.554	6.67
310.923	6.69
311.293	6.74
311.662	6.85
312.031	6.77
312.401	6.75
312.77	6.78
313.139	6.74
313.508	6.68
313.877	6.82
314.246	6.72
314.616	6.78
314.985	6.7
315.353	6.81
315.722	6.89
316.091	6.94
316.46	6.91
316.829	7.05
317.198	7.13
317.567	7.23
317.935	7.19
318.304	7.37
318.672	7.57
319.041	7.55
319.41	7.7
319.778	7.74
320.147	7.91
320.515	7.9
320.883	7.99
321.252	8.22
321.62	8.36
321.988	8.62
322.357	8.58
322.725	8.62
323.093	8.59
323.461	8.75
323.829	8.84
324.197	8.93
324.565	8.95
324.933	8.86
325.301	8.77
325.669	9
326.037	9.02
326.405	8.92
326.772	9.06
327.14	9.16
327.508	9.26
327.875	9.23
328.243	9.26
328.61	9.33
328.978	9.28
329.346	9.24
329.713	9.22
330.08	9.47
330.448	9.63
330.815	9.75
331.182	9.65
331.55	9.84
331.917	9.9
332.284	9.87
332.651	9.92
333.018	10.06
333.385	10.01
333.752	10.03
334.119	10.23
334.486	10.24
334.853	10.14
335.22	10.17
335.587	10.1
335.954	10.09
336.32	10.08
336.687	10.1
337.054	10.22
337.42	10.11
337.787	10.08
338.153	10.14
338.52	10.32
338.886	10.45
339.253	10.41
339.619	10.39
339.986	10.35
340.352	10.38
340.718	10.38
341.084	10.38
341.451	10.59
341.817	10.62
342.183	10.51
342.549	10.55
342.915	10.7
343.281	10.82
343.647	10.88
344.013	10.89
344.379	10.84
344.745	10.91
345.11	11.12
345.476	11.18
345.842	11.13
346.208	11.09
346.573	11.18
346.939	11.14
347.304	11.29
347.67	11.35
348.035	11.41
348.401	11.48
348.766	11.43
349.132	11.33
349.497	11.26
349.862	11.31
350.228	11.39
350.593	11.37
350.958	11.45
351.323	11.56
351.688	11.69
352.053	11.8
352.418	11.7
352.783	11.51
353.148	11.5
353.513	11.55
353.878	11.41
354.243	11.25
354.608	11.3
354.972	11.22
355.337	11.23
355.702	11.35
356.066	11.4
356.431	11.49
356.795	11.55
357.16	11.55
357.524	11.59
357.889	11.56
358.253	11.61
358.618	11.58
358.982	11.52
359.346	11.49
359.71	11.48
360.075	11.57
360.439	11.67
360.803	11.71
361.167	11.71
361.531	11.77
361.895	11.82
362.259	11.87
362.623	11.94
362.987	11.97
363.351	11.88
363.714	11.86
364.078	11.86
364.442	11.81
364.806	11.83
365.169	11.83
365.533	11.75
365.896	11.65
366.26	11.6
366.623	11.58
366.987	11.46
367.35	11.4
367.714	11.34
368.077	11.34
368.44	11.26
368.803	11.18
369.167	11.12
369.53	11.06
369.893	10.95
370.256	10.83
370.619	10.74
370.982	10.74
371.345	10.65
371.708	10.61
372.071	10.51
372.434	10.42
372.797	10.35
373.159	10.37
373.522	10.39
373.885	10.36
374.247	10.34
374.61	10.43
374.973	10.45
375.335	10.42
375.698	10.32
376.06	10.27
376.423	10.18
376.785	10.14
377.147	10.11
377.51	10.05
377.872	9.99
378.234	9.99
378.596	9.85
378.958	9.86
379.321	9.74
379.683	9.66
380.045	9.59
380.407	9.58
380.769	9.54
381.13	9.42
381.492	9.37
381.854	9.29
382.216	9.25
382.578	9.15
382.939	9.07
383.301	9
383.663	8.93
384.024	8.99
384.386	8.93
384.747	8.93
385.109	8.92
385.47	8.92
385.832	8.83
386.193	8.81
386.554	8.69
386.916	8.7
387.277	8.71
387.638	8.72
387.999	8.63
388.36	8.54
388.721	8.51
389.082	8.45
389.443	8.43
389.804	8.34
390.165	8.32
390.526	8.29
390.887	8.22
391.248	8.21
391.609	8.14
391.969	8.12
392.33	8.02
392.691	7.95
393.051	7.84
393.412	7.82
393.772	7.83
394.133	7.77
394.493	7.71
394.854	7.63
395.214	7.59
395.574	7.53
395.935	7.52
396.295	7.45
396.655	7.44
397.015	7.37
397.376	7.29
397.736	7.21
398.096	7.12
398.456	7.1
398.816	7.03
399.176	6.96
399.535	6.89
399.895	6.86
400.255	6.81
400.615	6.8
400.975	6.76
401.334	6.7
401.694	6.69
402.054	6.59
402.413	6.57
402.773	6.49
403.132	6.47
403.492	6.44
403.851	6.42
404.211	6.36
404.57	6.33
404.929	6.31
405.288	6.3
405.648	6.25
406.007	6.23
406.366	6.23
406.725	6.2
407.084	6.2
407.443	6.21
407.802	6.19
408.161	6.18
408.52	6.1
408.879	6.07
409.238	6.04
409.596	6.09
409.955	6.06
410.314	6.07
410.673	6.07
411.031	6.04
411.39	6.03
411.748	6.01
412.107	6.02
412.465	6.02
412.824	6.03
413.182	6.01
413.54	6
413.899	5.97
414.257	5.99
414.615	5.98
414.974	5.95
415.332	5.92
415.69	5.89
416.048	5.88
416.406	5.84
416.764	5.83
417.122	5.77
417.48	5.74
417.838	5.71
418.195	5.67
418.553	5.64
418.911	5.62
419.269	5.62
419.626	5.58
419.984	5.56
420.342	5.51
420.699	5.5
421.057	5.46
421.414	5.46
421.772	5.42
422.129	5.38
422.486	5.36
422.844	5.35
423.201	5.33
423.558	5.31
423.915	5.31
424.273	5.3
424.63	5.31
424.987	5.3
425.344	5.29
425.701	5.28
426.058	5.28
426.415	5.26
426.772	5.23
427.128	5.23
427.485	5.2
427.842	5.18
428.199	5.17
428.555	5.17
428.912	5.16
429.269	5.14
429.625	5.12
429.982	5.11
430.338	5.08
430.695	5.05
431.051	5.07
431.407	5.05
431.764	5.05
432.12	5.01
432.476	5
432.832	5.01
433.189	4.99
433.545	4.98
433.901	4.98
434.257	4.96
434.613	4.93
434.969	4.97
435.325	4.98
435.681	4.97
436.036	4.96
436.392	4.93
436.748	4.94
437.104	4.94
437.459	4.96
437.815	4.98
438.171	5
438.526	4.98
438.882	5
439.237	4.99
439.593	4.98
439.948	4.99
440.304	4.97
440.659	4.99
441.014	4.99
441.369	4.98
441.725	4.99
442.08	5.01
442.435	4.99
442.79	4.99
443.145	5
443.5	5
443.855	5.01
444.21	4.99
444.565	4.99
444.92	4.97
445.275	4.96
445.629	4.94
445.984	4.96
446.339	4.97
446.693	4.96
447.048	4.94
447.403	4.93
447.757	4.91
448.112	4.9
448.466	4.91
448.82	4.91
449.175	4.89
449.529	4.87
449.883	4.85
450.238	4.83
450.592	4.8
450.946	4.8
451.3	4.78
451.654	4.77
452.008	4.75
452.362	4.75
452.716	4.75
453.07	4.72
453.424	4.68
453.778	4.66
454.132	4.64
454.486	4.66
454.839	4.63
455.193	4.66
455.547	4.65
455.9	4.64
456.254	4.63
456.607	4.64
456.961	4.66
457.314	4.65
457.668	4.66
458.021	4.68
458.375	4.67
458.728	4.68
459.081	4.69
459.434	4.7
459.787	4.72
460.141	4.73
460.494	4.74
460.847	4.76
461.2	4.76
461.553	4.77
461.906	4.77
462.259	4.79
462.611	4.78
462.964	4.78
463.317	4.79
463.67	4.81
464.022	4.83
464.375	4.84
464.728	4.87
465.08	4.88
465.433	4.9
465.785	4.92
466.138	4.93
466.49	4.98
466.843	5
467.195	4.99
467.547	5
467.899	5.05
468.252	5.07
468.604	5.08
468.956	5.09
469.308	5.13
469.66	5.17
470.012	5.19
470.364	5.22
470.716	5.24
471.068	5.25
471.42	5.28
471.772	5.33
472.123	5.34
472.475	5.38
472.827	5.38
473.178	5.39
473.53	5.39
473.882	5.39
474.233	5.39
474.585	5.41
474.936	5.44
475.288	5.42
475.639	5.41
475.99	5.43
476.342	5.47
476.693	5.48
477.044	5.48
477.395	5.49
477.746	5.49
478.097	5.51
478.448	5.52
478.8	5.49
479.15	5.45
479.501	5.45
479.852	5.46
480.203	5.47
480.554	5.47
480.905	5.46
481.255	5.46
481.606	5.45
481.957	5.44
482.307	5.44
482.658	5.45
483.009	5.44
483.359	5.43
483.709	5.42
484.06	5.41
484.41	5.4
484.761	5.41
485.111	5.41
485.461	5.4
485.811	5.39
486.162	5.38
486.512	5.38
486.862	5.39
487.212	5.37
487.562	5.37
487.912	5.37
488.262	5.36
488.612	5.36
488.961	5.37
489.311	5.37
489.661	5.36
490.011	5.36
490.36	5.37
490.71	5.39
491.06	5.38
491.409	5.39
491.759	5.39
492.108	5.4
492.458	5.41
492.807	5.42
493.157	5.45
493.506	5.49
493.855	5.51
494.204	5.52
494.554	5.55
494.903	5.57
495.252	5.61
495.601	5.68
495.95	5.73
496.299	5.77
496.648	5.82
496.997	5.9
497.346	5.94
497.695	5.97
498.043	6.03
498.392	6.12
498.741	6.19
499.09	6.25
499.438	6.3
499.787	6.36
500.135	6.47
500.484	6.55
500.832	6.61
501.181	6.71
501.529	6.82
501.878	6.91
502.226	7.03
502.574	7.14
502.923	7.23
503.271	7.31
503.619	7.44
503.967	7.56
504.315	7.66
504.663	7.78
505.011	7.93
505.359	8.05
505.707	8.18
506.055	8.32
506.403	8.47
506.751	8.65
507.098	8.82
507.446	8.93
507.794	9.07
508.141	9.22
508.489	9.36
508.837	9.47
509.184	9.62
509.531	9.78
509.879	9.92
510.226	10.07
510.574	10.24
510.921	10.4
511.268	10.58
511.616	10.76
511.963	10.94
512.31	11.13
512.657	11.32
513.004	11.49
513.351	11.67
513.698	11.87
514.045	12.04
514.392	12.27
514.739	12.49
515.086	12.71
515.432	12.96
515.779	13.15
516.126	13.43
516.473	13.64
516.819	13.83
517.166	14.03
517.512	14.24
517.859	14.44
518.205	14.6
518.552	14.78
518.898	14.96
519.245	15.15
519.591	15.32
519.937	15.5
520.283	15.75
520.629	15.96
520.976	16.21
521.322	16.46
521.668	16.67
522.014	16.9
522.36	17.14
522.706	17.37
523.052	17.64
523.398	17.9
523.743	18.19
524.089	18.44
524.435	18.73
524.781	18.99
525.126	19.23
525.472	19.46
525.817	19.66
526.163	19.85
526.509	20.01
526.854	20.16
527.199	20.3
527.545	20.45
527.89	20.6
528.235	20.75
528.581	20.89
528.926	21.03
529.271	21.17
529.616	21.35
529.961	21.5
530.306	21.67
530.651	21.8
530.996	21.96
531.341	22.15
531.686	22.31
532.031	22.49
532.376	22.67
532.721	22.89
533.065	23.09
533.41	23.27
533.755	23.48
534.099	23.7
534.444	23.93
534.788	24.14
535.133	24.37
535.477	24.59
535.822	24.83
536.166	25.07
536.51	25.35
536.855	25.61
537.199	25.88
537.543	26.19
537.887	26.5
538.231	26.84
538.576	27.13
538.92	27.4
539.264	27.68
539.608	27.92
539.951	28.15
540.295	28.37
540.639	28.61
540.983	28.86
541.327	29.1
541.671	29.32
542.014	29.54
542.358	29.73
542.701	29.92
543.045	30.13
543.389	30.39
543.732	30.61
544.075	30.83
544.419	31.05
544.762	31.28
545.105	31.52
545.449	31.75
545.792	32
546.135	32.3
546.478	32.61
546.821	32.93
547.165	33.18
547.508	33.52
547.851	33.88
548.194	34.17
548.536	34.51
548.879	34.82
549.222	35.11
549.565	35.44
549.908	35.78
550.25	36.07
550.593	36.37
550.936	36.69
551.278	36.98
551.621	37.34
551.963	37.63
552.306	37.97
552.648	38.28
552.991	38.58
553.333	38.9
553.675	39.19
554.017	39.46
554.36	39.78
554.702	40.03
555.044	40.21
555.386	40.51
555.728	40.73
556.07	41.02
556.412	41.33
556.754	41.64
557.096	41.91
557.438	42.19
557.78	42.45
558.121	42.73
558.463	43.01
558.805	43.26
559.147	43.58
559.488	43.77
559.83	43.99
560.171	44.24
560.513	44.46
560.854	44.72
561.196	44.98
561.537	45.23
561.878	45.5
562.22	45.84
562.561	46.05
562.902	46.33
563.243	46.59
563.584	46.83
563.925	47.05
564.266	47.26
564.607	47.5
564.948	47.7
565.289	47.86
565.63	48.05
565.971	48.17
566.312	48.36
566.653	48.55
566.993	48.77
567.334	48.97
567.675	49.17
568.015	49.29
568.356	49.49
568.696	49.69
569.037	49.86
569.377	50.04
569.718	50.2
570.058	50.36
570.398	50.51
570.739	50.69
571.079	50.83
571.419	51.01
571.759	51.26
572.099	51.44
572.439	51.62
572.779	51.73
573.119	51.96
573.459	52.18
573.799	52.38
574.139	52.54
574.479	52.7
574.819	52.83
575.158	53
575.498	53.13
575.838	53.25
576.177	53.35
576.517	53.43
576.856	53.57
577.196	53.67
577.535	53.81
577.875	53.87
578.214	54.04
578.553	54.21
578.893	54.28
579.232	54.39
579.571	54.55
579.91	54.79
580.25	54.94
580.589	54.86
580.928	54.96
581.267	55.03
581.606	55.17
581.945	55.32
582.283	55.4
582.622	55.52
582.961	55.64
583.3	55.75
583.639	55.99
583.977	56.19
584.316	56.33
584.654	56.42
584.993	56.6
585.332	56.76
585.67	56.82
586.008	56.89
586.347	56.92
586.685	57.01
587.024	57.11
587.362	57.2
587.7	57.37
588.038	57.44
588.376	57.47
588.715	57.58
589.053	57.64
589.391	57.75
589.729	57.82
590.067	57.92
590.404	58.01
590.742	58
591.08	58.03
591.418	58.15
591.756	58.25
592.093	58.3
592.431	58.28
592.769	58.39
593.106	58.46
593.444	58.58
593.781	58.61
594.119	58.67
594.456	58.7
594.793	58.76
595.131	58.82
595.468	58.97
595.805	58.99
596.143	59.07
596.48	59.18
596.817	59.33
597.154	59.38
597.491	59.47
597.828	59.57
598.165	59.69
598.502	59.74
598.839	59.83
599.176	59.87
599.512	59.9
599.849	59.9
600.186	59.97
600.523	60.06
600.859	60.21
601.196	60.25
601.532	60.29
601.869	60.33
602.205	60.45
602.542	60.47
602.878	60.55
603.215	60.48
603.551	60.52
603.887	60.44
604.223	60.54
604.56	60.55
604.896	60.58
605.232	60.51
605.568	60.57
605.904	60.53
606.24	60.68
606.576	60.77
606.912	60.91
607.248	60.98
607.583	61.02
607.919	60.98
608.255	60.95
608.591	61.01
608.926	61.09
609.262	61.07
609.597	61.17
609.933	61.17
610.268	61.27
610.604	61.26
610.939	61.33
611.275	61.29
611.61	61.34
611.945	61.34
612.281	61.43
612.616	61.5
612.951	61.62
613.286	61.54
613.621	61.59
613.956	61.54
614.291	61.46
614.626	61.44
614.961	61.43
615.296	61.56
615.631	61.55
615.966	61.64
616.3	61.73
616.635	61.68
616.97	61.71
617.304	61.8
617.639	61.84
617.973	61.84
618.308	61.86
618.642	61.91
618.977	61.95
619.311	62.04
619.646	62.01
619.98	62.06
620.314	62.16
620.648	62.15
620.983	62.19
621.317	62.27
621.651	62.31
621.985	62.48
622.319	62.33
622.653	62.4
622.987	62.37
623.321	62.34
623.655	62.32
623.988	62.44
624.322	62.39
624.656	62.37
624.99	62.39
625.323	62.34
625.657	62.27
625.99	62.33
626.324	62.24
626.657	62.27
626.991	62.21
627.324	62.17
627.658	62.19
627.991	62.24
628.324	62.18
628.657	62.18
628.991	62.14
629.324	62.3
629.657	62.35
629.99	62.35
630.323	62.46
630.656	62.51
630.989	62.52
631.322	62.5
631.655	62.57
631.987	62.57
632.32	62.72
632.653	62.86
632.986	62.87
633.318	62.92
633.651	63.03
633.984	63.02
634.316	62.91
634.649	62.86
634.981	62.92
635.313	62.94
635.646	63
635.978	63.09
636.31	62.98
636.643	62.99
636.975	63.1
637.307	63.05
637.639	63.09
637.971	63.03
638.303	63.04
638.635	63
638.967	63.08
639.299	63.04
639.631	63.03
639.963	63.14
640.295	63.16
640.626	63.05
640.958	63.17
641.29	63.46
641.621	63.61
641.953	63.46
642.285	63.54
642.616	63.65
642.948	63.59
643.279	63.81
643.61	63.91
643.942	63.88
644.273	63.92
644.604	63.89
644.936	63.95
645.267	64
645.598	64.07
645.929	64.14
646.26	64.29
646.591	64.21
646.922	64.17
647.253	64.29
647.584	64.26
647.915	64.13
648.245	64.06
648.576	64.07
648.907	64.23
649.238	64.13
649.568	64.1
649.899	64.05
650.229	63.98
650.56	63.85
650.89	63.68
651.221	63.7
651.551	63.86
651.882	63.82
652.212	63.98
652.542	63.96
652.872	63.88
653.203	63.84
653.533	63.97
653.863	64.09
654.193	64.03
654.523	63.97
654.853	64.07
655.183	63.95
655.513	64.04
655.843	63.94
656.172	64.1
656.502	64.07
656.832	64.09
657.162	64.19
657.491	64.33
657.821	64.5
658.15	64.55
658.48	64.51
658.809	64.45
659.139	64.36
659.468	64.38
659.798	64.45
660.127	64.52
660.456	64.38
660.785	64.24
661.115	64.23
661.444	64.29
661.773	64.35
662.102	64.57
662.431	64.51
662.76	64.63
663.089	64.56
663.418	64.63
663.747	64.73
664.076	64.74
664.404	64.65
664.733	64.64
665.062	64.48
