Data from MVZ_BU147393_Reflection_00011.txt Node
Date: Tue Nov 19 12:07:09 EST 2019
User: vgr7
Spectrometer: USB2G7710
Scans to average: 3
Trigger mode: 4
Integration Time (sec): 2.000000E-2
Electric dark correction enabled: true
Boxcar width: 10
XAxis mode: Wavelengths
Number of Pixels in Spectrum: 2048
>>>>>Begin Spectral Data<<<<<
177.721	45.81
178.105	4350
178.488	139.37
178.871	121.88
179.254	-109.09
179.636	-9.56
180.019	82.01
180.402	-500
180.785	-156.82
181.168	-186.41
181.55	755.17
181.933	108.2
182.316	70.98
182.698	42.48
183.081	2.14
183.463	10.71
183.846	122.12
184.228	52.1
184.611	70.59
184.993	23.08
185.376	-900
185.758	6600
186.14	300
186.522	180.51
186.904	900
187.287	3385.71
187.669	253.85
188.051	358.93
188.433	141.98
188.815	203.14
189.197	229.34
189.579	178.8
189.961	109.73
190.342	89.36
190.724	65.2
191.106	39.74
191.488	31.77
191.869	50.1
192.251	47.08
192.633	53.28
193.014	47.3
193.396	69.87
193.777	69.28
194.159	77.39
194.54	78.05
194.922	59.32
195.303	46.87
195.684	38
196.065	30.86
196.447	39.72
196.828	55.53
197.209	39.04
197.59	47.84
197.971	34.69
198.352	44.34
198.733	34.22
199.114	42.29
199.495	51.69
199.876	35.75
200.257	35.59
200.638	18.37
201.018	19.2
201.399	-2.11
201.78	-5.29
202.16	-23.39
202.541	-33.39
202.922	-17.91
203.302	-26.15
203.683	-26.18
204.063	-16.9
204.444	-22.16
204.824	-26.75
205.204	-24.64
205.585	-30.69
205.965	-29.08
206.345	-31.81
206.725	-26.4
207.106	-27.95
207.486	-28.05
207.866	-35.74
208.246	-26.42
208.626	-34.12
209.006	-38.28
209.386	-27.22
209.766	-26.87
210.145	-20.66
210.525	-25.57
210.905	-31.46
211.285	-30.5
211.664	-19.59
212.044	-40.84
212.424	-28.48
212.803	-46.19
213.183	-41.04
213.562	-35.89
213.942	-30.26
214.321	-37.73
214.701	-47.12
215.08	-49.19
215.459	-38.08
215.838	-9.94
216.218	-75.71
216.597	-35.59
216.976	-71.33
217.355	-116.6
217.734	-77.56
218.113	-67.56
218.492	-45.93
218.871	-56.44
219.25	-50.19
219.629	-121.07
220.008	-65.16
220.387	-64.86
220.766	-1.71
221.144	-20.42
221.523	2.47
221.902	17.6
222.28	71.19
222.659	79.43
223.037	39.15
223.416	29.77
223.794	6.94
224.173	24.98
224.551	21.85
224.929	22.75
225.308	13.52
225.686	9.57
226.064	9.33
226.442	18.54
226.821	17.61
227.199	16.33
227.577	15.39
227.955	20.79
228.333	14.56
228.711	13.91
229.089	10.21
229.467	6.06
229.845	1.77
230.222	-0.7
230.6	-4.66
230.978	1.41
231.356	0.36
231.733	3.27
232.111	1.87
232.488	3.18
232.866	2.79
233.243	3.94
233.621	1.71
233.998	3.61
234.376	2.79
234.753	0.22
235.13	-0.21
235.508	0.65
235.885	0.12
236.262	1.36
236.639	1.28
237.016	2.93
237.393	4.9
237.77	6.59
238.147	7
238.524	6.64
238.901	5.37
239.278	6.02
239.655	5.03
240.032	4.84
240.409	5.18
240.785	4.99
241.162	5.2
241.539	5.74
241.915	5.16
242.292	4.62
242.668	5.08
243.045	5.35
243.421	5.8
243.798	5.4
244.174	5.22
244.551	5.31
244.927	5.18
245.303	4.79
245.679	4.67
246.056	4.4
246.432	4.66
246.808	4.78
247.184	4.55
247.56	4.75
247.936	4.83
248.312	4.64
248.688	4.67
249.064	4.32
249.44	4.18
249.815	4.64
250.191	4.66
250.567	4.67
250.943	4.74
251.318	4.4
251.694	4.34
252.069	4.35
252.445	4.22
252.82	4.38
253.196	4.63
253.571	4.76
253.947	4.76
254.322	4.2
254.697	4.03
255.073	4.13
255.448	4.1
255.823	4
256.198	3.92
256.573	3.84
256.948	4.03
257.323	4.14
257.698	3.76
258.073	3.81
258.448	3.91
258.823	3.9
259.198	3.9
259.573	3.87
259.948	4.01
260.322	3.97
260.697	3.89
261.072	3.85
261.446	3.62
261.821	3.65
262.195	3.91
262.57	4.07
262.944	4.05
263.319	4.22
263.693	4.05
264.067	4.1
264.442	4.28
264.816	4.26
265.19	4.25
265.564	4.17
265.938	4.22
266.313	4
266.687	3.84
267.061	3.79
267.435	3.94
267.809	3.74
268.183	3.66
268.556	3.66
268.93	3.77
269.304	3.81
269.678	3.84
270.051	3.88
270.425	3.84
270.799	3.77
271.172	3.71
271.546	4.06
271.919	4.06
272.293	4.03
272.666	4.09
273.04	4.26
273.413	4.32
273.787	4.25
274.16	4.27
274.533	4.44
274.906	4.53
275.279	4.58
275.653	4.57
276.026	4.59
276.399	4.51
276.772	4.39
277.145	4.52
277.518	4.52
277.891	4.45
278.263	4.61
278.636	4.84
279.009	4.7
279.382	4.32
279.755	4.43
280.127	4.28
280.5	4.32
280.872	4.26
281.245	4.1
281.617	4.1
281.99	4.16
282.362	3.96
282.735	4.06
283.107	4
283.479	4.18
283.852	4.24
284.224	4.17
284.596	4.22
284.968	4.21
285.34	4.2
285.713	4.34
286.085	4.07
286.457	4
286.829	4.02
287.201	4.27
287.572	4.2
287.944	4.46
288.316	4.49
288.688	4.6
289.06	4.87
289.431	4.87
289.803	4.91
290.175	5.1
290.546	5.06
290.918	5.15
291.289	4.95
291.661	5.02
292.032	5.33
292.403	5.36
292.775	5.43
293.146	5.5
293.517	5.36
293.889	5.49
294.26	5.44
294.631	5.51
295.002	5.4
295.373	5.43
295.744	5.33
296.115	5.35
296.486	5.29
296.857	5.21
297.228	5.23
297.599	5.32
297.97	5.36
298.34	5.28
298.711	5.15
299.082	5.27
299.452	5.08
299.823	5.03
300.194	5.07
300.564	4.99
300.935	5.01
301.305	5.03
301.676	4.95
302.046	5.01
302.416	4.93
302.787	4.88
303.157	4.94
303.527	5.06
303.897	5.02
304.267	5
304.637	5
305.008	5.03
305.378	4.96
305.748	4.95
306.117	4.86
306.487	5.05
306.857	5.23
307.227	5.5
307.597	5.5
307.967	5.55
308.336	5.77
308.706	5.72
309.076	5.79
309.445	6.04
309.815	6.03
310.184	6.15
310.554	6.31
310.923	6.38
311.293	6.32
311.662	6.46
312.031	6.55
312.401	6.6
312.77	6.67
313.139	6.7
313.508	6.78
313.877	7.05
314.246	7.15
314.616	7.14
314.985	7.18
315.353	7.15
315.722	7.13
316.091	6.99
316.46	7.21
316.829	7.35
317.198	7.29
317.567	7.46
317.935	7.37
318.304	7.59
318.672	7.49
319.041	7.39
319.41	7.4
319.778	7.41
320.147	7.47
320.515	7.36
320.883	7.45
321.252	7.53
321.62	7.53
321.988	7.46
322.357	7.42
322.725	7.39
323.093	7.43
323.461	7.5
323.829	7.68
324.197	7.61
324.565	7.48
324.933	7.53
325.301	7.4
325.669	7.52
326.037	7.41
326.405	7.43
326.772	7.66
327.14	7.51
327.508	7.61
327.875	7.56
328.243	7.71
328.61	7.77
328.978	7.5
329.346	7.52
329.713	7.58
330.08	7.6
330.448	7.61
330.815	7.74
331.182	7.75
331.55	7.79
331.917	7.83
332.284	7.85
332.651	7.86
333.018	7.69
333.385	7.7
333.752	7.71
334.119	7.72
334.486	7.64
334.853	7.69
335.22	7.71
335.587	7.69
335.954	7.84
336.32	7.87
336.687	8.15
337.054	8.34
337.42	8.42
337.787	8.35
338.153	8.3
338.52	8.31
338.886	8.36
339.253	8.24
339.619	8.26
339.986	8.39
340.352	8.49
340.718	8.77
341.084	8.73
341.451	8.73
341.817	8.84
342.183	8.78
342.549	9.02
342.915	8.98
343.281	8.97
343.647	8.88
344.013	8.89
344.379	8.77
344.745	8.66
345.11	8.57
345.476	8.66
345.842	8.77
346.208	8.75
346.573	8.66
346.939	8.78
347.304	8.75
347.67	8.77
348.035	8.82
348.401	8.93
348.766	9.01
349.132	9.1
349.497	9.22
349.862	9.24
350.228	9.13
350.593	9.2
350.958	9.26
351.323	9.2
351.688	9.2
352.053	9.26
352.418	9.23
352.783	9.26
353.148	9.31
353.513	9.35
353.878	9.28
354.243	9.26
354.608	9.22
354.972	9.3
355.337	9.2
355.702	9.13
356.066	9.06
356.431	8.98
356.795	8.92
357.16	8.83
357.524	8.86
357.889	8.8
358.253	8.75
358.618	8.75
358.982	8.8
359.346	8.82
359.71	8.83
360.075	8.86
360.439	8.9
360.803	8.95
361.167	8.95
361.531	9.04
361.895	9.11
362.259	9.11
362.623	9.11
362.987	9.08
363.351	9.02
363.714	9.01
364.078	8.99
364.442	8.93
364.806	8.89
365.169	8.81
365.533	8.89
365.896	8.83
366.26	8.81
366.623	8.8
366.987	8.78
367.35	8.75
367.714	8.69
368.077	8.63
368.44	8.54
368.803	8.47
369.167	8.37
369.53	8.41
369.893	8.35
370.256	8.25
370.619	8.23
370.982	8.21
371.345	8.21
371.708	8.21
372.071	8.19
372.434	8.23
372.797	8.29
373.159	8.14
373.522	8.1
373.885	8.11
374.247	8.11
374.61	8.07
374.973	8.05
375.335	7.99
375.698	7.86
376.06	7.82
376.423	7.81
376.785	7.8
377.147	7.71
377.51	7.7
377.872	7.68
378.234	7.69
378.596	7.65
378.958	7.62
379.321	7.57
379.683	7.58
380.045	7.48
380.407	7.4
380.769	7.44
381.13	7.47
381.492	7.4
381.854	7.34
382.216	7.29
382.578	7.21
382.939	7.2
383.301	7.2
383.663	7.14
384.024	7.12
384.386	7.08
384.747	7.05
385.109	6.96
385.47	6.96
385.832	6.91
386.193	6.87
386.554	6.72
386.916	6.74
387.277	6.7
387.638	6.68
387.999	6.67
388.36	6.63
388.721	6.56
389.082	6.53
389.443	6.5
389.804	6.52
390.165	6.55
390.526	6.49
390.887	6.48
391.248	6.48
391.609	6.46
391.969	6.46
392.33	6.37
392.691	6.36
393.051	6.27
393.412	6.27
393.772	6.28
394.133	6.29
394.493	6.22
394.854	6.17
395.214	6.14
395.574	6.06
395.935	6.03
396.295	6
396.655	5.98
397.015	5.97
397.376	5.85
397.736	5.71
398.096	5.69
398.456	5.66
398.816	5.64
399.176	5.54
399.535	5.48
399.895	5.45
400.255	5.44
400.615	5.41
400.975	5.39
401.334	5.34
401.694	5.35
402.054	5.33
402.413	5.29
402.773	5.29
403.132	5.26
403.492	5.25
403.851	5.22
404.211	5.2
404.57	5.16
404.929	5.18
405.288	5.19
405.648	5.2
406.007	5.19
406.366	5.16
406.725	5.16
407.084	5.15
407.443	5.15
407.802	5.12
408.161	5.15
408.52	5.17
408.879	5.17
409.238	5.13
409.596	5.13
409.955	5.18
410.314	5.2
410.673	5.23
411.031	5.18
411.39	5.19
411.748	5.19
412.107	5.19
412.465	5.16
412.824	5.18
413.182	5.17
413.54	5.13
413.899	5.1
414.257	5.09
414.615	5.09
414.974	5.1
415.332	5.1
415.69	5.06
416.048	5.03
416.406	4.99
416.764	4.98
417.122	4.93
417.48	4.89
417.838	4.85
418.195	4.81
418.553	4.78
418.911	4.77
419.269	4.75
419.626	4.74
419.984	4.75
420.342	4.71
420.699	4.69
421.057	4.68
421.414	4.69
421.772	4.69
422.129	4.66
422.486	4.64
422.844	4.63
423.201	4.63
423.558	4.6
423.915	4.6
424.273	4.58
424.63	4.6
424.987	4.59
425.344	4.56
425.701	4.55
426.058	4.56
426.415	4.53
426.772	4.51
427.128	4.49
427.485	4.47
427.842	4.46
428.199	4.45
428.555	4.44
428.912	4.41
429.269	4.38
429.625	4.4
429.982	4.41
430.338	4.41
430.695	4.41
431.051	4.4
431.407	4.41
431.764	4.41
432.12	4.4
432.476	4.39
432.832	4.43
433.189	4.45
433.545	4.45
433.901	4.47
434.257	4.46
434.613	4.45
434.969	4.45
435.325	4.46
435.681	4.45
436.036	4.45
436.392	4.45
436.748	4.46
437.104	4.47
437.459	4.44
437.815	4.43
438.171	4.41
438.526	4.42
438.882	4.39
439.237	4.4
439.593	4.39
439.948	4.38
440.304	4.35
440.659	4.33
441.014	4.34
441.369	4.32
441.725	4.33
442.08	4.33
442.435	4.34
442.79	4.33
443.145	4.34
443.5	4.33
443.855	4.32
444.21	4.3
444.565	4.28
444.92	4.29
445.275	4.27
445.629	4.26
445.984	4.26
446.339	4.26
446.693	4.26
447.048	4.23
447.403	4.23
447.757	4.23
448.112	4.24
448.466	4.23
448.82	4.23
449.175	4.22
449.529	4.2
449.883	4.19
450.238	4.17
450.592	4.16
450.946	4.14
451.3	4.14
451.654	4.13
452.008	4.13
452.362	4.1
452.716	4.1
453.07	4.1
453.424	4.06
453.778	4.06
454.132	4.06
454.486	4.09
454.839	4.08
455.193	4.11
455.547	4.1
455.9	4.1
456.254	4.11
456.607	4.11
456.961	4.14
457.314	4.1
457.668	4.1
458.021	4.12
458.375	4.13
458.728	4.13
459.081	4.13
459.434	4.12
459.787	4.14
460.141	4.16
460.494	4.16
460.847	4.19
461.2	4.19
461.553	4.21
461.906	4.22
462.259	4.24
462.611	4.21
462.964	4.21
463.317	4.2
463.67	4.21
464.022	4.22
464.375	4.23
464.728	4.27
465.08	4.28
465.433	4.29
465.785	4.32
466.138	4.33
466.49	4.35
466.843	4.38
467.195	4.39
467.547	4.42
467.899	4.45
468.252	4.45
468.604	4.45
468.956	4.44
469.308	4.45
469.66	4.48
470.012	4.51
470.364	4.54
470.716	4.58
471.068	4.58
471.42	4.63
471.772	4.63
472.123	4.64
472.475	4.67
472.827	4.68
473.178	4.67
473.53	4.69
473.882	4.69
474.233	4.68
474.585	4.68
474.936	4.67
475.288	4.65
475.639	4.67
475.99	4.67
476.342	4.67
476.693	4.67
477.044	4.67
477.395	4.66
477.746	4.68
478.097	4.65
478.448	4.62
478.8	4.58
479.15	4.56
479.501	4.54
479.852	4.53
480.203	4.49
480.554	4.49
480.905	4.49
481.255	4.48
481.606	4.48
481.957	4.48
482.307	4.48
482.658	4.49
483.009	4.47
483.359	4.47
483.709	4.46
484.06	4.46
484.41	4.45
484.761	4.45
485.111	4.44
485.461	4.44
485.811	4.45
486.162	4.45
486.512	4.47
486.862	4.48
487.212	4.48
487.562	4.48
487.912	4.49
488.262	4.49
488.612	4.5
488.961	4.5
489.311	4.51
489.661	4.52
490.011	4.51
490.36	4.51
490.71	4.51
491.06	4.5
491.409	4.51
491.759	4.52
492.108	4.51
492.458	4.53
492.807	4.54
493.157	4.56
493.506	4.57
493.855	4.58
494.204	4.59
494.554	4.62
494.903	4.64
495.252	4.66
495.601	4.7
495.95	4.73
496.299	4.78
496.648	4.82
496.997	4.87
497.346	4.92
497.695	5
498.043	5.07
498.392	5.15
498.741	5.22
499.09	5.28
499.438	5.36
499.787	5.42
500.135	5.48
500.484	5.54
500.832	5.63
501.181	5.71
501.529	5.81
501.878	5.9
502.226	6.01
502.574	6.12
502.923	6.21
503.271	6.3
503.619	6.41
503.967	6.5
504.315	6.58
504.663	6.72
505.011	6.83
505.359	6.96
505.707	7.1
506.055	7.26
506.403	7.4
506.751	7.56
507.098	7.71
507.446	7.88
507.794	8.05
508.141	8.21
508.489	8.37
508.837	8.5
509.184	8.64
509.531	8.79
509.879	8.96
510.226	9.14
510.574	9.35
510.921	9.53
511.268	9.72
511.616	9.9
511.963	10.08
512.31	10.31
512.657	10.49
513.004	10.68
513.351	10.87
513.698	11.08
514.045	11.33
514.392	11.55
514.739	11.77
515.086	12.02
515.432	12.24
515.779	12.48
516.126	12.73
516.473	12.96
516.819	13.17
517.166	13.37
517.512	13.57
517.859	13.74
518.205	13.92
518.552	14.09
518.898	14.29
519.245	14.48
519.591	14.64
519.937	14.84
520.283	15.05
520.629	15.25
520.976	15.48
521.322	15.69
521.668	15.89
522.014	16.12
522.36	16.3
522.706	16.54
523.052	16.78
523.398	17.02
523.743	17.28
524.089	17.56
524.435	17.8
524.781	18.04
525.126	18.26
525.472	18.47
525.817	18.66
526.163	18.85
526.509	19
526.854	19.15
527.199	19.31
527.545	19.44
527.89	19.59
528.235	19.73
528.581	19.89
528.926	20.05
529.271	20.21
529.616	20.37
529.961	20.52
530.306	20.7
530.651	20.87
530.996	21.06
531.341	21.22
531.686	21.42
532.031	21.62
532.376	21.85
532.721	22.05
533.065	22.29
533.41	22.5
533.755	22.75
534.099	22.99
534.444	23.18
534.788	23.39
535.133	23.63
535.477	23.84
535.822	24.05
536.166	24.29
536.51	24.53
536.855	24.81
537.199	25.1
537.543	25.36
537.887	25.62
538.231	25.89
538.576	26.17
538.92	26.45
539.264	26.7
539.608	26.9
539.951	27.11
540.295	27.29
540.639	27.52
540.983	27.7
541.327	27.9
541.671	28.13
542.014	28.33
542.358	28.52
542.701	28.69
543.045	28.9
543.389	29.09
543.732	29.26
544.075	29.46
544.419	29.66
544.762	29.82
545.105	30.05
545.449	30.24
545.792	30.47
546.135	30.69
546.478	30.85
546.821	31.06
547.165	31.3
547.508	31.56
547.851	31.8
548.194	32.02
548.536	32.22
548.879	32.42
549.222	32.64
549.565	32.82
549.908	33.06
550.25	33.25
550.593	33.46
550.936	33.69
551.278	33.87
551.621	34.05
551.963	34.34
552.306	34.53
552.648	34.72
552.991	34.95
553.333	35.09
553.675	35.33
554.017	35.54
554.36	35.76
554.702	35.93
555.044	36.07
555.386	36.24
555.728	36.44
556.07	36.62
556.412	36.8
556.754	37.01
557.096	37.23
557.438	37.46
557.78	37.66
558.121	37.8
558.463	37.97
558.805	38.2
559.147	38.31
559.488	38.42
559.83	38.53
560.171	38.62
560.513	38.81
560.854	38.97
561.196	39.12
561.537	39.28
561.878	39.44
562.22	39.6
562.561	39.73
562.902	39.84
563.243	39.98
563.584	40.07
563.925	40.21
564.266	40.25
564.607	40.35
564.948	40.47
565.289	40.63
565.63	40.76
565.971	40.85
566.312	41.01
566.653	41.16
566.993	41.35
567.334	41.5
567.675	41.59
568.015	41.68
568.356	41.8
568.696	41.9
569.037	41.97
569.377	41.99
569.718	42.16
570.058	42.29
570.398	42.42
570.739	42.48
571.079	42.59
571.419	42.71
571.759	42.75
572.099	42.8
572.439	42.84
572.779	42.92
573.119	42.96
573.459	43.04
573.799	43.07
574.139	43.14
574.479	43.22
574.819	43.31
575.158	43.36
575.498	43.43
575.838	43.45
576.177	43.55
576.517	43.62
576.856	43.59
577.196	43.64
577.535	43.69
577.875	43.84
578.214	43.86
578.553	43.91
578.893	44
579.232	44.08
579.571	44.19
579.91	44.2
580.25	44.26
580.589	44.26
580.928	44.4
581.267	44.42
581.606	44.51
581.945	44.55
582.283	44.66
582.622	44.82
582.961	44.94
583.3	44.98
583.639	45.11
583.977	45.23
584.316	45.31
584.654	45.36
584.993	45.42
585.332	45.52
585.67	45.64
586.008	45.71
586.347	45.79
586.685	45.82
587.024	45.9
587.362	45.96
587.7	46.1
588.038	46.2
588.376	46.28
588.715	46.32
589.053	46.39
589.391	46.41
589.729	46.42
590.067	46.48
590.404	46.49
590.742	46.48
591.08	46.6
591.418	46.63
591.756	46.61
592.093	46.63
592.431	46.74
592.769	46.74
593.106	46.78
593.444	46.8
593.781	46.92
594.119	47.04
594.456	47.07
594.793	47.01
595.131	47.03
595.468	47.1
595.805	47.08
596.143	47.1
596.48	47.12
596.817	47.11
597.154	47.16
597.491	47.24
597.828	47.34
598.165	47.31
598.502	47.35
598.839	47.47
599.176	47.43
599.512	47.4
599.849	47.52
600.186	47.57
600.523	47.62
600.859	47.63
601.196	47.58
601.532	47.64
601.869	47.72
602.205	47.7
602.542	47.71
602.878	47.83
603.215	47.9
603.551	47.99
603.887	48.03
604.223	47.97
604.56	48.05
604.896	48.09
605.232	48.14
605.568	48.17
605.904	48.16
606.24	48.27
606.576	48.28
606.912	48.25
607.248	48.32
607.583	48.37
607.919	48.4
608.255	48.51
608.591	48.56
608.926	48.56
609.262	48.6
609.597	48.65
609.933	48.6
610.268	48.64
610.604	48.6
610.939	48.66
611.275	48.73
611.61	48.74
611.945	48.72
612.281	48.72
612.616	48.71
612.951	48.85
613.286	48.84
613.621	48.84
613.956	48.9
614.291	48.88
614.626	48.86
614.961	48.87
615.296	48.86
615.631	48.96
615.966	49.04
616.3	49.12
616.635	49.12
616.97	49.21
617.304	49.17
617.639	49.25
617.973	49.22
618.308	49.24
618.642	49.12
618.977	49.2
619.311	49.24
619.646	49.34
619.98	49.27
620.314	49.34
620.648	49.42
620.983	49.45
621.317	49.46
621.651	49.55
621.985	49.5
622.319	49.49
622.653	49.43
622.987	49.42
623.321	49.46
623.655	49.48
623.988	49.51
624.322	49.5
624.656	49.61
624.99	49.64
625.323	49.69
625.657	49.72
625.99	49.65
626.324	49.64
626.657	49.55
626.991	49.62
627.324	49.61
627.658	49.65
627.991	49.6
628.324	49.62
628.657	49.63
628.991	49.69
629.324	49.73
629.657	49.77
629.99	49.82
630.323	49.79
630.656	49.76
630.989	49.77
631.322	49.83
631.655	49.77
631.987	49.74
632.32	49.73
632.653	49.85
632.986	49.94
633.318	49.95
633.651	50.05
633.984	50.02
634.316	50.02
634.649	50
634.981	50.03
635.313	50.09
635.646	49.95
635.978	50
636.31	49.98
636.643	49.97
636.975	49.97
637.307	49.91
637.639	50.07
637.971	50.04
638.303	50.05
638.635	50.04
638.967	50.09
639.299	50.15
639.631	50.1
639.963	50.08
640.295	50.14
640.626	50.22
640.958	50.16
641.29	50.18
641.621	50.19
641.953	50.17
642.285	50.14
642.616	50.24
642.948	50.24
643.279	50.29
643.61	50.4
643.942	50.35
644.273	50.46
644.604	50.35
644.936	50.28
645.267	50.34
645.598	50.41
645.929	50.44
646.26	50.34
646.591	50.5
646.922	50.59
647.253	50.65
647.584	50.64
647.915	50.74
648.245	50.8
648.576	50.87
648.907	50.89
649.238	50.89
649.568	50.93
649.899	50.8
650.229	50.77
650.56	50.81
650.89	50.92
651.221	50.83
651.551	50.81
651.882	50.87
652.212	50.94
652.542	50.98
652.872	51.02
653.203	51.1
653.533	51.06
653.863	51.08
654.193	51.04
654.523	51
654.853	51.01
655.183	51.17
655.513	51.12
655.843	51.18
656.172	51.3
656.502	51.38
656.832	51.44
657.162	51.45
657.491	51.43
657.821	51.31
658.15	51.4
658.48	51.56
658.809	51.71
659.139	51.68
659.468	51.6
659.798	51.65
660.127	51.69
660.456	51.67
660.785	51.68
661.115	51.68
661.444	51.74
661.773	51.78
662.102	51.7
662.431	51.71
662.76	51.6
663.089	51.51
663.418	51.51
663.747	51.58
664.076	51.58
664.404	51.61
664.733	51.7
665.062	51.78
665.39	51.6
665.719	51.5
666.048	51.37
666.376	51.37
666.705	51.35
667.033	51.33
667.362	51.31
667.69	51.34
668.018	51.3
668.347	51.19
668.675	51.13
669.003	51.16
