Data from MVZ_BU88648_Reflection_00009.txt Node
Date: Tue Nov 19 12:02:08 EST 2019
User: vgr7
Spectrometer: USB2G7710
Scans to average: 3
Trigger mode: 4
Integration Time (sec): 2.000000E-2
Electric dark correction enabled: true
Boxcar width: 10
XAxis mode: Wavelengths
Number of Pixels in Spectrum: 2048
>>>>>Begin Spectral Data<<<<<
177.721	-1502.94
178.105	-92.77
178.488	-70.82
178.871	-238.46
179.254	-7.69
179.636	-318.92
180.019	-5.26
180.402	150
180.785	151.16
181.168	145.45
181.55	189.29
181.933	-226.92
182.316	189.29
182.698	320.78
183.081	91.2
183.463	91.96
183.846	21.14
184.228	22.98
184.611	0.29
184.993	30.85
185.376	28.02
185.758	65.29
186.14	51.9
186.522	61.79
186.904	86.79
187.287	106.02
187.669	87.83
188.051	87.83
188.433	53.32
188.815	14.13
189.197	0.7
189.579	11.87
189.961	6.49
190.342	21.25
190.724	11.87
191.106	-0.47
191.488	47.04
191.869	73.25
192.251	69.08
192.633	100.99
193.014	159.89
193.396	111.14
193.777	94.24
194.159	62.23
194.54	44.68
194.922	1.55
195.303	28.16
195.684	0.99
196.065	17.89
196.447	51.66
196.828	176.45
197.209	169.13
197.59	104.02
197.971	79.83
198.352	71.2
198.733	81.77
199.114	86.42
199.495	116.19
199.876	145.45
200.257	135.03
200.638	69.65
201.018	37.06
201.399	59.81
201.78	73.13
202.16	91.91
202.541	87.98
202.922	102.66
203.302	83.25
203.683	96.87
204.063	67.34
204.444	63.33
204.824	57.6
205.204	44.09
205.585	54.45
205.965	43.81
206.345	46.77
206.725	40.71
207.106	50.55
207.486	28.76
207.866	30.63
208.246	33.08
208.626	35.97
209.006	42.76
209.386	43.61
209.766	52.59
210.145	54.35
210.525	57.01
210.905	39.59
211.285	35.22
211.664	30.71
212.044	32.34
212.424	33.42
212.803	31.21
213.183	31.19
213.562	29.5
213.942	26.3
214.321	25.03
214.701	19.74
215.08	14.59
215.459	26.16
215.838	30.61
216.218	28.43
216.597	20.42
216.976	13.56
217.355	12.21
217.734	2.57
218.113	-1.12
218.492	-2.08
218.871	0.65
219.25	-9.43
219.629	-13.09
220.008	-11.21
220.387	-22.28
220.766	-32.02
221.144	-20.13
221.523	-36.16
221.902	-18.62
222.28	-18.43
222.659	5.02
223.037	3.98
223.416	0.75
223.794	-12.55
224.173	-12.3
224.551	0.51
224.929	5.91
225.308	3.09
225.686	-0.7
226.064	0.5
226.442	-0.22
226.821	-2.04
227.199	2.1
227.577	6.54
227.955	10.1
228.333	8.45
228.711	14
229.089	16.32
229.467	15.81
229.845	11.82
230.222	13.6
230.6	9.12
230.978	12.62
231.356	10.8
231.733	10.18
232.111	8.15
232.488	4.93
232.866	6.36
233.243	4.17
233.621	6.37
233.998	5.54
234.376	7.88
234.753	9.2
235.13	9.13
235.508	6.12
235.885	4.54
236.262	4.35
236.639	2.52
237.016	1.81
237.393	3.4
237.77	4.69
238.147	4.51
238.524	4.97
238.901	3.49
239.278	2.16
239.655	2.35
240.032	3.35
240.409	2.94
240.785	2.15
241.162	2.77
241.539	2.39
241.915	2.39
242.292	2.9
242.668	3.3
243.045	3.57
243.421	3.93
243.798	4.24
244.174	4.29
244.551	4.37
244.927	4.16
245.303	4.1
245.679	4.2
246.056	4.1
246.432	3.89
246.808	4.06
247.184	4.65
247.56	4.62
247.936	4.52
248.312	4.89
248.688	5.09
249.064	5.03
249.44	5.07
249.815	5.44
250.191	5.16
250.567	5.1
250.943	5.3
251.318	5.38
251.694	5.2
252.069	5.3
252.445	5.31
252.82	5.62
253.196	5.47
253.571	5.25
253.947	5.07
254.322	4.97
254.697	4.79
255.073	4.38
255.448	4.71
255.823	4.77
256.198	4.77
256.573	4.62
256.948	4.37
257.323	4.55
257.698	4.22
258.073	4.33
258.448	4.19
258.823	3.87
259.198	3.83
259.573	3.9
259.948	4.1
260.322	4.12
260.697	4.18
261.072	4.16
261.446	4.25
261.821	4.35
262.195	4.5
262.57	4.49
262.944	4.6
263.319	4.64
263.693	4.58
264.067	4.62
264.442	4.48
264.816	4.65
265.19	4.49
265.564	4.58
265.938	4.4
266.313	4.54
266.687	4.64
267.061	4.76
267.435	4.84
267.809	4.76
268.183	4.65
268.556	4.35
268.93	4.53
269.304	4.38
269.678	4.26
270.051	4.31
270.425	4.22
270.799	3.99
271.172	3.95
271.546	4.08
271.919	4.01
272.293	4.19
272.666	3.98
273.04	4.04
273.413	3.82
273.787	3.81
274.16	3.66
274.533	3.63
274.906	3.56
275.279	3.59
275.653	3.51
276.026	3.67
276.399	3.83
276.772	3.73
277.145	3.69
277.518	3.66
277.891	3.67
278.263	3.86
278.636	4.11
279.009	3.91
279.382	3.65
279.755	3.54
280.127	3.59
280.5	3.73
280.872	3.79
281.245	3.97
281.617	4.17
281.99	4.21
282.362	4.24
282.735	4.16
283.107	3.99
283.479	3.99
283.852	4.02
284.224	4.1
284.596	4.08
284.968	4.23
285.34	4.17
285.713	4.25
286.085	4.19
286.457	4.14
286.829	4.23
287.201	4.32
287.572	4.38
287.944	4.31
288.316	4.36
288.688	4.38
289.06	4.42
289.431	4.42
289.803	4.43
290.175	4.41
290.546	4.36
290.918	4.28
291.289	4.22
291.661	4.24
292.032	4.23
292.403	4.16
292.775	4.22
293.146	4.36
293.517	4.31
293.889	4.25
294.26	4.33
294.631	4.37
295.002	4.4
295.373	4.54
295.744	4.53
296.115	4.55
296.486	4.6
296.857	4.38
297.228	4.21
297.599	4.3
297.97	4.47
298.34	4.62
298.711	4.61
299.082	4.7
299.452	4.65
299.823	4.71
300.194	4.78
300.564	4.48
300.935	4.42
301.305	4.28
301.676	4.36
302.046	4.25
302.416	4.1
302.787	3.93
303.157	3.77
303.527	3.9
303.897	3.94
304.267	3.87
304.637	4.18
305.008	4.3
305.378	4.32
305.748	4.03
306.117	4
306.487	4.1
306.857	4.05
307.227	4.03
307.597	3.87
307.967	3.88
308.336	4.16
308.706	4.34
309.076	4.53
309.445	4.71
309.815	4.77
310.184	4.83
310.554	5.02
310.923	5.02
311.293	4.96
311.662	4.92
312.031	4.85
312.401	4.87
312.77	4.86
313.139	4.67
313.508	4.76
313.877	4.71
314.246	4.66
314.616	4.8
314.985	4.91
315.353	4.96
315.722	5.18
316.091	5.12
316.46	5.06
316.829	5.06
317.198	4.97
317.567	5.09
317.935	5.23
318.304	5.27
318.672	5.48
319.041	5.54
319.41	5.65
319.778	5.81
320.147	5.91
320.515	6.15
320.883	6.38
321.252	6.55
321.62	6.69
321.988	6.91
322.357	6.86
322.725	6.77
323.093	6.8
323.461	6.65
323.829	6.61
324.197	6.57
324.565	6.55
324.933	6.65
325.301	6.55
325.669	6.45
326.037	6.41
326.405	6.23
326.772	6.11
327.14	6.04
327.508	6.03
327.875	5.93
328.243	5.81
328.61	5.61
328.978	5.59
329.346	5.6
329.713	5.41
330.08	5.7
330.448	5.74
330.815	5.7
331.182	5.69
331.55	5.81
331.917	5.89
332.284	5.98
332.651	5.8
333.018	5.8
333.385	5.89
333.752	6.06
334.119	6.09
334.486	6.27
334.853	6.39
335.22	6.44
335.587	6.47
335.954	6.42
336.32	6.63
336.687	6.68
337.054	6.61
337.42	6.72
337.787	6.44
338.153	6.44
338.52	6.5
338.886	6.52
339.253	6.49
339.619	6.42
339.986	6.22
340.352	6.23
340.718	6.3
341.084	6.39
341.451	6.27
341.817	6.42
342.183	6.31
342.549	6.29
342.915	6.26
343.281	6.36
343.647	6.34
344.013	6.3
344.379	6.27
344.745	6.38
345.11	6.46
345.476	6.52
345.842	6.52
346.208	6.62
346.573	6.64
346.939	6.6
347.304	6.64
347.67	6.8
348.035	6.81
348.401	6.82
348.766	6.82
349.132	6.91
349.497	6.87
349.862	6.88
350.228	6.95
350.593	6.94
350.958	6.88
351.323	6.94
351.688	6.92
352.053	6.79
352.418	6.69
352.783	6.76
353.148	6.7
353.513	6.66
353.878	6.5
354.243	6.5
354.608	6.54
354.972	6.59
355.337	6.6
355.702	6.62
356.066	6.53
356.431	6.43
356.795	6.39
357.16	6.3
357.524	6.3
357.889	6.19
358.253	6.18
358.618	6.09
358.982	6.05
359.346	5.98
359.71	6.07
360.075	6.11
360.439	6
360.803	6.03
361.167	6.05
361.531	6.05
361.895	6.01
362.259	6.01
362.623	5.96
362.987	5.91
363.351	5.87
363.714	5.89
364.078	5.86
364.442	5.88
364.806	5.9
365.169	5.83
365.533	5.82
365.896	5.85
366.26	5.89
366.623	5.91
366.987	5.98
367.35	6
367.714	5.97
368.077	5.96
368.44	5.94
368.803	5.9
369.167	5.8
369.53	5.83
369.893	5.79
370.256	5.7
370.619	5.64
370.982	5.57
371.345	5.6
371.708	5.6
372.071	5.5
372.434	5.47
372.797	5.55
373.159	5.49
373.522	5.44
373.885	5.42
374.247	5.38
374.61	5.31
374.973	5.23
375.335	5.18
375.698	5.11
376.06	5.07
376.423	5.05
376.785	5.14
377.147	5.09
377.51	5.12
377.872	5.16
378.234	5.23
378.596	5.23
378.958	5.21
379.321	5.16
379.683	5.16
380.045	5.16
380.407	5.11
380.769	5.1
381.13	5.06
381.492	5.03
381.854	5.01
382.216	5.03
382.578	5
382.939	4.98
383.301	4.96
383.663	4.96
384.024	5
384.386	5
384.747	5
385.109	4.97
385.47	4.99
385.832	4.9
386.193	4.87
386.554	4.84
386.916	4.84
387.277	4.78
387.638	4.76
387.999	4.72
388.36	4.73
388.721	4.72
389.082	4.71
389.443	4.71
389.804	4.73
390.165	4.74
390.526	4.72
390.887	4.72
391.248	4.66
391.609	4.6
391.969	4.58
392.33	4.54
392.691	4.53
393.051	4.45
393.412	4.47
393.772	4.5
394.133	4.46
394.493	4.45
394.854	4.47
395.214	4.49
395.574	4.46
395.935	4.48
396.295	4.49
396.655	4.47
397.015	4.45
397.376	4.41
397.736	4.38
398.096	4.38
398.456	4.35
398.816	4.34
399.176	4.31
399.535	4.24
399.895	4.2
400.255	4.14
400.615	4.11
400.975	4.06
401.334	4.03
401.694	4.01
402.054	3.98
402.413	3.96
402.773	3.94
403.132	3.95
403.492	3.9
403.851	3.89
404.211	3.89
404.57	3.89
404.929	3.87
405.288	3.87
405.648	3.89
406.007	3.91
406.366	3.91
406.725	3.9
407.084	3.95
407.443	3.96
407.802	3.94
408.161	3.96
408.52	3.97
408.879	3.98
409.238	4.02
409.596	4.02
409.955	4.04
410.314	4.03
410.673	4
411.031	4.01
411.39	3.97
411.748	3.95
412.107	3.94
412.465	3.94
412.824	3.95
413.182	3.89
413.54	3.87
413.899	3.86
414.257	3.9
414.615	3.85
414.974	3.85
415.332	3.87
415.69	3.88
416.048	3.87
416.406	3.84
416.764	3.81
417.122	3.8
417.48	3.78
417.838	3.79
418.195	3.81
418.553	3.81
418.911	3.8
419.269	3.81
419.626	3.81
419.984	3.8
420.342	3.8
420.699	3.78
421.057	3.78
421.414	3.78
421.772	3.76
422.129	3.76
422.486	3.74
422.844	3.74
423.201	3.73
423.558	3.73
423.915	3.73
424.273	3.74
424.63	3.75
424.987	3.75
425.344	3.74
425.701	3.73
426.058	3.72
426.415	3.74
426.772	3.71
427.128	3.67
427.485	3.68
427.842	3.67
428.199	3.69
428.555	3.68
428.912	3.65
429.269	3.67
429.625	3.68
429.982	3.71
430.338	3.71
430.695	3.68
431.051	3.67
431.407	3.68
431.764	3.64
432.12	3.65
432.476	3.64
432.832	3.65
433.189	3.63
433.545	3.62
433.901	3.61
434.257	3.63
434.613	3.66
434.969	3.65
435.325	3.66
435.681	3.63
436.036	3.64
436.392	3.65
436.748	3.64
437.104	3.64
437.459	3.63
437.815	3.64
438.171	3.67
438.526	3.67
438.882	3.65
439.237	3.67
439.593	3.66
439.948	3.66
440.304	3.65
440.659	3.67
441.014	3.68
441.369	3.7
441.725	3.7
442.08	3.69
442.435	3.69
442.79	3.69
443.145	3.7
443.5	3.7
443.855	3.71
444.21	3.7
444.565	3.7
444.92	3.69
445.275	3.68
445.629	3.67
445.984	3.67
446.339	3.69
446.693	3.68
447.048	3.67
447.403	3.66
447.757	3.66
448.112	3.65
448.466	3.65
448.82	3.64
449.175	3.63
449.529	3.63
449.883	3.64
450.238	3.64
450.592	3.62
450.946	3.62
451.3	3.61
451.654	3.6
452.008	3.6
452.362	3.61
452.716	3.61
453.07	3.62
453.424	3.62
453.778	3.61
454.132	3.6
454.486	3.63
454.839	3.66
455.193	3.66
455.547	3.66
455.9	3.66
456.254	3.66
456.607	3.68
456.961	3.69
457.314	3.68
457.668	3.66
458.021	3.65
458.375	3.66
458.728	3.65
459.081	3.67
459.434	3.65
459.787	3.66
460.141	3.68
460.494	3.68
460.847	3.69
461.2	3.68
461.553	3.71
461.906	3.7
462.259	3.66
462.611	3.65
462.964	3.66
463.317	3.65
463.67	3.66
464.022	3.64
464.375	3.64
464.728	3.63
465.08	3.65
465.433	3.67
465.785	3.69
466.138	3.67
466.49	3.69
466.843	3.72
467.195	3.69
467.547	3.68
467.899	3.67
468.252	3.67
468.604	3.68
468.956	3.68
469.308	3.68
469.66	3.72
470.012	3.72
470.364	3.72
470.716	3.73
471.068	3.72
471.42	3.72
471.772	3.73
472.123	3.76
472.475	3.76
472.827	3.78
473.178	3.78
473.53	3.81
473.882	3.8
474.233	3.79
474.585	3.8
474.936	3.81
475.288	3.81
475.639	3.84
475.99	3.84
476.342	3.84
476.693	3.84
477.044	3.84
477.395	3.85
477.746	3.84
478.097	3.82
478.448	3.82
478.8	3.83
479.15	3.82
479.501	3.8
479.852	3.79
480.203	3.78
480.554	3.8
480.905	3.81
481.255	3.81
481.606	3.83
481.957	3.85
482.307	3.84
482.658	3.84
483.009	3.85
483.359	3.85
483.709	3.85
484.06	3.85
484.41	3.83
484.761	3.84
485.111	3.85
485.461	3.86
485.811	3.86
486.162	3.85
486.512	3.86
486.862	3.87
487.212	3.89
487.562	3.87
487.912	3.87
488.262	3.88
488.612	3.87
488.961	3.86
489.311	3.85
489.661	3.84
490.011	3.84
490.36	3.82
490.71	3.82
491.06	3.82
491.409	3.83
491.759	3.86
492.108	3.86
492.458	3.86
492.807	3.86
493.157	3.86
493.506	3.87
493.855	3.89
494.204	3.88
494.554	3.89
494.903	3.91
495.252	3.92
495.601	3.91
495.95	3.94
496.299	3.94
496.648	3.97
496.997	4
497.346	4.02
497.695	4.05
498.043	4.09
498.392	4.11
498.741	4.12
499.09	4.12
499.438	4.13
499.787	4.14
500.135	4.16
500.484	4.2
500.832	4.22
501.181	4.26
501.529	4.28
501.878	4.3
502.226	4.34
502.574	4.37
502.923	4.4
503.271	4.42
503.619	4.45
503.967	4.49
504.315	4.53
504.663	4.57
505.011	4.58
505.359	4.59
505.707	4.63
506.055	4.68
506.403	4.71
506.751	4.77
507.098	4.83
507.446	4.89
507.794	4.92
508.141	4.96
508.489	4.97
508.837	5.02
509.184	5.05
509.531	5.11
509.879	5.17
510.226	5.2
510.574	5.27
510.921	5.35
511.268	5.39
511.616	5.45
511.963	5.51
512.31	5.56
512.657	5.65
513.004	5.72
513.351	5.82
513.698	5.9
514.045	5.99
514.392	6.08
514.739	6.15
515.086	6.22
515.432	6.34
515.779	6.46
516.126	6.56
516.473	6.67
516.819	6.74
517.166	6.82
517.512	6.91
517.859	7.01
518.205	7.06
518.552	7.15
518.898	7.23
519.245	7.33
519.591	7.42
519.937	7.51
520.283	7.64
520.629	7.72
520.976	7.81
521.322	7.9
521.668	7.99
522.014	8.1
522.36	8.21
522.706	8.32
523.052	8.43
523.398	8.53
523.743	8.64
524.089	8.77
524.435	8.89
524.781	9.04
525.126	9.16
525.472	9.27
525.817	9.37
526.163	9.46
526.509	9.53
526.854	9.61
527.199	9.69
527.545	9.75
527.89	9.83
528.235	9.89
528.581	9.97
528.926	10.07
529.271	10.16
529.616	10.24
529.961	10.3
530.306	10.39
530.651	10.49
530.996	10.59
531.341	10.68
531.686	10.79
532.031	10.88
532.376	10.97
532.721	11.06
533.065	11.17
533.41	11.28
533.755	11.41
534.099	11.53
534.444	11.63
534.788	11.74
535.133	11.86
535.477	12
535.822	12.13
536.166	12.24
536.51	12.37
536.855	12.54
537.199	12.69
537.543	12.86
537.887	13.03
538.231	13.19
538.576	13.35
538.92	13.51
539.264	13.69
539.608	13.85
539.951	14
540.295	14.15
540.639	14.28
540.983	14.42
541.327	14.57
541.671	14.73
542.014	14.87
542.358	15
542.701	15.15
543.045	15.28
543.389	15.44
543.732	15.6
544.075	15.74
544.419	15.91
544.762	16.08
545.105	16.27
545.449	16.44
545.792	16.61
546.135	16.82
546.478	17
546.821	17.2
547.165	17.42
547.508	17.63
547.851	17.87
548.194	18.05
548.536	18.28
548.879	18.51
549.222	18.76
549.565	19.02
549.908	19.27
550.25	19.53
550.593	19.74
550.936	19.97
551.278	20.21
551.621	20.47
551.963	20.7
552.306	20.94
552.648	21.2
552.991	21.43
553.333	21.65
553.675	21.88
554.017	22.11
554.36	22.35
554.702	22.6
555.044	22.82
555.386	23.05
555.728	23.27
556.07	23.49
556.412	23.72
556.754	23.93
557.096	24.16
557.438	24.37
557.78	24.6
558.121	24.86
558.463	25.09
558.805	25.32
559.147	25.55
559.488	25.76
559.83	25.99
560.171	26.24
560.513	26.5
560.854	26.74
561.196	26.97
561.537	27.22
561.878	27.48
562.22	27.73
562.561	27.99
562.902	28.21
563.243	28.41
563.584	28.62
563.925	28.88
564.266	29.06
564.607	29.32
564.948	29.51
565.289	29.69
565.63	29.89
565.971	30.08
566.312	30.27
566.653	30.48
566.993	30.68
567.334	30.86
567.675	31.03
568.015	31.18
568.356	31.39
568.696	31.56
569.037	31.69
569.377	31.83
569.718	31.99
570.058	32.16
570.398	32.35
570.739	32.46
571.079	32.58
571.419	32.75
571.759	32.88
572.099	33.13
572.439	33.3
572.779	33.47
573.119	33.62
573.459	33.74
573.799	33.86
574.139	34.03
574.479	34.18
574.819	34.3
575.158	34.47
575.498	34.64
575.838	34.77
576.177	34.91
576.517	35.09
576.856	35.28
577.196	35.43
577.535	35.58
577.875	35.79
578.214	35.94
578.553	36.09
578.893	36.23
579.232	36.33
579.571	36.48
579.91	36.59
580.25	36.74
580.589	36.93
580.928	37.09
581.267	37.17
581.606	37.29
581.945	37.43
582.283	37.58
582.622	37.62
582.961	37.79
583.3	37.95
583.639	38.09
583.977	38.11
584.316	38.23
584.654	38.3
584.993	38.38
585.332	38.52
585.67	38.67
586.008	38.75
586.347	38.79
586.685	38.93
587.024	39.03
587.362	39.05
587.7	39.14
588.038	39.23
588.376	39.31
588.715	39.44
589.053	39.55
589.391	39.6
589.729	39.71
590.067	39.76
590.404	39.82
590.742	39.87
591.08	40.01
591.418	40.04
591.756	40.21
592.093	40.3
592.431	40.41
592.769	40.41
593.106	40.52
593.444	40.66
593.781	40.73
594.119	40.83
594.456	40.93
594.793	40.98
595.131	41.04
595.468	41.19
595.805	41.28
596.143	41.33
596.48	41.4
596.817	41.44
597.154	41.54
597.491	41.53
597.828	41.62
598.165	41.72
598.502	41.88
598.839	41.92
599.176	41.97
599.512	42.01
599.849	42.1
600.186	42.2
600.523	42.2
600.859	42.25
601.196	42.35
601.532	42.46
601.869	42.52
602.205	42.53
602.542	42.55
602.878	42.59
603.215	42.68
603.551	42.74
603.887	42.81
604.223	42.75
604.56	42.82
604.896	42.86
605.232	42.9
605.568	42.86
605.904	42.92
606.24	42.95
606.576	43
606.912	43.1
607.248	43.08
607.583	43.16
607.919	43.19
608.255	43.23
608.591	43.27
608.926	43.32
609.262	43.39
609.597	43.39
609.933	43.4
610.268	43.38
610.604	43.42
610.939	43.45
611.275	43.61
611.61	43.7
611.945	43.71
612.281	43.72
612.616	43.78
612.951	43.76
613.286	43.8
613.621	43.85
613.956	43.83
614.291	43.93
614.626	43.96
614.961	43.96
615.296	43.96
615.631	43.89
615.966	43.96
616.3	43.96
616.635	43.98
616.97	43.94
617.304	44.03
617.639	44.01
617.973	44.02
618.308	44.04
618.642	44.13
618.977	44.12
619.311	44.08
619.646	44.14
619.98	44.25
620.314	44.24
620.648	44.23
620.983	44.25
621.317	44.25
621.651	44.27
621.985	44.33
622.319	44.37
622.653	44.48
622.987	44.46
623.321	44.62
623.655	44.7
623.988	44.8
624.322	44.82
624.656	44.9
624.99	44.88
625.323	44.89
625.657	44.9
625.99	44.93
626.324	44.97
626.657	44.97
626.991	45.02
627.324	45.04
627.658	44.98
627.991	45.03
628.324	44.99
628.657	44.97
628.991	45.02
629.324	45.08
629.657	45.06
629.99	45.13
630.323	45.16
630.656	45.12
630.989	45.13
631.322	45.14
631.655	45.18
631.987	45.2
632.32	45.17
632.653	45.13
632.986	45.23
633.318	45.22
633.651	45.24
633.984	45.11
634.316	45.13
634.649	45.31
634.981	45.39
635.313	45.43
635.646	45.54
635.978	45.57
636.31	45.59
636.643	45.66
636.975	45.67
637.307	45.62
637.639	45.72
637.971	45.72
638.303	45.68
638.635	45.64
638.967	45.68
639.299	45.75
639.631	45.76
639.963	45.63
640.295	45.72
640.626	45.84
640.958	45.96
641.29	46.03
641.621	46.01
641.953	45.9
642.285	45.94
642.616	45.96
642.948	45.91
643.279	45.77
643.61	45.77
643.942	45.73
644.273	45.62
644.604	45.55
644.936	45.63
645.267	45.8
645.598	45.8
645.929	45.8
646.26	45.82
646.591	45.86
646.922	45.9
647.253	45.93
647.584	45.84
647.915	45.82
648.245	45.83
648.576	45.82
648.907	45.82
649.238	45.95
649.568	45.94
649.899	46.01
650.229	46.19
650.56	46.2
650.89	46.26
651.221	46.4
651.551	46.42
651.882	46.39
652.212	46.25
652.542	46.31
652.872	46.33
653.203	46.45
653.533	46.53
653.863	46.6
654.193	46.57
654.523	46.6
654.853	46.63
655.183	46.73
655.513	46.79
655.843	46.86
656.172	46.88
656.502	46.85
656.832	46.83
657.162	46.72
657.491	46.89
657.821	46.96
658.15	46.97
658.48	47.12
658.809	47.06
659.139	47.06
659.468	47.06
659.798	47.14
660.127	47.06
660.456	47.01
660.785	47.05
661.115	47.11
661.444	47.12
661.773	47.22
662.102	47.12
662.431	47.13
662.76	47.09
663.089	47.01
663.418	46.98
663.747	47.07
664.076	47.1
664.404	46.91
664.733	46.82
665.062	46.76
665.39	46.74
665.719	46.86
666.048	46.91
666.376	46.91
666.705	46.75
667.033	46.76
667.362	46.78
667.69	46.67
668.018	46.67
668.347	46.6
668.675	46.6
669.003	46.7
669.331	46.72
669.659	46.76
669.987	46.76
670.315	46.75
