Data from MVZ_BU123442_Reflection_00015.txt Node
Date: Tue Nov 19 12:12:45 EST 2019
User: vgr7
Spectrometer: USB2G7710
Scans to average: 3
Trigger mode: 4
Integration Time (sec): 2.000000E-2
Electric dark correction enabled: true
Boxcar width: 10
XAxis mode: Wavelengths
Number of Pixels in Spectrum: 2048
>>>>>Begin Spectral Data<<<<<
177.721	216.69
178.105	229.87
178.488	219.75
178.871	274.58
179.254	552.63
179.636	245.96
180.019	967.92
180.402	46.15
180.785	-140.96
181.168	127.68
181.55	123.32
181.933	89.69
182.316	83.83
182.698	67.99
183.081	40.02
183.463	76.91
183.846	79.59
184.228	84.59
184.611	110.8
184.993	-348
185.376	-3378.26
185.758	345.06
186.14	548.78
186.522	888.99
186.904	-804
187.287	-879.87
187.669	-594.55
188.051	-588.96
188.433	-590.81
188.815	-323.25
189.197	-254.32
189.579	-271.89
189.961	-249.92
190.342	-225.11
190.724	-160.79
191.106	-132.13
191.488	-125.53
191.869	-106.92
192.251	-118.73
192.633	-134.6
193.014	-166.57
193.396	-151.68
193.777	-106.92
194.159	-117.39
194.54	-109.73
194.922	-118.59
195.303	-131.49
195.684	-107.69
196.065	-111.75
196.447	-88.29
196.828	-155.47
197.209	-172.26
197.59	-106.36
197.971	-75.13
198.352	-80.15
198.733	-114.87
199.114	-110.33
199.495	-94.35
199.876	-99.19
200.257	-112.29
200.638	-112.4
201.018	-123.25
201.399	-122.46
201.78	-127.65
202.16	-196.4
202.541	-282.19
202.922	-230.8
203.302	-238.74
203.683	-964.86
204.063	-532.84
204.444	-1380.92
204.824	-346.15
205.204	-291.38
205.585	-517.02
205.965	-3544.07
206.345	1345.4
206.725	1466.97
207.106	947.68
207.486	1421.74
207.866	241.37
208.246	431.95
208.626	-5986.96
209.006	-374.39
209.386	-301.62
209.766	-180
210.145	-83.13
210.525	-76.04
210.905	-121.32
211.285	-103.36
211.664	-71.34
212.044	-84.42
212.424	-74.95
212.803	-90.61
213.183	-77.04
213.562	-60
213.942	-43.27
214.321	-44.78
214.701	-77.77
215.08	-96.02
215.459	-79.05
215.838	-69.94
216.218	-82.07
216.597	-68.62
216.976	-78.81
217.355	-90.2
217.734	-102.75
218.113	-101.5
218.492	-107.01
218.871	-93.62
219.25	-90.62
219.629	-92.78
220.008	-84.01
220.387	-87.33
220.766	-80.05
221.144	-85.21
221.523	-97.6
221.902	-93.85
222.28	-84.5
222.659	-49.03
223.037	-51.68
223.416	-45.17
223.794	-53.34
224.173	-61.02
224.551	-54.46
224.929	-52.34
225.308	-52.12
225.686	-57.84
226.064	-58.15
226.442	-42.76
226.821	-35.63
227.199	-33.04
227.577	-26.89
227.955	-21.82
228.333	-18.64
228.711	-15.25
229.089	-11.78
229.467	-12.02
229.845	-13.46
230.222	-9.89
230.6	-14.95
230.978	-12.01
231.356	-12.32
231.733	-10.44
232.111	-7.98
232.488	-8.76
232.866	-8.68
233.243	-8.1
233.621	-5.13
233.998	-4.66
234.376	-5.48
234.753	-5.16
235.13	-5.61
235.508	-6.59
235.885	-7.01
236.262	-7.36
236.639	-6.66
237.016	-7.36
237.393	-5.6
237.77	-3.75
238.147	-4.2
238.524	-2.29
238.901	-1.53
239.278	-0.99
239.655	-0.12
240.032	0.12
240.409	0.08
240.785	0.72
241.162	0.98
241.539	0.85
241.915	1.77
242.292	2.43
242.668	2.04
243.045	2.86
243.421	3.35
243.798	3.82
244.174	4.29
244.551	4.21
244.927	4.09
245.303	4.07
245.679	3.73
246.056	3.73
246.432	3.64
246.808	3.44
247.184	3.27
247.56	2.89
247.936	3.03
248.312	3.17
248.688	3.01
249.064	3.12
249.44	3.06
249.815	3.06
250.191	2.77
250.567	2.93
250.943	2.59
251.318	2.12
251.694	1.69
252.069	1.41
252.445	1.3
252.82	1.7
253.196	1.57
253.571	1.81
253.947	1.75
254.322	1.76
254.697	1.83
255.073	1.94
255.448	2.57
255.823	2.5
256.198	2.32
256.573	2.37
256.948	2.44
257.323	2.59
257.698	2.41
258.073	2.56
258.448	2.64
258.823	2.56
259.198	2.73
259.573	2.66
259.948	2.77
260.322	2.77
260.697	2.66
261.072	2.83
261.446	2.85
261.821	2.87
262.195	2.75
262.57	2.94
262.944	2.72
263.319	2.83
263.693	2.64
264.067	2.67
264.442	2.82
264.816	2.71
265.19	2.74
265.564	2.77
265.938	2.74
266.313	2.57
266.687	2.74
267.061	2.72
267.435	2.96
267.809	2.65
268.183	2.6
268.556	2.35
268.93	2.38
269.304	2.28
269.678	2.44
270.051	2.44
270.425	2.21
270.799	2.28
271.172	1.98
271.546	2.31
271.919	2.32
272.293	2.21
272.666	2.21
273.04	2.1
273.413	2.08
273.787	2.07
274.16	2
274.533	1.96
274.906	1.98
275.279	1.93
275.653	2.11
276.026	2.09
276.399	2.14
276.772	2.13
277.145	2.27
277.518	2.17
277.891	2.15
278.263	2.25
278.636	2.53
279.009	2.63
279.382	2.4
279.755	2.42
280.127	2.34
280.5	2.39
280.872	2.28
281.245	2.42
281.617	2.49
281.99	2.64
282.362	2.63
282.735	2.61
283.107	2.57
283.479	2.58
283.852	2.68
284.224	2.85
284.596	2.68
284.968	2.6
285.34	2.55
285.713	2.75
286.085	2.7
286.457	2.51
286.829	2.53
287.201	2.61
287.572	2.64
287.944	2.72
288.316	2.64
288.688	2.84
289.06	2.72
289.431	2.71
289.803	2.62
290.175	2.73
290.546	2.77
290.918	2.81
291.289	2.8
291.661	2.9
292.032	2.78
292.403	2.88
292.775	2.97
293.146	3.13
293.517	2.99
293.889	3.06
294.26	3.12
294.631	3.19
295.002	3.25
295.373	3.13
295.744	3.19
296.115	3.35
296.486	3.38
296.857	3.4
297.228	3.38
297.599	3.65
297.97	3.72
298.34	3.65
298.711	3.69
299.082	3.78
299.452	3.55
299.823	3.6
300.194	3.63
300.564	3.52
300.935	3.52
301.305	3.64
301.676	3.61
302.046	3.8
302.416	3.74
302.787	3.69
303.157	3.78
303.527	3.81
303.897	3.66
304.267	3.65
304.637	3.72
305.008	3.71
305.378	3.63
305.748	3.66
306.117	3.68
306.487	3.7
306.857	3.67
307.227	3.92
307.597	3.82
307.967	3.91
308.336	4.08
308.706	4.13
309.076	4.12
309.445	4.16
309.815	4.04
310.184	4.04
310.554	4.06
310.923	4.05
311.293	4.08
311.662	4.18
312.031	4.1
312.401	4.19
312.77	4.32
313.139	4.33
313.508	4.16
313.877	4.34
314.246	4.24
314.616	4.17
314.985	4.11
315.353	4.32
315.722	4.25
316.091	4.13
316.46	4.21
316.829	4.26
317.198	4.21
317.567	4.4
317.935	4.5
318.304	4.62
318.672	4.79
319.041	4.72
319.41	4.76
319.778	4.82
320.147	4.68
320.515	4.38
320.883	4.23
321.252	4.3
321.62	4.23
321.988	4.37
322.357	4.4
322.725	4.42
323.093	4.39
323.461	4.29
323.829	4.38
324.197	4.36
324.565	4.41
324.933	4.57
325.301	4.32
325.669	4.3
326.037	4.28
326.405	4.31
326.772	4.33
327.14	4.35
327.508	4.41
327.875	4.5
328.243	4.59
328.61	4.6
328.978	4.64
329.346	4.67
329.713	4.76
330.08	4.91
330.448	4.86
330.815	5.02
331.182	5.11
331.55	5.1
331.917	5.02
332.284	5.05
332.651	5.16
333.018	5.34
333.385	5.36
333.752	5.43
334.119	5.46
334.486	5.56
334.853	5.67
335.22	5.62
335.587	5.64
335.954	5.92
336.32	6
336.687	6.12
337.054	6.11
337.42	6.19
337.787	6.17
338.153	6.28
338.52	6.21
338.886	6.28
339.253	6.34
339.619	6.53
339.986	6.54
340.352	6.52
340.718	6.45
341.084	6.49
341.451	6.49
341.817	6.59
342.183	6.61
342.549	6.49
342.915	6.53
343.281	6.55
343.647	6.49
344.013	6.46
344.379	6.39
344.745	6.43
345.11	6.36
345.476	6.28
345.842	6.19
346.208	6.2
346.573	6.19
346.939	6.14
347.304	6.1
347.67	6.16
348.035	6.05
348.401	6.22
348.766	6.19
349.132	6.14
349.497	5.97
349.862	5.91
350.228	5.88
350.593	5.86
350.958	5.88
351.323	5.86
351.688	5.9
352.053	5.98
352.418	6.04
352.783	6.02
353.148	6.17
353.513	6.22
353.878	6.31
354.243	6.26
354.608	6.34
354.972	6.39
355.337	6.34
355.702	6.47
356.066	6.42
356.431	6.39
356.795	6.4
357.16	6.41
357.524	6.53
357.889	6.61
358.253	6.65
358.618	6.68
358.982	6.61
359.346	6.63
359.71	6.62
360.075	6.58
360.439	6.64
360.803	6.63
361.167	6.57
361.531	6.51
361.895	6.58
362.259	6.63
362.623	6.57
362.987	6.58
363.351	6.55
363.714	6.58
364.078	6.63
364.442	6.63
364.806	6.7
365.169	6.64
365.533	6.7
365.896	6.72
366.26	6.66
366.623	6.72
366.987	6.6
367.35	6.64
367.714	6.61
368.077	6.57
368.44	6.59
368.803	6.65
369.167	6.61
369.53	6.58
369.893	6.47
370.256	6.37
370.619	6.36
370.982	6.24
371.345	6.26
371.708	6.22
372.071	6.19
372.434	6.08
372.797	6.06
373.159	5.98
373.522	5.86
373.885	5.87
374.247	5.83
374.61	5.89
374.973	5.77
375.335	5.78
375.698	5.68
376.06	5.62
376.423	5.59
376.785	5.6
377.147	5.55
377.51	5.47
377.872	5.49
378.234	5.49
378.596	5.51
378.958	5.45
379.321	5.39
379.683	5.42
380.045	5.44
380.407	5.43
380.769	5.38
381.13	5.42
381.492	5.38
381.854	5.34
382.216	5.36
382.578	5.34
382.939	5.32
383.301	5.36
383.663	5.29
384.024	5.28
384.386	5.23
384.747	5.25
385.109	5.3
385.47	5.31
385.832	5.24
386.193	5.23
386.554	5.13
386.916	5.17
387.277	5.11
387.638	5.08
387.999	5
388.36	5.01
388.721	4.97
389.082	5
389.443	5.01
389.804	4.98
390.165	4.97
390.526	4.99
390.887	4.94
391.248	4.94
391.609	4.91
391.969	4.87
392.33	4.77
392.691	4.76
393.051	4.75
393.412	4.77
393.772	4.79
394.133	4.8
394.493	4.73
394.854	4.74
395.214	4.75
395.574	4.77
395.935	4.74
396.295	4.69
396.655	4.6
397.015	4.57
397.376	4.52
397.736	4.46
398.096	4.42
398.456	4.41
398.816	4.37
399.176	4.34
399.535	4.35
399.895	4.37
400.255	4.35
400.615	4.29
400.975	4.25
401.334	4.22
401.694	4.18
402.054	4.21
402.413	4.21
402.773	4.17
403.132	4.15
403.492	4.1
403.851	4.11
404.211	4.11
404.57	4.08
404.929	4.01
405.288	4.07
405.648	4.06
406.007	4.03
406.366	4.02
406.725	4.01
407.084	3.98
407.443	4
407.802	4.01
408.161	4.04
408.52	4.04
408.879	4.04
409.238	4.06
409.596	3.99
409.955	3.95
410.314	3.96
410.673	3.91
411.031	3.94
411.39	3.95
411.748	3.94
412.107	3.97
412.465	3.98
412.824	3.97
413.182	3.95
413.54	3.97
413.899	3.99
414.257	3.99
414.615	3.98
414.974	3.95
415.332	3.92
415.69	3.87
416.048	3.85
416.406	3.81
416.764	3.82
417.122	3.84
417.48	3.83
417.838	3.82
418.195	3.84
418.553	3.82
418.911	3.82
419.269	3.83
419.626	3.81
419.984	3.81
420.342	3.8
420.699	3.8
421.057	3.79
421.414	3.78
421.772	3.78
422.129	3.78
422.486	3.78
422.844	3.76
423.201	3.77
423.558	3.76
423.915	3.76
424.273	3.76
424.63	3.75
424.987	3.76
425.344	3.75
425.701	3.75
426.058	3.75
426.415	3.75
426.772	3.73
427.128	3.72
427.485	3.71
427.842	3.71
428.199	3.71
428.555	3.69
428.912	3.68
429.269	3.67
429.625	3.67
429.982	3.67
430.338	3.7
430.695	3.67
431.051	3.7
431.407	3.67
431.764	3.65
432.12	3.66
432.476	3.64
432.832	3.63
433.189	3.6
433.545	3.6
433.901	3.6
434.257	3.63
434.613	3.63
434.969	3.62
435.325	3.63
435.681	3.62
436.036	3.61
436.392	3.6
436.748	3.62
437.104	3.62
437.459	3.6
437.815	3.57
438.171	3.59
438.526	3.58
438.882	3.59
439.237	3.58
439.593	3.59
439.948	3.61
440.304	3.61
440.659	3.62
441.014	3.63
441.369	3.64
441.725	3.62
442.08	3.62
442.435	3.61
442.79	3.6
443.145	3.59
443.5	3.6
443.855	3.61
444.21	3.59
444.565	3.58
444.92	3.6
445.275	3.6
445.629	3.62
445.984	3.62
446.339	3.62
446.693	3.62
447.048	3.61
447.403	3.61
447.757	3.59
448.112	3.6
448.466	3.6
448.82	3.58
449.175	3.56
449.529	3.58
449.883	3.59
450.238	3.59
450.592	3.61
450.946	3.59
451.3	3.56
451.654	3.55
452.008	3.55
452.362	3.54
452.716	3.55
453.07	3.53
453.424	3.5
453.778	3.49
454.132	3.47
454.486	3.46
454.839	3.45
455.193	3.48
455.547	3.46
455.9	3.45
456.254	3.46
456.607	3.48
456.961	3.47
457.314	3.46
457.668	3.47
458.021	3.46
458.375	3.47
458.728	3.5
459.081	3.5
459.434	3.5
459.787	3.51
460.141	3.51
460.494	3.52
460.847	3.53
461.2	3.54
461.553	3.57
461.906	3.57
462.259	3.58
462.611	3.57
462.964	3.59
463.317	3.58
463.67	3.6
464.022	3.63
464.375	3.64
464.728	3.65
465.08	3.64
465.433	3.67
465.785	3.7
466.138	3.7
466.49	3.72
466.843	3.72
467.195	3.74
467.547	3.73
467.899	3.74
468.252	3.76
468.604	3.77
468.956	3.78
469.308	3.79
469.66	3.84
470.012	3.86
470.364	3.87
470.716	3.89
471.068	3.88
471.42	3.86
471.772	3.88
472.123	3.91
472.475	3.93
472.827	3.94
473.178	3.94
473.53	3.95
473.882	3.98
474.233	3.98
474.585	3.97
474.936	4
475.288	3.98
475.639	3.99
475.99	3.99
476.342	4
476.693	4
477.044	3.95
477.395	3.95
477.746	3.93
478.097	3.91
478.448	3.91
478.8	3.91
479.15	3.89
479.501	3.86
479.852	3.86
480.203	3.86
480.554	3.86
480.905	3.86
481.255	3.85
481.606	3.85
481.957	3.84
482.307	3.83
482.658	3.86
483.009	3.85
483.359	3.86
483.709	3.86
484.06	3.85
484.41	3.85
484.761	3.86
485.111	3.86
485.461	3.88
485.811	3.88
486.162	3.88
486.512	3.89
486.862	3.9
487.212	3.89
487.562	3.88
487.912	3.89
488.262	3.88
488.612	3.88
488.961	3.88
489.311	3.9
489.661	3.89
490.011	3.88
490.36	3.88
490.71	3.88
491.06	3.87
491.409	3.88
491.759	3.9
492.108	3.89
492.458	3.88
492.807	3.88
493.157	3.89
493.506	3.9
493.855	3.91
494.204	3.91
494.554	3.93
494.903	3.96
495.252	3.99
495.601	4.02
495.95	4.05
496.299	4.06
496.648	4.08
496.997	4.12
497.346	4.15
497.695	4.21
498.043	4.27
498.392	4.33
498.741	4.35
499.09	4.38
499.438	4.43
499.787	4.47
500.135	4.49
500.484	4.54
500.832	4.58
501.181	4.61
501.529	4.67
501.878	4.72
502.226	4.77
502.574	4.8
502.923	4.82
503.271	4.87
503.619	4.97
503.967	5.02
504.315	5.09
504.663	5.15
505.011	5.21
505.359	5.23
505.707	5.28
506.055	5.35
506.403	5.41
506.751	5.5
507.098	5.6
507.446	5.66
507.794	5.71
508.141	5.82
508.489	5.92
508.837	5.96
509.184	6.05
509.531	6.13
509.879	6.22
510.226	6.33
510.574	6.42
510.921	6.49
511.268	6.6
511.616	6.68
511.963	6.79
512.31	6.88
512.657	6.99
513.004	7.08
513.351	7.19
513.698	7.31
514.045	7.39
514.392	7.5
514.739	7.64
515.086	7.75
515.432	7.84
515.779	7.93
516.126	8.04
516.473	8.15
516.819	8.23
517.166	8.32
517.512	8.38
517.859	8.47
518.205	8.54
518.552	8.6
518.898	8.68
519.245	8.72
519.591	8.81
519.937	8.89
520.283	8.99
520.629	9.06
520.976	9.14
521.322	9.23
521.668	9.3
522.014	9.4
522.36	9.51
522.706	9.61
523.052	9.74
523.398	9.85
523.743	9.95
524.089	10.09
524.435	10.21
524.781	10.34
525.126	10.43
525.472	10.54
525.817	10.64
526.163	10.72
526.509	10.82
526.854	10.9
527.199	10.97
527.545	11.04
527.89	11.12
528.235	11.2
528.581	11.29
528.926	11.39
529.271	11.47
529.616	11.58
529.961	11.67
530.306	11.76
530.651	11.88
530.996	12.01
531.341	12.14
531.686	12.24
532.031	12.38
532.376	12.52
532.721	12.66
533.065	12.82
533.41	12.98
533.755	13.12
534.099	13.27
534.444	13.42
534.788	13.56
535.133	13.72
535.477	13.9
535.822	14.07
536.166	14.25
536.51	14.45
536.855	14.63
537.199	14.85
537.543	15.05
537.887	15.27
538.231	15.48
538.576	15.7
538.92	15.93
539.264	16.12
539.608	16.32
539.951	16.49
540.295	16.64
540.639	16.8
540.983	17.01
541.327	17.22
541.671	17.43
542.014	17.64
542.358	17.82
542.701	18.01
543.045	18.2
543.389	18.36
543.732	18.56
544.075	18.78
544.419	19
544.762	19.21
545.105	19.4
545.449	19.63
545.792	19.85
546.135	20.07
546.478	20.35
546.821	20.61
547.165	20.92
547.508	21.19
547.851	21.52
548.194	21.79
548.536	22.03
548.879	22.29
549.222	22.55
549.565	22.81
549.908	23.07
550.25	23.39
550.593	23.72
550.936	23.95
551.278	24.21
551.621	24.48
551.963	24.84
552.306	25.21
552.648	25.53
552.991	25.81
553.333	26.09
553.675	26.38
554.017	26.65
554.36	26.93
554.702	27.19
555.044	27.48
555.386	27.75
555.728	28.08
556.07	28.36
556.412	28.7
556.754	29.03
557.096	29.32
557.438	29.59
557.78	29.89
558.121	30.25
558.463	30.48
558.805	30.71
559.147	30.99
559.488	31.15
559.83	31.35
560.171	31.57
560.513	31.87
560.854	32.17
561.196	32.46
561.537	32.69
561.878	32.97
562.22	33.23
562.561	33.45
562.902	33.6
563.243	33.87
563.584	34.08
563.925	34.32
564.266	34.52
564.607	34.77
564.948	34.98
565.289	35.16
565.63	35.4
565.971	35.62
566.312	35.78
566.653	35.99
566.993	36.17
567.334	36.43
567.675	36.65
568.015	36.77
568.356	36.93
568.696	37.22
569.037	37.45
569.377	37.63
569.718	37.84
570.058	38.11
570.398	38.29
570.739	38.52
571.079	38.66
571.419	38.92
571.759	39.08
572.099	39.24
572.439	39.45
572.779	39.64
573.119	39.81
573.459	40.01
573.799	40.19
574.139	40.41
574.479	40.54
574.819	40.72
575.158	40.95
575.498	41.14
575.838	41.22
576.177	41.34
576.517	41.5
576.856	41.57
577.196	41.69
577.535	41.83
577.875	41.87
578.214	42.04
578.553	42.08
578.893	42.19
579.232	42.31
579.571	42.5
579.91	42.71
580.25	42.87
580.589	42.93
580.928	43.05
581.267	43.1
581.606	43.22
581.945	43.3
582.283	43.36
582.622	43.52
582.961	43.67
583.3	43.79
583.639	43.87
583.977	44.08
584.316	44.15
584.654	44.24
584.993	44.51
585.332	44.64
585.67	44.76
586.008	44.94
586.347	45.1
586.685	45.14
587.024	45.23
587.362	45.3
587.7	45.42
588.038	45.57
588.376	45.64
588.715	45.73
589.053	45.78
589.391	45.85
589.729	45.85
590.067	45.98
590.404	46.16
590.742	46.24
591.08	46.35
591.418	46.47
591.756	46.59
592.093	46.61
592.431	46.65
592.769	46.78
593.106	46.81
593.444	46.8
593.781	46.86
594.119	46.89
594.456	47
594.793	47.03
595.131	47.08
595.468	47.22
595.805	47.32
596.143	47.43
596.48	47.49
596.817	47.61
597.154	47.6
597.491	47.59
597.828	47.61
598.165	47.69
598.502	47.77
598.839	47.9
599.176	47.95
599.512	48.07
599.849	48.06
600.186	48.13
600.523	48.26
600.859	48.37
601.196	48.45
601.532	48.51
601.869	48.63
602.205	48.7
602.542	48.71
602.878	48.75
603.215	48.79
603.551	48.9
603.887	48.9
604.223	48.98
604.56	49.06
604.896	49.15
605.232	49.1
605.568	49.12
605.904	49.08
606.24	49.12
606.576	49.18
606.912	49.3
607.248	49.3
607.583	49.36
607.919	49.36
608.255	49.38
608.591	49.44
608.926	49.49
609.262	49.56
609.597	49.69
609.933	49.75
610.268	49.77
610.604	49.76
610.939	49.81
611.275	49.81
611.61	49.84
611.945	49.91
612.281	50.03
612.616	50.04
612.951	50.12
613.286	50.14
613.621	50.14
613.956	50.18
614.291	50.34
614.626	50.35
614.961	50.41
615.296	50.4
615.631	50.44
615.966	50.4
616.3	50.42
616.635	50.44
616.97	50.5
617.304	50.6
617.639	50.66
617.973	50.71
618.308	50.76
618.642	50.76
618.977	50.71
619.311	50.76
619.646	50.89
619.98	50.92
620.314	51.06
620.648	51.17
620.983	51.21
621.317	51.13
621.651	51.27
621.985	51.32
622.319	51.33
622.653	51.36
622.987	51.46
623.321	51.49
623.655	51.46
623.988	51.44
624.322	51.52
624.656	51.55
624.99	51.57
625.323	51.57
625.657	51.63
625.99	51.68
626.324	51.65
626.657	51.62
626.991	51.62
627.324	51.54
627.658	51.46
627.991	51.49
628.324	51.55
628.657	51.51
628.991	51.57
629.324	51.72
629.657	51.68
629.99	51.66
630.323	51.67
630.656	51.72
630.989	51.78
631.322	51.74
631.655	51.77
631.987	51.83
632.32	51.89
632.653	51.97
632.986	52.06
633.318	52.12
633.651	52.16
633.984	52.24
634.316	52.3
634.649	52.31
634.981	52.3
635.313	52.42
635.646	52.5
635.978	52.48
636.31	52.49
636.643	52.52
636.975	52.57
637.307	52.6
637.639	52.64
637.971	52.76
638.303	52.67
638.635	52.67
638.967	52.66
639.299	52.66
639.631	52.44
639.963	52.33
640.295	52.29
640.626	52.23
640.958	52.23
641.29	52.3
641.621	52.36
641.953	52.33
642.285	52.28
642.616	52.26
642.948	52.26
643.279	52.14
643.61	52.25
643.942	52.27
644.273	52.18
644.604	52.22
644.936	52.07
645.267	52.16
645.598	52.2
645.929	52.21
646.26	52.18
646.591	52.41
646.922	52.56
647.253	52.71
647.584	52.95
647.915	53.01
648.245	53.09
648.576	53.25
648.907	53.34
649.238	53.34
649.568	53.3
649.899	53.39
650.229	53.48
650.56	53.52
650.89	53.56
651.221	53.63
651.551	53.63
651.882	53.67
652.212	53.68
652.542	53.71
652.872	53.85
653.203	53.95
653.533	54.02
653.863	53.99
654.193	54.03
654.523	53.99
654.853	53.84
655.183	53.87
655.513	53.87
655.843	53.94
656.172	54
656.502	54.06
656.832	54.02
657.162	53.98
657.491	54.01
657.821	53.99
658.15	54.03
658.48	54.01
658.809	54.06
659.139	54.13
659.468	54.16
659.798	54.13
660.127	54.17
660.456	54.09
660.785	54.1
661.115	54.12
661.444	54.19
661.773	54.37
662.102	54.35
662.431	54.31
662.76	54.22
663.089	54.17
663.418	54.14
663.747	54.17
664.076	54.23
664.404	54.13
664.733	54.21
665.062	54.2
665.39	54.26
