Data from MVZ_BU147393_Reflection_00005.txt Node
Date: Tue Nov 19 12:06:56 EST 2019
User: vgr7
Spectrometer: USB2G7710
Scans to average: 3
Trigger mode: 4
Integration Time (sec): 2.000000E-2
Electric dark correction enabled: true
Boxcar width: 10
XAxis mode: Wavelengths
Number of Pixels in Spectrum: 2048
>>>>>Begin Spectral Data<<<<<
177.721	40.27
178.105	4350
178.488	-28.94
178.871	-159.37
179.254	-13.64
179.636	26.29
180.019	98.2
180.402	-600
180.785	-23.86
181.168	141.26
181.55	-356.9
181.933	-45.49
182.316	-86.38
182.698	-256.19
183.081	-112.63
183.463	-99.78
183.846	-309.29
184.228	-158.98
184.611	-225.63
184.993	-473.08
185.376	8662.5
185.758	32850
186.14	990
186.522	97.88
186.904	-90
187.287	64.29
187.669	63.46
188.051	204.91
188.433	87.6
188.815	159.42
189.197	75.87
189.579	77.79
189.961	73.25
190.342	73.4
190.724	30.81
191.106	29.89
191.488	50.87
191.869	55.45
192.251	50.5
192.633	55.37
193.014	59.92
193.396	53.78
193.777	55.15
194.159	45.79
194.54	61.19
194.922	64.29
195.303	75.67
195.684	63.91
196.065	55.52
196.447	67.14
196.828	67.17
197.209	78.23
197.59	71.16
197.971	64.4
198.352	46.45
198.733	45.79
199.114	28.14
199.495	15.89
199.876	5.08
200.257	7.84
200.638	15.95
201.018	8.62
201.399	22.79
201.78	9.19
202.16	25.46
202.541	25.22
202.922	31.28
203.302	25.41
203.683	32.18
204.063	32.22
204.444	28.87
204.824	30.1
205.204	27.48
205.585	29.97
205.965	27.56
206.345	30.33
206.725	43.15
207.106	53.89
207.486	43.77
207.866	46.1
208.246	49.67
208.626	48.36
209.006	51.82
209.386	43.56
209.766	50.6
210.145	56.59
210.525	49.67
210.905	53.29
211.285	49.36
211.664	59.39
212.044	59.97
212.424	61.74
212.803	63.45
213.183	54.48
213.562	43.78
213.942	42.46
214.321	36.01
214.701	19.23
215.08	6.57
215.459	4.51
215.838	-6.55
216.218	-27.95
216.597	-49.89
216.976	-126.4
217.355	-180.36
217.734	-156.39
218.113	-121.85
218.492	-108.73
218.871	-114.36
219.25	-91.54
219.629	-150
220.008	-100.79
220.387	-131.76
220.766	-111.5
221.144	-128.4
221.523	-156.18
221.902	-152.09
222.28	-155.08
222.659	-21.2
223.037	9.46
223.416	21.76
223.794	26.88
224.173	25.63
224.551	31.06
224.929	27.53
225.308	24.03
225.686	26.79
226.064	14.38
226.442	19.57
226.821	22.17
227.199	17.16
227.577	16.61
227.955	14.41
228.333	9.6
228.711	12.33
229.089	12.51
229.467	18.62
229.845	21.64
230.222	22.93
230.6	15.54
230.978	13.87
231.356	13.27
231.733	10.63
232.111	11.37
232.488	11.51
232.866	12.47
233.243	15.36
233.621	15.95
233.998	17.28
234.376	16.86
234.753	15.3
235.13	16.15
235.508	14.26
235.885	14.02
236.262	15.27
236.639	12.61
237.016	9.83
237.393	8.18
237.77	6.38
238.147	5.17
238.524	6.58
238.901	5.32
239.278	5.19
239.655	5.63
240.032	5.74
240.409	5.38
240.785	5.77
241.162	5.38
241.539	5.32
241.915	5.19
242.292	5.05
242.668	5.06
243.045	4.98
243.421	4.69
243.798	4.54
244.174	4.42
244.551	4.86
244.927	5.34
245.303	5.23
245.679	5.31
246.056	5.22
246.432	5.05
246.808	5.44
247.184	5.68
247.56	5.59
247.936	5.5
248.312	5.7
248.688	5.78
249.064	5.39
249.44	5.33
249.815	5.33
250.191	5.46
250.567	5.58
250.943	5.56
251.318	5.7
251.694	5.68
252.069	5.56
252.445	5.51
252.82	5.65
253.196	5.72
253.571	5.92
253.947	5.89
254.322	5.77
254.697	5.55
255.073	4.97
255.448	4.8
255.823	4.73
256.198	4.47
256.573	4.35
256.948	4.75
257.323	4.67
257.698	4.5
258.073	4.18
258.448	4.13
258.823	4.14
259.198	4.08
259.573	4.08
259.948	4.22
260.322	4.09
260.697	3.97
261.072	4.09
261.446	4.19
261.821	4.34
262.195	4.41
262.57	4.45
262.944	4.56
263.319	4.46
263.693	4.35
264.067	4.43
264.442	4.31
264.816	4.27
265.19	4.22
265.564	4.32
265.938	4.52
266.313	4.42
266.687	4.25
267.061	4.31
267.435	4.37
267.809	4.2
268.183	4.41
268.556	4.41
268.93	4.42
269.304	4.08
269.678	4.05
270.051	4.06
270.425	3.98
270.799	4
271.172	4.25
271.546	4.44
271.919	4.39
272.293	4.55
272.666	4.44
273.04	4.48
273.413	4.38
273.787	4.39
274.16	4.37
274.533	4.45
274.906	4.54
275.279	4.6
275.653	4.86
276.026	4.73
276.399	4.7
276.772	4.69
277.145	4.73
277.518	4.42
277.891	4.44
278.263	4.6
278.636	4.5
279.009	4.34
279.382	4.27
279.755	4.33
280.127	4.09
280.5	4.1
280.872	4.25
281.245	4.21
281.617	4.31
281.99	4.47
282.362	4.57
282.735	4.4
283.107	4.21
283.479	4.11
283.852	4.19
284.224	4.29
284.596	4.24
284.968	4.18
285.34	4.26
285.713	4.25
286.085	4.03
286.457	4.18
286.829	4.13
287.201	4.05
287.572	3.97
287.944	4.14
288.316	4.11
288.688	4.05
289.06	4.07
289.431	4.01
289.803	3.93
290.175	3.72
290.546	3.74
290.918	3.93
291.289	3.81
291.661	3.83
292.032	3.67
292.403	3.74
292.775	3.91
293.146	4.1
293.517	3.99
293.889	4.09
294.26	4.05
294.631	4.17
295.002	4.1
295.373	4.15
295.744	4.1
296.115	4.23
296.486	4.27
296.857	4.27
297.228	4.05
297.599	4.01
297.97	4.19
298.34	4.22
298.711	4.23
299.082	4.2
299.452	4.16
299.823	4.14
300.194	4.02
300.564	3.95
300.935	3.95
301.305	3.96
301.676	3.92
302.046	3.89
302.416	3.95
302.787	3.96
303.157	3.88
303.527	3.82
303.897	3.81
304.267	3.85
304.637	3.89
305.008	4.08
305.378	4.1
305.748	4.12
306.117	4.03
306.487	3.9
306.857	4.01
307.227	4.13
307.597	4.25
307.967	4.3
308.336	4.37
308.706	4.34
309.076	4.53
309.445	4.68
309.815	4.59
310.184	4.43
310.554	4.61
310.923	4.58
311.293	4.57
311.662	4.5
312.031	4.43
312.401	4.38
312.77	4.28
313.139	4.28
313.508	4.16
313.877	4.29
314.246	4.24
314.616	4.15
314.985	4.06
315.353	4.09
315.722	4
316.091	3.88
316.46	3.7
316.829	3.5
317.198	3.38
317.567	3.56
317.935	3.55
318.304	3.4
318.672	3.42
319.041	3.44
319.41	3.38
319.778	3.23
320.147	3.23
320.515	3.37
320.883	3.29
321.252	3.44
321.62	3.22
321.988	3.37
322.357	3.49
322.725	3.39
323.093	3.24
323.461	3.23
323.829	3.32
324.197	3.39
324.565	3.44
324.933	3.38
325.301	3.21
325.669	3.38
326.037	3.44
326.405	3.52
326.772	3.61
327.14	3.58
327.508	3.61
327.875	3.54
328.243	3.5
328.61	3.66
328.978	3.63
329.346	3.78
329.713	3.85
330.08	3.89
330.448	3.96
330.815	4.04
331.182	4.05
331.55	3.97
331.917	4.01
332.284	4.09
332.651	3.99
333.018	4.06
333.385	4.02
333.752	4.04
334.119	4
334.486	3.96
334.853	3.99
335.22	3.92
335.587	3.97
335.954	3.97
336.32	3.81
336.687	3.69
337.054	3.68
337.42	3.51
337.787	3.41
338.153	3.41
338.52	3.36
338.886	3.52
339.253	3.53
339.619	3.47
339.986	3.46
340.352	3.69
340.718	3.63
341.084	3.48
341.451	3.45
341.817	3.45
342.183	3.35
342.549	3.47
342.915	3.57
343.281	3.64
343.647	3.64
344.013	3.75
344.379	3.73
344.745	3.7
345.11	3.67
345.476	3.68
345.842	3.57
346.208	3.62
346.573	3.49
346.939	3.52
347.304	3.54
347.67	3.53
348.035	3.46
348.401	3.5
348.766	3.53
349.132	3.53
349.497	3.6
349.862	3.64
350.228	3.55
350.593	3.55
350.958	3.6
351.323	3.6
351.688	3.61
352.053	3.65
352.418	3.71
352.783	3.71
353.148	3.63
353.513	3.67
353.878	3.64
354.243	3.57
354.608	3.62
354.972	3.66
355.337	3.63
355.702	3.67
356.066	3.66
356.431	3.71
356.795	3.75
357.16	3.74
357.524	3.72
357.889	3.79
358.253	3.78
358.618	3.7
358.982	3.73
359.346	3.72
359.71	3.66
360.075	3.66
360.439	3.75
360.803	3.86
361.167	3.85
361.531	3.78
361.895	3.87
362.259	3.9
362.623	3.91
362.987	3.93
363.351	3.91
363.714	3.85
364.078	3.83
364.442	3.8
364.806	3.83
365.169	3.76
365.533	3.7
365.896	3.75
366.26	3.75
366.623	3.74
366.987	3.75
367.35	3.95
367.714	3.92
368.077	3.88
368.44	3.86
368.803	3.96
369.167	4.01
369.53	3.97
369.893	3.87
370.256	3.81
370.619	3.78
370.982	3.72
371.345	3.8
371.708	3.76
372.071	3.68
372.434	3.61
372.797	3.75
373.159	3.78
373.522	3.67
373.885	3.69
374.247	3.7
374.61	3.68
374.973	3.57
375.335	3.54
375.698	3.48
376.06	3.48
376.423	3.43
376.785	3.49
377.147	3.46
377.51	3.49
377.872	3.56
378.234	3.6
378.596	3.68
378.958	3.65
379.321	3.62
379.683	3.65
380.045	3.68
380.407	3.64
380.769	3.65
381.13	3.72
381.492	3.68
381.854	3.7
382.216	3.72
382.578	3.72
382.939	3.75
383.301	3.77
383.663	3.79
384.024	3.74
384.386	3.7
384.747	3.71
385.109	3.71
385.47	3.66
385.832	3.61
386.193	3.58
386.554	3.61
386.916	3.66
387.277	3.68
387.638	3.67
387.999	3.68
388.36	3.67
388.721	3.69
389.082	3.73
389.443	3.68
389.804	3.67
390.165	3.7
390.526	3.69
390.887	3.68
391.248	3.64
391.609	3.65
391.969	3.63
392.33	3.62
392.691	3.63
393.051	3.67
393.412	3.68
393.772	3.69
394.133	3.65
394.493	3.64
394.854	3.64
395.214	3.66
395.574	3.66
395.935	3.63
396.295	3.61
396.655	3.62
397.015	3.6
397.376	3.59
397.736	3.55
398.096	3.54
398.456	3.59
398.816	3.58
399.176	3.58
399.535	3.58
399.895	3.57
400.255	3.52
400.615	3.49
400.975	3.48
401.334	3.47
401.694	3.47
402.054	3.47
402.413	3.49
402.773	3.48
403.132	3.44
403.492	3.47
403.851	3.45
404.211	3.47
404.57	3.49
404.929	3.46
405.288	3.47
405.648	3.48
406.007	3.46
406.366	3.46
406.725	3.51
407.084	3.53
407.443	3.57
407.802	3.59
408.161	3.6
408.52	3.62
408.879	3.65
409.238	3.67
409.596	3.7
409.955	3.67
410.314	3.63
410.673	3.64
411.031	3.62
411.39	3.61
411.748	3.62
412.107	3.6
412.465	3.61
412.824	3.62
413.182	3.61
413.54	3.64
413.899	3.65
414.257	3.62
414.615	3.61
414.974	3.6
415.332	3.6
415.69	3.58
416.048	3.59
416.406	3.55
416.764	3.55
417.122	3.53
417.48	3.55
417.838	3.56
418.195	3.56
418.553	3.56
418.911	3.58
419.269	3.57
419.626	3.57
419.984	3.57
420.342	3.57
420.699	3.59
421.057	3.59
421.414	3.57
421.772	3.57
422.129	3.58
422.486	3.59
422.844	3.59
423.201	3.6
423.558	3.59
423.915	3.61
424.273	3.6
424.63	3.59
424.987	3.59
425.344	3.6
425.701	3.61
426.058	3.61
426.415	3.6
426.772	3.58
427.128	3.59
427.485	3.59
427.842	3.58
428.199	3.57
428.555	3.55
428.912	3.55
429.269	3.56
429.625	3.56
429.982	3.57
430.338	3.56
430.695	3.55
431.051	3.56
431.407	3.55
431.764	3.55
432.12	3.59
432.476	3.59
432.832	3.61
433.189	3.59
433.545	3.58
433.901	3.58
434.257	3.59
434.613	3.59
434.969	3.6
435.325	3.58
435.681	3.59
436.036	3.61
436.392	3.62
436.748	3.6
437.104	3.59
437.459	3.58
437.815	3.56
438.171	3.56
438.526	3.56
438.882	3.56
439.237	3.55
439.593	3.54
439.948	3.54
440.304	3.51
440.659	3.55
441.014	3.55
441.369	3.56
441.725	3.55
442.08	3.56
442.435	3.55
442.79	3.57
443.145	3.55
443.5	3.54
443.855	3.54
444.21	3.55
444.565	3.55
444.92	3.54
445.275	3.57
445.629	3.58
445.984	3.6
446.339	3.61
446.693	3.61
447.048	3.6
447.403	3.62
447.757	3.63
448.112	3.61
448.466	3.61
448.82	3.6
449.175	3.6
449.529	3.59
449.883	3.58
450.238	3.57
450.592	3.58
450.946	3.58
451.3	3.58
451.654	3.56
452.008	3.56
452.362	3.57
452.716	3.56
453.07	3.54
453.424	3.52
453.778	3.5
454.132	3.51
454.486	3.52
454.839	3.5
455.193	3.51
455.547	3.52
455.9	3.52
456.254	3.54
456.607	3.53
456.961	3.55
457.314	3.56
457.668	3.57
458.021	3.58
458.375	3.58
458.728	3.57
459.081	3.58
459.434	3.58
459.787	3.59
460.141	3.61
460.494	3.61
460.847	3.62
461.2	3.63
461.553	3.63
461.906	3.63
462.259	3.63
462.611	3.63
462.964	3.62
463.317	3.6
463.67	3.6
464.022	3.63
464.375	3.62
464.728	3.63
465.08	3.6
465.433	3.59
465.785	3.61
466.138	3.61
466.49	3.62
466.843	3.62
467.195	3.63
467.547	3.61
467.899	3.61
468.252	3.61
468.604	3.62
468.956	3.64
469.308	3.63
469.66	3.65
470.012	3.65
470.364	3.66
470.716	3.69
471.068	3.7
471.42	3.68
471.772	3.69
472.123	3.71
472.475	3.74
472.827	3.74
473.178	3.72
473.53	3.74
473.882	3.76
474.233	3.78
474.585	3.77
474.936	3.8
475.288	3.8
475.639	3.81
475.99	3.79
476.342	3.8
476.693	3.79
477.044	3.8
477.395	3.8
477.746	3.78
478.097	3.81
478.448	3.79
478.8	3.8
479.15	3.78
479.501	3.78
479.852	3.76
480.203	3.78
480.554	3.78
480.905	3.76
481.255	3.76
481.606	3.76
481.957	3.74
482.307	3.73
482.658	3.74
483.009	3.73
483.359	3.73
483.709	3.73
484.06	3.73
484.41	3.72
484.761	3.72
485.111	3.73
485.461	3.72
485.811	3.72
486.162	3.71
486.512	3.72
486.862	3.73
487.212	3.74
487.562	3.74
487.912	3.74
488.262	3.75
488.612	3.75
488.961	3.75
489.311	3.76
489.661	3.77
490.011	3.75
490.36	3.75
490.71	3.75
491.06	3.75
491.409	3.77
491.759	3.76
492.108	3.75
492.458	3.74
492.807	3.75
493.157	3.75
493.506	3.75
493.855	3.74
494.204	3.73
494.554	3.73
494.903	3.72
495.252	3.73
495.601	3.73
495.95	3.71
496.299	3.72
496.648	3.73
496.997	3.74
497.346	3.74
497.695	3.75
498.043	3.76
498.392	3.75
498.741	3.75
499.09	3.76
499.438	3.8
499.787	3.82
500.135	3.82
500.484	3.83
500.832	3.85
501.181	3.84
501.529	3.86
501.878	3.88
502.226	3.91
502.574	3.91
502.923	3.9
503.271	3.92
503.619	3.93
503.967	3.9
504.315	3.9
504.663	3.92
505.011	3.92
505.359	3.92
505.707	3.94
506.055	3.95
506.403	3.94
506.751	3.94
507.098	3.94
507.446	3.96
507.794	4
508.141	4
508.489	4.01
508.837	4.01
509.184	3.99
509.531	3.97
509.879	3.98
510.226	3.99
510.574	4
510.921	4
511.268	4.02
511.616	4.03
511.963	4.04
512.31	4.05
512.657	4.04
513.004	4.04
513.351	4.03
513.698	4.05
514.045	4.04
514.392	4.04
514.739	4.02
515.086	4.01
515.432	4.02
515.779	4.04
516.126	4.05
516.473	4.08
516.819	4.08
517.166	4.07
517.512	4.06
517.859	4.08
518.205	4.07
518.552	4.07
518.898	4.08
519.245	4.11
519.591	4.13
519.937	4.16
520.283	4.19
520.629	4.21
520.976	4.21
521.322	4.21
521.668	4.23
522.014	4.25
522.36	4.25
522.706	4.26
523.052	4.26
523.398	4.25
523.743	4.22
524.089	4.25
524.435	4.27
524.781	4.27
525.126	4.27
525.472	4.29
525.817	4.3
526.163	4.3
526.509	4.29
526.854	4.28
527.199	4.29
527.545	4.3
527.89	4.3
528.235	4.3
528.581	4.31
528.926	4.31
529.271	4.31
529.616	4.31
529.961	4.31
530.306	4.31
530.651	4.32
530.996	4.34
531.341	4.34
531.686	4.34
532.031	4.36
532.376	4.37
532.721	4.37
533.065	4.38
533.41	4.38
533.755	4.39
534.099	4.4
534.444	4.38
534.788	4.38
535.133	4.37
535.477	4.39
535.822	4.39
536.166	4.4
536.51	4.4
536.855	4.39
537.199	4.39
537.543	4.39
537.887	4.38
538.231	4.37
538.576	4.35
538.92	4.36
539.264	4.38
539.608	4.38
539.951	4.38
540.295	4.37
540.639	4.38
540.983	4.38
541.327	4.39
541.671	4.4
542.014	4.41
542.358	4.43
542.701	4.42
543.045	4.43
543.389	4.44
543.732	4.44
544.075	4.47
544.419	4.47
544.762	4.49
545.105	4.51
545.449	4.54
545.792	4.57
546.135	4.59
546.478	4.57
546.821	4.58
547.165	4.58
547.508	4.58
547.851	4.58
548.194	4.58
548.536	4.56
548.879	4.56
549.222	4.56
549.565	4.56
549.908	4.54
550.25	4.54
550.593	4.55
550.936	4.55
551.278	4.52
551.621	4.53
551.963	4.54
552.306	4.53
552.648	4.51
552.991	4.49
553.333	4.49
553.675	4.54
554.017	4.51
554.36	4.53
554.702	4.55
555.044	4.55
555.386	4.56
555.728	4.57
556.07	4.54
556.412	4.55
556.754	4.52
557.096	4.54
557.438	4.57
557.78	4.55
558.121	4.57
558.463	4.56
558.805	4.59
559.147	4.59
559.488	4.55
559.83	4.57
560.171	4.55
560.513	4.54
560.854	4.49
561.196	4.49
561.537	4.51
561.878	4.49
562.22	4.49
562.561	4.5
562.902	4.49
563.243	4.52
563.584	4.52
563.925	4.56
564.266	4.54
564.607	4.52
564.948	4.52
565.289	4.52
565.63	4.53
565.971	4.51
566.312	4.47
566.653	4.5
566.993	4.48
567.334	4.52
567.675	4.53
568.015	4.54
568.356	4.58
568.696	4.55
569.037	4.56
569.377	4.55
569.718	4.54
570.058	4.56
570.398	4.6
570.739	4.55
571.079	4.55
571.419	4.56
571.759	4.58
572.099	4.6
572.439	4.6
572.779	4.59
573.119	4.57
573.459	4.62
573.799	4.59
574.139	4.6
574.479	4.6
574.819	4.62
575.158	4.61
575.498	4.59
575.838	4.63
576.177	4.62
576.517	4.64
576.856	4.61
577.196	4.59
577.535	4.54
577.875	4.56
578.214	4.56
578.553	4.58
578.893	4.59
579.232	4.57
579.571	4.61
579.91	4.66
580.25	4.69
580.589	4.66
580.928	4.72
581.267	4.69
581.606	4.68
581.945	4.63
582.283	4.62
582.622	4.61
582.961	4.62
583.3	4.63
583.639	4.64
583.977	4.67
584.316	4.72
584.654	4.78
584.993	4.77
585.332	4.76
585.67	4.75
586.008	4.74
586.347	4.73
586.685	4.67
587.024	4.68
587.362	4.71
587.7	4.71
588.038	4.75
588.376	4.78
588.715	4.77
589.053	4.75
589.391	4.8
589.729	4.82
590.067	4.83
590.404	4.81
590.742	4.81
591.08	4.82
591.418	4.8
591.756	4.82
592.093	4.81
592.431	4.84
592.769	4.84
593.106	4.82
593.444	4.83
593.781	4.86
594.119	4.82
594.456	4.8
594.793	4.79
595.131	4.73
595.468	4.76
595.805	4.77
596.143	4.81
596.48	4.76
596.817	4.79
597.154	4.77
597.491	4.78
597.828	4.77
598.165	4.76
598.502	4.75
598.839	4.7
599.176	4.72
599.512	4.7
599.849	4.72
600.186	4.68
600.523	4.71
600.859	4.75
601.196	4.77
601.532	4.77
601.869	4.8
602.205	4.82
602.542	4.8
602.878	4.8
603.215	4.83
603.551	4.83
603.887	4.81
604.223	4.78
604.56	4.79
604.896	4.82
605.232	4.84
605.568	4.86
605.904	4.85
606.24	4.87
606.576	4.88
606.912	4.87
607.248	4.95
607.583	4.96
607.919	4.9
608.255	4.93
608.591	4.95
608.926	4.98
609.262	4.98
609.597	4.99
609.933	4.94
610.268	4.96
610.604	4.97
610.939	4.96
611.275	5.02
611.61	5.02
611.945	4.98
612.281	4.98
612.616	5
612.951	5.07
613.286	5.07
613.621	5.1
613.956	5.13
614.291	5.08
614.626	5.06
614.961	5.12
615.296	5.12
615.631	5.11
615.966	5.11
616.3	5.15
616.635	5.12
616.97	5.19
617.304	5.18
617.639	5.19
617.973	5.22
618.308	5.19
618.642	5.21
618.977	5.27
619.311	5.26
619.646	5.25
619.98	5.22
620.314	5.2
620.648	5.15
620.983	5.06
621.317	5.04
621.651	5.05
621.985	5.03
622.319	4.98
622.653	4.94
622.987	4.93
623.321	4.91
623.655	4.93
623.988	4.93
624.322	4.9
624.656	4.92
624.99	4.95
625.323	4.97
625.657	4.94
625.99	4.93
626.324	4.9
626.657	4.9
626.991	4.91
627.324	4.91
627.658	4.88
627.991	4.95
628.324	4.96
628.657	4.94
628.991	4.93
629.324	4.94
629.657	4.96
629.99	4.97
630.323	4.92
630.656	4.89
630.989	4.88
631.322	4.82
631.655	4.83
631.987	4.82
632.32	4.8
632.653	4.78
632.986	4.79
633.318	4.81
633.651	4.79
633.984	4.78
634.316	4.84
634.649	4.9
634.981	4.92
635.313	4.94
635.646	4.95
635.978	5.01
636.31	5.03
636.643	5.02
636.975	5.05
637.307	5.14
637.639	5.14
637.971	5.15
638.303	5.24
638.635	5.25
638.967	5.23
639.299	5.19
639.631	5.23
639.963	5.28
640.295	5.33
640.626	5.43
640.958	5.45
641.29	5.43
641.621	5.44
641.953	5.33
642.285	5.33
642.616	5.33
642.948	5.33
643.279	5.28
643.61	5.38
643.942	5.33
644.273	5.31
644.604	5.41
644.936	5.38
645.267	5.43
645.598	5.41
645.929	5.37
646.26	5.44
646.591	5.43
646.922	5.46
647.253	5.45
647.584	5.44
647.915	5.51
648.245	5.52
648.576	5.41
648.907	5.59
649.238	5.59
649.568	5.61
649.899	5.53
650.229	5.57
650.56	5.53
650.89	5.57
651.221	5.55
651.551	5.5
651.882	5.53
652.212	5.45
652.542	5.52
652.872	5.54
653.203	5.55
653.533	5.56
653.863	5.49
654.193	5.4
654.523	5.27
654.853	5.24
655.183	5.24
655.513	5.35
655.843	5.27
656.172	5.27
656.502	5.25
656.832	5.27
657.162	5.25
657.491	5.28
657.821	5.23
658.15	5.22
658.48	5.27
658.809	5.26
659.139	5.35
659.468	5.34
659.798	5.43
660.127	5.4
660.456	5.35
660.785	5.35
661.115	5.45
661.444	5.54
661.773	5.55
662.102	5.55
662.431	5.6
662.76	5.63
663.089	5.68
663.418	5.7
663.747	5.78
664.076	5.83
664.404	5.82
664.733	5.87
665.062	5.89
665.39	5.82
665.719	5.85
666.048	5.82
666.376	5.82
666.705	5.73
667.033	5.75
667.362	5.89
667.69	5.92
668.018	5.87
668.347	5.88
668.675	5.87
669.003	5.79
669.331	5.8
669.659	5.75
669.987	5.76
670.315	5.79
670.643	5.77
670.971	5.77
671.299	5.79
671.627	5.78
671.955	5.76
672.283	5.81
672.61	5.86
672.938	5.8
673.266	5.71
673.593	5.74
673.921	5.8
674.249	5.69
674.576	5.74
674.904	5.68
675.231	5.59
675.558	5.52
675.886	5.57
676.213	5.5
676.54	5.6
676.867	5.5
677.195	5.5
677.522	5.51
677.849	5.49
678.176	5.54
678.503	5.56
678.83	5.57
