Data from MVZ_BU163024_Reflection_00009.txt Node
Date: Tue Nov 19 12:11:39 EST 2019
User: vgr7
Spectrometer: USB2G7710
Scans to average: 3
Trigger mode: 4
Integration Time (sec): 2.000000E-2
Electric dark correction enabled: true
Boxcar width: 10
XAxis mode: Wavelengths
Number of Pixels in Spectrum: 2048
>>>>>Begin Spectral Data<<<<<
177.721	-304.76
178.105	-55.7
178.488	-65.08
178.871	-78.49
179.254	-78.79
179.636	297.92
180.019	83.57
180.402	-69.23
180.785	-64.76
181.168	-55.37
181.55	-36.24
181.933	-17.92
182.316	-23.96
182.698	-28.77
183.081	-31.03
183.463	-34.13
183.846	-37.49
184.228	-15.82
184.611	-16.42
184.993	-36.08
185.376	-43.68
185.758	-120.97
186.14	-78.36
186.522	-105.29
186.904	-136.05
187.287	-76.13
187.669	-125.79
188.051	-98.27
188.433	-62.36
188.815	-87.14
189.197	-91.25
189.579	-152.79
189.961	-118.71
190.342	-126.25
190.724	-76.04
191.106	-96.03
191.488	-55.91
191.869	-50.95
192.251	-153.22
192.633	-240.84
193.014	-209.52
193.396	-100.15
193.777	-38.35
194.159	-33.6
194.54	-66.67
194.922	-43.61
195.303	-98.99
195.684	2.3
196.065	-25.47
196.447	25.47
196.828	-27.83
197.209	-61.64
197.59	-52.72
197.971	-39.38
198.352	-9.86
198.733	7.3
199.114	32.55
199.495	80.17
199.876	76.6
200.257	162.65
200.638	245.26
201.018	204.72
201.399	125.31
201.78	242.7
202.16	146.1
202.541	127.39
202.922	130.22
203.302	207.84
203.683	-1253.33
204.063	-569.7
204.444	-1137.37
204.824	-952.38
205.204	1301.15
205.585	-5304.76
205.965	840.31
206.345	-1892.06
206.725	237.47
207.106	105.34
207.486	58.01
207.866	36.78
208.246	41.55
208.626	44.81
209.006	36.52
209.386	46.8
209.766	28.67
210.145	58.58
210.525	53.07
210.905	36.21
211.285	44.16
211.664	55.62
212.044	45.97
212.424	39.6
212.803	42.09
213.183	45.28
213.562	47.52
213.942	45.23
214.321	34.9
214.701	48.55
215.08	52.74
215.459	62.11
215.838	52
216.218	46.36
216.597	36.4
216.976	36.73
217.355	38.26
217.734	25.07
218.113	17.42
218.492	28.27
218.871	28.63
219.25	30.54
219.629	3.37
220.008	17.87
220.387	20.67
220.766	26.91
221.144	12.02
221.523	-2.49
221.902	0.69
222.28	14.08
222.659	8.34
223.037	-1.96
223.416	-4.94
223.794	8.55
224.173	4.79
224.551	5.22
224.929	-1.13
225.308	1.85
225.686	6.45
226.064	1.87
226.442	2.55
226.821	3.67
227.199	0.34
227.577	-0.71
227.955	6.44
228.333	-0.45
228.711	-1.4
229.089	5.4
229.467	7.17
229.845	2.59
230.222	0.14
230.6	5.54
230.978	7.94
231.356	10.33
231.733	11.85
232.111	12.17
232.488	12.98
232.866	15.88
233.243	13.05
233.621	13.25
233.998	14.18
234.376	11.8
234.753	11.57
235.13	11.45
235.508	11.84
235.885	8.85
236.262	10.82
236.639	10.25
237.016	9.8
237.393	10.58
237.77	11.6
238.147	10.41
238.524	8.65
238.901	7.42
239.278	6.86
239.655	7
240.032	6.37
240.409	5.91
240.785	5.11
241.162	5.46
241.539	5.71
241.915	5.71
242.292	5.55
242.668	5.97
243.045	5.91
243.421	6.16
243.798	6.28
244.174	6.05
244.551	6.22
244.927	5.67
245.303	5.28
245.679	5.17
246.056	5.41
246.432	5.76
246.808	6.1
247.184	6.12
247.56	5.63
247.936	5.68
248.312	5.72
248.688	6.12
249.064	5.81
249.44	5.68
249.815	5.63
250.191	5.54
250.567	5.13
250.943	5.25
251.318	5.21
251.694	4.9
252.069	5.13
252.445	5.15
252.82	5.57
253.196	6.05
253.571	6.05
253.947	6.12
254.322	5.36
254.697	5.17
255.073	4.88
255.448	4.72
255.823	5.08
256.198	5.02
256.573	4.62
256.948	5.05
257.323	4.88
257.698	4.63
258.073	4.66
258.448	4.98
258.823	4.61
259.198	4.59
259.573	4.68
259.948	4.55
260.322	4.42
260.697	4.34
261.072	4.15
261.446	4.28
261.821	4.16
262.195	4.27
262.57	4.3
262.944	4.61
263.319	4.84
263.693	4.77
264.067	4.77
264.442	4.85
264.816	4.61
265.19	4.56
265.564	4.64
265.938	4.68
266.313	4.68
266.687	4.87
267.061	4.93
267.435	5.01
267.809	4.86
268.183	4.58
268.556	4.56
268.93	4.72
269.304	4.5
269.678	4.44
270.051	4.43
270.425	4.41
270.799	3.95
271.172	3.98
271.546	3.89
271.919	3.92
272.293	3.88
272.666	3.99
273.04	4
273.413	3.83
273.787	3.86
274.16	3.73
274.533	3.81
274.906	3.78
275.279	3.65
275.653	3.84
276.026	4.06
276.399	3.94
276.772	4
277.145	4.24
277.518	4.18
277.891	4.26
278.263	4.36
278.636	4.64
279.009	4.6
279.382	4.64
279.755	4.59
280.127	4.67
280.5	4.59
280.872	4.7
281.245	4.82
281.617	4.83
281.99	4.96
282.362	5.01
282.735	5.02
283.107	4.99
283.479	4.93
283.852	4.9
284.224	4.89
284.596	4.83
284.968	4.65
285.34	4.76
285.713	4.86
286.085	4.68
286.457	4.64
286.829	4.67
287.201	4.61
287.572	4.61
287.944	4.59
288.316	4.49
288.688	4.51
289.06	4.55
289.431	4.67
289.803	4.64
290.175	4.5
290.546	4.5
290.918	4.55
291.289	4.57
291.661	4.63
292.032	4.86
292.403	4.75
292.775	4.89
293.146	4.9
293.517	4.82
293.889	4.85
294.26	4.8
294.631	4.71
295.002	4.82
295.373	4.87
295.744	4.97
296.115	5.16
296.486	5.17
296.857	5.33
297.228	5.18
297.599	5.1
297.97	5.33
298.34	5.36
298.711	5.4
299.082	5.23
299.452	5.22
299.823	5.15
300.194	5.32
300.564	5.36
300.935	5.45
301.305	5.52
301.676	5.49
302.046	5.51
302.416	5.65
302.787	5.63
303.157	5.68
303.527	5.67
303.897	5.79
304.267	5.81
304.637	5.84
305.008	5.92
305.378	6.09
305.748	6.03
306.117	6.06
306.487	6.17
306.857	6.41
307.227	6.62
307.597	6.58
307.967	6.55
308.336	6.54
308.706	6.53
309.076	6.57
309.445	6.78
309.815	6.93
310.184	6.97
310.554	7.03
310.923	7
311.293	7.03
311.662	6.93
312.031	7.01
312.401	6.97
312.77	6.95
313.139	7.01
313.508	7.04
313.877	6.99
314.246	6.91
314.616	6.93
314.985	6.9
315.353	7.03
315.722	7.05
316.091	7.13
316.46	7.1
316.829	7.08
317.198	7.07
317.567	7.12
317.935	7.27
318.304	7.44
318.672	7.41
319.041	7.59
319.41	7.68
319.778	7.78
320.147	7.81
320.515	7.96
320.883	7.79
321.252	7.9
321.62	8.15
321.988	8.21
322.357	8.34
322.725	8.4
323.093	8.38
323.461	8.49
323.829	8.36
324.197	8.44
324.565	8.49
324.933	8.56
325.301	8.49
325.669	8.35
326.037	8.28
326.405	8.55
326.772	8.54
327.14	8.48
327.508	8.38
327.875	8.45
328.243	8.39
328.61	8.41
328.978	8.35
329.346	8.28
329.713	8.36
330.08	8.43
330.448	8.36
330.815	8.52
331.182	8.48
331.55	8.63
331.917	8.58
332.284	8.75
332.651	8.83
333.018	9.02
333.385	9.13
333.752	9.25
334.119	9.24
334.486	9.32
334.853	9.31
335.22	9.36
335.587	9.28
335.954	9.21
336.32	9.23
336.687	9.38
337.054	9.46
337.42	9.46
337.787	9.5
338.153	9.67
338.52	9.7
338.886	9.74
339.253	9.74
339.619	9.88
339.986	9.79
340.352	9.79
340.718	9.8
341.084	9.76
341.451	9.73
341.817	9.72
342.183	9.6
342.549	9.74
342.915	9.84
343.281	9.95
343.647	10.09
344.013	10.28
344.379	10.24
344.745	10.21
345.11	10.14
345.476	10.1
345.842	10.01
346.208	9.98
346.573	9.92
346.939	10
347.304	9.98
347.67	10.02
348.035	9.96
348.401	9.97
348.766	9.99
349.132	10.11
349.497	10.1
349.862	10.13
350.228	10.12
350.593	10.11
350.958	10.09
351.323	10.12
351.688	10.04
352.053	10.1
352.418	10.13
352.783	10.16
353.148	10.14
353.513	10.14
353.878	10.01
354.243	10.06
354.608	10.03
354.972	10.03
355.337	10.01
355.702	10.04
356.066	9.93
356.431	10.04
356.795	9.98
357.16	9.97
357.524	10
357.889	10.02
358.253	9.97
358.618	9.93
358.982	9.86
359.346	9.89
359.71	9.87
360.075	9.86
360.439	9.93
360.803	9.92
361.167	9.87
361.531	9.93
361.895	9.9
362.259	9.92
362.623	9.95
362.987	9.89
363.351	9.87
363.714	9.88
364.078	9.79
364.442	9.77
364.806	9.72
365.169	9.7
365.533	9.62
365.896	9.55
366.26	9.58
366.623	9.55
366.987	9.56
367.35	9.5
367.714	9.44
368.077	9.33
368.44	9.37
368.803	9.34
369.167	9.19
369.53	9.14
369.893	9.06
370.256	8.99
370.619	8.95
370.982	8.77
371.345	8.73
371.708	8.68
372.071	8.65
372.434	8.65
372.797	8.58
373.159	8.52
373.522	8.5
373.885	8.44
374.247	8.37
374.61	8.23
374.973	8.19
375.335	8.14
375.698	8.08
376.06	7.9
376.423	7.87
376.785	7.96
377.147	7.92
377.51	7.9
377.872	7.8
378.234	7.76
378.596	7.83
378.958	7.82
379.321	7.73
379.683	7.65
380.045	7.54
380.407	7.5
380.769	7.46
381.13	7.4
381.492	7.21
381.854	7.2
382.216	7.16
382.578	7.05
382.939	6.99
383.301	6.92
383.663	6.94
384.024	6.93
384.386	6.82
384.747	6.75
385.109	6.66
385.47	6.6
385.832	6.53
386.193	6.51
386.554	6.4
386.916	6.39
387.277	6.31
387.638	6.27
387.999	6.25
388.36	6.23
388.721	6.16
389.082	6.19
389.443	6.17
389.804	6.16
390.165	6.18
390.526	6.15
390.887	6.14
391.248	6.09
391.609	6.01
391.969	5.94
392.33	5.92
392.691	5.88
393.051	5.88
393.412	5.91
393.772	5.88
394.133	5.85
394.493	5.8
394.854	5.78
395.214	5.75
395.574	5.66
395.935	5.62
396.295	5.61
396.655	5.59
397.015	5.53
397.376	5.48
397.736	5.42
398.096	5.36
398.456	5.29
398.816	5.21
399.176	5.15
399.535	5.13
399.895	5.11
400.255	5.08
400.615	5.02
400.975	4.95
401.334	4.91
401.694	4.9
402.054	4.92
402.413	4.91
402.773	4.91
403.132	4.91
403.492	4.85
403.851	4.79
404.211	4.75
404.57	4.71
404.929	4.69
405.288	4.71
405.648	4.73
406.007	4.75
406.366	4.79
406.725	4.79
407.084	4.8
407.443	4.76
407.802	4.75
408.161	4.75
408.52	4.71
408.879	4.7
409.238	4.72
409.596	4.67
409.955	4.63
410.314	4.62
410.673	4.63
411.031	4.63
411.39	4.69
411.748	4.68
412.107	4.68
412.465	4.66
412.824	4.58
413.182	4.54
413.54	4.51
413.899	4.47
414.257	4.49
414.615	4.47
414.974	4.48
415.332	4.46
415.69	4.43
416.048	4.43
416.406	4.4
416.764	4.34
417.122	4.32
417.48	4.33
417.838	4.28
418.195	4.25
418.553	4.26
418.911	4.23
419.269	4.23
419.626	4.23
419.984	4.2
420.342	4.17
420.699	4.17
421.057	4.14
421.414	4.13
421.772	4.1
422.129	4.06
422.486	4.05
422.844	4.02
423.201	4.01
423.558	4
423.915	3.99
424.273	3.97
424.63	3.98
424.987	3.97
425.344	3.97
425.701	3.95
426.058	3.93
426.415	3.91
426.772	3.88
427.128	3.87
427.485	3.87
427.842	3.91
428.199	3.9
428.555	3.91
428.912	3.89
429.269	3.88
429.625	3.91
429.982	3.9
430.338	3.91
430.695	3.89
431.051	3.88
431.407	3.89
431.764	3.88
432.12	3.87
432.476	3.86
432.832	3.87
433.189	3.88
433.545	3.89
433.901	3.88
434.257	3.89
434.613	3.87
434.969	3.87
435.325	3.86
435.681	3.86
436.036	3.85
436.392	3.85
436.748	3.87
437.104	3.86
437.459	3.87
437.815	3.88
438.171	3.88
438.526	3.91
438.882	3.89
439.237	3.9
439.593	3.91
439.948	3.89
440.304	3.87
440.659	3.85
441.014	3.84
441.369	3.84
441.725	3.84
442.08	3.83
442.435	3.83
442.79	3.8
443.145	3.78
443.5	3.77
443.855	3.74
444.21	3.74
444.565	3.74
444.92	3.73
445.275	3.73
445.629	3.72
445.984	3.71
446.339	3.72
446.693	3.73
447.048	3.71
447.403	3.7
447.757	3.7
448.112	3.71
448.466	3.72
448.82	3.72
449.175	3.73
449.529	3.74
449.883	3.74
450.238	3.75
450.592	3.76
450.946	3.76
451.3	3.78
451.654	3.75
452.008	3.72
452.362	3.7
452.716	3.69
453.07	3.69
453.424	3.68
453.778	3.64
454.132	3.62
454.486	3.63
454.839	3.62
455.193	3.63
455.547	3.63
455.9	3.61
456.254	3.59
456.607	3.58
456.961	3.6
457.314	3.59
457.668	3.59
458.021	3.59
458.375	3.59
458.728	3.58
459.081	3.6
459.434	3.6
459.787	3.64
460.141	3.64
460.494	3.66
460.847	3.66
461.2	3.67
461.553	3.68
461.906	3.69
462.259	3.7
462.611	3.7
462.964	3.7
463.317	3.71
463.67	3.73
464.022	3.74
464.375	3.74
464.728	3.75
465.08	3.77
465.433	3.78
465.785	3.8
466.138	3.82
466.49	3.84
466.843	3.87
467.195	3.85
467.547	3.85
467.899	3.86
468.252	3.88
468.604	3.9
468.956	3.9
469.308	3.89
469.66	3.9
470.012	3.92
470.364	3.93
470.716	3.91
471.068	3.91
471.42	3.93
471.772	3.94
472.123	3.94
472.475	3.95
472.827	3.94
473.178	3.95
473.53	3.97
473.882	3.97
474.233	3.99
474.585	4
474.936	4.02
475.288	4.01
475.639	3.97
475.99	3.96
476.342	3.98
476.693	4
477.044	4
477.395	3.98
477.746	3.99
478.097	4.01
478.448	4
478.8	4
479.15	3.98
479.501	3.97
479.852	3.97
480.203	3.97
480.554	3.97
480.905	3.96
481.255	3.96
481.606	3.93
481.957	3.92
482.307	3.92
482.658	3.93
483.009	3.94
483.359	3.94
483.709	3.93
484.06	3.93
484.41	3.93
484.761	3.94
485.111	3.94
485.461	3.93
485.811	3.92
486.162	3.92
486.512	3.93
486.862	3.94
487.212	3.93
487.562	3.93
487.912	3.92
488.262	3.92
488.612	3.91
488.961	3.93
489.311	3.94
489.661	3.93
490.011	3.93
490.36	3.93
490.71	3.94
491.06	3.95
491.409	3.93
491.759	3.93
492.108	3.93
492.458	3.94
492.807	3.95
493.157	3.99
493.506	4.01
493.855	4.01
494.204	4.01
494.554	4.02
494.903	4.05
495.252	4.07
495.601	4.11
495.95	4.14
496.299	4.16
496.648	4.19
496.997	4.22
497.346	4.27
497.695	4.32
498.043	4.36
498.392	4.39
498.741	4.45
499.09	4.51
499.438	4.57
499.787	4.6
500.135	4.65
500.484	4.69
500.832	4.74
501.181	4.8
501.529	4.88
501.878	4.95
502.226	5.01
502.574	5.07
502.923	5.13
503.271	5.21
503.619	5.29
503.967	5.36
504.315	5.43
504.663	5.5
505.011	5.61
505.359	5.69
505.707	5.81
506.055	5.91
506.403	6.01
506.751	6.09
507.098	6.21
507.446	6.32
507.794	6.44
508.141	6.56
508.489	6.71
508.837	6.83
509.184	6.97
509.531	7.08
509.879	7.23
510.226	7.34
510.574	7.46
510.921	7.59
511.268	7.75
511.616	7.91
511.963	8.05
512.31	8.2
512.657	8.38
513.004	8.49
513.351	8.65
513.698	8.83
514.045	9.02
514.392	9.23
514.739	9.42
515.086	9.62
515.432	9.81
515.779	9.95
516.126	10.13
516.473	10.29
516.819	10.48
517.166	10.67
517.512	10.83
517.859	11.02
518.205	11.18
518.552	11.32
518.898	11.46
519.245	11.64
519.591	11.8
519.937	11.98
520.283	12.17
520.629	12.36
520.976	12.54
521.322	12.75
521.668	12.94
522.014	13.13
522.36	13.32
522.706	13.52
523.052	13.78
523.398	14.04
523.743	14.28
524.089	14.54
524.435	14.78
524.781	15
525.126	15.22
525.472	15.44
525.817	15.63
526.163	15.83
526.509	15.99
526.854	16.14
527.199	16.28
527.545	16.45
527.89	16.6
528.235	16.77
528.581	16.91
528.926	17.07
529.271	17.26
529.616	17.43
529.961	17.62
530.306	17.8
530.651	17.96
530.996	18.18
531.341	18.39
531.686	18.63
532.031	18.87
532.376	19.09
532.721	19.33
533.065	19.59
533.41	19.83
533.755	20.08
534.099	20.34
534.444	20.62
534.788	20.85
535.133	21.13
535.477	21.38
535.822	21.64
536.166	21.92
536.51	22.21
536.855	22.53
537.199	22.84
537.543	23.17
537.887	23.53
538.231	23.86
538.576	24.17
538.92	24.47
539.264	24.76
539.608	25.07
539.951	25.33
540.295	25.63
540.639	25.91
540.983	26.2
541.327	26.5
541.671	26.71
542.014	26.99
542.358	27.24
542.701	27.53
543.045	27.8
543.389	28.05
543.732	28.29
544.075	28.54
544.419	28.8
544.762	29.08
545.105	29.36
545.449	29.63
545.792	29.97
546.135	30.29
546.478	30.65
546.821	30.98
547.165	31.38
547.508	31.69
547.851	32.02
548.194	32.35
548.536	32.65
548.879	32.97
549.222	33.32
549.565	33.67
549.908	33.96
550.25	34.27
550.593	34.62
550.936	34.97
551.278	35.32
551.621	35.68
551.963	36.01
552.306	36.34
552.648	36.69
552.991	36.93
553.333	37.23
553.675	37.56
554.017	37.84
554.36	38.07
554.702	38.27
555.044	38.56
555.386	38.8
555.728	39.09
556.07	39.43
556.412	39.67
556.754	39.85
557.096	40.14
557.438	40.47
557.78	40.73
558.121	41.01
558.463	41.36
558.805	41.64
559.147	41.89
559.488	42.14
559.83	42.44
560.171	42.74
560.513	43
560.854	43.22
561.196	43.48
561.537	43.69
561.878	44.03
562.22	44.26
562.561	44.56
562.902	44.81
563.243	45.06
563.584	45.25
563.925	45.55
564.266	45.8
564.607	46.03
564.948	46.21
565.289	46.47
565.63	46.6
565.971	46.76
566.312	46.95
566.653	47.12
566.993	47.25
567.334	47.4
567.675	47.61
568.015	47.78
568.356	47.93
568.696	48.19
569.037	48.34
569.377	48.51
569.718	48.66
570.058	48.78
570.398	48.95
570.739	49.17
571.079	49.37
571.419	49.49
571.759	49.61
572.099	49.8
572.439	49.93
572.779	50.12
573.119	50.26
573.459	50.39
573.799	50.46
574.139	50.6
574.479	50.75
574.819	50.84
575.158	50.95
575.498	51.13
575.838	51.19
576.177	51.28
576.517	51.4
576.856	51.6
577.196	51.78
577.535	51.97
577.875	52.09
578.214	52.22
578.553	52.37
578.893	52.49
579.232	52.6
579.571	52.78
579.91	52.86
580.25	53
580.589	53.17
580.928	53.4
581.267	53.57
581.606	53.75
581.945	53.82
582.283	53.97
582.622	54.1
582.961	54.26
583.3	54.36
583.639	54.44
583.977	54.43
584.316	54.5
584.654	54.53
584.993	54.66
585.332	54.66
585.67	54.75
586.008	54.83
586.347	54.91
586.685	54.97
587.024	55.13
587.362	55.27
587.7	55.41
588.038	55.49
588.376	55.55
588.715	55.54
589.053	55.67
589.391	55.77
589.729	55.88
590.067	56.03
590.404	56.2
590.742	56.27
591.08	56.31
591.418	56.41
591.756	56.49
592.093	56.57
592.431	56.66
592.769	56.67
593.106	56.71
593.444	56.84
593.781	56.87
594.119	56.86
594.456	56.94
594.793	56.92
595.131	57.06
595.468	57.06
595.805	57.19
596.143	57.28
596.48	57.28
596.817	57.29
597.154	57.26
597.491	57.28
597.828	57.43
598.165	57.48
598.502	57.49
598.839	57.47
599.176	57.44
599.512	57.49
599.849	57.64
600.186	57.69
600.523	57.67
600.859	57.73
601.196	57.81
601.532	57.77
601.869	57.87
602.205	57.86
602.542	58.05
602.878	58.04
603.215	58.04
603.551	58.09
603.887	58.13
604.223	58.13
604.56	58.21
604.896	58.22
605.232	58.25
605.568	58.35
605.904	58.41
606.24	58.55
606.576	58.61
606.912	58.6
607.248	58.67
607.583	58.71
607.919	58.78
608.255	58.78
608.591	58.89
608.926	58.91
609.262	58.94
609.597	58.85
609.933	58.92
610.268	59.04
610.604	59.1
610.939	59.24
611.275	59.4
611.61	59.39
611.945	59.38
612.281	59.49
612.616	59.45
612.951	59.49
613.286	59.46
613.621	59.48
613.956	59.49
614.291	59.5
614.626	59.53
614.961	59.45
615.296	59.59
615.631	59.51
615.966	59.55
616.3	59.7
616.635	59.87
616.97	59.89
617.304	59.82
617.639	59.83
617.973	59.81
618.308	59.77
618.642	59.78
618.977	59.8
619.311	59.77
619.646	59.74
619.98	59.84
620.314	59.88
620.648	59.91
620.983	60.03
621.317	60.08
621.651	60.23
621.985	60.17
622.319	60.24
622.653	60.28
622.987	60.3
623.321	60.2
623.655	60.17
623.988	60.22
624.322	60.31
624.656	60.27
624.99	60.27
625.323	60.36
625.657	60.52
625.99	60.56
626.324	60.71
626.657	60.85
626.991	60.77
627.324	60.75
627.658	60.76
627.991	60.81
628.324	60.75
628.657	60.68
628.991	60.84
629.324	60.76
629.657	60.91
629.99	60.91
630.323	60.86
630.656	60.83
630.989	60.8
631.322	60.77
631.655	60.95
631.987	61.04
632.32	60.99
632.653	60.84
632.986	60.83
633.318	60.73
633.651	60.73
633.984	60.83
634.316	60.85
634.649	60.92
634.981	60.87
635.313	60.92
635.646	61.01
635.978	61.08
636.31	61.07
636.643	60.99
636.975	60.98
637.307	61.17
637.639	61.15
637.971	61.22
638.303	61.23
638.635	61.14
638.967	61.16
639.299	61.16
639.631	61.24
639.963	61.34
640.295	61.3
640.626	61.33
640.958	61.31
641.29	61.37
641.621	61.21
641.953	61.26
642.285	61.39
642.616	61.43
642.948	61.4
643.279	61.51
643.61	61.49
643.942	61.54
644.273	61.54
644.604	61.57
644.936	61.46
645.267	61.47
645.598	61.6
645.929	61.47
646.26	61.51
646.591	61.52
646.922	61.51
647.253	61.58
647.584	61.73
647.915	61.75
648.245	61.72
648.576	61.89
648.907	61.82
649.238	61.8
649.568	61.78
649.899	61.82
650.229	61.75
650.56	61.88
650.89	61.8
651.221	61.79
651.551	61.84
651.882	61.86
652.212	61.92
652.542	61.88
652.872	61.9
653.203	61.88
653.533	61.79
653.863	61.77
654.193	61.69
654.523	61.51
654.853	61.52
655.183	61.63
655.513	61.66
655.843	61.71
656.172	61.94
656.502	61.95
656.832	61.92
657.162	61.93
657.491	61.93
657.821	62.07
658.15	61.97
658.48	62.08
658.809	62.16
659.139	62.13
659.468	62.04
659.798	62.07
660.127	62.14
660.456	62.11
660.785	62.13
661.115	62.24
661.444	62.29
661.773	62.36
662.102	62.27
662.431	62.37
662.76	62.45
663.089	62.42
663.418	62.3
663.747	62.44
664.076	62.48
664.404	62.67
664.733	62.64
665.062	62.77
665.39	62.76
665.719	62.91
666.048	62.91
666.376	62.94
666.705	63.06
667.033	62.99
