Data from MVZ_BU8942_Reflection_00014.txt Node
Date: Tue Nov 19 12:04:15 EST 2019
User: vgr7
Spectrometer: USB2G7710
Scans to average: 3
Trigger mode: 4
Integration Time (sec): 2.000000E-2
Electric dark correction enabled: true
Boxcar width: 10
XAxis mode: Wavelengths
Number of Pixels in Spectrum: 2048
>>>>>Begin Spectral Data<<<<<
177.721	102.29
178.105	87.01
178.488	21.35
178.871	-100
179.254	-520
179.636	5.11
180.019	-73.27
180.402	100
180.785	134
181.168	-120.93
181.55	778.57
181.933	-209.32
182.316	-209.39
182.698	-389.44
183.081	-367.63
183.463	-561.16
183.846	-179.11
184.228	-238.57
184.611	-157.26
184.993	-107.89
185.376	-88.58
185.758	-64.34
186.14	-74.47
186.522	-183.9
186.904	-128.13
187.287	-206.45
187.669	-202.63
188.051	-114.57
188.433	-102.17
188.815	-164.93
189.197	-66.26
189.579	-56.84
189.961	-52.51
190.342	12.81
190.724	60.55
191.106	66.51
191.488	44.54
191.869	40.39
192.251	27.05
192.633	12.93
193.014	-5.17
193.396	-3.49
193.777	-0.09
194.159	-23.48
194.54	-20.02
194.922	-21.71
195.303	-22.68
195.684	-21.07
196.065	-35.51
196.447	-34.01
196.828	-18.81
197.209	-13.31
197.59	4.4
197.971	-8.7
198.352	-11.61
198.733	-54.28
199.114	-75.77
199.495	-75.68
199.876	-95.57
200.257	-74.34
200.638	-39.24
201.018	-45.04
201.399	-57.36
201.78	-48.71
202.16	-23.47
202.541	-31.15
202.922	-69.68
203.302	-26.85
203.683	-25
204.063	9.09
204.444	20.6
204.824	5.41
205.204	-10.86
205.585	-5.58
205.965	-14.73
206.345	-30.19
206.725	-3.42
207.106	14.4
207.486	16.77
207.866	17.5
208.246	30.93
208.626	3.19
209.006	-12.81
209.386	-11.28
209.766	-56.1
210.145	-55.67
210.525	-39.19
210.905	9.09
211.285	9.09
211.664	37.07
212.044	12.61
212.424	0.28
212.803	-2.58
213.183	2.53
213.562	-10.97
213.942	1.44
214.321	10.01
214.701	14.76
215.08	-11.72
215.459	7.95
215.838	-4.57
216.218	-22.24
216.597	13.79
216.976	36.77
217.355	27.51
217.734	16.41
218.113	69.26
218.492	52.69
218.871	33.59
219.25	12.77
219.629	-14.86
220.008	14.44
220.387	4.12
220.766	-0.43
221.144	-23.8
221.523	-27.86
221.902	-23.01
222.28	-23.98
222.659	-11.15
223.037	-11.81
223.416	-18.1
223.794	-13.13
224.173	-18.06
224.551	-25.19
224.929	-32.42
225.308	-28.58
225.686	-25
226.064	-30.26
226.442	-23.14
226.821	-26.52
227.199	-23.46
227.577	-23.95
227.955	-24.13
228.333	-22.92
228.711	-20.6
229.089	-14.43
229.467	-16.21
229.845	-14.66
230.222	-14.46
230.6	-16.99
230.978	-16.2
231.356	-14.83
231.733	-10.59
232.111	-6.88
232.488	-5.79
232.866	-3.75
233.243	-3.93
233.621	-1.67
233.998	-2.09
234.376	-4.68
234.753	-3.62
235.13	-1.13
235.508	-1.25
235.885	-1.5
236.262	-2.7
236.639	-2.77
237.016	-3.82
237.393	-1.66
237.77	-1.79
238.147	0.23
238.524	-0.53
238.901	-0.35
239.278	-0.66
239.655	-1.63
240.032	-1.06
240.409	-0.73
240.785	-0.02
241.162	0.72
241.539	0.25
241.915	0.75
242.292	1.31
242.668	1.9
243.045	1.7
243.421	2.22
243.798	2.73
244.174	3.09
244.551	2.93
244.927	3.15
245.303	2.93
245.679	3.01
246.056	2.79
246.432	3.1
246.808	3.4
247.184	3.42
247.56	3.32
247.936	3.26
248.312	3.64
248.688	3.71
249.064	3.69
249.44	3.98
249.815	4.12
250.191	4.24
250.567	4.33
250.943	4.58
251.318	4.38
251.694	4.19
252.069	4.09
252.445	4.52
252.82	4.76
253.196	5.16
253.571	5.38
253.947	5.76
254.322	5.86
254.697	5.49
255.073	5.59
255.448	5.77
255.823	5.6
256.198	4.96
256.573	4.77
256.948	4.66
257.323	4.37
257.698	4.19
258.073	4.17
258.448	3.9
258.823	3.74
259.198	3.9
259.573	3.77
259.948	3.81
260.322	3.65
260.697	3.68
261.072	3.65
261.446	3.56
261.821	3.36
262.195	3.42
262.57	3.44
262.944	3.38
263.319	3.36
263.693	3.26
264.067	3.39
264.442	3.37
264.816	3.55
265.19	3.6
265.564	3.66
265.938	3.67
266.313	3.72
266.687	3.72
267.061	3.6
267.435	3.77
267.809	3.66
268.183	3.75
268.556	3.51
268.93	3.55
269.304	3.47
269.678	3.51
270.051	3.45
270.425	3.51
270.799	3.48
271.172	3.48
271.546	3.68
271.919	3.71
272.293	3.87
272.666	3.57
273.04	3.4
273.413	3.32
273.787	3.21
274.16	3.21
274.533	3.22
274.906	3.37
275.279	3.24
275.653	3.34
276.026	3.33
276.399	3.45
276.772	3.5
277.145	3.55
277.518	3.56
277.891	3.67
278.263	3.77
278.636	3.84
279.009	3.91
279.382	3.86
279.755	3.72
280.127	3.42
280.5	3.43
280.872	3.51
281.245	3.51
281.617	3.59
281.99	3.56
282.362	3.64
282.735	3.56
283.107	3.65
283.479	3.64
283.852	3.61
284.224	3.62
284.596	3.57
284.968	3.59
285.34	3.64
285.713	3.58
286.085	3.46
286.457	3.5
286.829	3.45
287.201	3.46
287.572	3.56
287.944	3.7
288.316	3.7
288.688	3.82
289.06	3.82
289.431	3.83
289.803	3.8
290.175	3.77
290.546	3.73
290.918	3.65
291.289	3.69
291.661	3.73
292.032	3.72
292.403	3.72
292.775	3.91
293.146	3.92
293.517	4
293.889	4.04
294.26	3.92
294.631	3.98
295.002	3.99
295.373	4.09
295.744	4.07
296.115	4.18
296.486	4.18
296.857	4.34
297.228	4.31
297.599	4.48
297.97	4.5
298.34	4.62
298.711	4.65
299.082	4.73
299.452	4.71
299.823	4.81
300.194	4.87
300.564	4.75
300.935	4.9
301.305	4.83
301.676	4.88
302.046	4.99
302.416	4.94
302.787	4.95
303.157	4.82
303.527	4.92
303.897	5.05
304.267	5.03
304.637	4.97
305.008	4.98
305.378	4.97
305.748	5.06
306.117	5.06
306.487	5.21
306.857	5.23
307.227	5.36
307.597	5.36
307.967	5.4
308.336	5.5
308.706	5.44
309.076	5.61
309.445	5.74
309.815	5.83
310.184	5.97
310.554	6.02
310.923	6.25
311.293	6.27
311.662	6.32
312.031	6.4
312.401	6.54
312.77	6.55
313.139	6.66
313.508	6.7
313.877	6.64
314.246	6.77
314.616	6.9
314.985	7
315.353	7.11
315.722	7.33
316.091	7.45
316.46	7.63
316.829	7.85
317.198	8.01
317.567	8.23
317.935	8.19
318.304	8.39
318.672	8.42
319.041	8.56
319.41	8.68
319.778	8.83
320.147	8.84
320.515	9.05
320.883	9.01
321.252	9.16
321.62	9.35
321.988	9.33
322.357	9.21
322.725	9.18
323.093	9.19
323.461	9.14
323.829	9.26
324.197	9.17
324.565	8.99
324.933	8.86
325.301	8.72
325.669	8.86
326.037	8.92
326.405	8.9
326.772	8.99
327.14	8.86
327.508	8.9
327.875	8.98
328.243	8.99
328.61	9.1
328.978	9.11
329.346	9.15
329.713	9.27
330.08	9.46
330.448	9.64
330.815	9.61
331.182	9.58
331.55	9.41
331.917	9.63
332.284	9.68
332.651	9.81
333.018	9.82
333.385	10.03
333.752	10.02
334.119	10.06
334.486	9.99
334.853	10.11
335.22	10.07
335.587	10.11
335.954	10.1
336.32	10.05
336.687	10.1
337.054	10.08
337.42	10.03
337.787	9.97
338.153	9.96
338.52	10.13
338.886	10.19
339.253	10.27
339.619	10.13
339.986	10.18
340.352	10.16
340.718	10.25
341.084	10.13
341.451	10.14
341.817	10.14
342.183	10.1
342.549	10.2
342.915	10.25
343.281	10.28
343.647	10.39
344.013	10.42
344.379	10.47
344.745	10.53
345.11	10.66
345.476	10.75
345.842	10.69
346.208	10.72
346.573	10.83
346.939	10.86
347.304	10.92
347.67	10.93
348.035	10.88
348.401	11
348.766	11.09
349.132	11.23
349.497	11.29
349.862	11.52
350.228	11.52
350.593	11.61
350.958	11.56
351.323	11.47
351.688	11.54
352.053	11.54
352.418	11.55
352.783	11.52
353.148	11.48
353.513	11.53
353.878	11.46
354.243	11.33
354.608	11.5
354.972	11.5
355.337	11.46
355.702	11.54
356.066	11.54
356.431	11.67
356.795	11.55
357.16	11.5
357.524	11.48
357.889	11.42
358.253	11.46
358.618	11.42
358.982	11.49
359.346	11.46
359.71	11.42
360.075	11.46
360.439	11.5
360.803	11.49
361.167	11.46
361.531	11.43
361.895	11.44
362.259	11.39
362.623	11.38
362.987	11.41
363.351	11.43
363.714	11.41
364.078	11.28
364.442	11.29
364.806	11.31
365.169	11.22
365.533	11.23
365.896	11.19
366.26	11.25
366.623	11.25
366.987	11.25
367.35	11.23
367.714	11.17
368.077	11.08
368.44	11.15
368.803	11.11
369.167	11.1
369.53	11.1
369.893	11.02
370.256	10.99
370.619	10.95
370.982	10.86
371.345	10.76
371.708	10.74
372.071	10.65
372.434	10.58
372.797	10.53
373.159	10.41
373.522	10.36
373.885	10.26
374.247	10.13
374.61	10.08
374.973	10.04
375.335	10
375.698	9.89
376.06	9.8
376.423	9.76
376.785	9.73
377.147	9.68
377.51	9.66
377.872	9.55
378.234	9.5
378.596	9.38
378.958	9.47
379.321	9.34
379.683	9.35
380.045	9.29
380.407	9.3
380.769	9.29
381.13	9.19
381.492	9.09
381.854	9.11
382.216	9.11
382.578	9.03
382.939	8.97
383.301	8.93
383.663	8.89
384.024	8.82
384.386	8.79
384.747	8.71
385.109	8.64
385.47	8.63
385.832	8.58
386.193	8.56
386.554	8.44
386.916	8.44
387.277	8.39
387.638	8.33
387.999	8.22
388.36	8.13
388.721	8.05
389.082	8.08
389.443	7.99
389.804	7.91
390.165	7.88
390.526	7.86
390.887	7.85
391.248	7.75
391.609	7.75
391.969	7.67
392.33	7.61
392.691	7.57
393.051	7.56
393.412	7.51
393.772	7.5
394.133	7.43
394.493	7.37
394.854	7.31
395.214	7.27
395.574	7.28
395.935	7.24
396.295	7.22
396.655	7.13
397.015	7.12
397.376	7.09
397.736	7.04
398.096	7.01
398.456	6.91
398.816	6.89
399.176	6.77
399.535	6.71
399.895	6.68
400.255	6.62
400.615	6.51
400.975	6.47
401.334	6.43
401.694	6.44
402.054	6.43
402.413	6.45
402.773	6.43
403.132	6.37
403.492	6.4
403.851	6.38
404.211	6.38
404.57	6.36
404.929	6.29
405.288	6.28
405.648	6.21
406.007	6.23
406.366	6.2
406.725	6.22
407.084	6.21
407.443	6.22
407.802	6.2
408.161	6.22
408.52	6.23
408.879	6.18
409.238	6.13
409.596	6.08
409.955	6.02
410.314	5.99
410.673	5.94
411.031	5.86
411.39	5.86
411.748	5.86
412.107	5.79
412.465	5.74
412.824	5.71
413.182	5.7
413.54	5.68
413.899	5.69
414.257	5.63
414.615	5.63
414.974	5.61
415.332	5.62
415.69	5.6
416.048	5.56
416.406	5.54
416.764	5.51
417.122	5.49
417.48	5.48
417.838	5.46
418.195	5.47
418.553	5.47
418.911	5.42
419.269	5.4
419.626	5.37
419.984	5.37
420.342	5.35
420.699	5.32
421.057	5.32
421.414	5.3
421.772	5.31
422.129	5.27
422.486	5.25
422.844	5.2
423.201	5.19
423.558	5.18
423.915	5.17
424.273	5.17
424.63	5.16
424.987	5.14
425.344	5.13
425.701	5.08
426.058	5.07
426.415	5.09
426.772	5.08
427.128	5.08
427.485	5.07
427.842	5.07
428.199	5.06
428.555	5.01
428.912	4.99
429.269	4.96
429.625	4.94
429.982	4.91
430.338	4.92
430.695	4.9
431.051	4.9
431.407	4.89
431.764	4.85
432.12	4.84
432.476	4.85
432.832	4.86
433.189	4.88
433.545	4.85
433.901	4.81
434.257	4.78
434.613	4.78
434.969	4.77
435.325	4.77
435.681	4.75
436.036	4.75
436.392	4.73
436.748	4.76
437.104	4.77
437.459	4.77
437.815	4.78
438.171	4.77
438.526	4.77
438.882	4.78
439.237	4.79
439.593	4.81
439.948	4.81
440.304	4.77
440.659	4.76
441.014	4.78
441.369	4.79
441.725	4.8
442.08	4.81
442.435	4.81
442.79	4.82
443.145	4.84
443.5	4.84
443.855	4.85
444.21	4.84
444.565	4.84
444.92	4.84
445.275	4.84
445.629	4.84
445.984	4.82
446.339	4.8
446.693	4.81
447.048	4.79
447.403	4.76
447.757	4.77
448.112	4.76
448.466	4.76
448.82	4.75
449.175	4.73
449.529	4.71
449.883	4.69
450.238	4.67
450.592	4.63
450.946	4.62
451.3	4.62
451.654	4.6
452.008	4.6
452.362	4.59
452.716	4.57
453.07	4.54
453.424	4.55
453.778	4.55
454.132	4.53
454.486	4.52
454.839	4.54
455.193	4.56
455.547	4.57
455.9	4.56
456.254	4.55
456.607	4.55
456.961	4.54
457.314	4.56
457.668	4.56
458.021	4.59
458.375	4.59
458.728	4.59
459.081	4.58
459.434	4.57
459.787	4.57
460.141	4.58
460.494	4.59
460.847	4.59
461.2	4.61
461.553	4.62
461.906	4.62
462.259	4.62
462.611	4.63
462.964	4.65
463.317	4.67
463.67	4.71
464.022	4.73
464.375	4.75
464.728	4.76
465.08	4.77
465.433	4.77
465.785	4.79
466.138	4.81
466.49	4.85
466.843	4.88
467.195	4.9
467.547	4.9
467.899	4.94
468.252	4.97
468.604	4.99
468.956	5.04
469.308	5.04
469.66	5.08
470.012	5.1
470.364	5.09
470.716	5.1
471.068	5.11
471.42	5.14
471.772	5.15
472.123	5.19
472.475	5.23
472.827	5.24
473.178	5.26
473.53	5.26
473.882	5.25
474.233	5.26
474.585	5.26
474.936	5.29
475.288	5.3
475.639	5.29
475.99	5.28
476.342	5.28
476.693	5.3
477.044	5.32
477.395	5.32
477.746	5.32
478.097	5.29
478.448	5.29
478.8	5.26
479.15	5.27
479.501	5.26
479.852	5.24
480.203	5.22
480.554	5.22
480.905	5.23
481.255	5.22
481.606	5.23
481.957	5.24
482.307	5.23
482.658	5.21
483.009	5.23
483.359	5.24
483.709	5.23
484.06	5.22
484.41	5.2
484.761	5.2
485.111	5.21
485.461	5.21
485.811	5.21
486.162	5.22
486.512	5.2
486.862	5.21
487.212	5.21
487.562	5.22
487.912	5.21
488.262	5.21
488.612	5.22
488.961	5.22
489.311	5.22
489.661	5.22
490.011	5.21
490.36	5.19
490.71	5.18
491.06	5.19
491.409	5.21
491.759	5.23
492.108	5.24
492.458	5.24
492.807	5.24
493.157	5.26
493.506	5.3
493.855	5.34
494.204	5.35
494.554	5.39
494.903	5.44
495.252	5.48
495.601	5.51
495.95	5.55
496.299	5.59
496.648	5.61
496.997	5.67
497.346	5.77
497.695	5.82
498.043	5.89
498.392	5.94
498.741	5.99
499.09	6.06
499.438	6.11
499.787	6.17
500.135	6.26
500.484	6.34
500.832	6.41
501.181	6.47
501.529	6.56
501.878	6.65
502.226	6.73
502.574	6.84
502.923	6.96
503.271	7.07
503.619	7.19
503.967	7.31
504.315	7.43
504.663	7.52
505.011	7.68
505.359	7.81
505.707	7.94
506.055	8.07
506.403	8.19
506.751	8.34
507.098	8.5
507.446	8.64
507.794	8.77
508.141	8.91
508.489	9.04
508.837	9.18
509.184	9.34
509.531	9.49
509.879	9.61
510.226	9.73
510.574	9.88
510.921	10.01
511.268	10.18
511.616	10.37
511.963	10.56
512.31	10.78
512.657	10.94
513.004	11.1
513.351	11.31
513.698	11.51
514.045	11.71
514.392	11.93
514.739	12.16
515.086	12.38
515.432	12.6
515.779	12.81
516.126	13.07
516.473	13.25
516.819	13.45
517.166	13.7
517.512	13.94
517.859	14.12
518.205	14.34
518.552	14.52
518.898	14.69
519.245	14.87
519.591	15
519.937	15.21
520.283	15.48
520.629	15.66
520.976	15.89
521.322	16.14
521.668	16.36
522.014	16.58
522.36	16.81
522.706	17.04
523.052	17.34
523.398	17.58
523.743	17.85
524.089	18.14
524.435	18.4
524.781	18.65
525.126	18.9
525.472	19.13
525.817	19.3
526.163	19.48
526.509	19.65
526.854	19.83
527.199	20
527.545	20.14
527.89	20.31
528.235	20.45
528.581	20.59
528.926	20.73
529.271	20.89
529.616	21.07
529.961	21.23
530.306	21.38
530.651	21.55
530.996	21.76
531.341	21.95
531.686	22.11
532.031	22.27
532.376	22.45
532.721	22.65
533.065	22.89
533.41	23.12
533.755	23.34
534.099	23.56
534.444	23.77
534.788	23.97
535.133	24.2
535.477	24.41
535.822	24.67
536.166	24.93
536.51	25.18
536.855	25.48
537.199	25.75
537.543	26.06
537.887	26.37
538.231	26.65
538.576	26.96
538.92	27.24
539.264	27.54
539.608	27.79
539.951	28
540.295	28.25
540.639	28.45
540.983	28.69
541.327	28.9
541.671	29.16
542.014	29.38
542.358	29.57
542.701	29.8
543.045	29.99
543.389	30.24
543.732	30.48
544.075	30.68
544.419	30.97
544.762	31.2
545.105	31.47
545.449	31.72
545.792	31.96
546.135	32.25
546.478	32.53
546.821	32.89
547.165	33.22
547.508	33.52
547.851	33.87
548.194	34.19
548.536	34.57
548.879	34.85
549.222	35.13
549.565	35.46
549.908	35.79
550.25	36.13
550.593	36.45
550.936	36.76
551.278	37.07
551.621	37.32
551.963	37.65
552.306	38
552.648	38.27
552.991	38.58
553.333	38.9
553.675	39.25
554.017	39.51
554.36	39.81
554.702	40.08
555.044	40.34
555.386	40.64
555.728	40.92
556.07	41.21
556.412	41.52
556.754	41.79
557.096	42.11
557.438	42.37
557.78	42.63
558.121	42.89
558.463	43.2
558.805	43.51
559.147	43.77
559.488	43.97
559.83	44.29
560.171	44.58
560.513	44.83
560.854	45.06
561.196	45.27
561.537	45.58
561.878	45.86
562.22	46.11
562.561	46.34
562.902	46.52
563.243	46.76
563.584	47
563.925	47.27
564.266	47.5
564.607	47.72
564.948	47.98
565.289	48.22
565.63	48.39
565.971	48.55
566.312	48.76
566.653	48.95
566.993	49.14
567.334	49.27
567.675	49.48
568.015	49.67
568.356	49.98
568.696	50.11
569.037	50.31
569.377	50.56
569.718	50.73
570.058	51
570.398	51.14
570.739	51.33
571.079	51.53
571.419	51.7
571.759	51.91
572.099	52.05
572.439	52.19
572.779	52.33
573.119	52.54
573.459	52.72
573.799	52.84
574.139	53
574.479	53.22
574.819	53.33
575.158	53.46
575.498	53.59
575.838	53.71
576.177	53.79
576.517	53.9
576.856	54.03
577.196	54.05
577.535	54.27
577.875	54.42
578.214	54.52
578.553	54.61
578.893	54.72
579.232	54.84
579.571	55
579.91	55.19
580.25	55.27
580.589	55.33
580.928	55.48
581.267	55.61
581.606	55.73
581.945	55.95
582.283	56.09
582.622	56.11
582.961	56.35
583.3	56.49
583.639	56.61
583.977	56.78
584.316	57.01
584.654	57.12
584.993	57.18
585.332	57.35
585.67	57.51
586.008	57.71
586.347	57.84
586.685	57.91
587.024	57.97
587.362	58.16
587.7	58.26
588.038	58.37
588.376	58.42
588.715	58.42
589.053	58.47
589.391	58.59
589.729	58.71
590.067	58.75
590.404	58.79
590.742	58.83
591.08	58.98
591.418	58.99
591.756	58.99
592.093	59.09
592.431	59.09
592.769	59.16
593.106	59.17
593.444	59.26
593.781	59.39
594.119	59.48
594.456	59.54
594.793	59.58
595.131	59.67
595.468	59.75
595.805	59.83
596.143	59.9
596.48	59.93
596.817	60.03
597.154	60.1
597.491	60.13
597.828	60.19
598.165	60.13
598.502	60.17
598.839	60.32
599.176	60.4
599.512	60.53
599.849	60.52
600.186	60.54
600.523	60.61
600.859	60.69
601.196	60.78
601.532	60.76
601.869	60.83
602.205	60.84
602.542	60.86
602.878	60.96
603.215	60.95
603.551	61.08
603.887	61.08
604.223	61.1
604.56	61.18
604.896	61.24
605.232	61.35
605.568	61.48
605.904	61.44
606.24	61.46
606.576	61.53
606.912	61.69
607.248	61.75
607.583	61.81
607.919	61.81
608.255	61.81
608.591	61.88
608.926	61.92
609.262	61.99
609.597	62.05
609.933	62.15
610.268	62.17
610.604	62.14
610.939	62.19
611.275	62.19
611.61	62.29
611.945	62.33
612.281	62.33
612.616	62.32
612.951	62.39
613.286	62.44
613.621	62.39
613.956	62.36
614.291	62.37
614.626	62.25
614.961	62.28
615.296	62.42
615.631	62.43
615.966	62.53
616.3	62.61
616.635	62.67
616.97	62.63
617.304	62.68
617.639	62.68
617.973	62.63
618.308	62.7
618.642	62.7
618.977	62.69
619.311	62.78
619.646	62.81
619.98	62.98
620.314	63.04
620.648	63.02
620.983	63
621.317	63.09
621.651	63.22
621.985	63.22
622.319	63.14
622.653	63.2
622.987	63.18
623.321	63.18
623.655	63.16
623.988	63.17
624.322	63.2
624.656	63.19
624.99	63.22
625.323	63.27
625.657	63.29
625.99	63.34
626.324	63.23
626.657	63.28
626.991	63.19
627.324	63.16
627.658	63.22
627.991	63.26
628.324	63.27
628.657	63.27
628.991	63.34
629.324	63.4
629.657	63.44
629.99	63.39
630.323	63.39
630.656	63.46
630.989	63.55
631.322	63.55
631.655	63.53
631.987	63.56
632.32	63.57
632.653	63.55
632.986	63.6
633.318	63.71
633.651	63.75
633.984	63.7
634.316	63.77
634.649	63.81
634.981	63.82
635.313	63.77
635.646	63.85
635.978	63.79
636.31	63.77
636.643	63.81
636.975	63.85
637.307	63.83
637.639	63.85
637.971	63.83
638.303	63.91
638.635	64.09
638.967	64.07
639.299	64.01
639.631	64.13
639.963	64.1
640.295	64.01
640.626	64
640.958	64.1
641.29	64.05
641.621	64.1
641.953	64
642.285	64.09
642.616	64.08
642.948	64.24
643.279	64.23
643.61	64.13
643.942	64.25
644.273	64.29
644.604	64.24
644.936	64.2
645.267	64.12
645.598	64.08
645.929	64.23
646.26	64.38
646.591	64.27
646.922	64.27
647.253	64.39
647.584	64.28
647.915	64.21
648.245	64.34
648.576	64.39
648.907	64.62
649.238	64.51
649.568	64.46
649.899	64.31
650.229	64.42
650.56	64.45
650.89	64.35
651.221	64.37
651.551	64.51
651.882	64.56
652.212	64.66
652.542	64.6
652.872	64.45
653.203	64.45
653.533	64.65
653.863	64.75
654.193	64.71
654.523	64.63
654.853	64.71
655.183	64.66
655.513	64.67
655.843	64.58
656.172	64.71
656.502	64.83
656.832	64.98
657.162	64.87
657.491	64.96
657.821	65.05
658.15	65.17
658.48	65.12
658.809	65.17
659.139	65.17
659.468	65.14
659.798	65.26
660.127	65.22
660.456	65.12
660.785	65.09
661.115	65.07
661.444	65.21
661.773	65.32
662.102	65.41
662.431	65.4
662.76	65.46
663.089	65.49
663.418	65.54
663.747	65.55
664.076	65.7
664.404	65.6
