Data from MVZ_BU5182_Reflection_00006.txt Node
Date: Tue Nov 19 12:19:14 EST 2019
User: vgr7
Spectrometer: USB2G7710
Scans to average: 3
Trigger mode: 4
Integration Time (sec): 2.000000E-2
Electric dark correction enabled: true
Boxcar width: 10
XAxis mode: Wavelengths
Number of Pixels in Spectrum: 2048
>>>>>Begin Spectral Data<<<<<
177.721	62.39
178.105	105.65
178.488	116.63
178.871	86.9
179.254	24.44
179.636	35.45
180.019	-78.52
180.402	9.09
180.785	5.75
181.168	-995.24
181.55	93.46
181.933	169.18
182.316	-301.71
182.698	-65.7
183.081	-26.5
183.463	-60.06
183.846	-40.85
184.228	-74.88
184.611	-59.71
184.993	-34.28
185.376	-52.52
185.758	-24.25
186.14	-22.13
186.522	-11.6
186.904	-35.57
187.287	-45.87
187.669	-37.67
188.051	-46.5
188.433	-28.56
188.815	-33.49
189.197	-46.12
189.579	-43.01
189.961	-42.39
190.342	-46.5
190.724	-38.18
191.106	-44.67
191.488	-3.02
191.869	7.37
192.251	26
192.633	39.15
193.014	34.46
193.396	38.97
193.777	32.62
194.159	20.85
194.54	24.22
194.922	26.53
195.303	20.58
195.684	9.92
196.065	2.35
196.447	-10.91
196.828	-8.76
197.209	-0.67
197.59	-7.65
197.971	2.36
198.352	-7.27
198.733	-6.18
199.114	-5.02
199.495	-13.73
199.876	-30.45
200.257	-25.56
200.638	-34.65
201.018	-45.86
201.399	-45.65
201.78	-46.61
202.16	-64.15
202.541	-75.73
202.922	-66.97
203.302	-66.95
203.683	-53.39
204.063	-51.57
204.444	-53.94
204.824	-57.18
205.204	-37.4
205.585	-19.34
205.965	-40.07
206.345	-30.27
206.725	-37.95
207.106	-33.25
207.486	-25.32
207.866	-14.62
208.246	-22.99
208.626	-27.27
209.006	-18.39
209.386	-10.46
209.766	-21.8
210.145	-8.56
210.525	-16.59
210.905	-17.5
211.285	-19.95
211.664	-7.97
212.044	-6.17
212.424	-0.38
212.803	6.78
213.183	-0.2
213.562	2.43
213.942	9.81
214.321	18.02
214.701	17.25
215.08	8.5
215.459	0.05
215.838	-18.45
216.218	-10.79
216.597	-13.25
216.976	-28.18
217.355	-33.98
217.734	-35.98
218.113	-28.92
218.492	-17.19
218.871	-16.27
219.25	-18.32
219.629	-44.68
220.008	-31.69
220.387	-34.61
220.766	-27.41
221.144	-29.65
221.523	-34.28
221.902	-29.81
222.28	-32.64
222.659	-26.8
223.037	-30.94
223.416	-25.03
223.794	-20.77
224.173	-22.43
224.551	-20.89
224.929	-17.96
225.308	-17.87
225.686	-20.51
226.064	-22.73
226.442	-22.49
226.821	-19.36
227.199	-17.97
227.577	-11.36
227.955	-13.32
228.333	-16.55
228.711	-17.22
229.089	-15.34
229.467	-14.92
229.845	-15.15
230.222	-12.75
230.6	-15.32
230.978	-10.32
231.356	-13.34
231.733	-12.98
232.111	-12.46
232.488	-11.83
232.866	-9.23
233.243	-8.21
233.621	-4.94
233.998	-4.71
234.376	-5.64
234.753	-5.35
235.13	-4.1
235.508	-4.59
235.885	-4.42
236.262	-3.67
236.639	-3.34
237.016	-2.72
237.393	-1.68
237.77	-1.28
238.147	-1.09
238.524	0.88
238.901	-0.21
239.278	0.12
239.655	0
240.032	0.23
240.409	0.11
240.785	-0.42
241.162	0.26
241.539	0.23
241.915	0.59
242.292	1.09
242.668	0.97
243.045	1.13
243.421	1.78
243.798	2.13
244.174	2.65
244.551	2.78
244.927	3.06
245.303	3.14
245.679	3.19
246.056	3.25
246.432	3.18
246.808	3.7
247.184	3.88
247.56	3.88
247.936	3.94
248.312	4.22
248.688	4.17
249.064	4.15
249.44	3.99
249.815	3.86
250.191	3.94
250.567	3.65
250.943	3.68
251.318	3.42
251.694	3.4
252.069	3.5
252.445	3.5
252.82	3.57
253.196	3.6
253.571	3.85
253.947	3.76
254.322	4.02
254.697	3.43
255.073	3.47
255.448	3.54
255.823	3.54
256.198	3.49
256.573	3.54
256.948	3.57
257.323	3.65
257.698	3.78
258.073	3.78
258.448	3.9
258.823	3.67
259.198	3.73
259.573	3.56
259.948	3.51
260.322	3.32
260.697	3.14
261.072	3.17
261.446	3
261.821	2.95
262.195	2.86
262.57	3.15
262.944	3.11
263.319	3.11
263.693	3.26
264.067	2.98
264.442	3.2
264.816	3.04
265.19	2.98
265.564	2.82
265.938	2.81
266.313	2.84
266.687	2.91
267.061	2.82
267.435	2.92
267.809	2.62
268.183	2.62
268.556	2.69
268.93	2.74
269.304	2.83
269.678	2.98
270.051	2.84
270.425	2.88
270.799	2.65
271.172	2.74
271.546	2.66
271.919	2.91
272.293	2.82
272.666	2.93
273.04	2.94
273.413	3.02
273.787	3.06
274.16	3.07
274.533	3.24
274.906	3.23
275.279	3.37
275.653	3.62
276.026	3.55
276.399	3.45
276.772	3.3
277.145	3.09
277.518	2.99
277.891	3.22
278.263	3.28
278.636	3.73
279.009	3.66
279.382	3.58
279.755	3.46
280.127	3.63
280.5	3.69
280.872	3.75
281.245	3.76
281.617	3.73
281.99	3.68
282.362	3.72
282.735	3.74
283.107	3.58
283.479	3.3
283.852	3.54
284.224	3.59
284.596	3.8
284.968	3.84
285.34	3.9
285.713	3.84
286.085	3.61
286.457	3.42
286.829	3.39
287.201	3.36
287.572	3.44
287.944	3.25
288.316	3.18
288.688	3.31
289.06	3.29
289.431	3.39
289.803	3.47
290.175	3.46
290.546	3.56
290.918	3.61
291.289	3.74
291.661	3.7
292.032	3.72
292.403	3.65
292.775	3.85
293.146	3.8
293.517	3.78
293.889	3.8
294.26	3.94
294.631	3.94
295.002	4.03
295.373	3.97
295.744	4.04
296.115	4
296.486	3.95
296.857	4.05
297.228	3.87
297.599	3.87
297.97	3.83
298.34	3.99
298.711	3.96
299.082	4.04
299.452	4.02
299.823	4.06
300.194	4.08
300.564	4.06
300.935	4.12
301.305	4.16
301.676	4.21
302.046	4.2
302.416	4.2
302.787	4.13
303.157	4.13
303.527	4.11
303.897	4.27
304.267	4.23
304.637	4.25
305.008	4.41
305.378	4.39
305.748	4.52
306.117	4.31
306.487	4.24
306.857	4.34
307.227	4.4
307.597	4.34
307.967	4.24
308.336	4
308.706	3.89
309.076	4.01
309.445	4.13
309.815	4.07
310.184	4.08
310.554	3.95
310.923	3.89
311.293	3.9
311.662	3.89
312.031	3.9
312.401	3.68
312.77	3.68
313.139	3.71
313.508	3.53
313.877	3.56
314.246	3.61
314.616	3.65
314.985	3.57
315.353	3.52
315.722	3.53
316.091	3.81
316.46	3.84
316.829	3.68
317.198	3.37
317.567	3.53
317.935	3.7
318.304	3.98
318.672	4.2
319.041	4.32
319.41	4.15
319.778	4.16
320.147	4.26
320.515	4.21
320.883	4.17
321.252	4.26
321.62	4.1
321.988	4.16
322.357	3.92
322.725	3.8
323.093	3.81
323.461	3.92
323.829	3.81
324.197	3.97
324.565	3.96
324.933	4.11
325.301	3.93
325.669	3.71
326.037	3.66
326.405	3.63
326.772	3.61
327.14	3.67
327.508	3.66
327.875	3.67
328.243	3.55
328.61	3.54
328.978	3.36
329.346	3.32
329.713	3.33
330.08	3.5
330.448	3.44
330.815	3.51
331.182	3.28
331.55	3.29
331.917	3.13
332.284	3.04
332.651	3.03
333.018	3.03
333.385	3.24
333.752	3.29
334.119	3.28
334.486	3.18
334.853	3.09
335.22	3.02
335.587	3.02
335.954	3.1
336.32	3.09
336.687	3.38
337.054	3.44
337.42	3.43
337.787	3.36
338.153	3.55
338.52	3.54
338.886	3.76
339.253	3.84
339.619	4.06
339.986	4.24
340.352	4.28
340.718	4.36
341.084	4.37
341.451	4.32
341.817	4.33
342.183	4.36
342.549	4.4
342.915	4.43
343.281	4.5
343.647	4.55
344.013	4.5
344.379	4.29
344.745	4.29
345.11	4.3
345.476	4.4
345.842	4.35
346.208	4.43
346.573	4.37
346.939	4.18
347.304	4.06
347.67	3.96
348.035	3.87
348.401	3.83
348.766	3.69
349.132	3.74
349.497	3.73
349.862	3.68
350.228	3.78
350.593	3.76
350.958	3.71
351.323	3.67
351.688	3.74
352.053	3.85
352.418	3.88
352.783	3.82
353.148	3.7
353.513	3.67
353.878	3.55
354.243	3.45
354.608	3.54
354.972	3.63
355.337	3.62
355.702	3.66
356.066	3.68
356.431	3.72
356.795	3.7
357.16	3.65
357.524	3.67
357.889	3.7
358.253	3.72
358.618	3.74
358.982	3.68
359.346	3.7
359.71	3.62
360.075	3.65
360.439	3.77
360.803	3.78
361.167	3.79
361.531	3.85
361.895	3.88
362.259	3.92
362.623	3.89
362.987	3.96
363.351	3.93
363.714	3.88
364.078	3.95
364.442	3.9
364.806	3.91
365.169	3.98
365.533	3.9
365.896	3.92
366.26	3.89
366.623	3.93
366.987	3.9
367.35	3.95
367.714	3.9
368.077	3.81
368.44	3.85
368.803	3.82
369.167	3.81
369.53	3.86
369.893	3.84
370.256	3.76
370.619	3.67
370.982	3.65
371.345	3.71
371.708	3.68
372.071	3.75
372.434	3.76
372.797	3.73
373.159	3.74
373.522	3.75
373.885	3.81
374.247	3.88
374.61	3.9
374.973	3.96
375.335	4.01
375.698	3.98
376.06	3.96
376.423	4
376.785	3.98
377.147	3.98
377.51	3.92
377.872	4.02
378.234	4.07
378.596	4.11
378.958	4.13
379.321	4.04
379.683	3.98
380.045	3.87
380.407	3.87
380.769	3.88
381.13	3.89
381.492	3.88
381.854	3.87
382.216	3.84
382.578	3.77
382.939	3.75
383.301	3.78
383.663	3.84
384.024	3.84
384.386	3.82
384.747	3.78
385.109	3.89
385.47	3.85
385.832	3.82
386.193	3.79
386.554	3.67
386.916	3.75
387.277	3.8
387.638	3.91
387.999	3.95
388.36	3.93
388.721	3.91
389.082	3.92
389.443	3.88
389.804	3.9
390.165	3.91
390.526	3.94
390.887	3.9
391.248	3.89
391.609	3.89
391.969	3.97
392.33	4
392.691	3.96
393.051	3.96
393.412	3.96
393.772	3.99
394.133	4.06
394.493	4.02
394.854	4
395.214	4.02
395.574	4
395.935	4.03
396.295	3.99
396.655	3.97
397.015	3.99
397.376	3.99
397.736	4.05
398.096	4.01
398.456	4.02
398.816	4.01
399.176	4
399.535	3.94
399.895	3.94
400.255	3.9
400.615	3.91
400.975	3.93
401.334	3.95
401.694	3.95
402.054	3.96
402.413	3.97
402.773	3.95
403.132	3.92
403.492	3.9
403.851	3.91
404.211	3.92
404.57	3.92
404.929	3.93
405.288	3.87
405.648	3.9
406.007	3.94
406.366	3.92
406.725	3.93
407.084	3.97
407.443	3.95
407.802	3.97
408.161	3.96
408.52	3.99
408.879	3.99
409.238	4
409.596	4.02
409.955	4.01
410.314	3.98
410.673	3.99
411.031	4.02
411.39	4.04
411.748	4.04
412.107	4.04
412.465	4.05
412.824	4.06
413.182	4.08
413.54	4.07
413.899	4.07
414.257	4.07
414.615	4.07
414.974	4.09
415.332	4.12
415.69	4.11
416.048	4.12
416.406	4.1
416.764	4.13
417.122	4.11
417.48	4.12
417.838	4.14
418.195	4.13
418.553	4.11
418.911	4.11
419.269	4.09
419.626	4.12
419.984	4.09
420.342	4.11
420.699	4.09
421.057	4.07
421.414	4.09
421.772	4.08
422.129	4.06
422.486	4.06
422.844	4.04
423.201	4.05
423.558	4.03
423.915	4.04
424.273	4.04
424.63	4.06
424.987	4.08
425.344	4.07
425.701	4.08
426.058	4.1
426.415	4.09
426.772	4.11
427.128	4.08
427.485	4.08
427.842	4.07
428.199	4.09
428.555	4.11
428.912	4.09
429.269	4.09
429.625	4.11
429.982	4.13
430.338	4.13
430.695	4.11
431.051	4.12
431.407	4.13
431.764	4.09
432.12	4.05
432.476	4.04
432.832	4.03
433.189	4.04
433.545	4.02
433.901	4.03
434.257	4.04
434.613	4.08
434.969	4.09
435.325	4.09
435.681	4.07
436.036	4.08
436.392	4.07
436.748	4.08
437.104	4.06
437.459	4.05
437.815	4.04
438.171	4.06
438.526	4.09
438.882	4.08
439.237	4.1
439.593	4.13
439.948	4.14
440.304	4.15
440.659	4.17
441.014	4.18
441.369	4.2
441.725	4.18
442.08	4.17
442.435	4.19
442.79	4.19
443.145	4.19
443.5	4.18
443.855	4.17
444.21	4.15
444.565	4.17
444.92	4.18
445.275	4.18
445.629	4.2
445.984	4.18
446.339	4.17
446.693	4.15
447.048	4.12
447.403	4.1
447.757	4.11
448.112	4.13
448.466	4.12
448.82	4.1
449.175	4.11
449.529	4.11
449.883	4.11
450.238	4.11
450.592	4.14
450.946	4.15
451.3	4.16
451.654	4.16
452.008	4.17
452.362	4.15
452.716	4.17
453.07	4.14
453.424	4.12
453.778	4.11
454.132	4.15
454.486	4.17
454.839	4.18
455.193	4.18
455.547	4.13
455.9	4.13
456.254	4.15
456.607	4.13
456.961	4.1
457.314	4.1
457.668	4.08
458.021	4.07
458.375	4.06
458.728	4.08
459.081	4.1
459.434	4.08
459.787	4.08
460.141	4.08
460.494	4.1
460.847	4.11
461.2	4.11
461.553	4.11
461.906	4.12
462.259	4.08
462.611	4.07
462.964	4.09
463.317	4.09
463.67	4.09
464.022	4.09
464.375	4.14
464.728	4.13
465.08	4.15
465.433	4.16
465.785	4.17
466.138	4.15
466.49	4.16
466.843	4.17
467.195	4.22
467.547	4.23
467.899	4.23
468.252	4.23
468.604	4.27
468.956	4.26
469.308	4.25
469.66	4.29
470.012	4.31
470.364	4.29
470.716	4.3
471.068	4.3
471.42	4.29
471.772	4.27
472.123	4.29
472.475	4.29
472.827	4.26
473.178	4.26
473.53	4.29
473.882	4.29
474.233	4.29
474.585	4.26
474.936	4.26
475.288	4.23
475.639	4.25
475.99	4.24
476.342	4.25
476.693	4.25
477.044	4.29
477.395	4.25
477.746	4.26
478.097	4.25
478.448	4.26
478.8	4.27
479.15	4.28
479.501	4.29
479.852	4.29
480.203	4.31
480.554	4.32
480.905	4.32
481.255	4.32
481.606	4.32
481.957	4.32
482.307	4.31
482.658	4.33
483.009	4.32
483.359	4.32
483.709	4.32
484.06	4.32
484.41	4.31
484.761	4.33
485.111	4.33
485.461	4.34
485.811	4.33
486.162	4.33
486.512	4.33
486.862	4.34
487.212	4.34
487.562	4.35
487.912	4.36
488.262	4.35
488.612	4.36
488.961	4.37
489.311	4.37
489.661	4.39
490.011	4.37
490.36	4.39
490.71	4.39
491.06	4.38
491.409	4.38
491.759	4.38
492.108	4.38
492.458	4.36
492.807	4.37
493.157	4.38
493.506	4.39
493.855	4.38
494.204	4.36
494.554	4.35
494.903	4.32
495.252	4.33
495.601	4.33
495.95	4.34
496.299	4.33
496.648	4.35
496.997	4.34
497.346	4.34
497.695	4.33
498.043	4.36
498.392	4.38
498.741	4.38
499.09	4.41
499.438	4.43
499.787	4.45
500.135	4.43
500.484	4.42
500.832	4.44
501.181	4.45
501.529	4.48
501.878	4.5
502.226	4.52
502.574	4.54
502.923	4.55
503.271	4.53
503.619	4.55
503.967	4.53
504.315	4.54
504.663	4.56
505.011	4.56
505.359	4.53
505.707	4.54
506.055	4.56
506.403	4.55
506.751	4.52
507.098	4.54
507.446	4.58
507.794	4.59
508.141	4.58
508.489	4.6
508.837	4.58
509.184	4.56
509.531	4.57
509.879	4.52
510.226	4.54
510.574	4.58
510.921	4.59
511.268	4.6
511.616	4.6
511.963	4.61
512.31	4.64
512.657	4.67
513.004	4.67
513.351	4.67
513.698	4.67
514.045	4.71
514.392	4.71
514.739	4.7
515.086	4.7
515.432	4.72
515.779	4.72
516.126	4.77
516.473	4.79
516.819	4.78
517.166	4.8
517.512	4.79
517.859	4.78
518.205	4.77
518.552	4.76
518.898	4.75
519.245	4.74
519.591	4.73
519.937	4.7
520.283	4.7
520.629	4.7
520.976	4.69
521.322	4.69
521.668	4.68
522.014	4.68
522.36	4.69
522.706	4.69
523.052	4.69
523.398	4.68
523.743	4.69
524.089	4.73
524.435	4.75
524.781	4.78
525.126	4.78
525.472	4.79
525.817	4.8
526.163	4.83
526.509	4.84
526.854	4.85
527.199	4.86
527.545	4.87
527.89	4.89
528.235	4.91
528.581	4.92
528.926	4.93
529.271	4.93
529.616	4.94
529.961	4.95
530.306	4.96
530.651	4.96
530.996	4.97
531.341	4.97
531.686	4.97
532.031	4.96
532.376	4.97
532.721	4.97
533.065	4.97
533.41	4.96
533.755	4.98
534.099	4.99
534.444	5
534.788	4.99
535.133	4.97
535.477	4.98
535.822	4.96
536.166	4.96
536.51	4.96
536.855	4.95
537.199	4.95
537.543	4.93
537.887	4.93
538.231	4.93
538.576	4.92
538.92	4.92
539.264	4.92
539.608	4.94
539.951	4.94
540.295	4.95
540.639	4.95
540.983	4.94
541.327	4.95
541.671	4.95
542.014	4.97
542.358	4.96
542.701	4.94
543.045	4.95
543.389	4.96
543.732	4.96
544.075	4.96
544.419	4.96
544.762	4.97
545.105	4.99
545.449	5
545.792	5.01
546.135	5.02
546.478	5.01
546.821	5.01
547.165	5.01
547.508	5.02
547.851	5.02
548.194	5
548.536	4.98
548.879	4.97
549.222	4.96
549.565	4.97
549.908	4.98
550.25	4.96
550.593	4.99
550.936	4.98
551.278	5.01
551.621	5.01
551.963	5
552.306	4.99
552.648	4.98
552.991	4.97
553.333	4.96
553.675	4.98
554.017	4.97
554.36	4.95
554.702	4.92
555.044	4.88
555.386	4.9
555.728	4.94
556.07	4.92
556.412	4.91
556.754	4.89
557.096	4.87
557.438	4.92
557.78	4.88
558.121	4.9
558.463	4.88
558.805	4.89
559.147	4.9
559.488	4.87
559.83	4.87
560.171	4.91
560.513	4.91
560.854	4.92
561.196	4.95
561.537	4.96
561.878	4.99
562.22	5.02
562.561	5.05
562.902	5.01
563.243	5.03
563.584	5.05
563.925	5.11
564.266	5.12
564.607	5.12
564.948	5.12
565.289	5.16
565.63	5.14
565.971	5.15
566.312	5.16
566.653	5.16
566.993	5.18
567.334	5.17
567.675	5.19
568.015	5.18
568.356	5.16
568.696	5.16
569.037	5.15
569.377	5.15
569.718	5.14
570.058	5.15
570.398	5.18
570.739	5.16
571.079	5.13
571.419	5.14
571.759	5.12
572.099	5.16
572.439	5.13
572.779	5.17
573.119	5.16
573.459	5.15
573.799	5.14
574.139	5.11
574.479	5.13
574.819	5.14
575.158	5.13
575.498	5.15
575.838	5.17
576.177	5.19
576.517	5.2
576.856	5.19
577.196	5.18
577.535	5.16
577.875	5.17
578.214	5.21
578.553	5.18
578.893	5.22
579.232	5.2
579.571	5.18
579.91	5.17
580.25	5.2
580.589	5.22
580.928	5.23
581.267	5.25
581.606	5.23
581.945	5.21
582.283	5.23
582.622	5.21
582.961	5.28
583.3	5.27
583.639	5.27
583.977	5.27
584.316	5.3
584.654	5.27
584.993	5.29
585.332	5.27
585.67	5.34
586.008	5.31
586.347	5.3
586.685	5.3
587.024	5.28
587.362	5.26
587.7	5.31
588.038	5.34
588.376	5.36
588.715	5.31
589.053	5.31
589.391	5.31
589.729	5.33
590.067	5.25
590.404	5.28
590.742	5.29
591.08	5.28
591.418	5.28
591.756	5.3
592.093	5.27
592.431	5.25
592.769	5.2
593.106	5.21
593.444	5.24
593.781	5.25
594.119	5.27
594.456	5.24
594.793	5.21
595.131	5.21
595.468	5.18
595.805	5.25
596.143	5.27
596.48	5.26
596.817	5.27
597.154	5.3
597.491	5.29
597.828	5.26
598.165	5.31
598.502	5.29
598.839	5.29
599.176	5.32
599.512	5.31
599.849	5.34
600.186	5.32
600.523	5.3
600.859	5.32
601.196	5.33
601.532	5.35
601.869	5.35
602.205	5.33
602.542	5.38
602.878	5.34
603.215	5.3
603.551	5.31
603.887	5.27
604.223	5.25
604.56	5.24
604.896	5.27
605.232	5.25
605.568	5.3
605.904	5.29
606.24	5.34
606.576	5.33
606.912	5.31
607.248	5.34
607.583	5.37
607.919	5.35
608.255	5.35
608.591	5.36
608.926	5.33
609.262	5.35
609.597	5.32
609.933	5.36
610.268	5.36
610.604	5.33
610.939	5.37
611.275	5.36
611.61	5.39
611.945	5.35
612.281	5.36
612.616	5.32
612.951	5.38
613.286	5.31
613.621	5.35
613.956	5.4
614.291	5.4
614.626	5.36
614.961	5.36
615.296	5.33
615.631	5.35
615.966	5.38
616.3	5.46
616.635	5.46
616.97	5.42
617.304	5.39
617.639	5.38
617.973	5.36
618.308	5.35
618.642	5.34
618.977	5.36
619.311	5.3
619.646	5.31
619.98	5.27
620.314	5.25
620.648	5.24
620.983	5.2
621.317	5.21
621.651	5.25
621.985	5.32
622.319	5.31
622.653	5.28
622.987	5.35
623.321	5.29
623.655	5.3
623.988	5.36
624.322	5.41
624.656	5.46
624.99	5.45
625.323	5.47
625.657	5.51
625.99	5.54
626.324	5.6
626.657	5.64
626.991	5.63
627.324	5.66
627.658	5.65
627.991	5.69
628.324	5.67
628.657	5.62
628.991	5.58
629.324	5.55
629.657	5.56
629.99	5.53
630.323	5.53
630.656	5.51
630.989	5.42
631.322	5.44
631.655	5.4
631.987	5.46
632.32	5.47
632.653	5.42
632.986	5.39
633.318	5.36
633.651	5.34
633.984	5.35
634.316	5.34
634.649	5.35
634.981	5.31
635.313	5.32
635.646	5.38
635.978	5.43
636.31	5.47
636.643	5.46
636.975	5.41
637.307	5.44
637.639	5.45
637.971	5.48
638.303	5.5
638.635	5.57
638.967	5.55
639.299	5.61
639.631	5.67
639.963	5.67
640.295	5.7
640.626	5.71
640.958	5.75
641.29	5.82
641.621	5.77
641.953	5.79
642.285	5.78
642.616	5.75
642.948	5.71
643.279	5.71
643.61	5.79
643.942	5.83
644.273	5.9
644.604	5.91
644.936	5.95
645.267	5.95
645.598	5.89
645.929	5.82
646.26	5.71
646.591	5.64
646.922	5.66
647.253	5.63
647.584	5.68
647.915	5.67
648.245	5.66
648.576	5.74
648.907	5.74
649.238	5.75
649.568	5.71
649.899	5.66
650.229	5.69
650.56	5.67
650.89	5.66
651.221	5.62
651.551	5.63
651.882	5.6
652.212	5.63
652.542	5.62
652.872	5.64
653.203	5.69
653.533	5.67
653.863	5.66
654.193	5.64
654.523	5.55
654.853	5.65
655.183	5.59
655.513	5.54
655.843	5.56
656.172	5.65
656.502	5.68
656.832	5.6
657.162	5.61
657.491	5.63
657.821	5.66
658.15	5.68
658.48	5.69
658.809	5.68
659.139	5.73
659.468	5.72
659.798	5.76
660.127	5.78
660.456	5.84
660.785	5.86
661.115	5.87
661.444	5.95
661.773	5.87
662.102	5.87
662.431	5.91
662.76	5.93
663.089	5.92
663.418	5.94
663.747	6.03
664.076	6.04
664.404	6
664.733	5.9
665.062	5.84
665.39	5.82
665.719	5.93
666.048	5.77
666.376	5.79
666.705	5.84
667.033	5.82
667.362	5.8
667.69	5.81
668.018	5.86
668.347	5.76
668.675	5.77
669.003	5.8
669.331	5.79
669.659	5.8
669.987	5.73
670.315	5.77
670.643	5.78
670.971	5.86
671.299	5.9
671.627	6.06
671.955	5.99
672.283	6.02
672.61	6.04
672.938	6.1
673.266	6.11
673.593	6.02
673.921	6.06
674.249	6.08
674.576	6.13
674.904	6.16
675.231	6.21
675.558	6.26
675.886	6.27
676.213	6.32
676.54	6.31
676.867	6.29
677.195	6.4
677.522	6.39
