Data from MVZ_BU147395_Reflection_00007.txt Node
Date: Tue Nov 19 12:05:03 EST 2019
User: vgr7
Spectrometer: USB2G7710
Scans to average: 3
Trigger mode: 4
Integration Time (sec): 2.000000E-2
Electric dark correction enabled: true
Boxcar width: 10
XAxis mode: Wavelengths
Number of Pixels in Spectrum: 2048
>>>>>Begin Spectral Data<<<<<
177.721	55.11
178.105	71.66
178.488	22.98
178.871	25.47
179.254	17.82
179.636	23.41
180.019	-553.85
180.402	118.18
180.785	89.44
181.168	114.45
181.55	465.67
181.933	-16.97
182.316	114.45
182.698	284.21
183.081	-485.11
183.463	-412.05
183.846	258.23
184.228	336.26
184.611	150.49
184.993	136.63
185.376	96.11
185.758	60.16
186.14	67.78
186.522	34.98
186.904	47.59
187.287	53.52
187.669	66.29
188.051	71.54
188.433	81.32
188.815	77.91
189.197	70.59
189.579	59.21
189.961	49.84
190.342	60.9
190.724	50.54
191.106	54.66
191.488	54.32
191.869	47.75
192.251	48.54
192.633	51.49
193.014	37.15
193.396	38.69
193.777	52.64
194.159	45.04
194.54	52.31
194.922	44.39
195.303	49.36
195.684	43.25
196.065	36.29
196.447	32.4
196.828	20.62
197.209	20.7
197.59	21.64
197.971	21.52
198.352	21.09
198.733	18.43
199.114	11.79
199.495	10.79
199.876	14.87
200.257	11.27
200.638	2.15
201.018	18.47
201.399	40.52
201.78	47.56
202.16	75.39
202.541	76.32
202.922	44.31
203.302	30.14
203.683	-25.17
204.063	-7.19
204.444	-10.76
204.824	15.48
205.204	35.37
205.585	41.78
205.965	64.41
206.345	66.36
206.725	46.24
207.106	49.96
207.486	30.72
207.866	37.13
208.246	36.09
208.626	21.2
209.006	12.23
209.386	12.6
209.766	11.42
210.145	1.96
210.525	-0
210.905	19.1
211.285	16.89
211.664	36.23
212.044	37.16
212.424	32.04
212.803	30.41
213.183	32.43
213.562	24.05
213.942	17.17
214.321	11.94
214.701	22.09
215.08	9.49
215.459	24.56
215.838	14.45
216.218	4.04
216.597	18.42
216.976	25.17
217.355	31.92
217.734	29.23
218.113	40.29
218.492	42.72
218.871	28.27
219.25	26.76
219.629	22.82
220.008	23.32
220.387	26.42
220.766	26.48
221.144	18.69
221.523	10.23
221.902	18.19
222.28	27.81
222.659	16.45
223.037	16.23
223.416	22.04
223.794	22.25
224.173	26.5
224.551	25.61
224.929	24.07
225.308	17.06
225.686	12.83
226.064	10.05
226.442	9.24
226.821	10.31
227.199	7.11
227.577	9.19
227.955	10.2
228.333	9.18
228.711	9.04
229.089	9.39
229.467	12.45
229.845	8.37
230.222	5.65
230.6	6.78
230.978	8.29
231.356	3.19
231.733	4.33
232.111	3.72
232.488	5.22
232.866	5.71
233.243	7.34
233.621	8.68
233.998	6.89
234.376	7.34
234.753	6.29
235.13	7.55
235.508	6.6
235.885	4.94
236.262	5.49
236.639	5.37
237.016	4.53
237.393	3.98
237.77	4.31
238.147	4.59
238.524	5.15
238.901	3.99
239.278	4.62
239.655	4.75
240.032	4.33
240.409	3.5
240.785	3.26
241.162	2.81
241.539	2.35
241.915	2.42
242.292	3.01
242.668	2.96
243.045	3.31
243.421	3.02
243.798	3.31
244.174	3.21
244.551	3.16
244.927	3.27
245.303	3.19
245.679	3.42
246.056	3.49
246.432	3.52
246.808	3.79
247.184	3.93
247.56	3.83
247.936	4.04
248.312	4.05
248.688	4.01
249.064	3.99
249.44	4.1
249.815	4.32
250.191	4.04
250.567	4.22
250.943	4.27
251.318	4.46
251.694	4.39
252.069	4.55
252.445	4.55
252.82	5.05
253.196	5.44
253.571	5.52
253.947	5.54
254.322	5.33
254.697	5
255.073	4.61
255.448	4.29
255.823	4.18
256.198	4.44
256.573	4.55
256.948	4.6
257.323	4.41
257.698	4.46
258.073	4.46
258.448	4.35
258.823	4.15
259.198	4.1
259.573	4
259.948	3.84
260.322	3.86
260.697	3.72
261.072	3.64
261.446	3.55
261.821	3.54
262.195	3.61
262.57	3.81
262.944	3.96
263.319	3.93
263.693	3.9
264.067	3.62
264.442	3.4
264.816	3.32
265.19	3.35
265.564	3.16
265.938	3.24
266.313	3.29
266.687	3.23
267.061	3.21
267.435	3.32
267.809	3.32
268.183	3.37
268.556	3.29
268.93	3.23
269.304	3.12
269.678	3.11
270.051	3.11
270.425	3.05
270.799	2.84
271.172	3.2
271.546	3.37
271.919	3.62
272.293	3.75
272.666	3.79
273.04	3.82
273.413	3.96
273.787	3.96
274.16	3.96
274.533	3.99
274.906	4.09
275.279	4.01
275.653	4.29
276.026	4.16
276.399	4.14
276.772	4.25
277.145	4.28
277.518	4.24
277.891	4.15
278.263	4.18
278.636	4.48
279.009	4.17
279.382	4.03
279.755	3.83
280.127	3.72
280.5	3.67
280.872	3.76
281.245	3.74
281.617	3.63
281.99	3.57
282.362	3.56
282.735	3.45
283.107	3.56
283.479	3.3
283.852	3.43
284.224	3.43
284.596	3.39
284.968	3.46
285.34	3.38
285.713	3.44
286.085	3.51
286.457	3.45
286.829	3.58
287.201	3.69
287.572	3.74
287.944	3.9
288.316	3.94
288.688	4
289.06	4.07
289.431	4.11
289.803	4.18
290.175	4.22
290.546	4.25
290.918	4.18
291.289	4.26
291.661	4.29
292.032	4.3
292.403	4.34
292.775	4.5
293.146	4.69
293.517	4.68
293.889	4.64
294.26	4.77
294.631	4.69
295.002	4.55
295.373	4.59
295.744	4.53
296.115	4.56
296.486	4.49
296.857	4.36
297.228	4.34
297.599	4.31
297.97	4.43
298.34	4.54
298.711	4.56
299.082	4.65
299.452	4.6
299.823	4.71
300.194	4.79
300.564	4.78
300.935	4.86
301.305	4.94
301.676	4.78
302.046	4.79
302.416	4.96
302.787	4.94
303.157	5.08
303.527	5.28
303.897	5.34
304.267	5.41
304.637	5.57
305.008	5.68
305.378	5.73
305.748	5.69
306.117	5.69
306.487	5.83
306.857	5.66
307.227	5.86
307.597	5.88
307.967	5.95
308.336	5.77
308.706	5.67
309.076	5.8
309.445	6.15
309.815	6.15
310.184	6.16
310.554	6.41
310.923	6.35
311.293	6.29
311.662	6.31
312.031	6.39
312.401	6.4
312.77	6.43
313.139	6.45
313.508	6.54
313.877	6.46
314.246	6.58
314.616	6.86
314.985	6.85
315.353	6.91
315.722	7.08
316.091	7.25
316.46	7.35
316.829	7.39
317.198	7.33
317.567	7.45
317.935	7.48
318.304	7.54
318.672	7.57
319.041	7.57
319.41	7.59
319.778	7.62
320.147	7.7
320.515	7.72
320.883	7.8
321.252	7.79
321.62	7.96
321.988	7.94
322.357	7.82
322.725	7.95
323.093	7.91
323.461	7.93
323.829	8.02
324.197	8.14
324.565	8.28
324.933	8.15
325.301	8.08
325.669	8.12
326.037	8.2
326.405	8.29
326.772	8.44
327.14	8.41
327.508	8.48
327.875	8.39
328.243	8.43
328.61	8.57
328.978	8.61
329.346	8.59
329.713	8.75
330.08	8.95
330.448	9.05
330.815	9.14
331.182	8.99
331.55	9.13
331.917	9.05
332.284	8.98
332.651	9.18
333.018	9.23
333.385	9.29
333.752	9.23
334.119	9.16
334.486	9.13
334.853	9.28
335.22	9.18
335.587	9.24
335.954	9.28
336.32	9.2
336.687	9.26
337.054	9.4
337.42	9.29
337.787	9.21
338.153	9.21
338.52	9.32
338.886	9.45
339.253	9.35
339.619	9.44
339.986	9.44
340.352	9.45
340.718	9.46
341.084	9.53
341.451	9.55
341.817	9.63
342.183	9.69
342.549	9.76
342.915	9.91
343.281	10.01
343.647	9.99
344.013	10.08
344.379	10.07
344.745	10.15
345.11	10.24
345.476	10.33
345.842	10.28
346.208	10.27
346.573	10.23
346.939	10.24
347.304	10.37
347.67	10.37
348.035	10.3
348.401	10.35
348.766	10.26
349.132	10.29
349.497	10.33
349.862	10.31
350.228	10.26
350.593	10.27
350.958	10.34
351.323	10.34
351.688	10.33
352.053	10.41
352.418	10.35
352.783	10.21
353.148	10.19
353.513	10.15
353.878	10.17
354.243	10.23
354.608	10.29
354.972	10.2
355.337	10.26
355.702	10.35
356.066	10.35
356.431	10.42
356.795	10.42
357.16	10.38
357.524	10.38
357.889	10.46
358.253	10.38
358.618	10.29
358.982	10.28
359.346	10.27
359.71	10.21
360.075	10.3
360.439	10.38
360.803	10.46
361.167	10.49
361.531	10.47
361.895	10.48
362.259	10.5
362.623	10.5
362.987	10.48
363.351	10.45
363.714	10.43
364.078	10.4
364.442	10.35
364.806	10.43
365.169	10.42
365.533	10.38
365.896	10.44
366.26	10.44
366.623	10.45
366.987	10.46
367.35	10.44
367.714	10.33
368.077	10.35
368.44	10.29
368.803	10.3
369.167	10.2
369.53	10.16
369.893	10.11
370.256	10.07
370.619	10.08
370.982	9.92
371.345	9.97
371.708	9.97
372.071	9.97
372.434	9.88
372.797	9.85
373.159	9.76
373.522	9.68
373.885	9.71
374.247	9.65
374.61	9.61
374.973	9.61
375.335	9.6
375.698	9.53
376.06	9.49
376.423	9.45
376.785	9.46
377.147	9.4
377.51	9.38
377.872	9.36
378.234	9.34
378.596	9.44
378.958	9.37
379.321	9.32
379.683	9.32
380.045	9.26
380.407	9.22
380.769	9.17
381.13	9.11
381.492	9.1
381.854	9.03
382.216	9.01
382.578	8.98
382.939	8.84
383.301	8.77
383.663	8.67
384.024	8.62
384.386	8.54
384.747	8.5
385.109	8.41
385.47	8.36
385.832	8.24
386.193	8.18
386.554	8.07
386.916	8.04
387.277	7.94
387.638	7.9
387.999	7.91
388.36	7.9
388.721	7.89
389.082	7.86
389.443	7.89
389.804	7.84
390.165	7.81
390.526	7.78
390.887	7.74
391.248	7.71
391.609	7.69
391.969	7.67
392.33	7.6
392.691	7.56
393.051	7.48
393.412	7.43
393.772	7.38
394.133	7.37
394.493	7.3
394.854	7.26
395.214	7.24
395.574	7.17
395.935	7.1
396.295	7.05
396.655	6.96
397.015	6.9
397.376	6.9
397.736	6.79
398.096	6.8
398.456	6.76
398.816	6.72
399.176	6.59
399.535	6.54
399.895	6.5
400.255	6.48
400.615	6.48
400.975	6.49
401.334	6.43
401.694	6.41
402.054	6.39
402.413	6.33
402.773	6.31
403.132	6.29
403.492	6.25
403.851	6.21
404.211	6.17
404.57	6.14
404.929	6.03
405.288	6.01
405.648	5.97
406.007	5.93
406.366	5.87
406.725	5.85
407.084	5.83
407.443	5.81
407.802	5.78
408.161	5.74
408.52	5.71
408.879	5.7
409.238	5.68
409.596	5.66
409.955	5.67
410.314	5.62
410.673	5.57
411.031	5.55
411.39	5.52
411.748	5.53
412.107	5.5
412.465	5.47
412.824	5.42
413.182	5.38
413.54	5.4
413.899	5.41
414.257	5.42
414.615	5.45
414.974	5.44
415.332	5.4
415.69	5.35
416.048	5.33
416.406	5.27
416.764	5.22
417.122	5.19
417.48	5.14
417.838	5.14
418.195	5.11
418.553	5.11
418.911	5.11
419.269	5.08
419.626	5.06
419.984	5.06
420.342	5.07
420.699	5.04
421.057	5.02
421.414	5.01
421.772	4.98
422.129	4.92
422.486	4.89
422.844	4.87
423.201	4.87
423.558	4.84
423.915	4.84
424.273	4.83
424.63	4.83
424.987	4.82
425.344	4.79
425.701	4.77
426.058	4.75
426.415	4.7
426.772	4.67
427.128	4.65
427.485	4.63
427.842	4.6
428.199	4.59
428.555	4.57
428.912	4.53
429.269	4.52
429.625	4.53
429.982	4.51
430.338	4.5
430.695	4.46
431.051	4.46
431.407	4.46
431.764	4.45
432.12	4.45
432.476	4.44
432.832	4.45
433.189	4.45
433.545	4.42
433.901	4.43
434.257	4.43
434.613	4.43
434.969	4.42
435.325	4.42
435.681	4.42
436.036	4.42
436.392	4.41
436.748	4.43
437.104	4.41
437.459	4.43
437.815	4.45
438.171	4.45
438.526	4.45
438.882	4.46
439.237	4.47
439.593	4.46
439.948	4.47
440.304	4.45
440.659	4.47
441.014	4.49
441.369	4.47
441.725	4.48
442.08	4.47
442.435	4.48
442.79	4.46
443.145	4.45
443.5	4.44
443.855	4.44
444.21	4.42
444.565	4.42
444.92	4.41
445.275	4.4
445.629	4.4
445.984	4.39
446.339	4.37
446.693	4.37
447.048	4.35
447.403	4.33
447.757	4.34
448.112	4.31
448.466	4.31
448.82	4.31
449.175	4.3
449.529	4.3
449.883	4.28
450.238	4.27
450.592	4.28
450.946	4.26
451.3	4.25
451.654	4.22
452.008	4.21
452.362	4.2
452.716	4.19
453.07	4.16
453.424	4.14
453.778	4.14
454.132	4.11
454.486	4.12
454.839	4.13
455.193	4.12
455.547	4.13
455.9	4.11
456.254	4.1
456.607	4.11
456.961	4.11
457.314	4.11
457.668	4.11
458.021	4.11
458.375	4.11
458.728	4.12
459.081	4.14
459.434	4.14
459.787	4.13
460.141	4.15
460.494	4.17
460.847	4.18
461.2	4.17
461.553	4.2
461.906	4.21
462.259	4.2
462.611	4.21
462.964	4.22
463.317	4.24
463.67	4.27
464.022	4.28
464.375	4.28
464.728	4.29
465.08	4.33
465.433	4.35
465.785	4.36
466.138	4.36
466.49	4.38
466.843	4.41
467.195	4.45
467.547	4.46
467.899	4.49
468.252	4.52
468.604	4.56
468.956	4.56
469.308	4.57
469.66	4.6
470.012	4.6
470.364	4.63
470.716	4.65
471.068	4.67
471.42	4.69
471.772	4.72
472.123	4.75
472.475	4.76
472.827	4.78
473.178	4.81
473.53	4.86
473.882	4.88
474.233	4.88
474.585	4.87
474.936	4.91
475.288	4.92
475.639	4.92
475.99	4.9
476.342	4.91
476.693	4.9
477.044	4.9
477.395	4.9
477.746	4.89
478.097	4.89
478.448	4.88
478.8	4.9
479.15	4.88
479.501	4.87
479.852	4.86
480.203	4.85
480.554	4.84
480.905	4.82
481.255	4.81
481.606	4.8
481.957	4.81
482.307	4.79
482.658	4.78
483.009	4.77
483.359	4.77
483.709	4.77
484.06	4.78
484.41	4.77
484.761	4.77
485.111	4.77
485.461	4.76
485.811	4.75
486.162	4.74
486.512	4.74
486.862	4.73
487.212	4.73
487.562	4.72
487.912	4.71
488.262	4.71
488.612	4.71
488.961	4.72
489.311	4.7
489.661	4.7
490.011	4.71
490.36	4.7
490.71	4.69
491.06	4.69
491.409	4.69
491.759	4.69
492.108	4.7
492.458	4.7
492.807	4.71
493.157	4.73
493.506	4.75
493.855	4.77
494.204	4.8
494.554	4.83
494.903	4.86
495.252	4.91
495.601	4.95
495.95	4.99
496.299	5.03
496.648	5.08
496.997	5.13
497.346	5.19
497.695	5.26
498.043	5.35
498.392	5.4
498.741	5.46
499.09	5.52
499.438	5.59
499.787	5.67
500.135	5.75
500.484	5.81
500.832	5.89
501.181	5.99
501.529	6.08
501.878	6.17
502.226	6.3
502.574	6.38
502.923	6.48
503.271	6.59
503.619	6.71
503.967	6.83
504.315	6.99
504.663	7.13
505.011	7.26
505.359	7.37
505.707	7.52
506.055	7.68
506.403	7.85
506.751	8.01
507.098	8.16
507.446	8.33
507.794	8.49
508.141	8.68
508.489	8.86
508.837	9.02
509.184	9.2
509.531	9.35
509.879	9.53
510.226	9.7
510.574	9.9
510.921	10.08
511.268	10.29
511.616	10.46
511.963	10.66
512.31	10.87
512.657	11.11
513.004	11.31
513.351	11.54
513.698	11.75
514.045	12.02
514.392	12.29
514.739	12.55
515.086	12.83
515.432	13.07
515.779	13.32
516.126	13.59
516.473	13.84
516.819	14.07
517.166	14.31
517.512	14.54
517.859	14.75
518.205	14.98
518.552	15.2
518.898	15.41
519.245	15.61
519.591	15.82
519.937	16.03
520.283	16.28
520.629	16.53
520.976	16.77
521.322	17.02
521.668	17.26
522.014	17.54
522.36	17.79
522.706	18.06
523.052	18.34
523.398	18.63
523.743	18.93
524.089	19.25
524.435	19.55
524.781	19.87
525.126	20.11
525.472	20.35
525.817	20.57
526.163	20.79
526.509	20.99
526.854	21.14
527.199	21.33
527.545	21.48
527.89	21.66
528.235	21.83
528.581	22.02
528.926	22.19
529.271	22.36
529.616	22.51
529.961	22.71
530.306	22.88
530.651	23.05
530.996	23.25
531.341	23.44
531.686	23.65
532.031	23.84
532.376	24.08
532.721	24.29
533.065	24.52
533.41	24.72
533.755	24.95
534.099	25.2
534.444	25.41
534.788	25.64
535.133	25.86
535.477	26.1
535.822	26.3
536.166	26.57
536.51	26.81
536.855	27.13
537.199	27.4
537.543	27.69
537.887	28
538.231	28.3
538.576	28.6
538.92	28.87
539.264	29.13
539.608	29.38
539.951	29.58
540.295	29.81
540.639	30.04
540.983	30.27
541.327	30.51
541.671	30.71
542.014	30.92
542.358	31.1
542.701	31.27
543.045	31.45
543.389	31.63
543.732	31.82
544.075	31.97
544.419	32.16
544.762	32.37
545.105	32.57
545.449	32.8
545.792	32.99
546.135	33.21
546.478	33.43
546.821	33.66
547.165	33.96
547.508	34.21
547.851	34.44
548.194	34.69
548.536	34.9
548.879	35.21
549.222	35.43
549.565	35.66
549.908	35.93
550.25	36.2
550.593	36.45
550.936	36.73
551.278	37.04
551.621	37.26
551.963	37.57
552.306	37.82
552.648	38.03
552.991	38.27
553.333	38.53
553.675	38.74
554.017	38.94
554.36	39.1
554.702	39.32
555.044	39.51
555.386	39.72
555.728	39.96
556.07	40.13
556.412	40.28
556.754	40.5
557.096	40.71
557.438	40.96
557.78	41.14
558.121	41.28
558.463	41.41
558.805	41.59
559.147	41.76
559.488	41.88
559.83	41.99
560.171	42.23
560.513	42.31
560.854	42.45
561.196	42.61
561.537	42.71
561.878	42.87
562.22	43.07
562.561	43.19
562.902	43.29
563.243	43.41
563.584	43.55
563.925	43.67
564.266	43.74
564.607	43.8
564.948	43.93
565.289	44.09
565.63	44.2
565.971	44.34
566.312	44.4
566.653	44.56
566.993	44.7
567.334	44.83
567.675	44.96
568.015	45.08
568.356	45.2
568.696	45.36
569.037	45.42
569.377	45.44
569.718	45.56
570.058	45.69
570.398	45.79
570.739	45.99
571.079	46.15
571.419	46.3
571.759	46.43
572.099	46.55
572.439	46.6
572.779	46.68
573.119	46.79
573.459	46.88
573.799	46.91
574.139	47.01
574.479	47.04
574.819	47.2
575.158	47.29
575.498	47.38
575.838	47.48
576.177	47.55
576.517	47.7
576.856	47.74
577.196	47.83
577.535	47.91
577.875	47.97
578.214	48
578.553	48.08
578.893	48.13
579.232	48.23
579.571	48.35
579.91	48.5
580.25	48.56
580.589	48.69
580.928	48.8
581.267	48.85
581.606	48.91
581.945	48.95
582.283	49.01
582.622	49.04
582.961	49.07
583.3	49.16
583.639	49.25
583.977	49.31
584.316	49.36
584.654	49.52
584.993	49.55
585.332	49.64
585.67	49.65
586.008	49.76
586.347	49.77
586.685	49.84
587.024	49.88
587.362	49.89
587.7	49.94
588.038	50.01
588.376	50.09
588.715	50.12
589.053	50.15
589.391	50.21
589.729	50.27
590.067	50.32
590.404	50.4
590.742	50.48
591.08	50.54
591.418	50.63
591.756	50.61
592.093	50.62
592.431	50.66
592.769	50.77
593.106	50.74
593.444	50.83
593.781	50.84
594.119	50.84
594.456	50.89
594.793	50.86
595.131	50.86
595.468	50.94
595.805	51.01
596.143	51.04
596.48	51.11
596.817	51.15
597.154	51.17
597.491	51.2
597.828	51.2
598.165	51.27
598.502	51.21
598.839	51.26
599.176	51.36
599.512	51.37
599.849	51.38
600.186	51.4
600.523	51.37
600.859	51.43
601.196	51.48
601.532	51.55
601.869	51.59
602.205	51.68
602.542	51.64
602.878	51.64
603.215	51.63
603.551	51.59
603.887	51.65
604.223	51.71
604.56	51.71
604.896	51.76
605.232	51.77
605.568	51.87
605.904	51.85
606.24	51.89
606.576	51.96
606.912	51.98
607.248	52.1
607.583	52.17
607.919	52.19
608.255	52.2
608.591	52.2
608.926	52.27
609.262	52.34
609.597	52.36
609.933	52.43
610.268	52.48
610.604	52.55
610.939	52.62
611.275	52.67
611.61	52.69
611.945	52.71
612.281	52.77
612.616	52.76
612.951	52.88
613.286	52.88
613.621	52.93
613.956	53
614.291	52.97
614.626	53.06
614.961	53.13
615.296	53.22
615.631	53.37
615.966	53.35
616.3	53.32
616.635	53.37
616.97	53.38
617.304	53.49
617.639	53.5
617.973	53.46
618.308	53.43
618.642	53.44
618.977	53.42
619.311	53.44
619.646	53.44
619.98	53.47
620.314	53.45
620.648	53.4
620.983	53.36
621.317	53.41
621.651	53.38
621.985	53.45
622.319	53.45
622.653	53.43
622.987	53.49
623.321	53.56
623.655	53.63
623.988	53.71
624.322	53.69
624.656	53.78
624.99	53.81
625.323	53.87
625.657	54.01
625.99	54
626.324	54.03
626.657	53.94
626.991	53.88
627.324	53.87
627.658	53.92
627.991	53.94
628.324	53.91
628.657	53.92
628.991	53.93
629.324	53.89
629.657	53.82
629.99	53.77
630.323	53.76
630.656	53.77
630.989	53.74
631.322	53.74
631.655	53.82
631.987	53.86
632.32	53.85
632.653	53.82
632.986	53.82
633.318	53.86
633.651	53.98
633.984	54.02
634.316	54.14
634.649	54.14
634.981	54.11
635.313	54.19
635.646	54.14
635.978	54.15
636.31	54.2
636.643	54.28
636.975	54.39
637.307	54.38
637.639	54.35
637.971	54.28
638.303	54.29
638.635	54.06
638.967	53.99
639.299	53.93
639.631	53.96
639.963	54.04
640.295	54.01
640.626	54.13
640.958	54.14
641.29	54.08
641.621	54.09
641.953	54.07
642.285	54.11
642.616	54.28
642.948	54.37
643.279	54.41
643.61	54.46
643.942	54.35
644.273	54.48
644.604	54.55
644.936	54.66
645.267	54.72
645.598	54.82
645.929	54.82
646.26	54.96
646.591	54.95
646.922	54.9
647.253	54.87
647.584	54.89
647.915	54.87
648.245	54.93
648.576	54.95
648.907	55.07
649.238	55.02
649.568	54.92
649.899	54.81
650.229	54.88
650.56	54.91
650.89	54.99
651.221	54.98
651.551	55.05
651.882	54.99
652.212	55.01
652.542	55.1
652.872	55.11
653.203	54.98
653.533	54.98
653.863	55.01
654.193	55.08
654.523	55.01
654.853	55.15
655.183	55.12
655.513	55.1
655.843	55.07
656.172	55.2
656.502	55.36
656.832	55.35
657.162	55.38
657.491	55.4
657.821	55.47
658.15	55.46
658.48	55.37
658.809	55.43
659.139	55.4
659.468	55.3
659.798	55.33
660.127	55.45
660.456	55.44
660.785	55.42
661.115	55.37
661.444	55.24
661.773	55.24
662.102	55.24
662.431	55.3
662.76	55.35
663.089	55.28
663.418	55.12
663.747	55.18
664.076	55.12
664.404	55.02
664.733	54.97
665.062	54.97
665.39	54.9
665.719	55.03
666.048	55.09
666.376	55.16
666.705	55.22
667.033	55.18
667.362	55.14
