Data from MVZ_BU34099_Reflection_00012.txt Node
Date: Tue Nov 19 12:15:43 EST 2019
User: vgr7
Spectrometer: USB2G7710
Scans to average: 3
Trigger mode: 4
Integration Time (sec): 2.000000E-2
Electric dark correction enabled: true
Boxcar width: 10
XAxis mode: Wavelengths
Number of Pixels in Spectrum: 2048
>>>>>Begin Spectral Data<<<<<
177.721	452.14
178.105	-193.1
178.488	-1128.97
178.871	216.98
179.254	-727.27
179.636	298.02
180.019	194.9
180.402	-366.67
180.785	122.3
181.168	322.51
181.55	-2938.46
181.933	-767.35
182.316	-1446.51
182.698	-300.55
183.081	-1026.87
183.463	-5938.46
183.846	-300.66
184.228	-951.02
184.611	-3169.23
184.993	1057.14
185.376	214.33
185.758	135.1
186.14	298.18
186.522	268.21
186.904	104.83
187.287	138.95
187.669	104.29
188.051	85.34
188.433	64.62
188.815	5.82
189.197	-3.47
189.579	-13.78
189.961	-0.15
190.342	9.51
190.724	12.66
191.106	19.17
191.488	27.98
191.869	34.44
192.251	49.22
192.633	49.94
193.014	53.82
193.396	52.86
193.777	45.89
194.159	31.65
194.54	25.57
194.922	38.45
195.303	39.35
195.684	26.82
196.065	27.1
196.447	33.13
196.828	44.25
197.209	47.66
197.59	40.58
197.971	43.37
198.352	39.05
198.733	32.64
199.114	24.8
199.495	25.34
199.876	18.42
200.257	2.39
200.638	-6.41
201.018	-2.59
201.399	-14.58
201.78	-7.07
202.16	-1.83
202.541	-5.23
202.922	1.67
203.302	-3.46
203.683	18.23
204.063	23.82
204.444	36.97
204.824	39.78
205.204	29.15
205.585	44.5
205.965	34.04
206.345	29.6
206.725	37.07
207.106	45.96
207.486	45.63
207.866	38.23
208.246	49.64
208.626	44.15
209.006	52.44
209.386	64.71
209.766	52.5
210.145	59.3
210.525	44.61
210.905	27.27
211.285	26.85
211.664	15.38
212.044	8.12
212.424	-2.52
212.803	-6.17
213.183	-2.69
213.562	2.14
213.942	1.45
214.321	-0.06
214.701	-10.42
215.08	-21.37
215.459	-27.49
215.838	-28.18
216.218	-43.9
216.597	-37.33
216.976	-42.89
217.355	-41.4
217.734	-28.77
218.113	-16.01
218.492	-22.42
218.871	-12.21
219.25	-17.72
219.629	-29.4
220.008	-17.75
220.387	-1.11
220.766	2.32
221.144	-4.84
221.523	-15
221.902	-2.03
222.28	4.38
222.659	14.82
223.037	15.72
223.416	13.31
223.794	17.18
224.173	17.15
224.551	16.18
224.929	7.08
225.308	8.78
225.686	6.15
226.064	-1.35
226.442	6.39
226.821	5.78
227.199	4.88
227.577	8.95
227.955	8.65
228.333	3.77
228.711	6.35
229.089	10.05
229.467	9.97
229.845	8.32
230.222	6.7
230.6	5.22
230.978	6.41
231.356	5.97
231.733	5.13
232.111	4.94
232.488	5.87
232.866	9.51
233.243	6.94
233.621	6.6
233.998	6.76
234.376	4.98
234.753	5.76
235.13	6.77
235.508	5.96
235.885	5.66
236.262	6.53
236.639	4.44
237.016	3.24
237.393	3.44
237.77	2.9
238.147	3.18
238.524	4.31
238.901	3.53
239.278	3.37
239.655	2.93
240.032	3.42
240.409	3.3
240.785	2.64
241.162	3.73
241.539	4.07
241.915	4.34
242.292	4.61
242.668	4.66
243.045	4.48
243.421	4.33
243.798	4.6
244.174	4.48
244.551	4.63
244.927	4.58
245.303	4.45
245.679	4.47
246.056	4.23
246.432	4.23
246.808	4.39
247.184	4.4
247.56	4.5
247.936	4.4
248.312	4.41
248.688	4.56
249.064	4.36
249.44	4.42
249.815	4.52
250.191	4.47
250.567	4.05
250.943	4.03
251.318	4.27
251.694	4.11
252.069	4.09
252.445	4.1
252.82	4.25
253.196	4.56
253.571	4.67
253.947	5.17
254.322	4.89
254.697	4.98
255.073	4.95
255.448	5.13
255.823	5.1
256.198	4.94
256.573	4.68
256.948	4.56
257.323	4.27
257.698	4.09
258.073	4.01
258.448	4.44
258.823	4.17
259.198	4.09
259.573	3.98
259.948	4.04
260.322	3.88
260.697	3.73
261.072	3.58
261.446	3.47
261.821	3.37
262.195	3.39
262.57	3.25
262.944	3.4
263.319	3.38
263.693	3.35
264.067	3.38
264.442	3.4
264.816	3.38
265.19	3.49
265.564	3.35
265.938	3.43
266.313	3.11
266.687	3.46
267.061	3.44
267.435	3.53
267.809	3.54
268.183	3.68
268.556	3.75
268.93	3.88
269.304	3.93
269.678	4
270.051	3.96
270.425	4.03
270.799	3.88
271.172	3.84
271.546	3.91
271.919	3.81
272.293	3.92
272.666	3.94
273.04	4.06
273.413	4.06
273.787	3.91
274.16	3.99
274.533	3.94
274.906	3.85
275.279	3.94
275.653	3.97
276.026	4.05
276.399	4.07
276.772	4.03
277.145	4.1
277.518	4.08
277.891	3.99
278.263	3.99
278.636	3.94
279.009	4.01
279.382	3.86
279.755	3.99
280.127	3.86
280.5	3.83
280.872	3.75
281.245	3.83
281.617	3.99
281.99	3.99
282.362	3.89
282.735	3.92
283.107	3.81
283.479	3.85
283.852	3.69
284.224	3.64
284.596	3.57
284.968	3.53
285.34	3.39
285.713	3.58
286.085	3.49
286.457	3.46
286.829	3.4
287.201	3.48
287.572	3.47
287.944	3.64
288.316	3.73
288.688	3.68
289.06	3.7
289.431	3.64
289.803	3.81
290.175	3.87
290.546	3.83
290.918	3.86
291.289	3.75
291.661	3.87
292.032	3.87
292.403	4.01
292.775	4.08
293.146	4.3
293.517	4.34
293.889	4.39
294.26	4.51
294.631	4.63
295.002	4.72
295.373	4.85
295.744	4.78
296.115	4.83
296.486	4.9
296.857	5
297.228	5
297.599	4.92
297.97	4.95
298.34	5.05
298.711	5.04
299.082	5.1
299.452	5.07
299.823	5.15
300.194	5.27
300.564	5.22
300.935	5.33
301.305	5.22
301.676	5.16
302.046	5.21
302.416	5.13
302.787	5.23
303.157	5.14
303.527	5.21
303.897	5.23
304.267	5.38
304.637	5.34
305.008	5.55
305.378	5.6
305.748	5.65
306.117	5.68
306.487	5.73
306.857	5.8
307.227	5.95
307.597	5.99
307.967	5.82
308.336	6.07
308.706	5.92
309.076	6.08
309.445	6.27
309.815	6.28
310.184	6.27
310.554	6.12
310.923	6.16
311.293	6.23
311.662	6.32
312.031	6.23
312.401	6.29
312.77	6.21
313.139	6.11
313.508	6.15
313.877	6.17
314.246	6.2
314.616	6.23
314.985	6.09
315.353	6.06
315.722	6.28
316.091	6.26
316.46	6.33
316.829	6.45
317.198	6.67
317.567	6.71
317.935	6.8
318.304	7
318.672	7.17
319.041	7.05
319.41	7.05
319.778	7.17
320.147	7.22
320.515	7.39
320.883	7.57
321.252	7.48
321.62	7.54
321.988	7.86
322.357	8.04
322.725	8.1
323.093	8.1
323.461	7.99
323.829	7.97
324.197	8.06
324.565	7.9
324.933	7.73
325.301	7.84
325.669	7.82
326.037	7.82
326.405	7.8
326.772	7.95
327.14	7.91
327.508	8.01
327.875	8.08
328.243	8.02
328.61	7.98
328.978	8.1
329.346	8.21
329.713	8.13
330.08	8.04
330.448	8.17
330.815	8.36
331.182	8.29
331.55	8.26
331.917	8.11
332.284	8.19
332.651	8.26
333.018	8.35
333.385	8.49
333.752	8.63
334.119	8.63
334.486	8.65
334.853	8.66
335.22	8.5
335.587	8.51
335.954	8.6
336.32	8.76
336.687	8.87
337.054	8.94
337.42	8.93
337.787	9.01
338.153	9.07
338.52	9.18
338.886	9.36
339.253	9.38
339.619	9.55
339.986	9.57
340.352	9.53
340.718	9.44
341.084	9.44
341.451	9.5
341.817	9.6
342.183	9.59
342.549	9.68
342.915	9.83
343.281	9.82
343.647	9.82
344.013	9.78
344.379	9.81
344.745	9.64
345.11	9.58
345.476	9.65
345.842	9.65
346.208	9.53
346.573	9.66
346.939	9.73
347.304	9.77
347.67	9.68
348.035	9.69
348.401	9.78
348.766	9.73
349.132	9.72
349.497	9.63
349.862	9.65
350.228	9.53
350.593	9.49
350.958	9.59
351.323	9.53
351.688	9.56
352.053	9.52
352.418	9.63
352.783	9.63
353.148	9.58
353.513	9.61
353.878	9.57
354.243	9.38
354.608	9.32
354.972	9.22
355.337	9.37
355.702	9.4
356.066	9.29
356.431	9.25
356.795	9.27
357.16	9.23
357.524	9.19
357.889	9.22
358.253	9.13
358.618	9.03
358.982	9.03
359.346	8.95
359.71	8.94
360.075	8.89
360.439	8.96
360.803	8.94
361.167	8.9
361.531	8.89
361.895	8.9
362.259	8.92
362.623	8.93
362.987	8.88
363.351	8.9
363.714	9
364.078	9.05
364.442	8.97
364.806	9.01
365.169	8.92
365.533	8.97
365.896	9.05
366.26	9.03
366.623	9.03
366.987	9.04
367.35	8.97
367.714	8.98
368.077	8.91
368.44	8.89
368.803	8.84
369.167	8.83
369.53	8.79
369.893	8.75
370.256	8.75
370.619	8.73
370.982	8.51
371.345	8.43
371.708	8.38
372.071	8.32
372.434	8.32
372.797	8.31
373.159	8.18
373.522	8.09
373.885	8.05
374.247	8.02
374.61	7.95
374.973	7.91
375.335	7.84
375.698	7.73
376.06	7.65
376.423	7.55
376.785	7.48
377.147	7.4
377.51	7.33
377.872	7.28
378.234	7.27
378.596	7.35
378.958	7.27
379.321	7.16
379.683	7.12
380.045	7.02
380.407	7.02
380.769	7.04
381.13	6.99
381.492	6.92
381.854	6.86
382.216	6.86
382.578	6.8
382.939	6.73
383.301	6.69
383.663	6.65
384.024	6.6
384.386	6.61
384.747	6.59
385.109	6.57
385.47	6.5
385.832	6.39
386.193	6.3
386.554	6.23
386.916	6.22
387.277	6.16
387.638	6.14
387.999	6.09
388.36	5.99
388.721	6
389.082	6.01
389.443	5.98
389.804	5.92
390.165	5.94
390.526	5.95
390.887	5.94
391.248	5.87
391.609	5.9
391.969	5.86
392.33	5.8
392.691	5.76
393.051	5.71
393.412	5.7
393.772	5.67
394.133	5.68
394.493	5.62
394.854	5.59
395.214	5.54
395.574	5.47
395.935	5.44
396.295	5.33
396.655	5.27
397.015	5.22
397.376	5.2
397.736	5.13
398.096	5.05
398.456	5
398.816	5
399.176	4.87
399.535	4.78
399.895	4.74
400.255	4.71
400.615	4.73
400.975	4.66
401.334	4.63
401.694	4.57
402.054	4.54
402.413	4.51
402.773	4.46
403.132	4.46
403.492	4.49
403.851	4.48
404.211	4.46
404.57	4.42
404.929	4.35
405.288	4.31
405.648	4.29
406.007	4.24
406.366	4.22
406.725	4.27
407.084	4.27
407.443	4.29
407.802	4.24
408.161	4.17
408.52	4.19
408.879	4.19
409.238	4.2
409.596	4.2
409.955	4.18
410.314	4.17
410.673	4.16
411.031	4.11
411.39	4.12
411.748	4.12
412.107	4.1
412.465	4.11
412.824	4.1
413.182	4.1
413.54	4.13
413.899	4.12
414.257	4.08
414.615	4.04
414.974	4.01
415.332	4.02
415.69	3.99
416.048	3.96
416.406	3.93
416.764	3.9
417.122	3.86
417.48	3.85
417.838	3.85
418.195	3.83
418.553	3.79
418.911	3.75
419.269	3.72
419.626	3.7
419.984	3.68
420.342	3.66
420.699	3.64
421.057	3.61
421.414	3.6
421.772	3.57
422.129	3.56
422.486	3.54
422.844	3.51
423.201	3.5
423.558	3.48
423.915	3.47
424.273	3.48
424.63	3.49
424.987	3.47
425.344	3.44
425.701	3.43
426.058	3.42
426.415	3.41
426.772	3.41
427.128	3.4
427.485	3.4
427.842	3.38
428.199	3.38
428.555	3.37
428.912	3.34
429.269	3.33
429.625	3.33
429.982	3.32
430.338	3.3
430.695	3.29
431.051	3.29
431.407	3.28
431.764	3.24
432.12	3.24
432.476	3.25
432.832	3.25
433.189	3.23
433.545	3.25
433.901	3.26
434.257	3.25
434.613	3.26
434.969	3.24
435.325	3.25
435.681	3.24
436.036	3.23
436.392	3.23
436.748	3.25
437.104	3.25
437.459	3.25
437.815	3.29
438.171	3.28
438.526	3.3
438.882	3.31
439.237	3.3
439.593	3.3
439.948	3.3
440.304	3.28
440.659	3.29
441.014	3.27
441.369	3.26
441.725	3.26
442.08	3.27
442.435	3.27
442.79	3.26
443.145	3.27
443.5	3.27
443.855	3.26
444.21	3.24
444.565	3.23
444.92	3.24
445.275	3.23
445.629	3.24
445.984	3.22
446.339	3.21
446.693	3.2
447.048	3.17
447.403	3.16
447.757	3.16
448.112	3.16
448.466	3.16
448.82	3.17
449.175	3.16
449.529	3.14
449.883	3.14
450.238	3.13
450.592	3.1
450.946	3.09
451.3	3.09
451.654	3.07
452.008	3.06
452.362	3.04
452.716	3.02
453.07	3
453.424	3.01
453.778	2.98
454.132	2.99
454.486	3.01
454.839	3
455.193	3
455.547	3.01
455.9	3.02
456.254	2.99
456.607	3.01
456.961	3.01
457.314	2.98
457.668	2.99
458.021	3
458.375	3
458.728	3.02
459.081	3.04
459.434	3.05
459.787	3.05
460.141	3.07
460.494	3.09
460.847	3.08
461.2	3.09
461.553	3.09
461.906	3.08
462.259	3.09
462.611	3.08
462.964	3.08
463.317	3.08
463.67	3.1
464.022	3.1
464.375	3.11
464.728	3.14
465.08	3.14
465.433	3.15
465.785	3.19
466.138	3.19
466.49	3.19
466.843	3.21
467.195	3.22
467.547	3.21
467.899	3.2
468.252	3.24
468.604	3.26
468.956	3.28
469.308	3.29
469.66	3.32
470.012	3.33
470.364	3.35
470.716	3.36
471.068	3.36
471.42	3.37
471.772	3.38
472.123	3.39
472.475	3.41
472.827	3.42
473.178	3.42
473.53	3.43
473.882	3.44
474.233	3.46
474.585	3.48
474.936	3.51
475.288	3.51
475.639	3.51
475.99	3.51
476.342	3.51
476.693	3.51
477.044	3.5
477.395	3.48
477.746	3.46
478.097	3.46
478.448	3.46
478.8	3.45
479.15	3.43
479.501	3.39
479.852	3.37
480.203	3.37
480.554	3.36
480.905	3.35
481.255	3.34
481.606	3.33
481.957	3.32
482.307	3.31
482.658	3.32
483.009	3.32
483.359	3.31
483.709	3.3
484.06	3.3
484.41	3.3
484.761	3.32
485.111	3.34
485.461	3.33
485.811	3.33
486.162	3.32
486.512	3.33
486.862	3.35
487.212	3.35
487.562	3.35
487.912	3.34
488.262	3.35
488.612	3.35
488.961	3.35
489.311	3.35
489.661	3.36
490.011	3.35
490.36	3.35
490.71	3.36
491.06	3.36
491.409	3.36
491.759	3.36
492.108	3.37
492.458	3.36
492.807	3.36
493.157	3.38
493.506	3.4
493.855	3.41
494.204	3.41
494.554	3.43
494.903	3.45
495.252	3.48
495.601	3.5
495.95	3.52
496.299	3.55
496.648	3.6
496.997	3.63
497.346	3.67
497.695	3.7
498.043	3.74
498.392	3.78
498.741	3.81
499.09	3.84
499.438	3.88
499.787	3.91
500.135	3.93
500.484	3.95
500.832	4.01
501.181	4.06
501.529	4.12
501.878	4.17
502.226	4.25
502.574	4.28
502.923	4.31
503.271	4.39
503.619	4.44
503.967	4.49
504.315	4.52
504.663	4.57
505.011	4.63
505.359	4.68
505.707	4.71
506.055	4.78
506.403	4.85
506.751	4.89
507.098	4.98
507.446	5.06
507.794	5.12
508.141	5.18
508.489	5.25
508.837	5.31
509.184	5.38
509.531	5.42
509.879	5.51
510.226	5.59
510.574	5.66
510.921	5.74
511.268	5.8
511.616	5.9
511.963	5.96
512.31	6.04
512.657	6.12
513.004	6.21
513.351	6.29
513.698	6.38
514.045	6.49
514.392	6.56
514.739	6.66
515.086	6.76
515.432	6.86
515.779	6.94
516.126	7.05
516.473	7.14
516.819	7.21
517.166	7.3
517.512	7.36
517.859	7.43
518.205	7.49
518.552	7.56
518.898	7.63
519.245	7.7
519.591	7.78
519.937	7.85
520.283	7.95
520.629	8.04
520.976	8.12
521.322	8.22
521.668	8.33
522.014	8.43
522.36	8.52
522.706	8.63
523.052	8.78
523.398	8.89
523.743	9.02
524.089	9.2
524.435	9.34
524.781	9.48
525.126	9.57
525.472	9.67
525.817	9.78
526.163	9.87
526.509	9.96
526.854	10.03
527.199	10.13
527.545	10.19
527.89	10.27
528.235	10.39
528.581	10.48
528.926	10.57
529.271	10.65
529.616	10.75
529.961	10.85
530.306	10.93
530.651	11.03
530.996	11.14
531.341	11.23
531.686	11.34
532.031	11.45
532.376	11.59
532.721	11.73
533.065	11.86
533.41	12.01
533.755	12.16
534.099	12.32
534.444	12.47
534.788	12.61
535.133	12.76
535.477	12.9
535.822	13.04
536.166	13.23
536.51	13.42
536.855	13.63
537.199	13.84
537.543	14.06
537.887	14.28
538.231	14.51
538.576	14.72
538.92	14.93
539.264	15.12
539.608	15.32
539.951	15.51
540.295	15.71
540.639	15.88
540.983	16.07
541.327	16.24
541.671	16.43
542.014	16.63
542.358	16.83
542.701	17
543.045	17.2
543.389	17.37
543.732	17.56
544.075	17.74
544.419	17.91
544.762	18.08
545.105	18.31
545.449	18.5
545.792	18.73
546.135	18.98
546.478	19.25
546.821	19.53
547.165	19.82
547.508	20.08
547.851	20.36
548.194	20.63
548.536	20.91
548.879	21.16
549.222	21.44
549.565	21.69
549.908	21.99
550.25	22.26
550.593	22.57
550.936	22.89
551.278	23.21
551.621	23.52
551.963	23.9
552.306	24.17
552.648	24.5
552.991	24.8
553.333	25.06
553.675	25.33
554.017	25.6
554.36	25.86
554.702	26.14
555.044	26.42
555.386	26.67
555.728	26.93
556.07	27.24
556.412	27.55
556.754	27.88
557.096	28.16
557.438	28.44
557.78	28.71
558.121	28.97
558.463	29.21
558.805	29.51
559.147	29.77
559.488	30
559.83	30.26
560.171	30.5
560.513	30.84
560.854	31.13
561.196	31.39
561.537	31.64
561.878	31.94
562.22	32.19
562.561	32.49
562.902	32.78
563.243	33.01
563.584	33.31
563.925	33.51
564.266	33.75
564.607	33.97
564.948	34.23
565.289	34.45
565.63	34.73
565.971	34.94
566.312	35.15
566.653	35.38
566.993	35.6
567.334	35.85
567.675	36.02
568.015	36.17
568.356	36.4
568.696	36.64
569.037	36.9
569.377	37.11
569.718	37.27
570.058	37.41
570.398	37.6
570.739	37.75
571.079	37.94
571.419	38.14
571.759	38.35
572.099	38.56
572.439	38.72
572.779	38.92
573.119	39.12
573.459	39.26
573.799	39.47
574.139	39.63
574.479	39.79
574.819	39.98
575.158	40.22
575.498	40.34
575.838	40.48
576.177	40.55
576.517	40.7
576.856	40.88
577.196	41.1
577.535	41.28
577.875	41.44
578.214	41.62
578.553	41.71
578.893	41.87
579.232	42.03
579.571	42.25
579.91	42.33
580.25	42.48
580.589	42.66
580.928	42.78
581.267	42.86
581.606	43.01
581.945	43.13
582.283	43.26
582.622	43.4
582.961	43.51
583.3	43.67
583.639	43.79
583.977	43.95
584.316	44.08
584.654	44.15
584.993	44.29
585.332	44.41
585.67	44.61
586.008	44.71
586.347	44.79
586.685	44.89
587.024	45
587.362	45.07
587.7	45.18
588.038	45.23
588.376	45.41
588.715	45.5
589.053	45.51
589.391	45.51
589.729	45.69
590.067	45.79
590.404	45.87
590.742	46.11
591.08	46.21
591.418	46.27
591.756	46.43
592.093	46.48
592.431	46.58
592.769	46.61
593.106	46.69
593.444	46.76
593.781	46.85
594.119	46.99
594.456	47.07
594.793	47.12
595.131	47.21
595.468	47.2
595.805	47.26
596.143	47.34
596.48	47.48
596.817	47.43
597.154	47.47
597.491	47.55
597.828	47.53
598.165	47.52
598.502	47.55
598.839	47.6
599.176	47.65
599.512	47.68
599.849	47.76
600.186	47.82
600.523	47.85
600.859	47.85
601.196	47.85
601.532	47.92
601.869	47.98
602.205	48.03
602.542	48.14
602.878	48.21
603.215	48.31
603.551	48.33
603.887	48.41
604.223	48.47
604.56	48.5
604.896	48.51
605.232	48.68
605.568	48.79
605.904	48.8
606.24	48.92
606.576	48.99
606.912	49.1
607.248	49.18
607.583	49.3
607.919	49.36
608.255	49.47
608.591	49.45
608.926	49.56
609.262	49.67
609.597	49.66
609.933	49.73
610.268	49.78
610.604	49.85
610.939	49.85
611.275	49.91
611.61	49.95
611.945	49.97
612.281	49.9
612.616	49.88
612.951	49.91
613.286	49.85
613.621	49.93
613.956	49.87
614.291	49.86
614.626	49.88
614.961	49.9
615.296	49.89
615.631	49.99
615.966	50.06
616.3	50.06
616.635	50.09
616.97	50.03
617.304	50
617.639	50.04
617.973	50.12
618.308	50.19
618.642	50.18
618.977	50.29
619.311	50.36
619.646	50.5
619.98	50.59
620.314	50.61
620.648	50.62
620.983	50.73
621.317	50.79
621.651	50.8
621.985	50.85
622.319	50.92
622.653	51.02
622.987	51.05
623.321	51.06
623.655	51.08
623.988	51.18
624.322	51.26
624.656	51.26
624.99	51.3
625.323	51.29
625.657	51.41
625.99	51.41
626.324	51.49
626.657	51.41
626.991	51.48
627.324	51.52
627.658	51.54
627.991	51.55
628.324	51.57
628.657	51.59
628.991	51.64
629.324	51.65
629.657	51.7
629.99	51.7
630.323	51.73
630.656	51.84
630.989	51.85
631.322	51.87
631.655	51.88
631.987	51.94
632.32	51.98
632.653	51.91
632.986	51.95
633.318	51.79
633.651	51.84
633.984	51.83
634.316	51.95
634.649	52
634.981	52
635.313	51.99
635.646	51.98
635.978	52.02
636.31	52.03
636.643	51.93
636.975	51.88
637.307	51.94
637.639	51.96
637.971	51.99
638.303	52.05
638.635	52.13
638.967	52.08
639.299	52.06
639.631	52.1
639.963	52.1
640.295	52.24
640.626	52.28
640.958	52.3
641.29	52.22
641.621	52.18
641.953	52.15
642.285	52.16
642.616	52.23
642.948	52.21
643.279	52.19
643.61	52.23
643.942	52.24
644.273	52.25
644.604	52.16
644.936	52.2
645.267	52.18
645.598	52.16
645.929	52.27
646.26	52.34
646.591	52.34
646.922	52.45
647.253	52.62
647.584	52.64
647.915	52.61
648.245	52.68
648.576	52.8
648.907	52.8
649.238	52.73
649.568	52.77
649.899	52.9
650.229	52.79
650.56	52.84
650.89	52.87
651.221	52.86
651.551	52.94
651.882	52.95
652.212	52.94
652.542	52.94
652.872	52.82
653.203	52.8
653.533	52.82
653.863	52.79
654.193	52.61
654.523	52.64
654.853	52.67
655.183	52.69
655.513	52.64
655.843	52.77
656.172	52.88
656.502	52.85
656.832	52.69
657.162	52.93
657.491	52.96
657.821	52.96
658.15	53.07
658.48	53.01
658.809	52.99
659.139	53.03
659.468	53.08
659.798	53.24
660.127	53.25
660.456	53.27
660.785	53.19
661.115	53.15
661.444	53.14
661.773	53.11
662.102	53.16
662.431	53.2
662.76	53.09
663.089	53.15
663.418	53.14
663.747	53.22
664.076	53.13
664.404	53.06
664.733	53.05
665.062	52.96
665.39	53
665.719	52.98
666.048	52.98
666.376	52.84
666.705	52.88
667.033	52.86
667.362	52.89
667.69	53
668.018	53.13
668.347	53.15
668.675	53.16
669.003	53.13
669.331	53.12
669.659	53.26
669.987	53.26
