Data from MVZ_BU8940_Reflection_00010.txt Node
Date: Tue Nov 19 12:16:36 EST 2019
User: vgr7
Spectrometer: USB2G7710
Scans to average: 3
Trigger mode: 4
Integration Time (sec): 2.000000E-2
Electric dark correction enabled: true
Boxcar width: 10
XAxis mode: Wavelengths
Number of Pixels in Spectrum: 2048
>>>>>Begin Spectral Data<<<<<
177.721	-347.72
178.105	-144.32
178.488	3.55
178.871	-57.14
179.254	2.44
179.636	216.07
180.019	-252.6
180.402	-460
180.785	20
181.168	30.69
181.55	182.9
181.933	132.06
182.316	199.13
182.698	130.88
183.081	88.01
183.463	76.36
183.846	69.74
184.228	22.02
184.611	29.78
184.993	31.09
185.376	28.94
185.758	56.02
186.14	101.87
186.522	301.01
186.904	328.57
187.287	229.91
187.669	245.76
188.051	280.52
188.433	347.23
188.815	248.79
189.197	308.47
189.579	1910.81
189.961	-123.8
190.342	-208.72
190.724	217.65
191.106	2047.37
191.488	-2003.45
191.869	67100
192.251	5253.85
192.633	1658.14
193.014	394.12
193.396	230.29
193.777	1505.41
194.159	796.2
194.54	792.91
194.922	279.03
195.303	181.42
195.684	277.99
196.065	341.11
196.447	239.29
196.828	426.87
197.209	682.96
197.59	557.56
197.971	305.03
198.352	397.74
198.733	798.96
199.114	898.59
199.495	-2839.76
199.876	2381.55
200.257	1711.46
200.638	1025.8
201.018	970.43
201.399	-1962.94
201.78	-1340.19
202.16	-1494.59
202.541	4345.9
202.922	-3012.36
203.302	-1094.55
203.683	-1005.45
204.063	-3194.74
204.444	-2761.39
204.824	3323.53
205.204	20023.08
205.585	7583.87
205.965	-4086.44
206.345	-1414.97
206.725	-1900
207.106	-471.03
207.486	1543.48
207.866	-5831.03
208.246	-569.46
208.626	-584.73
209.006	-156.33
209.386	-358.17
209.766	-2328.57
210.145	8385.71
210.525	-1471.43
210.905	-136.05
211.285	-17.38
211.664	15.6
212.044	23.78
212.424	37.59
212.803	64.64
213.183	67.21
213.562	18.68
213.942	68.88
214.321	73.77
214.701	35.59
215.08	27.88
215.459	38.76
215.838	31.69
216.218	-2.29
216.597	-1.53
216.976	-103.05
217.355	-186.91
217.734	869.23
218.113	4257.89
218.492	-379.64
218.871	-476.74
219.25	2355.81
219.629	852.07
220.008	389.1
220.387	1100
220.766	-359.14
221.144	-149.51
221.523	-142.38
221.902	-141.79
222.28	-209.57
222.659	-45.06
223.037	-48.38
223.416	-69.36
223.794	-44.62
224.173	-36.24
224.551	-32.43
224.929	-35.6
225.308	-19.97
225.686	-21.36
226.064	-23.87
226.442	-19.95
226.821	-15.78
227.199	-16.8
227.577	-19.92
227.955	-17.57
228.333	-20.34
228.711	-12.87
229.089	-12.43
229.467	-7.9
229.845	-11.9
230.222	-5
230.6	-11.08
230.978	-9.11
231.356	-8.4
231.733	-4.52
232.111	-3.85
232.488	-5.78
232.866	-1.74
233.243	-1.43
233.621	-0.18
233.998	-0.27
234.376	-0.59
234.753	-2.26
235.13	-1.36
235.508	0.22
235.885	-0.93
236.262	0.43
236.639	-3.29
237.016	-1.79
237.393	-3.11
237.77	-1.01
238.147	-1.09
238.524	-0.62
238.901	-1.78
239.278	-2.38
239.655	-2.83
240.032	-2.25
240.409	-2.29
240.785	-3.03
241.162	-2.88
241.539	-2.07
241.915	-1.46
242.292	-0.77
242.668	0.03
243.045	0.32
243.421	0.86
243.798	1.04
244.174	1.26
244.551	1.9
244.927	1.59
245.303	1.66
245.679	1.83
246.056	1.68
246.432	1.89
246.808	2.24
247.184	2.54
247.56	2.66
247.936	2.88
248.312	3.34
248.688	3.62
249.064	3.92
249.44	3.78
249.815	3.71
250.191	3.37
250.567	3.28
250.943	3.17
251.318	3.1
251.694	2.97
252.069	2.64
252.445	2.2
252.82	2.66
253.196	2.69
253.571	2.49
253.947	2.38
254.322	2.02
254.697	2.12
255.073	1.99
255.448	1.9
255.823	1.81
256.198	1.41
256.573	1.61
256.948	1.29
257.323	1.5
257.698	1.58
258.073	1.83
258.448	1.9
258.823	1.95
259.198	1.96
259.573	1.99
259.948	2.29
260.322	2.38
260.697	2.32
261.072	2.56
261.446	2.54
261.821	2.38
262.195	2.46
262.57	2.45
262.944	2.6
263.319	2.8
263.693	2.79
264.067	3
264.442	2.87
264.816	2.89
265.19	2.81
265.564	2.98
265.938	2.86
266.313	2.95
266.687	3.04
267.061	3.05
267.435	3.25
267.809	3.08
268.183	2.97
268.556	2.66
268.93	2.62
269.304	2.64
269.678	3
270.051	3.29
270.425	3.14
270.799	2.95
271.172	2.79
271.546	2.98
271.919	2.83
272.293	2.93
272.666	2.95
273.04	2.94
273.413	2.81
273.787	3.06
274.16	3.01
274.533	3.13
274.906	3.16
275.279	3.03
275.653	3.24
276.026	3.25
276.399	3.33
276.772	3.23
277.145	3.42
277.518	3.25
277.891	2.93
278.263	3.29
278.636	3.47
279.009	3.6
279.382	3.49
279.755	3.49
280.127	3.41
280.5	3.43
280.872	3.5
281.245	3.56
281.617	3.45
281.99	3.57
282.362	3.43
282.735	3.48
283.107	3.41
283.479	3.47
283.852	3.6
284.224	3.75
284.596	3.91
284.968	3.75
285.34	3.8
285.713	3.88
286.085	3.68
286.457	3.74
286.829	3.6
287.201	3.51
287.572	3.5
287.944	3.51
288.316	3.65
288.688	3.64
289.06	3.58
289.431	3.73
289.803	3.63
290.175	3.65
290.546	3.58
290.918	3.74
291.289	3.51
291.661	3.49
292.032	3.47
292.403	3.31
292.775	3.43
293.146	3.44
293.517	3.47
293.889	3.51
294.26	3.58
294.631	3.64
295.002	3.74
295.373	3.92
295.744	4.03
296.115	4
296.486	4
296.857	4
297.228	3.76
297.599	3.73
297.97	3.88
298.34	3.96
298.711	3.93
299.082	3.98
299.452	4.03
299.823	3.93
300.194	4.08
300.564	3.99
300.935	4.17
301.305	4.21
301.676	4.1
302.046	4.1
302.416	4.14
302.787	4.17
303.157	4.08
303.527	4.1
303.897	3.97
304.267	4.06
304.637	4.13
305.008	4.28
305.378	4.43
305.748	4.29
306.117	4.16
306.487	4.34
306.857	4.33
307.227	4.39
307.597	4.46
307.967	4.39
308.336	4.47
308.706	4.46
309.076	4.53
309.445	4.72
309.815	4.69
310.184	4.71
310.554	4.8
310.923	4.8
311.293	4.7
311.662	4.78
312.031	4.64
312.401	4.55
312.77	4.56
313.139	4.5
313.508	4.59
313.877	4.71
314.246	4.66
314.616	4.83
314.985	4.77
315.353	4.92
315.722	4.93
316.091	5.02
316.46	4.76
316.829	4.81
317.198	4.83
317.567	4.85
317.935	4.87
318.304	4.84
318.672	4.91
319.041	5.22
319.41	5.27
319.778	5.49
320.147	5.82
320.515	5.82
320.883	5.87
321.252	5.88
321.62	5.94
321.988	5.89
322.357	5.92
322.725	6.08
323.093	5.97
323.461	6.08
323.829	6.09
324.197	6.2
324.565	6.18
324.933	6.12
325.301	6.09
325.669	6.07
326.037	6.01
326.405	6.13
326.772	5.97
327.14	6.05
327.508	6.09
327.875	5.91
328.243	5.82
328.61	5.88
328.978	5.85
329.346	5.88
329.713	6.02
330.08	5.96
330.448	5.87
330.815	6.08
331.182	5.9
331.55	5.98
331.917	5.94
332.284	6.03
332.651	6.15
333.018	6.18
333.385	6.18
333.752	6.27
334.119	6.19
334.486	6.09
334.853	6.16
335.22	6.07
335.587	6.07
335.954	6.11
336.32	6.06
336.687	6.22
337.054	6.1
337.42	5.95
337.787	6.05
338.153	6.22
338.52	6.11
338.886	6.36
339.253	6.36
339.619	6.56
339.986	6.4
340.352	6.42
340.718	6.45
341.084	6.61
341.451	6.67
341.817	6.73
342.183	6.91
342.549	6.9
342.915	6.95
343.281	6.9
343.647	7.04
344.013	7.12
344.379	7.03
344.745	7.23
345.11	7.39
345.476	7.44
345.842	7.4
346.208	7.5
346.573	7.45
346.939	7.43
347.304	7.29
347.67	7.42
348.035	7.33
348.401	7.32
348.766	7.27
349.132	7.31
349.497	7.3
349.862	7.32
350.228	7.25
350.593	7.25
350.958	7.5
351.323	7.38
351.688	7.45
352.053	7.47
352.418	7.37
352.783	7.42
353.148	7.36
353.513	7.29
353.878	7.24
354.243	7.22
354.608	7.27
354.972	7.39
355.337	7.52
355.702	7.63
356.066	7.68
356.431	7.67
356.795	7.74
357.16	7.75
357.524	7.64
357.889	7.72
358.253	7.68
358.618	7.51
358.982	7.56
359.346	7.59
359.71	7.58
360.075	7.61
360.439	7.48
360.803	7.52
361.167	7.55
361.531	7.57
361.895	7.58
362.259	7.54
362.623	7.47
362.987	7.35
363.351	7.26
363.714	7.24
364.078	7.24
364.442	7.14
364.806	7.05
365.169	7.1
365.533	7.08
365.896	7.19
366.26	7.19
366.623	7.13
366.987	7.05
367.35	7.04
367.714	7.07
368.077	7.13
368.44	7.15
368.803	7.13
369.167	7.08
369.53	7.15
369.893	7.1
370.256	7.2
370.619	7.18
370.982	7.21
371.345	7.15
371.708	7.19
372.071	7.11
372.434	7.18
372.797	7.21
373.159	7.15
373.522	7.05
373.885	7.09
374.247	7.11
374.61	7.08
374.973	7.04
375.335	6.98
375.698	6.94
376.06	6.81
376.423	6.79
376.785	6.76
377.147	6.57
377.51	6.51
377.872	6.46
378.234	6.51
378.596	6.49
378.958	6.47
379.321	6.38
379.683	6.42
380.045	6.29
380.407	6.22
380.769	6.15
381.13	6.12
381.492	6.08
381.854	6.06
382.216	6.05
382.578	6.04
382.939	5.99
383.301	6
383.663	6
384.024	6
384.386	5.98
384.747	6.05
385.109	6.01
385.47	6.02
385.832	5.93
386.193	5.93
386.554	5.89
386.916	5.89
387.277	5.81
387.638	5.86
387.999	5.86
388.36	5.86
388.721	5.84
389.082	5.85
389.443	5.87
389.804	5.9
390.165	5.86
390.526	5.87
390.887	5.8
391.248	5.77
391.609	5.76
391.969	5.76
392.33	5.69
392.691	5.72
393.051	5.63
393.412	5.63
393.772	5.62
394.133	5.58
394.493	5.54
394.854	5.59
395.214	5.55
395.574	5.54
395.935	5.51
396.295	5.49
396.655	5.46
397.015	5.44
397.376	5.37
397.736	5.36
398.096	5.33
398.456	5.34
398.816	5.34
399.176	5.29
399.535	5.27
399.895	5.27
400.255	5.23
400.615	5.22
400.975	5.18
401.334	5.15
401.694	5.19
402.054	5.19
402.413	5.12
402.773	5.14
403.132	5.08
403.492	5.09
403.851	5.06
404.211	5.02
404.57	5
404.929	4.95
405.288	4.95
405.648	4.95
406.007	4.9
406.366	4.92
406.725	4.9
407.084	4.87
407.443	4.87
407.802	4.88
408.161	4.88
408.52	4.92
408.879	4.9
409.238	4.9
409.596	4.86
409.955	4.87
410.314	4.81
410.673	4.83
411.031	4.82
411.39	4.83
411.748	4.83
412.107	4.83
412.465	4.82
412.824	4.8
413.182	4.79
413.54	4.83
413.899	4.83
414.257	4.82
414.615	4.86
414.974	4.83
415.332	4.83
415.69	4.82
416.048	4.8
416.406	4.78
416.764	4.76
417.122	4.77
417.48	4.77
417.838	4.76
418.195	4.74
418.553	4.72
418.911	4.72
419.269	4.72
419.626	4.71
419.984	4.71
420.342	4.71
420.699	4.69
421.057	4.68
421.414	4.66
421.772	4.66
422.129	4.61
422.486	4.62
422.844	4.6
423.201	4.59
423.558	4.57
423.915	4.57
424.273	4.56
424.63	4.55
424.987	4.56
425.344	4.57
425.701	4.55
426.058	4.57
426.415	4.56
426.772	4.57
427.128	4.57
427.485	4.58
427.842	4.58
428.199	4.56
428.555	4.55
428.912	4.53
429.269	4.53
429.625	4.55
429.982	4.55
430.338	4.57
430.695	4.56
431.051	4.58
431.407	4.58
431.764	4.57
432.12	4.58
432.476	4.58
432.832	4.59
433.189	4.59
433.545	4.58
433.901	4.56
434.257	4.53
434.613	4.51
434.969	4.49
435.325	4.48
435.681	4.49
436.036	4.49
436.392	4.52
436.748	4.53
437.104	4.53
437.459	4.53
437.815	4.54
438.171	4.54
438.526	4.51
438.882	4.53
439.237	4.54
439.593	4.54
439.948	4.53
440.304	4.54
440.659	4.55
441.014	4.53
441.369	4.54
441.725	4.54
442.08	4.55
442.435	4.57
442.79	4.55
443.145	4.57
443.5	4.55
443.855	4.55
444.21	4.54
444.565	4.55
444.92	4.54
445.275	4.53
445.629	4.52
445.984	4.53
446.339	4.53
446.693	4.51
447.048	4.49
447.403	4.49
447.757	4.46
448.112	4.46
448.466	4.47
448.82	4.46
449.175	4.47
449.529	4.46
449.883	4.46
450.238	4.49
450.592	4.47
450.946	4.49
451.3	4.47
451.654	4.46
452.008	4.46
452.362	4.45
452.716	4.45
453.07	4.47
453.424	4.49
453.778	4.48
454.132	4.5
454.486	4.53
454.839	4.54
455.193	4.54
455.547	4.55
455.9	4.55
456.254	4.56
456.607	4.55
456.961	4.55
457.314	4.54
457.668	4.52
458.021	4.53
458.375	4.54
458.728	4.54
459.081	4.54
459.434	4.52
459.787	4.53
460.141	4.52
460.494	4.5
460.847	4.49
461.2	4.49
461.553	4.48
461.906	4.47
462.259	4.47
462.611	4.48
462.964	4.5
463.317	4.48
463.67	4.49
464.022	4.48
464.375	4.47
464.728	4.47
465.08	4.48
465.433	4.46
465.785	4.47
466.138	4.47
466.49	4.51
466.843	4.53
467.195	4.54
467.547	4.56
467.899	4.58
468.252	4.6
468.604	4.61
468.956	4.64
469.308	4.64
469.66	4.65
470.012	4.67
470.364	4.7
470.716	4.75
471.068	4.75
471.42	4.8
471.772	4.84
472.123	4.85
472.475	4.88
472.827	4.89
473.178	4.88
473.53	4.9
473.882	4.88
474.233	4.88
474.585	4.89
474.936	4.9
475.288	4.91
475.639	4.93
475.99	4.92
476.342	4.89
476.693	4.88
477.044	4.87
477.395	4.85
477.746	4.79
478.097	4.78
478.448	4.78
478.8	4.74
479.15	4.73
479.501	4.75
479.852	4.74
480.203	4.75
480.554	4.76
480.905	4.77
481.255	4.78
481.606	4.78
481.957	4.78
482.307	4.77
482.658	4.77
483.009	4.76
483.359	4.76
483.709	4.77
484.06	4.78
484.41	4.79
484.761	4.8
485.111	4.81
485.461	4.8
485.811	4.8
486.162	4.83
486.512	4.82
486.862	4.81
487.212	4.81
487.562	4.81
487.912	4.81
488.262	4.8
488.612	4.8
488.961	4.8
489.311	4.8
489.661	4.79
490.011	4.78
490.36	4.78
490.71	4.79
491.06	4.8
491.409	4.8
491.759	4.79
492.108	4.79
492.458	4.79
492.807	4.8
493.157	4.83
493.506	4.81
493.855	4.83
494.204	4.85
494.554	4.87
494.903	4.88
495.252	4.89
495.601	4.92
495.95	4.95
496.299	4.96
496.648	5.01
496.997	5.07
497.346	5.12
497.695	5.15
498.043	5.2
498.392	5.21
498.741	5.28
499.09	5.33
499.438	5.38
499.787	5.43
500.135	5.46
500.484	5.48
500.832	5.54
501.181	5.61
501.529	5.69
501.878	5.71
502.226	5.78
502.574	5.85
502.923	5.9
503.271	5.95
503.619	6.04
503.967	6.11
504.315	6.16
504.663	6.22
505.011	6.29
505.359	6.35
505.707	6.42
506.055	6.49
506.403	6.55
506.751	6.63
507.098	6.75
507.446	6.86
507.794	6.95
508.141	7.05
508.489	7.13
508.837	7.2
509.184	7.3
509.531	7.39
509.879	7.49
510.226	7.62
510.574	7.75
510.921	7.85
511.268	7.94
511.616	8.06
511.963	8.17
512.31	8.31
512.657	8.41
513.004	8.53
513.351	8.63
513.698	8.78
514.045	8.92
514.392	9.04
514.739	9.18
515.086	9.34
515.432	9.47
515.779	9.6
516.126	9.75
516.473	9.89
516.819	10
517.166	10.11
517.512	10.22
517.859	10.33
518.205	10.43
518.552	10.57
518.898	10.66
519.245	10.78
519.591	10.89
519.937	10.98
520.283	11.11
520.629	11.24
520.976	11.36
521.322	11.46
521.668	11.6
522.014	11.71
522.36	11.84
522.706	11.95
523.052	12.11
523.398	12.26
523.743	12.4
524.089	12.61
524.435	12.79
524.781	12.94
525.126	13.07
525.472	13.22
525.817	13.33
526.163	13.45
526.509	13.56
526.854	13.67
527.199	13.79
527.545	13.9
527.89	14.02
528.235	14.13
528.581	14.25
528.926	14.37
529.271	14.49
529.616	14.62
529.961	14.75
530.306	14.88
530.651	15
530.996	15.16
531.341	15.28
531.686	15.4
532.031	15.56
532.376	15.72
532.721	15.87
533.065	16.03
533.41	16.19
533.755	16.37
534.099	16.54
534.444	16.7
534.788	16.87
535.133	17.04
535.477	17.21
535.822	17.39
536.166	17.58
536.51	17.78
536.855	17.96
537.199	18.17
537.543	18.41
537.887	18.68
538.231	18.9
538.576	19.14
538.92	19.41
539.264	19.62
539.608	19.81
539.951	20.01
540.295	20.22
540.639	20.44
540.983	20.62
541.327	20.83
541.671	21.03
542.014	21.24
542.358	21.42
542.701	21.59
543.045	21.8
543.389	22.01
543.732	22.23
544.075	22.47
544.419	22.69
544.762	22.88
545.105	23.1
545.449	23.33
545.792	23.57
546.135	23.81
546.478	24.1
546.821	24.43
547.165	24.72
547.508	24.99
547.851	25.26
548.194	25.55
548.536	25.81
548.879	26.12
549.222	26.4
549.565	26.68
549.908	27.01
550.25	27.28
550.593	27.55
550.936	27.8
551.278	28.06
551.621	28.39
551.963	28.67
552.306	28.93
552.648	29.21
552.991	29.52
553.333	29.74
553.675	29.96
554.017	30.21
554.36	30.45
554.702	30.7
555.044	30.97
555.386	31.18
555.728	31.47
556.07	31.71
556.412	31.93
556.754	32.17
557.096	32.42
557.438	32.7
557.78	32.94
558.121	33.2
558.463	33.43
558.805	33.68
559.147	33.92
559.488	34.2
559.83	34.46
560.171	34.61
560.513	34.87
560.854	35.1
561.196	35.29
561.537	35.58
561.878	35.8
562.22	36.02
562.561	36.28
562.902	36.57
563.243	36.78
563.584	37.01
563.925	37.21
564.266	37.4
564.607	37.64
564.948	37.8
565.289	38.01
565.63	38.17
565.971	38.33
566.312	38.55
566.653	38.68
566.993	38.87
567.334	39.07
567.675	39.24
568.015	39.51
568.356	39.71
568.696	39.85
569.037	40.02
569.377	40.15
569.718	40.25
570.058	40.35
570.398	40.47
570.739	40.67
571.079	40.82
571.419	40.97
571.759	41.09
572.099	41.24
572.439	41.38
572.779	41.56
573.119	41.68
573.459	41.82
573.799	41.96
574.139	42.05
574.479	42.21
574.819	42.38
575.158	42.41
575.498	42.46
575.838	42.63
576.177	42.75
576.517	42.92
576.856	43.08
577.196	43.22
577.535	43.32
577.875	43.41
578.214	43.59
578.553	43.72
578.893	43.86
579.232	43.96
579.571	44.04
579.91	44.12
580.25	44.21
580.589	44.35
580.928	44.4
581.267	44.53
581.606	44.6
581.945	44.64
582.283	44.71
582.622	44.96
582.961	44.97
583.3	45.07
583.639	45.1
583.977	45.2
584.316	45.23
584.654	45.35
584.993	45.41
585.332	45.44
585.67	45.53
586.008	45.49
586.347	45.64
586.685	45.72
587.024	45.84
587.362	45.9
587.7	45.96
588.038	46.09
588.376	46.16
588.715	46.28
589.053	46.36
589.391	46.44
589.729	46.4
590.067	46.47
590.404	46.57
590.742	46.73
591.08	46.91
591.418	47.03
591.756	47.16
592.093	47.26
592.431	47.4
592.769	47.47
593.106	47.65
593.444	47.74
593.781	47.83
594.119	47.91
594.456	47.97
594.793	47.99
595.131	48.05
595.468	48.1
595.805	48.13
596.143	48.21
596.48	48.29
596.817	48.42
597.154	48.48
597.491	48.48
597.828	48.44
598.165	48.42
598.502	48.49
598.839	48.51
599.176	48.61
599.512	48.68
599.849	48.75
600.186	48.82
600.523	48.84
600.859	48.86
601.196	48.94
601.532	49.02
601.869	49.06
602.205	49.12
602.542	49.19
602.878	49.22
603.215	49.24
603.551	49.34
603.887	49.35
604.223	49.39
604.56	49.45
604.896	49.58
605.232	49.64
605.568	49.69
605.904	49.76
606.24	49.78
606.576	49.84
606.912	49.89
607.248	49.91
607.583	49.92
607.919	50.04
608.255	50.04
608.591	50.11
608.926	50.23
609.262	50.28
609.597	50.29
609.933	50.31
610.268	50.37
610.604	50.39
610.939	50.51
611.275	50.57
611.61	50.66
611.945	50.62
612.281	50.65
612.616	50.64
612.951	50.64
613.286	50.54
613.621	50.45
613.956	50.42
614.291	50.41
614.626	50.49
614.961	50.5
615.296	50.55
615.631	50.64
615.966	50.67
616.3	50.66
616.635	50.74
616.97	50.83
617.304	50.86
617.639	50.87
617.973	50.75
618.308	50.73
618.642	50.82
618.977	50.84
619.311	50.82
619.646	50.9
619.98	50.93
620.314	51.03
620.648	51.09
620.983	51.14
621.317	51.19
621.651	51.24
621.985	51.33
622.319	51.31
622.653	51.36
622.987	51.28
623.321	51.37
623.655	51.44
623.988	51.48
624.322	51.63
624.656	51.67
624.99	51.72
625.323	51.78
625.657	51.84
625.99	51.93
626.324	51.96
626.657	51.95
626.991	52
627.324	52.11
627.658	52.12
627.991	52.21
628.324	52.26
628.657	52.27
628.991	52.23
629.324	52.29
629.657	52.22
629.99	52.33
630.323	52.33
630.656	52.39
630.989	52.36
631.322	52.32
631.655	52.25
631.987	52.34
632.32	52.39
632.653	52.35
632.986	52.34
633.318	52.39
633.651	52.47
633.984	52.56
634.316	52.65
634.649	52.78
634.981	52.79
635.313	52.87
635.646	52.97
635.978	53.05
636.31	53.09
636.643	53.05
636.975	52.93
637.307	52.98
637.639	52.93
637.971	53
638.303	52.95
638.635	53.06
638.967	53.01
639.299	53.02
639.631	53
639.963	53.01
640.295	53.1
640.626	53.13
640.958	53.02
641.29	52.91
641.621	52.77
641.953	52.62
642.285	52.55
642.616	52.5
642.948	52.44
643.279	52.4
643.61	52.52
643.942	52.73
644.273	52.73
644.604	52.77
644.936	52.75
645.267	52.79
645.598	52.85
645.929	52.86
646.26	52.89
646.591	52.85
646.922	52.84
647.253	52.86
647.584	52.86
647.915	52.8
648.245	52.87
648.576	52.97
648.907	53.14
649.238	53.21
649.568	53.25
649.899	53.21
650.229	53.23
650.56	53.2
650.89	53.12
651.221	53.13
651.551	53.12
651.882	53.3
652.212	53.25
652.542	53.24
652.872	53.29
653.203	53.19
653.533	53.34
653.863	53.41
654.193	53.52
654.523	53.61
654.853	53.74
655.183	53.75
655.513	53.76
655.843	53.72
656.172	53.72
656.502	53.74
656.832	53.78
657.162	53.72
657.491	53.79
657.821	53.8
658.15	53.84
658.48	53.96
658.809	53.87
659.139	53.87
659.468	53.81
659.798	53.77
660.127	53.9
660.456	53.95
660.785	53.9
661.115	53.7
661.444	53.63
661.773	53.64
662.102	53.67
662.431	53.67
662.76	53.7
663.089	53.67
663.418	53.72
663.747	53.87
664.076	54.01
664.404	54.13
664.733	54.28
665.062	54.22
665.39	54.21
