Data from MVZ_BU26842_Reflection_00011.txt Node
Date: Tue Nov 19 12:18:32 EST 2019
User: vgr7
Spectrometer: USB2G7710
Scans to average: 3
Trigger mode: 4
Integration Time (sec): 2.000000E-2
Electric dark correction enabled: true
Boxcar width: 10
XAxis mode: Wavelengths
Number of Pixels in Spectrum: 2048
>>>>>Begin Spectral Data<<<<<
177.721	239.71
178.105	600
178.488	-87.5
178.871	-33.33
179.254	-50
179.636	-3900
180.019	225
180.402	172.73
180.785	316.67
181.168	-188.46
181.55	-61.46
181.933	-48.55
182.316	-18.42
182.698	-65.7
183.081	-82.07
183.463	-327.63
183.846	367.24
184.228	754.76
184.611	195.98
184.993	115.28
185.376	107.35
185.758	120.53
186.14	162.5
186.522	124.83
186.904	127.08
187.287	93.21
187.669	141.25
188.051	128.54
188.433	116.75
188.815	85.97
189.197	88.91
189.579	115.62
189.961	89.13
190.342	116.73
190.724	134.66
191.106	144.61
191.488	183.84
191.869	425.95
192.251	486.36
192.633	363.59
193.014	540.48
193.396	698.84
193.777	492.24
194.159	234.19
194.54	241.61
194.922	372.94
195.303	465.63
195.684	834.85
196.065	339.58
196.447	211.34
196.828	225
197.209	200.36
197.59	118.97
197.971	107.06
198.352	86.26
198.733	74.25
199.114	65.95
199.495	67.28
199.876	48.3
200.257	24.59
200.638	16.88
201.018	16.02
201.399	19.21
201.78	39.45
202.16	26.43
202.541	28.05
202.922	30.08
203.302	36.79
203.683	33.12
204.063	48.55
204.444	55.88
204.824	51.3
205.204	55.72
205.585	65.34
205.965	73.73
206.345	84.93
206.725	97.38
207.106	90.11
207.486	93.38
207.866	116.46
208.246	112.53
208.626	119.12
209.006	121.03
209.386	115.78
209.766	109.17
210.145	94.66
210.525	92.74
210.905	72.04
211.285	56.36
211.664	48.51
212.044	44.52
212.424	55.69
212.803	65.28
213.183	53.64
213.562	45.19
213.942	47.31
214.321	26.95
214.701	16.67
215.08	14.06
215.459	40.39
215.838	37.75
216.218	65.85
216.597	66.91
216.976	51.92
217.355	63.32
217.734	73.27
218.113	126.4
218.492	107.1
218.871	101.09
219.25	119.14
219.629	155.71
220.008	135.26
220.387	139.29
220.766	100.9
221.144	115.69
221.523	109.26
221.902	99.06
222.28	108.87
222.659	116.25
223.037	105.76
223.416	79.29
223.794	60.12
224.173	42.46
224.551	46.8
224.929	51.14
225.308	48.32
225.686	33.63
226.064	25.48
226.442	23.33
226.821	23.1
227.199	19.23
227.577	21.99
227.955	17.26
228.333	12.8
228.711	13.3
229.089	10.02
229.467	11.84
229.845	10.5
230.222	6.59
230.6	3.59
230.978	7.07
231.356	5.61
231.733	6.8
232.111	6.92
232.488	6.23
232.866	5.18
233.243	3.57
233.621	6.7
233.998	5.46
234.376	5.7
234.753	5.36
235.13	7.97
235.508	7.39
235.885	8.95
236.262	10.37
236.639	9.24
237.016	10.01
237.393	10.16
237.77	11.14
238.147	11.61
238.524	11.07
238.901	9.99
239.278	9.6
239.655	8.37
240.032	7.57
240.409	6.45
240.785	6.42
241.162	6.22
241.539	5.87
241.915	6.38
242.292	6.25
242.668	5.84
243.045	5.09
243.421	4.97
243.798	4.92
244.174	4.99
244.551	5.16
244.927	5.02
245.303	4.92
245.679	4.89
246.056	4.62
246.432	4.98
246.808	4.88
247.184	5.28
247.56	5.3
247.936	5.32
248.312	5.68
248.688	5.8
249.064	5.87
249.44	5.8
249.815	5.89
250.191	6.02
250.567	5.99
250.943	6.11
251.318	5.96
251.694	5.68
252.069	5.88
252.445	5.83
252.82	5.91
253.196	5.77
253.571	5.72
253.947	6.06
254.322	5.76
254.697	5.66
255.073	5.06
255.448	4.85
255.823	4.96
256.198	4.33
256.573	4.31
256.948	4.36
257.323	4.23
257.698	4.06
258.073	3.99
258.448	4.15
258.823	4.13
259.198	4.08
259.573	4.07
259.948	4.11
260.322	4.03
260.697	4.31
261.072	4.31
261.446	4.13
261.821	4.07
262.195	4.03
262.57	4.17
262.944	4.3
263.319	4.37
263.693	4.38
264.067	4.81
264.442	4.59
264.816	4.51
265.19	4.72
265.564	4.54
265.938	4.46
266.313	4.24
266.687	4.14
267.061	4.2
267.435	4.35
267.809	4.02
268.183	4.03
268.556	3.69
268.93	3.84
269.304	3.91
269.678	3.95
270.051	3.96
270.425	3.75
270.799	3.67
271.172	3.7
271.546	3.78
271.919	3.79
272.293	4.03
272.666	3.98
273.04	3.89
273.413	3.99
273.787	4.13
274.16	3.99
274.533	4.16
274.906	4.34
275.279	4.23
275.653	4.38
276.026	4.56
276.399	4.56
276.772	4.5
277.145	4.55
277.518	4.45
277.891	4.53
278.263	4.78
278.636	4.8
279.009	4.94
279.382	4.76
279.755	4.73
280.127	4.68
280.5	4.62
280.872	4.49
281.245	4.56
281.617	4.54
281.99	4.9
282.362	4.72
282.735	4.62
283.107	4.71
283.479	4.75
283.852	4.62
284.224	4.58
284.596	4.57
284.968	4.55
285.34	4.48
285.713	4.4
286.085	4.16
286.457	4.1
286.829	4.05
287.201	4.14
287.572	4.18
287.944	4.28
288.316	4.39
288.688	4.49
289.06	4.49
289.431	4.54
289.803	4.38
290.175	4.46
290.546	4.61
290.918	4.6
291.289	4.45
291.661	4.44
292.032	4.57
292.403	4.55
292.775	4.53
293.146	4.48
293.517	4.4
293.889	4.44
294.26	4.49
294.631	4.45
295.002	4.58
295.373	4.57
295.744	4.52
296.115	4.54
296.486	4.55
296.857	4.53
297.228	4.43
297.599	4.44
297.97	4.58
298.34	4.54
298.711	4.51
299.082	4.48
299.452	4.51
299.823	4.43
300.194	4.51
300.564	4.44
300.935	4.64
301.305	4.67
301.676	4.63
302.046	4.6
302.416	4.56
302.787	4.4
303.157	4.28
303.527	4.3
303.897	4.21
304.267	4.12
304.637	4.04
305.008	4.05
305.378	4.28
305.748	4.35
306.117	4.2
306.487	4.22
306.857	4.35
307.227	4.54
307.597	4.65
307.967	4.61
308.336	4.64
308.706	4.65
309.076	4.95
309.445	5.22
309.815	5.25
310.184	5.35
310.554	5.34
310.923	5.41
311.293	5.34
311.662	5.44
312.031	5.63
312.401	5.63
312.77	5.7
313.139	5.79
313.508	5.63
313.877	5.75
314.246	5.87
314.616	6.04
314.985	5.85
315.353	5.87
315.722	6.02
316.091	6.09
316.46	6.18
316.829	6.01
317.198	5.83
317.567	6
317.935	6.11
318.304	6.27
318.672	6.33
319.041	6.47
319.41	6.43
319.778	6.41
320.147	6.46
320.515	6.39
320.883	6.15
321.252	6.19
321.62	6.21
321.988	6.04
322.357	6
322.725	6.13
323.093	6.04
323.461	6.03
323.829	6.12
324.197	5.95
324.565	6.13
324.933	6.13
325.301	6
325.669	6.01
326.037	5.95
326.405	5.94
326.772	5.89
327.14	5.95
327.508	5.99
327.875	6.14
328.243	6.28
328.61	6.28
328.978	6.16
329.346	6.17
329.713	6.28
330.08	6.24
330.448	6.3
330.815	6.45
331.182	6.5
331.55	6.52
331.917	6.56
332.284	6.49
332.651	6.61
333.018	6.71
333.385	6.7
333.752	6.72
334.119	6.8
334.486	6.96
334.853	7.04
335.22	6.97
335.587	7
335.954	6.96
336.32	6.92
336.687	7.06
337.054	7.11
337.42	7.2
337.787	7.18
338.153	7.13
338.52	7.11
338.886	7.08
339.253	7.13
339.619	7.16
339.986	7.09
340.352	7.11
340.718	7.21
341.084	7.32
341.451	7.31
341.817	7.23
342.183	7.14
342.549	7.19
342.915	7.32
343.281	7.3
343.647	7.4
344.013	7.47
344.379	7.44
344.745	7.47
345.11	7.49
345.476	7.44
345.842	7.58
346.208	7.59
346.573	7.53
346.939	7.51
347.304	7.6
347.67	7.67
348.035	7.61
348.401	7.53
348.766	7.4
349.132	7.44
349.497	7.49
349.862	7.48
350.228	7.33
350.593	7.13
350.958	7.15
351.323	6.9
351.688	6.97
352.053	7.01
352.418	6.98
352.783	7.01
353.148	7.12
353.513	6.98
353.878	6.93
354.243	6.93
354.608	6.89
354.972	6.87
355.337	6.84
355.702	6.89
356.066	6.91
356.431	7.03
356.795	7.05
357.16	7.05
357.524	7.02
357.889	6.97
358.253	7.05
358.618	7
358.982	7.11
359.346	7.12
359.71	7.05
360.075	7.06
360.439	7.05
360.803	7.05
361.167	7
361.531	6.98
361.895	7
362.259	7.03
362.623	7
362.987	7.01
363.351	6.97
363.714	6.95
364.078	6.87
364.442	6.82
364.806	6.77
365.169	6.79
365.533	6.85
365.896	6.84
366.26	6.84
366.623	6.76
366.987	6.67
367.35	6.8
367.714	6.79
368.077	6.79
368.44	6.73
368.803	6.72
369.167	6.65
369.53	6.64
369.893	6.58
370.256	6.5
370.619	6.45
370.982	6.41
371.345	6.37
371.708	6.4
372.071	6.42
372.434	6.35
372.797	6.38
373.159	6.34
373.522	6.28
373.885	6.22
374.247	6.15
374.61	6.17
374.973	6.03
375.335	5.96
375.698	5.83
376.06	5.77
376.423	5.76
376.785	5.8
377.147	5.72
377.51	5.7
377.872	5.63
378.234	5.63
378.596	5.62
378.958	5.61
379.321	5.56
379.683	5.58
380.045	5.58
380.407	5.43
380.769	5.36
381.13	5.37
381.492	5.36
381.854	5.38
382.216	5.35
382.578	5.31
382.939	5.23
383.301	5.23
383.663	5.21
384.024	5.23
384.386	5.19
384.747	5.16
385.109	5.06
385.47	5.16
385.832	5.09
386.193	5.08
386.554	5.02
386.916	4.96
387.277	4.89
387.638	4.85
387.999	4.91
388.36	4.93
388.721	4.93
389.082	4.94
389.443	4.9
389.804	4.88
390.165	4.89
390.526	4.92
390.887	4.91
391.248	4.88
391.609	4.83
391.969	4.8
392.33	4.83
392.691	4.84
393.051	4.76
393.412	4.76
393.772	4.76
394.133	4.77
394.493	4.71
394.854	4.67
395.214	4.66
395.574	4.62
395.935	4.56
396.295	4.47
396.655	4.43
397.015	4.44
397.376	4.37
397.736	4.3
398.096	4.25
398.456	4.24
398.816	4.18
399.176	4.13
399.535	4.12
399.895	4.09
400.255	4.11
400.615	4.06
400.975	4.03
401.334	3.97
401.694	3.93
402.054	3.93
402.413	3.93
402.773	3.92
403.132	3.91
403.492	3.92
403.851	3.92
404.211	3.89
404.57	3.87
404.929	3.87
405.288	3.9
405.648	3.9
406.007	3.85
406.366	3.87
406.725	3.89
407.084	3.87
407.443	3.88
407.802	3.83
408.161	3.89
408.52	3.91
408.879	3.91
409.238	3.91
409.596	3.91
409.955	3.87
410.314	3.85
410.673	3.83
411.031	3.82
411.39	3.81
411.748	3.8
412.107	3.77
412.465	3.75
412.824	3.73
413.182	3.72
413.54	3.73
413.899	3.71
414.257	3.74
414.615	3.72
414.974	3.67
415.332	3.68
415.69	3.61
416.048	3.59
416.406	3.57
416.764	3.55
417.122	3.52
417.48	3.54
417.838	3.54
418.195	3.52
418.553	3.52
418.911	3.51
419.269	3.49
419.626	3.49
419.984	3.49
420.342	3.47
420.699	3.46
421.057	3.45
421.414	3.46
421.772	3.44
422.129	3.42
422.486	3.43
422.844	3.42
423.201	3.42
423.558	3.4
423.915	3.4
424.273	3.41
424.63	3.41
424.987	3.38
425.344	3.38
425.701	3.37
426.058	3.37
426.415	3.37
426.772	3.37
427.128	3.38
427.485	3.38
427.842	3.38
428.199	3.37
428.555	3.36
428.912	3.33
429.269	3.33
429.625	3.35
429.982	3.32
430.338	3.33
430.695	3.33
431.051	3.34
431.407	3.34
431.764	3.33
432.12	3.36
432.476	3.39
432.832	3.38
433.189	3.39
433.545	3.39
433.901	3.39
434.257	3.39
434.613	3.37
434.969	3.35
435.325	3.36
435.681	3.35
436.036	3.35
436.392	3.36
436.748	3.36
437.104	3.34
437.459	3.35
437.815	3.34
438.171	3.32
438.526	3.31
438.882	3.32
439.237	3.34
439.593	3.33
439.948	3.31
440.304	3.31
440.659	3.29
441.014	3.28
441.369	3.27
441.725	3.27
442.08	3.28
442.435	3.3
442.79	3.32
443.145	3.32
443.5	3.31
443.855	3.3
444.21	3.29
444.565	3.3
444.92	3.31
445.275	3.31
445.629	3.3
445.984	3.29
446.339	3.28
446.693	3.25
447.048	3.23
447.403	3.23
447.757	3.22
448.112	3.24
448.466	3.24
448.82	3.24
449.175	3.23
449.529	3.24
449.883	3.23
450.238	3.2
450.592	3.18
450.946	3.19
451.3	3.18
451.654	3.16
452.008	3.15
452.362	3.12
452.716	3.12
453.07	3.15
453.424	3.15
453.778	3.14
454.132	3.15
454.486	3.17
454.839	3.17
455.193	3.17
455.547	3.14
455.9	3.14
456.254	3.15
456.607	3.14
456.961	3.13
457.314	3.12
457.668	3.13
458.021	3.16
458.375	3.17
458.728	3.19
459.081	3.21
459.434	3.21
459.787	3.22
460.141	3.23
460.494	3.24
460.847	3.24
461.2	3.27
461.553	3.28
461.906	3.29
462.259	3.29
462.611	3.31
462.964	3.33
463.317	3.35
463.67	3.35
464.022	3.38
464.375	3.38
464.728	3.4
465.08	3.42
465.433	3.43
465.785	3.42
466.138	3.44
466.49	3.45
466.843	3.48
467.195	3.49
467.547	3.5
467.899	3.49
468.252	3.5
468.604	3.51
468.956	3.51
469.308	3.48
469.66	3.52
470.012	3.54
470.364	3.55
470.716	3.53
471.068	3.56
471.42	3.56
471.772	3.57
472.123	3.58
472.475	3.57
472.827	3.55
473.178	3.56
473.53	3.55
473.882	3.54
474.233	3.53
474.585	3.52
474.936	3.51
475.288	3.5
475.639	3.51
475.99	3.49
476.342	3.48
476.693	3.51
477.044	3.51
477.395	3.5
477.746	3.49
478.097	3.5
478.448	3.49
478.8	3.46
479.15	3.45
479.501	3.46
479.852	3.45
480.203	3.46
480.554	3.46
480.905	3.45
481.255	3.44
481.606	3.45
481.957	3.46
482.307	3.46
482.658	3.47
483.009	3.46
483.359	3.46
483.709	3.46
484.06	3.46
484.41	3.45
484.761	3.45
485.111	3.45
485.461	3.45
485.811	3.45
486.162	3.45
486.512	3.44
486.862	3.43
487.212	3.44
487.562	3.43
487.912	3.43
488.262	3.44
488.612	3.45
488.961	3.45
489.311	3.43
489.661	3.43
490.011	3.43
490.36	3.42
490.71	3.42
491.06	3.41
491.409	3.4
491.759	3.4
492.108	3.4
492.458	3.41
492.807	3.41
493.157	3.42
493.506	3.44
493.855	3.46
494.204	3.47
494.554	3.48
494.903	3.5
495.252	3.52
495.601	3.52
495.95	3.54
496.299	3.57
496.648	3.61
496.997	3.64
497.346	3.66
497.695	3.71
498.043	3.74
498.392	3.77
498.741	3.8
499.09	3.84
499.438	3.88
499.787	3.92
500.135	3.95
500.484	3.99
500.832	3.99
501.181	4.04
501.529	4.12
501.878	4.17
502.226	4.22
502.574	4.26
502.923	4.3
503.271	4.33
503.619	4.41
503.967	4.46
504.315	4.53
504.663	4.61
505.011	4.66
505.359	4.73
505.707	4.8
506.055	4.88
506.403	4.97
506.751	5.03
507.098	5.14
507.446	5.23
507.794	5.34
508.141	5.45
508.489	5.56
508.837	5.62
509.184	5.71
509.531	5.8
509.879	5.9
510.226	6.01
510.574	6.12
510.921	6.22
511.268	6.33
511.616	6.46
511.963	6.58
512.31	6.69
512.657	6.82
513.004	6.94
513.351	7.06
513.698	7.18
514.045	7.31
514.392	7.42
514.739	7.56
515.086	7.68
515.432	7.81
515.779	7.94
516.126	8.11
516.473	8.22
516.819	8.38
517.166	8.53
517.512	8.63
517.859	8.8
518.205	8.92
518.552	9.03
518.898	9.13
519.245	9.25
519.591	9.37
519.937	9.51
520.283	9.66
520.629	9.8
520.976	9.94
521.322	10.1
521.668	10.26
522.014	10.43
522.36	10.57
522.706	10.74
523.052	10.95
523.398	11.14
523.743	11.35
524.089	11.56
524.435	11.76
524.781	11.98
525.126	12.15
525.472	12.32
525.817	12.48
526.163	12.63
526.509	12.77
526.854	12.93
527.199	13.07
527.545	13.22
527.89	13.34
528.235	13.5
528.581	13.65
528.926	13.78
529.271	13.92
529.616	14.08
529.961	14.25
530.306	14.39
530.651	14.54
530.996	14.72
531.341	14.88
531.686	15.06
532.031	15.24
532.376	15.43
532.721	15.64
533.065	15.84
533.41	16.06
533.755	16.28
534.099	16.49
534.444	16.7
534.788	16.9
535.133	17.12
535.477	17.32
535.822	17.54
536.166	17.82
536.51	18.09
536.855	18.35
537.199	18.61
537.543	18.93
537.887	19.23
538.231	19.52
538.576	19.82
538.92	20.13
539.264	20.43
539.608	20.7
539.951	20.93
540.295	21.19
540.639	21.43
540.983	21.67
541.327	21.88
541.671	22.09
542.014	22.32
542.358	22.53
542.701	22.74
543.045	22.99
543.389	23.18
543.732	23.39
544.075	23.61
544.419	23.83
544.762	24.05
545.105	24.27
545.449	24.52
545.792	24.78
546.135	25.02
546.478	25.24
546.821	25.54
547.165	25.81
547.508	26.07
547.851	26.35
548.194	26.61
548.536	26.9
548.879	27.19
549.222	27.45
549.565	27.78
549.908	28.05
550.25	28.24
550.593	28.51
550.936	28.81
551.278	29.09
551.621	29.34
551.963	29.58
552.306	29.88
552.648	30.12
552.991	30.35
553.333	30.54
553.675	30.82
554.017	30.99
554.36	31.22
554.702	31.37
555.044	31.59
555.386	31.78
555.728	31.97
556.07	32.18
556.412	32.42
556.754	32.6
557.096	32.84
557.438	33.05
557.78	33.29
558.121	33.47
558.463	33.72
558.805	33.95
559.147	34.11
559.488	34.3
559.83	34.5
560.171	34.7
560.513	34.92
560.854	35.08
561.196	35.33
561.537	35.59
561.878	35.85
562.22	36
562.561	36.22
562.902	36.44
563.243	36.59
563.584	36.76
563.925	36.95
564.266	37.08
564.607	37.31
564.948	37.51
565.289	37.67
565.63	37.82
565.971	37.98
566.312	38.19
566.653	38.35
566.993	38.54
567.334	38.71
567.675	38.87
568.015	39.06
568.356	39.16
568.696	39.31
569.037	39.49
569.377	39.71
569.718	39.84
570.058	39.98
570.398	40.18
570.739	40.3
571.079	40.48
571.419	40.62
571.759	40.74
572.099	40.84
572.439	40.97
572.779	41.1
573.119	41.21
573.459	41.25
573.799	41.31
574.139	41.35
574.479	41.47
574.819	41.62
575.158	41.71
575.498	41.82
575.838	41.91
576.177	41.96
576.517	42
576.856	42.08
577.196	42.21
577.535	42.23
577.875	42.34
578.214	42.45
578.553	42.58
578.893	42.66
579.232	42.82
579.571	42.9
579.91	42.97
580.25	43.06
580.589	43.24
580.928	43.44
581.267	43.56
581.606	43.6
581.945	43.68
582.283	43.73
582.622	43.81
582.961	43.91
583.3	44.01
583.639	44.11
583.977	44.24
584.316	44.24
584.654	44.37
584.993	44.45
585.332	44.55
585.67	44.58
586.008	44.69
586.347	44.73
586.685	44.83
587.024	44.94
587.362	45.06
587.7	45.11
588.038	45.16
588.376	45.35
588.715	45.48
589.053	45.61
589.391	45.76
589.729	45.94
590.067	46
590.404	46.08
590.742	46.19
591.08	46.22
591.418	46.36
591.756	46.46
592.093	46.54
592.431	46.51
592.769	46.66
593.106	46.77
593.444	46.8
593.781	46.77
594.119	46.83
594.456	46.88
594.793	46.88
595.131	46.92
595.468	46.87
595.805	46.91
596.143	46.92
596.48	46.91
596.817	46.92
597.154	46.96
597.491	47.02
597.828	47.11
598.165	47.24
598.502	47.31
598.839	47.37
599.176	47.42
599.512	47.48
599.849	47.51
600.186	47.59
600.523	47.59
600.859	47.74
601.196	47.79
601.532	47.88
601.869	48.04
602.205	48.16
602.542	48.23
602.878	48.34
603.215	48.28
603.551	48.32
603.887	48.31
604.223	48.32
604.56	48.36
604.896	48.4
605.232	48.41
605.568	48.41
605.904	48.39
606.24	48.43
606.576	48.56
606.912	48.58
607.248	48.57
607.583	48.66
607.919	48.76
608.255	48.8
608.591	48.83
608.926	48.75
609.262	48.82
609.597	48.85
609.933	48.8
610.268	48.89
610.604	48.87
610.939	48.95
611.275	48.97
611.61	48.98
611.945	48.92
612.281	48.97
612.616	49.01
612.951	49.12
613.286	49.12
613.621	49.09
613.956	49.13
614.291	49.19
614.626	49.25
614.961	49.2
615.296	49.28
615.631	49.31
615.966	49.4
616.3	49.31
616.635	49.37
616.97	49.43
617.304	49.46
617.639	49.61
617.973	49.64
618.308	49.66
618.642	49.64
618.977	49.74
619.311	49.77
619.646	49.81
619.98	49.75
620.314	49.69
620.648	49.7
620.983	49.72
621.317	49.73
621.651	49.75
621.985	49.77
622.319	49.81
622.653	49.85
622.987	49.9
623.321	49.87
623.655	49.88
623.988	49.9
624.322	49.94
624.656	50.05
624.99	50.04
625.323	50.11
625.657	50.13
625.99	50.13
626.324	50.16
626.657	50.19
626.991	50.29
627.324	50.41
627.658	50.49
627.991	50.52
628.324	50.52
628.657	50.64
628.991	50.6
629.324	50.59
629.657	50.61
629.99	50.64
630.323	50.84
630.656	50.86
630.989	51.03
631.322	51.11
631.655	51.09
631.987	51.16
632.32	51.2
632.653	51.32
632.986	51.43
633.318	51.46
633.651	51.44
633.984	51.39
634.316	51.33
634.649	51.26
634.981	51.34
635.313	51.4
635.646	51.36
635.978	51.58
636.31	51.62
636.643	51.7
636.975	51.64
637.307	51.63
637.639	51.66
637.971	51.59
638.303	51.56
638.635	51.51
638.967	51.53
639.299	51.56
639.631	51.47
639.963	51.42
640.295	51.5
640.626	51.53
640.958	51.61
641.29	51.81
641.621	51.95
641.953	51.88
642.285	51.89
642.616	51.83
642.948	51.63
643.279	51.56
643.61	51.47
643.942	51.61
644.273	51.67
644.604	51.72
644.936	51.73
645.267	51.81
645.598	51.88
645.929	51.8
646.26	51.81
646.591	51.87
646.922	51.82
647.253	51.78
647.584	51.72
647.915	51.77
648.245	51.69
648.576	51.74
648.907	51.82
649.238	51.78
649.568	51.93
649.899	51.96
650.229	52.05
650.56	52.06
650.89	51.99
651.221	51.93
651.551	51.93
651.882	51.94
652.212	51.9
652.542	51.89
652.872	51.95
653.203	52.08
653.533	52.16
653.863	52.27
654.193	52.35
654.523	52.53
654.853	52.69
655.183	52.76
655.513	52.75
655.843	52.76
656.172	52.9
656.502	52.81
656.832	52.86
657.162	52.84
657.491	52.88
657.821	53
658.15	53.11
658.48	53.15
658.809	53.16
659.139	53.19
659.468	53.22
659.798	53.31
660.127	53.28
660.456	53.27
660.785	53.23
661.115	53.17
661.444	53.01
661.773	52.92
662.102	52.91
662.431	52.87
662.76	52.87
663.089	52.85
663.418	52.9
663.747	53.09
664.076	53.21
664.404	53.17
664.733	53.19
665.062	53.03
665.39	53.03
665.719	52.98
666.048	52.96
666.376	52.86
666.705	52.77
667.033	52.7
667.362	52.58
667.69	52.59
668.018	52.67
668.347	52.82
