Data from MVZ_BU88648_Reflection_00007.txt Node
Date: Tue Nov 19 12:02:04 EST 2019
User: vgr7
Spectrometer: USB2G7710
Scans to average: 3
Trigger mode: 4
Integration Time (sec): 2.000000E-2
Electric dark correction enabled: true
Boxcar width: 10
XAxis mode: Wavelengths
Number of Pixels in Spectrum: 2048
>>>>>Begin Spectral Data<<<<<
177.721	-2392.65
178.105	-243.37
178.488	-92.64
178.871	-603.85
179.254	-182.69
179.636	-1035.14
180.019	-22.58
180.402	-12.5
180.785	180.23
181.168	110.49
181.55	-154.46
181.933	229.81
182.316	-234.82
182.698	-85.06
183.081	-24.12
183.463	-13.34
183.846	7.73
184.228	66.71
184.611	106.6
184.993	88.83
185.376	82.65
185.758	78.85
186.14	67.72
186.522	49.24
186.904	58.96
187.287	106.78
187.669	56.96
188.051	8.74
188.433	-3.24
188.815	-9.55
189.197	-22.58
189.579	26.25
189.961	6.97
190.342	16.03
190.724	1.21
191.106	-10.4
191.488	-19.84
191.869	-28.69
192.251	-55.04
192.633	-79.35
193.014	-102.65
193.396	-92.09
193.777	-109.1
194.159	-71.47
194.54	-89.46
194.922	-117.37
195.303	-108.25
195.684	-102.35
196.065	-122.14
196.447	-96.82
196.828	-163.43
197.209	-100.16
197.59	-55.43
197.971	-28.3
198.352	-20.75
198.733	-23.07
199.114	-28.19
199.495	-41.19
199.876	-51.76
200.257	-64.81
200.638	-16.21
201.018	-30.48
201.399	-31.81
201.78	-2.9
202.16	-13.6
202.541	-21.99
202.922	11.24
203.302	6.25
203.683	-17.19
204.063	-9.3
204.444	-12.35
204.824	-12.67
205.204	-7.93
205.585	-18.99
205.965	-31.59
206.345	-42.64
206.725	-20.41
207.106	-6.05
207.486	-0.22
207.866	7.98
208.246	5.92
208.626	-4.1
209.006	-11
209.386	-1.14
209.766	-26.08
210.145	-31.04
210.525	-25.47
210.905	-23.76
211.285	-22.77
211.664	-10.89
212.044	6.12
212.424	8.13
212.803	7.04
213.183	0.85
213.562	6.37
213.942	11.46
214.321	16.32
214.701	3.97
215.08	13.75
215.459	14.11
215.838	3.96
216.218	9.16
216.597	22.48
216.976	29.15
217.355	23.14
217.734	27.7
218.113	30.56
218.492	40.02
218.871	38.55
219.25	42.47
219.629	54.05
220.008	46.8
220.387	68.13
220.766	60.53
221.144	61.65
221.523	51.98
221.902	70.94
222.28	64.75
222.659	64.09
223.037	59.26
223.416	71.13
223.794	76.2
224.173	76.25
224.551	75.58
224.929	68.36
225.308	63.88
225.686	51.02
226.064	44.46
226.442	30.22
226.821	26.22
227.199	27.11
227.577	23.15
227.955	20.88
228.333	16.37
228.711	18.95
229.089	18.71
229.467	15.87
229.845	8.08
230.222	8.76
230.6	7.89
230.978	6.25
231.356	4
231.733	4.52
232.111	3.56
232.488	3.99
232.866	5.69
233.243	6.28
233.621	8.67
233.998	8.6
234.376	10.03
234.753	10.24
235.13	7.16
235.508	5
235.885	3.45
236.262	2.76
236.639	1.53
237.016	-0.09
237.393	2.09
237.77	3.76
238.147	3.41
238.524	3.62
238.901	2.45
239.278	2.57
239.655	2.46
240.032	2.35
240.409	1.93
240.785	1.87
241.162	2.57
241.539	2.27
241.915	2.84
242.292	3.14
242.668	2.94
243.045	3.48
243.421	3.85
243.798	4.67
244.174	4.18
244.551	3.87
244.927	3.99
245.303	3.78
245.679	3.49
246.056	3.45
246.432	3.54
246.808	3.89
247.184	3.65
247.56	3.47
247.936	3.49
248.312	3.61
248.688	3.65
249.064	3.43
249.44	3.31
249.815	3.48
250.191	3.61
250.567	3.5
250.943	3.7
251.318	3.73
251.694	3.41
252.069	3.82
252.445	3.99
252.82	4.7
253.196	5.03
253.571	5.65
253.947	5.62
254.322	5.22
254.697	5.14
255.073	5.29
255.448	5.22
255.823	5.14
256.198	5.12
256.573	5.17
256.948	5.4
257.323	5.7
257.698	5.45
258.073	5.06
258.448	5.14
258.823	4.93
259.198	4.95
259.573	4.84
259.948	4.8
260.322	4.64
260.697	4.47
261.072	4.45
261.446	4.17
261.821	4.19
262.195	4.4
262.57	4.3
262.944	4.16
263.319	4.44
263.693	4.53
264.067	4.62
264.442	4.58
264.816	4.5
265.19	4.31
265.564	4.36
265.938	4.37
266.313	4.22
266.687	3.93
267.061	3.91
267.435	4.26
267.809	4.2
268.183	4.4
268.556	4.06
268.93	3.95
269.304	4.05
269.678	4.11
270.051	4.13
270.425	4.34
270.799	4.28
271.172	4.05
271.546	4.03
271.919	3.98
272.293	4
272.666	3.88
273.04	3.87
273.413	3.69
273.787	3.72
274.16	3.73
274.533	4.02
274.906	3.94
275.279	3.58
275.653	3.58
276.026	3.38
276.399	3.53
276.772	3.7
277.145	3.69
277.518	3.64
277.891	3.65
278.263	3.45
278.636	3.59
279.009	3.62
279.382	3.61
279.755	3.24
280.127	3.08
280.5	3.09
280.872	3.23
281.245	3.42
281.617	3.33
281.99	3.46
282.362	3.37
282.735	3.31
283.107	3.44
283.479	3.53
283.852	3.7
284.224	3.6
284.596	3.64
284.968	3.69
285.34	3.67
285.713	3.66
286.085	3.64
286.457	3.67
286.829	3.87
287.201	3.91
287.572	4.23
287.944	4.28
288.316	4.21
288.688	4.22
289.06	4.26
289.431	4.41
289.803	4.52
290.175	4.56
290.546	4.6
290.918	4.5
291.289	4.38
291.661	4.4
292.032	4.51
292.403	4.39
292.775	4.52
293.146	4.67
293.517	4.63
293.889	4.68
294.26	4.7
294.631	4.58
295.002	4.52
295.373	4.47
295.744	4.48
296.115	4.59
296.486	4.56
296.857	4.54
297.228	4.45
297.599	4.26
297.97	4.22
298.34	4.25
298.711	4.45
299.082	4.56
299.452	4.5
299.823	4.54
300.194	4.54
300.564	4.5
300.935	4.41
301.305	4.4
301.676	4.35
302.046	4.35
302.416	4.33
302.787	4.38
303.157	4.23
303.527	4.26
303.897	4.37
304.267	4.42
304.637	4.5
305.008	4.61
305.378	4.7
305.748	4.72
306.117	4.74
306.487	4.68
306.857	4.64
307.227	4.8
307.597	4.79
307.967	4.76
308.336	4.64
308.706	4.7
309.076	4.87
309.445	5.05
309.815	4.99
310.184	5.03
310.554	5.13
310.923	5.14
311.293	5.31
311.662	5.23
312.031	5.25
312.401	5.23
312.77	5.16
313.139	5.08
313.508	5.11
313.877	5.21
314.246	5.3
314.616	5.4
314.985	5.41
315.353	5.52
315.722	5.64
316.091	5.72
316.46	5.85
316.829	5.75
317.198	5.72
317.567	5.77
317.935	5.71
318.304	5.79
318.672	6.01
319.041	5.94
319.41	6.01
319.778	5.94
320.147	6.06
320.515	6.29
320.883	6.33
321.252	6.41
321.62	6.42
321.988	6.51
322.357	6.44
322.725	6.33
323.093	6.31
323.461	6.27
323.829	6.28
324.197	6.24
324.565	6.33
324.933	6.42
325.301	6.43
325.669	6.48
326.037	6.48
326.405	6.54
326.772	6.5
327.14	6.45
327.508	6.56
327.875	6.42
328.243	6.43
328.61	6.51
328.978	6.56
329.346	6.39
329.713	6.36
330.08	6.33
330.448	6.47
330.815	6.32
331.182	6.4
331.55	6.52
331.917	6.39
332.284	6.45
332.651	6.4
333.018	6.57
333.385	6.71
333.752	6.64
334.119	6.68
334.486	6.91
334.853	7
335.22	7.01
335.587	6.97
335.954	6.95
336.32	6.97
336.687	7.08
337.054	7.19
337.42	7.09
337.787	7.1
338.153	7.19
338.52	7.38
338.886	7.23
339.253	7.15
339.619	7.35
339.986	7.17
340.352	7.14
340.718	7.11
341.084	7.16
341.451	7.25
341.817	7.2
342.183	7
342.549	7.06
342.915	7.09
343.281	7.3
343.647	7.33
344.013	7.41
344.379	7.34
344.745	7.31
345.11	7.39
345.476	7.51
345.842	7.49
346.208	7.49
346.573	7.55
346.939	7.55
347.304	7.46
347.67	7.45
348.035	7.49
348.401	7.51
348.766	7.42
349.132	7.42
349.497	7.4
349.862	7.41
350.228	7.23
350.593	7.21
350.958	7.17
351.323	7.14
351.688	7.17
352.053	7.25
352.418	7.28
352.783	7.29
353.148	7.27
353.513	7.3
353.878	7.23
354.243	7.22
354.608	7.39
354.972	7.39
355.337	7.54
355.702	7.42
356.066	7.4
356.431	7.43
356.795	7.35
357.16	7.27
357.524	7.28
357.889	7.35
358.253	7.36
358.618	7.36
358.982	7.27
359.346	7.24
359.71	7.14
360.075	7.14
360.439	7.13
360.803	7.15
361.167	7.05
361.531	7.1
361.895	7.11
362.259	7.03
362.623	7.07
362.987	7
363.351	7.02
363.714	7.08
364.078	7.02
364.442	7.04
364.806	7.04
365.169	7.01
365.533	6.88
365.896	6.84
366.26	6.73
366.623	6.75
366.987	6.79
367.35	6.87
367.714	6.86
368.077	6.82
368.44	6.78
368.803	6.78
369.167	6.67
369.53	6.71
369.893	6.72
370.256	6.69
370.619	6.67
370.982	6.65
371.345	6.55
371.708	6.56
372.071	6.49
372.434	6.46
372.797	6.44
373.159	6.49
373.522	6.42
373.885	6.4
374.247	6.35
374.61	6.24
374.973	6.15
375.335	6.13
375.698	6.09
376.06	6.05
376.423	6.03
376.785	6.09
377.147	6.03
377.51	5.99
377.872	5.95
378.234	5.93
378.596	5.97
378.958	5.96
379.321	5.91
379.683	5.98
380.045	5.99
380.407	5.98
380.769	5.92
381.13	5.91
381.492	5.92
381.854	5.95
382.216	5.98
382.578	5.94
382.939	5.88
383.301	5.8
383.663	5.74
384.024	5.75
384.386	5.67
384.747	5.62
385.109	5.56
385.47	5.56
385.832	5.51
386.193	5.43
386.554	5.35
386.916	5.38
387.277	5.29
387.638	5.22
387.999	5.21
388.36	5.28
388.721	5.26
389.082	5.25
389.443	5.19
389.804	5.14
390.165	5.16
390.526	5.16
390.887	5.18
391.248	5.19
391.609	5.19
391.969	5.2
392.33	5.18
392.691	5.14
393.051	5.11
393.412	5.13
393.772	5.15
394.133	5.18
394.493	5.13
394.854	5.1
395.214	5.09
395.574	5.05
395.935	5
396.295	4.99
396.655	5.01
397.015	5
397.376	5
397.736	4.97
398.096	4.93
398.456	4.94
398.816	4.96
399.176	4.89
399.535	4.85
399.895	4.86
400.255	4.84
400.615	4.83
400.975	4.77
401.334	4.72
401.694	4.69
402.054	4.7
402.413	4.71
402.773	4.72
403.132	4.68
403.492	4.64
403.851	4.64
404.211	4.59
404.57	4.58
404.929	4.55
405.288	4.54
405.648	4.55
406.007	4.52
406.366	4.45
406.725	4.45
407.084	4.43
407.443	4.4
407.802	4.38
408.161	4.37
408.52	4.37
408.879	4.41
409.238	4.39
409.596	4.38
409.955	4.38
410.314	4.36
410.673	4.36
411.031	4.34
411.39	4.34
411.748	4.34
412.107	4.32
412.465	4.31
412.824	4.27
413.182	4.26
413.54	4.27
413.899	4.27
414.257	4.26
414.615	4.26
414.974	4.28
415.332	4.3
415.69	4.28
416.048	4.3
416.406	4.24
416.764	4.24
417.122	4.2
417.48	4.18
417.838	4.17
418.195	4.16
418.553	4.15
418.911	4.14
419.269	4.13
419.626	4.14
419.984	4.12
420.342	4.14
420.699	4.13
421.057	4.11
421.414	4.11
421.772	4.1
422.129	4.09
422.486	4.08
422.844	4.06
423.201	4.06
423.558	4.05
423.915	4.05
424.273	4.04
424.63	4.05
424.987	4.04
425.344	4.03
425.701	4.03
426.058	4.05
426.415	4.03
426.772	4.01
427.128	4.02
427.485	4.04
427.842	4.02
428.199	4.03
428.555	4.03
428.912	4.01
429.269	3.99
429.625	3.98
429.982	3.96
430.338	3.97
430.695	3.95
431.051	3.96
431.407	3.96
431.764	3.96
432.12	3.95
432.476	3.99
432.832	3.99
433.189	3.98
433.545	3.97
433.901	3.95
434.257	3.93
434.613	3.9
434.969	3.89
435.325	3.9
435.681	3.88
436.036	3.88
436.392	3.9
436.748	3.92
437.104	3.92
437.459	3.93
437.815	3.93
438.171	3.93
438.526	3.92
438.882	3.92
439.237	3.93
439.593	3.92
439.948	3.91
440.304	3.92
440.659	3.93
441.014	3.94
441.369	3.95
441.725	3.97
442.08	3.97
442.435	3.98
442.79	3.96
443.145	3.96
443.5	3.96
443.855	3.94
444.21	3.93
444.565	3.92
444.92	3.93
445.275	3.92
445.629	3.92
445.984	3.9
446.339	3.89
446.693	3.9
447.048	3.89
447.403	3.87
447.757	3.85
448.112	3.84
448.466	3.83
448.82	3.83
449.175	3.83
449.529	3.85
449.883	3.83
450.238	3.85
450.592	3.84
450.946	3.82
451.3	3.83
451.654	3.81
452.008	3.81
452.362	3.78
452.716	3.77
453.07	3.77
453.424	3.79
453.778	3.8
454.132	3.77
454.486	3.78
454.839	3.78
455.193	3.81
455.547	3.8
455.9	3.81
456.254	3.81
456.607	3.8
456.961	3.78
457.314	3.77
457.668	3.76
458.021	3.77
458.375	3.77
458.728	3.78
459.081	3.79
459.434	3.8
459.787	3.84
460.141	3.84
460.494	3.84
460.847	3.86
461.2	3.86
461.553	3.87
461.906	3.87
462.259	3.86
462.611	3.85
462.964	3.88
463.317	3.88
463.67	3.89
464.022	3.89
464.375	3.9
464.728	3.92
465.08	3.92
465.433	3.96
465.785	3.96
466.138	3.97
466.49	3.97
466.843	3.98
467.195	3.98
467.547	3.99
467.899	3.99
468.252	4
468.604	4
468.956	3.99
469.308	4
469.66	4.02
470.012	4.03
470.364	4.01
470.716	4.03
471.068	4.04
471.42	4.06
471.772	4.08
472.123	4.1
472.475	4.12
472.827	4.11
473.178	4.11
473.53	4.1
473.882	4.11
474.233	4.09
474.585	4.07
474.936	4.09
475.288	4.09
475.639	4.08
475.99	4.08
476.342	4.12
476.693	4.12
477.044	4.13
477.395	4.1
477.746	4.11
478.097	4.09
478.448	4.1
478.8	4.1
479.15	4.07
479.501	4.07
479.852	4.06
480.203	4.06
480.554	4.07
480.905	4.08
481.255	4.07
481.606	4.09
481.957	4.1
482.307	4.1
482.658	4.1
483.009	4.1
483.359	4.11
483.709	4.09
484.06	4.09
484.41	4.08
484.761	4.09
485.111	4.1
485.461	4.09
485.811	4.08
486.162	4.07
486.512	4.07
486.862	4.07
487.212	4.07
487.562	4.07
487.912	4.07
488.262	4.07
488.612	4.07
488.961	4.06
489.311	4.06
489.661	4.05
490.011	4.04
490.36	4.03
490.71	4.03
491.06	4.04
491.409	4.05
491.759	4.05
492.108	4.05
492.458	4.03
492.807	4.04
493.157	4.06
493.506	4.09
493.855	4.1
494.204	4.1
494.554	4.11
494.903	4.11
495.252	4.12
495.601	4.12
495.95	4.13
496.299	4.15
496.648	4.17
496.997	4.19
497.346	4.23
497.695	4.24
498.043	4.25
498.392	4.29
498.741	4.31
499.09	4.35
499.438	4.38
499.787	4.42
500.135	4.45
500.484	4.46
500.832	4.47
501.181	4.49
501.529	4.55
501.878	4.6
502.226	4.64
502.574	4.67
502.923	4.71
503.271	4.75
503.619	4.8
503.967	4.82
504.315	4.87
504.663	4.91
505.011	4.98
505.359	5.03
505.707	5.05
506.055	5.11
506.403	5.16
506.751	5.22
507.098	5.32
507.446	5.36
507.794	5.44
508.141	5.49
508.489	5.56
508.837	5.61
509.184	5.67
509.531	5.73
509.879	5.81
510.226	5.89
510.574	5.96
510.921	6.04
511.268	6.13
511.616	6.2
511.963	6.29
512.31	6.36
512.657	6.46
513.004	6.54
513.351	6.65
513.698	6.75
514.045	6.84
514.392	6.93
514.739	7.04
515.086	7.13
515.432	7.24
515.779	7.35
516.126	7.47
516.473	7.56
516.819	7.68
517.166	7.78
517.512	7.86
517.859	7.96
518.205	8.03
518.552	8.12
518.898	8.21
519.245	8.27
519.591	8.36
519.937	8.44
520.283	8.54
520.629	8.62
520.976	8.72
521.322	8.81
521.668	8.9
522.014	9.01
522.36	9.14
522.706	9.28
523.052	9.42
523.398	9.55
523.743	9.72
524.089	9.86
524.435	9.98
524.781	10.14
525.126	10.24
525.472	10.36
525.817	10.47
526.163	10.57
526.509	10.66
526.854	10.76
527.199	10.87
527.545	10.97
527.89	11.04
528.235	11.11
528.581	11.21
528.926	11.3
529.271	11.4
529.616	11.47
529.961	11.55
530.306	11.63
530.651	11.7
530.996	11.77
531.341	11.88
531.686	11.97
532.031	12.08
532.376	12.2
532.721	12.32
533.065	12.43
533.41	12.56
533.755	12.69
534.099	12.81
534.444	12.91
534.788	13.04
535.133	13.16
535.477	13.31
535.822	13.43
536.166	13.6
536.51	13.76
536.855	13.91
537.199	14.08
537.543	14.25
537.887	14.43
538.231	14.6
538.576	14.75
538.92	14.95
539.264	15.11
539.608	15.25
539.951	15.39
540.295	15.52
540.639	15.65
540.983	15.8
541.327	15.95
541.671	16.09
542.014	16.23
542.358	16.38
542.701	16.53
543.045	16.67
543.389	16.81
543.732	16.91
544.075	17.07
544.419	17.22
544.762	17.39
545.105	17.56
545.449	17.75
545.792	17.94
546.135	18.13
546.478	18.33
546.821	18.55
547.165	18.8
547.508	19.02
547.851	19.26
548.194	19.46
548.536	19.68
548.879	19.95
549.222	20.18
549.565	20.38
549.908	20.59
550.25	20.85
550.593	21.05
550.936	21.31
551.278	21.52
551.621	21.77
551.963	22.04
552.306	22.25
552.648	22.46
552.991	22.69
553.333	22.89
553.675	23.12
554.017	23.33
554.36	23.57
554.702	23.82
555.044	24.03
555.386	24.28
555.728	24.49
556.07	24.64
556.412	24.92
556.754	25.19
557.096	25.45
557.438	25.67
557.78	25.97
558.121	26.2
558.463	26.48
558.805	26.73
559.147	26.93
559.488	27.15
559.83	27.41
560.171	27.6
560.513	27.81
560.854	28.06
561.196	28.31
561.537	28.49
561.878	28.69
562.22	28.89
562.561	29.08
562.902	29.3
563.243	29.47
563.584	29.64
563.925	29.79
564.266	29.99
564.607	30.18
564.948	30.34
565.289	30.54
565.63	30.73
565.971	30.9
566.312	31.1
566.653	31.31
566.993	31.49
567.334	31.71
567.675	31.86
568.015	32.02
568.356	32.15
568.696	32.37
569.037	32.49
569.377	32.66
569.718	32.84
570.058	33
570.398	33.21
570.739	33.37
571.079	33.54
571.419	33.7
571.759	33.87
572.099	34.03
572.439	34.17
572.779	34.3
573.119	34.45
573.459	34.57
573.799	34.7
574.139	34.82
574.479	34.94
574.819	35.1
575.158	35.21
575.498	35.36
575.838	35.49
576.177	35.65
576.517	35.79
576.856	35.93
577.196	36.04
577.535	36.17
577.875	36.27
578.214	36.42
578.553	36.56
578.893	36.7
579.232	36.83
579.571	36.96
579.91	37.1
580.25	37.25
580.589	37.41
580.928	37.52
581.267	37.63
581.606	37.76
581.945	37.97
582.283	38.09
582.622	38.19
582.961	38.3
583.3	38.45
583.639	38.58
583.977	38.64
584.316	38.75
584.654	38.84
584.993	38.96
585.332	39.06
585.67	39.16
586.008	39.24
586.347	39.32
586.685	39.37
587.024	39.43
587.362	39.46
587.7	39.59
588.038	39.69
588.376	39.77
588.715	39.84
589.053	39.82
589.391	39.93
589.729	40.09
590.067	40.11
590.404	40.14
590.742	40.17
591.08	40.29
591.418	40.35
591.756	40.44
592.093	40.51
592.431	40.64
592.769	40.64
593.106	40.71
593.444	40.74
593.781	40.8
594.119	40.88
594.456	40.97
594.793	41.01
595.131	41.11
595.468	41.22
595.805	41.29
596.143	41.38
596.48	41.43
596.817	41.46
597.154	41.56
597.491	41.6
597.828	41.68
598.165	41.75
598.502	41.84
598.839	41.92
599.176	41.93
599.512	41.95
599.849	42.1
600.186	42.15
600.523	42.25
600.859	42.35
601.196	42.37
601.532	42.37
601.869	42.39
602.205	42.37
602.542	42.4
602.878	42.43
603.215	42.5
603.551	42.54
603.887	42.55
604.223	42.58
604.56	42.64
604.896	42.7
605.232	42.73
605.568	42.75
605.904	42.77
606.24	42.87
606.576	42.92
606.912	42.95
607.248	43
607.583	43.05
607.919	43.03
608.255	43.14
608.591	43.32
608.926	43.39
609.262	43.47
609.597	43.54
609.933	43.64
610.268	43.62
610.604	43.62
610.939	43.71
611.275	43.77
611.61	43.82
611.945	43.77
612.281	43.89
612.616	43.99
612.951	43.98
613.286	43.93
613.621	43.91
613.956	43.87
614.291	43.92
614.626	43.9
614.961	44.02
615.296	44.03
615.631	43.96
615.966	44.05
616.3	44.13
616.635	44.05
616.97	43.97
617.304	44.02
617.639	44
617.973	43.91
618.308	43.92
618.642	43.99
618.977	44.11
619.311	44.06
619.646	44.06
619.98	44.14
620.314	44.18
620.648	44.25
620.983	44.27
621.317	44.3
621.651	44.27
621.985	44.21
622.319	44.18
622.653	44.19
622.987	44.19
623.321	44.14
623.655	44.25
623.988	44.35
624.322	44.36
624.656	44.45
624.99	44.45
625.323	44.41
625.657	44.4
625.99	44.4
626.324	44.37
626.657	44.36
626.991	44.36
627.324	44.48
627.658	44.49
627.991	44.54
628.324	44.5
628.657	44.61
628.991	44.71
629.324	44.68
629.657	44.71
629.99	44.69
630.323	44.74
630.656	44.74
630.989	44.81
631.322	44.82
631.655	44.81
631.987	44.88
632.32	44.91
632.653	44.89
632.986	44.98
633.318	44.95
633.651	44.98
633.984	44.97
634.316	44.91
634.649	44.95
634.981	45.05
635.313	45.09
635.646	45.05
635.978	45.15
636.31	45.28
636.643	45.28
636.975	45.31
637.307	45.38
637.639	45.38
637.971	45.29
638.303	45.33
638.635	45.38
638.967	45.46
639.299	45.54
639.631	45.56
639.963	45.45
640.295	45.62
640.626	45.71
640.958	45.82
641.29	45.87
641.621	45.82
641.953	45.69
642.285	45.76
642.616	45.77
642.948	45.67
643.279	45.57
643.61	45.69
643.942	45.67
644.273	45.65
644.604	45.66
644.936	45.69
645.267	45.67
645.598	45.68
645.929	45.62
646.26	45.59
646.591	45.78
646.922	45.83
647.253	45.73
647.584	45.62
647.915	45.64
648.245	45.64
648.576	45.65
648.907	45.74
649.238	45.85
649.568	45.98
649.899	45.99
650.229	46.2
650.56	46.11
650.89	46.12
651.221	46.08
651.551	46.08
651.882	46.2
652.212	46.23
652.542	46.29
652.872	46.39
653.203	46.36
653.533	46.27
653.863	46.3
654.193	46.36
654.523	46.44
654.853	46.38
655.183	46.42
655.513	46.5
655.843	46.59
656.172	46.5
656.502	46.43
656.832	46.51
657.162	46.45
657.491	46.52
657.821	46.59
658.15	46.68
658.48	46.75
658.809	46.6
659.139	46.65
659.468	46.58
659.798	46.6
660.127	46.58
660.456	46.55
660.785	46.54
661.115	46.51
661.444	46.51
661.773	46.62
662.102	46.61
662.431	46.68
662.76	46.66
663.089	46.68
663.418	46.66
663.747	46.59
664.076	46.61
664.404	46.66
664.733	46.56
665.062	46.51
665.39	46.49
665.719	46.54
666.048	46.52
666.376	46.67
666.705	46.68
667.033	46.66
667.362	46.75
667.69	46.81
668.018	46.89
668.347	46.9
668.675	46.84
669.003	46.88
