Data from MVZ_BU163026_Reflection_00009.txt Node
Date: Tue Nov 19 12:06:05 EST 2019
User: vgr7
Spectrometer: USB2G7710
Scans to average: 3
Trigger mode: 4
Integration Time (sec): 2.000000E-2
Electric dark correction enabled: true
Boxcar width: 10
XAxis mode: Wavelengths
Number of Pixels in Spectrum: 2048
>>>>>Begin Spectral Data<<<<<
177.721	-38.12
178.105	-251.35
178.488	-173.04
178.871	-129.85
179.254	-124.62
179.636	-62.66
180.019	-116.97
180.402	300
180.785	-1336.36
181.168	291.96
181.55	237.93
181.933	515.73
182.316	140.17
182.698	123.85
183.081	105.02
183.463	73.97
183.846	48.17
184.228	15.16
184.611	30.82
184.993	66.86
185.376	63.92
185.758	104.8
186.14	75.32
186.522	106.15
186.904	105.53
187.287	103.01
187.669	103.49
188.051	113.21
188.433	73.61
188.815	75.14
189.197	80.5
189.579	89.98
189.961	102.69
190.342	127.65
190.724	154.91
191.106	163.61
191.488	119.67
191.869	211.7
192.251	325.58
192.633	436.56
193.014	535.16
193.396	331.69
193.777	284.92
194.159	560.97
194.54	1320.78
194.922	-5636.84
195.303	900
195.684	729.44
196.065	740.39
196.447	-688.94
196.828	12736.36
197.209	1250.44
197.59	3563.41
197.971	3057.45
198.352	524.12
198.733	534.78
199.114	681.28
199.495	381.17
199.876	407.51
200.257	257.21
200.638	343.13
201.018	394.26
201.399	1593.51
201.78	1677.46
202.16	294.17
202.541	244.56
202.922	240.09
203.302	277.16
203.683	196.69
204.063	152.41
204.444	174.36
204.824	264.71
205.204	1590.57
205.585	2026.83
205.965	790.14
206.345	-207.69
206.725	-101.77
207.106	-130.9
207.486	-111.89
207.866	-137.29
208.246	-75.61
208.626	-103.72
209.006	-156.03
209.386	-246.74
209.766	-461.8
210.145	-293.15
210.525	-451.81
210.905	-318.52
211.285	-143.65
211.664	-110.93
212.044	-98.59
212.424	-93.05
212.803	-108.19
213.183	-149.34
213.562	-132.62
213.942	-122.53
214.321	-150.52
214.701	-187.95
215.08	-173.75
215.459	-121.53
215.838	-97.02
216.218	-132.36
216.597	-140.72
216.976	-140.72
217.355	-79.98
217.734	-61.35
218.113	-30.17
218.492	-12.76
218.871	-11.94
219.25	-23.3
219.629	-38.27
220.008	-17.75
220.387	-39.44
220.766	-12.91
221.144	-7.77
221.523	-27.78
221.902	-0.77
222.28	40.97
222.659	42.49
223.037	31.31
223.416	38.63
223.794	37.95
224.173	27.96
224.551	34.58
224.929	26.95
225.308	21.8
225.686	24.33
226.064	17.3
226.442	14.98
226.821	15.29
227.199	15.39
227.577	18.34
227.955	15.16
228.333	12.6
228.711	10.02
229.089	10.03
229.467	11.53
229.845	10.94
230.222	10.04
230.6	5.53
230.978	8.65
231.356	7.61
231.733	7.27
232.111	8.55
232.488	8.05
232.866	8.79
233.243	7.97
233.621	7.87
233.998	9.14
234.376	8.66
234.753	8.19
235.13	8.78
235.508	8.9
235.885	7.79
236.262	9.03
236.639	8.22
237.016	6.91
237.393	6.72
237.77	5.41
238.147	4.59
238.524	6.44
238.901	4.99
239.278	5.16
239.655	4.41
240.032	3.99
240.409	3.64
240.785	3.23
241.162	2.83
241.539	2.26
241.915	1.89
242.292	2.3
242.668	2.55
243.045	2.38
243.421	2.34
243.798	2.86
244.174	2.93
244.551	2.96
244.927	3.2
245.303	3.03
245.679	3.16
246.056	3.31
246.432	3.29
246.808	3.3
247.184	3.3
247.56	3.19
247.936	3.1
248.312	3.37
248.688	3.58
249.064	3.7
249.44	3.8
249.815	3.91
250.191	3.73
250.567	3.61
250.943	3.63
251.318	3.57
251.694	3.33
252.069	3.31
252.445	3.49
252.82	3.45
253.196	3.74
253.571	3.71
253.947	3.69
254.322	3.23
254.697	3.57
255.073	3.52
255.448	3.4
255.823	3.38
256.198	3.11
256.573	3.01
256.948	3.18
257.323	3.22
257.698	3.05
258.073	3.06
258.448	3.1
258.823	3.03
259.198	3.06
259.573	2.9
259.948	2.9
260.322	2.75
260.697	2.8
261.072	2.68
261.446	2.72
261.821	2.7
262.195	2.79
262.57	2.6
262.944	2.52
263.319	2.52
263.693	2.58
264.067	2.54
264.442	2.44
264.816	2.34
265.19	2.24
265.564	2.28
265.938	2.3
266.313	2.21
266.687	2.23
267.061	2.16
267.435	2.43
267.809	2.26
268.183	2.18
268.556	1.87
268.93	2.11
269.304	2
269.678	2.03
270.051	2.08
270.425	2.27
270.799	2.31
271.172	2.64
271.546	2.61
271.919	2.51
272.293	2.67
272.666	2.72
273.04	2.76
273.413	2.76
273.787	2.61
274.16	2.61
274.533	2.61
274.906	2.75
275.279	2.63
275.653	2.71
276.026	2.81
276.399	3.07
276.772	3.07
277.145	2.99
277.518	2.85
277.891	2.82
278.263	2.65
278.636	2.77
279.009	2.51
279.382	2.4
279.755	2.54
280.127	2.53
280.5	2.27
280.872	2.33
281.245	2.34
281.617	2.54
281.99	2.65
282.362	2.76
282.735	2.71
283.107	2.67
283.479	2.6
283.852	2.73
284.224	2.65
284.596	2.64
284.968	2.75
285.34	2.87
285.713	2.99
286.085	2.92
286.457	2.85
286.829	2.96
287.201	3.03
287.572	3.06
287.944	3.06
288.316	3.21
288.688	3.28
289.06	3.32
289.431	3.42
289.803	3.36
290.175	3.32
290.546	3.24
290.918	3.42
291.289	3.42
291.661	3.29
292.032	3.39
292.403	3.26
292.775	3.3
293.146	3.38
293.517	3.21
293.889	3.37
294.26	3.47
294.631	3.49
295.002	3.44
295.373	3.5
295.744	3.47
296.115	3.51
296.486	3.44
296.857	3.55
297.228	3.37
297.599	3.32
297.97	3.39
298.34	3.45
298.711	3.48
299.082	3.63
299.452	3.57
299.823	3.56
300.194	3.61
300.564	3.52
300.935	3.53
301.305	3.61
301.676	3.62
302.046	3.52
302.416	3.66
302.787	3.63
303.157	3.68
303.527	3.73
303.897	3.7
304.267	3.85
304.637	3.72
305.008	3.88
305.378	3.95
305.748	3.87
306.117	3.91
306.487	3.91
306.857	4.04
307.227	4.43
307.597	4.45
307.967	4.53
308.336	4.52
308.706	4.46
309.076	4.64
309.445	4.62
309.815	4.69
310.184	4.54
310.554	4.59
310.923	4.37
311.293	4.46
311.662	4.59
312.031	4.67
312.401	4.68
312.77	4.56
313.139	4.57
313.508	4.75
313.877	4.72
314.246	4.73
314.616	4.68
314.985	4.54
315.353	4.45
315.722	4.55
316.091	4.8
316.46	4.9
316.829	4.76
317.198	4.95
317.567	4.91
317.935	4.93
318.304	5.13
318.672	5.28
319.041	5.23
319.41	5.4
319.778	5.19
320.147	5.19
320.515	5.39
320.883	5.43
321.252	5.34
321.62	5.48
321.988	5.49
322.357	5.62
322.725	5.56
323.093	5.55
323.461	5.54
323.829	5.4
324.197	5.37
324.565	5.41
324.933	5.23
325.301	5.16
325.669	5.12
326.037	5.16
326.405	5.36
326.772	5.42
327.14	5.27
327.508	5.14
327.875	5.18
328.243	5.13
328.61	5.2
328.978	5.21
329.346	5.2
329.713	5.23
330.08	5.18
330.448	5.32
330.815	5.4
331.182	5.52
331.55	5.66
331.917	5.59
332.284	5.62
332.651	5.88
333.018	6.08
333.385	6.28
333.752	6.28
334.119	6.2
334.486	6.31
334.853	6.25
335.22	6.36
335.587	6.34
335.954	6.31
336.32	6.43
336.687	6.48
337.054	6.47
337.42	6.44
337.787	6.44
338.153	6.4
338.52	6.56
338.886	6.5
339.253	6.48
339.619	6.48
339.986	6.56
340.352	6.63
340.718	6.66
341.084	6.67
341.451	6.68
341.817	6.75
342.183	6.64
342.549	6.8
342.915	6.86
343.281	7.01
343.647	7.16
344.013	7.11
344.379	7.1
344.745	7.14
345.11	7.23
345.476	7.33
345.842	7.34
346.208	7.28
346.573	7.28
346.939	7.32
347.304	7.39
347.67	7.34
348.035	7.18
348.401	7.23
348.766	7.2
349.132	7.24
349.497	7.25
349.862	7.36
350.228	7.41
350.593	7.38
350.958	7.39
351.323	7.34
351.688	7.25
352.053	7.32
352.418	7.36
352.783	7.27
353.148	7.16
353.513	7.13
353.878	7.15
354.243	7.14
354.608	7.15
354.972	7.2
355.337	7.26
355.702	7.29
356.066	7.19
356.431	7.26
356.795	7.21
357.16	7.19
357.524	7.14
357.889	7.01
358.253	7.1
358.618	7.03
358.982	7.01
359.346	7.09
359.71	7.05
360.075	6.97
360.439	6.99
360.803	6.93
361.167	6.86
361.531	6.88
361.895	6.89
362.259	6.87
362.623	6.84
362.987	6.85
363.351	6.77
363.714	6.78
364.078	6.73
364.442	6.72
364.806	6.74
365.169	6.68
365.533	6.74
365.896	6.66
366.26	6.62
366.623	6.56
366.987	6.52
367.35	6.46
367.714	6.49
368.077	6.43
368.44	6.44
368.803	6.45
369.167	6.43
369.53	6.39
369.893	6.35
370.256	6.29
370.619	6.2
370.982	6.11
371.345	6.19
371.708	6.19
372.071	6.11
372.434	5.98
372.797	5.96
373.159	5.85
373.522	5.78
373.885	5.83
374.247	5.83
374.61	5.74
374.973	5.69
375.335	5.64
375.698	5.62
376.06	5.58
376.423	5.6
376.785	5.49
377.147	5.4
377.51	5.41
377.872	5.41
378.234	5.39
378.596	5.41
378.958	5.29
379.321	5.2
379.683	5.23
380.045	5.22
380.407	5.17
380.769	5.13
381.13	5.14
381.492	5.09
381.854	5.04
382.216	5.12
382.578	5.14
382.939	5.09
383.301	5.03
383.663	4.99
384.024	4.91
384.386	4.89
384.747	4.86
385.109	4.77
385.47	4.8
385.832	4.74
386.193	4.75
386.554	4.69
386.916	4.66
387.277	4.6
387.638	4.6
387.999	4.58
388.36	4.62
388.721	4.65
389.082	4.63
389.443	4.66
389.804	4.55
390.165	4.5
390.526	4.53
390.887	4.54
391.248	4.53
391.609	4.54
391.969	4.55
392.33	4.51
392.691	4.5
393.051	4.42
393.412	4.43
393.772	4.44
394.133	4.43
394.493	4.4
394.854	4.37
395.214	4.29
395.574	4.27
395.935	4.21
396.295	4.14
396.655	4.05
397.015	3.97
397.376	3.96
397.736	3.9
398.096	3.86
398.456	3.81
398.816	3.77
399.176	3.72
399.535	3.68
399.895	3.68
400.255	3.69
400.615	3.65
400.975	3.61
401.334	3.57
401.694	3.54
402.054	3.52
402.413	3.49
402.773	3.51
403.132	3.5
403.492	3.48
403.851	3.44
404.211	3.45
404.57	3.44
404.929	3.44
405.288	3.47
405.648	3.41
406.007	3.41
406.366	3.43
406.725	3.44
407.084	3.49
407.443	3.5
407.802	3.46
408.161	3.5
408.52	3.49
408.879	3.48
409.238	3.5
409.596	3.54
409.955	3.54
410.314	3.52
410.673	3.49
411.031	3.49
411.39	3.49
411.748	3.54
412.107	3.54
412.465	3.51
412.824	3.5
413.182	3.51
413.54	3.5
413.899	3.49
414.257	3.49
414.615	3.43
414.974	3.41
415.332	3.41
415.69	3.41
416.048	3.38
416.406	3.33
416.764	3.32
417.122	3.29
417.48	3.28
417.838	3.27
418.195	3.26
418.553	3.25
418.911	3.23
419.269	3.21
419.626	3.19
419.984	3.17
420.342	3.15
420.699	3.14
421.057	3.14
421.414	3.13
421.772	3.11
422.129	3.09
422.486	3.09
422.844	3.08
423.201	3.06
423.558	3.06
423.915	3.07
424.273	3.05
424.63	3.04
424.987	3.04
425.344	3.03
425.701	3.03
426.058	3.04
426.415	3.03
426.772	3.01
427.128	3.02
427.485	3.04
427.842	3.04
428.199	3.04
428.555	3.03
428.912	3
429.269	3
429.625	3.01
429.982	3.02
430.338	3
430.695	2.97
431.051	2.98
431.407	2.95
431.764	2.95
432.12	2.96
432.476	2.95
432.832	2.95
433.189	2.95
433.545	2.92
433.901	2.94
434.257	2.94
434.613	2.92
434.969	2.92
435.325	2.95
435.681	2.95
436.036	2.95
436.392	2.95
436.748	2.97
437.104	2.97
437.459	2.97
437.815	2.99
438.171	3.02
438.526	3.01
438.882	3.03
439.237	3.03
439.593	3.02
439.948	3.03
440.304	3.03
440.659	3.04
441.014	3.07
441.369	3.06
441.725	3.09
442.08	3.08
442.435	3.08
442.79	3.06
443.145	3.07
443.5	3.06
443.855	3.06
444.21	3.05
444.565	3.06
444.92	3.05
445.275	3.05
445.629	3.05
445.984	3.04
446.339	3.04
446.693	3.03
447.048	3.03
447.403	3.02
447.757	3.01
448.112	3
448.466	2.98
448.82	2.97
449.175	2.94
449.529	2.94
449.883	2.92
450.238	2.92
450.592	2.92
450.946	2.92
451.3	2.92
451.654	2.9
452.008	2.89
452.362	2.9
452.716	2.91
453.07	2.89
453.424	2.88
453.778	2.86
454.132	2.87
454.486	2.88
454.839	2.87
455.193	2.89
455.547	2.89
455.9	2.91
456.254	2.92
456.607	2.93
456.961	2.95
457.314	2.94
457.668	2.94
458.021	2.92
458.375	2.91
458.728	2.91
459.081	2.91
459.434	2.89
459.787	2.88
460.141	2.87
460.494	2.86
460.847	2.89
461.2	2.9
461.553	2.9
461.906	2.91
462.259	2.91
462.611	2.91
462.964	2.91
463.317	2.91
463.67	2.91
464.022	2.92
464.375	2.91
464.728	2.91
465.08	2.92
465.433	2.93
465.785	2.94
466.138	2.97
466.49	3.01
466.843	3.03
467.195	3.05
467.547	3.04
467.899	3.07
468.252	3.05
468.604	3.05
468.956	3.05
469.308	3.05
469.66	3.08
470.012	3.09
470.364	3.12
470.716	3.13
471.068	3.14
471.42	3.13
471.772	3.13
472.123	3.14
472.475	3.14
472.827	3.16
473.178	3.18
473.53	3.16
473.882	3.17
474.233	3.16
474.585	3.18
474.936	3.16
475.288	3.13
475.639	3.15
475.99	3.15
476.342	3.16
476.693	3.17
477.044	3.16
477.395	3.14
477.746	3.12
478.097	3.12
478.448	3.09
478.8	3.07
479.15	3.07
479.501	3.06
479.852	3.03
480.203	3.03
480.554	3.02
480.905	3.02
481.255	3.02
481.606	3.03
481.957	3.04
482.307	3.05
482.658	3.06
483.009	3.06
483.359	3.06
483.709	3.06
484.06	3.05
484.41	3.05
484.761	3.06
485.111	3.06
485.461	3.06
485.811	3.06
486.162	3.06
486.512	3.07
486.862	3.07
487.212	3.09
487.562	3.08
487.912	3.09
488.262	3.08
488.612	3.08
488.961	3.09
489.311	3.08
489.661	3.08
490.011	3.08
490.36	3.07
490.71	3.08
491.06	3.07
491.409	3.09
491.759	3.1
492.108	3.1
492.458	3.09
492.807	3.11
493.157	3.13
493.506	3.15
493.855	3.17
494.204	3.18
494.554	3.19
494.903	3.22
495.252	3.22
495.601	3.23
495.95	3.24
496.299	3.26
496.648	3.29
496.997	3.3
497.346	3.33
497.695	3.36
498.043	3.39
498.392	3.41
498.741	3.43
499.09	3.45
499.438	3.47
499.787	3.53
500.135	3.55
500.484	3.57
500.832	3.6
501.181	3.64
501.529	3.69
501.878	3.72
502.226	3.76
502.574	3.83
502.923	3.87
503.271	3.91
503.619	3.96
503.967	3.99
504.315	4.08
504.663	4.1
505.011	4.16
505.359	4.21
505.707	4.26
506.055	4.32
506.403	4.38
506.751	4.45
507.098	4.51
507.446	4.6
507.794	4.69
508.141	4.78
508.489	4.86
508.837	4.93
509.184	5.02
509.531	5.11
509.879	5.18
510.226	5.27
510.574	5.36
510.921	5.45
511.268	5.57
511.616	5.65
511.963	5.75
512.31	5.85
512.657	5.98
513.004	6.1
513.351	6.21
513.698	6.32
514.045	6.43
514.392	6.54
514.739	6.64
515.086	6.75
515.432	6.87
515.779	6.97
516.126	7.1
516.473	7.21
516.819	7.29
517.166	7.4
517.512	7.51
517.859	7.62
518.205	7.71
518.552	7.79
518.898	7.88
519.245	7.97
519.591	8.07
519.937	8.15
520.283	8.26
520.629	8.37
520.976	8.49
521.322	8.61
521.668	8.73
522.014	8.82
522.36	8.94
522.706	9.07
523.052	9.21
523.398	9.37
523.743	9.51
524.089	9.68
524.435	9.83
524.781	10.01
525.126	10.17
525.472	10.32
525.817	10.44
526.163	10.55
526.509	10.68
526.854	10.79
527.199	10.87
527.545	10.95
527.89	11.07
528.235	11.18
528.581	11.27
528.926	11.4
529.271	11.53
529.616	11.65
529.961	11.77
530.306	11.91
530.651	12.03
530.996	12.17
531.341	12.31
531.686	12.47
532.031	12.59
532.376	12.74
532.721	12.87
533.065	13.04
533.41	13.22
533.755	13.39
534.099	13.56
534.444	13.79
534.788	13.98
535.133	14.16
535.477	14.35
535.822	14.57
536.166	14.78
536.51	15.02
536.855	15.24
537.199	15.47
537.543	15.71
537.887	15.96
538.231	16.23
538.576	16.46
538.92	16.71
539.264	16.97
539.608	17.21
539.951	17.46
540.295	17.69
540.639	17.89
540.983	18.11
541.327	18.34
541.671	18.54
542.014	18.78
542.358	18.97
542.701	19.17
543.045	19.37
543.389	19.59
543.732	19.81
544.075	20.03
544.419	20.29
544.762	20.51
545.105	20.78
545.449	21.02
545.792	21.32
546.135	21.62
546.478	21.89
546.821	22.2
547.165	22.51
547.508	22.84
547.851	23.19
548.194	23.5
548.536	23.8
548.879	24.15
549.222	24.44
549.565	24.79
549.908	25.16
550.25	25.53
550.593	25.85
550.936	26.18
551.278	26.56
551.621	26.87
551.963	27.28
552.306	27.64
552.648	27.98
552.991	28.3
553.333	28.62
553.675	28.99
554.017	29.32
554.36	29.58
554.702	29.82
555.044	30.12
555.386	30.41
555.728	30.75
556.07	31.05
556.412	31.35
556.754	31.65
557.096	31.91
557.438	32.19
557.78	32.51
558.121	32.87
558.463	33.16
558.805	33.46
559.147	33.69
559.488	33.98
559.83	34.28
560.171	34.6
560.513	34.86
560.854	35.12
561.196	35.36
561.537	35.77
561.878	36.08
562.22	36.33
562.561	36.66
562.902	36.89
563.243	37.1
563.584	37.39
563.925	37.65
564.266	37.86
564.607	38.1
564.948	38.3
565.289	38.47
565.63	38.72
565.971	38.97
566.312	39.19
566.653	39.45
566.993	39.64
567.334	39.88
567.675	40.12
568.015	40.29
568.356	40.49
568.696	40.58
569.037	40.76
569.377	40.93
569.718	41.09
570.058	41.23
570.398	41.46
570.739	41.67
571.079	41.82
571.419	42.01
571.759	42.2
572.099	42.42
572.439	42.59
572.779	42.74
573.119	42.83
573.459	42.93
573.799	43.06
574.139	43.19
574.479	43.29
574.819	43.37
575.158	43.56
575.498	43.73
575.838	43.9
576.177	44.1
576.517	44.3
576.856	44.49
577.196	44.73
577.535	44.82
577.875	44.87
578.214	45.03
578.553	45.15
578.893	45.27
579.232	45.42
579.571	45.54
579.91	45.69
580.25	45.88
580.589	46.03
580.928	46.07
581.267	46.22
581.606	46.29
581.945	46.39
582.283	46.51
582.622	46.58
582.961	46.74
583.3	46.8
583.639	46.9
583.977	46.96
584.316	47.03
584.654	47.25
584.993	47.4
585.332	47.61
585.67	47.71
586.008	47.79
586.347	47.84
586.685	47.96
587.024	48.01
587.362	48.06
587.7	48.29
588.038	48.38
588.376	48.48
588.715	48.63
589.053	48.77
589.391	48.77
589.729	48.82
590.067	48.94
590.404	49
590.742	49.03
591.08	49.12
591.418	49.25
591.756	49.21
592.093	49.25
592.431	49.27
592.769	49.41
593.106	49.53
593.444	49.67
593.781	49.69
594.119	49.77
594.456	49.97
594.793	49.87
595.131	49.97
595.468	50.01
595.805	50.1
596.143	50.2
596.48	50.23
596.817	50.35
597.154	50.39
597.491	50.48
597.828	50.63
598.165	50.67
598.502	50.74
598.839	50.83
599.176	50.88
599.512	50.91
599.849	50.95
600.186	50.99
600.523	51
600.859	51.09
601.196	51.16
601.532	51.14
601.869	51.28
602.205	51.3
602.542	51.42
602.878	51.46
603.215	51.49
603.551	51.66
603.887	51.68
604.223	51.68
604.56	51.67
604.896	51.69
605.232	51.79
605.568	51.84
605.904	51.92
606.24	52
606.576	52.07
606.912	52.13
607.248	52.2
607.583	52.24
607.919	52.3
608.255	52.37
608.591	52.48
608.926	52.62
609.262	52.68
609.597	52.71
609.933	52.77
610.268	52.83
610.604	52.78
610.939	52.86
611.275	52.88
611.61	53.02
611.945	53.04
612.281	53.08
612.616	53.06
612.951	53.04
613.286	53.12
613.621	53.16
613.956	53.2
614.291	53.27
614.626	53.22
614.961	53.29
615.296	53.3
615.631	53.19
615.966	53.1
616.3	53.08
616.635	53.09
616.97	53.07
617.304	53.1
617.639	53.21
617.973	53.25
618.308	53.27
618.642	53.16
618.977	53.11
619.311	53.12
619.646	53.22
619.98	53.26
620.314	53.25
620.648	53.27
620.983	53.29
621.317	53.23
621.651	53.37
621.985	53.37
622.319	53.34
622.653	53.5
622.987	53.57
623.321	53.63
623.655	53.67
623.988	53.69
624.322	53.67
624.656	53.72
624.99	53.66
625.323	53.65
625.657	53.71
625.99	53.74
626.324	53.73
626.657	53.74
626.991	53.78
627.324	53.79
627.658	53.88
627.991	53.84
628.324	53.89
628.657	53.9
628.991	53.94
629.324	53.99
629.657	53.98
629.99	54
630.323	54.06
630.656	53.98
630.989	53.99
631.322	54.02
631.655	54.02
631.987	54.03
632.32	54.16
632.653	54.24
632.986	54.32
633.318	54.39
633.651	54.38
633.984	54.45
634.316	54.49
634.649	54.33
634.981	54.32
635.313	54.25
635.646	54.25
635.978	54.25
636.31	54.29
636.643	54.31
636.975	54.28
637.307	54.29
637.639	54.39
637.971	54.39
638.303	54.41
638.635	54.34
638.967	54.39
639.299	54.23
639.631	54.2
639.963	54.08
640.295	54
640.626	54.06
640.958	54.14
641.29	54.18
641.621	54.37
641.953	54.5
642.285	54.6
642.616	54.66
642.948	54.7
643.279	54.75
643.61	54.74
643.942	54.65
644.273	54.67
644.604	54.63
644.936	54.71
645.267	54.69
645.598	54.86
645.929	54.87
646.26	54.99
646.591	54.99
646.922	55.23
647.253	55.29
647.584	55.26
647.915	55.2
648.245	55.18
648.576	55.07
648.907	55.05
649.238	55.12
649.568	55.09
649.899	55.09
650.229	55.16
650.56	55.11
650.89	55.25
651.221	55.24
651.551	55.28
651.882	55.34
652.212	55.41
652.542	55.34
652.872	55.41
653.203	55.46
653.533	55.53
653.863	55.64
654.193	55.51
654.523	55.49
654.853	55.43
655.183	55.51
655.513	55.6
655.843	55.75
656.172	55.73
656.502	55.7
656.832	55.64
657.162	55.56
657.491	55.68
657.821	55.67
658.15	55.74
658.48	55.73
658.809	55.64
659.139	55.74
659.468	55.78
659.798	55.77
660.127	55.65
660.456	55.62
660.785	55.38
661.115	55.54
661.444	55.65
661.773	55.72
662.102	55.73
662.431	55.78
662.76	55.65
663.089	55.65
663.418	55.76
663.747	55.88
664.076	55.91
664.404	55.86
664.733	55.85
665.062	55.76
665.39	55.93
665.719	55.89
666.048	55.69
666.376	55.63
666.705	55.64
