Data from MVZ_BU147395_Reflection_00008.txt Node
Date: Tue Nov 19 12:05:05 EST 2019
User: vgr7
Spectrometer: USB2G7710
Scans to average: 3
Trigger mode: 4
Integration Time (sec): 2.000000E-2
Electric dark correction enabled: true
Boxcar width: 10
XAxis mode: Wavelengths
Number of Pixels in Spectrum: 2048
>>>>>Begin Spectral Data<<<<<
177.721	-30.77
178.105	-27.53
178.488	6.62
178.871	57.55
179.254	16.83
179.636	100
180.019	1484.62
180.402	154.55
180.785	-0.62
181.168	-108.09
181.55	-616.42
181.933	161.7
182.316	620.23
182.698	-7163.16
183.081	2780.85
183.463	1581.93
183.846	-1684.81
184.228	-1218.68
184.611	-329.97
184.993	-161.39
185.376	-179.94
185.758	-112.18
186.14	-123.43
186.522	-76.81
186.904	-56.37
187.287	-64.23
187.669	-63.17
188.051	-65.37
188.433	-97.59
188.815	-110.06
189.197	-86.38
189.579	-67.71
189.961	-52.52
190.342	-35.5
190.724	-34.88
191.106	-42.98
191.488	-42.62
191.869	-49.5
192.251	-65.8
192.633	-61.19
193.014	-62.55
193.396	-61.01
193.777	-43.75
194.159	-39.03
194.54	-41.22
194.922	-63.33
195.303	-61.95
195.684	-75.35
196.065	-77
196.447	-58.23
196.828	-56.59
197.209	-52.71
197.59	-54.57
197.971	-34.21
198.352	-37.83
198.733	-29.81
199.114	-19.33
199.495	-16.42
199.876	-20.19
200.257	-15.67
200.638	-25.7
201.018	-36.46
201.399	-19.72
201.78	-27.3
202.16	-16.23
202.541	-74.56
202.922	-31.41
203.302	-17.74
203.683	-30.07
204.063	-47.31
204.444	-26.76
204.824	-47.1
205.204	-17.89
205.585	-37.11
205.965	-84.56
206.345	-88.14
206.725	-85.54
207.106	-82.55
207.486	-53.58
207.866	-34.3
208.246	-19.72
208.626	-22.83
209.006	-29.79
209.386	-36.92
209.766	-47.15
210.145	-49.82
210.525	-42.98
210.905	-29.52
211.285	-21.48
211.664	3.02
212.044	1.12
212.424	7.93
212.803	-3.45
213.183	-14.99
213.562	9.13
213.942	16.94
214.321	20.43
214.701	13.79
215.08	16.24
215.459	17.18
215.838	12.69
216.218	5.33
216.597	6.2
216.976	19.22
217.355	6.9
217.734	1.25
218.113	-4.56
218.492	-1.32
218.871	-9.21
219.25	-20.68
219.629	-41.24
220.008	-36.42
220.387	-36.51
220.766	-10.97
221.144	-14.89
221.523	-25.18
221.902	-20.46
222.28	-20
222.659	-8.76
223.037	-9.12
223.416	-4.51
223.794	-3.81
224.173	-4.89
224.551	-0.73
224.929	-1.84
225.308	-0.17
225.686	6.21
226.064	6.05
226.442	3.55
226.821	-0.06
227.199	0.01
227.577	5.44
227.955	3.89
228.333	3.71
228.711	0.51
229.089	1.27
229.467	-2.3
229.845	-3.56
230.222	-3.54
230.6	-6.66
230.978	-6.55
231.356	-6.51
231.733	-5.15
232.111	-4.85
232.488	-6.16
232.866	-4.74
233.243	-3.98
233.621	-6.41
233.998	-3.01
234.376	-2.14
234.753	-0.39
235.13	-0.73
235.508	-3.36
235.885	-3.8
236.262	-3.69
236.639	-4
237.016	-3.97
237.393	-1.4
237.77	-0.02
238.147	0.36
238.524	1.5
238.901	1.77
239.278	0.98
239.655	0.89
240.032	0.88
240.409	1.18
240.785	0.85
241.162	1.84
241.539	2.45
241.915	2.17
242.292	2.59
242.668	2.82
243.045	3.5
243.421	3.77
243.798	4.11
244.174	4.13
244.551	4.65
244.927	4.59
245.303	4.36
245.679	4.24
246.056	4.19
246.432	4.18
246.808	4.28
247.184	4.44
247.56	4.27
247.936	4.49
248.312	4.71
248.688	4.93
249.064	4.77
249.44	4.56
249.815	4.36
250.191	4.22
250.567	4.13
250.943	4.03
251.318	4.06
251.694	4
252.069	3.85
252.445	3.41
252.82	3.44
253.196	3.53
253.571	3.65
253.947	3.59
254.322	3.41
254.697	3.49
255.073	3.47
255.448	3.59
255.823	3.56
256.198	3.57
256.573	3.51
256.948	3.47
257.323	3.52
257.698	3.63
258.073	3.62
258.448	3.67
258.823	3.46
259.198	3.34
259.573	3.48
259.948	3.59
260.322	3.5
260.697	3.53
261.072	3.57
261.446	3.45
261.821	3.38
262.195	3.38
262.57	3.31
262.944	3.29
263.319	3.2
263.693	3.1
264.067	2.96
264.442	2.93
264.816	2.86
265.19	2.92
265.564	2.92
265.938	2.9
266.313	2.76
266.687	2.96
267.061	3.07
267.435	2.98
267.809	2.85
268.183	3.08
268.556	3.09
268.93	3.18
269.304	3.16
269.678	3.34
270.051	3.26
270.425	3.28
270.799	3.3
271.172	3.41
271.546	3.57
271.919	3.53
272.293	3.58
272.666	3.49
273.04	3.51
273.413	3.44
273.787	3.44
274.16	3.6
274.533	3.6
274.906	3.57
275.279	3.59
275.653	3.56
276.026	3.46
276.399	3.55
276.772	3.51
277.145	3.53
277.518	3.42
277.891	3.55
278.263	3.56
278.636	3.55
279.009	3.48
279.382	3.23
279.755	3.39
280.127	3.47
280.5	3.53
280.872	3.53
281.245	3.55
281.617	3.52
281.99	3.3
282.362	3.24
282.735	3.25
283.107	3.15
283.479	3.31
283.852	3.44
284.224	3.38
284.596	3.42
284.968	3.32
285.34	3.38
285.713	3.43
286.085	3.4
286.457	3.42
286.829	3.43
287.201	3.5
287.572	3.44
287.944	3.48
288.316	3.5
288.688	3.43
289.06	3.46
289.431	3.65
289.803	3.93
290.175	4
290.546	3.97
290.918	4.02
291.289	3.9
291.661	3.85
292.032	3.84
292.403	3.82
292.775	4.04
293.146	4.16
293.517	4.14
293.889	4.13
294.26	4.26
294.631	4.4
295.002	4.56
295.373	4.55
295.744	4.5
296.115	4.59
296.486	4.68
296.857	4.79
297.228	4.62
297.599	4.42
297.97	4.53
298.34	4.57
298.711	4.7
299.082	4.85
299.452	4.92
299.823	4.96
300.194	5
300.564	5.01
300.935	5.05
301.305	5.11
301.676	5.15
302.046	5.02
302.416	5.03
302.787	5.08
303.157	5.19
303.527	5.29
303.897	5.26
304.267	5.37
304.637	5.41
305.008	5.56
305.378	5.7
305.748	5.55
306.117	5.62
306.487	5.59
306.857	5.71
307.227	5.74
307.597	5.91
307.967	5.92
308.336	5.92
308.706	6.01
309.076	6.22
309.445	6.51
309.815	6.65
310.184	6.58
310.554	6.59
310.923	6.66
311.293	6.7
311.662	6.77
312.031	6.7
312.401	6.53
312.77	6.46
313.139	6.51
313.508	6.68
313.877	6.69
314.246	6.74
314.616	6.7
314.985	6.73
315.353	6.7
315.722	6.82
316.091	6.93
316.46	6.94
316.829	6.89
317.198	6.68
317.567	6.62
317.935	6.71
318.304	6.83
318.672	6.87
319.041	6.83
319.41	6.76
319.778	6.91
320.147	7.17
320.515	7.37
320.883	7.32
321.252	7.2
321.62	7.27
321.988	7.35
322.357	7.49
322.725	7.48
323.093	7.38
323.461	7.5
323.829	7.44
324.197	7.47
324.565	7.58
324.933	7.72
325.301	7.67
325.669	7.61
326.037	7.61
326.405	7.57
326.772	7.61
327.14	7.71
327.508	7.84
327.875	7.9
328.243	8.03
328.61	8.13
328.978	8.2
329.346	8.36
329.713	8.46
330.08	8.55
330.448	8.61
330.815	8.81
331.182	8.75
331.55	8.85
331.917	8.8
332.284	8.73
332.651	8.73
333.018	9
333.385	9.31
333.752	9.2
334.119	9.34
334.486	9.29
334.853	9.34
335.22	9.21
335.587	9.17
335.954	9.05
336.32	8.99
336.687	9.08
337.054	9.02
337.42	9.08
337.787	9
338.153	9.19
338.52	9.22
338.886	9.28
339.253	9.36
339.619	9.37
339.986	9.31
340.352	9.35
340.718	9.35
341.084	9.28
341.451	9.43
341.817	9.5
342.183	9.49
342.549	9.51
342.915	9.63
343.281	9.76
343.647	9.77
344.013	9.84
344.379	9.78
344.745	9.83
345.11	9.74
345.476	9.75
345.842	9.67
346.208	9.69
346.573	9.68
346.939	9.56
347.304	9.67
347.67	9.74
348.035	9.7
348.401	9.69
348.766	9.63
349.132	9.63
349.497	9.58
349.862	9.65
350.228	9.72
350.593	9.74
350.958	9.72
351.323	9.71
351.688	9.71
352.053	9.76
352.418	9.73
352.783	9.79
353.148	9.77
353.513	9.84
353.878	9.84
354.243	9.82
354.608	9.95
354.972	9.92
355.337	9.84
355.702	9.95
356.066	10.01
356.431	9.99
356.795	9.97
357.16	9.96
357.524	10
357.889	10
358.253	9.96
358.618	9.93
358.982	9.94
359.346	10.03
359.71	10.06
360.075	10.1
360.439	10.12
360.803	10.17
361.167	10.13
361.531	10.07
361.895	10.05
362.259	9.99
362.623	9.98
362.987	10.05
363.351	9.95
363.714	9.93
364.078	9.93
364.442	9.92
364.806	9.92
365.169	9.81
365.533	9.81
365.896	9.73
366.26	9.69
366.623	9.64
366.987	9.58
367.35	9.6
367.714	9.57
368.077	9.54
368.44	9.46
368.803	9.41
369.167	9.48
369.53	9.51
369.893	9.5
370.256	9.48
370.619	9.43
370.982	9.38
371.345	9.26
371.708	9.26
372.071	9.21
372.434	9.19
372.797	9.26
373.159	9.15
373.522	9.21
373.885	9.2
374.247	9.17
374.61	9.15
374.973	9.09
375.335	9.11
375.698	9.08
376.06	9.06
376.423	9.06
376.785	9.02
377.147	8.94
377.51	8.88
377.872	8.78
378.234	8.79
378.596	8.75
378.958	8.8
379.321	8.78
379.683	8.76
380.045	8.67
380.407	8.66
380.769	8.64
381.13	8.53
381.492	8.48
381.854	8.52
382.216	8.46
382.578	8.41
382.939	8.34
383.301	8.25
383.663	8.19
384.024	8.15
384.386	8.06
384.747	8.06
385.109	8.05
385.47	8.08
385.832	8.03
386.193	8.02
386.554	7.89
386.916	7.87
387.277	7.85
387.638	7.82
387.999	7.76
388.36	7.72
388.721	7.75
389.082	7.72
389.443	7.65
389.804	7.63
390.165	7.6
390.526	7.52
390.887	7.48
391.248	7.46
391.609	7.41
391.969	7.4
392.33	7.37
392.691	7.34
393.051	7.28
393.412	7.2
393.772	7.17
394.133	7.17
394.493	7.12
394.854	7.1
395.214	7.09
395.574	7.04
395.935	6.99
396.295	6.93
396.655	6.91
397.015	6.87
397.376	6.82
397.736	6.78
398.096	6.75
398.456	6.76
398.816	6.76
399.176	6.7
399.535	6.68
399.895	6.6
400.255	6.56
400.615	6.53
400.975	6.54
401.334	6.51
401.694	6.46
402.054	6.45
402.413	6.4
402.773	6.34
403.132	6.32
403.492	6.3
403.851	6.29
404.211	6.25
404.57	6.25
404.929	6.2
405.288	6.19
405.648	6.16
406.007	6.11
406.366	6.06
406.725	6.04
407.084	6
407.443	6.02
407.802	5.96
408.161	5.93
408.52	5.89
408.879	5.89
409.238	5.92
409.596	5.88
409.955	5.87
410.314	5.84
410.673	5.82
411.031	5.81
411.39	5.8
411.748	5.8
412.107	5.79
412.465	5.76
412.824	5.73
413.182	5.75
413.54	5.75
413.899	5.72
414.257	5.73
414.615	5.7
414.974	5.69
415.332	5.69
415.69	5.69
416.048	5.69
416.406	5.65
416.764	5.63
417.122	5.59
417.48	5.56
417.838	5.54
418.195	5.52
418.553	5.5
418.911	5.47
419.269	5.45
419.626	5.43
419.984	5.43
420.342	5.41
420.699	5.4
421.057	5.36
421.414	5.36
421.772	5.35
422.129	5.34
422.486	5.32
422.844	5.3
423.201	5.28
423.558	5.26
423.915	5.25
424.273	5.22
424.63	5.22
424.987	5.21
425.344	5.21
425.701	5.2
426.058	5.2
426.415	5.2
426.772	5.18
427.128	5.15
427.485	5.13
427.842	5.11
428.199	5.1
428.555	5.09
428.912	5.07
429.269	5.04
429.625	5.03
429.982	4.99
430.338	4.99
430.695	4.97
431.051	4.95
431.407	4.96
431.764	4.94
432.12	4.95
432.476	4.95
432.832	4.93
433.189	4.9
433.545	4.9
433.901	4.9
434.257	4.87
434.613	4.86
434.969	4.85
435.325	4.86
435.681	4.85
436.036	4.85
436.392	4.85
436.748	4.85
437.104	4.87
437.459	4.88
437.815	4.88
438.171	4.89
438.526	4.89
438.882	4.89
439.237	4.87
439.593	4.85
439.948	4.84
440.304	4.84
440.659	4.85
441.014	4.85
441.369	4.86
441.725	4.87
442.08	4.89
442.435	4.91
442.79	4.9
443.145	4.9
443.5	4.89
443.855	4.88
444.21	4.88
444.565	4.88
444.92	4.88
445.275	4.86
445.629	4.86
445.984	4.85
446.339	4.83
446.693	4.85
447.048	4.84
447.403	4.84
447.757	4.82
448.112	4.78
448.466	4.76
448.82	4.73
449.175	4.72
449.529	4.71
449.883	4.69
450.238	4.68
450.592	4.68
450.946	4.66
451.3	4.67
451.654	4.65
452.008	4.62
452.362	4.62
452.716	4.61
453.07	4.61
453.424	4.6
453.778	4.61
454.132	4.58
454.486	4.57
454.839	4.58
455.193	4.59
455.547	4.6
455.9	4.61
456.254	4.62
456.607	4.62
456.961	4.6
457.314	4.61
457.668	4.61
458.021	4.6
458.375	4.59
458.728	4.59
459.081	4.58
459.434	4.58
459.787	4.58
460.141	4.6
460.494	4.6
460.847	4.61
461.2	4.6
461.553	4.62
461.906	4.62
462.259	4.63
462.611	4.65
462.964	4.66
463.317	4.67
463.67	4.68
464.022	4.72
464.375	4.76
464.728	4.78
465.08	4.78
465.433	4.8
465.785	4.84
466.138	4.87
466.49	4.89
466.843	4.92
467.195	4.94
467.547	4.94
467.899	4.95
468.252	5
468.604	5.03
468.956	5.06
469.308	5.11
469.66	5.12
470.012	5.15
470.364	5.19
470.716	5.22
471.068	5.25
471.42	5.25
471.772	5.25
472.123	5.26
472.475	5.3
472.827	5.31
473.178	5.33
473.53	5.33
473.882	5.36
474.233	5.36
474.585	5.36
474.936	5.36
475.288	5.39
475.639	5.37
475.99	5.37
476.342	5.38
476.693	5.38
477.044	5.39
477.395	5.36
477.746	5.32
478.097	5.31
478.448	5.28
478.8	5.27
479.15	5.27
479.501	5.25
479.852	5.24
480.203	5.25
480.554	5.26
480.905	5.27
481.255	5.26
481.606	5.27
481.957	5.27
482.307	5.26
482.658	5.24
483.009	5.24
483.359	5.24
483.709	5.23
484.06	5.23
484.41	5.22
484.761	5.23
485.111	5.23
485.461	5.23
485.811	5.23
486.162	5.23
486.512	5.22
486.862	5.22
487.212	5.22
487.562	5.22
487.912	5.2
488.262	5.2
488.612	5.2
488.961	5.18
489.311	5.18
489.661	5.18
490.011	5.18
490.36	5.18
490.71	5.17
491.06	5.17
491.409	5.17
491.759	5.19
492.108	5.18
492.458	5.2
492.807	5.21
493.157	5.22
493.506	5.23
493.855	5.24
494.204	5.26
494.554	5.28
494.903	5.29
495.252	5.33
495.601	5.36
495.95	5.39
496.299	5.43
496.648	5.45
496.997	5.5
497.346	5.56
497.695	5.61
498.043	5.67
498.392	5.71
498.741	5.75
499.09	5.79
499.438	5.85
499.787	5.91
500.135	5.96
500.484	6.02
500.832	6.09
501.181	6.19
501.529	6.27
501.878	6.33
502.226	6.41
502.574	6.48
502.923	6.55
503.271	6.66
503.619	6.74
503.967	6.85
504.315	6.98
504.663	7.07
505.011	7.16
505.359	7.24
505.707	7.36
506.055	7.49
506.403	7.63
506.751	7.77
507.098	7.89
507.446	8.03
507.794	8.15
508.141	8.29
508.489	8.41
508.837	8.53
509.184	8.69
509.531	8.83
509.879	8.94
510.226	9.11
510.574	9.24
510.921	9.4
511.268	9.55
511.616	9.67
511.963	9.85
512.31	10.03
512.657	10.21
513.004	10.38
513.351	10.55
513.698	10.72
514.045	10.89
514.392	11.09
514.739	11.31
515.086	11.53
515.432	11.72
515.779	11.9
516.126	12.11
516.473	12.3
516.819	12.48
517.166	12.67
517.512	12.84
517.859	13.02
518.205	13.2
518.552	13.36
518.898	13.52
519.245	13.66
519.591	13.82
519.937	14.01
520.283	14.2
520.629	14.38
520.976	14.56
521.322	14.76
521.668	14.95
522.014	15.14
522.36	15.32
522.706	15.56
523.052	15.81
523.398	16.07
523.743	16.33
524.089	16.57
524.435	16.83
524.781	17.07
525.126	17.26
525.472	17.46
525.817	17.66
526.163	17.83
526.509	18
526.854	18.15
527.199	18.28
527.545	18.42
527.89	18.55
528.235	18.7
528.581	18.88
528.926	19.03
529.271	19.18
529.616	19.33
529.961	19.49
530.306	19.65
530.651	19.79
530.996	19.96
531.341	20.14
531.686	20.29
532.031	20.45
532.376	20.65
532.721	20.84
533.065	21.03
533.41	21.23
533.755	21.44
534.099	21.65
534.444	21.87
534.788	22.07
535.133	22.28
535.477	22.49
535.822	22.69
536.166	22.89
536.51	23.12
536.855	23.37
537.199	23.62
537.543	23.86
537.887	24.16
538.231	24.42
538.576	24.71
538.92	24.98
539.264	25.26
539.608	25.49
539.951	25.72
540.295	25.94
540.639	26.17
540.983	26.34
541.327	26.55
541.671	26.77
542.014	26.96
542.358	27.15
542.701	27.32
543.045	27.49
543.389	27.71
543.732	27.92
544.075	28.11
544.419	28.3
544.762	28.52
545.105	28.74
545.449	28.95
545.792	29.15
546.135	29.41
546.478	29.66
546.821	29.94
547.165	30.19
547.508	30.43
547.851	30.72
548.194	31.03
548.536	31.28
548.879	31.54
549.222	31.82
549.565	32.11
549.908	32.38
550.25	32.65
550.593	32.91
550.936	33.15
551.278	33.41
551.621	33.66
551.963	33.92
552.306	34.15
552.648	34.38
552.991	34.64
553.333	34.85
553.675	35.08
554.017	35.27
554.36	35.48
554.702	35.66
555.044	35.81
555.386	36.02
555.728	36.22
556.07	36.42
556.412	36.64
556.754	36.83
557.096	37
557.438	37.25
557.78	37.48
558.121	37.72
558.463	37.93
558.805	38.13
559.147	38.34
559.488	38.5
559.83	38.7
560.171	38.88
560.513	39.03
560.854	39.18
561.196	39.4
561.537	39.59
561.878	39.83
562.22	40.03
562.561	40.2
562.902	40.41
563.243	40.53
563.584	40.65
563.925	40.79
564.266	40.94
564.607	41.07
564.948	41.16
565.289	41.35
565.63	41.51
565.971	41.68
566.312	41.78
566.653	41.96
566.993	42.06
567.334	42.24
567.675	42.4
568.015	42.54
568.356	42.64
568.696	42.82
569.037	42.96
569.377	43.05
569.718	43.18
570.058	43.29
570.398	43.41
570.739	43.58
571.079	43.69
571.419	43.86
571.759	44
572.099	44.12
572.439	44.21
572.779	44.29
573.119	44.36
573.459	44.47
573.799	44.57
574.139	44.69
574.479	44.74
574.819	44.86
575.158	44.98
575.498	45.06
575.838	45.1
576.177	45.14
576.517	45.25
576.856	45.28
577.196	45.33
577.535	45.44
577.875	45.54
578.214	45.67
578.553	45.72
578.893	45.79
579.232	45.9
579.571	46.02
579.91	46.14
580.25	46.24
580.589	46.41
580.928	46.48
581.267	46.55
581.606	46.61
581.945	46.68
582.283	46.72
582.622	46.78
582.961	46.87
583.3	46.97
583.639	47.11
583.977	47.25
584.316	47.4
584.654	47.5
584.993	47.52
585.332	47.61
585.67	47.72
586.008	47.82
586.347	47.9
586.685	47.87
587.024	47.95
587.362	48.01
587.7	48.11
588.038	48.2
588.376	48.3
588.715	48.42
589.053	48.49
589.391	48.62
589.729	48.74
590.067	48.74
590.404	48.78
590.742	48.82
591.08	48.91
591.418	49.03
591.756	49.11
592.093	49.12
592.431	49.21
592.769	49.29
593.106	49.34
593.444	49.4
593.781	49.48
594.119	49.49
594.456	49.52
594.793	49.43
595.131	49.5
595.468	49.51
595.805	49.52
596.143	49.53
596.48	49.58
596.817	49.55
597.154	49.67
597.491	49.79
597.828	49.88
598.165	49.87
598.502	49.78
598.839	49.85
599.176	49.96
599.512	49.99
599.849	50.01
600.186	50.08
600.523	50.1
600.859	50.14
601.196	50.26
601.532	50.32
601.869	50.42
602.205	50.41
602.542	50.45
602.878	50.48
603.215	50.59
603.551	50.52
603.887	50.6
604.223	50.6
604.56	50.57
604.896	50.58
605.232	50.6
605.568	50.67
605.904	50.64
606.24	50.72
606.576	50.78
606.912	50.78
607.248	50.8
607.583	50.83
607.919	50.93
608.255	50.91
608.591	50.96
608.926	51.05
609.262	51.08
609.597	51.05
609.933	51.16
610.268	51.17
610.604	51.2
610.939	51.27
611.275	51.3
611.61	51.36
611.945	51.32
612.281	51.45
612.616	51.56
612.951	51.6
613.286	51.6
613.621	51.62
613.956	51.75
614.291	51.75
614.626	51.8
614.961	51.76
615.296	51.82
615.631	51.92
615.966	51.9
616.3	51.96
616.635	52.11
616.97	52.19
617.304	52.24
617.639	52.38
617.973	52.34
618.308	52.41
618.642	52.34
618.977	52.53
619.311	52.49
619.646	52.48
619.98	52.56
620.314	52.69
620.648	52.66
620.983	52.64
621.317	52.66
621.651	52.69
621.985	52.76
622.319	52.82
622.653	52.8
622.987	52.82
623.321	52.95
623.655	52.97
623.988	52.89
624.322	52.92
624.656	52.89
624.99	52.9
625.323	52.87
625.657	52.96
625.99	52.94
626.324	53.01
626.657	52.95
626.991	52.97
627.324	52.88
627.658	52.95
627.991	52.97
628.324	53.01
628.657	53.05
628.991	53.04
629.324	53.02
629.657	53.03
629.99	53.05
630.323	53.06
630.656	53.12
630.989	53.09
631.322	53.1
631.655	53.19
631.987	53.3
632.32	53.38
632.653	53.36
632.986	53.24
633.318	53.24
633.651	53.33
633.984	53.34
634.316	53.39
634.649	53.35
634.981	53.4
635.313	53.42
635.646	53.32
635.978	53.34
636.31	53.34
636.643	53.31
636.975	53.34
637.307	53.24
637.639	53.17
637.971	53.21
638.303	53.2
638.635	53.06
638.967	53.05
639.299	53.03
639.631	53.07
639.963	53.15
640.295	53.1
640.626	53.09
640.958	53.04
641.29	53.07
641.621	53.14
641.953	53.03
642.285	53.1
642.616	53.33
642.948	53.4
643.279	53.43
643.61	53.42
643.942	53.43
644.273	53.46
644.604	53.52
644.936	53.43
645.267	53.39
645.598	53.49
645.929	53.36
646.26	53.37
646.591	53.41
646.922	53.43
647.253	53.44
647.584	53.46
647.915	53.53
648.245	53.56
648.576	53.53
648.907	53.59
649.238	53.54
649.568	53.44
649.899	53.38
650.229	53.39
650.56	53.6
650.89	53.61
651.221	53.66
651.551	53.69
651.882	53.87
652.212	54.04
652.542	54.01
652.872	54.11
653.203	54.14
653.533	54.18
653.863	54.15
654.193	54.19
654.523	54.24
654.853	54.22
655.183	54.21
655.513	54.14
655.843	54.13
656.172	54.23
656.502	54.24
656.832	54.24
657.162	54.35
657.491	54.36
657.821	54.37
658.15	54.33
658.48	54.34
658.809	54.28
659.139	54.06
659.468	54.1
659.798	54.1
660.127	54.15
660.456	54.12
660.785	54.19
661.115	54.21
661.444	54.14
661.773	54.16
662.102	54.15
662.431	54.19
662.76	54.28
663.089	54.29
663.418	54.24
663.747	54.29
664.076	54.2
664.404	54
664.733	54.05
665.062	54.08
665.39	54.05
665.719	53.98
666.048	54.15
666.376	54.11
666.705	54.15
667.033	54.13
