Data from MVZ_BU88648_Reflection_00015.txt Node
Date: Tue Nov 19 12:02:20 EST 2019
User: vgr7
Spectrometer: USB2G7710
Scans to average: 3
Trigger mode: 4
Integration Time (sec): 2.000000E-2
Electric dark correction enabled: true
Boxcar width: 10
XAxis mode: Wavelengths
Number of Pixels in Spectrum: 2048
>>>>>Begin Spectral Data<<<<<
177.721	-2400
178.105	-357.83
178.488	-121.95
178.871	-392.31
179.254	-161.54
179.636	-575.68
180.019	-81.44
180.402	50
180.785	27.91
181.168	23.08
181.55	144.64
181.933	51.92
182.316	-337.5
182.698	-179.22
183.081	-70.77
183.463	-123.47
183.846	-57.73
184.228	-46.21
184.611	-33.43
184.993	-15.96
185.376	25.45
185.758	24.08
186.14	30.38
186.522	-5.9
186.904	-11.32
187.287	-0.9
187.669	-39.13
188.051	-57.08
188.433	-78.8
188.815	-74.16
189.197	-93.32
189.579	-123.56
189.961	-109.92
190.342	-111.57
190.724	-120.78
191.106	-174.53
191.488	-89.41
191.869	-100.18
192.251	-73.14
192.633	-90.71
193.014	-122.84
193.396	-111.58
193.777	-150
194.159	-127.63
194.54	-104.59
194.922	-100.22
195.303	-81.55
195.684	-57.18
196.065	-99.41
196.447	-50.55
196.828	-69.42
197.209	-51.13
197.59	-27.77
197.971	-27.96
198.352	-2.75
198.733	-3.79
199.114	3.35
199.495	-25.51
199.876	-42.23
200.257	-97.45
200.638	-44.57
201.018	-42.86
201.399	-43.73
201.78	-19.52
202.16	-35.29
202.541	-59.83
202.922	-46.28
203.302	-49.48
203.683	-45
204.063	-24.12
204.444	-24.48
204.824	-26.27
205.204	-24.2
205.585	-9.52
205.965	-8.94
206.345	-20.81
206.725	-10.7
207.106	-8.6
207.486	3.98
207.866	6.98
208.246	15.56
208.626	12.19
209.006	19.87
209.386	19.16
209.766	7.76
210.145	11.33
210.525	7.01
210.905	-4.6
211.285	-6.28
211.664	-4.29
212.044	-10.96
212.424	-5.84
212.803	-6.42
213.183	-12.2
213.562	-17.7
213.942	-20.24
214.321	-30.46
214.701	-42.72
215.08	-52.66
215.459	-51.44
215.838	-60.21
216.218	-74.22
216.597	-67.72
216.976	-69.99
217.355	-65.8
217.734	-66.78
218.113	-52
218.492	-40.77
218.871	-38.71
219.25	-39.69
219.629	-61.5
220.008	-65.94
220.387	-88.6
220.766	-87.78
221.144	-64.77
221.523	-74.93
221.902	-77.69
222.28	-44.24
222.659	-18.13
223.037	-5.97
223.416	-2.26
223.794	3.32
224.173	12.37
224.551	21.49
224.929	6.23
225.308	5.17
225.686	2.54
226.064	-2.27
226.442	-4.04
226.821	-4.9
227.199	-3.14
227.577	4.21
227.955	6.69
228.333	7.35
228.711	12.11
229.089	8.3
229.467	9.08
229.845	8.83
230.222	7.51
230.6	6.66
230.978	7.76
231.356	4.91
231.733	6.19
232.111	4.64
232.488	3.79
232.866	5.26
233.243	4.01
233.621	4.86
233.998	3.45
234.376	3.72
234.753	4.03
235.13	1.8
235.508	0.23
235.885	0.11
236.262	-1.19
236.639	-1.32
237.016	-1.67
237.393	-0.71
237.77	-0.14
238.147	0.45
238.524	1.24
238.901	0.34
239.278	0.43
239.655	0.56
240.032	1.18
240.409	1.23
240.785	1.22
241.162	2.23
241.539	2.93
241.915	3.4
242.292	3.09
242.668	3.38
243.045	4.04
243.421	4.31
243.798	4.08
244.174	4.22
244.551	4.57
244.927	5.03
245.303	4.48
245.679	4.68
246.056	4.5
246.432	4.36
246.808	4.49
247.184	4.74
247.56	4.58
247.936	4.48
248.312	4.34
248.688	4.38
249.064	4.09
249.44	3.74
249.815	3.95
250.191	4.12
250.567	4.24
250.943	4.27
251.318	4.2
251.694	3.92
252.069	3.94
252.445	3.49
252.82	3.31
253.196	3.72
253.571	3.54
253.947	3.49
254.322	3.09
254.697	3.3
255.073	3.3
255.448	3.48
255.823	3.47
256.198	3.22
256.573	3.38
256.948	3.43
257.323	3.56
257.698	3.49
258.073	3.61
258.448	3.42
258.823	3.39
259.198	3.42
259.573	3.46
259.948	3.58
260.322	3.57
260.697	3.67
261.072	3.57
261.446	3.58
261.821	3.54
262.195	3.65
262.57	3.62
262.944	3.58
263.319	3.48
263.693	3.55
264.067	3.72
264.442	3.52
264.816	3.63
265.19	3.65
265.564	3.59
265.938	3.37
266.313	3.46
266.687	3.61
267.061	3.68
267.435	3.85
267.809	3.46
268.183	3.48
268.556	3.31
268.93	3.31
269.304	3.21
269.678	3.24
270.051	3.29
270.425	3.24
270.799	2.94
271.172	3.03
271.546	3.03
271.919	2.98
272.293	3.08
272.666	3.05
273.04	2.99
273.413	2.99
273.787	3.05
274.16	2.92
274.533	2.79
274.906	2.58
275.279	2.7
275.653	2.84
276.026	2.8
276.399	2.77
276.772	2.79
277.145	2.75
277.518	2.79
277.891	2.63
278.263	2.76
278.636	3.09
279.009	3.04
279.382	2.83
279.755	2.8
280.127	2.85
280.5	2.78
280.872	2.79
281.245	2.67
281.617	2.6
281.99	2.64
282.362	2.66
282.735	2.76
283.107	2.53
283.479	2.66
283.852	2.63
284.224	2.66
284.596	2.59
284.968	2.51
285.34	2.63
285.713	2.87
286.085	2.73
286.457	2.66
286.829	2.68
287.201	2.8
287.572	2.96
287.944	2.91
288.316	2.89
288.688	3.06
289.06	2.95
289.431	3.08
289.803	3.06
290.175	2.9
290.546	2.94
290.918	2.89
291.289	2.73
291.661	2.88
292.032	2.8
292.403	2.76
292.775	3.04
293.146	2.87
293.517	2.62
293.889	2.62
294.26	2.77
294.631	2.95
295.002	2.86
295.373	2.57
295.744	2.66
296.115	2.73
296.486	2.7
296.857	2.87
297.228	2.79
297.599	2.69
297.97	2.77
298.34	2.84
298.711	3.04
299.082	3.22
299.452	3.17
299.823	3.33
300.194	3.51
300.564	3.5
300.935	3.64
301.305	3.66
301.676	3.59
302.046	3.43
302.416	3.31
302.787	3.37
303.157	3.43
303.527	3.49
303.897	3.34
304.267	3.32
304.637	3.33
305.008	3.4
305.378	3.59
305.748	3.53
306.117	3.38
306.487	3.46
306.857	3.43
307.227	3.55
307.597	3.54
307.967	3.43
308.336	3.35
308.706	3.31
309.076	3.54
309.445	3.81
309.815	3.94
310.184	3.88
310.554	3.81
310.923	3.99
311.293	3.94
311.662	4.01
312.031	4.04
312.401	4.05
312.77	4.11
313.139	3.99
313.508	4.11
313.877	4.18
314.246	4.12
314.616	4.06
314.985	3.94
315.353	3.91
315.722	3.95
316.091	4.01
316.46	4.01
316.829	3.96
317.198	3.86
317.567	3.91
317.935	4.11
318.304	4.46
318.672	4.53
319.041	4.72
319.41	4.61
319.778	4.61
320.147	4.35
320.515	4.25
320.883	4.41
321.252	4.5
321.62	4.64
321.988	4.58
322.357	4.69
322.725	4.79
323.093	4.88
323.461	4.97
323.829	4.97
324.197	4.97
324.565	4.96
324.933	4.85
325.301	4.68
325.669	4.58
326.037	4.33
326.405	4.32
326.772	4.27
327.14	4.3
327.508	4.11
327.875	4.31
328.243	4.27
328.61	4.28
328.978	4.19
329.346	4.18
329.713	4.27
330.08	4.39
330.448	4.31
330.815	4.26
331.182	4.2
331.55	4.1
331.917	4.04
332.284	4.09
332.651	4.18
333.018	4.26
333.385	4.11
333.752	4.28
334.119	4.22
334.486	4.13
334.853	4.27
335.22	4.35
335.587	4.4
335.954	4.55
336.32	4.6
336.687	4.6
337.054	4.54
337.42	4.47
337.787	4.24
338.153	4.28
338.52	4.25
338.886	4.27
339.253	4.31
339.619	4.37
339.986	4.37
340.352	4.38
340.718	4.46
341.084	4.62
341.451	4.74
341.817	4.73
342.183	4.66
342.549	4.67
342.915	4.69
343.281	4.75
343.647	4.78
344.013	4.83
344.379	4.97
344.745	5.02
345.11	4.95
345.476	5.12
345.842	5.15
346.208	5.22
346.573	5.33
346.939	5.42
347.304	5.4
347.67	5.35
348.035	5.25
348.401	5.23
348.766	5.19
349.132	5.16
349.497	5.16
349.862	5.12
350.228	5.19
350.593	5.24
350.958	5.19
351.323	5.13
351.688	5.04
352.053	4.98
352.418	4.96
352.783	4.98
353.148	4.97
353.513	4.96
353.878	4.95
354.243	4.8
354.608	4.76
354.972	4.77
355.337	4.76
355.702	4.77
356.066	4.8
356.431	4.77
356.795	4.7
357.16	4.75
357.524	4.97
357.889	4.92
358.253	4.86
358.618	4.83
358.982	4.79
359.346	4.8
359.71	4.73
360.075	4.73
360.439	4.78
360.803	4.78
361.167	4.77
361.531	4.76
361.895	4.77
362.259	4.8
362.623	4.83
362.987	4.82
363.351	4.82
363.714	4.8
364.078	4.82
364.442	4.84
364.806	4.79
365.169	4.71
365.533	4.69
365.896	4.75
366.26	4.72
366.623	4.7
366.987	4.68
367.35	4.7
367.714	4.67
368.077	4.7
368.44	4.71
368.803	4.7
369.167	4.66
369.53	4.72
369.893	4.71
370.256	4.7
370.619	4.66
370.982	4.62
371.345	4.59
371.708	4.63
372.071	4.6
372.434	4.57
372.797	4.53
373.159	4.47
373.522	4.42
373.885	4.45
374.247	4.48
374.61	4.48
374.973	4.52
375.335	4.53
375.698	4.44
376.06	4.35
376.423	4.35
376.785	4.35
377.147	4.27
377.51	4.21
377.872	4.15
378.234	4.17
378.596	4.2
378.958	4.21
379.321	4.13
379.683	4.13
380.045	4.1
380.407	4.08
380.769	4.12
381.13	4.06
381.492	4.03
381.854	4.02
382.216	4.04
382.578	4.02
382.939	4.03
383.301	4.04
383.663	4.06
384.024	4.04
384.386	4.07
384.747	4.11
385.109	4.14
385.47	4.14
385.832	4.15
386.193	4.18
386.554	4.07
386.916	4.07
387.277	4.04
387.638	4.07
387.999	4.05
388.36	4.05
388.721	4.05
389.082	4.02
389.443	4
389.804	3.98
390.165	3.96
390.526	3.94
390.887	3.92
391.248	3.9
391.609	3.94
391.969	3.88
392.33	3.86
392.691	3.81
393.051	3.79
393.412	3.77
393.772	3.72
394.133	3.73
394.493	3.69
394.854	3.66
395.214	3.66
395.574	3.61
395.935	3.58
396.295	3.61
396.655	3.64
397.015	3.65
397.376	3.6
397.736	3.59
398.096	3.59
398.456	3.55
398.816	3.55
399.176	3.46
399.535	3.45
399.895	3.42
400.255	3.45
400.615	3.46
400.975	3.47
401.334	3.45
401.694	3.47
402.054	3.45
402.413	3.46
402.773	3.46
403.132	3.48
403.492	3.51
403.851	3.47
404.211	3.45
404.57	3.45
404.929	3.45
405.288	3.45
405.648	3.41
406.007	3.44
406.366	3.43
406.725	3.46
407.084	3.46
407.443	3.45
407.802	3.4
408.161	3.39
408.52	3.39
408.879	3.41
409.238	3.42
409.596	3.47
409.955	3.44
410.314	3.42
410.673	3.43
411.031	3.37
411.39	3.35
411.748	3.34
412.107	3.34
412.465	3.35
412.824	3.34
413.182	3.35
413.54	3.34
413.899	3.35
414.257	3.34
414.615	3.33
414.974	3.37
415.332	3.38
415.69	3.38
416.048	3.36
416.406	3.35
416.764	3.38
417.122	3.38
417.48	3.4
417.838	3.41
418.195	3.4
418.553	3.39
418.911	3.43
419.269	3.43
419.626	3.4
419.984	3.4
420.342	3.41
420.699	3.4
421.057	3.41
421.414	3.4
421.772	3.4
422.129	3.39
422.486	3.37
422.844	3.36
423.201	3.37
423.558	3.36
423.915	3.37
424.273	3.34
424.63	3.35
424.987	3.35
425.344	3.36
425.701	3.35
426.058	3.38
426.415	3.35
426.772	3.35
427.128	3.37
427.485	3.35
427.842	3.34
428.199	3.34
428.555	3.33
428.912	3.33
429.269	3.32
429.625	3.34
429.982	3.38
430.338	3.4
430.695	3.38
431.051	3.4
431.407	3.4
431.764	3.4
432.12	3.38
432.476	3.41
432.832	3.41
433.189	3.43
433.545	3.41
433.901	3.43
434.257	3.42
434.613	3.39
434.969	3.42
435.325	3.43
435.681	3.42
436.036	3.42
436.392	3.43
436.748	3.45
437.104	3.45
437.459	3.43
437.815	3.41
438.171	3.42
438.526	3.42
438.882	3.41
439.237	3.41
439.593	3.43
439.948	3.4
440.304	3.39
440.659	3.39
441.014	3.39
441.369	3.4
441.725	3.42
442.08	3.42
442.435	3.42
442.79	3.41
443.145	3.42
443.5	3.41
443.855	3.41
444.21	3.4
444.565	3.41
444.92	3.42
445.275	3.42
445.629	3.41
445.984	3.41
446.339	3.41
446.693	3.41
447.048	3.38
447.403	3.39
447.757	3.39
448.112	3.39
448.466	3.39
448.82	3.38
449.175	3.37
449.529	3.38
449.883	3.35
450.238	3.36
450.592	3.38
450.946	3.38
451.3	3.39
451.654	3.37
452.008	3.36
452.362	3.35
452.716	3.34
453.07	3.36
453.424	3.36
453.778	3.36
454.132	3.35
454.486	3.38
454.839	3.37
455.193	3.37
455.547	3.37
455.9	3.37
456.254	3.37
456.607	3.37
456.961	3.37
457.314	3.39
457.668	3.38
458.021	3.35
458.375	3.35
458.728	3.36
459.081	3.38
459.434	3.38
459.787	3.39
460.141	3.41
460.494	3.42
460.847	3.42
461.2	3.44
461.553	3.45
461.906	3.44
462.259	3.43
462.611	3.41
462.964	3.41
463.317	3.41
463.67	3.41
464.022	3.42
464.375	3.41
464.728	3.42
465.08	3.41
465.433	3.42
465.785	3.42
466.138	3.41
466.49	3.41
466.843	3.41
467.195	3.42
467.547	3.4
467.899	3.4
468.252	3.4
468.604	3.38
468.956	3.38
469.308	3.39
469.66	3.44
470.012	3.44
470.364	3.46
470.716	3.47
471.068	3.49
471.42	3.47
471.772	3.49
472.123	3.49
472.475	3.53
472.827	3.55
473.178	3.58
473.53	3.59
473.882	3.6
474.233	3.59
474.585	3.58
474.936	3.6
475.288	3.6
475.639	3.6
475.99	3.59
476.342	3.6
476.693	3.61
477.044	3.58
477.395	3.59
477.746	3.57
478.097	3.56
478.448	3.54
478.8	3.53
479.15	3.5
479.501	3.49
479.852	3.47
480.203	3.48
480.554	3.48
480.905	3.46
481.255	3.47
481.606	3.47
481.957	3.46
482.307	3.45
482.658	3.45
483.009	3.46
483.359	3.46
483.709	3.47
484.06	3.46
484.41	3.46
484.761	3.46
485.111	3.47
485.461	3.49
485.811	3.49
486.162	3.5
486.512	3.52
486.862	3.53
487.212	3.52
487.562	3.52
487.912	3.52
488.262	3.53
488.612	3.53
488.961	3.53
489.311	3.53
489.661	3.53
490.011	3.54
490.36	3.53
490.71	3.53
491.06	3.53
491.409	3.53
491.759	3.53
492.108	3.53
492.458	3.52
492.807	3.5
493.157	3.5
493.506	3.51
493.855	3.5
494.204	3.51
494.554	3.51
494.903	3.52
495.252	3.54
495.601	3.54
495.95	3.55
496.299	3.57
496.648	3.59
496.997	3.62
497.346	3.63
497.695	3.68
498.043	3.71
498.392	3.72
498.741	3.75
499.09	3.76
499.438	3.78
499.787	3.8
500.135	3.84
500.484	3.86
500.832	3.87
501.181	3.87
501.529	3.9
501.878	3.92
502.226	3.93
502.574	3.94
502.923	3.94
503.271	3.96
503.619	3.98
503.967	4.01
504.315	4.03
504.663	4.04
505.011	4.04
505.359	4.03
505.707	4.07
506.055	4.09
506.403	4.11
506.751	4.11
507.098	4.15
507.446	4.17
507.794	4.22
508.141	4.24
508.489	4.28
508.837	4.3
509.184	4.35
509.531	4.39
509.879	4.4
510.226	4.43
510.574	4.46
510.921	4.49
511.268	4.52
511.616	4.55
511.963	4.59
512.31	4.63
512.657	4.67
513.004	4.69
513.351	4.73
513.698	4.78
514.045	4.84
514.392	4.89
514.739	4.96
515.086	5.01
515.432	5.06
515.779	5.11
516.126	5.19
516.473	5.21
516.819	5.28
517.166	5.35
517.512	5.41
517.859	5.45
518.205	5.49
518.552	5.53
518.898	5.58
519.245	5.63
519.591	5.68
519.937	5.73
520.283	5.8
520.629	5.86
520.976	5.94
521.322	6.02
521.668	6.08
522.014	6.14
522.36	6.21
522.706	6.27
523.052	6.34
523.398	6.4
523.743	6.49
524.089	6.56
524.435	6.63
524.781	6.73
525.126	6.81
525.472	6.9
525.817	6.97
526.163	7.04
526.509	7.09
526.854	7.15
527.199	7.21
527.545	7.26
527.89	7.32
528.235	7.37
528.581	7.42
528.926	7.47
529.271	7.53
529.616	7.6
529.961	7.65
530.306	7.7
530.651	7.77
530.996	7.84
531.341	7.91
531.686	7.98
532.031	8.05
532.376	8.13
532.721	8.19
533.065	8.26
533.41	8.35
533.755	8.44
534.099	8.53
534.444	8.61
534.788	8.7
535.133	8.79
535.477	8.88
535.822	8.97
536.166	9.08
536.51	9.17
536.855	9.29
537.199	9.42
537.543	9.57
537.887	9.7
538.231	9.85
538.576	10
538.92	10.13
539.264	10.25
539.608	10.38
539.951	10.52
540.295	10.66
540.639	10.78
540.983	10.9
541.327	11.03
541.671	11.16
542.014	11.27
542.358	11.39
542.701	11.5
543.045	11.62
543.389	11.75
543.732	11.87
544.075	12
544.419	12.12
544.762	12.24
545.105	12.39
545.449	12.53
545.792	12.7
546.135	12.89
546.478	13.07
546.821	13.22
547.165	13.41
547.508	13.58
547.851	13.75
548.194	13.95
548.536	14.14
548.879	14.33
549.222	14.55
549.565	14.78
549.908	15.01
550.25	15.22
550.593	15.43
550.936	15.67
551.278	15.9
551.621	16.13
551.963	16.39
552.306	16.64
552.648	16.86
552.991	17.09
553.333	17.33
553.675	17.56
554.017	17.81
554.36	18.02
554.702	18.27
555.044	18.55
555.386	18.76
555.728	19.03
556.07	19.31
556.412	19.6
556.754	19.85
557.096	20.12
557.438	20.39
557.78	20.63
558.121	20.9
558.463	21.15
558.805	21.45
559.147	21.71
559.488	21.95
559.83	22.2
560.171	22.42
560.513	22.64
560.854	22.9
561.196	23.18
561.537	23.43
561.878	23.74
562.22	24
562.561	24.23
562.902	24.44
563.243	24.69
563.584	24.85
563.925	25.07
564.266	25.28
564.607	25.54
564.948	25.79
565.289	26.05
565.63	26.28
565.971	26.5
566.312	26.73
566.653	26.93
566.993	27.17
567.334	27.44
567.675	27.66
568.015	27.85
568.356	28.09
568.696	28.33
569.037	28.51
569.377	28.73
569.718	28.94
570.058	29.18
570.398	29.39
570.739	29.6
571.079	29.77
571.419	30.02
571.759	30.2
572.099	30.42
572.439	30.54
572.779	30.78
573.119	30.96
573.459	31.1
573.799	31.28
574.139	31.44
574.479	31.6
574.819	31.76
575.158	31.95
575.498	32.15
575.838	32.31
576.177	32.45
576.517	32.62
576.856	32.84
577.196	33.02
577.535	33.18
577.875	33.43
578.214	33.62
578.553	33.78
578.893	33.97
579.232	34.14
579.571	34.4
579.91	34.5
580.25	34.65
580.589	34.86
580.928	35.06
581.267	35.29
581.606	35.54
581.945	35.68
582.283	35.84
582.622	35.92
582.961	36.09
583.3	36.36
583.639	36.48
583.977	36.55
584.316	36.69
584.654	36.81
584.993	36.95
585.332	37.14
585.67	37.29
586.008	37.5
586.347	37.67
586.685	37.79
587.024	37.94
587.362	38.15
587.7	38.34
588.038	38.53
588.376	38.65
588.715	38.69
589.053	38.87
589.391	39.01
589.729	39.18
590.067	39.3
590.404	39.33
590.742	39.45
591.08	39.63
591.418	39.72
591.756	39.86
592.093	39.94
592.431	40.06
592.769	40.12
593.106	40.23
593.444	40.28
593.781	40.41
594.119	40.51
594.456	40.6
594.793	40.67
595.131	40.78
595.468	40.85
595.805	41
596.143	41.07
596.48	41.18
596.817	41.23
597.154	41.34
597.491	41.49
597.828	41.61
598.165	41.68
598.502	41.81
598.839	41.9
599.176	41.97
599.512	42.01
599.849	42.14
600.186	42.26
600.523	42.38
600.859	42.47
601.196	42.59
601.532	42.67
601.869	42.76
602.205	42.76
602.542	42.86
602.878	42.95
603.215	43.04
603.551	43.14
603.887	43.2
604.223	43.26
604.56	43.31
604.896	43.39
605.232	43.44
605.568	43.48
605.904	43.56
606.24	43.64
606.576	43.76
606.912	43.88
607.248	43.91
607.583	44.01
607.919	44.06
608.255	44.12
608.591	44.19
608.926	44.26
609.262	44.38
609.597	44.44
609.933	44.43
610.268	44.49
610.604	44.56
610.939	44.65
611.275	44.71
611.61	44.8
611.945	44.81
612.281	44.94
612.616	45.07
612.951	45.14
613.286	45.25
613.621	45.3
613.956	45.33
614.291	45.45
614.626	45.45
614.961	45.58
615.296	45.62
615.631	45.66
615.966	45.73
616.3	45.79
616.635	45.84
616.97	45.93
617.304	45.95
617.639	45.91
617.973	45.94
618.308	45.9
618.642	45.91
618.977	46.02
619.311	46
619.646	46.11
619.98	46.25
620.314	46.26
620.648	46.3
620.983	46.3
621.317	46.39
621.651	46.45
621.985	46.44
622.319	46.59
622.653	46.74
622.987	46.81
623.321	46.86
623.655	46.89
623.988	46.94
624.322	46.95
624.656	47.07
624.99	47.13
625.323	47.21
625.657	47.28
625.99	47.23
626.324	47.36
626.657	47.29
626.991	47.23
627.324	47.28
627.658	47.28
627.991	47.34
628.324	47.25
628.657	47.3
628.991	47.36
629.324	47.27
629.657	47.17
629.99	47.19
630.323	47.23
630.656	47.31
630.989	47.33
631.322	47.44
631.655	47.45
631.987	47.46
632.32	47.54
632.653	47.45
632.986	47.57
633.318	47.54
633.651	47.6
633.984	47.64
634.316	47.55
634.649	47.6
634.981	47.74
635.313	47.83
635.646	47.89
635.978	47.92
636.31	48.05
636.643	48.09
636.975	48.16
637.307	48.09
637.639	48.07
637.971	48.08
638.303	48.09
638.635	48.07
638.967	48.16
639.299	48.17
639.631	48.26
639.963	48.25
640.295	48.3
640.626	48.29
640.958	48.29
641.29	48.52
641.621	48.55
641.953	48.5
642.285	48.48
642.616	48.51
642.948	48.5
643.279	48.48
643.61	48.62
643.942	48.52
644.273	48.61
644.604	48.64
644.936	48.64
645.267	48.58
645.598	48.54
645.929	48.56
646.26	48.59
646.591	48.7
646.922	48.7
647.253	48.68
647.584	48.76
647.915	48.85
648.245	48.88
648.576	48.92
648.907	48.91
649.238	49.05
649.568	49.01
649.899	49.08
650.229	49.12
650.56	49.1
650.89	49.21
651.221	49.18
651.551	49.27
651.882	49.34
652.212	49.47
652.542	49.63
652.872	49.69
653.203	49.67
653.533	49.61
653.863	49.69
654.193	49.75
654.523	49.75
654.853	49.84
655.183	49.83
655.513	49.99
655.843	50.04
656.172	50.02
656.502	50.09
656.832	50.13
657.162	50.24
657.491	50.34
657.821	50.29
658.15	50.34
658.48	50.37
658.809	50.32
659.139	50.27
659.468	50.26
659.798	50.32
660.127	50.42
660.456	50.45
660.785	50.45
661.115	50.47
661.444	50.51
661.773	50.46
662.102	50.46
662.431	50.41
662.76	50.4
663.089	50.44
663.418	50.42
663.747	50.46
664.076	50.28
664.404	50.22
664.733	50.37
665.062	50.4
665.39	50.44
665.719	50.54
666.048	50.55
666.376	50.55
666.705	50.41
667.033	50.33
667.362	50.3
667.69	50.35
668.018	50.29
668.347	50.3
668.675	50.27
669.003	50.41
