Data from MVZ_BU8943_Reflection_00014.txt Node
Date: Tue Nov 19 12:09:27 EST 2019
User: vgr7
Spectrometer: USB2G7710
Scans to average: 3
Trigger mode: 4
Integration Time (sec): 2.000000E-2
Electric dark correction enabled: true
Boxcar width: 10
XAxis mode: Wavelengths
Number of Pixels in Spectrum: 2048
>>>>>Begin Spectral Data<<<<<
177.721	188.33
178.105	302.13
178.488	-71.45
178.871	-71.23
179.254	-294.12
179.636	-204.73
180.019	-93.88
180.402	230
180.785	-10.39
181.168	117.77
181.55	105.4
181.933	130.34
182.316	76.43
182.698	23600
183.081	-146.99
183.463	299.25
183.846	235.76
184.228	283.54
184.611	-201.56
184.993	-30.46
185.376	-4.49
185.758	-25.44
186.14	-30.46
186.522	-63.82
186.904	-33.16
187.287	-13.98
187.669	-5.11
188.051	-8.6
188.433	-20.14
188.815	-28.01
189.197	-27.9
189.579	-21.95
189.961	-29.91
190.342	-27.69
190.724	-40.88
191.106	-48.81
191.488	-50.75
191.869	-49.78
192.251	-78.65
192.633	-67.21
193.014	-103.63
193.396	-135.81
193.777	-112.33
194.159	-129.97
194.54	-77.49
194.922	-118.87
195.303	-162.59
195.684	-1276.11
196.065	-925.55
196.447	122600
196.828	1314.29
197.209	-6400
197.59	214.96
197.971	139.51
198.352	154.41
198.733	459.3
199.114	660.15
199.495	-417.34
199.876	-364.07
200.257	-107.32
200.638	-112.53
201.018	-7.9
201.399	-11.63
201.78	-11.69
202.16	17.72
202.541	-61.09
202.922	-450.42
203.302	-356.2
203.683	-156.76
204.063	-97.09
204.444	-95.35
204.824	-48.28
205.204	-28.37
205.585	-43.38
205.965	-63.55
206.345	-54.78
206.725	-42.95
207.106	-18.05
207.486	-29.3
207.866	-63.13
208.246	-40.3
208.626	-92.53
209.006	-177.26
209.386	-257.86
209.766	-254.95
210.145	-180.49
210.525	-382.09
210.905	-425.75
211.285	-429.56
211.664	-126.21
212.044	-518.81
212.424	-601.34
212.803	331.45
213.183	531.03
213.562	468.97
213.942	1326.03
214.321	-533
214.701	2181.4
215.08	2309.68
215.459	-489.11
215.838	285.04
216.218	66.25
216.597	72.28
216.976	227.35
217.355	1173.77
217.734	-1315.25
218.113	647.34
218.492	-7763.64
218.871	-351.35
219.25	-278.17
219.629	-878.99
220.008	-123.37
220.387	-40.76
220.766	-33.53
221.144	-37.2
221.523	-57.33
221.902	-34.86
222.28	-13.56
222.659	-1.78
223.037	-14.73
223.416	-21.84
223.794	-18.4
224.173	-12.54
224.551	-5.1
224.929	0.55
225.308	-0.66
225.686	-0.89
226.064	2.18
226.442	-1.48
226.821	-3.99
227.199	-10.82
227.577	-1.41
227.955	-5.41
228.333	-7.21
228.711	-8.89
229.089	-9.42
229.467	-8.82
229.845	-8.33
230.222	-6.08
230.6	-5.36
230.978	-2.84
231.356	-0.14
231.733	1.74
232.111	1.5
232.488	1.01
232.866	4.46
233.243	7.21
233.621	10.07
233.998	10.53
234.376	12.82
234.753	13.69
235.13	15.44
235.508	15.03
235.885	15.07
236.262	15.21
236.639	15.78
237.016	14.1
237.393	14.08
237.77	13.39
238.147	11.58
238.524	10.96
238.901	9.08
239.278	7.69
239.655	7.21
240.032	6.33
240.409	6.13
240.785	5.34
241.162	4.74
241.539	4.38
241.915	4.13
242.292	4.37
242.668	4.16
243.045	4.48
243.421	4.31
243.798	3.97
244.174	3.99
244.551	4.06
244.927	4.34
245.303	4.17
245.679	4.2
246.056	4.15
246.432	4.09
246.808	4.19
247.184	4.58
247.56	4.32
247.936	4.51
248.312	4.44
248.688	4.29
249.064	4.03
249.44	3.82
249.815	3.83
250.191	3.67
250.567	3.83
250.943	3.79
251.318	3.66
251.694	4.02
252.069	3.82
252.445	3.77
252.82	3.88
253.196	4.33
253.571	4.53
253.947	4.74
254.322	4.84
254.697	4.97
255.073	4.4
255.448	4.78
255.823	4.82
256.198	4.69
256.573	5
256.948	5.34
257.323	5.52
257.698	5.46
258.073	5.25
258.448	5.03
258.823	4.77
259.198	4.75
259.573	4.44
259.948	4.41
260.322	4.39
260.697	4.29
261.072	3.85
261.446	3.78
261.821	3.76
262.195	3.72
262.57	3.68
262.944	3.6
263.319	3.6
263.693	3.36
264.067	3.37
264.442	3.07
264.816	2.98
265.19	2.88
265.564	2.79
265.938	2.91
266.313	3.04
266.687	3.12
267.061	3.15
267.435	3.4
267.809	3.3
268.183	3.31
268.556	3.28
268.93	3.63
269.304	3.63
269.678	3.82
270.051	3.89
270.425	3.98
270.799	4.04
271.172	3.93
271.546	4.26
271.919	4.31
272.293	4.37
272.666	4.35
273.04	4.19
273.413	4.11
273.787	3.94
274.16	3.79
274.533	3.82
274.906	3.67
275.279	3.55
275.653	3.77
276.026	3.81
276.399	3.77
276.772	3.66
277.145	3.54
277.518	3.34
277.891	3.31
278.263	3.21
278.636	3.46
279.009	3.4
279.382	3.23
279.755	3.14
280.127	3.14
280.5	3.05
280.872	3.12
281.245	3.29
281.617	3.54
281.99	3.46
282.362	3.46
282.735	3.43
283.107	3.35
283.479	3.27
283.852	3.34
284.224	3.55
284.596	3.51
284.968	3.72
285.34	3.65
285.713	3.67
286.085	3.58
286.457	3.52
286.829	3.45
287.201	3.54
287.572	3.46
287.944	3.56
288.316	3.72
288.688	3.88
289.06	3.94
289.431	3.84
289.803	4.14
290.175	4.07
290.546	4.2
290.918	4.22
291.289	4.11
291.661	4.07
292.032	3.93
292.403	4.06
292.775	4.06
293.146	4.14
293.517	4.07
293.889	4.24
294.26	4.24
294.631	4.48
295.002	4.46
295.373	4.56
295.744	4.53
296.115	4.58
296.486	4.6
296.857	4.65
297.228	4.77
297.599	4.54
297.97	4.64
298.34	4.75
298.711	4.92
299.082	5.08
299.452	5.11
299.823	5.14
300.194	5.22
300.564	5.17
300.935	5.29
301.305	5.51
301.676	5.44
302.046	5.47
302.416	5.34
302.787	5.22
303.157	5.39
303.527	5.57
303.897	5.46
304.267	5.44
304.637	5.4
305.008	5.46
305.378	5.57
305.748	5.55
306.117	5.71
306.487	5.72
306.857	5.91
307.227	6.12
307.597	6.15
307.967	6.07
308.336	6.17
308.706	6.24
309.076	6.17
309.445	6.36
309.815	6.48
310.184	6.65
310.554	7.01
310.923	6.85
311.293	6.85
311.662	7.06
312.031	7.1
312.401	7.25
312.77	7.28
313.139	7.47
313.508	7.63
313.877	7.43
314.246	7.38
314.616	7.35
314.985	7.23
315.353	7.33
315.722	7.62
316.091	7.68
316.46	7.44
316.829	7.54
317.198	7.48
317.567	7.4
317.935	7.52
318.304	7.5
318.672	7.65
319.041	7.73
319.41	7.75
319.778	7.84
320.147	7.68
320.515	7.76
320.883	7.66
321.252	7.66
321.62	7.76
321.988	7.82
322.357	7.84
322.725	7.81
323.093	7.98
323.461	7.98
323.829	8
324.197	8.22
324.565	8.2
324.933	8.15
325.301	8.04
325.669	7.92
326.037	7.88
326.405	8
326.772	7.86
327.14	7.79
327.508	7.82
327.875	7.93
328.243	7.87
328.61	7.9
328.978	7.93
329.346	8.04
329.713	8.04
330.08	8.21
330.448	8.26
330.815	8.14
331.182	7.96
331.55	7.96
331.917	8.08
332.284	8.21
332.651	8.43
333.018	8.59
333.385	8.56
333.752	8.68
334.119	8.77
334.486	8.88
334.853	8.81
335.22	8.82
335.587	8.87
335.954	8.77
336.32	8.86
336.687	8.94
337.054	8.99
337.42	9.11
337.787	9.05
338.153	9.18
338.52	9.4
338.886	9.52
339.253	9.49
339.619	9.59
339.986	9.54
340.352	9.53
340.718	9.59
341.084	9.77
341.451	9.74
341.817	9.77
342.183	9.79
342.549	9.93
342.915	9.91
343.281	9.79
343.647	9.93
344.013	9.87
344.379	9.85
344.745	9.85
345.11	9.86
345.476	9.98
345.842	9.87
346.208	9.83
346.573	9.83
346.939	9.92
347.304	9.97
347.67	9.99
348.035	9.96
348.401	10.07
348.766	10.08
349.132	10.07
349.497	10.03
349.862	10.22
350.228	10.18
350.593	10.16
350.958	10.24
351.323	10.3
351.688	10.35
352.053	10.41
352.418	10.38
352.783	10.4
353.148	10.35
353.513	10.44
353.878	10.39
354.243	10.33
354.608	10.37
354.972	10.23
355.337	10.24
355.702	10.23
356.066	10.17
356.431	10.14
356.795	10.08
357.16	10.08
357.524	10.08
357.889	10.07
358.253	10.12
358.618	10.15
358.982	10.1
359.346	10.2
359.71	10.19
360.075	10.27
360.439	10.29
360.803	10.2
361.167	10.19
361.531	10.23
361.895	10.27
362.259	10.23
362.623	10.17
362.987	10.18
363.351	10.2
363.714	10.2
364.078	10.13
364.442	10.15
364.806	10.17
365.169	10.05
365.533	10.05
365.896	10.02
366.26	9.96
366.623	9.93
366.987	9.89
367.35	9.88
367.714	9.73
368.077	9.72
368.44	9.72
368.803	9.7
369.167	9.55
369.53	9.53
369.893	9.48
370.256	9.54
370.619	9.47
370.982	9.35
371.345	9.31
371.708	9.39
372.071	9.29
372.434	9.19
372.797	9.17
373.159	9.11
373.522	9.08
373.885	9.09
374.247	9.02
374.61	8.92
374.973	8.84
375.335	8.74
375.698	8.68
376.06	8.68
376.423	8.65
376.785	8.66
377.147	8.57
377.51	8.54
377.872	8.43
378.234	8.45
378.596	8.43
378.958	8.4
379.321	8.3
379.683	8.28
380.045	8.21
380.407	8.21
380.769	8.19
381.13	8.07
381.492	7.97
381.854	8
382.216	8
382.578	7.96
382.939	7.95
383.301	7.91
383.663	7.88
384.024	7.79
384.386	7.78
384.747	7.78
385.109	7.77
385.47	7.76
385.832	7.6
386.193	7.58
386.554	7.45
386.916	7.4
387.277	7.34
387.638	7.31
387.999	7.27
388.36	7.22
388.721	7.26
389.082	7.26
389.443	7.14
389.804	7.09
390.165	7.07
390.526	7.12
390.887	7.09
391.248	7.01
391.609	6.99
391.969	6.93
392.33	6.87
392.691	6.83
393.051	6.76
393.412	6.76
393.772	6.74
394.133	6.75
394.493	6.71
394.854	6.7
395.214	6.69
395.574	6.65
395.935	6.6
396.295	6.56
396.655	6.49
397.015	6.49
397.376	6.42
397.736	6.34
398.096	6.22
398.456	6.18
398.816	6.11
399.176	6.04
399.535	5.98
399.895	5.94
400.255	5.91
400.615	5.89
400.975	5.86
401.334	5.81
401.694	5.78
402.054	5.77
402.413	5.76
402.773	5.71
403.132	5.62
403.492	5.62
403.851	5.58
404.211	5.59
404.57	5.56
404.929	5.57
405.288	5.56
405.648	5.59
406.007	5.56
406.366	5.58
406.725	5.57
407.084	5.56
407.443	5.58
407.802	5.55
408.161	5.55
408.52	5.53
408.879	5.53
409.238	5.5
409.596	5.47
409.955	5.42
410.314	5.45
410.673	5.44
411.031	5.39
411.39	5.4
411.748	5.41
412.107	5.42
412.465	5.39
412.824	5.4
413.182	5.39
413.54	5.38
413.899	5.36
414.257	5.39
414.615	5.36
414.974	5.35
415.332	5.35
415.69	5.3
416.048	5.32
416.406	5.3
416.764	5.3
417.122	5.29
417.48	5.3
417.838	5.28
418.195	5.27
418.553	5.26
418.911	5.23
419.269	5.2
419.626	5.18
419.984	5.15
420.342	5.13
420.699	5.1
421.057	5.09
421.414	5.08
421.772	5.07
422.129	5.06
422.486	5.03
422.844	4.99
423.201	4.99
423.558	4.97
423.915	4.95
424.273	4.93
424.63	4.94
424.987	4.92
425.344	4.9
425.701	4.88
426.058	4.88
426.415	4.86
426.772	4.83
427.128	4.82
427.485	4.78
427.842	4.76
428.199	4.75
428.555	4.73
428.912	4.7
429.269	4.66
429.625	4.66
429.982	4.66
430.338	4.65
430.695	4.62
431.051	4.63
431.407	4.64
431.764	4.64
432.12	4.63
432.476	4.64
432.832	4.62
433.189	4.65
433.545	4.63
433.901	4.64
434.257	4.64
434.613	4.65
434.969	4.68
435.325	4.69
435.681	4.69
436.036	4.68
436.392	4.7
436.748	4.71
437.104	4.7
437.459	4.69
437.815	4.69
438.171	4.68
438.526	4.7
438.882	4.69
439.237	4.69
439.593	4.69
439.948	4.69
440.304	4.67
440.659	4.64
441.014	4.64
441.369	4.64
441.725	4.64
442.08	4.63
442.435	4.64
442.79	4.64
443.145	4.65
443.5	4.63
443.855	4.62
444.21	4.62
444.565	4.62
444.92	4.63
445.275	4.64
445.629	4.65
445.984	4.64
446.339	4.62
446.693	4.6
447.048	4.56
447.403	4.55
447.757	4.55
448.112	4.56
448.466	4.55
448.82	4.54
449.175	4.55
449.529	4.54
449.883	4.51
450.238	4.48
450.592	4.46
450.946	4.47
451.3	4.45
451.654	4.44
452.008	4.43
452.362	4.43
452.716	4.4
453.07	4.38
453.424	4.34
453.778	4.34
454.132	4.34
454.486	4.37
454.839	4.39
455.193	4.39
455.547	4.38
455.9	4.39
456.254	4.37
456.607	4.37
456.961	4.36
457.314	4.37
457.668	4.38
458.021	4.36
458.375	4.34
458.728	4.35
459.081	4.36
459.434	4.36
459.787	4.35
460.141	4.36
460.494	4.38
460.847	4.41
461.2	4.43
461.553	4.45
461.906	4.46
462.259	4.45
462.611	4.45
462.964	4.46
463.317	4.46
463.67	4.48
464.022	4.49
464.375	4.52
464.728	4.52
465.08	4.51
465.433	4.53
465.785	4.57
466.138	4.58
466.49	4.6
466.843	4.61
467.195	4.63
467.547	4.65
467.899	4.67
468.252	4.67
468.604	4.68
468.956	4.69
469.308	4.7
469.66	4.74
470.012	4.74
470.364	4.76
470.716	4.8
471.068	4.82
471.42	4.83
471.772	4.83
472.123	4.86
472.475	4.9
472.827	4.9
473.178	4.91
473.53	4.93
473.882	4.95
474.233	4.94
474.585	4.94
474.936	4.96
475.288	4.94
475.639	4.96
475.99	4.97
476.342	4.97
476.693	4.97
477.044	4.95
477.395	4.97
477.746	4.96
478.097	4.94
478.448	4.92
478.8	4.94
479.15	4.93
479.501	4.94
479.852	4.94
480.203	4.95
480.554	4.95
480.905	4.95
481.255	4.93
481.606	4.96
481.957	4.96
482.307	4.96
482.658	4.96
483.009	4.94
483.359	4.94
483.709	4.93
484.06	4.94
484.41	4.92
484.761	4.93
485.111	4.93
485.461	4.93
485.811	4.92
486.162	4.92
486.512	4.92
486.862	4.92
487.212	4.91
487.562	4.9
487.912	4.9
488.262	4.89
488.612	4.87
488.961	4.87
489.311	4.85
489.661	4.85
490.011	4.85
490.36	4.85
490.71	4.84
491.06	4.83
491.409	4.82
491.759	4.85
492.108	4.85
492.458	4.85
492.807	4.86
493.157	4.87
493.506	4.87
493.855	4.88
494.204	4.88
494.554	4.9
494.903	4.93
495.252	4.96
495.601	4.99
495.95	5.03
496.299	5.06
496.648	5.11
496.997	5.15
497.346	5.18
497.695	5.24
498.043	5.28
498.392	5.32
498.741	5.35
499.09	5.38
499.438	5.45
499.787	5.49
500.135	5.52
500.484	5.58
500.832	5.64
501.181	5.71
501.529	5.81
501.878	5.86
502.226	5.94
502.574	6
502.923	6.08
503.271	6.15
503.619	6.23
503.967	6.28
504.315	6.36
504.663	6.46
505.011	6.52
505.359	6.62
505.707	6.74
506.055	6.86
506.403	6.95
506.751	7.02
507.098	7.16
507.446	7.29
507.794	7.45
508.141	7.55
508.489	7.68
508.837	7.75
509.184	7.89
509.531	7.98
509.879	8.09
510.226	8.17
510.574	8.3
510.921	8.42
511.268	8.55
511.616	8.65
511.963	8.76
512.31	8.91
512.657	9.06
513.004	9.2
513.351	9.33
513.698	9.5
514.045	9.66
514.392	9.82
514.739	9.98
515.086	10.14
515.432	10.32
515.779	10.47
516.126	10.7
516.473	10.87
516.819	11.06
517.166	11.24
517.512	11.41
517.859	11.57
518.205	11.75
518.552	11.9
518.898	12.07
519.245	12.25
519.591	12.4
519.937	12.57
520.283	12.73
520.629	12.93
520.976	13.11
521.322	13.3
521.668	13.52
522.014	13.74
522.36	13.94
522.706	14.15
523.052	14.42
523.398	14.61
523.743	14.84
524.089	15.12
524.435	15.37
524.781	15.62
525.126	15.85
525.472	16.05
525.817	16.22
526.163	16.37
526.509	16.54
526.854	16.69
527.199	16.86
527.545	17
527.89	17.15
528.235	17.29
528.581	17.45
528.926	17.57
529.271	17.71
529.616	17.89
529.961	18.04
530.306	18.19
530.651	18.36
530.996	18.54
531.341	18.71
531.686	18.85
532.031	19.01
532.376	19.19
532.721	19.38
533.065	19.6
533.41	19.82
533.755	20.02
534.099	20.24
534.444	20.43
534.788	20.63
535.133	20.81
535.477	21.02
535.822	21.24
536.166	21.48
536.51	21.71
536.855	21.92
537.199	22.19
537.543	22.46
537.887	22.75
538.231	23
538.576	23.25
538.92	23.57
539.264	23.87
539.608	24.13
539.951	24.35
540.295	24.58
540.639	24.8
540.983	25.02
541.327	25.24
541.671	25.42
542.014	25.63
542.358	25.83
542.701	26.04
543.045	26.24
543.389	26.45
543.732	26.66
544.075	26.88
544.419	27.08
544.762	27.28
545.105	27.48
545.449	27.72
545.792	27.96
546.135	28.19
546.478	28.41
546.821	28.69
547.165	28.95
547.508	29.2
547.851	29.49
548.194	29.74
548.536	30
548.879	30.31
549.222	30.59
549.565	30.94
549.908	31.25
550.25	31.55
550.593	31.83
550.936	32.1
551.278	32.4
551.621	32.71
551.963	33.08
552.306	33.35
552.648	33.61
552.991	33.88
553.333	34.2
553.675	34.47
554.017	34.67
554.36	34.93
554.702	35.16
555.044	35.41
555.386	35.69
555.728	35.96
556.07	36.22
556.412	36.47
556.754	36.62
557.096	36.87
557.438	37.05
557.78	37.31
558.121	37.6
558.463	37.84
558.805	38.1
559.147	38.32
559.488	38.56
559.83	38.87
560.171	39.14
560.513	39.26
560.854	39.55
561.196	39.8
561.537	40.05
561.878	40.31
562.22	40.45
562.561	40.61
562.902	40.83
563.243	41.14
563.584	41.39
563.925	41.66
564.266	41.87
564.607	42.09
564.948	42.22
565.289	42.39
565.63	42.52
565.971	42.74
566.312	42.89
566.653	43.1
566.993	43.23
567.334	43.4
567.675	43.62
568.015	43.77
568.356	43.96
568.696	44.13
569.037	44.3
569.377	44.56
569.718	44.76
570.058	44.94
570.398	45.02
570.739	45.17
571.079	45.27
571.419	45.43
571.759	45.59
572.099	45.83
572.439	45.97
572.779	46.16
573.119	46.18
573.459	46.3
573.799	46.42
574.139	46.53
574.479	46.66
574.819	46.82
575.158	46.84
575.498	46.9
575.838	46.99
576.177	47.07
576.517	47.12
576.856	47.22
577.196	47.29
577.535	47.38
577.875	47.44
578.214	47.59
578.553	47.65
578.893	47.83
579.232	47.91
579.571	47.98
579.91	48.07
580.25	48.21
580.589	48.26
580.928	48.38
581.267	48.54
581.606	48.55
581.945	48.61
582.283	48.73
582.622	48.88
582.961	49.02
583.3	49.19
583.639	49.28
583.977	49.36
584.316	49.48
584.654	49.62
584.993	49.72
585.332	49.78
585.67	49.89
586.008	49.91
586.347	50.01
586.685	50.12
587.024	50.18
587.362	50.23
587.7	50.35
588.038	50.41
588.376	50.43
588.715	50.5
589.053	50.57
589.391	50.7
589.729	50.79
590.067	50.86
590.404	50.93
590.742	51.03
591.08	51.17
591.418	51.25
591.756	51.28
592.093	51.32
592.431	51.38
592.769	51.4
593.106	51.46
593.444	51.53
593.781	51.6
594.119	51.73
594.456	51.79
594.793	51.79
595.131	51.87
595.468	51.93
595.805	52.08
596.143	52.18
596.48	52.19
596.817	52.27
597.154	52.33
597.491	52.25
597.828	52.29
598.165	52.2
598.502	52.19
598.839	52.27
599.176	52.37
599.512	52.44
599.849	52.55
600.186	52.55
600.523	52.59
600.859	52.57
601.196	52.55
601.532	52.68
601.869	52.85
602.205	52.91
602.542	52.96
602.878	52.95
603.215	52.91
603.551	52.95
603.887	52.93
604.223	53
604.56	53.12
604.896	53.18
605.232	53.3
605.568	53.41
605.904	53.43
606.24	53.42
606.576	53.46
606.912	53.53
607.248	53.64
607.583	53.64
607.919	53.75
608.255	53.82
608.591	53.78
608.926	53.71
609.262	53.75
609.597	53.73
609.933	53.78
610.268	53.89
610.604	54.03
610.939	54.11
611.275	54.09
611.61	54.13
611.945	54.09
612.281	54.13
612.616	54.13
612.951	54.14
613.286	54.29
613.621	54.33
613.956	54.27
614.291	54.22
614.626	54.24
614.961	54.17
615.296	54.11
615.631	54.16
615.966	54.26
616.3	54.22
616.635	54.35
616.97	54.35
617.304	54.3
617.639	54.25
617.973	54.17
618.308	54.14
618.642	54.12
618.977	54.18
619.311	54.14
619.646	54.15
619.98	54.19
620.314	54.16
620.648	54.26
620.983	54.27
621.317	54.35
621.651	54.45
621.985	54.59
622.319	54.66
622.653	54.77
622.987	54.75
623.321	54.85
623.655	54.83
623.988	54.92
624.322	55
624.656	55.07
624.99	55.13
625.323	55.21
625.657	55.29
625.99	55.32
626.324	55.46
626.657	55.52
626.991	55.54
627.324	55.56
627.658	55.59
627.991	55.66
628.324	55.61
628.657	55.59
628.991	55.64
629.324	55.67
629.657	55.59
629.99	55.6
630.323	55.63
630.656	55.57
630.989	55.56
631.322	55.58
631.655	55.53
631.987	55.61
632.32	55.67
632.653	55.66
632.986	55.71
633.318	55.74
633.651	55.77
633.984	55.74
634.316	55.67
634.649	55.6
634.981	55.61
635.313	55.65
635.646	55.72
635.978	55.71
636.31	55.71
636.643	55.74
636.975	55.85
637.307	55.81
637.639	55.93
637.971	55.87
638.303	55.86
638.635	55.93
638.967	55.95
639.299	55.88
639.631	55.92
639.963	55.88
640.295	55.72
640.626	55.63
640.958	55.67
641.29	55.68
641.621	55.7
641.953	55.67
642.285	55.71
642.616	55.62
642.948	55.5
643.279	55.54
643.61	55.51
643.942	55.49
644.273	55.53
644.604	55.59
644.936	55.79
645.267	55.77
645.598	55.67
645.929	55.64
646.26	55.62
646.591	55.72
646.922	55.78
647.253	55.92
647.584	55.88
647.915	55.86
648.245	55.8
648.576	55.71
648.907	55.67
649.238	55.69
649.568	55.73
649.899	55.87
650.229	55.92
650.56	56.05
650.89	56.02
651.221	55.91
651.551	55.87
651.882	55.72
652.212	55.75
652.542	55.76
652.872	55.89
653.203	55.96
653.533	55.83
653.863	55.77
654.193	55.74
654.523	55.87
654.853	55.98
655.183	56.12
655.513	56.19
655.843	56.25
656.172	56.31
656.502	56.42
656.832	56.49
657.162	56.4
657.491	56.28
657.821	56.16
658.15	56.27
658.48	56.38
658.809	56.48
659.139	56.43
659.468	56.47
659.798	56.33
660.127	56.36
660.456	56.42
660.785	56.59
661.115	56.63
661.444	56.59
661.773	56.45
662.102	56.52
662.431	56.57
662.76	56.51
663.089	56.5
663.418	56.49
663.747	56.49
664.076	56.53
664.404	56.75
