Data from MVZ_BU147395_Reflection_00011.txt Node
Date: Tue Nov 19 12:05:11 EST 2019
User: vgr7
Spectrometer: USB2G7710
Scans to average: 3
Trigger mode: 4
Integration Time (sec): 2.000000E-2
Electric dark correction enabled: true
Boxcar width: 10
XAxis mode: Wavelengths
Number of Pixels in Spectrum: 2048
>>>>>Begin Spectral Data<<<<<
177.721	-40.63
178.105	-13.36
178.488	12.21
178.871	33.96
179.254	14.85
179.636	62.43
180.019	1869.23
180.402	9.09
180.785	-39.13
181.168	-28.61
181.55	-138.81
181.933	125.71
182.316	331.21
182.698	-2321.05
183.081	759.57
183.463	545.78
183.846	-824.05
184.228	-834.07
184.611	-274.59
184.993	-115.84
185.376	-88.18
185.758	-40.56
186.14	-38.91
186.522	-23.64
186.904	-7.65
187.287	-12.32
187.669	-19.55
188.051	-21.03
188.433	-31.73
188.815	-18.97
189.197	-19.63
189.579	1.88
189.961	6.95
190.342	38.32
190.724	35.64
191.106	36.31
191.488	25.18
191.869	20.42
192.251	23.91
192.633	28.88
193.014	16.7
193.396	12.41
193.777	18.91
194.159	29.53
194.54	38.19
194.922	31.13
195.303	31.62
195.684	38.14
196.065	44.47
196.447	46.84
196.828	39.54
197.209	33.95
197.59	21
197.971	27.88
198.352	12.11
198.733	17.78
199.114	6.88
199.495	14.34
199.876	21.98
200.257	16.46
200.638	9.04
201.018	6.93
201.399	0.23
201.78	-11.29
202.16	-32.98
202.541	-55.62
202.922	-21.4
203.302	-19.31
203.683	-48.25
204.063	-62.87
204.444	-77.98
204.824	-52.26
205.204	-15.82
205.585	-15.34
205.965	-49.58
206.345	-48.23
206.725	-49.38
207.106	-6.49
207.486	-17.41
207.866	-1.38
208.246	0.52
208.626	-4.88
209.006	-0.45
209.386	6.44
209.766	0.63
210.145	9.95
210.525	-0.67
210.905	-16.88
211.285	-12.61
211.664	-2.66
212.044	4.02
212.424	7.53
212.803	-0.12
213.183	-12.53
213.562	-14.03
213.942	-11.21
214.321	-7.34
214.701	-14.95
215.08	-27.5
215.459	-13.28
215.838	-23.93
216.218	-24.68
216.597	-21.66
216.976	-24.61
217.355	-14.63
217.734	6.52
218.113	8.76
218.492	25.6
218.871	35.33
219.25	39.22
219.629	35.72
220.008	18.97
220.387	12.66
220.766	23.22
221.144	23.41
221.523	28.3
221.902	36.63
222.28	39.34
222.659	46.08
223.037	43.85
223.416	38.09
223.794	39.86
224.173	38.46
224.551	36.6
224.929	30.65
225.308	24.95
225.686	17.84
226.064	10.27
226.442	10.65
226.821	9.36
227.199	7.64
227.577	8.01
227.955	12.67
228.333	9.02
228.711	7.63
229.089	8.95
229.467	6.54
229.845	4.84
230.222	4.98
230.6	1.39
230.978	0.52
231.356	-0.07
231.733	-1.08
232.111	-2.08
232.488	-2.38
232.866	-1.27
233.243	-2.24
233.621	-0.02
233.998	3.07
234.376	1.69
234.753	2.42
235.13	2.37
235.508	1.8
235.885	-0.31
236.262	-0.02
236.639	-1.38
237.016	-2.35
237.393	-0.68
237.77	1.46
238.147	2.01
238.524	2.8
238.901	3.32
239.278	3.29
239.655	3.45
240.032	3.81
240.409	3.85
240.785	3.59
241.162	3.9
241.539	3.64
241.915	3.24
242.292	3.54
242.668	3.74
243.045	3.96
243.421	4.01
243.798	4.39
244.174	4.49
244.551	4.58
244.927	4.39
245.303	4.2
245.679	3.6
246.056	3.48
246.432	3.33
246.808	3.46
247.184	3.52
247.56	3.47
247.936	3.77
248.312	3.59
248.688	3.62
249.064	3.64
249.44	3.56
249.815	3.72
250.191	3.6
250.567	3.36
250.943	3.18
251.318	3.13
251.694	2.88
252.069	2.86
252.445	2.87
252.82	3.2
253.196	3.21
253.571	3.51
253.947	3.61
254.322	3.94
254.697	3.82
255.073	3.87
255.448	3.81
255.823	3.46
256.198	3.47
256.573	3.42
256.948	3.4
257.323	3.56
257.698	3.48
258.073	3.4
258.448	3.53
258.823	3.43
259.198	3.44
259.573	3.33
259.948	3.3
260.322	3.25
260.697	3.27
261.072	3.27
261.446	3.23
261.821	3.03
262.195	2.95
262.57	2.98
262.944	2.98
263.319	3.08
263.693	3.06
264.067	3.3
264.442	3.3
264.816	3.36
265.19	3.34
265.564	3.41
265.938	3.57
266.313	3.58
266.687	3.72
267.061	3.78
267.435	4.08
267.809	4.19
268.183	4.19
268.556	3.81
268.93	3.8
269.304	3.78
269.678	3.82
270.051	3.73
270.425	3.82
270.799	3.72
271.172	3.52
271.546	3.62
271.919	3.53
272.293	3.56
272.666	3.53
273.04	3.51
273.413	3.48
273.787	3.34
274.16	3.23
274.533	3.28
274.906	3.44
275.279	3.28
275.653	3.34
276.026	3.37
276.399	3.58
276.772	3.59
277.145	3.53
277.518	3.5
277.891	3.54
278.263	3.48
278.636	3.66
279.009	3.8
279.382	3.73
279.755	3.6
280.127	3.55
280.5	3.52
280.872	3.46
281.245	3.41
281.617	3.57
281.99	3.69
282.362	3.73
282.735	3.5
283.107	3.45
283.479	3.25
283.852	3.2
284.224	3.26
284.596	3.25
284.968	3.3
285.34	3.32
285.713	3.37
286.085	3.23
286.457	3.12
286.829	3.13
287.201	3.14
287.572	3.13
287.944	3.17
288.316	3.18
288.688	3.28
289.06	3.37
289.431	3.38
289.803	3.18
290.175	3.14
290.546	3.1
290.918	3.2
291.289	3.29
291.661	3.28
292.032	3.24
292.403	3.24
292.775	3.14
293.146	3.41
293.517	3.4
293.889	3.34
294.26	3.44
294.631	3.51
295.002	3.59
295.373	3.67
295.744	3.67
296.115	3.67
296.486	3.68
296.857	3.64
297.228	3.53
297.599	3.64
297.97	3.73
298.34	3.96
298.711	3.96
299.082	4.03
299.452	4.07
299.823	4.15
300.194	4.19
300.564	4.19
300.935	4.09
301.305	4.1
301.676	4.19
302.046	4.12
302.416	4.05
302.787	4.04
303.157	4.12
303.527	4.25
303.897	4.35
304.267	4.23
304.637	4.23
305.008	4.28
305.378	4.5
305.748	4.48
306.117	4.28
306.487	4.34
306.857	4.38
307.227	4.5
307.597	4.4
307.967	4.5
308.336	4.62
308.706	4.71
309.076	4.82
309.445	4.97
309.815	5.02
310.184	5.04
310.554	5.17
310.923	5.09
311.293	5.16
311.662	5.12
312.031	5.23
312.401	5.28
312.77	5.29
313.139	5.25
313.508	5.25
313.877	5.45
314.246	5.52
314.616	5.51
314.985	5.55
315.353	5.57
315.722	5.62
316.091	5.78
316.46	5.81
316.829	5.82
317.198	5.86
317.567	5.94
317.935	5.95
318.304	5.98
318.672	6.15
319.041	6.12
319.41	6.13
319.778	6.18
320.147	6.16
320.515	6.34
320.883	6.32
321.252	6.41
321.62	6.22
321.988	6.25
322.357	6.26
322.725	6.26
323.093	6.46
323.461	6.49
323.829	6.37
324.197	6.33
324.565	6.29
324.933	6.32
325.301	6.23
325.669	6.33
326.037	6.29
326.405	6.33
326.772	6.4
327.14	6.43
327.508	6.48
327.875	6.59
328.243	6.52
328.61	6.49
328.978	6.41
329.346	6.73
329.713	6.69
330.08	6.82
330.448	6.78
330.815	6.8
331.182	6.67
331.55	6.75
331.917	6.81
332.284	6.87
332.651	6.77
333.018	6.91
333.385	7.01
333.752	7.09
334.119	6.99
334.486	6.9
334.853	6.85
335.22	6.83
335.587	6.75
335.954	6.72
336.32	6.74
336.687	6.82
337.054	6.75
337.42	6.82
337.787	6.79
338.153	6.87
338.52	6.88
338.886	7.01
339.253	6.93
339.619	6.88
339.986	6.96
340.352	7.05
340.718	7.05
341.084	7.04
341.451	6.98
341.817	6.95
342.183	6.91
342.549	6.98
342.915	6.99
343.281	7.04
343.647	7.05
344.013	7.11
344.379	7.11
344.745	7.1
345.11	7.13
345.476	7.19
345.842	7.12
346.208	7.17
346.573	7.17
346.939	7.23
347.304	7.29
347.67	7.25
348.035	7.26
348.401	7.28
348.766	7.3
349.132	7.38
349.497	7.43
349.862	7.42
350.228	7.53
350.593	7.56
350.958	7.61
351.323	7.6
351.688	7.64
352.053	7.66
352.418	7.62
352.783	7.57
353.148	7.55
353.513	7.67
353.878	7.69
354.243	7.67
354.608	7.68
354.972	7.7
355.337	7.68
355.702	7.71
356.066	7.73
356.431	7.68
356.795	7.55
357.16	7.6
357.524	7.61
357.889	7.59
358.253	7.58
358.618	7.55
358.982	7.56
359.346	7.54
359.71	7.49
360.075	7.47
360.439	7.52
360.803	7.57
361.167	7.54
361.531	7.5
361.895	7.49
362.259	7.51
362.623	7.44
362.987	7.38
363.351	7.28
363.714	7.22
364.078	7.23
364.442	7.28
364.806	7.25
365.169	7.25
365.533	7.23
365.896	7.23
366.26	7.17
366.623	7.22
366.987	7.14
367.35	7.17
367.714	7.14
368.077	7
368.44	6.9
368.803	6.74
369.167	6.66
369.53	6.7
369.893	6.71
370.256	6.65
370.619	6.67
370.982	6.64
371.345	6.67
371.708	6.67
372.071	6.62
372.434	6.59
372.797	6.53
373.159	6.41
373.522	6.32
373.885	6.28
374.247	6.2
374.61	6.17
374.973	6.11
375.335	6.14
375.698	6.13
376.06	6.1
376.423	6.16
376.785	6.13
377.147	6.03
377.51	5.98
377.872	5.98
378.234	5.93
378.596	5.92
378.958	5.84
379.321	5.71
379.683	5.7
380.045	5.65
380.407	5.66
380.769	5.68
381.13	5.64
381.492	5.63
381.854	5.61
382.216	5.58
382.578	5.5
382.939	5.35
383.301	5.3
383.663	5.25
384.024	5.19
384.386	5.19
384.747	5.13
385.109	5.1
385.47	5.08
385.832	4.99
386.193	4.98
386.554	4.96
386.916	4.97
387.277	4.96
387.638	4.97
387.999	4.98
388.36	4.93
388.721	4.95
389.082	4.92
389.443	4.89
389.804	4.9
390.165	4.93
390.526	4.97
390.887	5
391.248	4.99
391.609	4.97
391.969	4.95
392.33	4.95
392.691	4.9
393.051	4.9
393.412	4.95
393.772	4.94
394.133	4.91
394.493	4.87
394.854	4.79
395.214	4.74
395.574	4.68
395.935	4.63
396.295	4.59
396.655	4.56
397.015	4.52
397.376	4.45
397.736	4.36
398.096	4.32
398.456	4.24
398.816	4.22
399.176	4.17
399.535	4.12
399.895	4.06
400.255	4.03
400.615	3.99
400.975	3.96
401.334	3.91
401.694	3.9
402.054	3.88
402.413	3.9
402.773	3.86
403.132	3.86
403.492	3.87
403.851	3.83
404.211	3.84
404.57	3.85
404.929	3.86
405.288	3.88
405.648	3.86
406.007	3.85
406.366	3.82
406.725	3.82
407.084	3.79
407.443	3.79
407.802	3.78
408.161	3.77
408.52	3.75
408.879	3.77
409.238	3.76
409.596	3.77
409.955	3.74
410.314	3.76
410.673	3.73
411.031	3.73
411.39	3.73
411.748	3.72
412.107	3.69
412.465	3.7
412.824	3.7
413.182	3.7
413.54	3.73
413.899	3.74
414.257	3.75
414.615	3.77
414.974	3.77
415.332	3.76
415.69	3.73
416.048	3.71
416.406	3.69
416.764	3.68
417.122	3.66
417.48	3.66
417.838	3.61
418.195	3.61
418.553	3.6
418.911	3.58
419.269	3.58
419.626	3.58
419.984	3.54
420.342	3.52
420.699	3.52
421.057	3.48
421.414	3.48
421.772	3.46
422.129	3.43
422.486	3.41
422.844	3.41
423.201	3.4
423.558	3.4
423.915	3.38
424.273	3.38
424.63	3.38
424.987	3.36
425.344	3.37
425.701	3.36
426.058	3.34
426.415	3.35
426.772	3.32
427.128	3.3
427.485	3.31
427.842	3.32
428.199	3.31
428.555	3.29
428.912	3.27
429.269	3.25
429.625	3.24
429.982	3.26
430.338	3.25
430.695	3.24
431.051	3.24
431.407	3.24
431.764	3.22
432.12	3.23
432.476	3.24
432.832	3.25
433.189	3.23
433.545	3.24
433.901	3.23
434.257	3.25
434.613	3.26
434.969	3.26
435.325	3.25
435.681	3.26
436.036	3.28
436.392	3.29
436.748	3.32
437.104	3.34
437.459	3.33
437.815	3.35
438.171	3.35
438.526	3.35
438.882	3.36
439.237	3.35
439.593	3.33
439.948	3.33
440.304	3.34
440.659	3.35
441.014	3.33
441.369	3.34
441.725	3.32
442.08	3.31
442.435	3.31
442.79	3.29
443.145	3.28
443.5	3.27
443.855	3.28
444.21	3.26
444.565	3.26
444.92	3.27
445.275	3.26
445.629	3.25
445.984	3.24
446.339	3.24
446.693	3.25
447.048	3.25
447.403	3.26
447.757	3.26
448.112	3.25
448.466	3.25
448.82	3.23
449.175	3.22
449.529	3.25
449.883	3.23
450.238	3.24
450.592	3.24
450.946	3.24
451.3	3.24
451.654	3.24
452.008	3.23
452.362	3.23
452.716	3.22
453.07	3.24
453.424	3.25
453.778	3.24
454.132	3.23
454.486	3.21
454.839	3.21
455.193	3.18
455.547	3.19
455.9	3.19
456.254	3.19
456.607	3.19
456.961	3.18
457.314	3.19
457.668	3.18
458.021	3.2
458.375	3.18
458.728	3.18
459.081	3.19
459.434	3.18
459.787	3.19
460.141	3.19
460.494	3.18
460.847	3.17
461.2	3.17
461.553	3.17
461.906	3.19
462.259	3.19
462.611	3.2
462.964	3.21
463.317	3.21
463.67	3.22
464.022	3.24
464.375	3.23
464.728	3.25
465.08	3.25
465.433	3.23
465.785	3.28
466.138	3.28
466.49	3.29
466.843	3.31
467.195	3.32
467.547	3.33
467.899	3.34
468.252	3.37
468.604	3.37
468.956	3.39
469.308	3.39
469.66	3.39
470.012	3.4
470.364	3.42
470.716	3.45
471.068	3.47
471.42	3.47
471.772	3.48
472.123	3.48
472.475	3.49
472.827	3.51
473.178	3.51
473.53	3.52
473.882	3.52
474.233	3.5
474.585	3.48
474.936	3.5
475.288	3.5
475.639	3.51
475.99	3.51
476.342	3.51
476.693	3.52
477.044	3.54
477.395	3.54
477.746	3.52
478.097	3.51
478.448	3.49
478.8	3.49
479.15	3.48
479.501	3.45
479.852	3.44
480.203	3.45
480.554	3.44
480.905	3.44
481.255	3.43
481.606	3.43
481.957	3.44
482.307	3.44
482.658	3.44
483.009	3.42
483.359	3.42
483.709	3.41
484.06	3.41
484.41	3.39
484.761	3.39
485.111	3.4
485.461	3.4
485.811	3.4
486.162	3.39
486.512	3.39
486.862	3.41
487.212	3.41
487.562	3.4
487.912	3.4
488.262	3.4
488.612	3.4
488.961	3.4
489.311	3.39
489.661	3.39
490.011	3.39
490.36	3.4
490.71	3.41
491.06	3.42
491.409	3.42
491.759	3.43
492.108	3.43
492.458	3.43
492.807	3.43
493.157	3.44
493.506	3.46
493.855	3.48
494.204	3.48
494.554	3.49
494.903	3.53
495.252	3.53
495.601	3.55
495.95	3.58
496.299	3.59
496.648	3.64
496.997	3.67
497.346	3.69
497.695	3.71
498.043	3.72
498.392	3.76
498.741	3.79
499.09	3.83
499.438	3.87
499.787	3.91
500.135	3.97
500.484	4
500.832	4.08
501.181	4.14
501.529	4.18
501.878	4.25
502.226	4.3
502.574	4.38
502.923	4.44
503.271	4.52
503.619	4.61
503.967	4.65
504.315	4.74
504.663	4.82
505.011	4.93
505.359	5.01
505.707	5.08
506.055	5.19
506.403	5.27
506.751	5.38
507.098	5.51
507.446	5.62
507.794	5.73
508.141	5.84
508.489	5.94
508.837	6.07
509.184	6.18
509.531	6.3
509.879	6.44
510.226	6.57
510.574	6.69
510.921	6.83
511.268	6.96
511.616	7.11
511.963	7.28
512.31	7.42
512.657	7.6
513.004	7.78
513.351	7.96
513.698	8.16
514.045	8.34
514.392	8.52
514.739	8.74
515.086	8.96
515.432	9.16
515.779	9.36
516.126	9.56
516.473	9.78
516.819	10
517.166	10.17
517.512	10.35
517.859	10.52
518.205	10.71
518.552	10.88
518.898	11.03
519.245	11.18
519.591	11.37
519.937	11.56
520.283	11.76
520.629	11.96
520.976	12.17
521.322	12.37
521.668	12.62
522.014	12.82
522.36	13.04
522.706	13.25
523.052	13.5
523.398	13.77
523.743	14
524.089	14.27
524.435	14.53
524.781	14.77
525.126	14.98
525.472	15.18
525.817	15.39
526.163	15.58
526.509	15.76
526.854	15.91
527.199	16.07
527.545	16.22
527.89	16.35
528.235	16.52
528.581	16.68
528.926	16.82
529.271	17
529.616	17.15
529.961	17.32
530.306	17.48
530.651	17.65
530.996	17.84
531.341	18.01
531.686	18.21
532.031	18.42
532.376	18.63
532.721	18.85
533.065	19.08
533.41	19.3
533.755	19.55
534.099	19.78
534.444	19.99
534.788	20.22
535.133	20.43
535.477	20.65
535.822	20.88
536.166	21.14
536.51	21.37
536.855	21.65
537.199	21.93
537.543	22.21
537.887	22.51
538.231	22.8
538.576	23.1
538.92	23.39
539.264	23.62
539.608	23.89
539.951	24.09
540.295	24.29
540.639	24.52
540.983	24.73
541.327	24.93
541.671	25.13
542.014	25.33
542.358	25.57
542.701	25.75
543.045	25.93
543.389	26.12
543.732	26.35
544.075	26.54
544.419	26.74
544.762	26.95
545.105	27.15
545.449	27.36
545.792	27.58
546.135	27.79
546.478	28.06
546.821	28.31
547.165	28.59
547.508	28.86
547.851	29.09
548.194	29.33
548.536	29.58
548.879	29.85
549.222	30.06
549.565	30.3
549.908	30.57
550.25	30.81
550.593	31.05
550.936	31.24
551.278	31.52
551.621	31.81
551.963	32.07
552.306	32.32
552.648	32.57
552.991	32.77
553.333	33.01
553.675	33.22
554.017	33.43
554.36	33.68
554.702	33.86
555.044	34.04
555.386	34.23
555.728	34.51
556.07	34.77
556.412	35.02
556.754	35.19
557.096	35.4
557.438	35.6
557.78	35.81
558.121	36.07
558.463	36.23
558.805	36.43
559.147	36.58
559.488	36.73
559.83	36.86
560.171	37.09
560.513	37.22
560.854	37.41
561.196	37.59
561.537	37.73
561.878	37.93
562.22	38.14
562.561	38.33
562.902	38.44
563.243	38.51
563.584	38.59
563.925	38.72
564.266	38.82
564.607	38.98
564.948	39.12
565.289	39.25
565.63	39.36
565.971	39.48
566.312	39.58
566.653	39.76
566.993	39.9
567.334	40.03
567.675	40.13
568.015	40.23
568.356	40.32
568.696	40.44
569.037	40.55
569.377	40.63
569.718	40.74
570.058	40.85
570.398	40.94
570.739	41.16
571.079	41.31
571.419	41.4
571.759	41.55
572.099	41.67
572.439	41.73
572.779	41.85
573.119	41.93
573.459	42.06
573.799	42.1
574.139	42.18
574.479	42.23
574.819	42.41
575.158	42.54
575.498	42.64
575.838	42.68
576.177	42.8
576.517	42.86
576.856	42.93
577.196	43.02
577.535	43.2
577.875	43.28
578.214	43.37
578.553	43.51
578.893	43.53
579.232	43.62
579.571	43.75
579.91	43.87
580.25	43.99
580.589	44.04
580.928	44.15
581.267	44.21
581.606	44.25
581.945	44.28
582.283	44.28
582.622	44.37
582.961	44.49
583.3	44.5
583.639	44.72
583.977	44.83
584.316	44.88
584.654	44.9
584.993	44.95
585.332	45.04
585.67	45.12
586.008	45.22
586.347	45.29
586.685	45.31
587.024	45.36
587.362	45.39
587.7	45.56
588.038	45.64
588.376	45.79
588.715	45.9
589.053	46.02
589.391	46.16
589.729	46.25
590.067	46.3
590.404	46.4
590.742	46.45
591.08	46.49
591.418	46.65
591.756	46.73
592.093	46.75
592.431	46.81
592.769	46.96
593.106	47.05
593.444	47.15
593.781	47.27
594.119	47.37
594.456	47.46
594.793	47.4
595.131	47.45
595.468	47.49
595.805	47.55
596.143	47.53
596.48	47.61
596.817	47.62
597.154	47.69
597.491	47.68
597.828	47.7
598.165	47.73
598.502	47.69
598.839	47.73
599.176	47.88
599.512	47.94
599.849	47.92
600.186	47.94
600.523	47.97
600.859	48.01
601.196	48.06
601.532	48.11
601.869	48.21
602.205	48.29
602.542	48.3
602.878	48.34
603.215	48.41
603.551	48.38
603.887	48.49
604.223	48.49
604.56	48.56
604.896	48.65
605.232	48.7
605.568	48.78
605.904	48.84
606.24	48.9
606.576	48.95
606.912	49.01
607.248	49.09
607.583	49.08
607.919	49.16
608.255	49.19
608.591	49.19
608.926	49.23
609.262	49.28
609.597	49.37
609.933	49.43
610.268	49.44
610.604	49.5
610.939	49.55
611.275	49.65
611.61	49.79
611.945	49.74
612.281	49.78
612.616	49.89
612.951	49.91
613.286	49.85
613.621	49.85
613.956	49.9
614.291	49.9
614.626	49.98
614.961	49.97
615.296	50
615.631	50.1
615.966	50.2
616.3	50.22
616.635	50.21
616.97	50.22
617.304	50.36
617.639	50.39
617.973	50.36
618.308	50.39
618.642	50.31
618.977	50.36
619.311	50.41
619.646	50.37
619.98	50.36
620.314	50.37
620.648	50.45
620.983	50.45
621.317	50.56
621.651	50.55
621.985	50.63
622.319	50.7
622.653	50.71
622.987	50.67
623.321	50.7
623.655	50.76
623.988	50.81
624.322	50.85
624.656	50.95
624.99	51.04
625.323	51.03
625.657	51.05
625.99	51.07
626.324	51.1
626.657	51.08
626.991	51.12
627.324	51.07
627.658	51.04
627.991	50.98
628.324	50.91
628.657	50.96
628.991	50.97
629.324	50.94
629.657	50.97
629.99	50.99
630.323	51.04
630.656	51.09
630.989	51.05
631.322	51
631.655	51.05
631.987	51.11
632.32	51.16
632.653	51.08
632.986	51.07
633.318	51.15
633.651	51.18
633.984	51.24
634.316	51.42
634.649	51.43
634.981	51.56
635.313	51.6
635.646	51.62
635.978	51.6
636.31	51.62
636.643	51.64
636.975	51.77
637.307	51.75
637.639	51.7
637.971	51.78
638.303	51.84
638.635	51.76
638.967	51.7
639.299	51.72
639.631	51.78
639.963	51.85
640.295	51.9
640.626	51.92
640.958	51.91
641.29	51.9
641.621	52
641.953	51.93
642.285	52.05
642.616	52.11
642.948	52.24
643.279	52.21
643.61	52.16
643.942	52.08
644.273	52.13
644.604	52.2
644.936	52.17
645.267	52.1
645.598	52.11
645.929	51.94
646.26	52.1
646.591	52.23
646.922	52.24
647.253	52.14
647.584	52.21
647.915	52.26
648.245	52.27
648.576	52.27
648.907	52.33
649.238	52.22
649.568	52.1
649.899	51.97
650.229	52.15
650.56	52.26
650.89	52.3
651.221	52.32
651.551	52.42
651.882	52.45
652.212	52.6
652.542	52.61
652.872	52.76
653.203	52.59
653.533	52.63
653.863	52.62
654.193	52.65
654.523	52.63
654.853	52.63
655.183	52.67
655.513	52.63
655.843	52.6
656.172	52.71
656.502	52.83
656.832	53
657.162	52.94
657.491	52.93
657.821	52.88
658.15	52.83
658.48	52.71
658.809	52.76
659.139	52.7
659.468	52.78
659.798	52.76
660.127	52.91
660.456	52.87
660.785	52.94
661.115	52.93
661.444	52.94
661.773	52.95
662.102	52.94
662.431	52.99
662.76	53.05
663.089	53.22
663.418	53.21
663.747	53.13
664.076	53.25
664.404	53.13
664.733	53.16
665.062	53.25
665.39	53.27
665.719	53.33
666.048	53.33
666.376	53.27
666.705	53.37
667.033	53.31
667.362	53.23
667.69	53.19
668.018	53.26
668.347	53.2
668.675	53.29
