Data from MVZ_BU28167_Reflection_00004.txt Node
Date: Tue Nov 19 12:17:24 EST 2019
User: vgr7
Spectrometer: USB2G7710
Scans to average: 3
Trigger mode: 4
Integration Time (sec): 2.000000E-2
Electric dark correction enabled: true
Boxcar width: 10
XAxis mode: Wavelengths
Number of Pixels in Spectrum: 2048
>>>>>Begin Spectral Data<<<<<
177.721	539.19
178.105	-1400
178.488	164.69
178.871	140.63
179.254	483.33
179.636	190.91
180.019	55.48
180.402	215
180.785	-195
181.168	-167.05
181.55	0.6
181.933	29.44
182.316	-2.6
182.698	-8.01
183.081	4.38
183.463	0.26
183.846	12.34
184.228	6.5
184.611	2.36
184.993	-19.39
185.376	-50.84
185.758	-57.95
186.14	-53.28
186.522	-62.4
186.904	-75
187.287	-56.54
187.669	-51.64
188.051	-34.74
188.433	-22.7
188.815	-7.83
189.197	4.97
189.579	-7.92
189.961	-24.01
190.342	-38.06
190.724	-98.6
191.106	-126.35
191.488	-93.66
191.869	-364.29
192.251	85.29
192.633	-181.25
193.014	475
193.396	248.44
193.777	5225
194.159	2162.5
194.54	-286.36
194.922	-443.1
195.303	-475
195.684	-1743.75
196.065	-1170.83
196.447	-882.14
196.828	-846.43
197.209	-48.81
197.59	-19.32
197.971	-25
198.352	113.16
198.733	55.88
199.114	32.87
199.495	73.04
199.876	51.7
200.257	9.31
200.638	-61.46
201.018	38.52
201.399	-150
201.78	-275
202.16	-50
202.541	-56.25
202.922	391.67
203.302	-61.59
203.683	-78.57
204.063	-46
204.444	-28.45
204.824	-11.67
205.204	-52.62
205.585	-62.75
205.965	-68.4
206.345	-56.78
206.725	-47.52
207.106	-19.25
207.486	-18.57
207.866	-16.86
208.246	-8.45
208.626	-39.49
209.006	-27.48
209.386	-100.76
209.766	-194.44
210.145	-108.9
210.525	-134.62
210.905	-45.41
211.285	39.1
211.664	82.14
212.044	59.88
212.424	45.65
212.803	-40.63
213.183	-65.38
213.562	-26.92
213.942	-111.81
214.321	-228.13
214.701	-209.7
215.08	-353.39
215.459	-206.34
215.838	-423.58
216.218	-603.95
216.597	-175.21
216.976	-176.64
217.355	-122.94
217.734	-126.9
218.113	-124.46
218.492	-127.41
218.871	-117.19
219.25	-131.1
219.629	-178.3
220.008	-193.17
220.387	-170.69
220.766	-105.59
221.144	-73.44
221.523	-98.28
221.902	-79.86
222.28	-37.5
222.659	-12.42
223.037	-11.7
223.416	-23.85
223.794	-14.94
224.173	-14.88
224.551	-20.47
224.929	-17.69
225.308	-7.62
225.686	1.91
226.064	0.47
226.442	-4.04
226.821	-7.42
227.199	-6.51
227.577	-2.86
227.955	-3.97
228.333	-8.95
228.711	-6.72
229.089	-4.28
229.467	-2.2
229.845	0.82
230.222	3.17
230.6	-2.88
230.978	-1.74
231.356	-1.51
231.733	0.1
232.111	-3.04
232.488	-1.62
232.866	-3.31
233.243	-2.31
233.621	-2.85
233.998	-1.23
234.376	1.43
234.753	0.96
235.13	-0.39
235.508	2.2
235.885	1.47
236.262	2.43
236.639	-0.06
237.016	-1.11
237.393	-0.58
237.77	-0.24
238.147	-1.14
238.524	0.55
238.901	0.43
239.278	0.3
239.655	0.26
240.032	1.54
240.409	1.3
240.785	1.95
241.162	1.73
241.539	1.69
241.915	2.05
242.292	2.27
242.668	2.36
243.045	2.67
243.421	2.59
243.798	2.92
244.174	3.12
244.551	3.5
244.927	3.67
245.303	3.91
245.679	3.96
246.056	4
246.432	4.09
246.808	4.24
247.184	4.49
247.56	4.35
247.936	4.3
248.312	4.62
248.688	4.61
249.064	4.33
249.44	4.19
249.815	4.02
250.191	3.75
250.567	3.65
250.943	3.78
251.318	3.95
251.694	3.57
252.069	3.75
252.445	3.53
252.82	3.67
253.196	3.43
253.571	3.56
253.947	3.45
254.322	3.35
254.697	3.5
255.073	3.26
255.448	3.59
255.823	3.54
256.198	3.45
256.573	3.46
256.948	4.01
257.323	3.96
257.698	4.04
258.073	4.04
258.448	4.14
258.823	3.9
259.198	4.03
259.573	4.09
259.948	3.96
260.322	3.98
260.697	3.85
261.072	3.79
261.446	3.7
261.821	3.68
262.195	3.63
262.57	3.66
262.944	3.55
263.319	3.54
263.693	3.51
264.067	3.52
264.442	3.52
264.816	3.36
265.19	3.36
265.564	3.38
265.938	3.54
266.313	3.47
266.687	3.45
267.061	3.15
267.435	3.42
267.809	3.33
268.183	3.27
268.556	3.28
268.93	3.31
269.304	3.28
269.678	3.49
270.051	3.48
270.425	3.32
270.799	3.29
271.172	3.3
271.546	3.39
271.919	3.18
272.293	3.08
272.666	3.04
273.04	3.06
273.413	2.91
273.787	2.84
274.16	2.77
274.533	2.94
274.906	3.09
275.279	2.93
275.653	3.1
276.026	3.28
276.399	3.32
276.772	3.3
277.145	3.32
277.518	3.14
277.891	3.32
278.263	3.34
278.636	3.64
279.009	3.69
279.382	3.57
279.755	3.63
280.127	3.78
280.5	3.59
280.872	3.87
281.245	3.93
281.617	3.9
281.99	3.88
282.362	3.92
282.735	3.68
283.107	3.81
283.479	3.57
283.852	3.53
284.224	3.4
284.596	3.48
284.968	3.51
285.34	3.47
285.713	3.41
286.085	3.43
286.457	3.34
286.829	3.3
287.201	3.33
287.572	3.44
287.944	3.38
288.316	3.4
288.688	3.28
289.06	3.41
289.431	3.62
289.803	3.57
290.175	3.38
290.546	3.42
290.918	3.39
291.289	3.37
291.661	3.29
292.032	3.31
292.403	3.3
292.775	3.31
293.146	3.46
293.517	3.31
293.889	3.35
294.26	3.38
294.631	3.4
295.002	3.44
295.373	3.28
295.744	3.36
296.115	3.53
296.486	3.44
296.857	3.41
297.228	3.18
297.599	3.36
297.97	3.51
298.34	3.56
298.711	3.56
299.082	3.71
299.452	3.68
299.823	3.8
300.194	3.83
300.564	3.72
300.935	3.76
301.305	3.78
301.676	3.7
302.046	3.62
302.416	3.62
302.787	3.58
303.157	3.71
303.527	3.7
303.897	3.63
304.267	3.77
304.637	3.62
305.008	3.72
305.378	3.7
305.748	3.68
306.117	3.63
306.487	3.62
306.857	3.59
307.227	3.66
307.597	3.49
307.967	3.39
308.336	3.42
308.706	3.32
309.076	3.37
309.445	3.51
309.815	3.46
310.184	3.29
310.554	3.17
310.923	3
311.293	2.84
311.662	2.85
312.031	2.77
312.401	2.79
312.77	2.75
313.139	2.5
313.508	2.42
313.877	2.46
314.246	2.35
314.616	2.35
314.985	2.32
315.353	2.36
315.722	2.51
316.091	2.66
316.46	2.69
316.829	2.68
317.198	2.65
317.567	2.9
317.935	2.99
318.304	3.36
318.672	3.39
319.041	3.65
319.41	3.67
319.778	3.58
320.147	3.6
320.515	3.78
320.883	3.98
321.252	4.04
321.62	4.12
321.988	4.31
322.357	4.36
322.725	4.32
323.093	4.34
323.461	4.35
323.829	4.24
324.197	4.15
324.565	4.2
324.933	4.09
325.301	3.94
325.669	3.89
326.037	3.77
326.405	3.96
326.772	3.9
327.14	3.85
327.508	3.89
327.875	3.9
328.243	3.77
328.61	3.74
328.978	3.68
329.346	3.54
329.713	3.65
330.08	3.69
330.448	3.65
330.815	3.69
331.182	3.57
331.55	3.74
331.917	3.59
332.284	3.62
332.651	3.64
333.018	3.59
333.385	3.74
333.752	3.81
334.119	3.73
334.486	3.5
334.853	3.54
335.22	3.56
335.587	3.51
335.954	3.52
336.32	3.61
336.687	3.67
337.054	3.64
337.42	3.52
337.787	3.43
338.153	3.53
338.52	3.48
338.886	3.5
339.253	3.27
339.619	3.47
339.986	3.46
340.352	3.5
340.718	3.55
341.084	3.64
341.451	3.51
341.817	3.52
342.183	3.72
342.549	3.78
342.915	3.82
343.281	3.9
343.647	4
344.013	3.91
344.379	3.96
344.745	4.02
345.11	3.96
345.476	4.04
345.842	4.03
346.208	4.04
346.573	4.03
346.939	4.23
347.304	4.18
347.67	4.2
348.035	4.17
348.401	4.16
348.766	4.03
349.132	4.09
349.497	4.11
349.862	4.05
350.228	4.08
350.593	4.1
350.958	4.12
351.323	4.01
351.688	4.01
352.053	4.01
352.418	4.09
352.783	4.17
353.148	4.17
353.513	4.19
353.878	4.15
354.243	4.04
354.608	3.9
354.972	3.88
355.337	3.9
355.702	3.9
356.066	3.96
356.431	3.95
356.795	3.97
357.16	3.89
357.524	3.91
357.889	3.83
358.253	3.79
358.618	3.84
358.982	3.83
359.346	3.88
359.71	3.85
360.075	3.88
360.439	3.89
360.803	3.87
361.167	3.87
361.531	3.88
361.895	3.93
362.259	3.98
362.623	4.07
362.987	3.96
363.351	3.94
363.714	3.88
364.078	3.89
364.442	3.85
364.806	3.92
365.169	3.96
365.533	3.99
365.896	4.01
366.26	3.95
366.623	3.94
366.987	4.01
367.35	4.08
367.714	4.04
368.077	4.05
368.44	4.09
368.803	4.04
369.167	4.09
369.53	4.08
369.893	4.02
370.256	3.97
370.619	4.02
370.982	4.04
371.345	4.17
371.708	4.22
372.071	4.2
372.434	4.12
372.797	4.15
373.159	4.13
373.522	4.09
373.885	4.14
374.247	4.2
374.61	4.14
374.973	4.03
375.335	4.01
375.698	3.95
376.06	3.93
376.423	3.97
376.785	3.98
377.147	4
377.51	4.05
377.872	4.11
378.234	4.1
378.596	4.16
378.958	4.19
379.321	4.16
379.683	4.23
380.045	4.24
380.407	4.25
380.769	4.2
381.13	4.27
381.492	4.26
381.854	4.26
382.216	4.3
382.578	4.36
382.939	4.35
383.301	4.38
383.663	4.3
384.024	4.24
384.386	4.25
384.747	4.22
385.109	4.18
385.47	4.11
385.832	4.11
386.193	4.08
386.554	3.98
386.916	4
387.277	3.95
387.638	3.97
387.999	3.98
388.36	3.98
388.721	3.97
389.082	3.96
389.443	3.97
389.804	3.95
390.165	3.94
390.526	3.96
390.887	3.98
391.248	4.04
391.609	4.09
391.969	4.07
392.33	4.04
392.691	4.08
393.051	4.12
393.412	4.13
393.772	4.15
394.133	4.14
394.493	4.13
394.854	4.18
395.214	4.17
395.574	4.14
395.935	4.17
396.295	4.14
396.655	4.15
397.015	4.13
397.376	4.17
397.736	4.14
398.096	4.15
398.456	4.14
398.816	4.1
399.176	4.05
399.535	4.01
399.895	4.06
400.255	4.08
400.615	4.08
400.975	4.09
401.334	4.07
401.694	4.1
402.054	4.1
402.413	4.1
402.773	4.14
403.132	4.15
403.492	4.16
403.851	4.16
404.211	4.13
404.57	4.13
404.929	4.08
405.288	4.11
405.648	4.11
406.007	4.06
406.366	4.1
406.725	4.13
407.084	4.13
407.443	4.14
407.802	4.13
408.161	4.14
408.52	4.13
408.879	4.12
409.238	4.13
409.596	4.12
409.955	4.09
410.314	4.09
410.673	4.11
411.031	4.1
411.39	4.14
411.748	4.15
412.107	4.15
412.465	4.14
412.824	4.11
413.182	4.11
413.54	4.13
413.899	4.13
414.257	4.16
414.615	4.21
414.974	4.19
415.332	4.2
415.69	4.18
416.048	4.19
416.406	4.18
416.764	4.18
417.122	4.17
417.48	4.23
417.838	4.21
418.195	4.19
418.553	4.2
418.911	4.21
419.269	4.22
419.626	4.21
419.984	4.23
420.342	4.23
420.699	4.24
421.057	4.23
421.414	4.24
421.772	4.23
422.129	4.22
422.486	4.23
422.844	4.22
423.201	4.24
423.558	4.23
423.915	4.23
424.273	4.25
424.63	4.26
424.987	4.23
425.344	4.23
425.701	4.22
426.058	4.22
426.415	4.21
426.772	4.21
427.128	4.24
427.485	4.23
427.842	4.25
428.199	4.24
428.555	4.26
428.912	4.25
429.269	4.23
429.625	4.23
429.982	4.24
430.338	4.24
430.695	4.23
431.051	4.23
431.407	4.24
431.764	4.22
432.12	4.22
432.476	4.23
432.832	4.25
433.189	4.26
433.545	4.28
433.901	4.27
434.257	4.26
434.613	4.23
434.969	4.25
435.325	4.25
435.681	4.25
436.036	4.24
436.392	4.25
436.748	4.27
437.104	4.28
437.459	4.27
437.815	4.27
438.171	4.28
438.526	4.3
438.882	4.29
439.237	4.29
439.593	4.32
439.948	4.31
440.304	4.31
440.659	4.31
441.014	4.31
441.369	4.32
441.725	4.33
442.08	4.34
442.435	4.34
442.79	4.35
443.145	4.35
443.5	4.35
443.855	4.36
444.21	4.37
444.565	4.36
444.92	4.37
445.275	4.36
445.629	4.35
445.984	4.33
446.339	4.32
446.693	4.32
447.048	4.3
447.403	4.31
447.757	4.29
448.112	4.29
448.466	4.27
448.82	4.27
449.175	4.27
449.529	4.26
449.883	4.25
450.238	4.25
450.592	4.24
450.946	4.25
451.3	4.25
451.654	4.23
452.008	4.24
452.362	4.24
452.716	4.25
453.07	4.25
453.424	4.26
453.778	4.27
454.132	4.28
454.486	4.29
454.839	4.28
455.193	4.29
455.547	4.28
455.9	4.31
456.254	4.29
456.607	4.28
456.961	4.28
457.314	4.29
457.668	4.31
458.021	4.3
458.375	4.3
458.728	4.29
459.081	4.29
459.434	4.28
459.787	4.27
460.141	4.28
460.494	4.28
460.847	4.27
461.2	4.27
461.553	4.28
461.906	4.28
462.259	4.27
462.611	4.27
462.964	4.31
463.317	4.32
463.67	4.33
464.022	4.32
464.375	4.33
464.728	4.32
465.08	4.29
465.433	4.29
465.785	4.29
466.138	4.32
466.49	4.32
466.843	4.33
467.195	4.36
467.547	4.34
467.899	4.34
468.252	4.37
468.604	4.39
468.956	4.39
469.308	4.38
469.66	4.39
470.012	4.41
470.364	4.38
470.716	4.37
471.068	4.38
471.42	4.4
471.772	4.4
472.123	4.43
472.475	4.45
472.827	4.43
473.178	4.45
473.53	4.43
473.882	4.45
474.233	4.43
474.585	4.4
474.936	4.43
475.288	4.43
475.639	4.41
475.99	4.39
476.342	4.41
476.693	4.43
477.044	4.42
477.395	4.41
477.746	4.42
478.097	4.41
478.448	4.42
478.8	4.42
479.15	4.42
479.501	4.41
479.852	4.4
480.203	4.43
480.554	4.42
480.905	4.42
481.255	4.43
481.606	4.44
481.957	4.45
482.307	4.45
482.658	4.46
483.009	4.48
483.359	4.49
483.709	4.49
484.06	4.48
484.41	4.48
484.761	4.49
485.111	4.5
485.461	4.49
485.811	4.49
486.162	4.5
486.512	4.51
486.862	4.51
487.212	4.51
487.562	4.49
487.912	4.5
488.262	4.5
488.612	4.5
488.961	4.49
489.311	4.49
489.661	4.49
490.011	4.48
490.36	4.47
490.71	4.47
491.06	4.47
491.409	4.47
491.759	4.48
492.108	4.48
492.458	4.48
492.807	4.48
493.157	4.49
493.506	4.49
493.855	4.5
494.204	4.49
494.554	4.5
494.903	4.51
495.252	4.53
495.601	4.52
495.95	4.52
496.299	4.53
496.648	4.54
496.997	4.53
497.346	4.56
497.695	4.58
498.043	4.59
498.392	4.61
498.741	4.61
499.09	4.61
499.438	4.6
499.787	4.59
500.135	4.61
500.484	4.61
500.832	4.6
501.181	4.58
501.529	4.6
501.878	4.62
502.226	4.63
502.574	4.64
502.923	4.65
503.271	4.67
503.619	4.7
503.967	4.7
504.315	4.7
504.663	4.7
505.011	4.68
505.359	4.66
505.707	4.64
506.055	4.65
506.403	4.67
506.751	4.67
507.098	4.68
507.446	4.69
507.794	4.68
508.141	4.7
508.489	4.72
508.837	4.74
509.184	4.73
509.531	4.74
509.879	4.73
510.226	4.74
510.574	4.74
510.921	4.74
511.268	4.75
511.616	4.77
511.963	4.75
512.31	4.78
512.657	4.81
513.004	4.81
513.351	4.82
513.698	4.82
514.045	4.83
514.392	4.85
514.739	4.86
515.086	4.87
515.432	4.88
515.779	4.86
516.126	4.87
516.473	4.87
516.819	4.86
517.166	4.85
517.512	4.85
517.859	4.85
518.205	4.83
518.552	4.83
518.898	4.86
519.245	4.88
519.591	4.88
519.937	4.87
520.283	4.9
520.629	4.9
520.976	4.9
521.322	4.9
521.668	4.89
522.014	4.89
522.36	4.88
522.706	4.87
523.052	4.87
523.398	4.88
523.743	4.91
524.089	4.92
524.435	4.93
524.781	4.93
525.126	4.95
525.472	4.97
525.817	4.97
526.163	4.95
526.509	4.95
526.854	4.96
527.199	4.98
527.545	4.99
527.89	5
528.235	5.01
528.581	5.02
528.926	5.03
529.271	5.02
529.616	5.03
529.961	5.04
530.306	5.04
530.651	5.02
530.996	5.04
531.341	5.04
531.686	5.04
532.031	5.04
532.376	5.03
532.721	5.03
533.065	5.04
533.41	5.04
533.755	5.04
534.099	5.03
534.444	5.01
534.788	4.98
535.133	4.96
535.477	4.94
535.822	4.96
536.166	4.94
536.51	4.94
536.855	4.94
537.199	4.95
537.543	4.95
537.887	4.97
538.231	4.95
538.576	4.94
538.92	4.96
539.264	4.97
539.608	4.99
539.951	4.98
540.295	4.98
540.639	4.99
540.983	4.98
541.327	5
541.671	5.01
542.014	5.04
542.358	5.06
542.701	5.06
543.045	5.04
543.389	5.06
543.732	5.07
544.075	5.09
544.419	5.07
544.762	5.07
545.105	5.09
545.449	5.09
545.792	5.1
546.135	5.09
546.478	5.09
546.821	5.1
547.165	5.1
547.508	5.13
547.851	5.13
548.194	5.13
548.536	5.11
548.879	5.1
549.222	5.07
549.565	5.08
549.908	5.08
550.25	5.07
550.593	5.05
550.936	5.06
551.278	5.07
551.621	5.07
551.963	5.09
552.306	5.08
552.648	5.08
552.991	5.08
553.333	5.05
553.675	5.05
554.017	5.03
554.36	5.05
554.702	5.01
555.044	4.95
555.386	4.95
555.728	4.97
556.07	4.99
556.412	4.99
556.754	4.96
557.096	4.96
557.438	4.97
557.78	4.99
558.121	4.96
558.463	4.92
558.805	4.93
559.147	4.91
559.488	4.89
559.83	4.9
560.171	4.89
560.513	4.93
560.854	4.94
561.196	4.95
561.537	4.93
561.878	4.99
562.22	5.06
562.561	5.08
562.902	5.11
563.243	5.11
563.584	5.12
563.925	5.14
564.266	5.14
564.607	5.14
564.948	5.13
565.289	5.14
565.63	5.16
565.971	5.19
566.312	5.19
566.653	5.15
566.993	5.13
567.334	5.15
567.675	5.14
568.015	5.15
568.356	5.14
568.696	5.14
569.037	5.11
569.377	5.09
569.718	5.1
570.058	5.06
570.398	5.05
570.739	5.04
571.079	5.02
571.419	5.05
571.759	5.05
572.099	4.99
572.439	5.01
572.779	5
573.119	5
573.459	4.99
573.799	5.02
574.139	5.02
574.479	5.04
574.819	5.03
575.158	5.04
575.498	5.05
575.838	5.06
576.177	5.07
576.517	5.07
576.856	5.05
577.196	5.07
577.535	5.05
577.875	5.02
578.214	5.06
578.553	5.03
578.893	5.04
579.232	5.11
579.571	5.14
579.91	5.15
580.25	5.16
580.589	5.12
580.928	5.14
581.267	5.18
581.606	5.17
581.945	5.13
582.283	5.1
582.622	5.09
582.961	5.11
583.3	5.07
583.639	5.09
583.977	5.07
584.316	5.07
584.654	5.14
584.993	5.17
585.332	5.16
585.67	5.18
586.008	5.18
586.347	5.19
586.685	5.17
587.024	5.16
587.362	5.19
587.7	5.24
588.038	5.28
588.376	5.25
588.715	5.25
589.053	5.31
589.391	5.31
589.729	5.31
590.067	5.27
590.404	5.33
590.742	5.31
591.08	5.32
591.418	5.33
591.756	5.25
592.093	5.27
592.431	5.29
592.769	5.28
593.106	5.3
593.444	5.28
593.781	5.27
594.119	5.22
594.456	5.19
594.793	5.2
595.131	5.16
595.468	5.21
595.805	5.22
596.143	5.23
596.48	5.23
596.817	5.25
597.154	5.29
597.491	5.26
597.828	5.23
598.165	5.22
598.502	5.26
598.839	5.27
599.176	5.29
599.512	5.25
599.849	5.28
600.186	5.25
600.523	5.29
600.859	5.32
601.196	5.37
601.532	5.4
601.869	5.42
602.205	5.41
602.542	5.37
602.878	5.34
603.215	5.3
603.551	5.29
603.887	5.34
604.223	5.33
604.56	5.34
604.896	5.37
605.232	5.4
605.568	5.38
605.904	5.35
606.24	5.33
606.576	5.36
606.912	5.36
607.248	5.39
607.583	5.35
607.919	5.33
608.255	5.31
608.591	5.33
608.926	5.3
609.262	5.27
609.597	5.29
609.933	5.27
610.268	5.27
610.604	5.28
610.939	5.24
611.275	5.27
611.61	5.21
611.945	5.17
612.281	5.22
612.616	5.21
612.951	5.29
613.286	5.33
613.621	5.33
613.956	5.3
614.291	5.32
614.626	5.35
614.961	5.37
615.296	5.4
615.631	5.39
615.966	5.45
616.3	5.52
616.635	5.47
616.97	5.49
617.304	5.55
617.639	5.56
617.973	5.52
618.308	5.5
618.642	5.51
618.977	5.55
619.311	5.53
619.646	5.49
619.98	5.53
620.314	5.51
620.648	5.51
620.983	5.52
621.317	5.46
621.651	5.39
621.985	5.39
622.319	5.37
622.653	5.35
622.987	5.29
623.321	5.26
623.655	5.34
623.988	5.38
624.322	5.35
624.656	5.4
624.99	5.46
625.323	5.41
625.657	5.47
625.99	5.49
626.324	5.46
626.657	5.5
626.991	5.49
627.324	5.43
627.658	5.42
627.991	5.43
628.324	5.46
628.657	5.48
628.991	5.46
629.324	5.45
629.657	5.42
629.99	5.43
630.323	5.48
630.656	5.44
630.989	5.43
631.322	5.49
631.655	5.41
631.987	5.37
632.32	5.39
632.653	5.37
632.986	5.32
633.318	5.35
633.651	5.36
633.984	5.36
634.316	5.43
634.649	5.43
634.981	5.44
635.313	5.38
635.646	5.5
635.978	5.51
636.31	5.51
636.643	5.53
636.975	5.5
637.307	5.47
637.639	5.49
637.971	5.41
638.303	5.41
638.635	5.41
638.967	5.42
639.299	5.46
639.631	5.47
639.963	5.49
640.295	5.46
640.626	5.42
640.958	5.41
641.29	5.42
641.621	5.35
641.953	5.33
642.285	5.37
642.616	5.29
642.948	5.36
643.279	5.4
643.61	5.42
643.942	5.46
644.273	5.5
644.604	5.52
644.936	5.64
645.267	5.57
645.598	5.59
645.929	5.68
646.26	5.63
646.591	5.64
646.922	5.75
647.253	5.8
647.584	5.86
647.915	5.9
648.245	5.89
648.576	5.94
648.907	5.91
649.238	5.84
649.568	5.86
649.899	5.78
650.229	5.82
650.56	5.78
650.89	5.78
651.221	5.74
651.551	5.76
651.882	5.75
652.212	5.8
652.542	5.79
652.872	5.76
653.203	5.8
653.533	5.88
653.863	5.81
654.193	5.81
654.523	5.75
654.853	5.72
655.183	5.75
655.513	5.86
655.843	5.82
656.172	5.92
656.502	5.91
656.832	5.86
657.162	5.83
657.491	5.89
657.821	5.96
658.15	5.99
658.48	5.99
658.809	5.98
659.139	5.96
659.468	5.95
659.798	5.97
660.127	5.98
660.456	5.94
660.785	5.93
661.115	5.93
661.444	6
661.773	6.03
662.102	6.01
662.431	5.9
662.76	5.96
663.089	6.04
663.418	6.06
663.747	6.15
664.076	6.18
664.404	6.25
664.733	6.21
665.062	6.19
665.39	6.16
665.719	6.23
666.048	6.29
666.376	6.38
666.705	6.38
667.033	6.42
667.362	6.47
667.69	6.55
668.018	6.53
668.347	6.52
668.675	6.48
669.003	6.49
669.331	6.55
669.659	6.5
669.987	6.47
670.315	6.49
670.643	6.51
670.971	6.5
671.299	6.43
671.627	6.41
671.955	6.48
672.283	6.5
672.61	6.44
672.938	6.39
673.266	6.34
673.593	6.29
673.921	6.27
674.249	6.23
674.576	6.18
674.904	6.11
675.231	6.17
675.558	6.19
675.886	6.2
676.213	6.25
676.54	6.36
676.867	6.3
677.195	6.36
677.522	6.38
677.849	6.42
