Data from MVZ_BU65311_Reflection_00012.txt Node
Date: Tue Nov 19 12:20:22 EST 2019
User: vgr7
Spectrometer: USB2G7710
Scans to average: 3
Trigger mode: 4
Integration Time (sec): 2.000000E-2
Electric dark correction enabled: true
Boxcar width: 10
XAxis mode: Wavelengths
Number of Pixels in Spectrum: 2048
>>>>>Begin Spectral Data<<<<<
177.721	113.23
178.105	961.11
178.488	-107.73
178.871	-68.89
179.254	-51.85
179.636	40.61
180.019	81.48
180.402	258.33
180.785	19.75
181.168	241.98
181.55	174.07
181.933	1183.33
182.316	704.17
182.698	-580.56
183.081	-340.48
183.463	-160.23
183.846	-151.05
184.228	-263.1
184.611	-140.55
184.993	-143.33
185.376	-170.23
185.758	-89.51
186.14	-124.79
186.522	-75.53
186.904	-68.72
187.287	-66.67
187.669	-46.22
188.051	-42.44
188.433	-42.25
188.815	-45.1
189.197	-49.72
189.579	-31.78
189.961	-24.16
190.342	-21.27
190.724	-16.96
191.106	-13.62
191.488	-10.89
191.869	-4.98
192.251	-5.89
192.633	-6.52
193.014	-4.42
193.396	-1.8
193.777	-6.17
194.159	-2.84
194.54	-4.27
194.922	-3.31
195.303	-2.04
195.684	-14.89
196.065	-20.93
196.447	-19.18
196.828	-19.05
197.209	-17.41
197.59	-22.34
197.971	-41.57
198.352	-42.54
198.733	-50.84
199.114	-54.22
199.495	-57.15
199.876	-70.91
200.257	-77.56
200.638	-85.8
201.018	-78.08
201.399	-87.39
201.78	-85.97
202.16	-74.18
202.541	-69.12
202.922	-52.82
203.302	-76.29
203.683	-65.48
204.063	-54.17
204.444	-51.33
204.824	-47.85
205.204	-14.58
205.585	-6.78
205.965	15.73
206.345	12.41
206.725	48.36
207.106	50.34
207.486	50.48
207.866	50.29
208.246	61.87
208.626	64.73
209.006	61.14
209.386	60.74
209.766	61.74
210.145	49.59
210.525	44.19
210.905	33.77
211.285	34.09
211.664	39.04
212.044	32.85
212.424	31.71
212.803	30.48
213.183	9.72
213.562	14.89
213.942	9.6
214.321	16.33
214.701	7.78
215.08	5.2
215.459	7.09
215.838	5.57
216.218	3.69
216.597	0.13
216.976	-14.21
217.355	-23.38
217.734	-30.45
218.113	-28.55
218.492	-38.11
218.871	-31.8
219.25	-28.75
219.629	-37.76
220.008	-37.73
220.387	-47.41
220.766	-45.45
221.144	-33.92
221.523	-50.29
221.902	-46.9
222.28	-43.07
222.659	-29.28
223.037	-28.74
223.416	-34.8
223.794	-38.18
224.173	-42.16
224.551	-29.88
224.929	-20.93
225.308	-19.32
225.686	-19.02
226.064	-16.01
226.442	-9.37
226.821	-10.81
227.199	-12.84
227.577	-14.76
227.955	-6.22
228.333	-5.92
228.711	-3.86
229.089	-2.48
229.467	-2.44
229.845	-0.33
230.222	0.4
230.6	-1.44
230.978	-1.44
231.356	-1.46
231.733	1.31
232.111	1.08
232.488	1.19
232.866	1.81
233.243	2.45
233.621	2.98
233.998	3.45
234.376	3.54
234.753	2.1
235.13	2.45
235.508	2.19
235.885	1.31
236.262	2.64
236.639	2.01
237.016	1.48
237.393	2.07
237.77	2.59
238.147	2.97
238.524	2.39
238.901	1.36
239.278	1.07
239.655	0.6
240.032	1.05
240.409	1.5
240.785	1.71
241.162	1.86
241.539	2.08
241.915	2.16
242.292	2.48
242.668	3.42
243.045	3.9
243.421	4.89
243.798	4.87
244.174	4.85
244.551	5.04
244.927	5.17
245.303	4.83
245.679	4.59
246.056	4.5
246.432	4.53
246.808	5.07
247.184	5.34
247.56	5.44
247.936	5.57
248.312	5.45
248.688	5.24
249.064	5.24
249.44	5.05
249.815	4.91
250.191	4.72
250.567	4.39
250.943	4.18
251.318	3.63
251.694	3.56
252.069	3.53
252.445	3.2
252.82	3.13
253.196	3.54
253.571	3.51
253.947	3
254.322	2.64
254.697	2.53
255.073	2.46
255.448	2.4
255.823	2.41
256.198	2.29
256.573	2.62
256.948	2.78
257.323	2.94
257.698	3.22
258.073	3.22
258.448	3.25
258.823	3.32
259.198	3.57
259.573	3.57
259.948	3.81
260.322	3.81
260.697	3.82
261.072	3.76
261.446	3.64
261.821	3.8
262.195	3.97
262.57	3.89
262.944	3.96
263.319	3.92
263.693	3.87
264.067	4.01
264.442	3.85
264.816	3.81
265.19	3.73
265.564	3.49
265.938	3.66
266.313	3.86
266.687	4.11
267.061	4.02
267.435	4.04
267.809	3.77
268.183	3.5
268.556	3.55
268.93	3.68
269.304	3.59
269.678	3.75
270.051	3.84
270.425	3.93
270.799	3.68
271.172	3.65
271.546	3.81
271.919	3.72
272.293	3.95
272.666	3.96
273.04	4.1
273.413	4.16
273.787	4.14
274.16	4.02
274.533	3.81
274.906	3.84
275.279	3.85
275.653	3.82
276.026	4.18
276.399	4.09
276.772	3.97
277.145	4.11
277.518	3.87
277.891	3.73
278.263	3.79
278.636	4.03
279.009	4.34
279.382	4.23
279.755	4.26
280.127	4.1
280.5	4.3
280.872	4.13
281.245	4.12
281.617	4.05
281.99	4.2
282.362	4.05
282.735	3.98
283.107	3.95
283.479	4
283.852	3.99
284.224	3.99
284.596	4.01
284.968	4.18
285.34	4.21
285.713	4.32
286.085	4.26
286.457	4.17
286.829	4.02
287.201	3.96
287.572	3.93
287.944	4.04
288.316	3.89
288.688	4.04
289.06	4.16
289.431	4.38
289.803	4.24
290.175	4.33
290.546	4.31
290.918	4.37
291.289	4.22
291.661	4.36
292.032	4.41
292.403	4.49
292.775	4.5
293.146	4.59
293.517	4.55
293.889	4.45
294.26	4.45
294.631	4.59
295.002	4.72
295.373	4.59
295.744	4.63
296.115	4.73
296.486	4.69
296.857	4.63
297.228	4.4
297.599	4.39
297.97	4.53
298.34	4.66
298.711	4.59
299.082	4.56
299.452	4.36
299.823	4.29
300.194	4.28
300.564	4.18
300.935	4.23
301.305	4.22
301.676	4.15
302.046	4.29
302.416	4.12
302.787	4.11
303.157	4.21
303.527	4.23
303.897	4.18
304.267	4.16
304.637	4.1
305.008	4.13
305.378	4.25
305.748	4.16
306.117	4.1
306.487	4.17
306.857	4.41
307.227	4.5
307.597	4.55
307.967	4.51
308.336	4.51
308.706	4.49
309.076	4.55
309.445	4.81
309.815	4.79
310.184	4.84
310.554	4.87
310.923	4.78
311.293	4.7
311.662	4.72
312.031	4.81
312.401	4.71
312.77	4.76
313.139	4.81
313.508	4.86
313.877	4.9
314.246	4.7
314.616	4.67
314.985	4.59
315.353	4.69
315.722	4.86
316.091	4.89
316.46	4.81
316.829	4.78
317.198	4.54
317.567	4.53
317.935	4.51
318.304	4.56
318.672	4.96
319.041	4.92
319.41	4.75
319.778	4.48
320.147	4.72
320.515	4.88
320.883	4.75
321.252	4.79
321.62	4.64
321.988	4.82
322.357	4.83
322.725	4.87
323.093	4.84
323.461	4.76
323.829	4.86
324.197	4.94
324.565	5.03
324.933	5.12
325.301	5.12
325.669	5.23
326.037	5.36
326.405	5.16
326.772	5.29
327.14	5.4
327.508	5.46
327.875	5.54
328.243	5.47
328.61	5.51
328.978	5.34
329.346	5.53
329.713	5.6
330.08	5.72
330.448	5.78
330.815	5.72
331.182	5.69
331.55	5.57
331.917	5.71
332.284	5.75
332.651	5.77
333.018	5.83
333.385	5.79
333.752	5.78
334.119	5.83
334.486	5.85
334.853	5.8
335.22	5.94
335.587	5.83
335.954	5.85
336.32	5.82
336.687	5.97
337.054	5.98
337.42	5.98
337.787	5.88
338.153	5.92
338.52	5.84
338.886	5.87
339.253	5.9
339.619	5.78
339.986	5.6
340.352	5.55
340.718	5.68
341.084	5.71
341.451	5.54
341.817	5.58
342.183	5.61
342.549	5.74
342.915	5.65
343.281	5.58
343.647	5.6
344.013	5.66
344.379	5.62
344.745	5.65
345.11	5.55
345.476	5.58
345.842	5.57
346.208	5.85
346.573	5.83
346.939	5.97
347.304	6.06
347.67	6.19
348.035	6.25
348.401	6.23
348.766	6.13
349.132	6.23
349.497	6.14
349.862	6.08
350.228	5.96
350.593	6.07
350.958	6.1
351.323	5.94
351.688	5.92
352.053	5.97
352.418	5.99
352.783	6.03
353.148	6.13
353.513	6.11
353.878	5.9
354.243	5.89
354.608	5.87
354.972	5.88
355.337	5.9
355.702	5.92
356.066	5.87
356.431	5.92
356.795	5.92
357.16	5.93
357.524	6.01
357.889	6.05
358.253	6.05
358.618	6.06
358.982	6.11
359.346	6.09
359.71	6.02
360.075	6.06
360.439	6.13
360.803	6.12
361.167	6.15
361.531	6.19
361.895	6.19
362.259	6.16
362.623	6.2
362.987	6.22
363.351	6.21
363.714	6.2
364.078	6.28
364.442	6.29
364.806	6.31
365.169	6.26
365.533	6.24
365.896	6.23
366.26	6.21
366.623	6.25
366.987	6.23
367.35	6.26
367.714	6.23
368.077	6.22
368.44	6.28
368.803	6.21
369.167	6.19
369.53	6.21
369.893	6.21
370.256	6.13
370.619	6.1
370.982	5.99
371.345	5.99
371.708	5.95
372.071	5.82
372.434	5.79
372.797	5.72
373.159	5.75
373.522	5.75
373.885	5.82
374.247	5.8
374.61	5.81
374.973	5.85
375.335	5.8
375.698	5.73
376.06	5.59
376.423	5.61
376.785	5.63
377.147	5.59
377.51	5.59
377.872	5.55
378.234	5.56
378.596	5.67
378.958	5.63
379.321	5.64
379.683	5.69
380.045	5.66
380.407	5.68
380.769	5.65
381.13	5.56
381.492	5.5
381.854	5.41
382.216	5.49
382.578	5.45
382.939	5.44
383.301	5.43
383.663	5.45
384.024	5.46
384.386	5.45
384.747	5.42
385.109	5.42
385.47	5.38
385.832	5.33
386.193	5.23
386.554	5.17
386.916	5.17
387.277	5.13
387.638	5.15
387.999	5.18
388.36	5.19
388.721	5.21
389.082	5.19
389.443	5.24
389.804	5.21
390.165	5.2
390.526	5.17
390.887	5.14
391.248	5.13
391.609	5.13
391.969	5.11
392.33	5.08
392.691	5.03
393.051	5.08
393.412	5.11
393.772	5.13
394.133	5.15
394.493	5.09
394.854	5.15
395.214	5.16
395.574	5.15
395.935	5.1
396.295	5.09
396.655	5.09
397.015	5.09
397.376	5.11
397.736	5.09
398.096	5.09
398.456	5.14
398.816	5.14
399.176	5.13
399.535	5.08
399.895	5.11
400.255	5.12
400.615	5.1
400.975	5.04
401.334	5.01
401.694	5.04
402.054	5.02
402.413	4.93
402.773	4.91
403.132	4.89
403.492	4.9
403.851	4.91
404.211	4.88
404.57	4.87
404.929	4.8
405.288	4.84
405.648	4.83
406.007	4.77
406.366	4.73
406.725	4.72
407.084	4.78
407.443	4.78
407.802	4.78
408.161	4.77
408.52	4.76
408.879	4.78
409.238	4.82
409.596	4.85
409.955	4.85
410.314	4.87
410.673	4.86
411.031	4.81
411.39	4.84
411.748	4.87
412.107	4.83
412.465	4.82
412.824	4.78
413.182	4.76
413.54	4.79
413.899	4.8
414.257	4.8
414.615	4.77
414.974	4.76
415.332	4.77
415.69	4.77
416.048	4.79
416.406	4.79
416.764	4.77
417.122	4.74
417.48	4.76
417.838	4.73
418.195	4.73
418.553	4.76
418.911	4.71
419.269	4.69
419.626	4.71
419.984	4.73
420.342	4.73
420.699	4.72
421.057	4.7
421.414	4.7
421.772	4.68
422.129	4.65
422.486	4.63
422.844	4.63
423.201	4.63
423.558	4.62
423.915	4.59
424.273	4.57
424.63	4.58
424.987	4.56
425.344	4.57
425.701	4.55
426.058	4.52
426.415	4.53
426.772	4.54
427.128	4.54
427.485	4.51
427.842	4.52
428.199	4.54
428.555	4.53
428.912	4.53
429.269	4.53
429.625	4.55
429.982	4.58
430.338	4.58
430.695	4.56
431.051	4.57
431.407	4.59
431.764	4.58
432.12	4.58
432.476	4.6
432.832	4.58
433.189	4.58
433.545	4.6
433.901	4.61
434.257	4.61
434.613	4.61
434.969	4.62
435.325	4.62
435.681	4.62
436.036	4.64
436.392	4.64
436.748	4.65
437.104	4.67
437.459	4.66
437.815	4.67
438.171	4.65
438.526	4.65
438.882	4.67
439.237	4.67
439.593	4.65
439.948	4.63
440.304	4.64
440.659	4.65
441.014	4.64
441.369	4.65
441.725	4.65
442.08	4.64
442.435	4.65
442.79	4.64
443.145	4.64
443.5	4.65
443.855	4.64
444.21	4.63
444.565	4.64
444.92	4.65
445.275	4.63
445.629	4.64
445.984	4.63
446.339	4.62
446.693	4.63
447.048	4.64
447.403	4.65
447.757	4.67
448.112	4.69
448.466	4.71
448.82	4.7
449.175	4.71
449.529	4.7
449.883	4.69
450.238	4.68
450.592	4.68
450.946	4.69
451.3	4.68
451.654	4.67
452.008	4.68
452.362	4.65
452.716	4.67
453.07	4.69
453.424	4.67
453.778	4.68
454.132	4.68
454.486	4.66
454.839	4.67
455.193	4.66
455.547	4.64
455.9	4.64
456.254	4.66
456.607	4.66
456.961	4.68
457.314	4.68
457.668	4.67
458.021	4.66
458.375	4.65
458.728	4.67
459.081	4.67
459.434	4.68
459.787	4.7
460.141	4.7
460.494	4.72
460.847	4.73
461.2	4.73
461.553	4.72
461.906	4.75
462.259	4.73
462.611	4.72
462.964	4.73
463.317	4.73
463.67	4.73
464.022	4.72
464.375	4.7
464.728	4.7
465.08	4.7
465.433	4.74
465.785	4.72
466.138	4.75
466.49	4.78
466.843	4.77
467.195	4.78
467.547	4.78
467.899	4.78
468.252	4.8
468.604	4.8
468.956	4.83
469.308	4.82
469.66	4.83
470.012	4.82
470.364	4.83
470.716	4.84
471.068	4.84
471.42	4.86
471.772	4.87
472.123	4.89
472.475	4.9
472.827	4.89
473.178	4.91
473.53	4.89
473.882	4.87
474.233	4.87
474.585	4.87
474.936	4.88
475.288	4.85
475.639	4.85
475.99	4.85
476.342	4.86
476.693	4.89
477.044	4.91
477.395	4.91
477.746	4.89
478.097	4.89
478.448	4.89
478.8	4.88
479.15	4.88
479.501	4.88
479.852	4.88
480.203	4.89
480.554	4.9
480.905	4.89
481.255	4.9
481.606	4.9
481.957	4.89
482.307	4.89
482.658	4.9
483.009	4.9
483.359	4.89
483.709	4.89
484.06	4.9
484.41	4.89
484.761	4.9
485.111	4.91
485.461	4.91
485.811	4.91
486.162	4.92
486.512	4.93
486.862	4.93
487.212	4.93
487.562	4.93
487.912	4.93
488.262	4.95
488.612	4.95
488.961	4.95
489.311	4.97
489.661	4.98
490.011	4.98
490.36	4.97
490.71	4.97
491.06	4.97
491.409	4.97
491.759	4.98
492.108	4.97
492.458	4.97
492.807	4.98
493.157	5
493.506	5
493.855	5.01
494.204	5.04
494.554	5.05
494.903	5.07
495.252	5.08
495.601	5.08
495.95	5.08
496.299	5.09
496.648	5.1
496.997	5.12
497.346	5.14
497.695	5.18
498.043	5.22
498.392	5.24
498.741	5.25
499.09	5.29
499.438	5.34
499.787	5.38
500.135	5.38
500.484	5.39
500.832	5.44
501.181	5.47
501.529	5.52
501.878	5.57
502.226	5.61
502.574	5.66
502.923	5.7
503.271	5.76
503.619	5.8
503.967	5.84
504.315	5.87
504.663	5.95
505.011	5.99
505.359	6.03
505.707	6.09
506.055	6.17
506.403	6.23
506.751	6.27
507.098	6.34
507.446	6.43
507.794	6.5
508.141	6.56
508.489	6.65
508.837	6.68
509.184	6.75
509.531	6.82
509.879	6.88
510.226	6.97
510.574	7.06
510.921	7.15
511.268	7.25
511.616	7.36
511.963	7.45
512.31	7.57
512.657	7.68
513.004	7.78
513.351	7.87
513.698	8
514.045	8.12
514.392	8.26
514.739	8.41
515.086	8.56
515.432	8.7
515.779	8.84
516.126	9.01
516.473	9.18
516.819	9.34
517.166	9.5
517.512	9.63
517.859	9.78
518.205	9.92
518.552	10.06
518.898	10.2
519.245	10.34
519.591	10.49
519.937	10.67
520.283	10.84
520.629	11.01
520.976	11.2
521.322	11.41
521.668	11.61
522.014	11.8
522.36	12.01
522.706	12.22
523.052	12.46
523.398	12.69
523.743	12.96
524.089	13.23
524.435	13.47
524.781	13.74
525.126	13.95
525.472	14.17
525.817	14.35
526.163	14.54
526.509	14.71
526.854	14.88
527.199	15.02
527.545	15.16
527.89	15.3
528.235	15.42
528.581	15.57
528.926	15.71
529.271	15.87
529.616	16.02
529.961	16.19
530.306	16.32
530.651	16.49
530.996	16.63
531.341	16.81
531.686	16.98
532.031	17.14
532.376	17.34
532.721	17.52
533.065	17.74
533.41	17.94
533.755	18.12
534.099	18.32
534.444	18.51
534.788	18.71
535.133	18.91
535.477	19.15
535.822	19.37
536.166	19.59
536.51	19.86
536.855	20.1
537.199	20.36
537.543	20.64
537.887	20.87
538.231	21.18
538.576	21.36
538.92	21.63
539.264	21.87
539.608	22.08
539.951	22.31
540.295	22.5
540.639	22.72
540.983	22.95
541.327	23.15
541.671	23.37
542.014	23.58
542.358	23.81
542.701	23.98
543.045	24.18
543.389	24.39
543.732	24.57
544.075	24.76
544.419	24.96
544.762	25.13
545.105	25.39
545.449	25.57
545.792	25.86
546.135	26.12
546.478	26.4
546.821	26.65
547.165	26.94
547.508	27.26
547.851	27.51
548.194	27.78
548.536	28.05
548.879	28.33
549.222	28.61
549.565	28.83
549.908	29.15
550.25	29.41
550.593	29.67
550.936	29.9
551.278	30.19
551.621	30.44
551.963	30.77
552.306	31.01
552.648	31.33
552.991	31.55
553.333	31.76
553.675	32.02
554.017	32.26
554.36	32.42
554.702	32.61
555.044	32.83
555.386	33.08
555.728	33.28
556.07	33.44
556.412	33.68
556.754	33.92
557.096	34.13
557.438	34.38
557.78	34.56
558.121	34.8
558.463	35
558.805	35.23
559.147	35.44
559.488	35.7
559.83	35.87
560.171	36.15
560.513	36.33
560.854	36.48
561.196	36.74
561.537	36.99
561.878	37.14
562.22	37.37
562.561	37.58
562.902	37.81
563.243	38.05
563.584	38.21
563.925	38.46
564.266	38.61
564.607	38.75
564.948	38.94
565.289	39.13
565.63	39.31
565.971	39.52
566.312	39.71
566.653	39.86
566.993	40
567.334	40.15
567.675	40.36
568.015	40.59
568.356	40.74
568.696	40.92
569.037	41.07
569.377	41.21
569.718	41.34
570.058	41.49
570.398	41.62
570.739	41.82
571.079	41.95
571.419	42.09
571.759	42.23
572.099	42.38
572.439	42.54
572.779	42.65
573.119	42.72
573.459	42.81
573.799	42.95
574.139	43.11
574.479	43.23
574.819	43.35
575.158	43.44
575.498	43.61
575.838	43.71
576.177	43.81
576.517	43.96
576.856	44.12
577.196	44.23
577.535	44.42
577.875	44.5
578.214	44.59
578.553	44.8
578.893	44.96
579.232	45.12
579.571	45.27
579.91	45.5
580.25	45.7
580.589	45.8
580.928	45.9
581.267	46.01
581.606	46.17
581.945	46.31
582.283	46.36
582.622	46.45
582.961	46.53
583.3	46.57
583.639	46.65
583.977	46.72
584.316	46.84
584.654	46.95
584.993	47.07
585.332	47.23
585.67	47.32
586.008	47.41
586.347	47.49
586.685	47.54
587.024	47.51
587.362	47.66
587.7	47.83
588.038	47.97
588.376	48.06
588.715	48.11
589.053	48.14
589.391	48.35
589.729	48.37
590.067	48.56
590.404	48.8
590.742	48.94
591.08	49.1
591.418	49.17
591.756	49.23
592.093	49.35
592.431	49.39
592.769	49.53
593.106	49.74
593.444	49.87
593.781	50.03
594.119	50.11
594.456	50.08
594.793	50.15
595.131	50.2
595.468	50.23
595.805	50.31
596.143	50.39
596.48	50.45
596.817	50.55
597.154	50.6
597.491	50.6
597.828	50.67
598.165	50.66
598.502	50.75
598.839	50.76
599.176	50.83
599.512	50.95
599.849	50.91
600.186	50.85
600.523	50.95
600.859	50.96
601.196	51.1
601.532	51.17
601.869	51.2
602.205	51.21
602.542	51.27
602.878	51.28
603.215	51.34
603.551	51.42
603.887	51.45
604.223	51.55
604.56	51.6
604.896	51.67
605.232	51.71
605.568	51.74
605.904	51.83
606.24	51.88
606.576	51.88
606.912	51.96
607.248	52.06
607.583	52.02
607.919	52.11
608.255	52.15
608.591	52.3
608.926	52.33
609.262	52.45
609.597	52.54
609.933	52.69
610.268	52.73
610.604	52.77
610.939	52.91
611.275	52.95
611.61	52.96
611.945	52.92
612.281	53.02
612.616	53.06
612.951	53.21
613.286	53.17
613.621	53.24
613.956	53.36
614.291	53.38
614.626	53.48
614.961	53.42
615.296	53.38
615.631	53.4
615.966	53.46
616.3	53.53
616.635	53.55
616.97	53.58
617.304	53.6
617.639	53.6
617.973	53.63
618.308	53.61
618.642	53.66
618.977	53.82
619.311	53.94
619.646	54.06
619.98	54.07
620.314	54.22
620.648	54.3
620.983	54.31
621.317	54.38
621.651	54.44
621.985	54.59
622.319	54.7
622.653	54.76
622.987	54.8
623.321	54.76
623.655	54.68
623.988	54.77
624.322	54.88
624.656	54.86
624.99	54.78
625.323	54.81
625.657	54.92
625.99	54.85
626.324	54.79
626.657	54.79
626.991	54.81
627.324	54.81
627.658	54.83
627.991	54.87
628.324	54.86
628.657	54.87
628.991	55
629.324	55
629.657	54.97
629.99	54.98
630.323	55.1
630.656	55.2
630.989	55.15
631.322	55.2
631.655	55.25
631.987	55.32
632.32	55.4
632.653	55.43
632.986	55.57
633.318	55.62
633.651	55.73
633.984	55.68
634.316	55.6
634.649	55.68
634.981	55.7
635.313	55.67
635.646	55.64
635.978	55.55
636.31	55.57
636.643	55.6
636.975	55.66
637.307	55.64
637.639	55.83
637.971	55.87
638.303	55.82
638.635	55.9
638.967	55.98
639.299	55.97
639.631	56
639.963	55.94
640.295	55.96
640.626	55.89
640.958	55.87
641.29	56.05
641.621	55.99
641.953	56.06
642.285	56.21
642.616	56.42
642.948	56.48
643.279	56.56
643.61	56.58
643.942	56.5
644.273	56.55
644.604	56.49
644.936	56.45
645.267	56.53
645.598	56.59
645.929	56.5
646.26	56.47
646.591	56.42
646.922	56.52
647.253	56.46
647.584	56.49
647.915	56.49
648.245	56.47
648.576	56.6
648.907	56.51
649.238	56.53
649.568	56.4
649.899	56.43
650.229	56.51
650.56	56.47
650.89	56.56
651.221	56.59
651.551	56.74
651.882	56.88
652.212	56.75
652.542	56.7
652.872	56.9
653.203	56.9
653.533	56.94
653.863	56.83
654.193	56.95
654.523	56.91
654.853	56.99
655.183	56.99
655.513	56.84
655.843	56.89
656.172	56.86
656.502	56.87
656.832	56.84
657.162	56.93
657.491	57.18
657.821	57.18
658.15	57.22
658.48	57.06
658.809	57.07
659.139	57.11
659.468	57.19
659.798	57.01
660.127	57.12
660.456	57.18
660.785	57.28
661.115	57.27
661.444	57.4
661.773	57.51
662.102	57.53
662.431	57.63
662.76	57.68
663.089	57.81
663.418	57.79
663.747	57.88
664.076	57.76
664.404	57.56
664.733	57.65
665.062	57.71
665.39	57.78
665.719	57.71
666.048	57.81
666.376	57.78
666.705	57.82
667.033	57.83
667.362	57.83
667.69	57.77
