Data from MVZ_BU147393_Reflection_00012.txt Node
Date: Tue Nov 19 12:07:11 EST 2019
User: vgr7
Spectrometer: USB2G7710
Scans to average: 3
Trigger mode: 4
Integration Time (sec): 2.000000E-2
Electric dark correction enabled: true
Boxcar width: 10
XAxis mode: Wavelengths
Number of Pixels in Spectrum: 2048
>>>>>Begin Spectral Data<<<<<
177.721	-41.63
178.105	-3400
178.488	-51.57
178.871	-109.37
179.254	-100
179.636	60.16
180.019	-33.09
180.402	-466.67
180.785	138.64
181.168	116.99
181.55	-296.55
181.933	18.03
182.316	-51.79
182.698	-134.51
183.081	-69.04
183.463	-85.27
183.846	-147.79
184.228	-58.68
184.611	-147.9
184.993	-7.69
185.376	4850
185.758	20600
186.14	440
186.522	159.32
186.904	860
187.287	4100
187.669	396.15
188.051	443.75
188.433	155.34
188.815	131.39
189.197	109.65
189.579	29.8
189.961	43.58
190.342	26.5
190.724	25.3
191.106	17.06
191.488	27.7
191.869	32.28
192.251	29.74
192.633	27.38
193.014	35.78
193.396	29.01
193.777	32.61
194.159	59.4
194.54	72.16
194.922	58.37
195.303	50
195.684	23.83
196.065	9.78
196.447	19.47
196.828	25.03
197.209	27.25
197.59	48.35
197.971	38.44
198.352	37.79
198.733	19.32
199.114	4.55
199.495	-22.82
199.876	-44.28
200.257	-70.92
200.638	-60.04
201.018	-63.23
201.399	-60.46
201.78	-51.43
202.16	-72.48
202.541	-62.59
202.922	-47.38
203.302	-48.12
203.683	-37.82
204.063	-26.06
204.444	-16.98
204.824	-16.88
205.204	-7.12
205.585	-4.71
205.965	-4.71
206.345	-2.84
206.725	5.79
207.106	21.19
207.486	24.08
207.866	31.73
208.246	48.76
208.626	48.23
209.006	50.08
209.386	44.21
209.766	39.7
210.145	39.67
210.525	36.72
210.905	39.81
211.285	41.95
211.664	55.51
212.044	48.2
212.424	51.72
212.803	52.85
213.183	40.09
213.562	34.93
213.942	48.09
214.321	43.76
214.701	65.21
215.08	64.36
215.459	94.43
215.838	108.28
216.218	151.89
216.597	137.08
216.976	203.15
217.355	243.72
217.734	192.33
218.113	163
218.492	138.28
218.871	128.71
219.25	130.42
219.629	178.64
220.008	156.56
220.387	127.03
220.766	87.64
221.144	149.74
221.523	156.32
221.902	182.4
222.28	255.93
222.659	139.36
223.037	90.47
223.416	71.76
223.794	68.21
224.173	30.62
224.551	23.49
224.929	16.73
225.308	16.57
225.686	25.81
226.064	27.46
226.442	22.2
226.821	14.17
227.199	16.51
227.577	13.59
227.955	15.75
228.333	16.14
228.711	17.22
229.089	15.37
229.467	16.56
229.845	15.02
230.222	13.77
230.6	7.6
230.978	9.2
231.356	10.55
231.733	8.91
232.111	11.86
232.488	12.24
232.866	14.88
233.243	15.8
233.621	15.21
233.998	16.79
234.376	16.83
234.753	16.57
235.13	14.64
235.508	13.62
235.885	12.43
236.262	11.74
236.639	10.79
237.016	9.14
237.393	9.06
237.77	7.73
238.147	7.04
238.524	8.2
238.901	7.33
239.278	5.86
239.655	5.06
240.032	4.53
240.409	5.68
240.785	5.17
241.162	4.25
241.539	3.8
241.915	3.15
242.292	3.67
242.668	3.65
243.045	4.33
243.421	4.54
243.798	4.95
244.174	5.43
244.551	5.43
244.927	5.4
245.303	5.06
245.679	4.99
246.056	5.03
246.432	4.9
246.808	4.64
247.184	4.84
247.56	4.81
247.936	4.9
248.312	4.56
248.688	4.6
249.064	4.57
249.44	4.4
249.815	4.54
250.191	4.41
250.567	4.47
250.943	4.29
251.318	4
251.694	3.67
252.069	3.42
252.445	3.26
252.82	3.71
253.196	3.79
253.571	3.83
253.947	3.77
254.322	3.93
254.697	4.53
255.073	4.38
255.448	4.63
255.823	4.44
256.198	4.58
256.573	4.59
256.948	4.72
257.323	4.66
257.698	4.52
258.073	4.45
258.448	4.28
258.823	4.2
259.198	4.36
259.573	4.4
259.948	4.43
260.322	4.48
260.697	4.39
261.072	4.32
261.446	4.42
261.821	4.23
262.195	4.11
262.57	4.15
262.944	4.24
263.319	4.36
263.693	4.39
264.067	4.24
264.442	4.18
264.816	4.29
265.19	4.44
265.564	4.4
265.938	4.39
266.313	4.44
266.687	4.42
267.061	4.26
267.435	4.06
267.809	3.94
268.183	3.92
268.556	3.75
268.93	3.95
269.304	4.06
269.678	4.29
270.051	4.47
270.425	4.45
270.799	4.2
271.172	4.08
271.546	4.26
271.919	4.31
272.293	4.24
272.666	4.24
273.04	4.39
273.413	4.59
273.787	4.5
274.16	4.54
274.533	4.62
274.906	4.67
275.279	4.92
275.653	4.96
276.026	5.04
276.399	5.2
276.772	5.07
277.145	4.89
277.518	4.69
277.891	4.64
278.263	4.56
278.636	4.74
279.009	4.67
279.382	4.56
279.755	4.6
280.127	4.64
280.5	4.66
280.872	4.63
281.245	4.36
281.617	4.44
281.99	4.34
282.362	4.35
282.735	4.27
283.107	4.1
283.479	4.01
283.852	4.05
284.224	3.95
284.596	3.85
284.968	3.86
285.34	3.84
285.713	3.81
286.085	3.7
286.457	3.78
286.829	3.77
287.201	3.81
287.572	3.79
287.944	3.82
288.316	3.91
288.688	3.86
289.06	4.06
289.431	4.12
289.803	4.3
290.175	4.2
290.546	4.22
290.918	4.39
291.289	4.35
291.661	4.31
292.032	4.21
292.403	4.24
292.775	4.22
293.146	4.29
293.517	4.32
293.889	4.45
294.26	4.36
294.631	4.55
295.002	4.51
295.373	4.64
295.744	4.61
296.115	4.41
296.486	4.33
296.857	4.27
297.228	4.18
297.599	4.01
297.97	4.04
298.34	4.14
298.711	4.04
299.082	4.16
299.452	4.21
299.823	4.44
300.194	4.71
300.564	4.66
300.935	4.79
301.305	4.8
301.676	4.59
302.046	4.79
302.416	4.62
302.787	4.7
303.157	4.55
303.527	4.67
303.897	4.85
304.267	4.97
304.637	5.01
305.008	5.15
305.378	5.44
305.748	5.45
306.117	5.43
306.487	5.59
306.857	5.7
307.227	5.8
307.597	5.66
307.967	5.41
308.336	5.59
308.706	5.66
309.076	5.65
309.445	5.99
309.815	6.04
310.184	6.17
310.554	6.22
310.923	6.29
311.293	6.21
311.662	6.19
312.031	6.19
312.401	6.26
312.77	6.25
313.139	6.21
313.508	6.26
313.877	6.4
314.246	6.25
314.616	6.31
314.985	6.06
315.353	6.16
315.722	6.31
316.091	6.22
316.46	6.18
316.829	6.41
317.198	6.27
317.567	6.03
317.935	6.04
318.304	6.18
318.672	6.18
319.041	6.32
319.41	6.31
319.778	6.39
320.147	6.44
320.515	6.48
320.883	6.48
321.252	6.52
321.62	6.56
321.988	6.89
322.357	6.79
322.725	7.07
323.093	7.14
323.461	7.28
323.829	7.27
324.197	7.32
324.565	7.11
324.933	7.13
325.301	7.12
325.669	7.02
326.037	6.87
326.405	6.96
326.772	6.96
327.14	6.95
327.508	6.93
327.875	6.87
328.243	6.95
328.61	6.86
328.978	6.82
329.346	6.76
329.713	6.66
330.08	6.91
330.448	6.83
330.815	6.78
331.182	6.62
331.55	6.67
331.917	6.57
332.284	6.72
332.651	6.6
333.018	6.88
333.385	7.07
333.752	7.12
334.119	7.08
334.486	7.17
334.853	7.36
335.22	7.42
335.587	7.4
335.954	7.41
336.32	7.63
336.687	7.79
337.054	7.9
337.42	7.79
337.787	7.7
338.153	7.83
338.52	7.92
338.886	8
339.253	8.04
339.619	8.28
339.986	8.22
340.352	8.53
340.718	8.36
341.084	8.4
341.451	8.48
341.817	8.55
342.183	8.45
342.549	8.39
342.915	8.45
343.281	8.47
343.647	8.58
344.013	8.54
344.379	8.46
344.745	8.41
345.11	8.6
345.476	8.64
345.842	8.52
346.208	8.61
346.573	8.62
346.939	8.61
347.304	8.46
347.67	8.4
348.035	8.31
348.401	8.43
348.766	8.31
349.132	8.29
349.497	8.3
349.862	8.36
350.228	8.32
350.593	8.3
350.958	8.34
351.323	8.22
351.688	8.28
352.053	8.38
352.418	8.46
352.783	8.39
353.148	8.36
353.513	8.4
353.878	8.39
354.243	8.37
354.608	8.52
354.972	8.54
355.337	8.7
355.702	8.72
356.066	8.75
356.431	8.82
356.795	8.91
357.16	8.91
357.524	8.96
357.889	8.98
358.253	8.98
358.618	8.97
358.982	9.03
359.346	9.01
359.71	8.96
360.075	8.95
360.439	8.95
360.803	8.97
361.167	8.98
361.531	8.87
361.895	8.85
362.259	8.81
362.623	8.78
362.987	8.72
363.351	8.69
363.714	8.68
364.078	8.66
364.442	8.55
364.806	8.58
365.169	8.56
365.533	8.57
365.896	8.5
366.26	8.47
366.623	8.43
366.987	8.38
367.35	8.36
367.714	8.32
368.077	8.34
368.44	8.31
368.803	8.23
369.167	8.19
369.53	8.23
369.893	8.21
370.256	8.23
370.619	8.13
370.982	8.04
371.345	8
371.708	7.96
372.071	7.92
372.434	7.81
372.797	7.79
373.159	7.67
373.522	7.58
373.885	7.56
374.247	7.56
374.61	7.56
374.973	7.57
375.335	7.58
375.698	7.47
376.06	7.48
376.423	7.46
376.785	7.5
377.147	7.42
377.51	7.36
377.872	7.27
378.234	7.26
378.596	7.24
378.958	7.15
379.321	7.11
379.683	7.12
380.045	7.15
380.407	7.08
380.769	7.08
381.13	7.13
381.492	7.06
381.854	6.98
382.216	6.9
382.578	6.88
382.939	6.77
383.301	6.76
383.663	6.61
384.024	6.59
384.386	6.49
384.747	6.45
385.109	6.39
385.47	6.34
385.832	6.32
386.193	6.28
386.554	6.24
386.916	6.24
387.277	6.2
387.638	6.14
387.999	6.09
388.36	6.01
388.721	5.99
389.082	5.98
389.443	5.91
389.804	5.9
390.165	5.85
390.526	5.83
390.887	5.79
391.248	5.81
391.609	5.81
391.969	5.84
392.33	5.79
392.691	5.8
393.051	5.81
393.412	5.76
393.772	5.73
394.133	5.76
394.493	5.69
394.854	5.64
395.214	5.59
395.574	5.56
395.935	5.57
396.295	5.55
396.655	5.53
397.015	5.51
397.376	5.45
397.736	5.42
398.096	5.39
398.456	5.32
398.816	5.25
399.176	5.2
399.535	5.14
399.895	5.15
400.255	5.12
400.615	5.09
400.975	5.1
401.334	5.12
401.694	5.06
402.054	5.05
402.413	5.06
402.773	5.07
403.132	5.07
403.492	5.06
403.851	5.03
404.211	4.97
404.57	5.02
404.929	4.99
405.288	4.97
405.648	4.97
406.007	5
406.366	4.99
406.725	4.97
407.084	4.98
407.443	4.97
407.802	4.94
408.161	4.94
408.52	4.91
408.879	4.85
409.238	4.85
409.596	4.84
409.955	4.82
410.314	4.81
410.673	4.81
411.031	4.77
411.39	4.78
411.748	4.8
412.107	4.75
412.465	4.76
412.824	4.71
413.182	4.7
413.54	4.67
413.899	4.69
414.257	4.66
414.615	4.63
414.974	4.61
415.332	4.62
415.69	4.59
416.048	4.57
416.406	4.56
416.764	4.52
417.122	4.52
417.48	4.49
417.838	4.49
418.195	4.45
418.553	4.44
418.911	4.4
419.269	4.41
419.626	4.41
419.984	4.4
420.342	4.4
420.699	4.35
421.057	4.34
421.414	4.32
421.772	4.32
422.129	4.3
422.486	4.29
422.844	4.26
423.201	4.24
423.558	4.22
423.915	4.22
424.273	4.22
424.63	4.21
424.987	4.2
425.344	4.2
425.701	4.19
426.058	4.2
426.415	4.19
426.772	4.17
427.128	4.15
427.485	4.12
427.842	4.09
428.199	4.1
428.555	4.1
428.912	4.09
429.269	4.07
429.625	4.09
429.982	4.08
430.338	4.08
430.695	4.08
431.051	4.1
431.407	4.08
431.764	4.07
432.12	4.06
432.476	4.08
432.832	4.07
433.189	4.07
433.545	4.04
433.901	4.04
434.257	4.02
434.613	4.02
434.969	4.03
435.325	4.07
435.681	4.08
436.036	4.07
436.392	4.06
436.748	4.06
437.104	4.06
437.459	4.05
437.815	4.06
438.171	4.09
438.526	4.07
438.882	4.1
439.237	4.09
439.593	4.11
439.948	4.08
440.304	4.06
440.659	4.06
441.014	4.06
441.369	4.07
441.725	4.06
442.08	4.06
442.435	4.06
442.79	4.05
443.145	4.02
443.5	4.02
443.855	4.01
444.21	4.01
444.565	4
444.92	4.01
445.275	3.99
445.629	3.95
445.984	3.96
446.339	3.94
446.693	3.94
447.048	3.92
447.403	3.93
447.757	3.92
448.112	3.9
448.466	3.9
448.82	3.88
449.175	3.88
449.529	3.88
449.883	3.86
450.238	3.84
450.592	3.84
450.946	3.84
451.3	3.83
451.654	3.81
452.008	3.8
452.362	3.78
452.716	3.78
453.07	3.79
453.424	3.77
453.778	3.77
454.132	3.76
454.486	3.75
454.839	3.75
455.193	3.76
455.547	3.77
455.9	3.75
456.254	3.74
456.607	3.73
456.961	3.74
457.314	3.76
457.668	3.76
458.021	3.77
458.375	3.79
458.728	3.8
459.081	3.82
459.434	3.8
459.787	3.82
460.141	3.81
460.494	3.82
460.847	3.83
461.2	3.84
461.553	3.84
461.906	3.86
462.259	3.86
462.611	3.87
462.964	3.88
463.317	3.91
463.67	3.94
464.022	3.96
464.375	3.96
464.728	3.98
465.08	3.98
465.433	4
465.785	4.03
466.138	4.03
466.49	4.04
466.843	4.07
467.195	4.07
467.547	4.11
467.899	4.11
468.252	4.14
468.604	4.15
468.956	4.17
469.308	4.15
469.66	4.18
470.012	4.19
470.364	4.22
470.716	4.22
471.068	4.23
471.42	4.23
471.772	4.24
472.123	4.23
472.475	4.26
472.827	4.26
473.178	4.24
473.53	4.23
473.882	4.24
474.233	4.26
474.585	4.3
474.936	4.25
475.288	4.23
475.639	4.23
475.99	4.21
476.342	4.21
476.693	4.22
477.044	4.21
477.395	4.21
477.746	4.18
478.097	4.19
478.448	4.17
478.8	4.18
479.15	4.18
479.501	4.16
479.852	4.17
480.203	4.17
480.554	4.17
480.905	4.18
481.255	4.17
481.606	4.16
481.957	4.15
482.307	4.15
482.658	4.16
483.009	4.14
483.359	4.14
483.709	4.13
484.06	4.13
484.41	4.13
484.761	4.12
485.111	4.12
485.461	4.12
485.811	4.13
486.162	4.14
486.512	4.13
486.862	4.12
487.212	4.12
487.562	4.11
487.912	4.11
488.262	4.11
488.612	4.12
488.961	4.12
489.311	4.13
489.661	4.13
490.011	4.13
490.36	4.14
490.71	4.15
491.06	4.15
491.409	4.17
491.759	4.17
492.108	4.19
492.458	4.19
492.807	4.18
493.157	4.17
493.506	4.18
493.855	4.2
494.204	4.23
494.554	4.24
494.903	4.28
495.252	4.31
495.601	4.34
495.95	4.36
496.299	4.39
496.648	4.4
496.997	4.45
497.346	4.49
497.695	4.54
498.043	4.59
498.392	4.65
498.741	4.68
499.09	4.75
499.438	4.81
499.787	4.88
500.135	4.99
500.484	5.06
500.832	5.14
501.181	5.22
501.529	5.3
501.878	5.37
502.226	5.46
502.574	5.57
502.923	5.67
503.271	5.79
503.619	5.9
503.967	6.03
504.315	6.15
504.663	6.24
505.011	6.37
505.359	6.5
505.707	6.6
506.055	6.77
506.403	6.91
506.751	7.06
507.098	7.22
507.446	7.37
507.794	7.55
508.141	7.69
508.489	7.85
508.837	7.99
509.184	8.16
509.531	8.32
509.879	8.46
510.226	8.6
510.574	8.74
510.921	8.9
511.268	9.08
511.616	9.26
511.963	9.46
512.31	9.64
512.657	9.85
513.004	10.04
513.351	10.24
513.698	10.46
514.045	10.64
514.392	10.86
514.739	11.08
515.086	11.3
515.432	11.56
515.779	11.77
516.126	12
516.473	12.24
516.819	12.43
517.166	12.63
517.512	12.85
517.859	13.05
518.205	13.21
518.552	13.36
518.898	13.53
519.245	13.71
519.591	13.89
519.937	14.05
520.283	14.26
520.629	14.45
520.976	14.67
521.322	14.89
521.668	15.09
522.014	15.29
522.36	15.47
522.706	15.68
523.052	15.94
523.398	16.21
523.743	16.48
524.089	16.78
524.435	17.04
524.781	17.29
525.126	17.52
525.472	17.75
525.817	17.95
526.163	18.13
526.509	18.31
526.854	18.45
527.199	18.61
527.545	18.76
527.89	18.91
528.235	19.05
528.581	19.24
528.926	19.38
529.271	19.55
529.616	19.7
529.961	19.86
530.306	20.03
530.651	20.19
530.996	20.34
531.341	20.49
531.686	20.69
532.031	20.87
532.376	21.06
532.721	21.26
533.065	21.48
533.41	21.69
533.755	21.92
534.099	22.18
534.444	22.38
534.788	22.59
535.133	22.8
535.477	23.05
535.822	23.25
536.166	23.5
536.51	23.74
536.855	24.02
537.199	24.3
537.543	24.57
537.887	24.86
538.231	25.14
538.576	25.4
538.92	25.66
539.264	25.96
539.608	26.2
539.951	26.43
540.295	26.68
540.639	26.89
540.983	27.09
541.327	27.27
541.671	27.47
542.014	27.67
542.358	27.87
542.701	28.06
543.045	28.23
543.389	28.39
543.732	28.55
544.075	28.78
544.419	28.93
544.762	29.11
545.105	29.32
545.449	29.55
545.792	29.79
546.135	30.02
546.478	30.2
546.821	30.43
547.165	30.7
547.508	30.91
547.851	31.14
548.194	31.38
548.536	31.59
548.879	31.79
549.222	32.05
549.565	32.25
549.908	32.4
550.25	32.62
550.593	32.86
550.936	33.08
551.278	33.28
551.621	33.63
551.963	33.89
552.306	34.11
552.648	34.3
552.991	34.53
553.333	34.67
553.675	34.85
554.017	34.99
554.36	35.12
554.702	35.27
555.044	35.43
555.386	35.59
555.728	35.81
556.07	36.04
556.412	36.18
556.754	36.35
557.096	36.52
557.438	36.73
557.78	36.92
558.121	37.11
558.463	37.24
558.805	37.31
559.147	37.5
559.488	37.56
559.83	37.69
560.171	37.78
560.513	37.97
560.854	38.14
561.196	38.27
561.537	38.43
561.878	38.59
562.22	38.73
562.561	38.9
562.902	39.01
563.243	39.09
563.584	39.23
563.925	39.38
564.266	39.51
564.607	39.58
564.948	39.71
565.289	39.88
565.63	39.95
565.971	40.03
566.312	40.12
566.653	40.26
566.993	40.4
567.334	40.55
567.675	40.68
568.015	40.76
568.356	40.9
568.696	41.04
569.037	41.12
569.377	41.16
569.718	41.24
570.058	41.35
570.398	41.49
570.739	41.6
571.079	41.65
571.419	41.79
571.759	41.87
572.099	41.97
572.439	42.01
572.779	42.17
573.119	42.25
573.459	42.3
573.799	42.35
574.139	42.43
574.479	42.49
574.819	42.54
575.158	42.62
575.498	42.69
575.838	42.74
576.177	42.82
576.517	42.96
576.856	43.03
577.196	43.1
577.535	43.18
577.875	43.23
578.214	43.36
578.553	43.36
578.893	43.48
579.232	43.51
579.571	43.59
579.91	43.62
580.25	43.72
580.589	43.78
580.928	43.86
581.267	43.93
581.606	44
581.945	44.11
582.283	44.17
582.622	44.26
582.961	44.35
583.3	44.38
583.639	44.44
583.977	44.49
584.316	44.59
584.654	44.67
584.993	44.8
585.332	44.85
585.67	45.06
586.008	45.07
586.347	45.21
586.685	45.24
587.024	45.34
587.362	45.42
587.7	45.51
588.038	45.63
588.376	45.71
588.715	45.77
589.053	45.84
589.391	45.9
589.729	45.98
590.067	46
590.404	46.06
590.742	46.09
591.08	46.17
591.418	46.21
591.756	46.22
592.093	46.2
592.431	46.31
592.769	46.24
593.106	46.32
593.444	46.32
593.781	46.42
594.119	46.49
594.456	46.51
594.793	46.58
595.131	46.63
595.468	46.7
595.805	46.69
596.143	46.74
596.48	46.79
596.817	46.82
597.154	46.87
597.491	46.97
597.828	46.97
598.165	46.99
598.502	46.99
598.839	47.05
599.176	47.13
599.512	47.12
599.849	47.27
600.186	47.3
600.523	47.36
600.859	47.44
601.196	47.45
601.532	47.55
601.869	47.56
602.205	47.53
602.542	47.53
602.878	47.65
603.215	47.69
603.551	47.68
603.887	47.69
604.223	47.74
604.56	47.8
604.896	47.86
605.232	47.91
605.568	47.94
605.904	47.98
606.24	47.93
606.576	47.99
606.912	47.95
607.248	48.07
607.583	48.04
607.919	48
608.255	48.06
608.591	48.01
608.926	48.03
609.262	48.08
609.597	48.14
609.933	48.09
610.268	48.07
610.604	48.17
610.939	48.17
611.275	48.18
611.61	48.1
611.945	48.2
612.281	48.21
612.616	48.24
612.951	48.25
613.286	48.34
613.621	48.26
613.956	48.35
614.291	48.35
614.626	48.43
614.961	48.57
615.296	48.63
615.631	48.71
615.966	48.77
616.3	48.84
616.635	48.82
616.97	48.86
617.304	48.86
617.639	48.84
617.973	48.87
618.308	48.95
618.642	48.99
618.977	48.92
619.311	48.97
619.646	49.03
619.98	49.08
620.314	49.17
620.648	49.24
620.983	49.23
621.317	49.12
621.651	49.14
621.985	49.12
622.319	49
622.653	48.98
622.987	48.96
623.321	48.96
623.655	49.05
623.988	49.12
624.322	49.14
624.656	49.19
624.99	49.25
625.323	49.27
625.657	49.29
625.99	49.39
626.324	49.36
626.657	49.31
626.991	49.27
627.324	49.14
627.658	49.19
627.991	49.26
628.324	49.33
628.657	49.32
628.991	49.32
629.324	49.44
629.657	49.59
629.99	49.64
630.323	49.72
630.656	49.52
630.989	49.47
631.322	49.43
631.655	49.48
631.987	49.45
632.32	49.44
632.653	49.52
632.986	49.53
633.318	49.55
633.651	49.65
633.984	49.7
634.316	49.78
634.649	49.8
634.981	49.79
635.313	49.78
635.646	49.83
635.978	49.81
636.31	49.82
636.643	49.75
636.975	49.76
637.307	49.61
637.639	49.87
637.971	49.88
638.303	50.02
638.635	49.96
638.967	50.01
639.299	49.95
639.631	49.88
639.963	49.86
640.295	49.86
640.626	49.8
640.958	49.81
641.29	49.95
641.621	49.92
641.953	49.84
642.285	49.94
642.616	49.92
642.948	49.99
643.279	49.93
643.61	49.96
643.942	49.98
644.273	50.13
644.604	50.04
644.936	50.08
645.267	49.99
645.598	50.04
645.929	50.12
646.26	50.13
646.591	50.21
646.922	50.2
647.253	50.28
647.584	50.36
647.915	50.33
648.245	50.33
648.576	50.26
648.907	50.31
649.238	50.2
649.568	50.13
649.899	50.19
650.229	50.13
650.56	50.13
650.89	50.13
651.221	50.03
651.551	50.13
651.882	50.2
652.212	50.22
652.542	50.2
652.872	50.17
653.203	50.25
653.533	50.18
653.863	50.34
654.193	50.21
654.523	50.21
654.853	50.35
655.183	50.43
655.513	50.53
655.843	50.52
656.172	50.67
656.502	50.77
656.832	50.77
657.162	50.85
657.491	50.85
657.821	50.75
658.15	50.83
658.48	50.81
658.809	50.7
659.139	50.71
659.468	50.72
659.798	50.77
660.127	50.81
660.456	50.81
660.785	50.64
661.115	50.71
661.444	50.77
661.773	50.76
662.102	50.52
662.431	50.54
662.76	50.64
663.089	50.69
663.418	50.74
663.747	50.67
664.076	50.68
664.404	50.75
664.733	50.89
665.062	50.89
665.39	50.94
665.719	50.99
666.048	50.91
666.376	50.97
666.705	50.91
667.033	50.8
667.362	50.88
667.69	50.96
668.018	50.96
