Data from MVZ_BU8943_Reflection_00015.txt Node
Date: Tue Nov 19 12:09:29 EST 2019
User: vgr7
Spectrometer: USB2G7710
Scans to average: 3
Trigger mode: 4
Integration Time (sec): 2.000000E-2
Electric dark correction enabled: true
Boxcar width: 10
XAxis mode: Wavelengths
Number of Pixels in Spectrum: 2048
>>>>>Begin Spectral Data<<<<<
177.721	-276.01
178.105	-591.49
178.488	415.98
178.871	302.74
179.254	464.71
179.636	265.68
180.019	16.8
180.402	80
180.785	-84.42
181.168	-68.78
181.55	50.32
181.933	23.48
182.316	117.37
182.698	58100
183.081	-526.51
183.463	536.09
183.846	583.44
184.228	948.1
184.611	-102.33
184.993	-24.5
185.376	-44.46
185.758	-30.69
186.14	-40.4
186.522	-58.34
186.904	-40.93
187.287	-3.26
187.669	5.43
188.051	36.99
188.433	25.26
188.815	20.9
189.197	9.93
189.579	24.99
189.961	20.92
190.342	16
190.724	0.68
191.106	-11.54
191.488	1.24
191.869	16
192.251	18.9
192.633	30.16
193.014	15.19
193.396	15.41
193.777	24.03
194.159	16.58
194.54	28.33
194.922	29.4
195.303	20.86
195.684	117.7
196.065	136.5
196.447	-34900
196.828	-482.42
197.209	3747.06
197.59	-204.71
197.971	-281.47
198.352	-230.6
198.733	-603.52
199.114	-478.95
199.495	406.36
199.876	399.4
200.257	120.64
200.638	90.17
201.018	51.37
201.399	126.27
201.78	135.49
202.16	143.04
202.541	309.21
202.922	293.28
203.302	180.29
203.683	191.89
204.063	57.28
204.444	87.95
204.824	53.1
205.204	65.89
205.585	48.91
205.965	2.54
206.345	-3.73
206.725	32.97
207.106	91.35
207.486	94.9
207.866	116.69
208.246	106.18
208.626	50.22
209.006	153.36
209.386	30.17
209.766	12.09
210.145	58.72
210.525	-28.36
210.905	250.21
211.285	405.42
211.664	133.01
212.044	684.16
212.424	415.44
212.803	-278.09
213.183	-575.86
213.562	-493.1
213.942	-954.79
214.321	405.42
214.701	-1620.93
215.08	-2287.1
215.459	1100
215.838	-884.25
216.218	-143.33
216.597	-256.98
216.976	-243.16
217.355	-2440.98
217.734	2269.49
218.113	-639.64
218.492	10100
218.871	500
219.25	445.18
219.629	898.32
220.008	165.18
220.387	106.37
220.766	86.52
221.144	76.65
221.523	95.52
221.902	85.73
222.28	85.08
222.659	86.06
223.037	86.06
223.416	75.68
223.794	64.38
224.173	51.26
224.551	46.65
224.929	43.93
225.308	32.55
225.686	38.31
226.064	41.02
226.442	39.32
226.821	36.34
227.199	33.79
227.577	27.31
227.955	29.4
228.333	29.76
228.711	19.37
229.089	19.89
229.467	18.4
229.845	10.54
230.222	8.74
230.6	5.6
230.978	0.45
231.356	1.79
231.733	3.01
232.111	2.49
232.488	4.13
232.866	4.85
233.243	5.78
233.621	4.37
233.998	4.47
234.376	4.22
234.753	2.54
235.13	5.53
235.508	5.35
235.885	1.58
236.262	2.03
236.639	3.41
237.016	1.69
237.393	1.32
237.77	3.72
238.147	3.51
238.524	4.73
238.901	5.02
239.278	2.88
239.655	2.65
240.032	3.73
240.409	4.21
240.785	4.18
241.162	4.11
241.539	3.92
241.915	3.5
242.292	3.72
242.668	4.42
243.045	4.08
243.421	4.38
243.798	4.89
244.174	4.84
244.551	4.88
244.927	4.79
245.303	4.86
245.679	4.96
246.056	5.13
246.432	5.02
246.808	5.42
247.184	5.71
247.56	5.47
247.936	5.58
248.312	5.61
248.688	5.36
249.064	5.18
249.44	5.15
249.815	5.6
250.191	5.58
250.567	5.55
250.943	5.48
251.318	5.48
251.694	5.5
252.069	5.71
252.445	5.69
252.82	6.05
253.196	5.98
253.571	5.97
253.947	5.65
254.322	5.5
254.697	4.85
255.073	4.69
255.448	4.6
255.823	4.24
256.198	4.17
256.573	4.45
256.948	4.74
257.323	4.88
257.698	4.54
258.073	4.32
258.448	4.21
258.823	4
259.198	3.92
259.573	3.92
259.948	3.87
260.322	3.84
260.697	3.92
261.072	3.9
261.446	3.85
261.821	3.98
262.195	4.04
262.57	4.22
262.944	4.33
263.319	4.47
263.693	4.47
264.067	4.46
264.442	4.27
264.816	4.21
265.19	4.22
265.564	4.18
265.938	4.62
266.313	4.73
266.687	4.95
267.061	4.96
267.435	5.07
267.809	4.99
268.183	5
268.556	4.92
268.93	5.05
269.304	4.9
269.678	4.85
270.051	4.67
270.425	4.66
270.799	4.56
271.172	4.71
271.546	4.87
271.919	4.9
272.293	5.06
272.666	5.07
273.04	4.93
273.413	4.89
273.787	4.51
274.16	4.36
274.533	4.45
274.906	4.53
275.279	4.26
275.653	4.22
276.026	4.18
276.399	4.15
276.772	4.07
277.145	4.29
277.518	4.12
277.891	4.36
278.263	4.45
278.636	4.61
279.009	4.32
279.382	4.21
279.755	4.19
280.127	4.11
280.5	4.03
280.872	4.23
281.245	4.35
281.617	4.52
281.99	4.53
282.362	4.47
282.735	4.42
283.107	4.56
283.479	4.59
283.852	4.71
284.224	4.75
284.596	4.81
284.968	4.93
285.34	5.02
285.713	5.17
286.085	5.2
286.457	5.06
286.829	5.23
287.201	5.26
287.572	5.35
287.944	5.38
288.316	5.48
288.688	5.56
289.06	5.52
289.431	5.69
289.803	5.92
290.175	5.82
290.546	5.87
290.918	5.91
291.289	6.04
291.661	6.09
292.032	6.09
292.403	6.15
292.775	6.08
293.146	6.07
293.517	5.89
293.889	5.83
294.26	6.03
294.631	6.11
295.002	6.07
295.373	6.02
295.744	6.06
296.115	6.14
296.486	5.99
296.857	6.01
297.228	5.86
297.599	5.76
297.97	6.01
298.34	5.96
298.711	5.96
299.082	5.82
299.452	5.88
299.823	5.85
300.194	5.89
300.564	5.86
300.935	6.02
301.305	6.09
301.676	6.11
302.046	6.15
302.416	5.95
302.787	5.9
303.157	6.01
303.527	6.09
303.897	6.13
304.267	6.32
304.637	6.4
305.008	6.47
305.378	6.51
305.748	6.51
306.117	6.72
306.487	6.93
306.857	7.05
307.227	7
307.597	7.19
307.967	7.39
308.336	7.42
308.706	7.53
309.076	7.55
309.445	7.81
309.815	7.95
310.184	8.07
310.554	8.14
310.923	8.27
311.293	8.44
311.662	8.4
312.031	8.35
312.401	8.42
312.77	8.48
313.139	8.56
313.508	8.65
313.877	8.69
314.246	8.66
314.616	8.78
314.985	8.85
315.353	8.98
315.722	9.03
316.091	9.07
316.46	9.01
316.829	9.09
317.198	9.06
317.567	9.06
317.935	9.18
318.304	9.47
318.672	9.3
319.041	9.17
319.41	9.19
319.778	9.3
320.147	9.43
320.515	9.44
320.883	9.39
321.252	9.4
321.62	9.45
321.988	9.36
322.357	9.47
322.725	9.53
323.093	9.44
323.461	9.5
323.829	9.53
324.197	9.77
324.565	9.87
324.933	9.98
325.301	9.73
325.669	9.67
326.037	9.74
326.405	9.81
326.772	9.96
327.14	10.02
327.508	9.97
327.875	10
328.243	10.1
328.61	10.31
328.978	10.18
329.346	10.2
329.713	10.51
330.08	10.51
330.448	10.54
330.815	10.49
331.182	10.46
331.55	10.58
331.917	10.38
332.284	10.34
332.651	10.29
333.018	10.46
333.385	10.6
333.752	10.53
334.119	10.7
334.486	10.6
334.853	10.67
335.22	10.85
335.587	10.76
335.954	10.8
336.32	10.73
336.687	11.03
337.054	10.98
337.42	10.98
337.787	11.04
338.153	11.25
338.52	11.5
338.886	11.55
339.253	11.5
339.619	11.64
339.986	11.67
340.352	11.58
340.718	11.68
341.084	11.64
341.451	11.8
341.817	11.72
342.183	11.73
342.549	11.85
342.915	11.88
343.281	11.88
343.647	11.89
344.013	11.92
344.379	11.89
344.745	12.01
345.11	12.13
345.476	12.15
345.842	12.04
346.208	11.99
346.573	11.93
346.939	12.06
347.304	12.13
347.67	12.19
348.035	12.28
348.401	12.25
348.766	12.33
349.132	12.29
349.497	12.38
349.862	12.47
350.228	12.35
350.593	12.35
350.958	12.51
351.323	12.55
351.688	12.58
352.053	12.54
352.418	12.56
352.783	12.48
353.148	12.45
353.513	12.51
353.878	12.52
354.243	12.58
354.608	12.68
354.972	12.52
355.337	12.68
355.702	12.72
356.066	12.71
356.431	12.67
356.795	12.6
357.16	12.59
357.524	12.59
357.889	12.52
358.253	12.47
358.618	12.38
358.982	12.4
359.346	12.31
359.71	12.26
360.075	12.29
360.439	12.36
360.803	12.38
361.167	12.36
361.531	12.43
361.895	12.44
362.259	12.29
362.623	12.42
362.987	12.28
363.351	12.22
363.714	12.24
364.078	12.26
364.442	12.2
364.806	12.21
365.169	12.2
365.533	12.34
365.896	12.36
366.26	12.43
366.623	12.39
366.987	12.37
367.35	12.34
367.714	12.18
368.077	12.11
368.44	12.18
368.803	12.19
369.167	12.08
369.53	11.96
369.893	12.02
370.256	11.86
370.619	11.9
370.982	11.84
371.345	11.87
371.708	11.8
372.071	11.77
372.434	11.69
372.797	11.64
373.159	11.43
373.522	11.28
373.885	11.16
374.247	11.06
374.61	11.12
374.973	11.07
375.335	10.98
375.698	10.87
376.06	10.67
376.423	10.56
376.785	10.49
377.147	10.48
377.51	10.35
377.872	10.29
378.234	10.21
378.596	10.22
378.958	10.11
379.321	10.04
379.683	9.98
380.045	9.92
380.407	9.85
380.769	9.87
381.13	9.89
381.492	9.86
381.854	9.83
382.216	9.74
382.578	9.72
382.939	9.75
383.301	9.69
383.663	9.69
384.024	9.65
384.386	9.64
384.747	9.62
385.109	9.64
385.47	9.68
385.832	9.56
386.193	9.52
386.554	9.44
386.916	9.47
387.277	9.46
387.638	9.37
387.999	9.37
388.36	9.36
388.721	9.28
389.082	9.25
389.443	9.2
389.804	9.2
390.165	9.16
390.526	9.12
390.887	9.08
391.248	9.01
391.609	8.97
391.969	8.91
392.33	8.87
392.691	8.77
393.051	8.71
393.412	8.71
393.772	8.67
394.133	8.63
394.493	8.51
394.854	8.45
395.214	8.43
395.574	8.33
395.935	8.25
396.295	8.23
396.655	8.19
397.015	8.14
397.376	8.09
397.736	8.03
398.096	7.94
398.456	7.85
398.816	7.83
399.176	7.81
399.535	7.72
399.895	7.61
400.255	7.52
400.615	7.46
400.975	7.42
401.334	7.35
401.694	7.33
402.054	7.32
402.413	7.27
402.773	7.26
403.132	7.2
403.492	7.16
403.851	7.12
404.211	7.08
404.57	7.06
404.929	7.01
405.288	7
405.648	6.96
406.007	6.96
406.366	6.91
406.725	6.86
407.084	6.86
407.443	6.89
407.802	6.91
408.161	6.89
408.52	6.86
408.879	6.78
409.238	6.76
409.596	6.77
409.955	6.75
410.314	6.73
410.673	6.75
411.031	6.71
411.39	6.71
411.748	6.7
412.107	6.64
412.465	6.59
412.824	6.53
413.182	6.53
413.54	6.51
413.899	6.52
414.257	6.49
414.615	6.47
414.974	6.45
415.332	6.43
415.69	6.41
416.048	6.4
416.406	6.39
416.764	6.38
417.122	6.32
417.48	6.31
417.838	6.29
418.195	6.25
418.553	6.23
418.911	6.17
419.269	6.15
419.626	6.14
419.984	6.12
420.342	6.09
420.699	6.05
421.057	6.01
421.414	5.98
421.772	5.98
422.129	5.94
422.486	5.9
422.844	5.86
423.201	5.84
423.558	5.8
423.915	5.8
424.273	5.78
424.63	5.78
424.987	5.74
425.344	5.71
425.701	5.66
426.058	5.66
426.415	5.64
426.772	5.59
427.128	5.58
427.485	5.57
427.842	5.56
428.199	5.57
428.555	5.58
428.912	5.56
429.269	5.5
429.625	5.49
429.982	5.47
430.338	5.5
430.695	5.46
431.051	5.47
431.407	5.45
431.764	5.41
432.12	5.39
432.476	5.38
432.832	5.4
433.189	5.39
433.545	5.39
433.901	5.38
434.257	5.37
434.613	5.35
434.969	5.33
435.325	5.33
435.681	5.33
436.036	5.3
436.392	5.3
436.748	5.32
437.104	5.31
437.459	5.3
437.815	5.28
438.171	5.3
438.526	5.3
438.882	5.3
439.237	5.32
439.593	5.34
439.948	5.34
440.304	5.33
440.659	5.37
441.014	5.37
441.369	5.39
441.725	5.4
442.08	5.4
442.435	5.42
442.79	5.41
443.145	5.41
443.5	5.4
443.855	5.38
444.21	5.37
444.565	5.4
444.92	5.41
445.275	5.39
445.629	5.38
445.984	5.35
446.339	5.34
446.693	5.33
447.048	5.29
447.403	5.28
447.757	5.26
448.112	5.23
448.466	5.21
448.82	5.19
449.175	5.18
449.529	5.16
449.883	5.13
450.238	5.12
450.592	5.1
450.946	5.1
451.3	5.1
451.654	5.06
452.008	5.03
452.362	4.98
452.716	4.99
453.07	4.97
453.424	4.96
453.778	4.96
454.132	4.93
454.486	4.93
454.839	4.93
455.193	4.95
455.547	4.96
455.9	4.96
456.254	4.96
456.607	4.95
456.961	4.95
457.314	4.93
457.668	4.93
458.021	4.92
458.375	4.89
458.728	4.9
459.081	4.92
459.434	4.92
459.787	4.94
460.141	4.95
460.494	4.97
460.847	4.97
461.2	4.97
461.553	4.99
461.906	5.01
462.259	5
462.611	5
462.964	5.01
463.317	5.03
463.67	5.04
464.022	5.06
464.375	5.08
464.728	5.1
465.08	5.1
465.433	5.12
465.785	5.18
466.138	5.19
466.49	5.22
466.843	5.25
467.195	5.25
467.547	5.27
467.899	5.27
468.252	5.3
468.604	5.34
468.956	5.37
469.308	5.38
469.66	5.42
470.012	5.44
470.364	5.44
470.716	5.46
471.068	5.49
471.42	5.51
471.772	5.54
472.123	5.56
472.475	5.62
472.827	5.64
473.178	5.66
473.53	5.69
473.882	5.72
474.233	5.74
474.585	5.78
474.936	5.79
475.288	5.82
475.639	5.83
475.99	5.82
476.342	5.81
476.693	5.81
477.044	5.82
477.395	5.81
477.746	5.8
478.097	5.77
478.448	5.75
478.8	5.74
479.15	5.72
479.501	5.71
479.852	5.69
480.203	5.69
480.554	5.69
480.905	5.69
481.255	5.68
481.606	5.67
481.957	5.66
482.307	5.65
482.658	5.64
483.009	5.64
483.359	5.64
483.709	5.63
484.06	5.64
484.41	5.63
484.761	5.65
485.111	5.64
485.461	5.64
485.811	5.64
486.162	5.64
486.512	5.63
486.862	5.63
487.212	5.62
487.562	5.6
487.912	5.6
488.262	5.58
488.612	5.57
488.961	5.56
489.311	5.54
489.661	5.55
490.011	5.54
490.36	5.52
490.71	5.53
491.06	5.52
491.409	5.52
491.759	5.53
492.108	5.51
492.458	5.53
492.807	5.54
493.157	5.57
493.506	5.57
493.855	5.59
494.204	5.64
494.554	5.7
494.903	5.73
495.252	5.75
495.601	5.79
495.95	5.85
496.299	5.87
496.648	5.94
496.997	5.97
497.346	6.05
497.695	6.12
498.043	6.17
498.392	6.23
498.741	6.28
499.09	6.33
499.438	6.39
499.787	6.44
500.135	6.52
500.484	6.57
500.832	6.65
501.181	6.74
501.529	6.8
501.878	6.88
502.226	6.98
502.574	7.1
502.923	7.18
503.271	7.3
503.619	7.45
503.967	7.54
504.315	7.67
504.663	7.79
505.011	7.91
505.359	8.01
505.707	8.13
506.055	8.28
506.403	8.42
506.751	8.58
507.098	8.76
507.446	8.9
507.794	9.08
508.141	9.24
508.489	9.38
508.837	9.52
509.184	9.65
509.531	9.8
509.879	9.93
510.226	10.1
510.574	10.24
510.921	10.36
511.268	10.55
511.616	10.7
511.963	10.88
512.31	11.05
512.657	11.23
513.004	11.43
513.351	11.62
513.698	11.8
514.045	11.99
514.392	12.18
514.739	12.39
515.086	12.57
515.432	12.77
515.779	12.97
516.126	13.18
516.473	13.39
516.819	13.61
517.166	13.83
517.512	14.02
517.859	14.21
518.205	14.41
518.552	14.57
518.898	14.74
519.245	14.91
519.591	15.12
519.937	15.32
520.283	15.52
520.629	15.7
520.976	15.92
521.322	16.15
521.668	16.36
522.014	16.59
522.36	16.83
522.706	17.08
523.052	17.34
523.398	17.62
523.743	17.85
524.089	18.11
524.435	18.35
524.781	18.6
525.126	18.8
525.472	18.99
525.817	19.18
526.163	19.35
526.509	19.49
526.854	19.64
527.199	19.77
527.545	19.88
527.89	20.03
528.235	20.18
528.581	20.33
528.926	20.48
529.271	20.64
529.616	20.8
529.961	20.93
530.306	21.09
530.651	21.25
530.996	21.43
531.341	21.61
531.686	21.79
532.031	21.99
532.376	22.2
532.721	22.39
533.065	22.62
533.41	22.86
533.755	23.09
534.099	23.3
534.444	23.53
534.788	23.78
535.133	24.01
535.477	24.25
535.822	24.46
536.166	24.72
536.51	24.97
536.855	25.22
537.199	25.52
537.543	25.81
537.887	26.11
538.231	26.42
538.576	26.71
538.92	26.97
539.264	27.24
539.608	27.49
539.951	27.78
540.295	27.99
540.639	28.21
540.983	28.45
541.327	28.69
541.671	28.92
542.014	29.16
542.358	29.33
542.701	29.54
543.045	29.77
543.389	29.98
543.732	30.19
544.075	30.47
544.419	30.68
544.762	30.92
545.105	31.15
545.449	31.38
545.792	31.67
546.135	32
546.478	32.27
546.821	32.61
547.165	32.92
547.508	33.22
547.851	33.55
548.194	33.85
548.536	34.18
548.879	34.47
549.222	34.76
549.565	35.12
549.908	35.39
550.25	35.69
550.593	36.03
550.936	36.35
551.278	36.66
551.621	36.99
551.963	37.3
552.306	37.59
552.648	37.86
552.991	38.12
553.333	38.34
553.675	38.61
554.017	38.81
554.36	38.98
554.702	39.21
555.044	39.42
555.386	39.69
555.728	39.88
556.07	40.1
556.412	40.33
556.754	40.58
557.096	40.83
557.438	41.15
557.78	41.4
558.121	41.66
558.463	41.88
558.805	42.16
559.147	42.45
559.488	42.67
559.83	42.88
560.171	43.14
560.513	43.4
560.854	43.63
561.196	43.82
561.537	44.11
561.878	44.4
562.22	44.62
562.561	44.75
562.902	45.03
563.243	45.3
563.584	45.57
563.925	45.75
564.266	45.97
564.607	46.08
564.948	46.17
565.289	46.27
565.63	46.35
565.971	46.51
566.312	46.6
566.653	46.82
566.993	47.05
567.334	47.26
567.675	47.44
568.015	47.56
568.356	47.76
568.696	47.88
569.037	48.02
569.377	48.14
569.718	48.34
570.058	48.48
570.398	48.56
570.739	48.66
571.079	48.83
571.419	48.91
571.759	49.13
572.099	49.28
572.439	49.43
572.779	49.62
573.119	49.73
573.459	49.89
573.799	49.95
574.139	50.03
574.479	50.05
574.819	50.18
575.158	50.29
575.498	50.37
575.838	50.54
576.177	50.62
576.517	50.84
576.856	50.99
577.196	51.07
577.535	51.2
577.875	51.37
578.214	51.49
578.553	51.65
578.893	51.8
579.232	51.97
579.571	52.14
579.91	52.2
580.25	52.3
580.589	52.37
580.928	52.55
581.267	52.69
581.606	52.72
581.945	52.83
582.283	52.93
582.622	53.04
582.961	53.06
583.3	53.22
583.639	53.26
583.977	53.28
584.316	53.36
584.654	53.48
584.993	53.48
585.332	53.54
585.67	53.62
586.008	53.56
586.347	53.6
586.685	53.65
587.024	53.72
587.362	53.76
587.7	53.8
588.038	53.76
588.376	53.86
588.715	53.98
589.053	53.98
589.391	54.12
589.729	54.26
590.067	54.34
590.404	54.38
590.742	54.44
591.08	54.55
591.418	54.58
591.756	54.64
592.093	54.76
592.431	54.83
592.769	54.93
593.106	54.99
593.444	55.01
593.781	55.04
594.119	55.18
594.456	55.28
594.793	55.33
595.131	55.46
595.468	55.47
595.805	55.57
596.143	55.61
596.48	55.62
596.817	55.65
597.154	55.67
597.491	55.68
597.828	55.71
598.165	55.65
598.502	55.71
598.839	55.73
599.176	55.8
599.512	55.8
599.849	55.82
600.186	55.9
600.523	55.97
600.859	56.03
601.196	55.98
601.532	56
601.869	56.03
602.205	56.02
602.542	56.05
602.878	56.16
603.215	56.26
603.551	56.19
603.887	56.17
604.223	56.23
604.56	56.36
604.896	56.4
605.232	56.53
605.568	56.6
605.904	56.63
606.24	56.62
606.576	56.66
606.912	56.69
607.248	56.75
607.583	56.82
607.919	56.91
608.255	56.96
608.591	56.95
608.926	57.02
609.262	57.09
609.597	57.07
609.933	57.02
610.268	56.97
610.604	57.12
610.939	57.21
611.275	57.21
611.61	57.22
611.945	57.17
612.281	57.15
612.616	57.18
612.951	57.3
613.286	57.35
613.621	57.41
613.956	57.41
614.291	57.48
614.626	57.57
614.961	57.45
615.296	57.43
615.631	57.45
615.966	57.48
616.3	57.49
616.635	57.54
616.97	57.47
617.304	57.56
617.639	57.62
617.973	57.69
618.308	57.72
618.642	57.7
618.977	57.77
619.311	57.83
619.646	57.91
619.98	57.84
620.314	57.78
620.648	57.84
620.983	57.83
621.317	57.8
621.651	57.76
621.985	57.85
622.319	57.94
622.653	58.09
622.987	58.1
623.321	58.18
623.655	58.16
623.988	58.31
624.322	58.29
624.656	58.27
624.99	58.24
625.323	58.31
625.657	58.36
625.99	58.41
626.324	58.45
626.657	58.41
626.991	58.41
627.324	58.47
627.658	58.47
627.991	58.52
628.324	58.53
628.657	58.55
628.991	58.58
629.324	58.65
629.657	58.65
629.99	58.73
630.323	58.85
630.656	58.88
630.989	58.83
631.322	58.81
631.655	58.85
631.987	58.81
632.32	58.75
632.653	58.74
632.986	58.75
633.318	58.77
633.651	58.82
633.984	58.91
634.316	58.88
634.649	58.91
634.981	58.99
635.313	59.08
635.646	59.06
635.978	59.1
636.31	59.14
636.643	59.18
636.975	59.2
637.307	59.03
637.639	59.09
637.971	59.09
638.303	59.23
638.635	59.25
638.967	59.26
639.299	59.3
639.631	59.28
639.963	59.29
640.295	59.26
640.626	59.13
640.958	59.09
641.29	59.12
641.621	59.13
641.953	59.15
642.285	59.23
642.616	59.26
642.948	59.25
643.279	59.1
643.61	59.01
643.942	58.98
644.273	59.03
644.604	59.18
644.936	59.34
645.267	59.32
645.598	59.3
645.929	59.32
646.26	59.24
646.591	59.25
646.922	59.24
647.253	59.36
647.584	59.51
647.915	59.44
648.245	59.38
648.576	59.42
648.907	59.43
649.238	59.34
649.568	59.33
649.899	59.37
650.229	59.5
650.56	59.66
650.89	59.72
651.221	59.67
651.551	59.54
651.882	59.5
652.212	59.49
652.542	59.38
652.872	59.49
653.203	59.59
653.533	59.64
653.863	59.79
654.193	59.73
654.523	59.71
654.853	59.91
655.183	60.09
655.513	60.1
655.843	60.02
656.172	60.1
656.502	60.21
656.832	60.25
657.162	60.2
657.491	60.13
657.821	60.11
658.15	60.22
658.48	60.3
658.809	60.29
659.139	60.29
659.468	60.5
659.798	60.44
660.127	60.52
660.456	60.52
660.785	60.57
661.115	60.67
661.444	60.64
661.773	60.56
662.102	60.47
662.431	60.39
662.76	60.4
663.089	60.37
663.418	60.36
663.747	60.38
664.076	60.32
664.404	60.33
