Data from MVZ_BU8940_Reflection_00008.txt Node
Date: Tue Nov 19 12:16:32 EST 2019
User: vgr7
Spectrometer: USB2G7710
Scans to average: 3
Trigger mode: 4
Integration Time (sec): 2.000000E-2
Electric dark correction enabled: true
Boxcar width: 10
XAxis mode: Wavelengths
Number of Pixels in Spectrum: 2048
>>>>>Begin Spectral Data<<<<<
177.721	-341.02
178.105	-184.09
178.488	-359.39
178.871	-396.43
179.254	-204.88
179.636	600
180.019	183.82
180.402	-260
180.785	-3720
181.168	-112.87
181.55	133.68
181.933	52.91
182.316	145.19
182.698	37.05
183.081	-29.69
183.463	-50.57
183.846	-89.86
184.228	-51.21
184.611	-103.28
184.993	-151.26
185.376	-122.7
185.758	-214.53
186.14	-151.4
186.522	-440.2
186.904	-548.57
187.287	-333.53
187.669	-355.93
188.051	-205.23
188.433	-296.68
188.815	-157.79
189.197	-308.79
189.579	-2643.24
189.961	234.56
190.342	700.67
190.724	-490.91
191.106	-5557.89
191.488	3082.76
191.869	-95400
192.251	-5861.54
192.633	-795.35
193.014	-202.14
193.396	-152.44
193.777	-940.54
194.159	-691.14
194.54	-250.39
194.922	-75.19
195.303	-31.86
195.684	16.86
196.065	30.83
196.447	19.96
196.828	34.9
197.209	142.6
197.59	68.63
197.971	54.55
198.352	39.43
198.733	49.83
199.114	154.77
199.495	-737.35
199.876	745.63
200.257	370.7
200.638	239.58
201.018	390.7
201.399	-637.76
201.78	-490.91
202.16	-778.38
202.541	2665.57
202.922	-1759.55
203.302	-614.01
203.683	-534.55
204.063	-1610.53
204.444	-1568.32
204.824	1623.53
205.204	11907.69
205.585	4567.74
205.965	-2145.76
206.345	-783.23
206.725	-1152.48
207.106	-310.86
207.486	573.91
207.866	-2606.9
208.246	-253.56
208.626	-168.47
209.006	-79.58
209.386	-248.61
209.766	-1885.71
210.145	7457.14
210.525	-1542.86
210.905	-288.41
211.285	-111.06
211.664	-77.06
212.044	-38.63
212.424	-13.93
212.803	-53.47
213.183	-118.03
213.562	-46.15
213.942	-83.17
214.321	-79.96
214.701	-122.28
215.08	-120.13
215.459	-88.96
215.838	-88.69
216.218	-126.78
216.597	-105.15
216.976	-207.11
217.355	-143.73
217.734	600
218.113	1231.58
218.492	111.31
218.871	279.07
219.25	-795.35
219.629	-19.83
220.008	-139.34
220.387	-247.06
220.766	214.79
221.144	216.9
221.523	89.57
221.902	158.48
222.28	260.87
222.659	181.14
223.037	186.48
223.416	191.49
223.794	118.15
224.173	96.58
224.551	83.81
224.929	73.89
225.308	68.6
225.686	50.11
226.064	44.2
226.442	33.29
226.821	24.16
227.199	25.34
227.577	30.53
227.955	22.56
228.333	19.65
228.711	18.56
229.089	13.9
229.467	17.41
229.845	10.81
230.222	6.36
230.6	2.76
230.978	2.95
231.356	0.74
231.733	0.57
232.111	-0.29
232.488	-2.11
232.866	3.44
233.243	4.56
233.621	4.91
233.998	5.26
234.376	6.53
234.753	7.11
235.13	8.59
235.508	6.82
235.885	7.66
236.262	8.74
236.639	7.36
237.016	7.03
237.393	6.42
237.77	7.92
238.147	7.7
238.524	7
238.901	5.36
239.278	3.97
239.655	4.18
240.032	4.47
240.409	5.16
240.785	4.67
241.162	4.64
241.539	4.66
241.915	4.85
242.292	4.93
242.668	5.36
243.045	5.15
243.421	5.68
243.798	5.42
244.174	5.5
244.551	5.33
244.927	5.25
245.303	5.09
245.679	4.94
246.056	4.93
246.432	5.05
246.808	5.27
247.184	5.57
247.56	5.52
247.936	5.52
248.312	5.37
248.688	5.37
249.064	5.31
249.44	5.07
249.815	5.04
250.191	4.87
250.567	4.69
250.943	4.39
251.318	3.98
251.694	4.12
252.069	4.06
252.445	4.34
252.82	4.46
253.196	4.59
253.571	4.36
253.947	4.31
254.322	4.4
254.697	4.38
255.073	4.26
255.448	4.19
255.823	4.42
256.198	4.31
256.573	4.27
256.948	4.33
257.323	4.5
257.698	4.39
258.073	4.49
258.448	4.56
258.823	4.64
259.198	4.97
259.573	4.8
259.948	4.75
260.322	4.52
260.697	4.52
261.072	4.58
261.446	4.69
261.821	4.55
262.195	4.36
262.57	4.43
262.944	4.44
263.319	4.51
263.693	4.47
264.067	4.53
264.442	4.33
264.816	4.14
265.19	4.12
265.564	4.01
265.938	3.77
266.313	3.38
266.687	3.45
267.061	3.37
267.435	3.55
267.809	3.32
268.183	3.59
268.556	3.7
268.93	3.54
269.304	3.41
269.678	3.65
270.051	3.81
270.425	3.62
270.799	3.55
271.172	3.7
271.546	3.83
271.919	3.71
272.293	3.81
272.666	3.9
273.04	3.81
273.413	3.98
273.787	4.17
274.16	4.3
274.533	4.13
274.906	3.88
275.279	3.79
275.653	3.91
276.026	3.88
276.399	3.98
276.772	4.07
277.145	4.23
277.518	4.35
277.891	4.25
278.263	4.24
278.636	4.5
279.009	4.37
279.382	4.18
279.755	4.4
280.127	4.55
280.5	4.39
280.872	4.61
281.245	4.37
281.617	4.5
281.99	4.58
282.362	4.65
282.735	4.73
283.107	4.67
283.479	4.68
283.852	4.51
284.224	4.44
284.596	4.38
284.968	4.39
285.34	4.23
285.713	4.46
286.085	4.54
286.457	4.45
286.829	4.52
287.201	4.7
287.572	4.79
287.944	4.78
288.316	4.85
288.688	4.84
289.06	4.97
289.431	4.94
289.803	5.01
290.175	5.06
290.546	5.05
290.918	5.03
291.289	4.99
291.661	5.14
292.032	5.04
292.403	5.16
292.775	5.15
293.146	5.08
293.517	4.9
293.889	4.96
294.26	4.94
294.631	4.98
295.002	4.83
295.373	4.75
295.744	4.91
296.115	4.95
296.486	4.94
296.857	4.99
297.228	4.84
297.599	4.74
297.97	4.77
298.34	4.68
298.711	4.85
299.082	4.97
299.452	4.95
299.823	4.94
300.194	5.01
300.564	4.9
300.935	5.13
301.305	5.28
301.676	5.14
302.046	5.08
302.416	4.95
302.787	5
303.157	4.97
303.527	4.95
303.897	5.1
304.267	5.11
304.637	5.12
305.008	5.35
305.378	5.5
305.748	5.4
306.117	5.55
306.487	5.47
306.857	5.4
307.227	5.39
307.597	5.58
307.967	5.45
308.336	5.69
308.706	5.59
309.076	5.56
309.445	5.74
309.815	5.96
310.184	6.04
310.554	5.96
310.923	6.04
311.293	5.98
311.662	5.99
312.031	6.09
312.401	6.05
312.77	5.9
313.139	5.92
313.508	6.1
313.877	6.2
314.246	6.45
314.616	6.6
314.985	6.63
315.353	6.54
315.722	6.72
316.091	6.69
316.46	6.72
316.829	6.75
317.198	6.74
317.567	6.68
317.935	6.69
318.304	7.01
318.672	7.14
319.041	7.01
319.41	7.04
319.778	7.02
320.147	7.2
320.515	7.3
320.883	7.26
321.252	7.23
321.62	7.13
321.988	6.89
322.357	6.89
322.725	6.99
323.093	7.06
323.461	7.1
323.829	7.21
324.197	7.22
324.565	7.24
324.933	7.34
325.301	7.12
325.669	7.1
326.037	6.96
326.405	6.97
326.772	7.04
327.14	6.91
327.508	6.89
327.875	6.88
328.243	6.87
328.61	6.83
328.978	6.81
329.346	6.91
329.713	7.04
330.08	7.13
330.448	7.09
330.815	7.23
331.182	7.22
331.55	7.11
331.917	7.15
332.284	7.23
332.651	7.25
333.018	7.43
333.385	7.51
333.752	7.46
334.119	7.41
334.486	7.5
334.853	7.55
335.22	7.52
335.587	7.62
335.954	7.7
336.32	7.84
336.687	7.84
337.054	7.75
337.42	7.82
337.787	7.67
338.153	7.84
338.52	7.74
338.886	7.67
339.253	7.74
339.619	7.87
339.986	7.8
340.352	7.86
340.718	8.09
341.084	8.27
341.451	8.35
341.817	8.41
342.183	8.34
342.549	8.41
342.915	8.47
343.281	8.41
343.647	8.53
344.013	8.5
344.379	8.61
344.745	8.74
345.11	8.65
345.476	8.58
345.842	8.48
346.208	8.46
346.573	8.45
346.939	8.5
347.304	8.43
347.67	8.37
348.035	8.3
348.401	8.27
348.766	8.18
349.132	8.27
349.497	8.28
349.862	8.32
350.228	8.4
350.593	8.45
350.958	8.56
351.323	8.4
351.688	8.51
352.053	8.44
352.418	8.44
352.783	8.42
353.148	8.65
353.513	8.72
353.878	8.8
354.243	8.79
354.608	8.82
354.972	8.89
355.337	8.98
355.702	8.94
356.066	8.87
356.431	8.88
356.795	8.89
357.16	8.82
357.524	8.85
357.889	8.73
358.253	8.68
358.618	8.59
358.982	8.63
359.346	8.58
359.71	8.61
360.075	8.54
360.439	8.65
360.803	8.63
361.167	8.61
361.531	8.56
361.895	8.59
362.259	8.56
362.623	8.5
362.987	8.47
363.351	8.42
363.714	8.46
364.078	8.44
364.442	8.34
364.806	8.42
365.169	8.44
365.533	8.4
365.896	8.38
366.26	8.31
366.623	8.24
366.987	8.24
367.35	8.24
367.714	8.3
368.077	8.26
368.44	8.18
368.803	8.17
369.167	8.11
369.53	8.14
369.893	8.14
370.256	8.13
370.619	8.14
370.982	8.19
371.345	8.13
371.708	8.15
372.071	8.14
372.434	8.05
372.797	8.01
373.159	8.04
373.522	8.07
373.885	8.08
374.247	8.07
374.61	8.01
374.973	7.96
375.335	7.93
375.698	7.82
376.06	7.77
376.423	7.78
376.785	7.8
377.147	7.77
377.51	7.7
377.872	7.71
378.234	7.65
378.596	7.65
378.958	7.63
379.321	7.55
379.683	7.55
380.045	7.48
380.407	7.4
380.769	7.35
381.13	7.23
381.492	7.21
381.854	7.27
382.216	7.29
382.578	7.31
382.939	7.25
383.301	7.23
383.663	7.18
384.024	7.12
384.386	7.11
384.747	7.05
385.109	7.03
385.47	7
385.832	6.97
386.193	6.98
386.554	6.91
386.916	6.94
387.277	6.92
387.638	6.92
387.999	6.89
388.36	6.89
388.721	6.88
389.082	6.92
389.443	6.88
389.804	6.83
390.165	6.77
390.526	6.78
390.887	6.75
391.248	6.73
391.609	6.74
391.969	6.7
392.33	6.67
392.691	6.7
393.051	6.69
393.412	6.7
393.772	6.7
394.133	6.72
394.493	6.66
394.854	6.65
395.214	6.66
395.574	6.65
395.935	6.6
396.295	6.66
396.655	6.62
397.015	6.57
397.376	6.51
397.736	6.46
398.096	6.44
398.456	6.44
398.816	6.46
399.176	6.38
399.535	6.35
399.895	6.35
400.255	6.3
400.615	6.26
400.975	6.26
401.334	6.17
401.694	6.15
402.054	6.13
402.413	6.06
402.773	6.04
403.132	6.01
403.492	6.03
403.851	5.99
404.211	5.93
404.57	5.88
404.929	5.9
405.288	5.95
405.648	5.91
406.007	5.89
406.366	5.85
406.725	5.88
407.084	5.84
407.443	5.86
407.802	5.82
408.161	5.82
408.52	5.79
408.879	5.81
409.238	5.79
409.596	5.74
409.955	5.79
410.314	5.76
410.673	5.75
411.031	5.71
411.39	5.68
411.748	5.69
412.107	5.67
412.465	5.66
412.824	5.6
413.182	5.61
413.54	5.62
413.899	5.65
414.257	5.61
414.615	5.64
414.974	5.63
415.332	5.61
415.69	5.61
416.048	5.57
416.406	5.52
416.764	5.49
417.122	5.47
417.48	5.47
417.838	5.47
418.195	5.47
418.553	5.47
418.911	5.47
419.269	5.47
419.626	5.49
419.984	5.47
420.342	5.48
420.699	5.47
421.057	5.46
421.414	5.44
421.772	5.45
422.129	5.42
422.486	5.37
422.844	5.37
423.201	5.33
423.558	5.34
423.915	5.34
424.273	5.35
424.63	5.36
424.987	5.37
425.344	5.33
425.701	5.3
426.058	5.28
426.415	5.27
426.772	5.27
427.128	5.26
427.485	5.26
427.842	5.23
428.199	5.21
428.555	5.2
428.912	5.18
429.269	5.16
429.625	5.15
429.982	5.17
430.338	5.19
430.695	5.21
431.051	5.2
431.407	5.18
431.764	5.17
432.12	5.19
432.476	5.17
432.832	5.2
433.189	5.23
433.545	5.25
433.901	5.24
434.257	5.24
434.613	5.22
434.969	5.22
435.325	5.24
435.681	5.24
436.036	5.23
436.392	5.24
436.748	5.22
437.104	5.23
437.459	5.22
437.815	5.22
438.171	5.22
438.526	5.23
438.882	5.26
439.237	5.27
439.593	5.26
439.948	5.26
440.304	5.26
440.659	5.28
441.014	5.28
441.369	5.26
441.725	5.27
442.08	5.29
442.435	5.31
442.79	5.3
443.145	5.29
443.5	5.29
443.855	5.27
444.21	5.27
444.565	5.28
444.92	5.31
445.275	5.29
445.629	5.26
445.984	5.24
446.339	5.23
446.693	5.21
447.048	5.19
447.403	5.17
447.757	5.17
448.112	5.15
448.466	5.13
448.82	5.13
449.175	5.1
449.529	5.1
449.883	5.07
450.238	5.06
450.592	5.06
450.946	5.04
451.3	5.05
451.654	5.06
452.008	5.02
452.362	4.98
452.716	4.97
453.07	5
453.424	5
453.778	4.98
454.132	4.98
454.486	5
454.839	5.01
455.193	5
455.547	5.01
455.9	5.02
456.254	5.04
456.607	5.05
456.961	5.05
457.314	5.07
457.668	5.07
458.021	5.08
458.375	5.11
458.728	5.11
459.081	5.13
459.434	5.13
459.787	5.16
460.141	5.18
460.494	5.18
460.847	5.19
461.2	5.21
461.553	5.21
461.906	5.22
462.259	5.22
462.611	5.24
462.964	5.25
463.317	5.24
463.67	5.24
464.022	5.23
464.375	5.24
464.728	5.24
465.08	5.24
465.433	5.26
465.785	5.25
466.138	5.26
466.49	5.25
466.843	5.29
467.195	5.31
467.547	5.31
467.899	5.33
468.252	5.37
468.604	5.38
468.956	5.41
469.308	5.43
469.66	5.45
470.012	5.45
470.364	5.47
470.716	5.49
471.068	5.52
471.42	5.57
471.772	5.58
472.123	5.58
472.475	5.61
472.827	5.63
473.178	5.63
473.53	5.62
473.882	5.65
474.233	5.62
474.585	5.63
474.936	5.61
475.288	5.61
475.639	5.59
475.99	5.59
476.342	5.59
476.693	5.55
477.044	5.57
477.395	5.59
477.746	5.57
478.097	5.57
478.448	5.54
478.8	5.51
479.15	5.5
479.501	5.49
479.852	5.46
480.203	5.45
480.554	5.47
480.905	5.48
481.255	5.47
481.606	5.48
481.957	5.48
482.307	5.47
482.658	5.48
483.009	5.48
483.359	5.49
483.709	5.49
484.06	5.5
484.41	5.5
484.761	5.5
485.111	5.51
485.461	5.51
485.811	5.52
486.162	5.52
486.512	5.53
486.862	5.54
487.212	5.55
487.562	5.55
487.912	5.55
488.262	5.54
488.612	5.55
488.961	5.56
489.311	5.55
489.661	5.56
490.011	5.56
490.36	5.56
490.71	5.56
491.06	5.57
491.409	5.57
491.759	5.57
492.108	5.57
492.458	5.57
492.807	5.59
493.157	5.61
493.506	5.64
493.855	5.64
494.204	5.64
494.554	5.67
494.903	5.7
495.252	5.72
495.601	5.75
495.95	5.8
496.299	5.82
496.648	5.88
496.997	5.93
497.346	5.97
497.695	5.99
498.043	6.05
498.392	6.09
498.741	6.14
499.09	6.2
499.438	6.26
499.787	6.3
500.135	6.33
500.484	6.38
500.832	6.43
501.181	6.5
501.529	6.57
501.878	6.62
502.226	6.68
502.574	6.75
502.923	6.83
503.271	6.92
503.619	7.01
503.967	7.09
504.315	7.18
504.663	7.26
505.011	7.36
505.359	7.44
505.707	7.54
506.055	7.63
506.403	7.73
506.751	7.83
507.098	7.93
507.446	8.04
507.794	8.17
508.141	8.28
508.489	8.4
508.837	8.51
509.184	8.62
509.531	8.73
509.879	8.86
510.226	8.98
510.574	9.09
510.921	9.2
511.268	9.33
511.616	9.46
511.963	9.61
512.31	9.77
512.657	9.93
513.004	10.06
513.351	10.21
513.698	10.37
514.045	10.55
514.392	10.71
514.739	10.91
515.086	11.06
515.432	11.22
515.779	11.39
516.126	11.58
516.473	11.78
516.819	11.95
517.166	12.12
517.512	12.26
517.859	12.41
518.205	12.55
518.552	12.66
518.898	12.8
519.245	12.94
519.591	13.1
519.937	13.22
520.283	13.39
520.629	13.57
520.976	13.73
521.322	13.87
521.668	14.06
522.014	14.25
522.36	14.44
522.706	14.63
523.052	14.85
523.398	15.05
523.743	15.25
524.089	15.48
524.435	15.66
524.781	15.88
525.126	16.06
525.472	16.25
525.817	16.43
526.163	16.62
526.509	16.77
526.854	16.9
527.199	17.06
527.545	17.21
527.89	17.34
528.235	17.47
528.581	17.61
528.926	17.76
529.271	17.87
529.616	18.01
529.961	18.16
530.306	18.29
530.651	18.42
530.996	18.6
531.341	18.75
531.686	18.92
532.031	19.09
532.376	19.28
532.721	19.47
533.065	19.66
533.41	19.82
533.755	20.03
534.099	20.23
534.444	20.41
534.788	20.61
535.133	20.79
535.477	20.99
535.822	21.19
536.166	21.41
536.51	21.65
536.855	21.86
537.199	22.11
537.543	22.37
537.887	22.67
538.231	22.92
538.576	23.16
538.92	23.43
539.264	23.7
539.608	23.93
539.951	24.13
540.295	24.37
540.639	24.58
540.983	24.79
541.327	25
541.671	25.2
542.014	25.38
542.358	25.57
542.701	25.77
543.045	25.96
543.389	26.13
543.732	26.32
544.075	26.52
544.419	26.73
544.762	26.95
545.105	27.15
545.449	27.39
545.792	27.64
546.135	27.87
546.478	28.11
546.821	28.38
547.165	28.64
547.508	28.91
547.851	29.13
548.194	29.34
548.536	29.53
548.879	29.75
549.222	29.99
549.565	30.25
549.908	30.48
550.25	30.7
550.593	30.98
550.936	31.24
551.278	31.48
551.621	31.74
551.963	31.98
552.306	32.24
552.648	32.48
552.991	32.7
553.333	32.92
553.675	33.04
554.017	33.24
554.36	33.44
554.702	33.58
555.044	33.83
555.386	34.08
555.728	34.29
556.07	34.55
556.412	34.73
556.754	34.85
557.096	35.08
557.438	35.33
557.78	35.47
558.121	35.67
558.463	35.87
558.805	36.09
559.147	36.28
559.488	36.44
559.83	36.61
560.171	36.75
560.513	36.98
560.854	37.24
561.196	37.36
561.537	37.53
561.878	37.72
562.22	37.91
562.561	38.03
562.902	38.24
563.243	38.37
563.584	38.57
563.925	38.76
564.266	38.87
564.607	39
564.948	39.11
565.289	39.25
565.63	39.42
565.971	39.49
566.312	39.67
566.653	39.8
566.993	39.92
567.334	40.05
567.675	40.15
568.015	40.28
568.356	40.41
568.696	40.57
569.037	40.65
569.377	40.77
569.718	40.89
570.058	41.03
570.398	41.12
570.739	41.21
571.079	41.35
571.419	41.49
571.759	41.6
572.099	41.77
572.439	41.85
572.779	41.94
573.119	42.09
573.459	42.1
573.799	42.17
574.139	42.28
574.479	42.35
574.819	42.41
575.158	42.44
575.498	42.56
575.838	42.58
576.177	42.73
576.517	42.84
576.856	42.95
577.196	43.05
577.535	43.18
577.875	43.27
578.214	43.38
578.553	43.48
578.893	43.56
579.232	43.69
579.571	43.84
579.91	43.96
580.25	44.01
580.589	44.18
580.928	44.27
581.267	44.39
581.606	44.49
581.945	44.56
582.283	44.64
582.622	44.72
582.961	44.86
583.3	44.94
583.639	44.93
583.977	44.99
584.316	44.95
584.654	44.92
584.993	44.98
585.332	45.06
585.67	45.1
586.008	45.16
586.347	45.19
586.685	45.19
587.024	45.17
587.362	45.2
587.7	45.23
588.038	45.36
588.376	45.32
588.715	45.4
589.053	45.46
589.391	45.58
589.729	45.67
590.067	45.74
590.404	45.81
590.742	45.94
591.08	46.04
591.418	46.2
591.756	46.38
592.093	46.38
592.431	46.39
592.769	46.44
593.106	46.55
593.444	46.57
593.781	46.61
594.119	46.69
594.456	46.75
594.793	46.77
595.131	46.74
595.468	46.84
595.805	46.87
596.143	46.96
596.48	47.01
596.817	47.07
597.154	47.08
597.491	47.07
597.828	47.06
598.165	47.1
598.502	47.06
598.839	47.05
599.176	47.11
599.512	47.17
599.849	47.24
600.186	47.34
600.523	47.37
600.859	47.39
601.196	47.51
601.532	47.53
601.869	47.59
602.205	47.57
602.542	47.55
602.878	47.61
603.215	47.71
603.551	47.73
603.887	47.69
604.223	47.67
604.56	47.77
604.896	47.92
605.232	48
605.568	48.03
605.904	48.06
606.24	48.11
606.576	48.15
606.912	48.21
607.248	48.22
607.583	48.33
607.919	48.43
608.255	48.39
608.591	48.47
608.926	48.52
609.262	48.57
609.597	48.59
609.933	48.62
610.268	48.62
610.604	48.72
610.939	48.83
611.275	48.86
611.61	48.8
611.945	48.69
612.281	48.69
612.616	48.77
612.951	48.89
613.286	48.86
613.621	48.95
613.956	48.85
614.291	48.78
614.626	48.72
614.961	48.76
615.296	48.88
615.631	48.93
615.966	48.94
616.3	49.08
616.635	49.19
616.97	49.16
617.304	49.1
617.639	49.01
617.973	48.9
618.308	48.95
618.642	49.06
618.977	49.05
619.311	49.03
619.646	49.13
619.98	49.07
620.314	49.09
620.648	48.99
620.983	49.05
621.317	49.15
621.651	49.25
621.985	49.24
622.319	49.18
622.653	49.21
622.987	49.17
623.321	49.12
623.655	49.23
623.988	49.37
624.322	49.52
624.656	49.59
624.99	49.63
625.323	49.64
625.657	49.65
625.99	49.7
626.324	49.68
626.657	49.65
626.991	49.66
627.324	49.81
627.658	49.83
627.991	49.92
628.324	49.94
628.657	49.9
628.991	49.85
629.324	49.91
629.657	49.89
629.99	49.96
630.323	50
630.656	50.01
630.989	49.96
631.322	49.87
631.655	49.83
631.987	49.89
632.32	49.99
632.653	49.99
632.986	50.01
633.318	50.06
633.651	50.03
633.984	50.08
634.316	50.1
634.649	50.21
634.981	50.21
635.313	50.22
635.646	50.25
635.978	50.36
636.31	50.41
636.643	50.43
636.975	50.43
637.307	50.51
637.639	50.53
637.971	50.5
638.303	50.58
638.635	50.57
638.967	50.62
639.299	50.72
639.631	50.76
639.963	50.89
640.295	50.91
640.626	50.93
640.958	50.86
641.29	50.77
641.621	50.74
641.953	50.7
642.285	50.75
642.616	50.88
642.948	50.96
643.279	50.86
643.61	50.97
643.942	51.03
644.273	50.88
644.604	50.83
644.936	50.9
645.267	50.82
645.598	50.91
645.929	50.89
646.26	50.76
646.591	50.64
646.922	50.52
647.253	50.52
647.584	50.51
647.915	50.63
648.245	50.62
648.576	50.56
648.907	50.51
649.238	50.46
649.568	50.4
649.899	50.27
650.229	50.29
650.56	50.16
650.89	50.12
651.221	50.25
651.551	50.26
651.882	50.25
652.212	50.24
652.542	50.28
652.872	50.25
653.203	50.21
653.533	50.28
653.863	50.25
654.193	50.29
654.523	50.37
654.853	50.37
655.183	50.51
655.513	50.59
655.843	50.69
656.172	50.76
656.502	50.79
656.832	50.82
657.162	50.89
657.491	50.96
657.821	51.01
658.15	51.07
658.48	51.03
658.809	51.03
659.139	51.1
659.468	51.09
659.798	51.12
660.127	51.18
660.456	51.14
660.785	51.26
661.115	51.25
661.444	51.23
661.773	51.24
662.102	51.16
662.431	51.22
662.76	51.17
663.089	51.14
663.418	51.22
663.747	51.3
664.076	51.36
664.404	51.48
664.733	51.55
665.062	51.55
