Data from MVZ_BU34099_Reflection_00006.txt Node
Date: Tue Nov 19 12:15:30 EST 2019
User: vgr7
Spectrometer: USB2G7710
Scans to average: 3
Trigger mode: 4
Integration Time (sec): 2.000000E-2
Electric dark correction enabled: true
Boxcar width: 10
XAxis mode: Wavelengths
Number of Pixels in Spectrum: 2048
>>>>>Begin Spectral Data<<<<<
177.721	533.85
178.105	-296.55
178.488	-764.49
178.871	103.77
179.254	-400
179.636	194.06
180.019	50.42
180.402	-333.33
180.785	10.07
181.168	-203.66
181.55	3523.08
181.933	1008.16
182.316	1274.42
182.698	279.56
183.081	943.28
183.463	4907.69
183.846	335.1
184.228	763.27
184.611	2600
184.993	-1171.43
185.376	-62.12
185.758	-12.9
186.14	-83.64
186.522	-51.97
186.904	-64.83
187.287	-99.52
187.669	-98.16
188.051	-75.43
188.433	-155.67
188.815	-134.51
189.197	-91.22
189.579	-51.86
189.961	-50.42
190.342	-49.78
190.724	-45.77
191.106	-38.96
191.488	-23.44
191.869	-23.12
192.251	-21.63
192.633	-12.59
193.014	-15.13
193.396	-23.78
193.777	-19.6
194.159	-24.83
194.54	-14.07
194.922	-13.42
195.303	-2.03
195.684	13.37
196.065	1.98
196.447	13.98
196.828	20.58
197.209	29.39
197.59	21.43
197.971	22.21
198.352	30.49
198.733	26.71
199.114	34.86
199.495	33.82
199.876	21.1
200.257	16.01
200.638	10.12
201.018	2.96
201.399	3.54
201.78	-2.25
202.16	-0.73
202.541	-2.52
202.922	3.14
203.302	1.12
203.683	-1.07
204.063	13.85
204.444	21.9
204.824	18.53
205.204	-1.7
205.585	8.77
205.965	19.32
206.345	17.63
206.725	17.64
207.106	26.68
207.486	20.93
207.866	29.66
208.246	43.45
208.626	35.31
209.006	42.06
209.386	50.97
209.766	48.06
210.145	61.94
210.525	36.67
210.905	35.37
211.285	36.13
211.664	29.65
212.044	26.87
212.424	28.2
212.803	26.32
213.183	39.66
213.562	27.79
213.942	20.69
214.321	20.74
214.701	28.14
215.08	9.82
215.459	18.2
215.838	14.62
216.218	-1.51
216.597	25.2
216.976	19.46
217.355	10.57
217.734	3.78
218.113	14.98
218.492	21.29
218.871	30.74
219.25	21.6
219.629	18.78
220.008	22.28
220.387	27.15
220.766	29.15
221.144	26.43
221.523	24.31
221.902	29.76
222.28	42.45
222.659	28.71
223.037	38.67
223.416	40.23
223.794	47.79
224.173	45.32
224.551	35.07
224.929	34.13
225.308	37.98
225.686	41.09
226.064	30.6
226.442	29.59
226.821	21.09
227.199	19.3
227.577	19
227.955	16.87
228.333	11.84
228.711	7.55
229.089	6.58
229.467	11.09
229.845	11.28
230.222	10.26
230.6	8.33
230.978	10.85
231.356	5.51
231.733	5.57
232.111	4.09
232.488	6.28
232.866	8.92
233.243	9.58
233.621	9
233.998	8.93
234.376	7.66
234.753	8.97
235.13	10.13
235.508	9.76
235.885	11.99
236.262	12.15
236.639	13.61
237.016	12.97
237.393	12
237.77	10.54
238.147	8.9
238.524	10
238.901	8.39
239.278	9.04
239.655	9.33
240.032	9.28
240.409	8.22
240.785	7.5
241.162	7.13
241.539	6.95
241.915	6.84
242.292	6.87
242.668	6.6
243.045	6.59
243.421	6.61
243.798	6.35
244.174	6.16
244.551	5.47
244.927	5.48
245.303	5.28
245.679	5.26
246.056	5.57
246.432	5.38
246.808	5.45
247.184	5.64
247.56	5.29
247.936	5.38
248.312	5.36
248.688	5.29
249.064	5.21
249.44	5.33
249.815	5.43
250.191	5.51
250.567	5.52
250.943	5.57
251.318	5.34
251.694	5.27
252.069	5.59
252.445	6.12
252.82	6.22
253.196	6.45
253.571	6.96
253.947	6.61
254.322	6.59
254.697	6.4
255.073	5.92
255.448	5.61
255.823	5.72
256.198	5.7
256.573	5.67
256.948	5.7
257.323	5.45
257.698	5.3
258.073	5.16
258.448	5.22
258.823	5
259.198	5.07
259.573	4.81
259.948	4.69
260.322	4.56
260.697	4.62
261.072	4.59
261.446	4.31
261.821	4.32
262.195	4.32
262.57	4.43
262.944	4.59
263.319	4.71
263.693	4.6
264.067	4.68
264.442	4.61
264.816	4.44
265.19	4.51
265.564	4.61
265.938	4.74
266.313	4.51
266.687	4.53
267.061	4.64
267.435	4.95
267.809	4.91
268.183	4.86
268.556	4.66
268.93	4.72
269.304	4.81
269.678	4.98
270.051	5.05
270.425	4.89
270.799	4.79
271.172	4.83
271.546	4.9
271.919	4.62
272.293	4.52
272.666	4.67
273.04	4.63
273.413	4.51
273.787	4.49
274.16	4.62
274.533	4.73
274.906	4.66
275.279	4.49
275.653	4.45
276.026	4.52
276.399	4.67
276.772	4.59
277.145	4.55
277.518	4.42
277.891	4.23
278.263	4.28
278.636	4.36
279.009	4.4
279.382	4.17
279.755	4.35
280.127	4.51
280.5	4.43
280.872	4.6
281.245	4.73
281.617	4.64
281.99	4.58
282.362	4.52
282.735	4.5
283.107	4.57
283.479	4.76
283.852	4.69
284.224	4.53
284.596	4.54
284.968	4.5
285.34	4.49
285.713	4.62
286.085	4.6
286.457	4.61
286.829	4.43
287.201	4.52
287.572	4.59
287.944	4.64
288.316	4.65
288.688	4.51
289.06	4.41
289.431	4.48
289.803	4.56
290.175	4.5
290.546	4.44
290.918	4.37
291.289	4.15
291.661	4.35
292.032	4.38
292.403	4.21
292.775	4.41
293.146	4.56
293.517	4.56
293.889	4.56
294.26	4.52
294.631	4.74
295.002	4.86
295.373	4.8
295.744	4.7
296.115	4.75
296.486	4.79
296.857	4.9
297.228	4.9
297.599	4.9
297.97	5.07
298.34	5.07
298.711	5.12
299.082	5.28
299.452	5.27
299.823	5.32
300.194	5.53
300.564	5.41
300.935	5.34
301.305	5.33
301.676	5.42
302.046	5.43
302.416	5.32
302.787	5.23
303.157	5.21
303.527	5.33
303.897	5.23
304.267	5.3
304.637	5.19
305.008	5.18
305.378	5.16
305.748	5.12
306.117	5.15
306.487	5.05
306.857	4.92
307.227	4.91
307.597	4.91
307.967	4.74
308.336	4.8
308.706	4.75
309.076	4.83
309.445	4.9
309.815	4.97
310.184	4.93
310.554	4.92
310.923	4.92
311.293	4.9
311.662	4.98
312.031	4.98
312.401	5.06
312.77	4.95
313.139	4.96
313.508	4.76
313.877	4.81
314.246	4.98
314.616	4.98
314.985	4.78
315.353	4.75
315.722	4.87
316.091	4.87
316.46	4.93
316.829	4.83
317.198	4.79
317.567	4.66
317.935	4.76
318.304	4.89
318.672	4.9
319.041	4.89
319.41	4.78
319.778	4.69
320.147	4.64
320.515	4.84
320.883	4.89
321.252	5.07
321.62	4.9
321.988	4.84
322.357	4.83
322.725	5.02
323.093	5.06
323.461	4.99
323.829	4.94
324.197	4.98
324.565	5.06
324.933	4.96
325.301	4.94
325.669	4.98
326.037	4.94
326.405	4.93
326.772	4.85
327.14	4.93
327.508	4.9
327.875	4.89
328.243	4.88
328.61	4.86
328.978	4.81
329.346	4.92
329.713	5.06
330.08	5.07
330.448	5.02
330.815	5.07
331.182	4.95
331.55	5.02
331.917	4.99
332.284	5.06
332.651	5.03
333.018	5.08
333.385	5.04
333.752	5.05
334.119	5.1
334.486	5.08
334.853	5.03
335.22	5.03
335.587	5.04
335.954	4.93
336.32	4.85
336.687	4.92
337.054	4.82
337.42	4.7
337.787	4.77
338.153	4.77
338.52	4.8
338.886	4.92
339.253	4.94
339.619	5.09
339.986	5.03
340.352	5.16
340.718	5.13
341.084	5.17
341.451	5.13
341.817	5.08
342.183	5.11
342.549	5.14
342.915	5.1
343.281	5.08
343.647	5.15
344.013	5.21
344.379	5.14
344.745	5.18
345.11	5.16
345.476	5.15
345.842	5.1
346.208	5.11
346.573	5.11
346.939	5.05
347.304	4.87
347.67	4.8
348.035	4.73
348.401	4.78
348.766	4.8
349.132	4.84
349.497	4.9
349.862	4.89
350.228	4.86
350.593	4.93
350.958	4.97
351.323	4.88
351.688	4.87
352.053	4.9
352.418	4.9
352.783	4.93
353.148	4.91
353.513	4.9
353.878	4.91
354.243	4.89
354.608	4.89
354.972	4.93
355.337	4.96
355.702	4.92
356.066	4.92
356.431	4.88
356.795	4.83
357.16	4.71
357.524	4.76
357.889	4.82
358.253	4.78
358.618	4.82
358.982	4.84
359.346	4.92
359.71	4.97
360.075	5.04
360.439	5.11
360.803	5.16
361.167	5.14
361.531	5.08
361.895	5.1
362.259	5.13
362.623	5.13
362.987	5.14
363.351	5.18
363.714	5.16
364.078	5.2
364.442	5.23
364.806	5.28
365.169	5.27
365.533	5.26
365.896	5.23
366.26	5.17
366.623	5.18
366.987	5.11
367.35	5.05
367.714	5
368.077	4.94
368.44	4.89
368.803	4.87
369.167	4.86
369.53	4.86
369.893	4.92
370.256	4.91
370.619	4.89
370.982	4.85
371.345	4.89
371.708	4.8
372.071	4.8
372.434	4.86
372.797	4.89
373.159	4.86
373.522	4.87
373.885	4.91
374.247	4.89
374.61	4.92
374.973	4.93
375.335	4.93
375.698	4.92
376.06	4.9
376.423	4.99
376.785	5.04
377.147	5.03
377.51	4.89
377.872	4.81
378.234	4.83
378.596	4.84
378.958	4.82
379.321	4.85
379.683	4.87
380.045	4.87
380.407	4.86
380.769	4.91
381.13	4.91
381.492	4.85
381.854	4.86
382.216	4.89
382.578	4.91
382.939	4.93
383.301	4.92
383.663	4.9
384.024	4.85
384.386	4.82
384.747	4.81
385.109	4.85
385.47	4.91
385.832	4.86
386.193	4.9
386.554	4.9
386.916	4.91
387.277	4.87
387.638	4.85
387.999	4.84
388.36	4.83
388.721	4.87
389.082	4.89
389.443	4.92
389.804	4.89
390.165	4.84
390.526	4.82
390.887	4.82
391.248	4.82
391.609	4.85
391.969	4.86
392.33	4.85
392.691	4.88
393.051	4.89
393.412	4.92
393.772	4.9
394.133	4.87
394.493	4.87
394.854	4.86
395.214	4.85
395.574	4.86
395.935	4.87
396.295	4.84
396.655	4.81
397.015	4.8
397.376	4.78
397.736	4.8
398.096	4.84
398.456	4.84
398.816	4.83
399.176	4.8
399.535	4.83
399.895	4.87
400.255	4.85
400.615	4.83
400.975	4.79
401.334	4.75
401.694	4.76
402.054	4.73
402.413	4.76
402.773	4.78
403.132	4.74
403.492	4.71
403.851	4.74
404.211	4.74
404.57	4.75
404.929	4.76
405.288	4.78
405.648	4.74
406.007	4.75
406.366	4.75
406.725	4.75
407.084	4.75
407.443	4.72
407.802	4.68
408.161	4.68
408.52	4.72
408.879	4.75
409.238	4.76
409.596	4.78
409.955	4.75
410.314	4.72
410.673	4.75
411.031	4.75
411.39	4.75
411.748	4.76
412.107	4.72
412.465	4.7
412.824	4.68
413.182	4.7
413.54	4.69
413.899	4.69
414.257	4.7
414.615	4.69
414.974	4.71
415.332	4.74
415.69	4.7
416.048	4.69
416.406	4.67
416.764	4.67
417.122	4.68
417.48	4.68
417.838	4.66
418.195	4.64
418.553	4.63
418.911	4.61
419.269	4.61
419.626	4.62
419.984	4.61
420.342	4.62
420.699	4.6
421.057	4.6
421.414	4.62
421.772	4.61
422.129	4.59
422.486	4.58
422.844	4.58
423.201	4.6
423.558	4.59
423.915	4.6
424.273	4.6
424.63	4.59
424.987	4.59
425.344	4.6
425.701	4.61
426.058	4.63
426.415	4.64
426.772	4.63
427.128	4.65
427.485	4.66
427.842	4.66
428.199	4.67
428.555	4.69
428.912	4.66
429.269	4.64
429.625	4.65
429.982	4.66
430.338	4.64
430.695	4.64
431.051	4.65
431.407	4.65
431.764	4.63
432.12	4.63
432.476	4.61
432.832	4.63
433.189	4.62
433.545	4.59
433.901	4.57
434.257	4.56
434.613	4.55
434.969	4.55
435.325	4.54
435.681	4.51
436.036	4.49
436.392	4.5
436.748	4.51
437.104	4.51
437.459	4.51
437.815	4.5
438.171	4.5
438.526	4.48
438.882	4.48
439.237	4.5
439.593	4.5
439.948	4.49
440.304	4.45
440.659	4.47
441.014	4.48
441.369	4.49
441.725	4.52
442.08	4.49
442.435	4.47
442.79	4.47
443.145	4.49
443.5	4.47
443.855	4.48
444.21	4.47
444.565	4.47
444.92	4.46
445.275	4.46
445.629	4.45
445.984	4.47
446.339	4.46
446.693	4.44
447.048	4.43
447.403	4.43
447.757	4.46
448.112	4.45
448.466	4.45
448.82	4.45
449.175	4.43
449.529	4.46
449.883	4.47
450.238	4.47
450.592	4.47
450.946	4.49
451.3	4.48
451.654	4.49
452.008	4.48
452.362	4.47
452.716	4.47
453.07	4.47
453.424	4.45
453.778	4.45
454.132	4.44
454.486	4.45
454.839	4.45
455.193	4.43
455.547	4.44
455.9	4.44
456.254	4.42
456.607	4.43
456.961	4.42
457.314	4.4
457.668	4.4
458.021	4.39
458.375	4.37
458.728	4.37
459.081	4.37
459.434	4.36
459.787	4.38
460.141	4.39
460.494	4.41
460.847	4.43
461.2	4.43
461.553	4.46
461.906	4.46
462.259	4.46
462.611	4.46
462.964	4.46
463.317	4.46
463.67	4.48
464.022	4.5
464.375	4.5
464.728	4.5
465.08	4.5
465.433	4.51
465.785	4.55
466.138	4.57
466.49	4.57
466.843	4.6
467.195	4.59
467.547	4.59
467.899	4.58
468.252	4.57
468.604	4.56
468.956	4.56
469.308	4.57
469.66	4.59
470.012	4.61
470.364	4.62
470.716	4.61
471.068	4.62
471.42	4.59
471.772	4.6
472.123	4.65
472.475	4.65
472.827	4.65
473.178	4.65
473.53	4.65
473.882	4.65
474.233	4.65
474.585	4.66
474.936	4.67
475.288	4.68
475.639	4.69
475.99	4.71
476.342	4.71
476.693	4.71
477.044	4.72
477.395	4.7
477.746	4.66
478.097	4.68
478.448	4.67
478.8	4.67
479.15	4.65
479.501	4.64
479.852	4.64
480.203	4.66
480.554	4.66
480.905	4.65
481.255	4.66
481.606	4.64
481.957	4.66
482.307	4.67
482.658	4.67
483.009	4.68
483.359	4.68
483.709	4.67
484.06	4.67
484.41	4.66
484.761	4.67
485.111	4.69
485.461	4.69
485.811	4.68
486.162	4.69
486.512	4.71
486.862	4.71
487.212	4.71
487.562	4.71
487.912	4.71
488.262	4.71
488.612	4.71
488.961	4.72
489.311	4.72
489.661	4.71
490.011	4.71
490.36	4.71
490.71	4.7
491.06	4.71
491.409	4.72
491.759	4.73
492.108	4.73
492.458	4.72
492.807	4.71
493.157	4.73
493.506	4.73
493.855	4.7
494.204	4.71
494.554	4.72
494.903	4.73
495.252	4.74
495.601	4.75
495.95	4.76
496.299	4.76
496.648	4.75
496.997	4.75
497.346	4.75
497.695	4.77
498.043	4.79
498.392	4.78
498.741	4.79
499.09	4.78
499.438	4.81
499.787	4.82
500.135	4.83
500.484	4.82
500.832	4.83
501.181	4.87
501.529	4.87
501.878	4.88
502.226	4.91
502.574	4.9
502.923	4.92
503.271	4.92
503.619	4.96
503.967	4.96
504.315	5
504.663	5.01
505.011	5
505.359	4.99
505.707	5.03
506.055	5.05
506.403	5.07
506.751	5.07
507.098	5.09
507.446	5.12
507.794	5.14
508.141	5.15
508.489	5.14
508.837	5.15
509.184	5.18
509.531	5.16
509.879	5.17
510.226	5.15
510.574	5.16
510.921	5.14
511.268	5.16
511.616	5.16
511.963	5.16
512.31	5.19
512.657	5.2
513.004	5.18
513.351	5.17
513.698	5.19
514.045	5.19
514.392	5.2
514.739	5.21
515.086	5.22
515.432	5.23
515.779	5.24
516.126	5.26
516.473	5.25
516.819	5.25
517.166	5.26
517.512	5.29
517.859	5.32
518.205	5.32
518.552	5.32
518.898	5.33
519.245	5.36
519.591	5.35
519.937	5.35
520.283	5.37
520.629	5.38
520.976	5.39
521.322	5.42
521.668	5.43
522.014	5.41
522.36	5.41
522.706	5.43
523.052	5.45
523.398	5.46
523.743	5.49
524.089	5.52
524.435	5.53
524.781	5.53
525.126	5.54
525.472	5.56
525.817	5.58
526.163	5.58
526.509	5.58
526.854	5.58
527.199	5.59
527.545	5.6
527.89	5.61
528.235	5.62
528.581	5.62
528.926	5.63
529.271	5.65
529.616	5.67
529.961	5.67
530.306	5.67
530.651	5.67
530.996	5.68
531.341	5.7
531.686	5.72
532.031	5.73
532.376	5.73
532.721	5.73
533.065	5.73
533.41	5.75
533.755	5.74
534.099	5.77
534.444	5.78
534.788	5.77
535.133	5.78
535.477	5.79
535.822	5.8
536.166	5.8
536.51	5.8
536.855	5.79
537.199	5.8
537.543	5.82
537.887	5.82
538.231	5.83
538.576	5.84
538.92	5.86
539.264	5.86
539.608	5.88
539.951	5.9
540.295	5.9
540.639	5.91
540.983	5.94
541.327	5.94
541.671	5.96
542.014	5.98
542.358	6
542.701	6.02
543.045	6.03
543.389	6.05
543.732	6.07
544.075	6.09
544.419	6.1
544.762	6.09
545.105	6.12
545.449	6.12
545.792	6.14
546.135	6.13
546.478	6.14
546.821	6.16
547.165	6.17
547.508	6.18
547.851	6.19
548.194	6.17
548.536	6.19
548.879	6.19
549.222	6.18
549.565	6.19
549.908	6.17
550.25	6.17
550.593	6.17
550.936	6.17
551.278	6.18
551.621	6.18
551.963	6.21
552.306	6.21
552.648	6.23
552.991	6.21
553.333	6.19
553.675	6.23
554.017	6.22
554.36	6.22
554.702	6.23
555.044	6.24
555.386	6.26
555.728	6.25
556.07	6.24
556.412	6.24
556.754	6.24
557.096	6.24
557.438	6.24
557.78	6.21
558.121	6.21
558.463	6.17
558.805	6.2
559.147	6.19
559.488	6.21
559.83	6.21
560.171	6.22
560.513	6.24
560.854	6.23
561.196	6.21
561.537	6.23
561.878	6.27
562.22	6.27
562.561	6.3
562.902	6.31
563.243	6.34
563.584	6.34
563.925	6.35
564.266	6.31
564.607	6.31
564.948	6.32
565.289	6.33
565.63	6.34
565.971	6.33
566.312	6.33
566.653	6.31
566.993	6.29
567.334	6.26
567.675	6.25
568.015	6.22
568.356	6.23
568.696	6.22
569.037	6.2
569.377	6.18
569.718	6.2
570.058	6.21
570.398	6.18
570.739	6.19
571.079	6.18
571.419	6.22
571.759	6.23
572.099	6.25
572.439	6.26
572.779	6.3
573.119	6.29
573.459	6.29
573.799	6.29
574.139	6.3
574.479	6.33
574.819	6.35
575.158	6.39
575.498	6.4
575.838	6.4
576.177	6.4
576.517	6.42
576.856	6.38
577.196	6.37
577.535	6.39
577.875	6.4
578.214	6.41
578.553	6.4
578.893	6.43
579.232	6.42
579.571	6.43
579.91	6.43
580.25	6.45
580.589	6.48
580.928	6.51
581.267	6.52
581.606	6.57
581.945	6.56
582.283	6.56
582.622	6.53
582.961	6.53
583.3	6.54
583.639	6.57
583.977	6.62
584.316	6.63
584.654	6.63
584.993	6.66
585.332	6.66
585.67	6.64
586.008	6.62
586.347	6.64
586.685	6.63
587.024	6.62
587.362	6.58
587.7	6.6
588.038	6.62
588.376	6.63
588.715	6.63
589.053	6.66
589.391	6.65
589.729	6.68
590.067	6.68
590.404	6.68
590.742	6.64
591.08	6.67
591.418	6.68
591.756	6.71
592.093	6.69
592.431	6.69
592.769	6.71
593.106	6.69
593.444	6.69
593.781	6.7
594.119	6.68
594.456	6.66
594.793	6.67
595.131	6.64
595.468	6.63
595.805	6.61
596.143	6.59
596.48	6.57
596.817	6.57
597.154	6.6
597.491	6.6
597.828	6.66
598.165	6.61
598.502	6.62
598.839	6.57
599.176	6.57
599.512	6.56
599.849	6.58
600.186	6.56
600.523	6.55
600.859	6.57
601.196	6.57
601.532	6.63
601.869	6.6
602.205	6.6
602.542	6.59
602.878	6.59
603.215	6.64
603.551	6.69
603.887	6.7
604.223	6.68
604.56	6.7
604.896	6.68
605.232	6.72
605.568	6.69
605.904	6.71
606.24	6.75
606.576	6.78
606.912	6.79
607.248	6.81
607.583	6.8
607.919	6.77
608.255	6.8
608.591	6.77
608.926	6.8
609.262	6.79
609.597	6.83
609.933	6.82
610.268	6.83
610.604	6.77
610.939	6.76
611.275	6.79
611.61	6.8
611.945	6.76
612.281	6.73
612.616	6.74
612.951	6.74
613.286	6.71
613.621	6.68
613.956	6.68
614.291	6.73
614.626	6.75
614.961	6.81
615.296	6.84
615.631	6.86
615.966	6.87
616.3	6.88
616.635	6.84
616.97	6.81
617.304	6.76
617.639	6.87
617.973	6.86
618.308	6.84
618.642	6.77
618.977	6.82
619.311	6.78
619.646	6.81
619.98	6.87
620.314	6.87
620.648	6.87
620.983	6.83
621.317	6.81
621.651	6.82
621.985	6.79
622.319	6.8
622.653	6.82
622.987	6.78
623.321	6.8
623.655	6.81
623.988	6.88
624.322	6.92
624.656	6.84
624.99	6.89
625.323	6.88
625.657	6.93
625.99	6.9
626.324	6.92
626.657	6.9
626.991	6.87
627.324	6.92
627.658	6.92
627.991	6.98
628.324	6.97
628.657	6.96
628.991	6.95
629.324	6.9
629.657	6.91
629.99	6.94
630.323	6.91
630.656	6.96
630.989	6.9
631.322	6.87
631.655	6.92
631.987	6.93
632.32	6.96
632.653	6.95
632.986	6.93
633.318	6.95
633.651	6.97
633.984	6.95
634.316	6.88
634.649	6.84
634.981	6.78
635.313	6.78
635.646	6.8
635.978	6.82
636.31	6.91
636.643	6.86
636.975	6.81
637.307	6.83
637.639	6.78
637.971	6.83
638.303	6.8
638.635	6.77
638.967	6.69
639.299	6.64
639.631	6.69
639.963	6.7
640.295	6.68
640.626	6.72
640.958	6.77
641.29	6.82
641.621	6.88
641.953	6.86
642.285	6.88
642.616	6.85
642.948	6.82
643.279	6.71
643.61	6.78
643.942	6.83
644.273	6.87
644.604	6.89
644.936	6.82
645.267	6.81
645.598	6.81
645.929	6.81
646.26	6.83
646.591	6.86
646.922	6.93
647.253	6.94
647.584	6.86
647.915	6.82
648.245	6.81
648.576	6.78
648.907	6.85
649.238	6.82
649.568	6.83
649.899	6.85
650.229	6.97
650.56	6.97
650.89	6.97
651.221	7.01
651.551	7.01
651.882	7.07
652.212	7.12
652.542	7.15
652.872	7.26
653.203	7.31
653.533	7.29
653.863	7.25
654.193	7.3
654.523	7.27
654.853	7.31
655.183	7.35
655.513	7.37
655.843	7.38
656.172	7.45
656.502	7.42
656.832	7.39
657.162	7.36
657.491	7.4
657.821	7.37
658.15	7.35
658.48	7.41
658.809	7.42
659.139	7.4
659.468	7.41
659.798	7.38
660.127	7.41
660.456	7.36
660.785	7.33
661.115	7.26
661.444	7.33
661.773	7.36
662.102	7.32
662.431	7.34
662.76	7.26
663.089	7.31
663.418	7.44
663.747	7.45
664.076	7.42
664.404	7.39
664.733	7.39
665.062	7.38
665.39	7.3
665.719	7.23
666.048	7.27
666.376	7.29
666.705	7.34
667.033	7.28
667.362	7.38
667.69	7.47
668.018	7.54
668.347	7.53
668.675	7.49
669.003	7.51
669.331	7.5
669.659	7.5
669.987	7.38
670.315	7.27
670.643	7.29
670.971	7.31
671.299	7.31
671.627	7.37
671.955	7.39
672.283	7.33
672.61	7.4
672.938	7.41
673.266	7.48
673.593	7.38
673.921	7.39
674.249	7.36
674.576	7.29
674.904	7.25
675.231	7.27
675.558	7.34
675.886	7.34
676.213	7.38
676.54	7.5
676.867	7.59
677.195	7.63
677.522	7.65
677.849	7.69
678.176	7.71
678.503	7.68
678.83	7.77
679.157	7.77
679.484	7.73
