Data from MVZ_BU8943_Reflection_00007.txt Node
Date: Tue Nov 19 12:09:11 EST 2019
User: vgr7
Spectrometer: USB2G7710
Scans to average: 3
Trigger mode: 4
Integration Time (sec): 2.000000E-2
Electric dark correction enabled: true
Boxcar width: 10
XAxis mode: Wavelengths
Number of Pixels in Spectrum: 2048
>>>>>Begin Spectral Data<<<<<
177.721	200.49
178.105	302.13
178.488	-203.41
178.871	-136.99
179.254	-417.65
179.636	-355.62
180.019	-91.52
180.402	-20
180.785	-29.87
181.168	-26.9
181.55	-1.51
181.933	39.31
182.316	5.71
182.698	22100
183.081	-273.49
183.463	-27.82
183.846	7.28
184.228	36.71
184.611	49.42
184.993	-0.66
185.376	-15.01
185.758	11.32
186.14	-44.37
186.522	-51.04
186.904	-50.26
187.287	-19.94
187.669	-11.82
188.051	-40.85
188.433	-54.42
188.815	-36.83
189.197	-51.83
189.579	-41.88
189.961	-50.93
190.342	-29.59
190.724	-44.8
191.106	-54.61
191.488	-57.62
191.869	-43.3
192.251	-36.19
192.633	-51.19
193.014	-51.91
193.396	-78.45
193.777	-99.25
194.159	-55.87
194.54	-15.34
194.922	-5.26
195.303	-48.2
195.684	-413.27
196.065	-410.95
196.447	61100
196.828	836.26
197.209	-3311.76
197.59	227.42
197.971	184.47
198.352	212.94
198.733	542.21
199.114	761.65
199.495	-755.49
199.876	-1073.65
200.257	-402.81
200.638	-514.25
201.018	-723.71
201.399	-374.67
201.78	-390.61
202.16	-525.32
202.541	-971.13
202.922	-2101.68
203.302	-1790.51
203.683	-1235.14
204.063	-397.09
204.444	-288.98
204.824	-240.69
205.204	-294.97
205.585	-126.28
205.965	-137.65
206.345	-110.7
206.725	-81.94
207.106	2.35
207.486	-19.75
207.866	30.2
208.246	35.72
208.626	6.3
209.006	111.6
209.386	112.47
209.766	137.36
210.145	109.38
210.525	97.01
210.905	-58.8
211.285	-170.94
211.664	-70.87
212.044	-474.26
212.424	-289.26
212.803	220.14
213.183	603.45
213.562	789.66
213.942	1880.82
214.321	-791.63
214.701	4169.77
215.08	7390.32
215.459	-1959.41
215.838	1808.66
216.218	351.18
216.597	408.2
216.976	545.04
217.355	3460.66
217.734	-4188.14
218.113	1188.76
218.492	-15809.09
218.871	-732.43
219.25	-483.76
219.629	-1017.65
220.008	-197.3
220.387	-184.08
220.766	-92.92
221.144	-93.49
221.523	-122.84
221.902	-72.05
222.28	-65.42
222.659	-31.07
223.037	-16.97
223.416	-13.65
223.794	-4.89
224.173	-10.21
224.551	-13.37
224.929	-15.67
225.308	-15.55
225.686	-16.79
226.064	-20.35
226.442	-22.29
226.821	-18.3
227.199	-20.65
227.577	-16.31
227.955	-14.59
228.333	-16.4
228.711	-19.66
229.089	-15.05
229.467	-15.85
229.845	-16.47
230.222	-16.33
230.6	-14.09
230.978	-16.18
231.356	-16
231.733	-12.29
232.111	-10.18
232.488	-9.16
232.866	-2.07
233.243	-2.8
233.621	-1.46
233.998	-1.7
234.376	2.53
234.753	3.95
235.13	1.3
235.508	1.79
235.885	1.15
236.262	2.62
236.639	2.27
237.016	1.15
237.393	3.79
237.77	2.97
238.147	3.51
238.524	2.09
238.901	0.69
239.278	0.34
239.655	-0.49
240.032	-0.11
240.409	-0.39
240.785	-2.06
241.162	-1.59
241.539	-0.52
241.915	-0.21
242.292	0.7
242.668	0.49
243.045	1.66
243.421	1.81
243.798	2.25
244.174	2.53
244.551	3.07
244.927	2.95
245.303	2.62
245.679	2.99
246.056	3.04
246.432	3.14
246.808	3.43
247.184	3.57
247.56	3.5
247.936	3.67
248.312	3.64
248.688	3.66
249.064	3.63
249.44	3.34
249.815	3.46
250.191	3.22
250.567	3.32
250.943	3.33
251.318	3.28
251.694	3.25
252.069	2.74
252.445	2.44
252.82	2.96
253.196	3.01
253.571	2.88
253.947	3.14
254.322	2.85
254.697	3.21
255.073	3.24
255.448	3.54
255.823	3.23
256.198	3.25
256.573	3.47
256.948	3.7
257.323	3.72
257.698	3.68
258.073	3.52
258.448	3.25
258.823	2.9
259.198	3.07
259.573	2.96
259.948	3.05
260.322	2.93
260.697	2.92
261.072	3.11
261.446	3.17
261.821	3.05
262.195	3.12
262.57	3
262.944	2.74
263.319	2.73
263.693	2.81
264.067	2.8
264.442	2.52
264.816	2.24
265.19	2.14
265.564	1.81
265.938	1.7
266.313	1.78
266.687	2.09
267.061	1.99
267.435	2.18
267.809	2.25
268.183	2.55
268.556	2.6
268.93	2.46
269.304	2.04
269.678	2.13
270.051	2.21
270.425	2.15
270.799	2.1
271.172	1.94
271.546	1.97
271.919	2.19
272.293	2.41
272.666	2.58
273.04	2.64
273.413	2.78
273.787	2.94
274.16	3.07
274.533	3.12
274.906	3.26
275.279	3.09
275.653	3.14
276.026	3.22
276.399	3.1
276.772	3.12
277.145	3.57
277.518	3.33
277.891	3.3
278.263	3.44
278.636	3.72
279.009	3.83
279.382	3.72
279.755	3.51
280.127	3.46
280.5	3.12
280.872	3.05
281.245	3.17
281.617	2.96
281.99	3
282.362	2.9
282.735	2.81
283.107	2.86
283.479	2.99
283.852	2.8
284.224	3.01
284.596	2.97
284.968	2.91
285.34	3.03
285.713	3.13
286.085	2.82
286.457	2.75
286.829	2.9
287.201	2.95
287.572	2.97
287.944	3.1
288.316	3.27
288.688	3.51
289.06	3.49
289.431	3.56
289.803	3.53
290.175	3.47
290.546	3.54
290.918	3.67
291.289	3.39
291.661	3.5
292.032	3.26
292.403	3.27
292.775	3.37
293.146	3.43
293.517	3.28
293.889	3.49
294.26	3.52
294.631	3.45
295.002	3.5
295.373	3.41
295.744	3.34
296.115	3.33
296.486	3.39
296.857	3.34
297.228	3.42
297.599	3.49
297.97	3.48
298.34	3.33
298.711	3.26
299.082	3.46
299.452	3.35
299.823	3.4
300.194	3.42
300.564	3.34
300.935	3.2
301.305	3.33
301.676	3.37
302.046	3.34
302.416	3.4
302.787	3.43
303.157	3.48
303.527	3.52
303.897	3.62
304.267	3.54
304.637	3.77
305.008	3.75
305.378	3.68
305.748	3.68
306.117	3.86
306.487	3.84
306.857	3.89
307.227	4.21
307.597	4.34
307.967	4.43
308.336	4.42
308.706	4.64
309.076	4.79
309.445	4.88
309.815	4.8
310.184	4.86
310.554	4.81
310.923	4.85
311.293	4.94
311.662	4.93
312.031	4.78
312.401	4.61
312.77	4.74
313.139	4.77
313.508	4.89
313.877	5
314.246	5.12
314.616	5.14
314.985	4.99
315.353	4.97
315.722	5.06
316.091	5.04
316.46	4.96
316.829	5.02
317.198	4.95
317.567	5.18
317.935	5
318.304	5.1
318.672	5.22
319.041	5.2
319.41	5.14
319.778	5.19
320.147	5.2
320.515	5.08
320.883	5.23
321.252	5.2
321.62	5.28
321.988	5.32
322.357	5.29
322.725	5.31
323.093	5.27
323.461	5.2
323.829	5.41
324.197	5.5
324.565	5.37
324.933	5.34
325.301	5.25
325.669	5.34
326.037	5.39
326.405	5.44
326.772	5.38
327.14	5.39
327.508	5.53
327.875	5.76
328.243	5.8
328.61	5.59
328.978	5.57
329.346	5.45
329.713	5.43
330.08	5.41
330.448	5.41
330.815	5.36
331.182	5.3
331.55	5.35
331.917	5.38
332.284	5.48
332.651	5.58
333.018	5.7
333.385	5.65
333.752	5.66
334.119	5.63
334.486	5.67
334.853	5.7
335.22	5.69
335.587	5.53
335.954	5.59
336.32	5.62
336.687	5.74
337.054	5.68
337.42	5.68
337.787	5.63
338.153	5.74
338.52	5.86
338.886	5.97
339.253	5.86
339.619	5.84
339.986	5.87
340.352	5.93
340.718	5.93
341.084	6.22
341.451	6.21
341.817	6.32
342.183	6.41
342.549	6.53
342.915	6.46
343.281	6.48
343.647	6.55
344.013	6.65
344.379	6.6
344.745	6.65
345.11	6.69
345.476	6.83
345.842	6.8
346.208	6.82
346.573	6.81
346.939	6.9
347.304	6.95
347.67	6.95
348.035	6.84
348.401	7.03
348.766	6.87
349.132	6.92
349.497	6.86
349.862	6.76
350.228	6.7
350.593	6.75
350.958	6.89
351.323	6.7
351.688	6.84
352.053	6.86
352.418	6.83
352.783	6.81
353.148	6.75
353.513	6.72
353.878	6.69
354.243	6.61
354.608	6.56
354.972	6.5
355.337	6.45
355.702	6.57
356.066	6.46
356.431	6.46
356.795	6.45
357.16	6.42
357.524	6.53
357.889	6.58
358.253	6.51
358.618	6.43
358.982	6.47
359.346	6.44
359.71	6.48
360.075	6.51
360.439	6.53
360.803	6.57
361.167	6.55
361.531	6.53
361.895	6.6
362.259	6.64
362.623	6.69
362.987	6.69
363.351	6.69
363.714	6.7
364.078	6.65
364.442	6.62
364.806	6.67
365.169	6.61
365.533	6.63
365.896	6.7
366.26	6.66
366.623	6.66
366.987	6.6
367.35	6.6
367.714	6.61
368.077	6.64
368.44	6.6
368.803	6.58
369.167	6.5
369.53	6.47
369.893	6.44
370.256	6.4
370.619	6.34
370.982	6.23
371.345	6.16
371.708	6.09
372.071	6.05
372.434	5.95
372.797	5.97
373.159	5.9
373.522	5.9
373.885	5.94
374.247	5.87
374.61	5.85
374.973	5.78
375.335	5.74
375.698	5.61
376.06	5.58
376.423	5.64
376.785	5.67
377.147	5.6
377.51	5.51
377.872	5.51
378.234	5.51
378.596	5.47
378.958	5.46
379.321	5.43
379.683	5.49
380.045	5.47
380.407	5.4
380.769	5.33
381.13	5.27
381.492	5.18
381.854	5.22
382.216	5.26
382.578	5.29
382.939	5.21
383.301	5.24
383.663	5.24
384.024	5.16
384.386	5.17
384.747	5.17
385.109	5.16
385.47	5.11
385.832	5.1
386.193	5.12
386.554	5.05
386.916	5.14
387.277	5.02
387.638	5
387.999	4.95
388.36	4.95
388.721	4.91
389.082	4.89
389.443	4.87
389.804	4.85
390.165	4.79
390.526	4.8
390.887	4.77
391.248	4.75
391.609	4.76
391.969	4.77
392.33	4.76
392.691	4.79
393.051	4.76
393.412	4.74
393.772	4.75
394.133	4.79
394.493	4.7
394.854	4.74
395.214	4.74
395.574	4.73
395.935	4.73
396.295	4.76
396.655	4.76
397.015	4.73
397.376	4.68
397.736	4.66
398.096	4.62
398.456	4.59
398.816	4.59
399.176	4.53
399.535	4.44
399.895	4.46
400.255	4.42
400.615	4.45
400.975	4.43
401.334	4.35
401.694	4.33
402.054	4.36
402.413	4.32
402.773	4.33
403.132	4.31
403.492	4.29
403.851	4.21
404.211	4.24
404.57	4.24
404.929	4.22
405.288	4.23
405.648	4.22
406.007	4.22
406.366	4.23
406.725	4.23
407.084	4.25
407.443	4.21
407.802	4.18
408.161	4.15
408.52	4.13
408.879	4.17
409.238	4.16
409.596	4.17
409.955	4.18
410.314	4.16
410.673	4.17
411.031	4.15
411.39	4.17
411.748	4.14
412.107	4.12
412.465	4.11
412.824	4.08
413.182	4.08
413.54	4.07
413.899	4.03
414.257	4.04
414.615	3.99
414.974	4
415.332	3.99
415.69	3.99
416.048	3.98
416.406	3.94
416.764	3.92
417.122	3.9
417.48	3.9
417.838	3.89
418.195	3.86
418.553	3.87
418.911	3.87
419.269	3.86
419.626	3.85
419.984	3.84
420.342	3.83
420.699	3.82
421.057	3.8
421.414	3.8
421.772	3.81
422.129	3.8
422.486	3.79
422.844	3.77
423.201	3.77
423.558	3.75
423.915	3.77
424.273	3.76
424.63	3.76
424.987	3.73
425.344	3.73
425.701	3.73
426.058	3.72
426.415	3.7
426.772	3.69
427.128	3.7
427.485	3.69
427.842	3.68
428.199	3.68
428.555	3.68
428.912	3.66
429.269	3.64
429.625	3.66
429.982	3.65
430.338	3.66
430.695	3.65
431.051	3.67
431.407	3.65
431.764	3.64
432.12	3.63
432.476	3.65
432.832	3.64
433.189	3.65
433.545	3.64
433.901	3.66
434.257	3.64
434.613	3.61
434.969	3.63
435.325	3.64
435.681	3.63
436.036	3.64
436.392	3.64
436.748	3.66
437.104	3.65
437.459	3.65
437.815	3.62
438.171	3.63
438.526	3.63
438.882	3.63
439.237	3.62
439.593	3.63
439.948	3.64
440.304	3.63
440.659	3.63
441.014	3.61
441.369	3.59
441.725	3.6
442.08	3.61
442.435	3.63
442.79	3.63
443.145	3.63
443.5	3.64
443.855	3.63
444.21	3.62
444.565	3.63
444.92	3.65
445.275	3.68
445.629	3.67
445.984	3.66
446.339	3.66
446.693	3.67
447.048	3.64
447.403	3.62
447.757	3.63
448.112	3.63
448.466	3.64
448.82	3.66
449.175	3.66
449.529	3.67
449.883	3.65
450.238	3.64
450.592	3.63
450.946	3.62
451.3	3.63
451.654	3.63
452.008	3.62
452.362	3.58
452.716	3.57
453.07	3.55
453.424	3.54
453.778	3.53
454.132	3.55
454.486	3.55
454.839	3.54
455.193	3.53
455.547	3.53
455.9	3.53
456.254	3.52
456.607	3.52
456.961	3.52
457.314	3.51
457.668	3.5
458.021	3.5
458.375	3.5
458.728	3.48
459.081	3.47
459.434	3.45
459.787	3.49
460.141	3.5
460.494	3.52
460.847	3.52
461.2	3.55
461.553	3.54
461.906	3.57
462.259	3.59
462.611	3.59
462.964	3.6
463.317	3.6
463.67	3.6
464.022	3.6
464.375	3.6
464.728	3.6
465.08	3.6
465.433	3.62
465.785	3.62
466.138	3.66
466.49	3.67
466.843	3.71
467.195	3.7
467.547	3.67
467.899	3.68
468.252	3.7
468.604	3.7
468.956	3.69
469.308	3.68
469.66	3.68
470.012	3.69
470.364	3.69
470.716	3.69
471.068	3.7
471.42	3.72
471.772	3.73
472.123	3.76
472.475	3.8
472.827	3.82
473.178	3.85
473.53	3.83
473.882	3.84
474.233	3.85
474.585	3.84
474.936	3.88
475.288	3.89
475.639	3.87
475.99	3.86
476.342	3.88
476.693	3.91
477.044	3.93
477.395	3.91
477.746	3.91
478.097	3.91
478.448	3.89
478.8	3.88
479.15	3.86
479.501	3.84
479.852	3.83
480.203	3.83
480.554	3.83
480.905	3.84
481.255	3.84
481.606	3.83
481.957	3.82
482.307	3.82
482.658	3.82
483.009	3.82
483.359	3.83
483.709	3.82
484.06	3.82
484.41	3.82
484.761	3.83
485.111	3.83
485.461	3.83
485.811	3.84
486.162	3.84
486.512	3.85
486.862	3.86
487.212	3.87
487.562	3.88
487.912	3.88
488.262	3.87
488.612	3.87
488.961	3.87
489.311	3.87
489.661	3.89
490.011	3.89
490.36	3.89
490.71	3.89
491.06	3.89
491.409	3.88
491.759	3.88
492.108	3.89
492.458	3.91
492.807	3.92
493.157	3.93
493.506	3.94
493.855	3.95
494.204	3.95
494.554	3.97
494.903	3.98
495.252	3.99
495.601	4.01
495.95	4.04
496.299	4.04
496.648	4.07
496.997	4.07
497.346	4.11
497.695	4.14
498.043	4.2
498.392	4.23
498.741	4.28
499.09	4.32
499.438	4.33
499.787	4.36
500.135	4.39
500.484	4.44
500.832	4.47
501.181	4.51
501.529	4.55
501.878	4.57
502.226	4.63
502.574	4.68
502.923	4.72
503.271	4.78
503.619	4.87
503.967	4.93
504.315	4.98
504.663	5.03
505.011	5.09
505.359	5.09
505.707	5.13
506.055	5.2
506.403	5.25
506.751	5.32
507.098	5.42
507.446	5.48
507.794	5.56
508.141	5.62
508.489	5.7
508.837	5.76
509.184	5.83
509.531	5.9
509.879	5.98
510.226	6.06
510.574	6.16
510.921	6.23
511.268	6.32
511.616	6.41
511.963	6.48
512.31	6.58
512.657	6.7
513.004	6.81
513.351	6.92
513.698	7.03
514.045	7.13
514.392	7.21
514.739	7.32
515.086	7.44
515.432	7.56
515.779	7.64
516.126	7.77
516.473	7.86
516.819	7.94
517.166	8.06
517.512	8.19
517.859	8.27
518.205	8.35
518.552	8.46
518.898	8.56
519.245	8.68
519.591	8.79
519.937	8.9
520.283	9.01
520.629	9.14
520.976	9.27
521.322	9.4
521.668	9.54
522.014	9.66
522.36	9.8
522.706	9.94
523.052	10.12
523.398	10.31
523.743	10.49
524.089	10.67
524.435	10.81
524.781	10.96
525.126	11.09
525.472	11.23
525.817	11.33
526.163	11.44
526.509	11.53
526.854	11.63
527.199	11.71
527.545	11.79
527.89	11.89
528.235	11.98
528.581	12.08
528.926	12.18
529.271	12.29
529.616	12.38
529.961	12.48
530.306	12.59
530.651	12.68
530.996	12.79
531.341	12.93
531.686	13.04
532.031	13.15
532.376	13.3
532.721	13.43
533.065	13.57
533.41	13.7
533.755	13.84
534.099	13.97
534.444	14.13
534.788	14.26
535.133	14.38
535.477	14.52
535.822	14.65
536.166	14.78
536.51	14.94
536.855	15.11
537.199	15.3
537.543	15.47
537.887	15.65
538.231	15.83
538.576	16.01
538.92	16.19
539.264	16.36
539.608	16.52
539.951	16.67
540.295	16.82
540.639	16.97
540.983	17.13
541.327	17.3
541.671	17.46
542.014	17.61
542.358	17.74
542.701	17.88
543.045	18.02
543.389	18.17
543.732	18.32
544.075	18.45
544.419	18.59
544.762	18.71
545.105	18.85
545.449	19.03
545.792	19.18
546.135	19.36
546.478	19.52
546.821	19.71
547.165	19.92
547.508	20.11
547.851	20.33
548.194	20.51
548.536	20.65
548.879	20.82
549.222	21
549.565	21.21
549.908	21.41
550.25	21.63
550.593	21.83
550.936	22.02
551.278	22.25
551.621	22.44
551.963	22.65
552.306	22.82
552.648	22.99
552.991	23.21
553.333	23.36
553.675	23.57
554.017	23.72
554.36	23.89
554.702	24.08
555.044	24.23
555.386	24.4
555.728	24.59
556.07	24.75
556.412	24.9
556.754	25.07
557.096	25.27
557.438	25.44
557.78	25.58
558.121	25.72
558.463	25.86
558.805	26.04
559.147	26.21
559.488	26.45
559.83	26.59
560.171	26.7
560.513	26.84
560.854	27.03
561.196	27.18
561.537	27.31
561.878	27.46
562.22	27.57
562.561	27.67
562.902	27.82
563.243	28.02
563.584	28.25
563.925	28.38
564.266	28.53
564.607	28.72
564.948	28.89
565.289	29.03
565.63	29.16
565.971	29.3
566.312	29.42
566.653	29.5
566.993	29.64
567.334	29.79
567.675	29.94
568.015	30.07
568.356	30.17
568.696	30.3
569.037	30.42
569.377	30.59
569.718	30.74
570.058	30.86
570.398	30.93
570.739	30.98
571.079	31.09
571.419	31.13
571.759	31.17
572.099	31.27
572.439	31.36
572.779	31.47
573.119	31.52
573.459	31.62
573.799	31.69
574.139	31.75
574.479	31.84
574.819	31.91
575.158	31.92
575.498	31.97
575.838	32.11
576.177	32.17
576.517	32.21
576.856	32.32
577.196	32.39
577.535	32.45
577.875	32.53
578.214	32.65
578.553	32.78
578.893	32.93
579.232	32.97
579.571	33.11
579.91	33.21
580.25	33.32
580.589	33.4
580.928	33.54
581.267	33.66
581.606	33.72
581.945	33.76
582.283	33.83
582.622	33.99
582.961	33.98
583.3	34.09
583.639	34.16
583.977	34.21
584.316	34.28
584.654	34.37
584.993	34.45
585.332	34.5
585.67	34.56
586.008	34.53
586.347	34.7
586.685	34.66
587.024	34.73
587.362	34.74
587.7	34.76
588.038	34.86
588.376	34.96
588.715	35.04
589.053	35.1
589.391	35.15
589.729	35.21
590.067	35.26
590.404	35.26
590.742	35.37
591.08	35.46
591.418	35.54
591.756	35.63
592.093	35.68
592.431	35.76
592.769	35.84
593.106	35.91
593.444	36
593.781	36.02
594.119	36.09
594.456	36.14
594.793	36.27
595.131	36.25
595.468	36.29
595.805	36.41
596.143	36.5
596.48	36.62
596.817	36.67
597.154	36.77
597.491	36.8
597.828	36.84
598.165	36.81
598.502	36.8
598.839	36.8
599.176	36.83
599.512	36.82
599.849	36.89
600.186	36.91
600.523	36.9
600.859	37.04
601.196	37.1
601.532	37.14
601.869	37.11
602.205	37.24
602.542	37.22
602.878	37.21
603.215	37.27
603.551	37.28
603.887	37.29
604.223	37.29
604.56	37.36
604.896	37.34
605.232	37.42
605.568	37.52
605.904	37.52
606.24	37.61
606.576	37.7
606.912	37.67
607.248	37.77
607.583	37.77
607.919	37.75
608.255	37.72
608.591	37.76
608.926	37.86
609.262	37.84
609.597	37.83
609.933	37.84
610.268	37.85
610.604	37.95
610.939	37.97
611.275	38.02
611.61	38.1
611.945	38.09
612.281	38.11
612.616	38.1
612.951	38.23
613.286	38.26
613.621	38.24
613.956	38.25
614.291	38.18
614.626	38.23
614.961	38.24
615.296	38.33
615.631	38.43
615.966	38.45
616.3	38.47
616.635	38.55
616.97	38.51
617.304	38.56
617.639	38.45
617.973	38.54
618.308	38.55
618.642	38.54
618.977	38.61
619.311	38.63
619.646	38.74
619.98	38.69
620.314	38.68
620.648	38.75
620.983	38.76
621.317	38.89
621.651	38.89
621.985	39.03
622.319	39.08
622.653	39.17
622.987	39.2
623.321	39.19
623.655	39.21
623.988	39.27
624.322	39.22
624.656	39.33
624.99	39.3
625.323	39.2
625.657	39.2
625.99	39.23
626.324	39.28
626.657	39.25
626.991	39.24
627.324	39.29
627.658	39.34
627.991	39.4
628.324	39.36
628.657	39.4
628.991	39.34
629.324	39.31
629.657	39.15
629.99	39.16
630.323	39.15
630.656	39.08
630.989	39.09
631.322	39.11
631.655	39.1
631.987	39.13
632.32	39.27
632.653	39.36
632.986	39.44
633.318	39.44
633.651	39.45
633.984	39.6
634.316	39.57
634.649	39.52
634.981	39.56
635.313	39.64
635.646	39.6
635.978	39.65
636.31	39.66
636.643	39.73
636.975	39.76
637.307	39.74
637.639	39.87
637.971	39.85
638.303	39.85
638.635	39.94
638.967	40.04
639.299	40.01
639.631	40
639.963	40.03
640.295	40.02
640.626	39.95
640.958	39.95
641.29	39.92
641.621	39.94
641.953	39.89
642.285	39.95
642.616	39.96
642.948	40.02
643.279	39.97
643.61	39.98
643.942	40.02
644.273	40.15
644.604	40.15
644.936	40.22
645.267	40.24
645.598	40.09
645.929	39.95
646.26	39.98
646.591	39.94
646.922	39.93
647.253	40.04
647.584	40.18
647.915	40.08
648.245	40.1
648.576	40.08
648.907	40.17
649.238	40.09
649.568	40.09
649.899	39.99
650.229	40.08
650.56	40.14
650.89	40.21
651.221	40.15
651.551	40.25
651.882	40.24
652.212	40.28
652.542	40.37
652.872	40.37
653.203	40.34
653.533	40.42
653.863	40.38
654.193	40.33
654.523	40.29
654.853	40.31
655.183	40.37
655.513	40.47
655.843	40.45
656.172	40.54
656.502	40.68
656.832	40.73
657.162	40.67
657.491	40.62
657.821	40.48
658.15	40.47
658.48	40.42
658.809	40.49
659.139	40.55
659.468	40.65
659.798	40.75
660.127	40.84
660.456	40.85
660.785	40.93
661.115	40.92
661.444	40.93
661.773	40.93
662.102	40.95
662.431	40.89
662.76	40.84
663.089	40.79
663.418	40.79
663.747	40.87
664.076	41.01
664.404	41.13
664.733	41.22
665.062	41.21
665.39	41.33
665.719	41.22
666.048	41.12
