Data from MVZ_BU163024_Reflection_00011.txt Node
Date: Tue Nov 19 12:11:43 EST 2019
User: vgr7
Spectrometer: USB2G7710
Scans to average: 3
Trigger mode: 4
Integration Time (sec): 2.000000E-2
Electric dark correction enabled: true
Boxcar width: 10
XAxis mode: Wavelengths
Number of Pixels in Spectrum: 2048
>>>>>Begin Spectral Data<<<<<
177.721	-777.29
178.105	-121.49
178.488	-55.53
178.871	-110.75
179.254	-96.97
179.636	141.67
180.019	-198.12
180.402	230.77
180.785	32.38
181.168	88.7
181.55	13.55
181.933	53.23
182.316	4.51
182.698	-41.69
183.081	-33.26
183.463	-31.96
183.846	-44.06
184.228	-76.35
184.611	-77.99
184.993	-80.78
185.376	-81.3
185.758	-75.72
186.14	-50.29
186.522	-32.33
186.904	-74.83
187.287	-50.89
187.669	-5.03
188.051	33.23
188.433	9.99
188.815	32.31
189.197	47.39
189.579	143.86
189.961	93.18
190.342	144.28
190.724	197.05
191.106	282.21
191.488	262.06
191.869	188.1
192.251	355.06
192.633	587.99
193.014	513.17
193.396	301.67
193.777	239.64
194.159	178.19
194.54	219.05
194.922	244.57
195.303	628.28
195.684	3071.26
196.065	-924.34
196.447	-771.27
196.828	-775.4
197.209	-343.05
197.59	-212.42
197.971	-192.41
198.352	-177.06
198.733	-148.32
199.114	-188.18
199.495	-173.85
199.876	-161.22
200.257	-397.64
200.638	-387.77
201.018	-432.45
201.399	-225.48
201.78	-201.74
202.16	-130.5
202.541	-116.74
202.922	-118.48
203.302	-27.45
203.683	306.67
204.063	230.3
204.444	44.44
204.824	304.76
205.204	-664.37
205.585	2838.1
205.965	-438.76
206.345	726.98
206.725	-91
207.106	38.29
207.486	-6.93
207.866	4.33
208.246	6.33
208.626	-28.4
209.006	-39.65
209.386	-48.44
209.766	-83.15
210.145	-82.32
210.525	-94.5
210.905	-71.21
211.285	-64.56
211.664	-62.62
212.044	-62.79
212.424	-59.05
212.803	-55.12
213.183	-50.98
213.562	-45.81
213.942	-50.83
214.321	-48.02
214.701	-73.02
215.08	-107.7
215.459	-92.7
215.838	-107.19
216.218	-118.88
216.597	-97.84
216.976	-92.51
217.355	-74.48
217.734	-62.71
218.113	-53.37
218.492	-49.52
218.871	-42.54
219.25	-48.99
219.629	-48.76
220.008	-47.94
220.387	-63.05
220.766	-53.52
221.144	-43.73
221.523	-57.84
221.902	-46.93
222.28	-51.76
222.659	-21.1
223.037	-16.65
223.416	-12.35
223.794	-2.74
224.173	-11.05
224.551	-2.92
224.929	-4.71
225.308	-0.75
225.686	-2.72
226.064	-17.4
226.442	-15.07
226.821	-13.52
227.199	-11.86
227.577	-9.14
227.955	-7.14
228.333	-8.68
228.711	-11.63
229.089	-12.7
229.467	-11.29
229.845	-16.18
230.222	-13.77
230.6	-16.79
230.978	-12.34
231.356	-11.66
231.733	-12.09
232.111	-9.85
232.488	-9.87
232.866	-7.2
233.243	-8.55
233.621	-7.38
233.998	-2.11
234.376	-0.02
234.753	-1.33
235.13	-2.16
235.508	-1.84
235.885	0.6
236.262	0.73
236.639	0.84
237.016	1.37
237.393	2.18
237.77	2.94
238.147	2.33
238.524	3.05
238.901	1.87
239.278	1.24
239.655	1.03
240.032	0.27
240.409	0.53
240.785	0.69
241.162	0.69
241.539	1.09
241.915	0.44
242.292	0.28
242.668	0.58
243.045	0.91
243.421	1.66
243.798	1.57
244.174	2.44
244.551	3
244.927	3.23
245.303	3.2
245.679	3.48
246.056	3.65
246.432	3.69
246.808	3.84
247.184	3.93
247.56	3.77
247.936	4.05
248.312	4.08
248.688	4.07
249.064	4.06
249.44	4.04
249.815	4.07
250.191	3.96
250.567	3.88
250.943	4.06
251.318	3.79
251.694	3.75
252.069	3.41
252.445	2.97
252.82	3.28
253.196	3.57
253.571	3.61
253.947	3.77
254.322	3.42
254.697	3.34
255.073	3.23
255.448	3.53
255.823	3.83
256.198	3.71
256.573	3.67
256.948	3.56
257.323	3.56
257.698	3.76
258.073	3.85
258.448	3.85
258.823	3.74
259.198	3.77
259.573	3.54
259.948	3.65
260.322	3.86
260.697	3.47
261.072	3.41
261.446	3.37
261.821	3.27
262.195	3.35
262.57	3.31
262.944	3.24
263.319	3.18
263.693	3.04
264.067	3.06
264.442	3.05
264.816	3.2
265.19	3.28
265.564	3.07
265.938	3.15
266.313	3.26
266.687	3.13
267.061	3.17
267.435	3.57
267.809	3.24
268.183	3.07
268.556	2.85
268.93	2.98
269.304	2.89
269.678	2.87
270.051	2.89
270.425	2.67
270.799	2.6
271.172	2.68
271.546	2.66
271.919	2.8
272.293	2.92
272.666	2.76
273.04	2.65
273.413	2.89
273.787	2.69
274.16	2.59
274.533	2.58
274.906	2.69
275.279	2.55
275.653	2.87
276.026	2.83
276.399	2.98
276.772	2.84
277.145	2.88
277.518	2.82
277.891	2.68
278.263	2.85
278.636	3.27
279.009	3.32
279.382	3.39
279.755	3.19
280.127	3.1
280.5	3.18
280.872	3.21
281.245	3.09
281.617	3.33
281.99	3.37
282.362	3.35
282.735	3.29
283.107	3.4
283.479	3.34
283.852	3.38
284.224	3.53
284.596	3.46
284.968	3.36
285.34	3.52
285.713	3.56
286.085	3.53
286.457	3.37
286.829	3.26
287.201	3.14
287.572	3.3
287.944	3.34
288.316	3.33
288.688	3.45
289.06	3.48
289.431	3.46
289.803	3.33
290.175	3.42
290.546	3.4
290.918	3.33
291.289	3.36
291.661	3.41
292.032	3.38
292.403	3.41
292.775	3.67
293.146	3.58
293.517	3.7
293.889	3.76
294.26	3.88
294.631	4.04
295.002	4.12
295.373	4.09
295.744	4.04
296.115	4.19
296.486	4.12
296.857	4.08
297.228	4.02
297.599	4.16
297.97	4.31
298.34	4.33
298.711	4.34
299.082	4.32
299.452	4.31
299.823	4.39
300.194	4.39
300.564	4.2
300.935	4.31
301.305	4.26
301.676	4.16
302.046	4.07
302.416	4.02
302.787	4
303.157	4
303.527	4.12
303.897	3.88
304.267	3.9
304.637	4.01
305.008	4.06
305.378	4.26
305.748	4.09
306.117	4.12
306.487	4.17
306.857	4.25
307.227	4.4
307.597	4.39
307.967	4.44
308.336	4.37
308.706	4.45
309.076	4.52
309.445	4.84
309.815	4.98
310.184	5.17
310.554	5.24
310.923	5.14
311.293	5.08
311.662	5.28
312.031	5.28
312.401	5.27
312.77	5.38
313.139	5.21
313.508	5.28
313.877	5.25
314.246	5.37
314.616	5.44
314.985	5.36
315.353	5.38
315.722	5.53
316.091	5.76
316.46	5.8
316.829	5.82
317.198	5.76
317.567	5.78
317.935	5.53
318.304	5.75
318.672	6.02
319.041	6.14
319.41	6.14
319.778	6.35
320.147	6.46
320.515	6.41
320.883	6.43
321.252	6.44
321.62	6.44
321.988	6.44
322.357	6.26
322.725	6.45
323.093	6.4
323.461	6.42
323.829	6.42
324.197	6.35
324.565	6.47
324.933	6.48
325.301	6.3
325.669	6.37
326.037	6.32
326.405	6.23
326.772	6.24
327.14	6.38
327.508	6.29
327.875	6.39
328.243	6.4
328.61	6.68
328.978	6.67
329.346	6.77
329.713	6.77
330.08	7.1
330.448	7.05
330.815	6.98
331.182	6.99
331.55	6.9
331.917	6.95
332.284	7.07
332.651	6.99
333.018	7.17
333.385	7.36
333.752	7.47
334.119	7.53
334.486	7.67
334.853	7.59
335.22	7.52
335.587	7.42
335.954	7.43
336.32	7.3
336.687	7.51
337.054	7.47
337.42	7.45
337.787	7.31
338.153	7.2
338.52	7.37
338.886	7.27
339.253	7.36
339.619	7.37
339.986	7.28
340.352	7.32
340.718	7.35
341.084	7.37
341.451	7.37
341.817	7.35
342.183	7.18
342.549	7.26
342.915	7.38
343.281	7.38
343.647	7.29
344.013	7.38
344.379	7.27
344.745	7.31
345.11	7.23
345.476	7.39
345.842	7.47
346.208	7.45
346.573	7.63
346.939	7.63
347.304	7.66
347.67	7.62
348.035	7.63
348.401	7.67
348.766	7.51
349.132	7.41
349.497	7.39
349.862	7.52
350.228	7.37
350.593	7.4
350.958	7.52
351.323	7.54
351.688	7.45
352.053	7.45
352.418	7.52
352.783	7.51
353.148	7.41
353.513	7.42
353.878	7.49
354.243	7.42
354.608	7.6
354.972	7.63
355.337	7.68
355.702	7.67
356.066	7.64
356.431	7.71
356.795	7.71
357.16	7.78
357.524	7.79
357.889	7.89
358.253	7.89
358.618	7.76
358.982	7.88
359.346	7.93
359.71	7.95
360.075	7.93
360.439	8.06
360.803	8.09
361.167	8.07
361.531	8.01
361.895	8
362.259	7.88
362.623	7.83
362.987	7.79
363.351	7.8
363.714	7.82
364.078	7.89
364.442	7.89
364.806	7.88
365.169	7.89
365.533	7.87
365.896	7.83
366.26	7.84
366.623	7.77
366.987	7.8
367.35	7.84
367.714	7.84
368.077	7.77
368.44	7.7
368.803	7.65
369.167	7.68
369.53	7.67
369.893	7.66
370.256	7.54
370.619	7.54
370.982	7.48
371.345	7.47
371.708	7.35
372.071	7.33
372.434	7.31
372.797	7.25
373.159	7.15
373.522	7.09
373.885	7.12
374.247	7.04
374.61	7
374.973	6.94
375.335	6.89
375.698	6.83
376.06	6.8
376.423	6.8
376.785	6.73
377.147	6.67
377.51	6.62
377.872	6.65
378.234	6.59
378.596	6.56
378.958	6.45
379.321	6.35
379.683	6.34
380.045	6.22
380.407	6.21
380.769	6.24
381.13	6.19
381.492	6.08
381.854	6.07
382.216	5.96
382.578	5.91
382.939	5.87
383.301	5.84
383.663	5.83
384.024	5.83
384.386	5.82
384.747	5.78
385.109	5.74
385.47	5.74
385.832	5.75
386.193	5.73
386.554	5.72
386.916	5.74
387.277	5.66
387.638	5.69
387.999	5.64
388.36	5.57
388.721	5.58
389.082	5.58
389.443	5.58
389.804	5.6
390.165	5.55
390.526	5.54
390.887	5.47
391.248	5.45
391.609	5.41
391.969	5.39
392.33	5.4
392.691	5.43
393.051	5.45
393.412	5.39
393.772	5.35
394.133	5.32
394.493	5.29
394.854	5.29
395.214	5.22
395.574	5.19
395.935	5.13
396.295	5.13
396.655	5.12
397.015	5.03
397.376	4.97
397.736	4.9
398.096	4.84
398.456	4.84
398.816	4.82
399.176	4.75
399.535	4.66
399.895	4.63
400.255	4.56
400.615	4.52
400.975	4.53
401.334	4.51
401.694	4.49
402.054	4.49
402.413	4.48
402.773	4.46
403.132	4.44
403.492	4.46
403.851	4.38
404.211	4.35
404.57	4.37
404.929	4.35
405.288	4.38
405.648	4.36
406.007	4.35
406.366	4.32
406.725	4.34
407.084	4.37
407.443	4.34
407.802	4.33
408.161	4.31
408.52	4.27
408.879	4.27
409.238	4.29
409.596	4.26
409.955	4.2
410.314	4.23
410.673	4.26
411.031	4.23
411.39	4.24
411.748	4.24
412.107	4.22
412.465	4.21
412.824	4.18
413.182	4.18
413.54	4.14
413.899	4.11
414.257	4.1
414.615	4.09
414.974	4.11
415.332	4.12
415.69	4.07
416.048	4.06
416.406	4.04
416.764	4.01
417.122	3.98
417.48	4.01
417.838	3.96
418.195	3.91
418.553	3.91
418.911	3.89
419.269	3.88
419.626	3.86
419.984	3.84
420.342	3.82
420.699	3.81
421.057	3.82
421.414	3.8
421.772	3.79
422.129	3.74
422.486	3.71
422.844	3.68
423.201	3.72
423.558	3.68
423.915	3.66
424.273	3.65
424.63	3.67
424.987	3.65
425.344	3.66
425.701	3.66
426.058	3.65
426.415	3.65
426.772	3.62
427.128	3.62
427.485	3.62
427.842	3.6
428.199	3.6
428.555	3.57
428.912	3.56
429.269	3.54
429.625	3.56
429.982	3.55
430.338	3.53
430.695	3.5
431.051	3.52
431.407	3.52
431.764	3.51
432.12	3.5
432.476	3.52
432.832	3.5
433.189	3.48
433.545	3.48
433.901	3.47
434.257	3.45
434.613	3.45
434.969	3.46
435.325	3.46
435.681	3.44
436.036	3.47
436.392	3.48
436.748	3.5
437.104	3.51
437.459	3.51
437.815	3.53
438.171	3.51
438.526	3.52
438.882	3.53
439.237	3.53
439.593	3.52
439.948	3.51
440.304	3.51
440.659	3.52
441.014	3.52
441.369	3.54
441.725	3.56
442.08	3.57
442.435	3.58
442.79	3.59
443.145	3.59
443.5	3.57
443.855	3.57
444.21	3.56
444.565	3.55
444.92	3.55
445.275	3.56
445.629	3.56
445.984	3.57
446.339	3.56
446.693	3.55
447.048	3.53
447.403	3.51
447.757	3.5
448.112	3.5
448.466	3.51
448.82	3.5
449.175	3.5
449.529	3.47
449.883	3.42
450.238	3.41
450.592	3.4
450.946	3.37
451.3	3.36
451.654	3.35
452.008	3.35
452.362	3.32
452.716	3.33
453.07	3.35
453.424	3.33
453.778	3.31
454.132	3.3
454.486	3.31
454.839	3.32
455.193	3.31
455.547	3.3
455.9	3.31
456.254	3.3
456.607	3.28
456.961	3.28
457.314	3.31
457.668	3.33
458.021	3.35
458.375	3.37
458.728	3.4
459.081	3.38
459.434	3.37
459.787	3.38
460.141	3.37
460.494	3.35
460.847	3.35
461.2	3.36
461.553	3.37
461.906	3.36
462.259	3.37
462.611	3.38
462.964	3.4
463.317	3.39
463.67	3.39
464.022	3.41
464.375	3.42
464.728	3.42
465.08	3.41
465.433	3.4
465.785	3.41
466.138	3.39
466.49	3.44
466.843	3.45
467.195	3.48
467.547	3.47
467.899	3.47
468.252	3.48
468.604	3.49
468.956	3.51
469.308	3.54
469.66	3.55
470.012	3.56
470.364	3.56
470.716	3.57
471.068	3.6
471.42	3.6
471.772	3.63
472.123	3.65
472.475	3.69
472.827	3.69
473.178	3.72
473.53	3.71
473.882	3.71
474.233	3.72
474.585	3.71
474.936	3.72
475.288	3.73
475.639	3.73
475.99	3.73
476.342	3.74
476.693	3.71
477.044	3.71
477.395	3.7
477.746	3.71
478.097	3.7
478.448	3.69
478.8	3.67
479.15	3.65
479.501	3.64
479.852	3.65
480.203	3.66
480.554	3.66
480.905	3.66
481.255	3.67
481.606	3.67
481.957	3.67
482.307	3.66
482.658	3.67
483.009	3.67
483.359	3.67
483.709	3.67
484.06	3.68
484.41	3.68
484.761	3.7
485.111	3.7
485.461	3.68
485.811	3.68
486.162	3.68
486.512	3.69
486.862	3.68
487.212	3.67
487.562	3.65
487.912	3.66
488.262	3.65
488.612	3.65
488.961	3.64
489.311	3.63
489.661	3.64
490.011	3.61
490.36	3.61
490.71	3.62
491.06	3.62
491.409	3.61
491.759	3.61
492.108	3.6
492.458	3.6
492.807	3.62
493.157	3.63
493.506	3.65
493.855	3.66
494.204	3.68
494.554	3.7
494.903	3.74
495.252	3.75
495.601	3.78
495.95	3.79
496.299	3.82
496.648	3.85
496.997	3.89
497.346	3.94
497.695	3.98
498.043	4.03
498.392	4.07
498.741	4.11
499.09	4.17
499.438	4.21
499.787	4.26
500.135	4.31
500.484	4.38
500.832	4.42
501.181	4.45
501.529	4.5
501.878	4.57
502.226	4.6
502.574	4.68
502.923	4.74
503.271	4.82
503.619	4.9
503.967	4.96
504.315	5.04
504.663	5.14
505.011	5.22
505.359	5.27
505.707	5.33
506.055	5.41
506.403	5.5
506.751	5.58
507.098	5.69
507.446	5.8
507.794	5.9
508.141	6
508.489	6.12
508.837	6.22
509.184	6.32
509.531	6.43
509.879	6.51
510.226	6.61
510.574	6.71
510.921	6.8
511.268	6.94
511.616	7.05
511.963	7.15
512.31	7.26
512.657	7.38
513.004	7.5
513.351	7.64
513.698	7.75
514.045	7.87
514.392	8
514.739	8.14
515.086	8.28
515.432	8.42
515.779	8.56
516.126	8.73
516.473	8.86
516.819	8.99
517.166	9.12
517.512	9.25
517.859	9.41
518.205	9.53
518.552	9.65
518.898	9.78
519.245	9.93
519.591	10.05
519.937	10.17
520.283	10.31
520.629	10.44
520.976	10.59
521.322	10.76
521.668	10.92
522.014	11.09
522.36	11.24
522.706	11.4
523.052	11.57
523.398	11.76
523.743	11.97
524.089	12.21
524.435	12.4
524.781	12.61
525.126	12.79
525.472	12.98
525.817	13.11
526.163	13.25
526.509	13.37
526.854	13.52
527.199	13.67
527.545	13.81
527.89	13.96
528.235	14.11
528.581	14.25
528.926	14.39
529.271	14.53
529.616	14.68
529.961	14.83
530.306	15
530.651	15.15
530.996	15.34
531.341	15.51
531.686	15.7
532.031	15.89
532.376	16.07
532.721	16.26
533.065	16.49
533.41	16.7
533.755	16.93
534.099	17.13
534.444	17.37
534.788	17.58
535.133	17.77
535.477	17.96
535.822	18.21
536.166	18.48
536.51	18.74
536.855	19.03
537.199	19.32
537.543	19.63
537.887	19.93
538.231	20.24
538.576	20.52
538.92	20.79
539.264	21.06
539.608	21.34
539.951	21.59
540.295	21.86
540.639	22.14
540.983	22.38
541.327	22.64
541.671	22.89
542.014	23.13
542.358	23.37
542.701	23.62
543.045	23.84
543.389	24.06
543.732	24.27
544.075	24.52
544.419	24.76
544.762	24.97
545.105	25.24
545.449	25.48
545.792	25.82
546.135	26.12
546.478	26.42
546.821	26.74
547.165	27.09
547.508	27.41
547.851	27.72
548.194	28.06
548.536	28.38
548.879	28.68
549.222	29
549.565	29.32
549.908	29.62
550.25	29.96
550.593	30.32
550.936	30.7
551.278	31.03
551.621	31.34
551.963	31.71
552.306	32.04
552.648	32.38
552.991	32.63
553.333	32.93
553.675	33.29
554.017	33.6
554.36	33.94
554.702	34.22
555.044	34.48
555.386	34.73
555.728	35.03
556.07	35.28
556.412	35.6
556.754	35.91
557.096	36.24
557.438	36.51
557.78	36.74
558.121	37.02
558.463	37.38
558.805	37.71
559.147	37.97
559.488	38.19
559.83	38.47
560.171	38.76
560.513	39.06
560.854	39.37
561.196	39.66
561.537	39.85
561.878	40.12
562.22	40.42
562.561	40.78
562.902	41.03
563.243	41.35
563.584	41.56
563.925	41.87
564.266	42.1
564.607	42.33
564.948	42.59
565.289	42.83
565.63	42.97
565.971	43.19
566.312	43.47
566.653	43.71
566.993	43.95
567.334	44.12
567.675	44.34
568.015	44.52
568.356	44.66
568.696	44.83
569.037	45.01
569.377	45.22
569.718	45.37
570.058	45.56
570.398	45.73
570.739	45.96
571.079	46.16
571.419	46.37
571.759	46.56
572.099	46.76
572.439	46.94
572.779	47.13
573.119	47.31
573.459	47.41
573.799	47.55
574.139	47.68
574.479	47.9
574.819	48.04
575.158	48.18
575.498	48.38
575.838	48.54
576.177	48.73
576.517	48.89
576.856	49.04
577.196	49.19
577.535	49.3
577.875	49.46
578.214	49.63
578.553	49.78
578.893	49.95
579.232	50.06
579.571	50.19
579.91	50.35
580.25	50.57
580.589	50.74
580.928	50.95
581.267	51.13
581.606	51.23
581.945	51.27
582.283	51.4
582.622	51.51
582.961	51.69
583.3	51.75
583.639	51.88
583.977	51.96
584.316	52.12
584.654	52.25
584.993	52.34
585.332	52.35
585.67	52.44
586.008	52.51
586.347	52.66
586.685	52.76
587.024	52.85
587.362	52.92
587.7	53.06
588.038	53.17
588.376	53.23
588.715	53.29
589.053	53.47
589.391	53.55
589.729	53.67
590.067	53.81
590.404	53.99
590.742	54
591.08	54.04
591.418	54.16
591.756	54.25
592.093	54.37
592.431	54.55
592.769	54.67
593.106	54.81
593.444	54.97
593.781	55.08
594.119	55.19
594.456	55.29
594.793	55.37
595.131	55.44
595.468	55.52
595.805	55.65
596.143	55.76
596.48	55.85
596.817	55.96
597.154	56.1
597.491	56.14
597.828	56.21
598.165	56.35
598.502	56.41
598.839	56.54
599.176	56.61
599.512	56.57
599.849	56.65
600.186	56.65
600.523	56.62
600.859	56.65
601.196	56.71
601.532	56.77
601.869	56.82
602.205	56.86
602.542	56.94
602.878	56.98
603.215	56.98
603.551	57.03
603.887	57.05
604.223	57
604.56	57.07
604.896	57.16
605.232	57.28
605.568	57.37
605.904	57.41
606.24	57.54
606.576	57.6
606.912	57.7
607.248	57.81
607.583	57.9
607.919	58.02
608.255	58.14
608.591	58.14
608.926	58.2
609.262	58.25
609.597	58.27
609.933	58.39
610.268	58.55
610.604	58.6
610.939	58.68
611.275	58.67
611.61	58.7
611.945	58.78
612.281	58.76
612.616	58.74
612.951	58.79
613.286	58.71
613.621	58.81
613.956	58.78
614.291	58.83
614.626	58.79
614.961	58.77
615.296	58.75
615.631	58.81
615.966	58.89
616.3	59.04
616.635	59.18
616.97	59.21
617.304	59.26
617.639	59.26
617.973	59.27
618.308	59.52
618.642	59.57
618.977	59.62
619.311	59.67
619.646	59.66
619.98	59.74
620.314	59.74
620.648	59.76
620.983	59.83
621.317	59.96
621.651	60.05
621.985	60.03
622.319	60.15
622.653	60.16
622.987	60.21
623.321	60.16
623.655	60.17
623.988	60.18
624.322	60.09
624.656	60.15
624.99	60.25
625.323	60.13
625.657	60.24
625.99	60.26
626.324	60.29
626.657	60.28
626.991	60.32
627.324	60.4
627.658	60.41
627.991	60.48
628.324	60.35
628.657	60.38
628.991	60.47
629.324	60.31
629.657	60.37
629.99	60.37
630.323	60.32
630.656	60.21
630.989	60.18
631.322	60.2
631.655	60.22
631.987	60.2
632.32	60.29
632.653	60.28
632.986	60.22
633.318	60.18
633.651	60.25
633.984	60.25
634.316	60.22
634.649	60.4
634.981	60.31
635.313	60.42
635.646	60.52
635.978	60.55
636.31	60.72
636.643	60.76
636.975	60.79
637.307	60.91
637.639	61.04
637.971	61.04
638.303	61.07
638.635	61.15
638.967	61.26
639.299	61.25
639.631	61.14
639.963	61.2
640.295	61.31
640.626	61.32
640.958	61.43
641.29	61.59
641.621	61.45
641.953	61.56
642.285	61.42
642.616	61.39
642.948	61.54
643.279	61.51
643.61	61.43
643.942	61.42
644.273	61.42
644.604	61.46
644.936	61.59
645.267	61.65
645.598	61.69
645.929	61.63
646.26	61.63
646.591	61.72
646.922	61.71
647.253	61.75
647.584	61.83
647.915	61.8
648.245	61.66
648.576	61.59
648.907	61.49
649.238	61.76
649.568	61.83
649.899	61.72
650.229	61.69
650.56	61.82
650.89	61.86
651.221	61.9
651.551	61.98
651.882	61.94
652.212	61.93
652.542	61.87
652.872	61.94
653.203	61.94
653.533	61.83
653.863	61.92
654.193	61.82
654.523	61.78
654.853	61.85
655.183	62.06
655.513	62.17
655.843	62.36
656.172	62.41
656.502	62.38
656.832	62.35
657.162	62.51
657.491	62.61
657.821	62.65
658.15	62.75
658.48	62.75
658.809	62.77
659.139	62.83
659.468	62.82
659.798	62.74
660.127	62.86
660.456	63.07
660.785	63.08
661.115	63.2
661.444	63.3
661.773	63.26
662.102	63.05
662.431	62.99
662.76	62.99
663.089	62.93
663.418	62.91
663.747	63.08
664.076	62.98
664.404	62.96
664.733	62.94
665.062	62.8
665.39	62.83
665.719	62.82
666.048	62.8
