Data from MVZ_BU5182_Reflection_00008.txt Node
Date: Tue Nov 19 12:19:19 EST 2019
User: vgr7
Spectrometer: USB2G7710
Scans to average: 3
Trigger mode: 4
Integration Time (sec): 2.000000E-2
Electric dark correction enabled: true
Boxcar width: 10
XAxis mode: Wavelengths
Number of Pixels in Spectrum: 2048
>>>>>Begin Spectral Data<<<<<
177.721	55.1
178.105	77.4
178.488	19.78
178.871	27.38
179.254	62.22
179.636	101.17
180.019	129.23
180.402	127.27
180.785	-2.3
181.168	-304.76
181.55	155.56
181.933	210.06
182.316	-408.55
182.698	-107.13
183.081	-60.2
183.463	-48.8
183.846	-54.56
184.228	-55.49
184.611	-65
184.993	-40.19
185.376	-44.48
185.758	-31.09
186.14	-42.58
186.522	-46.77
186.904	-50.98
187.287	-57.02
187.669	-49.32
188.051	-52.88
188.433	-84.56
188.815	-84.25
189.197	-83.63
189.579	-58.87
189.961	-49.56
190.342	-51.35
190.724	-62.15
191.106	-74.12
191.488	-82.86
191.869	-55.85
192.251	-62.74
192.633	-56.44
193.014	-59.5
193.396	-62.4
193.777	-56.76
194.159	-56.47
194.54	-57.47
194.922	-54.55
195.303	-56.1
195.684	-59.66
196.065	-53.67
196.447	-36.66
196.828	-46.1
197.209	-42.96
197.59	-48.06
197.971	-56
198.352	-57.38
198.733	-52.47
199.114	-56.51
199.495	-54.41
199.876	-63.63
200.257	-55.91
200.638	-49.98
201.018	-56.16
201.399	-52.1
201.78	-61.71
202.16	-72.83
202.541	-74.17
202.922	-69.12
203.302	-55.15
203.683	-50.15
204.063	-62.11
204.444	-102.67
204.824	-72.09
205.204	-56.51
205.585	-34.37
205.965	-43.24
206.345	-37.46
206.725	-39.53
207.106	-27.15
207.486	-23.32
207.866	-17.84
208.246	-23.16
208.626	-31.89
209.006	-33.91
209.386	-33.99
209.766	-29.55
210.145	-26.71
210.525	-34.14
210.905	-28.02
211.285	-21.08
211.664	-16.91
212.044	-10.48
212.424	-0.55
212.803	-6.46
213.183	-1.62
213.562	-11.04
213.942	-2.3
214.321	1.58
214.701	0.09
215.08	-2.31
215.459	6.17
215.838	-15.76
216.218	-3.9
216.597	-0.57
216.976	0.08
217.355	-7.08
217.734	-5.63
218.113	-9.45
218.492	-2.16
218.871	-13.59
219.25	-17.55
219.629	-25.71
220.008	-22.35
220.387	-24.24
220.766	-18.06
221.144	-26.43
221.523	-18.67
221.902	-17.7
222.28	-16.15
222.659	-4.34
223.037	-7.38
223.416	-7.5
223.794	-1.42
224.173	-6.99
224.551	-3.86
224.929	-2.79
225.308	4.92
225.686	8.8
226.064	10.92
226.442	9.52
226.821	9.92
227.199	6.48
227.577	8.51
227.955	9.31
228.333	8.71
228.711	7.2
229.089	7.57
229.467	4.72
229.845	4.36
230.222	5.22
230.6	3.29
230.978	3.92
231.356	1.57
231.733	3.02
232.111	6.64
232.488	7.2
232.866	9.78
233.243	9.42
233.621	8.91
233.998	10.56
234.376	12.58
234.753	14.81
235.13	16.01
235.508	14.55
235.885	12.97
236.262	12.47
236.639	11.23
237.016	10.55
237.393	10.21
237.77	9.99
238.147	8.82
238.524	8.62
238.901	7.09
239.278	7.05
239.655	6.31
240.032	6.07
240.409	5.83
240.785	5.57
241.162	5.4
241.539	4.66
241.915	3.12
242.292	2.92
242.668	2.77
243.045	3.13
243.421	3.66
243.798	4
244.174	4.11
244.551	4.43
244.927	4.63
245.303	4.35
245.679	4.29
246.056	4.45
246.432	4.12
246.808	4.35
247.184	4.3
247.56	4.04
247.936	3.97
248.312	4.01
248.688	3.9
249.064	3.86
249.44	3.81
249.815	4.52
250.191	4.27
250.567	4.55
250.943	4.38
251.318	4.08
251.694	3.86
252.069	3.86
252.445	3.79
252.82	3.78
253.196	3.78
253.571	4.07
253.947	3.82
254.322	3.84
254.697	3.87
255.073	3.83
255.448	3.92
255.823	3.69
256.198	3.4
256.573	3.62
256.948	3.56
257.323	3.74
257.698	3.54
258.073	3.63
258.448	3.46
258.823	3.29
259.198	3.4
259.573	3.39
259.948	3.48
260.322	3.34
260.697	3.28
261.072	3.33
261.446	3.24
261.821	3.24
262.195	3.35
262.57	3.31
262.944	3.39
263.319	3.39
263.693	3.4
264.067	3.46
264.442	3.38
264.816	3.32
265.19	3.19
265.564	3.12
265.938	3.11
266.313	2.97
266.687	2.99
267.061	2.98
267.435	3.08
267.809	2.77
268.183	2.88
268.556	2.68
268.93	2.82
269.304	2.73
269.678	2.67
270.051	2.75
270.425	2.73
270.799	2.42
271.172	2.55
271.546	2.81
271.919	2.89
272.293	2.82
272.666	2.86
273.04	2.82
273.413	2.86
273.787	2.88
274.16	2.93
274.533	2.98
274.906	3.06
275.279	2.92
275.653	3.15
276.026	3.11
276.399	3.19
276.772	3.19
277.145	3.23
277.518	3.3
277.891	3.16
278.263	3.25
278.636	3.45
279.009	3.4
279.382	3.14
279.755	3.01
280.127	3.06
280.5	2.93
280.872	2.97
281.245	2.8
281.617	2.82
281.99	2.83
282.362	2.89
282.735	2.84
283.107	2.81
283.479	2.71
283.852	2.71
284.224	2.79
284.596	2.82
284.968	2.67
285.34	2.66
285.713	2.6
286.085	2.56
286.457	2.49
286.829	2.52
287.201	2.49
287.572	2.56
287.944	2.61
288.316	2.73
288.688	2.8
289.06	2.93
289.431	2.92
289.803	2.95
290.175	2.83
290.546	2.98
290.918	3.16
291.289	3.17
291.661	3.19
292.032	3.19
292.403	3.11
292.775	3.34
293.146	3.41
293.517	3.55
293.889	3.62
294.26	3.73
294.631	3.69
295.002	3.78
295.373	3.79
295.744	3.76
296.115	3.7
296.486	3.7
296.857	3.75
297.228	3.66
297.599	3.67
297.97	3.82
298.34	3.77
298.711	3.83
299.082	3.93
299.452	4.04
299.823	4.18
300.194	4.25
300.564	4.23
300.935	4.32
301.305	4.38
301.676	4.27
302.046	4.28
302.416	4.48
302.787	4.4
303.157	4.46
303.527	4.52
303.897	4.43
304.267	4.44
304.637	4.4
305.008	4.5
305.378	4.55
305.748	4.55
306.117	4.54
306.487	4.52
306.857	4.56
307.227	4.54
307.597	4.48
307.967	4.53
308.336	4.43
308.706	4.48
309.076	4.5
309.445	4.88
309.815	4.9
310.184	4.75
310.554	4.85
310.923	4.83
311.293	4.85
311.662	5.1
312.031	5.19
312.401	5.23
312.77	5.38
313.139	5.36
313.508	5.44
313.877	5.51
314.246	5.57
314.616	5.51
314.985	5.49
315.353	5.58
315.722	5.64
316.091	5.94
316.46	5.86
316.829	5.83
317.198	5.72
317.567	5.8
317.935	5.9
318.304	6.19
318.672	6.29
319.041	6.26
319.41	6.09
319.778	6.11
320.147	6.15
320.515	6.06
320.883	6.05
321.252	6.05
321.62	6.04
321.988	5.99
322.357	6.04
322.725	6.2
323.093	6.02
323.461	5.98
323.829	5.84
324.197	5.94
324.565	6.06
324.933	6.04
325.301	6.01
325.669	6.08
326.037	5.99
326.405	6.07
326.772	6.12
327.14	6.21
327.508	6.05
327.875	5.98
328.243	5.9
328.61	6.06
328.978	6.04
329.346	6.01
329.713	5.98
330.08	6.14
330.448	6.17
330.815	6.33
331.182	6.38
331.55	6.52
331.917	6.46
332.284	6.53
332.651	6.44
333.018	6.44
333.385	6.49
333.752	6.43
334.119	6.41
334.486	6.47
334.853	6.52
335.22	6.66
335.587	6.78
335.954	6.97
336.32	6.94
336.687	6.96
337.054	7.18
337.42	7.2
337.787	7.14
338.153	7.11
338.52	7.2
338.886	7.26
339.253	7.09
339.619	7.27
339.986	7.15
340.352	7.23
340.718	7.31
341.084	7.32
341.451	7.37
341.817	7.36
342.183	7.42
342.549	7.39
342.915	7.6
343.281	7.6
343.647	7.46
344.013	7.36
344.379	7.45
344.745	7.36
345.11	7.49
345.476	7.65
345.842	7.69
346.208	7.67
346.573	7.62
346.939	7.87
347.304	7.82
347.67	7.94
348.035	8
348.401	8.21
348.766	8.13
349.132	8.26
349.497	8.28
349.862	8.27
350.228	8.33
350.593	8.14
350.958	8.23
351.323	8.41
351.688	8.57
352.053	8.6
352.418	8.61
352.783	8.49
353.148	8.34
353.513	8.25
353.878	8.25
354.243	8.2
354.608	8.15
354.972	8.16
355.337	8.24
355.702	8.16
356.066	8.08
356.431	8.27
356.795	8.06
357.16	8.08
357.524	7.95
357.889	7.88
358.253	7.91
358.618	7.92
358.982	7.96
359.346	7.87
359.71	7.78
360.075	7.76
360.439	7.82
360.803	7.85
361.167	7.86
361.531	7.88
361.895	7.91
362.259	7.92
362.623	7.89
362.987	7.8
363.351	7.87
363.714	7.82
364.078	7.7
364.442	7.79
364.806	7.8
365.169	7.83
365.533	7.83
365.896	7.87
366.26	7.82
366.623	7.68
366.987	7.67
367.35	7.78
367.714	7.82
368.077	7.7
368.44	7.67
368.803	7.61
369.167	7.54
369.53	7.51
369.893	7.4
370.256	7.32
370.619	7.31
370.982	7.2
371.345	7.16
371.708	7.14
372.071	7.08
372.434	6.98
372.797	6.99
373.159	6.97
373.522	6.91
373.885	6.79
374.247	6.73
374.61	6.7
374.973	6.6
375.335	6.52
375.698	6.57
376.06	6.5
376.423	6.44
376.785	6.38
377.147	6.32
377.51	6.34
377.872	6.36
378.234	6.3
378.596	6.31
378.958	6.32
379.321	6.24
379.683	6.23
380.045	6.27
380.407	6.22
380.769	6.19
381.13	6.16
381.492	6.16
381.854	6.18
382.216	6.15
382.578	6.13
382.939	6.08
383.301	6.03
383.663	6.02
384.024	6.07
384.386	6.09
384.747	6.04
385.109	5.99
385.47	5.93
385.832	5.89
386.193	5.85
386.554	5.78
386.916	5.78
387.277	5.71
387.638	5.61
387.999	5.62
388.36	5.64
388.721	5.61
389.082	5.59
389.443	5.56
389.804	5.53
390.165	5.53
390.526	5.52
390.887	5.47
391.248	5.45
391.609	5.43
391.969	5.4
392.33	5.44
392.691	5.43
393.051	5.42
393.412	5.4
393.772	5.38
394.133	5.36
394.493	5.3
394.854	5.31
395.214	5.28
395.574	5.22
395.935	5.17
396.295	5.17
396.655	5.19
397.015	5.17
397.376	5.19
397.736	5.11
398.096	5.1
398.456	5.08
398.816	5.04
399.176	4.99
399.535	4.94
399.895	4.89
400.255	4.84
400.615	4.81
400.975	4.8
401.334	4.76
401.694	4.76
402.054	4.77
402.413	4.72
402.773	4.73
403.132	4.71
403.492	4.73
403.851	4.7
404.211	4.63
404.57	4.6
404.929	4.55
405.288	4.57
405.648	4.51
406.007	4.49
406.366	4.53
406.725	4.52
407.084	4.5
407.443	4.5
407.802	4.49
408.161	4.5
408.52	4.52
408.879	4.51
409.238	4.46
409.596	4.42
409.955	4.41
410.314	4.37
410.673	4.38
411.031	4.33
411.39	4.3
411.748	4.32
412.107	4.31
412.465	4.29
412.824	4.26
413.182	4.33
413.54	4.34
413.899	4.27
414.257	4.24
414.615	4.25
414.974	4.27
415.332	4.27
415.69	4.22
416.048	4.17
416.406	4.17
416.764	4.17
417.122	4.17
417.48	4.19
417.838	4.22
418.195	4.22
418.553	4.2
418.911	4.17
419.269	4.16
419.626	4.15
419.984	4.17
420.342	4.17
420.699	4.13
421.057	4.14
421.414	4.16
421.772	4.17
422.129	4.15
422.486	4.13
422.844	4.13
423.201	4.13
423.558	4.12
423.915	4.1
424.273	4.11
424.63	4.11
424.987	4.11
425.344	4.07
425.701	4.05
426.058	4.06
426.415	4.06
426.772	4.06
427.128	4.06
427.485	4.05
427.842	4.04
428.199	4.05
428.555	4.03
428.912	3.99
429.269	3.97
429.625	4
429.982	4.02
430.338	4.02
430.695	4.03
431.051	4.03
431.407	4.04
431.764	4.02
432.12	4.04
432.476	4.03
432.832	4.04
433.189	4.05
433.545	4.04
433.901	4.04
434.257	4.03
434.613	4.03
434.969	4
435.325	4.02
435.681	4
436.036	4.01
436.392	4.01
436.748	4.02
437.104	4.01
437.459	4
437.815	3.99
438.171	3.99
438.526	4.03
438.882	4.04
439.237	4.03
439.593	4.04
439.948	4.03
440.304	4.04
440.659	4.05
441.014	4.06
441.369	4.06
441.725	4.06
442.08	4.07
442.435	4.08
442.79	4.06
443.145	4.05
443.5	4.03
443.855	4.04
444.21	4.05
444.565	4.05
444.92	4.04
445.275	4.06
445.629	4.06
445.984	4.03
446.339	4.04
446.693	4.06
447.048	4.03
447.403	4.02
447.757	4.01
448.112	4.01
448.466	3.99
448.82	4
449.175	4
449.529	3.97
449.883	3.95
450.238	3.96
450.592	3.97
450.946	3.97
451.3	3.94
451.654	3.91
452.008	3.88
452.362	3.87
452.716	3.82
453.07	3.81
453.424	3.8
453.778	3.78
454.132	3.74
454.486	3.75
454.839	3.77
455.193	3.76
455.547	3.78
455.9	3.8
456.254	3.77
456.607	3.77
456.961	3.79
457.314	3.79
457.668	3.78
458.021	3.79
458.375	3.8
458.728	3.82
459.081	3.82
459.434	3.84
459.787	3.86
460.141	3.87
460.494	3.88
460.847	3.85
461.2	3.88
461.553	3.9
461.906	3.9
462.259	3.89
462.611	3.91
462.964	3.89
463.317	3.9
463.67	3.92
464.022	3.93
464.375	3.92
464.728	3.92
465.08	3.96
465.433	3.95
465.785	3.95
466.138	3.95
466.49	3.97
466.843	3.99
467.195	4
467.547	4.01
467.899	4.03
468.252	4.07
468.604	4.06
468.956	4.05
469.308	4.08
469.66	4.11
470.012	4.12
470.364	4.12
470.716	4.14
471.068	4.18
471.42	4.18
471.772	4.22
472.123	4.25
472.475	4.23
472.827	4.25
473.178	4.26
473.53	4.29
473.882	4.3
474.233	4.3
474.585	4.27
474.936	4.29
475.288	4.27
475.639	4.3
475.99	4.28
476.342	4.3
476.693	4.28
477.044	4.27
477.395	4.26
477.746	4.25
478.097	4.24
478.448	4.22
478.8	4.23
479.15	4.2
479.501	4.18
479.852	4.2
480.203	4.19
480.554	4.19
480.905	4.19
481.255	4.2
481.606	4.2
481.957	4.22
482.307	4.21
482.658	4.21
483.009	4.19
483.359	4.2
483.709	4.2
484.06	4.21
484.41	4.2
484.761	4.22
485.111	4.22
485.461	4.2
485.811	4.2
486.162	4.2
486.512	4.2
486.862	4.22
487.212	4.21
487.562	4.2
487.912	4.2
488.262	4.19
488.612	4.19
488.961	4.19
489.311	4.18
489.661	4.19
490.011	4.19
490.36	4.19
490.71	4.19
491.06	4.2
491.409	4.18
491.759	4.19
492.108	4.18
492.458	4.18
492.807	4.2
493.157	4.21
493.506	4.22
493.855	4.23
494.204	4.23
494.554	4.25
494.903	4.27
495.252	4.29
495.601	4.31
495.95	4.32
496.299	4.36
496.648	4.4
496.997	4.41
497.346	4.46
497.695	4.48
498.043	4.52
498.392	4.54
498.741	4.6
499.09	4.65
499.438	4.69
499.787	4.75
500.135	4.8
500.484	4.83
500.832	4.88
501.181	4.93
501.529	4.98
501.878	5.05
502.226	5.14
502.574	5.2
502.923	5.26
503.271	5.32
503.619	5.39
503.967	5.45
504.315	5.51
504.663	5.58
505.011	5.67
505.359	5.74
505.707	5.82
506.055	5.89
506.403	5.99
506.751	6.06
507.098	6.15
507.446	6.24
507.794	6.34
508.141	6.43
508.489	6.55
508.837	6.66
509.184	6.75
509.531	6.84
509.879	6.92
510.226	7.02
510.574	7.13
510.921	7.22
511.268	7.36
511.616	7.47
511.963	7.58
512.31	7.7
512.657	7.83
513.004	7.94
513.351	8.09
513.698	8.21
514.045	8.38
514.392	8.57
514.739	8.72
515.086	8.86
515.432	9.04
515.779	9.18
516.126	9.32
516.473	9.47
516.819	9.64
517.166	9.8
517.512	9.92
517.859	10.08
518.205	10.23
518.552	10.34
518.898	10.48
519.245	10.59
519.591	10.72
519.937	10.86
520.283	11.01
520.629	11.13
520.976	11.27
521.322	11.44
521.668	11.55
522.014	11.71
522.36	11.87
522.706	12.04
523.052	12.22
523.398	12.44
523.743	12.61
524.089	12.79
524.435	12.97
524.781	13.17
525.126	13.28
525.472	13.43
525.817	13.57
526.163	13.71
526.509	13.82
526.854	13.94
527.199	14.04
527.545	14.16
527.89	14.28
528.235	14.4
528.581	14.5
528.926	14.63
529.271	14.75
529.616	14.88
529.961	14.99
530.306	15.1
530.651	15.2
530.996	15.35
531.341	15.49
531.686	15.65
532.031	15.8
532.376	15.96
532.721	16.09
533.065	16.26
533.41	16.43
533.755	16.63
534.099	16.81
534.444	16.99
534.788	17.17
535.133	17.34
535.477	17.54
535.822	17.72
536.166	17.91
536.51	18.12
536.855	18.33
537.199	18.58
537.543	18.86
537.887	19.1
538.231	19.34
538.576	19.56
538.92	19.78
539.264	19.99
539.608	20.22
539.951	20.44
540.295	20.62
540.639	20.82
540.983	21.02
541.327	21.21
541.671	21.42
542.014	21.6
542.358	21.8
542.701	21.95
543.045	22.14
543.389	22.3
543.732	22.5
544.075	22.69
544.419	22.88
544.762	23.05
545.105	23.26
545.449	23.47
545.792	23.71
546.135	23.94
546.478	24.2
546.821	24.46
547.165	24.72
547.508	25.03
547.851	25.29
548.194	25.51
548.536	25.79
548.879	26.02
549.222	26.31
549.565	26.52
549.908	26.77
550.25	26.98
550.593	27.3
550.936	27.58
551.278	27.87
551.621	28.11
551.963	28.36
552.306	28.6
552.648	28.83
552.991	29.08
553.333	29.28
553.675	29.49
554.017	29.76
554.36	30.01
554.702	30.26
555.044	30.48
555.386	30.72
555.728	30.9
556.07	31.11
556.412	31.33
556.754	31.58
557.096	31.87
557.438	32.15
557.78	32.35
558.121	32.55
558.463	32.75
558.805	32.97
559.147	33.18
559.488	33.38
559.83	33.59
560.171	33.8
560.513	33.96
560.854	34.16
561.196	34.34
561.537	34.5
561.878	34.61
562.22	34.79
562.561	35
562.902	35.17
563.243	35.38
563.584	35.53
563.925	35.72
564.266	35.88
564.607	36.02
564.948	36.2
565.289	36.33
565.63	36.47
565.971	36.66
566.312	36.83
566.653	36.97
566.993	37.1
567.334	37.22
567.675	37.41
568.015	37.56
568.356	37.7
568.696	37.82
569.037	37.95
569.377	38.07
569.718	38.18
570.058	38.32
570.398	38.39
570.739	38.52
571.079	38.56
571.419	38.68
571.759	38.8
572.099	38.87
572.439	38.97
572.779	39.06
573.119	39.11
573.459	39.22
573.799	39.36
574.139	39.46
574.479	39.54
574.819	39.64
575.158	39.75
575.498	39.83
575.838	39.94
576.177	40.02
576.517	40.11
576.856	40.18
577.196	40.31
577.535	40.39
577.875	40.47
578.214	40.58
578.553	40.64
578.893	40.74
579.232	40.81
579.571	40.91
579.91	40.97
580.25	41
580.589	41.05
580.928	41.07
581.267	41.19
581.606	41.3
581.945	41.33
582.283	41.39
582.622	41.48
582.961	41.59
583.3	41.73
583.639	41.86
583.977	41.99
584.316	42
584.654	42.12
584.993	42.13
585.332	42.25
585.67	42.32
586.008	42.38
586.347	42.5
586.685	42.53
587.024	42.61
587.362	42.74
587.7	42.76
588.038	42.89
588.376	43
588.715	43.08
589.053	43.11
589.391	43.08
589.729	43.11
590.067	43.15
590.404	43.19
590.742	43.23
591.08	43.28
591.418	43.4
591.756	43.45
592.093	43.58
592.431	43.58
592.769	43.66
593.106	43.66
593.444	43.65
593.781	43.87
594.119	43.92
594.456	43.88
594.793	44.01
595.131	44.06
595.468	44.08
595.805	44.14
596.143	44.25
596.48	44.31
596.817	44.38
597.154	44.42
597.491	44.49
597.828	44.48
598.165	44.5
598.502	44.46
598.839	44.54
599.176	44.59
599.512	44.63
599.849	44.65
600.186	44.74
600.523	44.79
600.859	44.68
601.196	44.77
601.532	44.93
601.869	44.89
602.205	44.91
602.542	44.94
602.878	44.95
603.215	44.97
603.551	45.06
603.887	45.11
604.223	45.17
604.56	45.15
604.896	45.27
605.232	45.3
605.568	45.41
605.904	45.42
606.24	45.47
606.576	45.52
606.912	45.64
607.248	45.67
607.583	45.74
607.919	45.79
608.255	45.73
608.591	45.72
608.926	45.79
609.262	45.75
609.597	45.7
609.933	45.73
610.268	45.74
610.604	45.75
610.939	45.77
611.275	45.73
611.61	45.68
611.945	45.56
612.281	45.57
612.616	45.52
612.951	45.53
613.286	45.58
613.621	45.62
613.956	45.62
614.291	45.57
614.626	45.59
614.961	45.63
615.296	45.69
615.631	45.68
615.966	45.64
616.3	45.78
616.635	45.93
616.97	45.86
617.304	45.88
617.639	45.86
617.973	45.83
618.308	45.87
618.642	45.95
618.977	46.06
619.311	46.08
619.646	46.04
619.98	46.05
620.314	45.94
620.648	45.96
620.983	45.89
621.317	45.91
621.651	45.88
621.985	46
622.319	46.14
622.653	46.3
622.987	46.33
623.321	46.33
623.655	46.33
623.988	46.38
624.322	46.38
624.656	46.45
624.99	46.44
625.323	46.39
625.657	46.44
625.99	46.44
626.324	46.59
626.657	46.63
626.991	46.64
627.324	46.69
627.658	46.68
627.991	46.73
628.324	46.82
628.657	46.9
628.991	46.77
629.324	46.69
629.657	46.61
629.99	46.7
630.323	46.79
630.656	46.77
630.989	46.81
631.322	46.83
631.655	46.8
631.987	46.85
632.32	46.97
632.653	46.97
632.986	46.97
633.318	46.83
633.651	46.98
633.984	47.03
634.316	47.05
634.649	46.96
634.981	46.97
635.313	46.94
635.646	46.85
635.978	46.92
636.31	46.99
636.643	46.93
636.975	46.8
637.307	46.76
637.639	46.71
637.971	46.71
638.303	46.65
638.635	46.78
638.967	46.87
639.299	46.87
639.631	46.93
639.963	46.9
640.295	46.91
640.626	46.85
640.958	46.82
641.29	46.82
641.621	47.09
641.953	47.02
642.285	47.03
642.616	47.1
642.948	47.17
643.279	47.09
643.61	47.15
643.942	47.29
644.273	47.27
644.604	47.39
644.936	47.45
645.267	47.59
645.598	47.49
645.929	47.38
646.26	47.38
646.591	47.3
646.922	47.46
647.253	47.52
647.584	47.52
647.915	47.6
648.245	47.6
648.576	47.44
648.907	47.51
649.238	47.6
649.568	47.59
649.899	47.65
650.229	47.76
650.56	47.89
650.89	47.91
651.221	47.83
651.551	47.8
651.882	47.77
652.212	47.79
652.542	47.82
652.872	47.84
653.203	47.93
653.533	47.93
653.863	47.84
654.193	47.91
654.523	47.93
654.853	47.99
655.183	48.08
655.513	48.21
655.843	48.11
656.172	48.2
656.502	48.16
656.832	48.02
657.162	48.09
657.491	48.05
657.821	48.07
658.15	48.2
658.48	48.14
658.809	48.06
659.139	47.97
659.468	47.98
659.798	48
660.127	47.8
660.456	47.79
660.785	47.84
661.115	47.86
661.444	47.88
661.773	47.8
662.102	47.83
662.431	47.76
662.76	47.95
663.089	47.85
663.418	47.89
663.747	47.98
664.076	47.95
664.404	47.94
664.733	47.89
665.062	47.83
665.39	47.96
665.719	48.15
666.048	48.19
666.376	48.24
666.705	48.26
667.033	48.33
667.362	48.34
667.69	48.27
668.018	48.13
668.347	48.05
