Data from MVZ_BU65311_Reflection_00008.txt Node
Date: Tue Nov 19 12:20:15 EST 2019
User: vgr7
Spectrometer: USB2G7710
Scans to average: 3
Trigger mode: 4
Integration Time (sec): 2.000000E-2
Electric dark correction enabled: true
Boxcar width: 10
XAxis mode: Wavelengths
Number of Pixels in Spectrum: 2048
>>>>>Begin Spectral Data<<<<<
177.721	-173.81
178.105	-816.67
178.488	148.91
178.871	180
179.254	205.56
179.636	427.59
180.019	1058.33
180.402	58.33
180.785	-94.44
181.168	-344.44
181.55	225
181.933	1162.5
182.316	943.75
182.698	-56.25
183.081	-51.79
183.463	-44.74
183.846	-10.76
184.228	-11.61
184.611	56.19
184.993	72.5
185.376	68.45
185.758	42.89
186.14	47.44
186.522	39.37
186.904	42.31
187.287	29.14
187.669	28.67
188.051	15.41
188.433	-4.76
188.815	7.68
189.197	3.66
189.579	-2.01
189.961	-11.95
190.342	0.29
190.724	-8.85
191.106	-9.7
191.488	-10.72
191.869	-6.85
192.251	-3.85
192.633	-9.96
193.014	-11.26
193.396	-9.51
193.777	-5.15
194.159	6.3
194.54	11.05
194.922	13.96
195.303	17.94
195.684	20.16
196.065	16.82
196.447	17.74
196.828	15.94
197.209	22.25
197.59	25.3
197.971	30.02
198.352	24.23
198.733	29.75
199.114	28.94
199.495	20.19
199.876	13.77
200.257	24.33
200.638	29.21
201.018	30.93
201.399	31.88
201.78	24.44
202.16	3.52
202.541	3.39
202.922	-2.44
203.302	3.43
203.683	-4.46
204.063	-0.78
204.444	17.94
204.824	26.61
205.204	29.69
205.585	38.02
205.965	47.03
206.345	53.84
206.725	57.82
207.106	66.81
207.486	69.29
207.866	69.3
208.246	56.94
208.626	43.78
209.006	43.12
209.386	34.5
209.766	26.7
210.145	37.36
210.525	29.78
210.905	43.78
211.285	44.62
211.664	55.41
212.044	57.28
212.424	47.2
212.803	48.32
213.183	40.1
213.562	37.38
213.942	34.42
214.321	34.94
214.701	28.07
215.08	26.62
215.459	32.67
215.838	21.67
216.218	27.3
216.597	33.36
216.976	32.5
217.355	40.18
217.734	53.06
218.113	45.63
218.492	52.46
218.871	45.4
219.25	42.54
219.629	28.86
220.008	23.59
220.387	29.44
220.766	29.67
221.144	29.47
221.523	27.4
221.902	26.38
222.28	27.88
222.659	39.57
223.037	43.51
223.416	55.7
223.794	61.11
224.173	47.76
224.551	41.76
224.929	44.11
225.308	40.24
225.686	32.79
226.064	30.45
226.442	23.57
226.821	21.23
227.199	19.27
227.577	20.56
227.955	22.95
228.333	19.16
228.711	15.37
229.089	15.64
229.467	13.29
229.845	15.05
230.222	16.72
230.6	13.41
230.978	13.96
231.356	12.71
231.733	14.62
232.111	14.37
232.488	15.07
232.866	14.25
233.243	13.92
233.621	14.5
233.998	13.21
234.376	13.18
234.753	13.14
235.13	13.02
235.508	11.89
235.885	11.75
236.262	12.34
236.639	13.56
237.016	13.15
237.393	14.96
237.77	13.33
238.147	10.77
238.524	10.15
238.901	7.99
239.278	7.14
239.655	5.62
240.032	6.37
240.409	6.03
240.785	5.79
241.162	5.84
241.539	5.98
241.915	6.31
242.292	6.34
242.668	6.07
243.045	6.39
243.421	7.02
243.798	6.4
244.174	6.39
244.551	6.21
244.927	6.06
245.303	5.57
245.679	5.77
246.056	5.98
246.432	5.97
246.808	6.02
247.184	6.07
247.56	6.2
247.936	5.92
248.312	5.79
248.688	5.75
249.064	5.6
249.44	5.47
249.815	5.6
250.191	5.9
250.567	5.96
250.943	5.84
251.318	5.53
251.694	5.45
252.069	5.53
252.445	5.4
252.82	5.54
253.196	5.8
253.571	5.74
253.947	5.28
254.322	5.22
254.697	5.31
255.073	4.91
255.448	4.7
255.823	4.89
256.198	4.98
256.573	5.16
256.948	5.2
257.323	5.3
257.698	5.04
258.073	4.84
258.448	4.8
258.823	4.64
259.198	4.64
259.573	4.67
259.948	4.68
260.322	4.68
260.697	4.68
261.072	4.67
261.446	4.56
261.821	4.76
262.195	4.76
262.57	4.87
262.944	5.11
263.319	5.17
263.693	5.13
264.067	5.34
264.442	5.07
264.816	5.14
265.19	5.03
265.564	5.14
265.938	4.96
266.313	4.93
266.687	4.99
267.061	4.95
267.435	5.34
267.809	4.97
268.183	4.94
268.556	4.79
268.93	4.8
269.304	4.78
269.678	4.64
270.051	4.58
270.425	4.51
270.799	4.38
271.172	4.42
271.546	4.37
271.919	4.38
272.293	4.5
272.666	4.36
273.04	4.43
273.413	4.49
273.787	4.42
274.16	4.35
274.533	4.47
274.906	4.55
275.279	4.14
275.653	4.44
276.026	4.41
276.399	4.47
276.772	4.55
277.145	4.63
277.518	4.56
277.891	4.55
278.263	4.7
278.636	4.78
279.009	4.83
279.382	4.81
279.755	4.53
280.127	4.54
280.5	4.58
280.872	4.59
281.245	4.46
281.617	4.6
281.99	4.55
282.362	4.44
282.735	4.35
283.107	4.43
283.479	4.33
283.852	4.51
284.224	4.52
284.596	4.33
284.968	4.24
285.34	4.28
285.713	4.32
286.085	4.13
286.457	4.06
286.829	4.09
287.201	4.15
287.572	4.26
287.944	4.21
288.316	4.29
288.688	4.28
289.06	4.4
289.431	4.55
289.803	4.69
290.175	4.68
290.546	4.79
290.918	4.83
291.289	4.68
291.661	4.59
292.032	4.65
292.403	4.7
292.775	4.77
293.146	4.77
293.517	4.77
293.889	4.76
294.26	4.8
294.631	4.66
295.002	4.66
295.373	4.65
295.744	4.71
296.115	4.64
296.486	4.64
296.857	4.53
297.228	4.32
297.599	4.24
297.97	4.4
298.34	4.41
298.711	4.43
299.082	4.67
299.452	4.67
299.823	4.75
300.194	4.85
300.564	4.8
300.935	4.85
301.305	4.82
301.676	4.8
302.046	4.74
302.416	5
302.787	4.87
303.157	4.96
303.527	4.97
303.897	4.93
304.267	5.02
304.637	5.11
305.008	5.3
305.378	5.33
305.748	5.12
306.117	4.98
306.487	5.04
306.857	5.01
307.227	5.11
307.597	4.99
307.967	4.87
308.336	5.1
308.706	5.07
309.076	5.22
309.445	5.49
309.815	5.62
310.184	5.49
310.554	5.66
310.923	5.54
311.293	5.56
311.662	5.71
312.031	5.57
312.401	5.61
312.77	5.62
313.139	5.68
313.508	5.89
313.877	6.05
314.246	5.94
314.616	5.97
314.985	5.96
315.353	5.9
315.722	6.17
316.091	6.17
316.46	6.39
316.829	6.42
317.198	6.24
317.567	6.36
317.935	6.48
318.304	6.66
318.672	6.9
319.041	6.97
319.41	6.95
319.778	6.97
320.147	6.95
320.515	7.04
320.883	6.92
321.252	6.99
321.62	6.84
321.988	7.11
322.357	7.17
322.725	7.18
323.093	7.33
323.461	7.07
323.829	6.8
324.197	6.7
324.565	6.66
324.933	6.53
325.301	6.31
325.669	6.37
326.037	6.35
326.405	6.1
326.772	6.12
327.14	6.06
327.508	6.09
327.875	6.01
328.243	5.83
328.61	6.01
328.978	5.8
329.346	5.92
329.713	5.93
330.08	5.94
330.448	5.93
330.815	5.89
331.182	6.05
331.55	6.27
331.917	6.29
332.284	6.32
332.651	6.45
333.018	6.69
333.385	6.6
333.752	6.69
334.119	6.93
334.486	7.04
334.853	7.2
335.22	7.24
335.587	7.4
335.954	7.57
336.32	7.52
336.687	7.56
337.054	7.51
337.42	7.52
337.787	7.49
338.153	7.47
338.52	7.53
338.886	7.52
339.253	7.57
339.619	7.61
339.986	7.59
340.352	7.65
340.718	7.52
341.084	7.61
341.451	7.47
341.817	7.45
342.183	7.45
342.549	7.46
342.915	7.57
343.281	7.57
343.647	7.63
344.013	7.58
344.379	7.65
344.745	7.67
345.11	7.71
345.476	7.77
345.842	7.81
346.208	7.83
346.573	7.86
346.939	7.81
347.304	7.84
347.67	7.82
348.035	7.86
348.401	7.88
348.766	7.89
349.132	7.88
349.497	7.89
349.862	7.85
350.228	7.84
350.593	7.86
350.958	7.95
351.323	7.84
351.688	8.05
352.053	8.06
352.418	8.12
352.783	7.98
353.148	7.94
353.513	7.95
353.878	7.98
354.243	7.93
354.608	8.09
354.972	8.05
355.337	8.04
355.702	7.92
356.066	7.99
356.431	7.82
356.795	7.86
357.16	7.75
357.524	7.87
357.889	7.83
358.253	7.79
358.618	7.72
358.982	7.75
359.346	7.61
359.71	7.6
360.075	7.58
360.439	7.6
360.803	7.63
361.167	7.6
361.531	7.54
361.895	7.54
362.259	7.47
362.623	7.47
362.987	7.51
363.351	7.55
363.714	7.52
364.078	7.6
364.442	7.51
364.806	7.65
365.169	7.58
365.533	7.6
365.896	7.67
366.26	7.7
366.623	7.74
366.987	7.73
367.35	7.67
367.714	7.65
368.077	7.67
368.44	7.6
368.803	7.66
369.167	7.59
369.53	7.55
369.893	7.52
370.256	7.51
370.619	7.5
370.982	7.45
371.345	7.38
371.708	7.31
372.071	7.35
372.434	7.26
372.797	7.26
373.159	7.19
373.522	7.08
373.885	6.97
374.247	6.88
374.61	6.87
374.973	6.91
375.335	6.89
375.698	6.8
376.06	6.72
376.423	6.73
376.785	6.77
377.147	6.76
377.51	6.72
377.872	6.67
378.234	6.65
378.596	6.65
378.958	6.68
379.321	6.61
379.683	6.64
380.045	6.64
380.407	6.56
380.769	6.55
381.13	6.54
381.492	6.57
381.854	6.61
382.216	6.61
382.578	6.6
382.939	6.61
383.301	6.71
383.663	6.74
384.024	6.64
384.386	6.63
384.747	6.6
385.109	6.55
385.47	6.52
385.832	6.47
386.193	6.43
386.554	6.35
386.916	6.42
387.277	6.36
387.638	6.37
387.999	6.3
388.36	6.28
388.721	6.3
389.082	6.22
389.443	6.16
389.804	6.15
390.165	6.09
390.526	6.05
390.887	5.98
391.248	5.99
391.609	5.97
391.969	5.96
392.33	5.96
392.691	5.95
393.051	5.94
393.412	5.96
393.772	5.93
394.133	5.92
394.493	5.87
394.854	5.86
395.214	5.82
395.574	5.82
395.935	5.78
396.295	5.77
396.655	5.75
397.015	5.75
397.376	5.77
397.736	5.74
398.096	5.73
398.456	5.71
398.816	5.64
399.176	5.61
399.535	5.57
399.895	5.57
400.255	5.53
400.615	5.53
400.975	5.5
401.334	5.51
401.694	5.49
402.054	5.47
402.413	5.48
402.773	5.46
403.132	5.45
403.492	5.42
403.851	5.35
404.211	5.36
404.57	5.36
404.929	5.27
405.288	5.3
405.648	5.31
406.007	5.27
406.366	5.23
406.725	5.22
407.084	5.22
407.443	5.24
407.802	5.26
408.161	5.26
408.52	5.24
408.879	5.27
409.238	5.27
409.596	5.27
409.955	5.24
410.314	5.22
410.673	5.19
411.031	5.21
411.39	5.26
411.748	5.24
412.107	5.21
412.465	5.25
412.824	5.21
413.182	5.19
413.54	5.21
413.899	5.24
414.257	5.25
414.615	5.21
414.974	5.17
415.332	5.17
415.69	5.15
416.048	5.16
416.406	5.1
416.764	5.11
417.122	5.11
417.48	5.1
417.838	5.09
418.195	5.09
418.553	5.07
418.911	5.04
419.269	5.04
419.626	5.01
419.984	4.99
420.342	4.98
420.699	4.96
421.057	4.95
421.414	4.93
421.772	4.93
422.129	4.92
422.486	4.91
422.844	4.88
423.201	4.88
423.558	4.85
423.915	4.86
424.273	4.83
424.63	4.81
424.987	4.81
425.344	4.81
425.701	4.8
426.058	4.79
426.415	4.78
426.772	4.75
427.128	4.75
427.485	4.74
427.842	4.72
428.199	4.71
428.555	4.71
428.912	4.71
429.269	4.67
429.625	4.69
429.982	4.68
430.338	4.71
430.695	4.71
431.051	4.73
431.407	4.72
431.764	4.74
432.12	4.75
432.476	4.76
432.832	4.76
433.189	4.77
433.545	4.78
433.901	4.79
434.257	4.79
434.613	4.79
434.969	4.79
435.325	4.8
435.681	4.79
436.036	4.79
436.392	4.8
436.748	4.82
437.104	4.81
437.459	4.82
437.815	4.81
438.171	4.8
438.526	4.79
438.882	4.79
439.237	4.74
439.593	4.75
439.948	4.73
440.304	4.72
440.659	4.74
441.014	4.72
441.369	4.7
441.725	4.71
442.08	4.7
442.435	4.7
442.79	4.69
443.145	4.7
443.5	4.69
443.855	4.67
444.21	4.66
444.565	4.65
444.92	4.64
445.275	4.62
445.629	4.61
445.984	4.6
446.339	4.6
446.693	4.62
447.048	4.6
447.403	4.59
447.757	4.57
448.112	4.56
448.466	4.58
448.82	4.59
449.175	4.58
449.529	4.59
449.883	4.58
450.238	4.59
450.592	4.58
450.946	4.58
451.3	4.59
451.654	4.58
452.008	4.59
452.362	4.6
452.716	4.59
453.07	4.58
453.424	4.56
453.778	4.55
454.132	4.54
454.486	4.56
454.839	4.56
455.193	4.61
455.547	4.58
455.9	4.55
456.254	4.55
456.607	4.55
456.961	4.56
457.314	4.57
457.668	4.57
458.021	4.58
458.375	4.6
458.728	4.59
459.081	4.61
459.434	4.6
459.787	4.58
460.141	4.6
460.494	4.62
460.847	4.63
461.2	4.64
461.553	4.67
461.906	4.67
462.259	4.67
462.611	4.64
462.964	4.65
463.317	4.67
463.67	4.68
464.022	4.71
464.375	4.7
464.728	4.71
465.08	4.7
465.433	4.7
465.785	4.71
466.138	4.73
466.49	4.75
466.843	4.79
467.195	4.83
467.547	4.83
467.899	4.83
468.252	4.85
468.604	4.89
468.956	4.89
469.308	4.91
469.66	4.96
470.012	4.97
470.364	5.01
470.716	5.04
471.068	5.07
471.42	5.07
471.772	5.12
472.123	5.13
472.475	5.16
472.827	5.18
473.178	5.18
473.53	5.16
473.882	5.16
474.233	5.15
474.585	5.15
474.936	5.14
475.288	5.16
475.639	5.16
475.99	5.15
476.342	5.15
476.693	5.12
477.044	5.1
477.395	5.09
477.746	5.07
478.097	5.06
478.448	5.03
478.8	5.01
479.15	4.96
479.501	4.96
479.852	4.94
480.203	4.95
480.554	4.94
480.905	4.95
481.255	4.94
481.606	4.95
481.957	4.93
482.307	4.94
482.658	4.95
483.009	4.95
483.359	4.95
483.709	4.96
484.06	4.97
484.41	4.96
484.761	4.97
485.111	4.98
485.461	4.97
485.811	4.99
486.162	5.01
486.512	5.01
486.862	5
487.212	5.01
487.562	5
487.912	5.03
488.262	5.02
488.612	5.04
488.961	5.04
489.311	5.07
489.661	5.07
490.011	5.08
490.36	5.08
490.71	5.09
491.06	5.09
491.409	5.1
491.759	5.13
492.108	5.14
492.458	5.15
492.807	5.16
493.157	5.18
493.506	5.17
493.855	5.2
494.204	5.25
494.554	5.27
494.903	5.3
495.252	5.3
495.601	5.34
495.95	5.35
496.299	5.38
496.648	5.43
496.997	5.47
497.346	5.51
497.695	5.57
498.043	5.62
498.392	5.65
498.741	5.72
499.09	5.75
499.438	5.79
499.787	5.82
500.135	5.87
500.484	5.9
500.832	5.98
501.181	6.05
501.529	6.11
501.878	6.2
502.226	6.27
502.574	6.36
502.923	6.44
503.271	6.52
503.619	6.65
503.967	6.72
504.315	6.82
504.663	6.87
505.011	6.96
505.359	7.05
505.707	7.16
506.055	7.26
506.403	7.39
506.751	7.53
507.098	7.69
507.446	7.83
507.794	7.96
508.141	8.09
508.489	8.21
508.837	8.37
509.184	8.47
509.531	8.58
509.879	8.73
510.226	8.87
510.574	9.04
510.921	9.17
511.268	9.33
511.616	9.47
511.963	9.67
512.31	9.86
512.657	10.03
513.004	10.24
513.351	10.42
513.698	10.63
514.045	10.84
514.392	11.04
514.739	11.28
515.086	11.52
515.432	11.76
515.779	12.01
516.126	12.24
516.473	12.47
516.819	12.75
517.166	12.96
517.512	13.19
517.859	13.41
518.205	13.58
518.552	13.82
518.898	14.02
519.245	14.24
519.591	14.42
519.937	14.64
520.283	14.89
520.629	15.15
520.976	15.39
521.322	15.65
521.668	15.94
522.014	16.22
522.36	16.51
522.706	16.8
523.052	17.12
523.398	17.46
523.743	17.8
524.089	18.12
524.435	18.44
524.781	18.73
525.126	18.98
525.472	19.24
525.817	19.47
526.163	19.71
526.509	19.9
526.854	20.09
527.199	20.29
527.545	20.43
527.89	20.61
528.235	20.79
528.581	20.95
528.926	21.1
529.271	21.28
529.616	21.46
529.961	21.63
530.306	21.82
530.651	21.99
530.996	22.19
531.341	22.4
531.686	22.61
532.031	22.8
532.376	23.05
532.721	23.29
533.065	23.52
533.41	23.73
533.755	23.99
534.099	24.26
534.444	24.5
534.788	24.75
535.133	24.98
535.477	25.22
535.822	25.49
536.166	25.75
536.51	26.02
536.855	26.3
537.199	26.6
537.543	26.87
537.887	27.19
538.231	27.48
538.576	27.73
538.92	28.02
539.264	28.33
539.608	28.56
539.951	28.79
540.295	29.05
540.639	29.28
540.983	29.5
541.327	29.72
541.671	29.92
542.014	30.16
542.358	30.37
542.701	30.57
543.045	30.74
543.389	30.95
543.732	31.15
544.075	31.35
544.419	31.58
544.762	31.79
545.105	32.01
545.449	32.26
545.792	32.53
546.135	32.77
546.478	33.02
546.821	33.27
547.165	33.58
547.508	33.82
547.851	34.12
548.194	34.38
548.536	34.64
548.879	34.92
549.222	35.12
549.565	35.38
549.908	35.65
550.25	35.93
550.593	36.21
550.936	36.45
551.278	36.68
551.621	36.87
551.963	37.15
552.306	37.38
552.648	37.63
552.991	37.86
553.333	38.04
553.675	38.22
554.017	38.47
554.36	38.64
554.702	38.85
555.044	38.97
555.386	39.23
555.728	39.42
556.07	39.59
556.412	39.82
556.754	40.03
557.096	40.18
557.438	40.45
557.78	40.62
558.121	40.81
558.463	41.05
558.805	41.3
559.147	41.46
559.488	41.68
559.83	41.86
560.171	42.07
560.513	42.28
560.854	42.5
561.196	42.69
561.537	42.91
561.878	43.02
562.22	43.26
562.561	43.38
562.902	43.6
563.243	43.82
563.584	43.91
563.925	44.13
564.266	44.31
564.607	44.46
564.948	44.59
565.289	44.74
565.63	44.83
565.971	44.94
566.312	45.1
566.653	45.24
566.993	45.37
567.334	45.53
567.675	45.69
568.015	45.87
568.356	45.98
568.696	46.07
569.037	46.23
569.377	46.33
569.718	46.46
570.058	46.51
570.398	46.59
570.739	46.76
571.079	46.83
571.419	46.98
571.759	47.05
572.099	47.21
572.439	47.37
572.779	47.52
573.119	47.61
573.459	47.73
573.799	47.81
574.139	47.9
574.479	47.98
574.819	48.08
575.158	48.16
575.498	48.23
575.838	48.31
576.177	48.38
576.517	48.55
576.856	48.65
577.196	48.83
577.535	49
577.875	49.08
578.214	49.18
578.553	49.28
578.893	49.43
579.232	49.57
579.571	49.73
579.91	49.84
580.25	50.04
580.589	50.13
580.928	50.23
581.267	50.33
581.606	50.42
581.945	50.46
582.283	50.5
582.622	50.65
582.961	50.8
583.3	51.01
583.639	51.06
583.977	51.18
584.316	51.22
584.654	51.3
584.993	51.48
585.332	51.59
585.67	51.69
586.008	51.74
586.347	51.88
586.685	51.89
587.024	51.95
587.362	52.01
587.7	52.09
588.038	52.19
588.376	52.24
588.715	52.36
589.053	52.43
589.391	52.56
589.729	52.59
590.067	52.65
590.404	52.71
590.742	52.81
591.08	52.97
591.418	53.07
591.756	53.1
592.093	53.18
592.431	53.22
592.769	53.28
593.106	53.43
593.444	53.46
593.781	53.56
594.119	53.54
594.456	53.57
594.793	53.66
595.131	53.74
595.468	53.82
595.805	53.85
596.143	53.92
596.48	53.95
596.817	53.99
597.154	54.09
597.491	54.05
597.828	54.09
598.165	54.09
598.502	54.15
598.839	54.29
599.176	54.29
599.512	54.42
599.849	54.48
600.186	54.56
600.523	54.58
600.859	54.56
601.196	54.74
601.532	54.79
601.869	54.87
602.205	54.82
602.542	54.92
602.878	54.97
603.215	55.12
603.551	55.2
603.887	55.26
604.223	55.27
604.56	55.35
604.896	55.38
605.232	55.38
605.568	55.36
605.904	55.37
606.24	55.4
606.576	55.42
606.912	55.44
607.248	55.45
607.583	55.52
607.919	55.59
608.255	55.64
608.591	55.78
608.926	55.8
609.262	55.86
609.597	55.88
609.933	55.95
610.268	55.9
610.604	55.92
610.939	56.02
611.275	56.11
611.61	56.17
611.945	56.22
612.281	56.26
612.616	56.38
612.951	56.44
613.286	56.49
613.621	56.46
613.956	56.53
614.291	56.51
614.626	56.5
614.961	56.57
615.296	56.53
615.631	56.52
615.966	56.53
616.3	56.64
616.635	56.75
616.97	56.77
617.304	56.74
617.639	56.84
617.973	56.92
618.308	56.91
618.642	56.89
618.977	56.93
619.311	57.03
619.646	57.02
619.98	57.04
620.314	57.22
620.648	57.36
620.983	57.42
621.317	57.41
621.651	57.5
621.985	57.58
622.319	57.66
622.653	57.69
622.987	57.72
623.321	57.71
623.655	57.71
623.988	57.76
624.322	57.8
624.656	57.71
624.99	57.64
625.323	57.67
625.657	57.76
625.99	57.84
626.324	57.81
626.657	57.85
626.991	57.89
627.324	57.74
627.658	57.61
627.991	57.63
628.324	57.7
628.657	57.72
628.991	57.75
629.324	57.77
629.657	57.8
629.99	57.86
630.323	58.02
630.656	57.96
630.989	57.89
631.322	58.06
631.655	58.22
631.987	58.2
632.32	58.24
632.653	58.24
632.986	58.28
633.318	58.29
633.651	58.45
633.984	58.47
634.316	58.55
634.649	58.73
634.981	58.81
635.313	58.79
635.646	58.78
635.978	58.82
636.31	58.87
636.643	58.86
636.975	58.9
637.307	58.83
637.639	58.9
637.971	59.02
638.303	58.91
638.635	58.92
638.967	59.03
639.299	59.01
639.631	59.12
639.963	59.09
640.295	59.09
640.626	58.99
640.958	58.95
641.29	58.98
641.621	58.97
641.953	58.93
642.285	59.02
642.616	59.21
642.948	59.23
643.279	59.29
643.61	59.25
643.942	59.3
644.273	59.37
644.604	59.39
644.936	59.34
645.267	59.4
645.598	59.37
645.929	59.44
646.26	59.45
646.591	59.34
646.922	59.43
647.253	59.45
647.584	59.39
647.915	59.47
648.245	59.47
648.576	59.54
648.907	59.56
649.238	59.6
649.568	59.48
649.899	59.44
650.229	59.47
650.56	59.55
650.89	59.49
651.221	59.49
651.551	59.5
651.882	59.57
652.212	59.47
652.542	59.51
652.872	59.55
653.203	59.65
653.533	59.79
653.863	59.71
654.193	59.81
654.523	59.91
654.853	59.94
655.183	59.82
655.513	59.8
655.843	59.77
656.172	59.8
656.502	59.91
656.832	59.92
657.162	59.91
657.491	60.09
657.821	60.02
658.15	60
658.48	60.06
658.809	60.06
659.139	60.22
659.468	60.25
659.798	60.17
660.127	60.12
660.456	60
660.785	60.01
661.115	60.07
661.444	60.16
661.773	60.19
662.102	60.34
662.431	60.42
662.76	60.55
663.089	60.52
663.418	60.44
663.747	60.55
664.076	60.65
664.404	60.59
664.733	60.73
665.062	60.84
665.39	60.69
665.719	60.7
666.048	60.71
666.376	60.54
666.705	60.68
667.033	60.78
667.362	60.86
667.69	60.94
668.018	60.83
668.347	60.76
