Data from MVZ_BU123442_Reflection_00013.txt Node
Date: Tue Nov 19 12:12:41 EST 2019
User: vgr7
Spectrometer: USB2G7710
Scans to average: 3
Trigger mode: 4
Integration Time (sec): 2.000000E-2
Electric dark correction enabled: true
Boxcar width: 10
XAxis mode: Wavelengths
Number of Pixels in Spectrum: 2048
>>>>>Begin Spectral Data<<<<<
177.721	-44.76
178.105	-140.26
178.488	-232.81
178.871	-223.73
179.254	-268.42
179.636	-98.76
180.019	-164.15
180.402	123.08
180.785	-104.82
181.168	70.59
181.55	79.59
181.933	23.42
182.316	56.12
182.698	18.05
183.081	45.39
183.463	55.04
183.846	28.03
184.228	24.5
184.611	13.61
184.993	-156
185.376	-2986.96
185.758	190.91
186.14	343.9
186.522	888.99
186.904	-924
187.287	-517.45
187.669	-212.73
188.051	-227.76
188.433	-223.12
188.815	-148.88
189.197	-122.55
189.579	-104.98
189.961	-163.24
190.342	-111.9
190.724	-103.26
191.106	-83.7
191.488	-79.84
191.869	-77.27
192.251	-53.76
192.633	-58.06
193.014	-47.75
193.396	-26.58
193.777	-8.2
194.159	1.36
194.54	-5.5
194.922	9.16
195.303	-11.49
195.684	-34.1
196.065	-33.97
196.447	-10.45
196.828	35.35
197.209	48.82
197.59	33.28
197.971	23.59
198.352	18.57
198.733	8.81
199.114	12.88
199.495	6.11
199.876	5.04
200.257	-38.07
200.638	-49.5
201.018	-92.17
201.399	-65.79
201.78	-81.17
202.16	-110.07
202.541	-98.52
202.922	-76.02
203.302	-117.18
203.683	-397.3
204.063	-165.67
204.444	-533.59
204.824	-253.85
205.204	-151.35
205.585	-225.23
205.965	-1357.63
206.345	738.04
206.725	999.08
207.106	689.4
207.486	691.3
207.866	166.53
208.246	145.64
208.626	-2465.22
209.006	-99.46
209.386	-172.24
209.766	-106.96
210.145	-80.25
210.525	-103.69
210.905	-121.32
211.285	-88.55
211.664	-32.25
212.044	-20.5
212.424	-19.81
212.803	-29.64
213.183	-33.53
213.562	-31.95
213.942	-24.58
214.321	-35.8
214.701	-46.4
215.08	-52.14
215.459	-32.55
215.838	-33.3
216.218	-38.88
216.597	-31.99
216.976	-36.34
217.355	-29.23
217.734	-39.23
218.113	-11.7
218.492	2.42
218.871	0.68
219.25	-5.15
219.629	-29.74
220.008	-32.18
220.387	-27.92
220.766	-16.31
221.144	-23.74
221.523	-28.16
221.902	-28.29
222.28	-18.71
222.659	-1.87
223.037	-4.61
223.416	-13.79
223.794	-11.52
224.173	-10.72
224.551	-9.15
224.929	-15.01
225.308	-22.43
225.686	-32
226.064	-40.31
226.442	-31.01
226.821	-27.72
227.199	-20.49
227.577	-13.75
227.955	-12.36
228.333	-14.88
228.711	-15.7
229.089	-14.71
229.467	-16.25
229.845	-13.83
230.222	-7.46
230.6	-7.93
230.978	-5.53
231.356	-2.42
231.733	-4.63
232.111	-4.32
232.488	-1.77
232.866	0.68
233.243	4.36
233.621	5.53
233.998	5.31
234.376	2.14
234.753	1.52
235.13	2.07
235.508	0.52
235.885	0.76
236.262	2.37
236.639	1.2
237.016	0.69
237.393	2.11
237.77	2.19
238.147	2.18
238.524	2.13
238.901	0.82
239.278	-1.29
239.655	0.6
240.032	0.7
240.409	-0.15
240.785	0.14
241.162	0.1
241.539	0.59
241.915	0.87
242.292	1.47
242.668	2.15
243.045	2.06
243.421	2.82
243.798	2.93
244.174	2.92
244.551	2.97
244.927	3.02
245.303	3.12
245.679	3.01
246.056	2.98
246.432	3.15
246.808	3.44
247.184	3.95
247.56	3.52
247.936	3.54
248.312	3.92
248.688	4.02
249.064	3.88
249.44	3.81
249.815	4.18
250.191	4.06
250.567	3.79
250.943	3.67
251.318	3.33
251.694	3.1
252.069	3.26
252.445	3.48
252.82	3.97
253.196	3.92
253.571	4.12
253.947	4
254.322	3.65
254.697	3.64
255.073	3.54
255.448	3.68
255.823	3.87
256.198	3.53
256.573	3.29
256.948	3.44
257.323	3.58
257.698	3.38
258.073	3.44
258.448	3.49
258.823	3.48
259.198	3.55
259.573	3.49
259.948	3.43
260.322	3.25
260.697	3.06
261.072	3.25
261.446	3.36
261.821	3.32
262.195	3.24
262.57	3.32
262.944	3.25
263.319	3.38
263.693	3.36
264.067	3.57
264.442	3.52
264.816	3.4
265.19	3.26
265.564	3.14
265.938	3.1
266.313	3.02
266.687	2.97
267.061	2.95
267.435	3.17
267.809	3.02
268.183	3.11
268.556	2.92
268.93	2.67
269.304	2.41
269.678	2.44
270.051	2.61
270.425	2.68
270.799	2.56
271.172	2.41
271.546	2.27
271.919	2.23
272.293	2.29
272.666	2.3
273.04	2.14
273.413	2.24
273.787	2.22
274.16	2.3
274.533	2.51
274.906	2.66
275.279	2.52
275.653	2.71
276.026	2.81
276.399	2.87
276.772	2.97
277.145	3.13
277.518	3.06
277.891	3.07
278.263	2.89
278.636	3.12
279.009	3.26
279.382	3.26
279.755	3.08
280.127	3.12
280.5	3.09
280.872	3.47
281.245	3.34
281.617	3.37
281.99	3.37
282.362	3.27
282.735	3.16
283.107	3.04
283.479	3.09
283.852	3.01
284.224	3.06
284.596	3.02
284.968	2.99
285.34	3.14
285.713	3.08
286.085	3.04
286.457	2.93
286.829	2.92
287.201	3.01
287.572	3.2
287.944	3.27
288.316	3.34
288.688	3.38
289.06	3.51
289.431	3.51
289.803	3.48
290.175	3.41
290.546	3.53
290.918	3.68
291.289	3.41
291.661	3.49
292.032	3.44
292.403	3.46
292.775	3.39
293.146	3.33
293.517	3.42
293.889	3.52
294.26	3.57
294.631	3.52
295.002	3.66
295.373	3.59
295.744	3.63
296.115	3.73
296.486	3.65
296.857	3.59
297.228	3.61
297.599	3.72
297.97	3.83
298.34	3.84
298.711	3.87
299.082	4.09
299.452	4.12
299.823	4.32
300.194	4.44
300.564	4.55
300.935	4.65
301.305	4.54
301.676	4.45
302.046	4.69
302.416	4.75
302.787	4.67
303.157	4.74
303.527	4.78
303.897	4.76
304.267	4.89
304.637	4.91
305.008	4.98
305.378	5.14
305.748	5.22
306.117	5.16
306.487	5.18
306.857	5.23
307.227	5.29
307.597	5.11
307.967	5.18
308.336	5.19
308.706	5.24
309.076	5.3
309.445	5.62
309.815	5.54
310.184	5.5
310.554	5.6
310.923	5.59
311.293	5.65
311.662	5.67
312.031	5.7
312.401	5.69
312.77	5.76
313.139	5.63
313.508	5.51
313.877	5.55
314.246	5.63
314.616	5.72
314.985	5.72
315.353	6
315.722	6.01
316.091	6.11
316.46	6.08
316.829	6.31
317.198	6.23
317.567	6.18
317.935	6.42
318.304	6.36
318.672	6.34
319.041	6.29
319.41	6.35
319.778	6.37
320.147	6.47
320.515	6.39
320.883	6.4
321.252	6.64
321.62	6.67
321.988	6.75
322.357	6.5
322.725	6.59
323.093	6.58
323.461	6.49
323.829	6.64
324.197	6.67
324.565	6.69
324.933	6.58
325.301	6.63
325.669	6.73
326.037	6.86
326.405	7.12
326.772	7
327.14	7.1
327.508	6.95
327.875	7.07
328.243	7.24
328.61	7.28
328.978	7.11
329.346	7.14
329.713	7.08
330.08	7.27
330.448	7.26
330.815	7.26
331.182	7.32
331.55	7.28
331.917	7.38
332.284	7.42
332.651	7.68
333.018	7.69
333.385	7.79
333.752	7.77
334.119	7.73
334.486	7.85
334.853	7.74
335.22	7.93
335.587	7.85
335.954	7.84
336.32	7.75
336.687	7.84
337.054	7.96
337.42	8.04
337.787	8.08
338.153	8.04
338.52	7.97
338.886	8.15
339.253	8.09
339.619	8.09
339.986	8.09
340.352	7.97
340.718	8.04
341.084	7.93
341.451	7.9
341.817	7.82
342.183	7.8
342.549	7.95
342.915	7.78
343.281	7.82
343.647	7.75
344.013	7.75
344.379	7.91
344.745	7.93
345.11	7.9
345.476	8.06
345.842	8.25
346.208	8.33
346.573	8.27
346.939	8.42
347.304	8.46
347.67	8.4
348.035	8.5
348.401	8.63
348.766	8.63
349.132	8.64
349.497	8.76
349.862	8.8
350.228	8.73
350.593	8.8
350.958	8.91
351.323	8.92
351.688	8.93
352.053	8.97
352.418	9.01
352.783	9
353.148	8.85
353.513	8.78
353.878	8.72
354.243	8.59
354.608	8.47
354.972	8.42
355.337	8.41
355.702	8.37
356.066	8.28
356.431	8.22
356.795	8.22
357.16	8.16
357.524	8.13
357.889	8.12
358.253	8.14
358.618	8.12
358.982	8.14
359.346	8.18
359.71	8.14
360.075	8.07
360.439	8.11
360.803	8.2
361.167	8.12
361.531	8.13
361.895	8.16
362.259	8.23
362.623	8.25
362.987	8.28
363.351	8.29
363.714	8.23
364.078	8.28
364.442	8.23
364.806	8.21
365.169	8.22
365.533	8.27
365.896	8.29
366.26	8.21
366.623	8.22
366.987	8.18
367.35	8.16
367.714	8.19
368.077	8.12
368.44	8.03
368.803	7.93
369.167	7.95
369.53	7.98
369.893	7.88
370.256	7.76
370.619	7.66
370.982	7.55
371.345	7.61
371.708	7.51
372.071	7.47
372.434	7.46
372.797	7.45
373.159	7.32
373.522	7.28
373.885	7.3
374.247	7.26
374.61	7.17
374.973	7.14
375.335	7.07
375.698	7.05
376.06	6.9
376.423	6.92
376.785	6.84
377.147	6.77
377.51	6.73
377.872	6.75
378.234	6.75
378.596	6.8
378.958	6.7
379.321	6.68
379.683	6.71
380.045	6.65
380.407	6.6
380.769	6.55
381.13	6.54
381.492	6.39
381.854	6.33
382.216	6.34
382.578	6.29
382.939	6.24
383.301	6.19
383.663	6.26
384.024	6.22
384.386	6.26
384.747	6.19
385.109	6.14
385.47	6.12
385.832	6.04
386.193	5.96
386.554	5.91
386.916	5.9
387.277	5.8
387.638	5.75
387.999	5.67
388.36	5.68
388.721	5.63
389.082	5.68
389.443	5.62
389.804	5.61
390.165	5.57
390.526	5.56
390.887	5.57
391.248	5.5
391.609	5.47
391.969	5.4
392.33	5.41
392.691	5.38
393.051	5.33
393.412	5.35
393.772	5.39
394.133	5.37
394.493	5.35
394.854	5.36
395.214	5.33
395.574	5.33
395.935	5.25
396.295	5.22
396.655	5.17
397.015	5.16
397.376	5.13
397.736	5.08
398.096	5.03
398.456	4.94
398.816	4.91
399.176	4.89
399.535	4.84
399.895	4.82
400.255	4.8
400.615	4.78
400.975	4.74
401.334	4.63
401.694	4.63
402.054	4.57
402.413	4.53
402.773	4.52
403.132	4.53
403.492	4.53
403.851	4.52
404.211	4.51
404.57	4.5
404.929	4.48
405.288	4.47
405.648	4.46
406.007	4.47
406.366	4.47
406.725	4.44
407.084	4.47
407.443	4.45
407.802	4.45
408.161	4.49
408.52	4.48
408.879	4.52
409.238	4.52
409.596	4.55
409.955	4.54
410.314	4.54
410.673	4.53
411.031	4.54
411.39	4.52
411.748	4.53
412.107	4.53
412.465	4.52
412.824	4.5
413.182	4.48
413.54	4.48
413.899	4.46
414.257	4.44
414.615	4.43
414.974	4.38
415.332	4.37
415.69	4.31
416.048	4.28
416.406	4.23
416.764	4.19
417.122	4.17
417.48	4.15
417.838	4.14
418.195	4.13
418.553	4.1
418.911	4.09
419.269	4.08
419.626	4.05
419.984	4.04
420.342	4.04
420.699	4.04
421.057	4.02
421.414	4
421.772	4
422.129	3.98
422.486	3.97
422.844	3.95
423.201	3.95
423.558	3.93
423.915	3.94
424.273	3.93
424.63	3.93
424.987	3.92
425.344	3.9
425.701	3.87
426.058	3.88
426.415	3.87
426.772	3.83
427.128	3.83
427.485	3.84
427.842	3.82
428.199	3.82
428.555	3.82
428.912	3.81
429.269	3.8
429.625	3.79
429.982	3.8
430.338	3.79
430.695	3.78
431.051	3.8
431.407	3.81
431.764	3.82
432.12	3.82
432.476	3.84
432.832	3.85
433.189	3.84
433.545	3.83
433.901	3.83
434.257	3.85
434.613	3.82
434.969	3.81
435.325	3.8
435.681	3.78
436.036	3.78
436.392	3.78
436.748	3.78
437.104	3.77
437.459	3.76
437.815	3.78
438.171	3.79
438.526	3.8
438.882	3.8
439.237	3.78
439.593	3.76
439.948	3.77
440.304	3.77
440.659	3.76
441.014	3.75
441.369	3.76
441.725	3.74
442.08	3.75
442.435	3.76
442.79	3.75
443.145	3.77
443.5	3.74
443.855	3.73
444.21	3.73
444.565	3.73
444.92	3.73
445.275	3.73
445.629	3.72
445.984	3.7
446.339	3.68
446.693	3.69
447.048	3.68
447.403	3.66
447.757	3.65
448.112	3.69
448.466	3.67
448.82	3.64
449.175	3.65
449.529	3.65
449.883	3.63
450.238	3.64
450.592	3.64
450.946	3.65
451.3	3.66
451.654	3.64
452.008	3.63
452.362	3.61
452.716	3.61
453.07	3.62
453.424	3.62
453.778	3.63
454.132	3.6
454.486	3.62
454.839	3.61
455.193	3.62
455.547	3.59
455.9	3.59
456.254	3.59
456.607	3.59
456.961	3.6
457.314	3.59
457.668	3.6
458.021	3.59
458.375	3.6
458.728	3.59
459.081	3.59
459.434	3.6
459.787	3.61
460.141	3.61
460.494	3.6
460.847	3.61
461.2	3.6
461.553	3.61
461.906	3.61
462.259	3.62
462.611	3.61
462.964	3.62
463.317	3.63
463.67	3.66
464.022	3.68
464.375	3.7
464.728	3.72
465.08	3.73
465.433	3.73
465.785	3.74
466.138	3.76
466.49	3.79
466.843	3.82
467.195	3.82
467.547	3.82
467.899	3.84
468.252	3.85
468.604	3.89
468.956	3.9
469.308	3.91
469.66	3.94
470.012	3.96
470.364	3.99
470.716	4.02
471.068	4.05
471.42	4.04
471.772	4.05
472.123	4.06
472.475	4.06
472.827	4.07
473.178	4.08
473.53	4.1
473.882	4.09
474.233	4.07
474.585	4.11
474.936	4.11
475.288	4.11
475.639	4.14
475.99	4.11
476.342	4.11
476.693	4.11
477.044	4.11
477.395	4.12
477.746	4.08
478.097	4.09
478.448	4.07
478.8	4.07
479.15	4.04
479.501	4.01
479.852	4.01
480.203	4.02
480.554	4
480.905	3.98
481.255	3.99
481.606	4
481.957	3.98
482.307	3.97
482.658	3.96
483.009	3.94
483.359	3.94
483.709	3.94
484.06	3.95
484.41	3.94
484.761	3.96
485.111	3.96
485.461	3.95
485.811	3.94
486.162	3.95
486.512	3.96
486.862	3.98
487.212	3.99
487.562	3.97
487.912	3.98
488.262	3.98
488.612	3.98
488.961	3.98
489.311	3.98
489.661	4
490.011	4
490.36	4
490.71	4.01
491.06	4.02
491.409	4.02
491.759	4.03
492.108	4
492.458	4.02
492.807	4.04
493.157	4.05
493.506	4.06
493.855	4.06
494.204	4.06
494.554	4.07
494.903	4.12
495.252	4.15
495.601	4.18
495.95	4.2
496.299	4.27
496.648	4.3
496.997	4.33
497.346	4.38
497.695	4.43
498.043	4.48
498.392	4.51
498.741	4.57
499.09	4.6
499.438	4.65
499.787	4.7
500.135	4.74
500.484	4.8
500.832	4.84
501.181	4.9
501.529	4.99
501.878	5.05
502.226	5.1
502.574	5.17
502.923	5.23
503.271	5.31
503.619	5.35
503.967	5.41
504.315	5.5
504.663	5.56
505.011	5.64
505.359	5.7
505.707	5.77
506.055	5.84
506.403	5.95
506.751	6.04
507.098	6.11
507.446	6.23
507.794	6.31
508.141	6.42
508.489	6.53
508.837	6.61
509.184	6.7
509.531	6.79
509.879	6.87
510.226	6.94
510.574	7.04
510.921	7.15
511.268	7.24
511.616	7.37
511.963	7.46
512.31	7.56
512.657	7.67
513.004	7.74
513.351	7.85
513.698	7.96
514.045	8.07
514.392	8.2
514.739	8.31
515.086	8.41
515.432	8.52
515.779	8.59
516.126	8.7
516.473	8.8
516.819	8.88
517.166	8.99
517.512	9.11
517.859	9.22
518.205	9.3
518.552	9.4
518.898	9.43
519.245	9.55
519.591	9.63
519.937	9.72
520.283	9.84
520.629	9.94
520.976	10.02
521.322	10.14
521.668	10.25
522.014	10.35
522.36	10.46
522.706	10.61
523.052	10.79
523.398	10.92
523.743	11.07
524.089	11.26
524.435	11.4
524.781	11.55
525.126	11.66
525.472	11.79
525.817	11.9
526.163	12.04
526.509	12.11
526.854	12.21
527.199	12.32
527.545	12.42
527.89	12.51
528.235	12.61
528.581	12.71
528.926	12.81
529.271	12.92
529.616	13.03
529.961	13.14
530.306	13.25
530.651	13.35
530.996	13.49
531.341	13.6
531.686	13.73
532.031	13.85
532.376	14.01
532.721	14.14
533.065	14.29
533.41	14.44
533.755	14.61
534.099	14.79
534.444	14.95
534.788	15.11
535.133	15.28
535.477	15.47
535.822	15.67
536.166	15.87
536.51	16.08
536.855	16.32
537.199	16.57
537.543	16.83
537.887	17.11
538.231	17.35
538.576	17.62
538.92	17.89
539.264	18.13
539.608	18.35
539.951	18.63
540.295	18.84
540.639	19.06
540.983	19.28
541.327	19.49
541.671	19.7
542.014	19.9
542.358	20.12
542.701	20.34
543.045	20.55
543.389	20.75
543.732	21
544.075	21.21
544.419	21.44
544.762	21.66
545.105	21.9
545.449	22.18
545.792	22.44
546.135	22.7
546.478	23.01
546.821	23.35
547.165	23.62
547.508	23.96
547.851	24.27
548.194	24.58
548.536	24.87
548.879	25.2
549.222	25.55
549.565	25.87
549.908	26.16
550.25	26.47
550.593	26.82
550.936	27.15
551.278	27.48
551.621	27.82
551.963	28.17
552.306	28.47
552.648	28.81
552.991	29.1
553.333	29.42
553.675	29.77
554.017	30.07
554.36	30.34
554.702	30.65
555.044	30.95
555.386	31.24
555.728	31.57
556.07	31.89
556.412	32.21
556.754	32.52
557.096	32.88
557.438	33.18
557.78	33.5
558.121	33.75
558.463	34.06
558.805	34.31
559.147	34.58
559.488	34.9
559.83	35.15
560.171	35.44
560.513	35.74
560.854	35.95
561.196	36.21
561.537	36.5
561.878	36.76
562.22	37.08
562.561	37.35
562.902	37.56
563.243	37.76
563.584	37.99
563.925	38.23
564.266	38.47
564.607	38.71
564.948	38.95
565.289	39.16
565.63	39.39
565.971	39.61
566.312	39.86
566.653	40.07
566.993	40.26
567.334	40.51
567.675	40.77
568.015	41.01
568.356	41.26
568.696	41.46
569.037	41.72
569.377	41.87
569.718	42.04
570.058	42.34
570.398	42.57
570.739	42.8
571.079	42.92
571.419	43.1
571.759	43.26
572.099	43.42
572.439	43.63
572.779	43.76
573.119	43.95
573.459	44.09
573.799	44.24
574.139	44.41
574.479	44.56
574.819	44.68
575.158	44.86
575.498	44.97
575.838	45.12
576.177	45.16
576.517	45.37
576.856	45.57
577.196	45.69
577.535	45.83
577.875	45.95
578.214	46.17
578.553	46.4
578.893	46.48
579.232	46.63
579.571	46.79
579.91	47
580.25	47.15
580.589	47.26
580.928	47.43
581.267	47.58
581.606	47.67
581.945	47.79
582.283	47.9
582.622	48.04
582.961	48.17
583.3	48.41
583.639	48.51
583.977	48.61
584.316	48.71
584.654	48.77
584.993	48.96
585.332	49.05
585.67	49.08
586.008	49.27
586.347	49.41
586.685	49.51
587.024	49.58
587.362	49.67
587.7	49.78
588.038	49.86
588.376	49.84
588.715	49.96
589.053	50.04
589.391	50.1
589.729	50.18
590.067	50.31
590.404	50.35
590.742	50.52
591.08	50.63
591.418	50.72
591.756	50.85
592.093	50.85
592.431	50.98
592.769	51.07
593.106	51.18
593.444	51.24
593.781	51.32
594.119	51.4
594.456	51.46
594.793	51.5
595.131	51.68
595.468	51.83
595.805	51.92
596.143	51.94
596.48	51.98
596.817	52.08
597.154	52.12
597.491	52.19
597.828	52.2
598.165	52.26
598.502	52.38
598.839	52.51
599.176	52.59
599.512	52.63
599.849	52.68
600.186	52.76
600.523	52.88
600.859	52.92
601.196	52.98
601.532	53.1
601.869	53.17
602.205	53.13
602.542	53.16
602.878	53.22
603.215	53.27
603.551	53.4
603.887	53.41
604.223	53.39
604.56	53.44
604.896	53.47
605.232	53.5
605.568	53.56
605.904	53.54
606.24	53.64
606.576	53.75
606.912	53.81
607.248	53.79
607.583	53.83
607.919	53.93
608.255	53.98
608.591	54.04
608.926	54.12
609.262	54.17
609.597	54.32
609.933	54.31
610.268	54.41
610.604	54.42
610.939	54.54
611.275	54.66
611.61	54.68
611.945	54.72
612.281	54.75
612.616	54.75
612.951	54.88
613.286	54.84
613.621	54.8
613.956	54.89
614.291	54.98
614.626	54.94
614.961	55.01
615.296	55.04
615.631	54.97
615.966	55.03
616.3	55.13
616.635	55.06
616.97	55.16
617.304	55.17
617.639	55.22
617.973	55.12
618.308	55.15
618.642	55.18
618.977	55.29
619.311	55.46
619.646	55.57
619.98	55.53
620.314	55.63
620.648	55.73
620.983	55.74
621.317	55.79
621.651	55.86
621.985	55.84
622.319	55.82
622.653	55.93
622.987	55.91
623.321	55.93
623.655	55.97
623.988	56.04
624.322	56.16
624.656	56.16
624.99	56.27
625.323	56.19
625.657	56.24
625.99	56.21
626.324	56.14
626.657	56.08
626.991	56.16
627.324	56.19
627.658	56.23
627.991	56.29
628.324	56.33
628.657	56.35
628.991	56.4
629.324	56.46
629.657	56.46
629.99	56.64
630.323	56.66
630.656	56.69
630.989	56.66
631.322	56.62
631.655	56.56
631.987	56.48
632.32	56.63
632.653	56.71
632.986	56.62
633.318	56.74
633.651	56.71
633.984	56.7
634.316	56.59
634.649	56.48
634.981	56.45
635.313	56.47
635.646	56.57
635.978	56.52
636.31	56.55
636.643	56.59
636.975	56.52
637.307	56.56
637.639	56.58
637.971	56.55
638.303	56.53
638.635	56.73
638.967	56.92
639.299	56.96
639.631	56.94
639.963	57.03
640.295	56.93
640.626	57.08
640.958	56.98
641.29	57.12
641.621	57.23
641.953	57.25
642.285	57.25
642.616	57.14
642.948	57.18
643.279	57.24
643.61	57.32
643.942	57.24
644.273	57.2
644.604	57.26
644.936	57.3
645.267	57.33
645.598	57.28
645.929	57.19
646.26	57.07
646.591	57.03
646.922	57.15
647.253	57.22
647.584	57.24
647.915	57.38
648.245	57.47
648.576	57.52
648.907	57.58
649.238	57.56
649.568	57.62
649.899	57.65
650.229	57.75
650.56	57.8
650.89	57.77
651.221	57.72
651.551	57.72
651.882	57.91
652.212	57.8
652.542	57.85
652.872	58.03
653.203	58.09
653.533	58.17
653.863	58.19
654.193	58.07
654.523	58.06
654.853	57.96
655.183	58.01
655.513	58.06
655.843	58.07
656.172	58.15
656.502	58.22
656.832	58.09
657.162	58.11
657.491	58.09
657.821	58.17
658.15	58.31
658.48	58.17
658.809	58.03
659.139	58.19
659.468	58.3
659.798	58.18
660.127	58.18
660.456	58.17
660.785	58.13
661.115	58.39
661.444	58.53
661.773	58.62
662.102	58.53
662.431	58.51
662.76	58.49
663.089	58.5
663.418	58.43
663.747	58.65
664.076	58.56
664.404	58.48
664.733	58.46
665.062	58.45
665.39	58.65
665.719	58.84
666.048	58.81
666.376	58.83
666.705	58.85
667.033	59.01
