Data from MVZ_BU123442_Reflection_00007.txt Node
Date: Tue Nov 19 12:12:29 EST 2019
User: vgr7
Spectrometer: USB2G7710
Scans to average: 3
Trigger mode: 4
Integration Time (sec): 2.000000E-2
Electric dark correction enabled: true
Boxcar width: 10
XAxis mode: Wavelengths
Number of Pixels in Spectrum: 2048
>>>>>Begin Spectral Data<<<<<
177.721	422.01
178.105	612.99
178.488	442.15
178.871	322.03
179.254	468.42
179.636	345.34
180.019	1100
180.402	-69.23
180.785	-6.02
181.168	181.31
181.55	172.89
181.933	105.89
182.316	88.45
182.698	70.55
183.081	57.92
183.463	93.92
183.846	104.3
184.228	175.5
184.611	231.75
184.993	-580
185.376	-2421.74
185.758	281.82
186.14	353.66
186.522	769.72
186.904	-820
187.287	-812.75
187.669	-558.18
188.051	-555.52
188.433	-588.02
188.815	-326.23
189.197	-318.74
189.579	-327.53
189.961	-325.36
190.342	-280.26
190.724	-182.84
191.106	-145.2
191.488	-103.05
191.869	-78.51
192.251	-51.6
192.633	-70.5
193.014	-94.97
193.396	-99.55
193.777	-62.86
194.159	-64.18
194.54	-46.56
194.922	-73.17
195.303	-105.11
195.684	-87.24
196.065	-100.52
196.447	-56.41
196.828	-66.84
197.209	-48.41
197.59	-28.78
197.971	-29.39
198.352	-22.7
198.733	-44.91
199.114	-27.57
199.495	-58.24
199.876	-65.61
200.257	-101.92
200.638	-95.08
201.018	-132.45
201.399	-108.81
201.78	-169.37
202.16	-242.45
202.541	-386.09
202.922	-333.99
203.302	-319.77
203.683	-1024.32
204.063	-538.81
204.444	-1533.59
204.824	-489.01
205.204	-413.46
205.585	-678.12
205.965	-4340.68
206.345	1560.12
206.725	1898.17
207.106	1298.68
207.486	1517.39
207.866	264.24
208.246	490.04
208.626	-6334.78
209.006	-355.53
209.386	-412.13
209.766	-214.78
210.145	-96.55
210.525	-94.47
210.905	-74.97
211.285	-63.87
211.664	-39.41
212.044	-66.05
212.424	-57.93
212.803	-47.86
213.183	-36.56
213.562	-22.08
213.942	-5.41
214.321	-20.32
214.701	-42.54
215.08	-55.06
215.459	-48.05
215.838	-66.22
216.218	-80.21
216.597	-68.15
216.976	-79.86
217.355	-77.18
217.734	-78.4
218.113	-91.34
218.492	-73.85
218.871	-69.93
219.25	-62.55
219.629	-84.1
220.008	-63.12
220.387	-58.42
220.766	-45.12
221.144	-57.09
221.523	-70.17
221.902	-58.24
222.28	-48.96
222.659	-32
223.037	-37.63
223.416	-38.19
223.794	-28.31
224.173	-29.39
224.551	-23.4
224.929	-27.18
225.308	-33.11
225.686	-36.31
226.064	-36.5
226.442	-31.45
226.821	-30.56
227.199	-39.41
227.577	-38.21
227.955	-40.05
228.333	-38.21
228.711	-39.99
229.089	-33.85
229.467	-29.94
229.845	-31.7
230.222	-26.08
230.6	-26.21
230.978	-21.49
231.356	-22.12
231.733	-21.99
232.111	-19.67
232.488	-19.16
232.866	-15.15
233.243	-13.09
233.621	-12.6
233.998	-11.1
234.376	-11.75
234.753	-11.97
235.13	-9.48
235.508	-6.72
235.885	-4.36
236.262	-5.47
236.639	-5.88
237.016	-4.45
237.393	-2.46
237.77	-2.14
238.147	-2.24
238.524	-0.74
238.901	-1.38
239.278	-0.96
239.655	-0.62
240.032	-0.51
240.409	-0.12
240.785	-0.49
241.162	-0.08
241.539	0.36
241.915	0.77
242.292	1.04
242.668	1.28
243.045	1.64
243.421	1.88
243.798	1.94
244.174	2.52
244.551	2.78
244.927	2.84
245.303	2.74
245.679	3.01
246.056	3.02
246.432	2.99
246.808	3.21
247.184	3.25
247.56	3.08
247.936	3.47
248.312	3.36
248.688	3.47
249.064	3.38
249.44	3.34
249.815	3.1
250.191	3.32
250.567	3.17
250.943	3.22
251.318	3.13
251.694	2.89
252.069	2.51
252.445	2.24
252.82	1.99
253.196	1.77
253.571	1.33
253.947	1.09
254.322	0.52
254.697	0.16
255.073	0.39
255.448	0.74
255.823	0.58
256.198	0.6
256.573	0.6
256.948	0.95
257.323	1.3
257.698	1.63
258.073	1.59
258.448	1.81
258.823	1.64
259.198	1.65
259.573	1.75
259.948	1.88
260.322	2.07
260.697	2.28
261.072	2.31
261.446	2.34
261.821	2.51
262.195	2.55
262.57	2.56
262.944	2.52
263.319	2.54
263.693	2.58
264.067	2.62
264.442	2.68
264.816	2.45
265.19	2.19
265.564	2.13
265.938	2.24
266.313	2.14
266.687	2.25
267.061	2.21
267.435	2.41
267.809	2.33
268.183	2.03
268.556	1.84
268.93	2.16
269.304	2.19
269.678	2.26
270.051	2.52
270.425	2.6
270.799	2.6
271.172	2.53
271.546	2.58
271.919	2.46
272.293	2.5
272.666	2.62
273.04	2.79
273.413	2.8
273.787	2.73
274.16	2.82
274.533	2.72
274.906	2.91
275.279	2.73
275.653	2.88
276.026	3.17
276.399	3.29
276.772	3.08
277.145	3.21
277.518	2.98
277.891	2.86
278.263	3.04
278.636	3.3
279.009	3.4
279.382	3.27
279.755	3.44
280.127	3.41
280.5	3.43
280.872	3.38
281.245	3.26
281.617	3.14
281.99	3.18
282.362	3.34
282.735	3.1
283.107	3.11
283.479	3.12
283.852	3.06
284.224	3.03
284.596	2.93
284.968	2.87
285.34	2.94
285.713	2.97
286.085	2.85
286.457	2.68
286.829	2.64
287.201	2.72
287.572	2.82
287.944	2.81
288.316	2.86
288.688	2.88
289.06	3.13
289.431	3.27
289.803	3.28
290.175	3.05
290.546	3.14
290.918	3.15
291.289	3.05
291.661	2.97
292.032	2.99
292.403	2.99
292.775	3.17
293.146	3.41
293.517	3.54
293.889	3.61
294.26	3.65
294.631	3.66
295.002	3.62
295.373	3.55
295.744	3.6
296.115	3.58
296.486	3.68
296.857	3.68
297.228	3.51
297.599	3.39
297.97	3.63
298.34	3.68
298.711	3.82
299.082	3.85
299.452	3.94
299.823	4.02
300.194	4.06
300.564	3.98
300.935	3.85
301.305	3.79
301.676	3.82
302.046	3.88
302.416	3.9
302.787	3.96
303.157	3.97
303.527	4.05
303.897	3.98
304.267	3.97
304.637	3.84
305.008	4.1
305.378	4.31
305.748	4.25
306.117	4.34
306.487	4.32
306.857	4.43
307.227	4.6
307.597	4.59
307.967	4.72
308.336	4.85
308.706	4.83
309.076	4.9
309.445	5.02
309.815	4.99
310.184	4.93
310.554	4.79
310.923	4.88
311.293	4.88
311.662	4.92
312.031	4.91
312.401	4.99
312.77	4.89
313.139	4.75
313.508	4.76
313.877	4.82
314.246	4.82
314.616	4.95
314.985	4.76
315.353	4.87
315.722	5.04
316.091	4.99
316.46	5.16
316.829	5.21
317.198	5.14
317.567	5.25
317.935	5.43
318.304	5.76
318.672	5.79
319.041	5.88
319.41	5.95
319.778	6.02
320.147	5.98
320.515	6.17
320.883	6.31
321.252	6.58
321.62	6.47
321.988	6.6
322.357	6.4
322.725	6.56
323.093	6.25
323.461	6.13
323.829	6.14
324.197	6.2
324.565	6.3
324.933	6.31
325.301	6.24
325.669	6.23
326.037	6.2
326.405	6.17
326.772	6.07
327.14	6.16
327.508	6.14
327.875	6.21
328.243	6.06
328.61	5.97
328.978	5.88
329.346	6.03
329.713	6.12
330.08	6.27
330.448	6.29
330.815	6.61
331.182	6.65
331.55	6.69
331.917	6.49
332.284	6.45
332.651	6.41
333.018	6.46
333.385	6.52
333.752	6.45
334.119	6.54
334.486	6.64
334.853	6.71
335.22	6.7
335.587	6.65
335.954	6.79
336.32	7.04
336.687	7.08
337.054	7.09
337.42	6.96
337.787	6.96
338.153	7.1
338.52	7.16
338.886	7.29
339.253	7.4
339.619	7.52
339.986	7.46
340.352	7.59
340.718	7.69
341.084	7.78
341.451	8.04
341.817	8.11
342.183	8.11
342.549	8.08
342.915	8.13
343.281	8.17
343.647	8.23
344.013	8.17
344.379	8.13
344.745	8.07
345.11	8.07
345.476	8.16
345.842	8.02
346.208	8.01
346.573	7.89
346.939	7.82
347.304	7.83
347.67	7.81
348.035	7.88
348.401	7.84
348.766	7.82
349.132	7.8
349.497	7.76
349.862	7.77
350.228	7.87
350.593	7.8
350.958	7.86
351.323	7.8
351.688	7.83
352.053	7.88
352.418	7.91
352.783	7.9
353.148	7.9
353.513	8
353.878	7.93
354.243	7.95
354.608	7.99
354.972	8.01
355.337	8.13
355.702	8.03
356.066	8.09
356.431	8.18
356.795	8.03
357.16	7.91
357.524	7.93
357.889	7.82
358.253	7.87
358.618	7.85
358.982	7.98
359.346	8.01
359.71	7.99
360.075	8.02
360.439	8.12
360.803	8.08
361.167	8.02
361.531	8.03
361.895	7.98
362.259	7.98
362.623	7.92
362.987	7.88
363.351	7.91
363.714	7.86
364.078	7.8
364.442	7.83
364.806	7.95
365.169	7.91
365.533	7.87
365.896	7.88
366.26	7.82
366.623	7.68
366.987	7.65
367.35	7.64
367.714	7.52
368.077	7.45
368.44	7.44
368.803	7.45
369.167	7.48
369.53	7.51
369.893	7.48
370.256	7.52
370.619	7.53
370.982	7.47
371.345	7.47
371.708	7.4
372.071	7.4
372.434	7.28
372.797	7.28
373.159	7.28
373.522	7.18
373.885	7.12
374.247	7.1
374.61	7.07
374.973	6.99
375.335	7.07
375.698	6.99
376.06	6.98
376.423	6.91
376.785	6.87
377.147	6.85
377.51	6.8
377.872	6.7
378.234	6.63
378.596	6.51
378.958	6.39
379.321	6.36
379.683	6.38
380.045	6.34
380.407	6.3
380.769	6.27
381.13	6.29
381.492	6.28
381.854	6.25
382.216	6.21
382.578	6.23
382.939	6.19
383.301	6.16
383.663	6.09
384.024	6.06
384.386	6.04
384.747	5.98
385.109	5.97
385.47	5.98
385.832	5.96
386.193	5.99
386.554	5.93
386.916	5.91
387.277	5.81
387.638	5.84
387.999	5.79
388.36	5.76
388.721	5.72
389.082	5.76
389.443	5.73
389.804	5.69
390.165	5.7
390.526	5.61
390.887	5.57
391.248	5.57
391.609	5.55
391.969	5.49
392.33	5.5
392.691	5.53
393.051	5.52
393.412	5.52
393.772	5.52
394.133	5.53
394.493	5.5
394.854	5.47
395.214	5.42
395.574	5.39
395.935	5.42
396.295	5.37
396.655	5.3
397.015	5.28
397.376	5.23
397.736	5.15
398.096	5.17
398.456	5.19
398.816	5.1
399.176	5.06
399.535	5.01
399.895	4.92
400.255	4.83
400.615	4.78
400.975	4.7
401.334	4.66
401.694	4.65
402.054	4.67
402.413	4.66
402.773	4.65
403.132	4.67
403.492	4.66
403.851	4.67
404.211	4.64
404.57	4.59
404.929	4.59
405.288	4.56
405.648	4.54
406.007	4.51
406.366	4.51
406.725	4.5
407.084	4.51
407.443	4.5
407.802	4.5
408.161	4.47
408.52	4.49
408.879	4.48
409.238	4.48
409.596	4.42
409.955	4.4
410.314	4.39
410.673	4.37
411.031	4.3
411.39	4.3
411.748	4.31
412.107	4.33
412.465	4.34
412.824	4.33
413.182	4.3
413.54	4.3
413.899	4.31
414.257	4.33
414.615	4.31
414.974	4.33
415.332	4.31
415.69	4.32
416.048	4.32
416.406	4.31
416.764	4.29
417.122	4.27
417.48	4.27
417.838	4.26
418.195	4.24
418.553	4.24
418.911	4.22
419.269	4.22
419.626	4.18
419.984	4.18
420.342	4.16
420.699	4.16
421.057	4.15
421.414	4.13
421.772	4.11
422.129	4.1
422.486	4.1
422.844	4.08
423.201	4.07
423.558	4.05
423.915	4.04
424.273	4.04
424.63	4.05
424.987	4.04
425.344	4.02
425.701	4.02
426.058	4
426.415	4
426.772	3.98
427.128	3.98
427.485	3.95
427.842	3.95
428.199	3.94
428.555	3.92
428.912	3.9
429.269	3.9
429.625	3.92
429.982	3.91
430.338	3.92
430.695	3.91
431.051	3.92
431.407	3.93
431.764	3.91
432.12	3.92
432.476	3.89
432.832	3.89
433.189	3.88
433.545	3.9
433.901	3.9
434.257	3.92
434.613	3.93
434.969	3.93
435.325	3.95
435.681	3.96
436.036	3.98
436.392	3.99
436.748	3.98
437.104	3.97
437.459	3.94
437.815	3.93
438.171	3.94
438.526	3.95
438.882	3.97
439.237	3.98
439.593	3.99
439.948	4.01
440.304	4.02
440.659	4
441.014	4
441.369	3.99
441.725	3.96
442.08	3.98
442.435	3.99
442.79	3.98
443.145	3.97
443.5	3.97
443.855	3.96
444.21	3.98
444.565	3.97
444.92	3.99
445.275	3.98
445.629	3.97
445.984	3.94
446.339	3.91
446.693	3.91
447.048	3.86
447.403	3.85
447.757	3.84
448.112	3.85
448.466	3.82
448.82	3.81
449.175	3.84
449.529	3.81
449.883	3.8
450.238	3.79
450.592	3.77
450.946	3.75
451.3	3.74
451.654	3.7
452.008	3.69
452.362	3.67
452.716	3.68
453.07	3.72
453.424	3.71
453.778	3.72
454.132	3.72
454.486	3.76
454.839	3.77
455.193	3.78
455.547	3.77
455.9	3.79
456.254	3.79
456.607	3.78
456.961	3.79
457.314	3.81
457.668	3.81
458.021	3.82
458.375	3.83
458.728	3.84
459.081	3.86
459.434	3.87
459.787	3.88
460.141	3.87
460.494	3.86
460.847	3.86
461.2	3.86
461.553	3.86
461.906	3.86
462.259	3.85
462.611	3.85
462.964	3.86
463.317	3.87
463.67	3.88
464.022	3.89
464.375	3.89
464.728	3.88
465.08	3.86
465.433	3.88
465.785	3.9
466.138	3.91
466.49	3.96
466.843	3.99
467.195	4
467.547	4.02
467.899	4.02
468.252	4.05
468.604	4.07
468.956	4.08
469.308	4.09
469.66	4.1
470.012	4.12
470.364	4.14
470.716	4.13
471.068	4.14
471.42	4.14
471.772	4.14
472.123	4.15
472.475	4.21
472.827	4.22
473.178	4.22
473.53	4.22
473.882	4.19
474.233	4.18
474.585	4.18
474.936	4.18
475.288	4.21
475.639	4.21
475.99	4.19
476.342	4.19
476.693	4.2
477.044	4.2
477.395	4.21
477.746	4.2
478.097	4.21
478.448	4.21
478.8	4.21
479.15	4.21
479.501	4.2
479.852	4.19
480.203	4.19
480.554	4.19
480.905	4.17
481.255	4.18
481.606	4.18
481.957	4.18
482.307	4.18
482.658	4.15
483.009	4.15
483.359	4.15
483.709	4.15
484.06	4.14
484.41	4.16
484.761	4.16
485.111	4.16
485.461	4.16
485.811	4.16
486.162	4.16
486.512	4.16
486.862	4.17
487.212	4.17
487.562	4.16
487.912	4.17
488.262	4.17
488.612	4.16
488.961	4.17
489.311	4.17
489.661	4.17
490.011	4.2
490.36	4.21
490.71	4.21
491.06	4.21
491.409	4.23
491.759	4.23
492.108	4.24
492.458	4.26
492.807	4.27
493.157	4.28
493.506	4.29
493.855	4.31
494.204	4.32
494.554	4.35
494.903	4.35
495.252	4.38
495.601	4.42
495.95	4.45
496.299	4.47
496.648	4.5
496.997	4.53
497.346	4.56
497.695	4.63
498.043	4.66
498.392	4.71
498.741	4.76
499.09	4.8
499.438	4.86
499.787	4.9
500.135	4.94
500.484	4.99
500.832	5.06
501.181	5.13
501.529	5.21
501.878	5.26
502.226	5.36
502.574	5.41
502.923	5.45
503.271	5.54
503.619	5.65
503.967	5.68
504.315	5.75
504.663	5.84
505.011	5.9
505.359	5.97
505.707	6.06
506.055	6.15
506.403	6.22
506.751	6.3
507.098	6.38
507.446	6.46
507.794	6.53
508.141	6.62
508.489	6.71
508.837	6.79
509.184	6.9
509.531	6.97
509.879	7.05
510.226	7.15
510.574	7.26
510.921	7.34
511.268	7.48
511.616	7.6
511.963	7.69
512.31	7.79
512.657	7.92
513.004	8.02
513.351	8.12
513.698	8.23
514.045	8.33
514.392	8.47
514.739	8.59
515.086	8.74
515.432	8.85
515.779	8.97
516.126	9.1
516.473	9.21
516.819	9.32
517.166	9.44
517.512	9.53
517.859	9.62
518.205	9.7
518.552	9.79
518.898	9.86
519.245	9.97
519.591	10.05
519.937	10.13
520.283	10.23
520.629	10.35
520.976	10.45
521.322	10.59
521.668	10.68
522.014	10.81
522.36	10.93
522.706	11.04
523.052	11.19
523.398	11.32
523.743	11.51
524.089	11.69
524.435	11.84
524.781	12.03
525.126	12.16
525.472	12.32
525.817	12.46
526.163	12.57
526.509	12.68
526.854	12.77
527.199	12.88
527.545	12.97
527.89	13.07
528.235	13.17
528.581	13.27
528.926	13.38
529.271	13.5
529.616	13.6
529.961	13.71
530.306	13.84
530.651	13.95
530.996	14.04
531.341	14.19
531.686	14.31
532.031	14.44
532.376	14.58
532.721	14.71
533.065	14.86
533.41	15.03
533.755	15.19
534.099	15.37
534.444	15.56
534.788	15.75
535.133	15.92
535.477	16.12
535.822	16.3
536.166	16.51
536.51	16.73
536.855	16.95
537.199	17.2
537.543	17.42
537.887	17.7
538.231	17.98
538.576	18.22
538.92	18.47
539.264	18.69
539.608	18.93
539.951	19.16
540.295	19.36
540.639	19.55
540.983	19.75
541.327	19.96
541.671	20.16
542.014	20.36
542.358	20.57
542.701	20.73
543.045	20.94
543.389	21.13
543.732	21.32
544.075	21.57
544.419	21.79
544.762	22.04
545.105	22.26
545.449	22.49
545.792	22.74
546.135	23.06
546.478	23.32
546.821	23.61
547.165	23.89
547.508	24.2
547.851	24.52
548.194	24.83
548.536	25.11
548.879	25.4
549.222	25.69
549.565	25.92
549.908	26.22
550.25	26.46
550.593	26.81
550.936	27.11
551.278	27.37
551.621	27.69
551.963	27.95
552.306	28.27
552.648	28.57
552.991	28.83
553.333	29.02
553.675	29.3
554.017	29.59
554.36	29.87
554.702	30.1
555.044	30.37
555.386	30.6
555.728	30.9
556.07	31.17
556.412	31.51
556.754	31.83
557.096	32.2
557.438	32.53
557.78	32.79
558.121	33.07
558.463	33.31
558.805	33.61
559.147	33.92
559.488	34.17
559.83	34.46
560.171	34.74
560.513	35.01
560.854	35.28
561.196	35.59
561.537	35.85
561.878	36.09
562.22	36.37
562.561	36.64
562.902	36.83
563.243	37.09
563.584	37.28
563.925	37.53
564.266	37.78
564.607	38
564.948	38.24
565.289	38.48
565.63	38.71
565.971	38.88
566.312	39.1
566.653	39.29
566.993	39.42
567.334	39.59
567.675	39.8
568.015	40.01
568.356	40.12
568.696	40.33
569.037	40.52
569.377	40.66
569.718	40.82
570.058	41.01
570.398	41.11
570.739	41.27
571.079	41.39
571.419	41.5
571.759	41.63
572.099	41.82
572.439	41.94
572.779	42.06
573.119	42.23
573.459	42.3
573.799	42.39
574.139	42.56
574.479	42.72
574.819	42.85
575.158	42.99
575.498	43.16
575.838	43.22
576.177	43.32
576.517	43.51
576.856	43.65
577.196	43.78
577.535	44
577.875	44.09
578.214	44.2
578.553	44.35
578.893	44.49
579.232	44.57
579.571	44.72
579.91	44.83
580.25	44.91
580.589	45.07
580.928	45.27
581.267	45.33
581.606	45.47
581.945	45.61
582.283	45.73
582.622	45.77
582.961	45.91
583.3	46.08
583.639	46.07
583.977	46.17
584.316	46.29
584.654	46.25
584.993	46.42
585.332	46.57
585.67	46.65
586.008	46.72
586.347	46.79
586.685	46.86
587.024	47.02
587.362	47.13
587.7	47.25
588.038	47.29
588.376	47.35
588.715	47.43
589.053	47.4
589.391	47.43
589.729	47.52
590.067	47.63
590.404	47.74
590.742	47.92
591.08	48.02
591.418	48.06
591.756	48.16
592.093	48.16
592.431	48.26
592.769	48.39
593.106	48.49
593.444	48.57
593.781	48.6
594.119	48.59
594.456	48.64
594.793	48.64
595.131	48.77
595.468	48.94
595.805	49.05
596.143	49.12
596.48	49.16
596.817	49.31
597.154	49.3
597.491	49.31
597.828	49.31
598.165	49.34
598.502	49.46
598.839	49.56
599.176	49.64
599.512	49.64
599.849	49.7
600.186	49.78
600.523	49.87
600.859	49.93
601.196	50.06
601.532	50.14
601.869	50.25
602.205	50.22
602.542	50.15
602.878	50.13
603.215	50.24
603.551	50.35
603.887	50.32
604.223	50.36
604.56	50.42
604.896	50.56
605.232	50.62
605.568	50.63
605.904	50.68
606.24	50.74
606.576	50.81
606.912	50.81
607.248	50.82
607.583	50.88
607.919	50.97
608.255	50.98
608.591	51.01
608.926	51.08
609.262	51.21
609.597	51.31
609.933	51.38
610.268	51.44
610.604	51.39
610.939	51.47
611.275	51.57
611.61	51.61
611.945	51.56
612.281	51.68
612.616	51.67
612.951	51.74
613.286	51.77
613.621	51.84
613.956	51.91
614.291	51.93
614.626	51.84
614.961	51.84
615.296	51.91
615.631	51.97
615.966	51.91
616.3	51.88
616.635	51.89
616.97	51.89
617.304	51.9
617.639	51.97
617.973	51.95
618.308	51.98
618.642	51.99
618.977	51.98
619.311	52.01
619.646	52.19
619.98	52.29
620.314	52.37
620.648	52.37
620.983	52.34
621.317	52.47
621.651	52.59
621.985	52.63
622.319	52.68
622.653	52.73
622.987	52.72
623.321	52.8
623.655	52.9
623.988	52.85
624.322	52.96
624.656	52.98
624.99	53
625.323	52.98
625.657	52.95
625.99	52.96
626.324	52.89
626.657	52.85
626.991	52.77
627.324	52.82
627.658	52.81
627.991	52.88
628.324	52.92
628.657	52.9
628.991	52.94
629.324	52.98
629.657	52.97
629.99	53.07
630.323	52.99
630.656	52.91
630.989	53.06
631.322	52.97
631.655	53
631.987	53.04
632.32	53.19
632.653	53.31
632.986	53.3
633.318	53.36
633.651	53.37
633.984	53.44
634.316	53.44
634.649	53.4
634.981	53.37
635.313	53.35
635.646	53.39
635.978	53.41
636.31	53.37
636.643	53.38
636.975	53.51
637.307	53.58
637.639	53.58
637.971	53.58
638.303	53.5
638.635	53.52
638.967	53.52
639.299	53.44
639.631	53.37
639.963	53.37
640.295	53.38
640.626	53.42
640.958	53.37
641.29	53.37
641.621	53.38
641.953	53.36
642.285	53.39
642.616	53.43
642.948	53.42
643.279	53.5
643.61	53.52
643.942	53.33
644.273	53.32
644.604	53.49
644.936	53.48
645.267	53.64
645.598	53.64
645.929	53.69
646.26	53.68
646.591	53.88
646.922	54.08
647.253	54.13
647.584	54.23
647.915	54.3
648.245	54.32
648.576	54.42
648.907	54.46
649.238	54.45
649.568	54.42
649.899	54.49
650.229	54.46
650.56	54.56
650.89	54.56
651.221	54.62
651.551	54.52
651.882	54.45
652.212	54.48
652.542	54.54
652.872	54.65
653.203	54.7
653.533	54.61
653.863	54.61
654.193	54.53
654.523	54.53
654.853	54.43
655.183	54.46
655.513	54.65
655.843	54.81
656.172	54.92
656.502	55.04
656.832	55.07
657.162	55.07
657.491	55.08
657.821	55.16
658.15	55.15
658.48	55.19
658.809	55.42
659.139	55.43
659.468	55.43
659.798	55.39
660.127	55.41
660.456	55.45
660.785	55.4
661.115	55.44
661.444	55.37
661.773	55.48
662.102	55.43
662.431	55.22
662.76	55.08
663.089	54.93
663.418	54.89
663.747	54.85
664.076	54.85
664.404	54.76
664.733	54.74
665.062	54.86
