Data from MVZ_BU78245_Reflection_00008.txt Node
Date: Tue Nov 19 12:01:13 EST 2019
User: vgr7
Spectrometer: USB2G7710
Scans to average: 3
Trigger mode: 4
Integration Time (sec): 2.000000E-2
Electric dark correction enabled: true
Boxcar width: 10
XAxis mode: Wavelengths
Number of Pixels in Spectrum: 2048
>>>>>Begin Spectral Data<<<<<
177.721	834.85
178.105	525.93
178.488	-147.97
178.871	-3633.33
179.254	154.17
179.636	173.21
180.019	44.86
180.402	-262.5
180.785	-39.58
181.168	-44.81
181.55	-804.76
181.933	-452.08
182.316	868.52
182.698	-1714.81
183.081	-188.19
183.463	-229
183.846	-135.38
184.228	-123.04
184.611	-86.97
184.993	-79.17
185.376	-117.45
185.758	-65.24
186.14	-103.03
186.522	-84.11
186.904	-23.61
187.287	-33.11
187.669	-20.2
188.051	-55.51
188.433	-75.05
188.815	-51.14
189.197	-47.1
189.579	-51.65
189.961	-36.62
190.342	-12.02
190.724	-15.5
191.106	-36.79
191.488	-41.34
191.869	-27.49
192.251	-18.76
192.633	-2.73
193.014	10.36
193.396	-0.11
193.777	-2.73
194.159	12.81
194.54	-1.36
194.922	-11.7
195.303	-7
195.684	-14.45
196.065	-3.27
196.447	-11.4
196.828	-30.98
197.209	-31.76
197.59	-20.37
197.971	-18.69
198.352	-12.49
198.733	-9.82
199.114	-3.78
199.495	2
199.876	-3.61
200.257	7.27
200.638	0.88
201.018	-13.28
201.399	9.97
201.78	1.42
202.16	-19.81
202.541	-7.84
202.922	2.81
203.302	1.03
203.683	-19.56
204.063	-15.02
204.444	-25.61
204.824	-8.21
205.204	2.73
205.585	15.88
205.965	5.62
206.345	-11.96
206.725	-4.31
207.106	5.62
207.486	-3.03
207.866	4.99
208.246	1.48
208.626	-14.26
209.006	-11.41
209.386	-38.36
209.766	-57.86
210.145	-37.25
210.525	-47.18
210.905	-48.3
211.285	-35.42
211.664	-2.14
212.044	-16.58
212.424	-9.06
212.803	-24.55
213.183	-38.89
213.562	-40.74
213.942	-57.96
214.321	-47.09
214.701	-66.67
215.08	-89.17
215.459	-66.67
215.838	-130.71
216.218	-147.44
216.597	-78.63
216.976	-96.39
217.355	-62.84
217.734	-64.09
218.113	-39.96
218.492	-30.34
218.871	-25.56
219.25	-25.46
219.629	-48.27
220.008	-14.4
220.387	9.63
220.766	9.58
221.144	8.05
221.523	-10.3
221.902	-7.5
222.28	-6.44
222.659	9.97
223.037	15.57
223.416	2.43
223.794	12.46
224.173	2.26
224.551	-8.64
224.929	-6.95
225.308	-7.37
225.686	-0.17
226.064	-8.33
226.442	-9.01
226.821	-11.27
227.199	-15.44
227.577	-12.86
227.955	-14.44
228.333	-14.13
228.711	-10.52
229.089	-11.76
229.467	-5.79
229.845	-6.72
230.222	-4.57
230.6	-6.97
230.978	-5.1
231.356	-4.18
231.733	-4.92
232.111	-3.85
232.488	-2.45
232.866	-3.73
233.243	-4.46
233.621	-4.6
233.998	-3.7
234.376	-3.72
234.753	-3.35
235.13	-4.11
235.508	-6.58
235.885	-5.76
236.262	-7.8
236.639	-7.56
237.016	-7.38
237.393	-6.13
237.77	-4.14
238.147	-4.51
238.524	-3.73
238.901	-4.67
239.278	-4.62
239.655	-3.89
240.032	-3.16
240.409	-2.64
240.785	-2.28
241.162	-2.25
241.539	-2.45
241.915	-1.93
242.292	-1.59
242.668	-1.04
243.045	0.2
243.421	1.33
243.798	1.72
244.174	2.03
244.551	1.79
244.927	2.23
245.303	1.76
245.679	2.18
246.056	2.37
246.432	2.14
246.808	2.35
247.184	2.52
247.56	2.23
247.936	2.03
248.312	2.21
248.688	2.46
249.064	2.72
249.44	2.92
249.815	2.88
250.191	2.94
250.567	2.96
250.943	2.73
251.318	2.2
251.694	2
252.069	1.92
252.445	2.13
252.82	2
253.196	1.99
253.571	1.88
253.947	1.53
254.322	1.72
254.697	1.69
255.073	1.64
255.448	2.27
255.823	2.3
256.198	2.15
256.573	2.06
256.948	1.91
257.323	1.92
257.698	1.95
258.073	2
258.448	1.77
258.823	1.7
259.198	2.03
259.573	1.96
259.948	2.15
260.322	2.13
260.697	2.31
261.072	2.37
261.446	2.14
261.821	2.42
262.195	2.55
262.57	2.63
262.944	2.82
263.319	2.78
263.693	2.78
264.067	2.89
264.442	3.06
264.816	3.28
265.19	3.37
265.564	3.35
265.938	3.34
266.313	3.46
266.687	3.47
267.061	3.23
267.435	3.43
267.809	3.22
268.183	3.14
268.556	2.97
268.93	2.92
269.304	2.97
269.678	2.77
270.051	2.68
270.425	2.7
270.799	2.42
271.172	2.39
271.546	2.41
271.919	2.3
272.293	2.17
272.666	2.16
273.04	2.15
273.413	2.17
273.787	2.07
274.16	1.95
274.533	1.94
274.906	2.03
275.279	1.94
275.653	2.09
276.026	2.14
276.399	2.18
276.772	2.34
277.145	2.42
277.518	2.41
277.891	2.36
278.263	2.46
278.636	2.68
279.009	2.6
279.382	2.56
279.755	2.74
280.127	2.85
280.5	2.77
280.872	2.76
281.245	2.86
281.617	3.03
281.99	3.2
282.362	3.12
282.735	2.96
283.107	2.96
283.479	2.86
283.852	2.87
284.224	2.82
284.596	2.77
284.968	2.58
285.34	2.55
285.713	2.61
286.085	2.36
286.457	2.4
286.829	2.33
287.201	2.31
287.572	2.36
287.944	2.38
288.316	2.35
288.688	2.4
289.06	2.28
289.431	2.4
289.803	2.59
290.175	2.69
290.546	2.69
290.918	2.73
291.289	2.67
291.661	2.92
292.032	3.08
292.403	2.86
292.775	3.09
293.146	3.32
293.517	3.26
293.889	3.47
294.26	3.46
294.631	3.65
295.002	3.82
295.373	3.67
295.744	3.68
296.115	3.68
296.486	3.65
296.857	3.78
297.228	3.56
297.599	3.45
297.97	3.6
298.34	3.8
298.711	3.73
299.082	3.82
299.452	3.69
299.823	3.6
300.194	3.83
300.564	3.79
300.935	3.69
301.305	3.7
301.676	3.68
302.046	3.78
302.416	3.79
302.787	3.78
303.157	3.79
303.527	3.75
303.897	3.69
304.267	3.72
304.637	3.81
305.008	3.88
305.378	3.82
305.748	3.7
306.117	3.71
306.487	4.09
306.857	4.15
307.227	4.3
307.597	4.29
307.967	4.36
308.336	4.33
308.706	4.43
309.076	4.57
309.445	4.5
309.815	4.48
310.184	4.4
310.554	4.4
310.923	4.5
311.293	4.46
311.662	4.72
312.031	4.73
312.401	4.55
312.77	4.67
313.139	4.72
313.508	4.76
313.877	4.78
314.246	4.62
314.616	4.62
314.985	4.6
315.353	4.83
315.722	4.88
316.091	5.01
316.46	5.06
316.829	5.26
317.198	5.52
317.567	5.56
317.935	5.78
318.304	5.96
318.672	6.05
319.041	6.2
319.41	6.16
319.778	6.11
320.147	6.23
320.515	6.07
320.883	6.11
321.252	6.21
321.62	6.29
321.988	6.38
322.357	6.45
322.725	6.48
323.093	6.3
323.461	6.24
323.829	6.34
324.197	6.35
324.565	6.27
324.933	6.17
325.301	5.97
325.669	5.89
326.037	5.91
326.405	5.89
326.772	5.86
327.14	5.73
327.508	5.74
327.875	5.76
328.243	5.76
328.61	5.82
328.978	5.88
329.346	5.96
329.713	5.96
330.08	6
330.448	5.91
330.815	6.14
331.182	6.11
331.55	5.87
331.917	5.87
332.284	6.03
332.651	6.11
333.018	6.2
333.385	6.33
333.752	6.18
334.119	6.24
334.486	6.17
334.853	6.29
335.22	6.29
335.587	6.4
335.954	6.61
336.32	6.64
336.687	6.62
337.054	6.49
337.42	6.44
337.787	6.45
338.153	6.57
338.52	6.55
338.886	6.68
339.253	6.89
339.619	6.84
339.986	6.83
340.352	6.82
340.718	6.88
341.084	6.79
341.451	6.92
341.817	6.84
342.183	6.96
342.549	6.92
342.915	7
343.281	6.89
343.647	6.89
344.013	6.93
344.379	6.91
344.745	6.92
345.11	6.96
345.476	7.01
345.842	6.93
346.208	6.93
346.573	6.99
346.939	6.94
347.304	6.9
347.67	6.82
348.035	6.79
348.401	6.79
348.766	6.85
349.132	6.84
349.497	6.9
349.862	6.95
350.228	7.05
350.593	7.16
350.958	7.2
351.323	7.11
351.688	7.14
352.053	7.15
352.418	7.16
352.783	7.14
353.148	7.06
353.513	7.08
353.878	7
354.243	6.83
354.608	6.91
354.972	7.03
355.337	7.01
355.702	7.04
356.066	7.07
356.431	7
356.795	6.91
357.16	6.87
357.524	6.74
357.889	6.72
358.253	6.66
358.618	6.68
358.982	6.74
359.346	6.67
359.71	6.63
360.075	6.68
360.439	6.71
360.803	6.73
361.167	6.76
361.531	6.79
361.895	6.77
362.259	6.72
362.623	6.69
362.987	6.66
363.351	6.64
363.714	6.62
364.078	6.54
364.442	6.61
364.806	6.68
365.169	6.74
365.533	6.73
365.896	6.77
366.26	6.64
366.623	6.56
366.987	6.54
367.35	6.55
367.714	6.43
368.077	6.44
368.44	6.39
368.803	6.24
369.167	6.16
369.53	6.17
369.893	6.11
370.256	6.03
370.619	5.94
370.982	5.83
371.345	5.81
371.708	5.83
372.071	5.72
372.434	5.64
372.797	5.57
373.159	5.5
373.522	5.36
373.885	5.45
374.247	5.46
374.61	5.4
374.973	5.36
375.335	5.39
375.698	5.26
376.06	5.27
376.423	5.32
376.785	5.31
377.147	5.28
377.51	5.21
377.872	5.16
378.234	5.17
378.596	5.18
378.958	5.12
379.321	5.11
379.683	5.11
380.045	5.08
380.407	5.03
380.769	4.89
381.13	4.86
381.492	4.79
381.854	4.72
382.216	4.72
382.578	4.76
382.939	4.72
383.301	4.65
383.663	4.63
384.024	4.54
384.386	4.48
384.747	4.46
385.109	4.51
385.47	4.53
385.832	4.52
386.193	4.44
386.554	4.41
386.916	4.41
387.277	4.36
387.638	4.33
387.999	4.31
388.36	4.35
388.721	4.34
389.082	4.3
389.443	4.32
389.804	4.32
390.165	4.26
390.526	4.24
390.887	4.27
391.248	4.22
391.609	4.23
391.969	4.17
392.33	4.15
392.691	4.08
393.051	4.05
393.412	4.04
393.772	4.07
394.133	4.06
394.493	4.02
394.854	4
395.214	3.97
395.574	3.96
395.935	3.94
396.295	3.95
396.655	3.92
397.015	3.88
397.376	3.85
397.736	3.79
398.096	3.76
398.456	3.7
398.816	3.66
399.176	3.57
399.535	3.58
399.895	3.55
400.255	3.51
400.615	3.47
400.975	3.41
401.334	3.39
401.694	3.37
402.054	3.37
402.413	3.34
402.773	3.35
403.132	3.38
403.492	3.43
403.851	3.43
404.211	3.4
404.57	3.41
404.929	3.39
405.288	3.39
405.648	3.39
406.007	3.4
406.366	3.4
406.725	3.43
407.084	3.46
407.443	3.47
407.802	3.47
408.161	3.49
408.52	3.49
408.879	3.48
409.238	3.48
409.596	3.5
409.955	3.51
410.314	3.49
410.673	3.45
411.031	3.4
411.39	3.35
411.748	3.42
412.107	3.38
412.465	3.34
412.824	3.32
413.182	3.29
413.54	3.29
413.899	3.28
414.257	3.26
414.615	3.24
414.974	3.22
415.332	3.21
415.69	3.17
416.048	3.19
416.406	3.19
416.764	3.18
417.122	3.16
417.48	3.16
417.838	3.14
418.195	3.13
418.553	3.1
418.911	3.09
419.269	3.06
419.626	3.06
419.984	3.07
420.342	3.04
420.699	3.03
421.057	3.03
421.414	3.01
421.772	3.01
422.129	3
422.486	3
422.844	3.01
423.201	3.02
423.558	2.99
423.915	2.98
424.273	2.97
424.63	2.98
424.987	2.96
425.344	2.97
425.701	2.98
426.058	3
426.415	3
426.772	2.99
427.128	2.99
427.485	2.99
427.842	2.99
428.199	3
428.555	2.98
428.912	2.99
429.269	2.99
429.625	2.98
429.982	2.98
430.338	2.97
430.695	2.98
431.051	2.97
431.407	2.95
431.764	2.94
432.12	2.92
432.476	2.93
432.832	2.92
433.189	2.9
433.545	2.88
433.901	2.88
434.257	2.87
434.613	2.87
434.969	2.85
435.325	2.89
435.681	2.88
436.036	2.88
436.392	2.87
436.748	2.88
437.104	2.88
437.459	2.88
437.815	2.89
438.171	2.85
438.526	2.87
438.882	2.88
439.237	2.9
439.593	2.91
439.948	2.92
440.304	2.91
440.659	2.91
441.014	2.93
441.369	2.93
441.725	2.93
442.08	2.93
442.435	2.95
442.79	2.92
443.145	2.92
443.5	2.91
443.855	2.91
444.21	2.91
444.565	2.91
444.92	2.89
445.275	2.9
445.629	2.91
445.984	2.91
446.339	2.91
446.693	2.9
447.048	2.87
447.403	2.86
447.757	2.86
448.112	2.86
448.466	2.86
448.82	2.84
449.175	2.84
449.529	2.82
449.883	2.8
450.238	2.83
450.592	2.85
450.946	2.85
451.3	2.85
451.654	2.86
452.008	2.86
452.362	2.84
452.716	2.83
453.07	2.82
453.424	2.81
453.778	2.8
454.132	2.79
454.486	2.81
454.839	2.81
455.193	2.8
455.547	2.8
455.9	2.78
456.254	2.8
456.607	2.8
456.961	2.81
457.314	2.8
457.668	2.8
458.021	2.78
458.375	2.76
458.728	2.77
459.081	2.76
459.434	2.75
459.787	2.78
460.141	2.77
460.494	2.78
460.847	2.78
461.2	2.79
461.553	2.8
461.906	2.81
462.259	2.8
462.611	2.81
462.964	2.83
463.317	2.83
463.67	2.84
464.022	2.85
464.375	2.85
464.728	2.87
465.08	2.88
465.433	2.92
465.785	2.95
466.138	2.96
466.49	2.97
466.843	3
467.195	3
467.547	3.01
467.899	3.02
468.252	3.03
468.604	3.02
468.956	3.03
469.308	3.02
469.66	3.07
470.012	3.09
470.364	3.08
470.716	3.13
471.068	3.13
471.42	3.12
471.772	3.11
472.123	3.11
472.475	3.11
472.827	3.09
473.178	3.09
473.53	3.1
473.882	3.1
474.233	3.07
474.585	3.06
474.936	3.07
475.288	3.06
475.639	3.06
475.99	3.05
476.342	3.04
476.693	3.07
477.044	3.05
477.395	3.04
477.746	3.04
478.097	3.01
478.448	3.01
478.8	3
479.15	3.01
479.501	3.01
479.852	3
480.203	3
480.554	2.99
480.905	3
481.255	3
481.606	3.01
481.957	3.02
482.307	3.01
482.658	3
483.009	3
483.359	3.01
483.709	3.01
484.06	2.99
484.41	2.99
484.761	2.99
485.111	2.99
485.461	2.99
485.811	2.99
486.162	2.98
486.512	2.98
486.862	2.98
487.212	2.98
487.562	2.98
487.912	2.98
488.262	2.97
488.612	2.97
488.961	2.97
489.311	2.97
489.661	2.96
490.011	2.97
490.36	2.97
490.71	2.98
491.06	2.97
491.409	2.97
491.759	2.98
492.108	2.98
492.458	2.98
492.807	2.98
493.157	3
493.506	3.02
493.855	3.03
494.204	3.03
494.554	3.05
494.903	3.05
495.252	3.07
495.601	3.08
495.95	3.09
496.299	3.1
496.648	3.12
496.997	3.14
497.346	3.16
497.695	3.19
498.043	3.19
498.392	3.22
498.741	3.25
499.09	3.28
499.438	3.31
499.787	3.33
500.135	3.35
500.484	3.4
500.832	3.43
501.181	3.46
501.529	3.53
501.878	3.55
502.226	3.61
502.574	3.63
502.923	3.65
503.271	3.71
503.619	3.77
503.967	3.82
504.315	3.86
504.663	3.89
505.011	3.9
505.359	3.95
505.707	4.01
506.055	4.06
506.403	4.1
506.751	4.16
507.098	4.23
507.446	4.29
507.794	4.36
508.141	4.4
508.489	4.48
508.837	4.5
509.184	4.56
509.531	4.61
509.879	4.7
510.226	4.77
510.574	4.81
510.921	4.87
511.268	4.95
511.616	5.04
511.963	5.14
512.31	5.23
512.657	5.31
513.004	5.38
513.351	5.46
513.698	5.52
514.045	5.61
514.392	5.69
514.739	5.76
515.086	5.82
515.432	5.91
515.779	5.99
516.126	6.09
516.473	6.17
516.819	6.25
517.166	6.32
517.512	6.38
517.859	6.48
518.205	6.53
518.552	6.58
518.898	6.64
519.245	6.7
519.591	6.76
519.937	6.84
520.283	6.9
520.629	6.98
520.976	7.06
521.322	7.13
521.668	7.21
522.014	7.33
522.36	7.42
522.706	7.51
523.052	7.61
523.398	7.74
523.743	7.87
524.089	8
524.435	8.1
524.781	8.21
525.126	8.28
525.472	8.4
525.817	8.47
526.163	8.55
526.509	8.62
526.854	8.69
527.199	8.77
527.545	8.86
527.89	8.92
528.235	8.99
528.581	9.07
528.926	9.15
529.271	9.23
529.616	9.3
529.961	9.38
530.306	9.47
530.651	9.53
530.996	9.61
531.341	9.71
531.686	9.81
532.031	9.93
532.376	10.04
532.721	10.14
533.065	10.26
533.41	10.37
533.755	10.5
534.099	10.63
534.444	10.76
534.788	10.87
535.133	10.99
535.477	11.11
535.822	11.25
536.166	11.38
536.51	11.52
536.855	11.7
537.199	11.87
537.543	12.04
537.887	12.26
538.231	12.44
538.576	12.57
538.92	12.76
539.264	12.94
539.608	13.09
539.951	13.25
540.295	13.4
540.639	13.56
540.983	13.69
541.327	13.85
541.671	13.97
542.014	14.14
542.358	14.3
542.701	14.47
543.045	14.62
543.389	14.79
543.732	14.94
544.075	15.11
544.419	15.26
544.762	15.45
545.105	15.61
545.449	15.78
545.792	16.01
546.135	16.22
546.478	16.38
546.821	16.64
547.165	16.87
547.508	17.12
547.851	17.36
548.194	17.61
548.536	17.86
548.879	18.11
549.222	18.31
549.565	18.53
549.908	18.74
550.25	18.99
550.593	19.22
550.936	19.45
551.278	19.67
551.621	19.89
551.963	20.1
552.306	20.33
552.648	20.58
552.991	20.81
553.333	21.03
553.675	21.31
554.017	21.51
554.36	21.74
554.702	21.88
555.044	22.05
555.386	22.29
555.728	22.47
556.07	22.68
556.412	22.91
556.754	23.11
557.096	23.31
557.438	23.49
557.78	23.7
558.121	23.95
558.463	24.16
558.805	24.44
559.147	24.67
559.488	24.88
559.83	25.08
560.171	25.31
560.513	25.49
560.854	25.63
561.196	25.83
561.537	26.02
561.878	26.31
562.22	26.54
562.561	26.73
562.902	26.93
563.243	27.14
563.584	27.33
563.925	27.59
564.266	27.83
564.607	27.99
564.948	28.21
565.289	28.37
565.63	28.55
565.971	28.64
566.312	28.82
566.653	28.98
566.993	29.14
567.334	29.26
567.675	29.38
568.015	29.55
568.356	29.69
568.696	29.89
569.037	29.95
569.377	30.08
569.718	30.2
570.058	30.33
570.398	30.46
570.739	30.58
571.079	30.61
571.419	30.74
571.759	30.91
572.099	30.97
572.439	31.08
572.779	31.18
573.119	31.36
573.459	31.46
573.799	31.54
574.139	31.64
574.479	31.77
574.819	31.88
575.158	31.95
575.498	32.03
575.838	32.08
576.177	32.19
576.517	32.28
576.856	32.38
577.196	32.53
577.535	32.63
577.875	32.74
578.214	32.9
578.553	32.96
578.893	33.06
579.232	33.2
579.571	33.34
579.91	33.39
580.25	33.4
580.589	33.44
580.928	33.57
581.267	33.65
581.606	33.68
581.945	33.78
582.283	33.92
582.622	34.02
582.961	34.11
583.3	34.22
583.639	34.32
583.977	34.39
584.316	34.42
584.654	34.51
584.993	34.57
585.332	34.65
585.67	34.73
586.008	34.77
586.347	34.82
586.685	34.83
587.024	34.93
587.362	35
587.7	35.15
588.038	35.19
588.376	35.28
588.715	35.43
589.053	35.46
589.391	35.56
589.729	35.62
590.067	35.67
590.404	35.74
590.742	35.79
591.08	35.88
591.418	35.94
591.756	35.98
592.093	36.12
592.431	36.15
592.769	36.22
593.106	36.3
593.444	36.35
593.781	36.43
594.119	36.56
594.456	36.66
594.793	36.72
595.131	36.78
595.468	36.89
595.805	36.88
596.143	36.97
596.48	37.03
596.817	37.07
597.154	37.14
597.491	37.18
597.828	37.21
598.165	37.24
598.502	37.26
598.839	37.32
599.176	37.37
599.512	37.4
599.849	37.45
600.186	37.5
600.523	37.52
600.859	37.59
601.196	37.58
601.532	37.64
601.869	37.64
602.205	37.68
602.542	37.71
602.878	37.77
603.215	37.79
603.551	37.8
603.887	37.87
604.223	37.88
604.56	37.94
604.896	38.01
605.232	38.04
605.568	38.07
605.904	38.07
606.24	38.03
606.576	38.04
606.912	38.08
607.248	38.11
607.583	38.13
607.919	38.09
608.255	38.14
608.591	38.19
608.926	38.22
609.262	38.26
609.597	38.21
609.933	38.25
610.268	38.26
610.604	38.28
610.939	38.31
611.275	38.32
611.61	38.32
611.945	38.23
612.281	38.29
612.616	38.34
612.951	38.43
613.286	38.5
613.621	38.6
613.956	38.66
614.291	38.63
614.626	38.7
614.961	38.84
615.296	38.81
615.631	38.72
615.966	38.73
616.3	38.74
616.635	38.79
616.97	38.8
617.304	38.84
617.639	38.93
617.973	38.87
618.308	38.94
618.642	38.91
618.977	38.95
619.311	38.93
619.646	38.9
619.98	38.95
620.314	38.98
620.648	39.04
620.983	38.88
621.317	38.96
621.651	38.9
621.985	38.82
622.319	38.86
622.653	38.98
622.987	39
623.321	38.99
623.655	39.01
623.988	39.03
624.322	39.1
624.656	39.07
624.99	39.09
625.323	39.04
625.657	39.06
625.99	39.16
626.324	39.14
626.657	39.24
626.991	39.24
627.324	39.19
627.658	39.21
627.991	39.36
628.324	39.32
628.657	39.41
628.991	39.47
629.324	39.38
629.657	39.31
629.99	39.24
630.323	39.27
630.656	39.28
630.989	39.22
631.322	39.26
631.655	39.25
631.987	39.33
632.32	39.39
632.653	39.48
632.986	39.54
633.318	39.56
633.651	39.51
633.984	39.4
634.316	39.43
634.649	39.37
634.981	39.37
635.313	39.46
635.646	39.41
635.978	39.46
636.31	39.55
636.643	39.56
636.975	39.68
637.307	39.72
637.639	39.63
637.971	39.76
638.303	39.73
638.635	39.68
638.967	39.62
639.299	39.59
639.631	39.5
639.963	39.49
640.295	39.58
640.626	39.53
640.958	39.56
641.29	39.59
641.621	39.61
641.953	39.61
642.285	39.5
642.616	39.56
642.948	39.47
643.279	39.44
643.61	39.54
643.942	39.52
644.273	39.51
644.604	39.63
644.936	39.6
645.267	39.6
645.598	39.65
645.929	39.69
646.26	39.69
646.591	39.84
646.922	39.78
647.253	39.71
647.584	39.8
647.915	39.81
648.245	39.84
648.576	39.78
648.907	39.75
649.238	39.83
649.568	39.91
649.899	40.01
650.229	40.25
650.56	40.24
650.89	40.24
651.221	40.18
651.551	40.15
651.882	40.13
652.212	40.16
652.542	40.2
652.872	40.25
653.203	40.34
653.533	40.25
653.863	40.2
654.193	40.17
654.523	40.17
654.853	40.26
655.183	40.23
655.513	40.4
655.843	40.43
656.172	40.46
656.502	40.38
656.832	40.38
657.162	40.15
657.491	40.19
657.821	40.15
658.15	40.26
658.48	40.36
658.809	40.37
659.139	40.4
659.468	40.42
659.798	40.32
660.127	40.32
660.456	40.24
660.785	40.32
661.115	40.33
661.444	40.36
661.773	40.4
662.102	40.44
662.431	40.31
662.76	40.29
663.089	40.25
663.418	40.32
663.747	40.38
664.076	40.37
664.404	40.34
664.733	40.4
665.062	40.39
665.39	40.33
665.719	40.3
666.048	40.18
666.376	40.12
666.705	40.25
667.033	40.31
667.362	40.38
667.69	40.4
668.018	40.52
668.347	40.4
668.675	40.34
669.003	40.28
