Data from MVZ_BU163026_Reflection_00008.txt Node
Date: Tue Nov 19 12:06:03 EST 2019
User: vgr7
Spectrometer: USB2G7710
Scans to average: 3
Trigger mode: 4
Integration Time (sec): 2.000000E-2
Electric dark correction enabled: true
Boxcar width: 10
XAxis mode: Wavelengths
Number of Pixels in Spectrum: 2048
>>>>>Begin Spectral Data<<<<<
177.721	84.21
178.105	451.35
178.488	362.8
178.871	105.97
179.254	75.38
179.636	68.58
180.019	86.95
180.402	183.33
180.785	-536.36
181.168	195.98
181.55	183.74
181.933	156.18
182.316	-41.65
182.698	-40.09
183.081	-36.76
183.463	-43.95
183.846	-52.97
184.228	-6.77
184.611	7.43
184.993	-4
185.376	-29.65
185.758	-2.04
186.14	12.34
186.522	-6.23
186.904	6.72
187.287	-4.43
187.669	-0.44
188.051	5.04
188.433	50.59
188.815	33.9
189.197	32.75
189.579	45.6
189.961	58.98
190.342	85.73
190.724	114.78
191.106	111.47
191.488	85.05
191.869	173.59
192.251	215.45
192.633	286.44
193.014	382.42
193.396	195.4
193.777	168.22
194.159	341.64
194.54	1567.53
194.922	-7426.32
195.303	1244
195.684	688.83
196.065	627.09
196.447	-332.16
196.828	4372.73
197.209	144.25
197.59	-290.24
197.971	525.53
198.352	107.78
198.733	217.06
199.114	301.97
199.495	89.39
199.876	-25.91
200.257	1.13
200.638	15.43
201.018	37.66
201.399	398.7
201.78	423.94
202.16	51.46
202.541	22.5
202.922	9.09
203.302	15.08
203.683	70.86
204.063	70.05
204.444	57.51
204.824	161.18
205.204	1496.23
205.585	2417.07
205.965	804.23
206.345	-236.03
206.725	-64.08
207.106	-46.01
207.486	-18.92
207.866	-60.25
208.246	-21.93
208.626	-25.95
209.006	-2.18
209.386	5.69
209.766	28.09
210.145	82.06
210.525	80.72
210.905	39.97
211.285	10.63
211.664	33.12
212.044	39.14
212.424	22.9
212.803	5.43
213.183	-23.35
213.562	3
213.942	-2.97
214.321	-0.48
214.701	-17.76
215.08	-24.62
215.459	-40.98
215.838	-45.17
216.218	-79.68
216.597	-70.98
216.976	-137.96
217.355	-131.72
217.734	-129.51
218.113	-112.21
218.492	-96.31
218.871	-80.9
219.25	-95.02
219.629	-158.21
220.008	-135.51
220.387	-190.84
220.766	-147
221.144	-138.63
221.523	-149.1
221.902	-191.2
222.28	-203.08
222.659	-102.93
223.037	-94.16
223.416	-93.42
223.794	-81.38
224.173	-73.8
224.551	-61.66
224.929	-57.29
225.308	-45.62
225.686	-37.29
226.064	-37.42
226.442	-23.49
226.821	-23.26
227.199	-16.91
227.577	-11.64
227.955	-7.62
228.333	-11.59
228.711	-14.44
229.089	-12.56
229.467	-15.14
229.845	-15.76
230.222	-12.06
230.6	-14.4
230.978	-11.96
231.356	-10.15
231.733	-9.96
232.111	-9.15
232.488	-9.95
232.866	-5.74
233.243	-5.75
233.621	-4.38
233.998	-3.93
234.376	-4.26
234.753	-1.71
235.13	-0.81
235.508	-1.35
235.885	-2.18
236.262	-0.84
236.639	0.25
237.016	0.3
237.393	1.44
237.77	2.97
238.147	3.1
238.524	3.32
238.901	1.68
239.278	1.15
239.655	1.21
240.032	2.03
240.409	2.3
240.785	1.91
241.162	1.58
241.539	1.79
241.915	1.87
242.292	1.78
242.668	1.29
243.045	1.23
243.421	1.81
243.798	2.22
244.174	2.55
244.551	2.98
244.927	3.19
245.303	3.14
245.679	3.26
246.056	3.14
246.432	3.07
246.808	3.35
247.184	3.55
247.56	3.6
247.936	3.68
248.312	3.79
248.688	3.97
249.064	4.17
249.44	3.96
249.815	4
250.191	3.97
250.567	3.96
250.943	4.03
251.318	3.98
251.694	3.73
252.069	3.98
252.445	3.65
252.82	3.68
253.196	4.05
253.571	3.95
253.947	4.2
254.322	4.22
254.697	3.79
255.073	3.61
255.448	3.33
255.823	3.02
256.198	2.89
256.573	2.95
256.948	2.95
257.323	3.14
257.698	3.04
258.073	3.22
258.448	3.29
258.823	3.34
259.198	3.47
259.573	3.45
259.948	3.41
260.322	3.33
260.697	3.29
261.072	3.2
261.446	3.28
261.821	2.99
262.195	2.94
262.57	3.14
262.944	3.05
263.319	3.22
263.693	3.34
264.067	3.32
264.442	3.38
264.816	3.43
265.19	3.26
265.564	3.23
265.938	2.86
266.313	2.76
266.687	2.51
267.061	2.4
267.435	2.52
267.809	2.52
268.183	2.55
268.556	2.55
268.93	2.72
269.304	2.76
269.678	2.97
270.051	3.08
270.425	3
270.799	3.05
271.172	2.92
271.546	2.96
271.919	2.82
272.293	2.78
272.666	2.62
273.04	2.71
273.413	2.61
273.787	2.64
274.16	2.67
274.533	2.8
274.906	2.82
275.279	2.74
275.653	2.81
276.026	2.85
276.399	2.93
276.772	2.69
277.145	2.48
277.518	2.38
277.891	2.25
278.263	2.31
278.636	2.51
279.009	2.67
279.382	2.58
279.755	2.65
280.127	2.59
280.5	2.56
280.872	2.64
281.245	2.58
281.617	2.68
281.99	2.84
282.362	2.81
282.735	2.67
283.107	2.57
283.479	2.64
283.852	2.7
284.224	2.6
284.596	2.68
284.968	2.74
285.34	2.77
285.713	2.94
286.085	2.83
286.457	2.85
286.829	2.89
287.201	2.81
287.572	2.84
287.944	2.79
288.316	2.84
288.688	2.81
289.06	2.98
289.431	3.15
289.803	2.97
290.175	3.09
290.546	3.09
290.918	3.18
291.289	2.94
291.661	2.91
292.032	2.88
292.403	2.78
292.775	2.89
293.146	2.88
293.517	2.66
293.889	2.7
294.26	2.61
294.631	2.5
295.002	2.58
295.373	2.72
295.744	2.74
296.115	2.73
296.486	2.65
296.857	2.76
297.228	2.61
297.599	2.71
297.97	2.64
298.34	2.74
298.711	2.86
299.082	2.9
299.452	2.84
299.823	2.88
300.194	2.97
300.564	2.82
300.935	2.85
301.305	2.84
301.676	2.74
302.046	2.79
302.416	2.84
302.787	3.02
303.157	3
303.527	3.2
303.897	3.17
304.267	3.42
304.637	3.37
305.008	3.43
305.378	3.52
305.748	3.53
306.117	3.65
306.487	3.72
306.857	3.9
307.227	4.12
307.597	4.2
307.967	4.16
308.336	4.23
308.706	4.32
309.076	4.59
309.445	4.77
309.815	4.68
310.184	4.77
310.554	4.65
310.923	4.66
311.293	4.58
311.662	4.74
312.031	4.65
312.401	4.63
312.77	4.69
313.139	4.73
313.508	4.77
313.877	4.85
314.246	4.84
314.616	4.86
314.985	4.79
315.353	4.92
315.722	5.21
316.091	5.32
316.46	5.32
316.829	5.26
317.198	5.22
317.567	5.33
317.935	5.4
318.304	5.65
318.672	5.7
319.041	5.74
319.41	5.77
319.778	5.86
320.147	5.97
320.515	6.06
320.883	6.02
321.252	6.09
321.62	6.03
321.988	6.05
322.357	6.06
322.725	6.11
323.093	5.92
323.461	5.79
323.829	5.8
324.197	5.87
324.565	6.01
324.933	6.13
325.301	5.9
325.669	5.71
326.037	5.57
326.405	5.48
326.772	5.53
327.14	5.37
327.508	5.38
327.875	5.29
328.243	5.27
328.61	5.32
328.978	5.28
329.346	5.38
329.713	5.31
330.08	5.41
330.448	5.4
330.815	5.45
331.182	5.43
331.55	5.44
331.917	5.33
332.284	5.31
332.651	5.32
333.018	5.56
333.385	5.86
333.752	6.01
334.119	6.26
334.486	6.21
334.853	6.41
335.22	6.34
335.587	6.3
335.954	6.42
336.32	6.41
336.687	6.34
337.054	6.28
337.42	6.36
337.787	6.23
338.153	6.29
338.52	6.44
338.886	6.55
339.253	6.46
339.619	6.54
339.986	6.53
340.352	6.6
340.718	6.61
341.084	6.5
341.451	6.56
341.817	6.42
342.183	6.47
342.549	6.54
342.915	6.56
343.281	6.74
343.647	6.67
344.013	6.63
344.379	6.74
344.745	6.68
345.11	6.62
345.476	6.71
345.842	6.64
346.208	6.58
346.573	6.49
346.939	6.56
347.304	6.59
347.67	6.55
348.035	6.52
348.401	6.57
348.766	6.52
349.132	6.44
349.497	6.54
349.862	6.61
350.228	6.58
350.593	6.61
350.958	6.61
351.323	6.63
351.688	6.76
352.053	6.73
352.418	6.77
352.783	6.83
353.148	6.67
353.513	6.73
353.878	6.82
354.243	6.82
354.608	6.94
354.972	6.94
355.337	6.95
355.702	6.96
356.066	6.85
356.431	6.89
356.795	6.82
357.16	6.75
357.524	6.77
357.889	6.72
358.253	6.7
358.618	6.66
358.982	6.63
359.346	6.57
359.71	6.57
360.075	6.58
360.439	6.54
360.803	6.67
361.167	6.68
361.531	6.6
361.895	6.58
362.259	6.57
362.623	6.55
362.987	6.52
363.351	6.46
363.714	6.48
364.078	6.48
364.442	6.43
364.806	6.4
365.169	6.32
365.533	6.25
365.896	6.3
366.26	6.22
366.623	6.18
366.987	6.2
367.35	6.17
367.714	6.14
368.077	6.11
368.44	6.03
368.803	5.93
369.167	5.87
369.53	5.92
369.893	5.83
370.256	5.77
370.619	5.69
370.982	5.58
371.345	5.61
371.708	5.54
372.071	5.49
372.434	5.47
372.797	5.42
373.159	5.49
373.522	5.35
373.885	5.39
374.247	5.34
374.61	5.27
374.973	5.24
375.335	5.22
375.698	5.19
376.06	5.16
376.423	5.14
376.785	5.11
377.147	5.08
377.51	5.03
377.872	5.02
378.234	5.09
378.596	5.13
378.958	5.07
379.321	5.08
379.683	5.11
380.045	5.08
380.407	5.06
380.769	4.99
381.13	4.95
381.492	4.9
381.854	4.89
382.216	4.89
382.578	4.83
382.939	4.76
383.301	4.75
383.663	4.69
384.024	4.65
384.386	4.62
384.747	4.52
385.109	4.52
385.47	4.5
385.832	4.41
386.193	4.39
386.554	4.31
386.916	4.27
387.277	4.24
387.638	4.21
387.999	4.21
388.36	4.19
388.721	4.2
389.082	4.2
389.443	4.17
389.804	4.14
390.165	4.12
390.526	4.11
390.887	4.08
391.248	4.08
391.609	4.11
391.969	4.12
392.33	4.11
392.691	4.07
393.051	4.02
393.412	4.05
393.772	4.07
394.133	4.08
394.493	4.05
394.854	4.05
395.214	4.06
395.574	4.01
395.935	3.95
396.295	3.95
396.655	3.89
397.015	3.84
397.376	3.79
397.736	3.73
398.096	3.7
398.456	3.7
398.816	3.64
399.176	3.55
399.535	3.55
399.895	3.51
400.255	3.5
400.615	3.49
400.975	3.44
401.334	3.38
401.694	3.36
402.054	3.34
402.413	3.28
402.773	3.27
403.132	3.26
403.492	3.3
403.851	3.26
404.211	3.26
404.57	3.29
404.929	3.28
405.288	3.32
405.648	3.32
406.007	3.31
406.366	3.32
406.725	3.35
407.084	3.29
407.443	3.31
407.802	3.3
408.161	3.31
408.52	3.32
408.879	3.33
409.238	3.34
409.596	3.34
409.955	3.33
410.314	3.32
410.673	3.28
411.031	3.22
411.39	3.26
411.748	3.28
412.107	3.23
412.465	3.23
412.824	3.24
413.182	3.23
413.54	3.24
413.899	3.23
414.257	3.2
414.615	3.21
414.974	3.17
415.332	3.14
415.69	3.14
416.048	3.1
416.406	3.07
416.764	3.03
417.122	3.02
417.48	3.03
417.838	3.01
418.195	3.01
418.553	3.04
418.911	3.01
419.269	3.02
419.626	3.01
419.984	3
420.342	2.98
420.699	2.97
421.057	2.93
421.414	2.93
421.772	2.93
422.129	2.91
422.486	2.93
422.844	2.93
423.201	2.91
423.558	2.92
423.915	2.93
424.273	2.96
424.63	2.96
424.987	2.96
425.344	2.93
425.701	2.95
426.058	2.94
426.415	2.92
426.772	2.88
427.128	2.89
427.485	2.89
427.842	2.88
428.199	2.89
428.555	2.9
428.912	2.89
429.269	2.9
429.625	2.89
429.982	2.87
430.338	2.87
430.695	2.87
431.051	2.87
431.407	2.87
431.764	2.86
432.12	2.87
432.476	2.87
432.832	2.92
433.189	2.87
433.545	2.87
433.901	2.89
434.257	2.91
434.613	2.89
434.969	2.89
435.325	2.88
435.681	2.85
436.036	2.85
436.392	2.84
436.748	2.83
437.104	2.85
437.459	2.87
437.815	2.85
438.171	2.84
438.526	2.84
438.882	2.83
439.237	2.82
439.593	2.8
439.948	2.8
440.304	2.79
440.659	2.82
441.014	2.82
441.369	2.81
441.725	2.83
442.08	2.83
442.435	2.83
442.79	2.82
443.145	2.85
443.5	2.84
443.855	2.84
444.21	2.85
444.565	2.86
444.92	2.83
445.275	2.84
445.629	2.85
445.984	2.84
446.339	2.84
446.693	2.84
447.048	2.82
447.403	2.8
447.757	2.8
448.112	2.78
448.466	2.78
448.82	2.76
449.175	2.75
449.529	2.76
449.883	2.76
450.238	2.77
450.592	2.74
450.946	2.74
451.3	2.74
451.654	2.72
452.008	2.73
452.362	2.73
452.716	2.72
453.07	2.72
453.424	2.7
453.778	2.69
454.132	2.69
454.486	2.7
454.839	2.71
455.193	2.7
455.547	2.71
455.9	2.71
456.254	2.7
456.607	2.69
456.961	2.69
457.314	2.67
457.668	2.66
458.021	2.68
458.375	2.67
458.728	2.66
459.081	2.66
459.434	2.65
459.787	2.65
460.141	2.65
460.494	2.67
460.847	2.68
461.2	2.71
461.553	2.73
461.906	2.75
462.259	2.74
462.611	2.75
462.964	2.77
463.317	2.76
463.67	2.78
464.022	2.8
464.375	2.78
464.728	2.81
465.08	2.82
465.433	2.8
465.785	2.83
466.138	2.83
466.49	2.84
466.843	2.85
467.195	2.87
467.547	2.89
467.899	2.87
468.252	2.89
468.604	2.86
468.956	2.85
469.308	2.83
469.66	2.85
470.012	2.85
470.364	2.84
470.716	2.86
471.068	2.88
471.42	2.88
471.772	2.9
472.123	2.93
472.475	2.95
472.827	2.97
473.178	2.97
473.53	3.01
473.882	3.01
474.233	3
474.585	3
474.936	3
475.288	2.98
475.639	2.98
475.99	2.99
476.342	3
476.693	3.01
477.044	3.01
477.395	3.01
477.746	2.98
478.097	2.97
478.448	2.96
478.8	2.95
479.15	2.93
479.501	2.92
479.852	2.92
480.203	2.94
480.554	2.94
480.905	2.94
481.255	2.94
481.606	2.94
481.957	2.94
482.307	2.93
482.658	2.95
483.009	2.94
483.359	2.93
483.709	2.93
484.06	2.93
484.41	2.93
484.761	2.93
485.111	2.94
485.461	2.94
485.811	2.94
486.162	2.94
486.512	2.96
486.862	2.96
487.212	2.96
487.562	2.94
487.912	2.95
488.262	2.94
488.612	2.93
488.961	2.94
489.311	2.93
489.661	2.92
490.011	2.9
490.36	2.9
490.71	2.9
491.06	2.91
491.409	2.91
491.759	2.9
492.108	2.9
492.458	2.89
492.807	2.89
493.157	2.9
493.506	2.91
493.855	2.9
494.204	2.9
494.554	2.91
494.903	2.93
495.252	2.93
495.601	2.94
495.95	2.96
496.299	2.99
496.648	3
496.997	3.03
497.346	3.05
497.695	3.09
498.043	3.12
498.392	3.14
498.741	3.18
499.09	3.22
499.438	3.27
499.787	3.3
500.135	3.33
500.484	3.35
500.832	3.38
501.181	3.42
501.529	3.5
501.878	3.53
502.226	3.57
502.574	3.63
502.923	3.65
503.271	3.68
503.619	3.73
503.967	3.81
504.315	3.86
504.663	3.95
505.011	3.97
505.359	3.99
505.707	4.06
506.055	4.1
506.403	4.15
506.751	4.2
507.098	4.29
507.446	4.37
507.794	4.44
508.141	4.51
508.489	4.59
508.837	4.65
509.184	4.74
509.531	4.81
509.879	4.88
510.226	4.95
510.574	5.03
510.921	5.08
511.268	5.14
511.616	5.24
511.963	5.3
512.31	5.41
512.657	5.53
513.004	5.62
513.351	5.75
513.698	5.86
514.045	5.96
514.392	6.07
514.739	6.17
515.086	6.28
515.432	6.42
515.779	6.51
516.126	6.62
516.473	6.73
516.819	6.82
517.166	6.92
517.512	7.05
517.859	7.15
518.205	7.23
518.552	7.35
518.898	7.42
519.245	7.53
519.591	7.64
519.937	7.74
520.283	7.83
520.629	7.91
520.976	8.03
521.322	8.15
521.668	8.26
522.014	8.41
522.36	8.53
522.706	8.65
523.052	8.8
523.398	8.92
523.743	9.07
524.089	9.23
524.435	9.38
524.781	9.52
525.126	9.67
525.472	9.84
525.817	9.96
526.163	10.06
526.509	10.18
526.854	10.25
527.199	10.35
527.545	10.45
527.89	10.54
528.235	10.63
528.581	10.73
528.926	10.83
529.271	10.92
529.616	11.03
529.961	11.14
530.306	11.25
530.651	11.38
530.996	11.5
531.341	11.65
531.686	11.78
532.031	11.92
532.376	12.05
532.721	12.18
533.065	12.33
533.41	12.5
533.755	12.66
534.099	12.84
534.444	13
534.788	13.17
535.133	13.36
535.477	13.54
535.822	13.76
536.166	13.96
536.51	14.2
536.855	14.44
537.199	14.66
537.543	14.89
537.887	15.14
538.231	15.38
538.576	15.62
538.92	15.86
539.264	16.14
539.608	16.37
539.951	16.59
540.295	16.79
540.639	17
540.983	17.2
541.327	17.42
541.671	17.63
542.014	17.84
542.358	18.03
542.701	18.23
543.045	18.39
543.389	18.59
543.732	18.77
544.075	18.98
544.419	19.18
544.762	19.44
545.105	19.67
545.449	19.91
545.792	20.17
546.135	20.43
546.478	20.69
546.821	21.01
547.165	21.32
547.508	21.65
547.851	21.98
548.194	22.29
548.536	22.58
548.879	22.89
549.222	23.2
549.565	23.49
549.908	23.79
550.25	24.14
550.593	24.47
550.936	24.8
551.278	25.08
551.621	25.44
551.963	25.73
552.306	26.05
552.648	26.35
552.991	26.66
553.333	26.95
553.675	27.25
554.017	27.49
554.36	27.74
554.702	27.95
555.044	28.21
555.386	28.45
555.728	28.75
556.07	29.01
556.412	29.29
556.754	29.61
557.096	29.9
557.438	30.13
557.78	30.41
558.121	30.71
558.463	31.07
558.805	31.36
559.147	31.63
559.488	31.89
559.83	32.17
560.171	32.34
560.513	32.61
560.854	32.83
561.196	33.1
561.537	33.39
561.878	33.67
562.22	33.96
562.561	34.27
562.902	34.56
563.243	34.78
563.584	35.04
563.925	35.28
564.266	35.52
564.607	35.78
564.948	35.95
565.289	36.14
565.63	36.32
565.971	36.55
566.312	36.78
566.653	36.99
566.993	37.2
567.334	37.49
567.675	37.66
568.015	37.84
568.356	37.98
568.696	38.14
569.037	38.36
569.377	38.49
569.718	38.65
570.058	38.72
570.398	38.95
570.739	39.1
571.079	39.23
571.419	39.36
571.759	39.52
572.099	39.72
572.439	39.89
572.779	40.02
573.119	40.07
573.459	40.16
573.799	40.29
574.139	40.37
574.479	40.49
574.819	40.61
575.158	40.75
575.498	40.91
575.838	41.06
576.177	41.16
576.517	41.33
576.856	41.48
577.196	41.71
577.535	41.79
577.875	41.91
578.214	42.06
578.553	42.25
578.893	42.44
579.232	42.54
579.571	42.62
579.91	42.72
580.25	42.92
580.589	43
580.928	43.13
581.267	43.28
581.606	43.34
581.945	43.47
582.283	43.55
582.622	43.67
582.961	43.72
583.3	43.85
583.639	43.92
583.977	43.92
584.316	43.96
584.654	44.09
584.993	44.17
585.332	44.27
585.67	44.38
586.008	44.39
586.347	44.48
586.685	44.57
587.024	44.6
587.362	44.71
587.7	44.84
588.038	44.9
588.376	45
588.715	45.12
589.053	45.23
589.391	45.32
589.729	45.37
590.067	45.51
590.404	45.53
590.742	45.65
591.08	45.82
591.418	45.9
591.756	45.9
592.093	46
592.431	46.09
592.769	46.15
593.106	46.2
593.444	46.29
593.781	46.42
594.119	46.52
594.456	46.57
594.793	46.68
595.131	46.8
595.468	46.87
595.805	46.91
596.143	46.98
596.48	47.06
596.817	47.11
597.154	47.11
597.491	47.2
597.828	47.21
598.165	47.17
598.502	47.22
598.839	47.37
599.176	47.39
599.512	47.39
599.849	47.48
600.186	47.52
600.523	47.58
600.859	47.58
601.196	47.7
601.532	47.78
601.869	47.81
602.205	47.87
602.542	47.9
602.878	47.97
603.215	48.01
603.551	48.05
603.887	48.07
604.223	48.13
604.56	48.08
604.896	48.15
605.232	48.25
605.568	48.3
605.904	48.29
606.24	48.36
606.576	48.43
606.912	48.45
607.248	48.56
607.583	48.64
607.919	48.69
608.255	48.66
608.591	48.68
608.926	48.79
609.262	48.77
609.597	48.75
609.933	48.78
610.268	48.81
610.604	48.85
610.939	48.94
611.275	49.04
611.61	49.2
611.945	49.17
612.281	49.26
612.616	49.35
612.951	49.38
613.286	49.49
613.621	49.51
613.956	49.51
614.291	49.56
614.626	49.52
614.961	49.6
615.296	49.65
615.631	49.64
615.966	49.63
616.3	49.7
616.635	49.76
616.97	49.74
617.304	49.76
617.639	49.77
617.973	49.77
618.308	49.68
618.642	49.67
618.977	49.77
619.311	49.73
619.646	49.75
619.98	49.84
620.314	49.7
620.648	49.78
620.983	49.84
621.317	49.83
621.651	49.94
621.985	50.02
622.319	50.04
622.653	50.16
622.987	50.15
623.321	50.19
623.655	50.24
623.988	50.25
624.322	50.33
624.656	50.4
624.99	50.42
625.323	50.52
625.657	50.5
625.99	50.49
626.324	50.53
626.657	50.43
626.991	50.51
627.324	50.55
627.658	50.6
627.991	50.56
628.324	50.55
628.657	50.5
628.991	50.49
629.324	50.51
629.657	50.45
629.99	50.37
630.323	50.31
630.656	50.28
630.989	50.33
631.322	50.33
631.655	50.29
631.987	50.3
632.32	50.34
632.653	50.46
632.986	50.43
633.318	50.4
633.651	50.6
633.984	50.58
634.316	50.5
634.649	50.4
634.981	50.43
635.313	50.43
635.646	50.42
635.978	50.47
636.31	50.47
636.643	50.54
636.975	50.58
637.307	50.63
637.639	50.71
637.971	50.78
638.303	50.72
638.635	50.67
638.967	50.74
639.299	50.62
639.631	50.56
639.963	50.65
640.295	50.68
640.626	50.55
640.958	50.56
641.29	50.69
641.621	50.8
641.953	50.86
642.285	50.89
642.616	50.9
642.948	50.87
643.279	51.02
643.61	51.06
643.942	51.09
644.273	51.12
644.604	51.11
644.936	51.1
645.267	51.18
645.598	51.17
645.929	51.2
646.26	51.23
646.591	51.21
646.922	51.29
647.253	51.29
647.584	51.23
647.915	51.24
648.245	51.31
648.576	51.24
648.907	51.16
649.238	51.15
649.568	51.25
649.899	51.18
650.229	51.14
650.56	51.17
650.89	51.2
651.221	51.24
651.551	51.19
651.882	51.23
652.212	51.21
652.542	51.33
652.872	51.32
653.203	51.5
653.533	51.54
653.863	51.6
654.193	51.64
654.523	51.69
654.853	51.71
655.183	51.64
655.513	51.73
655.843	51.88
656.172	51.99
656.502	51.82
656.832	51.85
657.162	51.75
657.491	51.73
657.821	51.84
658.15	51.82
658.48	51.87
658.809	51.88
659.139	51.91
659.468	51.89
659.798	51.74
660.127	51.68
660.456	51.68
660.785	51.48
661.115	51.44
661.444	51.59
661.773	51.59
662.102	51.57
662.431	51.54
662.76	51.43
663.089	51.4
663.418	51.5
663.747	51.53
664.076	51.59
664.404	51.56
664.733	51.46
665.062	51.53
665.39	51.66
665.719	51.59
666.048	51.54
666.376	51.53
666.705	51.69
667.033	51.59
667.362	51.57
667.69	51.67
