Data from MVZ_BU147393_Reflection_00009.txt Node
Date: Tue Nov 19 12:07:05 EST 2019
User: vgr7
Spectrometer: USB2G7710
Scans to average: 3
Trigger mode: 4
Integration Time (sec): 2.000000E-2
Electric dark correction enabled: true
Boxcar width: 10
XAxis mode: Wavelengths
Number of Pixels in Spectrum: 2048
>>>>>Begin Spectral Data<<<<<
177.721	203.45
178.105	8350
178.488	235.83
178.871	390.63
179.254	127.27
179.636	147.81
180.019	305.04
180.402	-366.67
180.785	65.91
181.168	5.34
181.55	306.9
181.933	272.13
182.316	193.75
182.698	431.86
183.081	174.73
183.463	213.84
183.846	246.02
184.228	135.93
184.611	62.18
184.993	-84.62
185.376	1600
185.758	-1400
186.14	-1100
186.522	-294.07
186.904	-980
187.287	-5900
187.669	-234.62
188.051	-395.54
188.433	-220.61
188.815	-276.68
189.197	-189.58
189.579	-136.39
189.961	-57.59
190.342	1.35
190.724	-6.96
191.106	5.13
191.488	11.41
191.869	11.41
192.251	16.51
192.633	2.87
193.014	-6.29
193.396	-1.12
193.777	4.86
194.159	24.46
194.54	42.18
194.922	26.21
195.303	25
195.684	10.98
196.065	19.06
196.447	21.44
196.828	31.75
197.209	20.08
197.59	26.28
197.971	19.7
198.352	10.2
198.733	13.67
199.114	0.11
199.495	-20.49
199.876	-38.43
200.257	-47.32
200.638	-48.23
201.018	-41.54
201.399	-37.32
201.78	-27.1
202.16	-41.74
202.541	-45.62
202.922	-49.23
203.302	-56.27
203.683	-54.91
204.063	-51.06
204.444	-41.93
204.824	-49.04
205.204	-48.19
205.585	-48.63
205.965	-43.01
206.345	-52.95
206.725	-39.1
207.106	-31.14
207.486	-14.73
207.866	-3.58
208.246	4.99
208.626	9.87
209.006	10.3
209.386	13.19
209.766	9.55
210.145	16.13
210.525	20.33
210.905	35.75
211.285	53.16
211.664	62.04
212.044	69.18
212.424	53.36
212.803	61.07
213.183	80.19
213.562	92.82
213.942	83.84
214.321	66.78
214.701	44.83
215.08	48.07
215.459	44.88
215.838	23.19
216.218	-9.67
216.597	-1.69
216.976	16.08
217.355	-70.04
217.734	-36.36
218.113	-44.77
218.492	-14.83
218.871	-21.78
219.25	-22.62
219.629	-33.53
220.008	-56.11
220.387	-66.22
220.766	-73.95
221.144	-72.77
221.523	-73.08
221.902	-34.08
222.28	33.9
222.659	32.92
223.037	1.03
223.416	10.69
223.794	20.23
224.173	16.74
224.551	14.08
224.929	1.13
225.308	2.25
225.686	0.06
226.064	0.52
226.442	5.26
226.821	4.05
227.199	2.72
227.577	1.99
227.955	9.29
228.333	10.62
228.711	16.47
229.089	11.32
229.467	9.12
229.845	9.75
230.222	3.73
230.6	4.75
230.978	6.54
231.356	7.08
231.733	11.23
232.111	13.83
232.488	12.58
232.866	13.49
233.243	14.92
233.621	16.22
233.998	17.55
234.376	17.34
234.753	15.99
235.13	16.4
235.508	15.3
235.885	13.08
236.262	12.53
236.639	11.21
237.016	11.02
237.393	11.55
237.77	12.44
238.147	12.12
238.524	11.63
238.901	10.9
239.278	9.42
239.655	8.38
240.032	7.79
240.409	7.76
240.785	7.04
241.162	6.57
241.539	6.31
241.915	6.18
242.292	5.35
242.668	5.81
243.045	5.73
243.421	5.78
243.798	6.02
244.174	6.1
244.551	6.2
244.927	5.99
245.303	5.92
245.679	5.16
246.056	5.31
246.432	5.09
246.808	5.11
247.184	5.18
247.56	4.82
247.936	4.53
248.312	4.44
248.688	4.64
249.064	4.66
249.44	4.67
249.815	4.39
250.191	4.63
250.567	4.63
250.943	4.57
251.318	4.53
251.694	4.33
252.069	4.1
252.445	4.21
252.82	4.44
253.196	4.1
253.571	4.34
253.947	4.37
254.322	4.79
254.697	5.06
255.073	5.01
255.448	5.23
255.823	5.33
256.198	5.53
256.573	5.04
256.948	5.12
257.323	4.96
257.698	5.11
258.073	4.81
258.448	4.82
258.823	4.73
259.198	4.78
259.573	4.68
259.948	4.89
260.322	4.64
260.697	4.56
261.072	4.62
261.446	4.64
261.821	4.48
262.195	4.24
262.57	4.05
262.944	4.03
263.319	3.99
263.693	4.05
264.067	3.86
264.442	4.07
264.816	3.95
265.19	3.93
265.564	3.8
265.938	3.77
266.313	3.48
266.687	3.49
267.061	3.48
267.435	3.8
267.809	3.54
268.183	3.55
268.556	3.59
268.93	3.72
269.304	3.71
269.678	3.88
270.051	3.99
270.425	3.91
270.799	3.89
271.172	3.92
271.546	3.89
271.919	3.91
272.293	3.93
272.666	3.95
273.04	3.99
273.413	4.03
273.787	4.02
274.16	4
274.533	4.01
274.906	3.84
275.279	3.78
275.653	3.93
276.026	3.93
276.399	4
276.772	4.01
277.145	4.02
277.518	4
277.891	3.91
278.263	4.16
278.636	4.13
279.009	4.09
279.382	4.16
279.755	4.29
280.127	4.18
280.5	4.21
280.872	4.15
281.245	4.16
281.617	4.33
281.99	4.46
282.362	4.6
282.735	4.63
283.107	4.49
283.479	4.42
283.852	4.48
284.224	4.36
284.596	4.22
284.968	4
285.34	3.87
285.713	4
286.085	3.94
286.457	3.85
286.829	3.9
287.201	3.87
287.572	3.83
287.944	4.02
288.316	4.11
288.688	4.18
289.06	4.08
289.431	4.11
289.803	4.19
290.175	3.99
290.546	4.04
290.918	4.16
291.289	4.15
291.661	4.05
292.032	3.99
292.403	4.12
292.775	4.32
293.146	4.49
293.517	4.51
293.889	4.54
294.26	4.61
294.631	4.62
295.002	4.7
295.373	4.69
295.744	4.69
296.115	4.61
296.486	4.55
296.857	4.71
297.228	4.62
297.599	4.56
297.97	4.86
298.34	4.99
298.711	4.89
299.082	5.05
299.452	5.19
299.823	5.22
300.194	5.2
300.564	5.18
300.935	5.34
301.305	5.3
301.676	5.16
302.046	5.23
302.416	5.34
302.787	5.4
303.157	5.46
303.527	5.49
303.897	5.55
304.267	5.65
304.637	5.71
305.008	5.87
305.378	5.92
305.748	5.7
306.117	5.61
306.487	5.79
306.857	5.69
307.227	5.79
307.597	6
307.967	6.23
308.336	6.28
308.706	6.15
309.076	6.29
309.445	6.56
309.815	6.7
310.184	6.74
310.554	6.69
310.923	6.77
311.293	6.64
311.662	6.73
312.031	6.87
312.401	6.82
312.77	6.81
313.139	6.88
313.508	6.93
313.877	6.97
314.246	6.94
314.616	7.07
314.985	7.02
315.353	6.93
315.722	6.9
316.091	6.95
316.46	7.15
316.829	7.19
317.198	7.25
317.567	7.4
317.935	7.35
318.304	7.42
318.672	7.37
319.041	7.64
319.41	7.66
319.778	7.43
320.147	7.41
320.515	7.61
320.883	7.62
321.252	7.66
321.62	7.71
321.988	7.77
322.357	7.78
322.725	7.93
323.093	8.12
323.461	8.18
323.829	8.35
324.197	8.2
324.565	8.14
324.933	8.11
325.301	7.94
325.669	8.04
326.037	8.11
326.405	8.22
326.772	8.19
327.14	8.15
327.508	8.32
327.875	8.47
328.243	8.3
328.61	8.35
328.978	8.42
329.346	8.55
329.713	8.57
330.08	8.53
330.448	8.41
330.815	8.4
331.182	8.27
331.55	8.16
331.917	8.23
332.284	8.36
332.651	8.41
333.018	8.46
333.385	8.42
333.752	8.43
334.119	8.39
334.486	8.47
334.853	8.57
335.22	8.5
335.587	8.41
335.954	8.57
336.32	8.65
336.687	8.8
337.054	8.77
337.42	8.85
337.787	8.91
338.153	8.99
338.52	9.08
338.886	9.12
339.253	9.09
339.619	9.19
339.986	9.04
340.352	9
340.718	9.13
341.084	9.16
341.451	9.23
341.817	9.3
342.183	9.24
342.549	9.2
342.915	9.26
343.281	9.43
343.647	9.46
344.013	9.42
344.379	9.28
344.745	9.27
345.11	9.23
345.476	9.28
345.842	9.34
346.208	9.28
346.573	9.25
346.939	9.33
347.304	9.33
347.67	9.47
348.035	9.5
348.401	9.43
348.766	9.49
349.132	9.42
349.497	9.38
349.862	9.41
350.228	9.52
350.593	9.6
350.958	9.66
351.323	9.64
351.688	9.81
352.053	9.88
352.418	9.94
352.783	9.95
353.148	10.02
353.513	9.93
353.878	9.89
354.243	9.91
354.608	9.97
354.972	9.99
355.337	9.96
355.702	9.98
356.066	10.02
356.431	9.97
356.795	9.98
357.16	9.94
357.524	9.94
357.889	9.82
358.253	9.84
358.618	9.74
358.982	9.64
359.346	9.61
359.71	9.56
360.075	9.56
360.439	9.57
360.803	9.57
361.167	9.64
361.531	9.62
361.895	9.63
362.259	9.65
362.623	9.62
362.987	9.6
363.351	9.55
363.714	9.56
364.078	9.49
364.442	9.49
364.806	9.51
365.169	9.42
365.533	9.46
365.896	9.36
366.26	9.37
366.623	9.36
366.987	9.3
367.35	9.35
367.714	9.26
368.077	9.26
368.44	9.2
368.803	9.17
369.167	9.1
369.53	9.18
369.893	9.12
370.256	9.04
370.619	9.02
370.982	9.03
371.345	9.02
371.708	8.96
372.071	8.91
372.434	8.88
372.797	8.93
373.159	8.88
373.522	8.85
373.885	8.79
374.247	8.76
374.61	8.74
374.973	8.66
375.335	8.69
375.698	8.65
376.06	8.57
376.423	8.59
376.785	8.65
377.147	8.54
377.51	8.43
377.872	8.44
378.234	8.36
378.596	8.34
378.958	8.26
379.321	8.3
379.683	8.29
380.045	8.25
380.407	8.15
380.769	8.11
381.13	8.04
381.492	8
381.854	7.98
382.216	7.88
382.578	7.85
382.939	7.8
383.301	7.71
383.663	7.64
384.024	7.52
384.386	7.4
384.747	7.31
385.109	7.32
385.47	7.29
385.832	7.27
386.193	7.2
386.554	7.1
386.916	7.06
387.277	7.01
387.638	6.97
387.999	6.96
388.36	6.89
388.721	6.88
389.082	6.9
389.443	6.84
389.804	6.83
390.165	6.8
390.526	6.75
390.887	6.8
391.248	6.84
391.609	6.83
391.969	6.85
392.33	6.82
392.691	6.78
393.051	6.69
393.412	6.7
393.772	6.65
394.133	6.64
394.493	6.59
394.854	6.54
395.214	6.53
395.574	6.54
395.935	6.54
396.295	6.51
396.655	6.43
397.015	6.43
397.376	6.35
397.736	6.28
398.096	6.23
398.456	6.11
398.816	6.04
399.176	5.93
399.535	5.83
399.895	5.8
400.255	5.73
400.615	5.76
400.975	5.71
401.334	5.67
401.694	5.67
402.054	5.61
402.413	5.58
402.773	5.54
403.132	5.47
403.492	5.41
403.851	5.36
404.211	5.34
404.57	5.28
404.929	5.28
405.288	5.27
405.648	5.26
406.007	5.26
406.366	5.21
406.725	5.24
407.084	5.26
407.443	5.26
407.802	5.27
408.161	5.23
408.52	5.24
408.879	5.26
409.238	5.25
409.596	5.26
409.955	5.29
410.314	5.26
410.673	5.28
411.031	5.25
411.39	5.28
411.748	5.26
412.107	5.29
412.465	5.26
412.824	5.24
413.182	5.2
413.54	5.23
413.899	5.23
414.257	5.19
414.615	5.19
414.974	5.16
415.332	5.12
415.69	5.08
416.048	5.05
416.406	5
416.764	4.96
417.122	4.9
417.48	4.87
417.838	4.86
418.195	4.81
418.553	4.8
418.911	4.76
419.269	4.74
419.626	4.72
419.984	4.7
420.342	4.69
420.699	4.67
421.057	4.62
421.414	4.62
421.772	4.6
422.129	4.56
422.486	4.54
422.844	4.53
423.201	4.53
423.558	4.5
423.915	4.51
424.273	4.48
424.63	4.51
424.987	4.49
425.344	4.47
425.701	4.46
426.058	4.46
426.415	4.44
426.772	4.41
427.128	4.38
427.485	4.37
427.842	4.35
428.199	4.37
428.555	4.36
428.912	4.32
429.269	4.32
429.625	4.32
429.982	4.33
430.338	4.32
430.695	4.3
431.051	4.27
431.407	4.24
431.764	4.23
432.12	4.23
432.476	4.23
432.832	4.22
433.189	4.23
433.545	4.24
433.901	4.26
434.257	4.28
434.613	4.29
434.969	4.31
435.325	4.3
435.681	4.26
436.036	4.27
436.392	4.28
436.748	4.29
437.104	4.26
437.459	4.27
437.815	4.29
438.171	4.29
438.526	4.3
438.882	4.32
439.237	4.31
439.593	4.3
439.948	4.29
440.304	4.27
440.659	4.27
441.014	4.25
441.369	4.25
441.725	4.27
442.08	4.24
442.435	4.23
442.79	4.21
443.145	4.22
443.5	4.21
443.855	4.19
444.21	4.18
444.565	4.21
444.92	4.19
445.275	4.2
445.629	4.19
445.984	4.18
446.339	4.19
446.693	4.21
447.048	4.18
447.403	4.17
447.757	4.17
448.112	4.15
448.466	4.16
448.82	4.15
449.175	4.12
449.529	4.13
449.883	4.12
450.238	4.13
450.592	4.11
450.946	4.1
451.3	4.13
451.654	4.12
452.008	4.08
452.362	4.07
452.716	4.04
453.07	4.04
453.424	4.02
453.778	3.98
454.132	3.96
454.486	3.99
454.839	3.99
455.193	4.01
455.547	4.01
455.9	4
456.254	4
456.607	4.02
456.961	4.01
457.314	4.02
457.668	4.02
458.021	4
458.375	4.02
458.728	4.01
459.081	4.01
459.434	4.03
459.787	4.06
460.141	4.06
460.494	4.05
460.847	4.08
461.2	4.09
461.553	4.12
461.906	4.1
462.259	4.11
462.611	4.11
462.964	4.13
463.317	4.15
463.67	4.17
464.022	4.17
464.375	4.19
464.728	4.21
465.08	4.24
465.433	4.29
465.785	4.31
466.138	4.33
466.49	4.36
466.843	4.38
467.195	4.37
467.547	4.39
467.899	4.42
468.252	4.44
468.604	4.47
468.956	4.47
469.308	4.48
469.66	4.5
470.012	4.51
470.364	4.51
470.716	4.55
471.068	4.56
471.42	4.58
471.772	4.58
472.123	4.6
472.475	4.6
472.827	4.6
473.178	4.6
473.53	4.64
473.882	4.66
474.233	4.67
474.585	4.69
474.936	4.68
475.288	4.7
475.639	4.68
475.99	4.66
476.342	4.67
476.693	4.66
477.044	4.66
477.395	4.64
477.746	4.63
478.097	4.58
478.448	4.57
478.8	4.53
479.15	4.51
479.501	4.48
479.852	4.46
480.203	4.47
480.554	4.46
480.905	4.44
481.255	4.43
481.606	4.4
481.957	4.39
482.307	4.39
482.658	4.37
483.009	4.37
483.359	4.37
483.709	4.36
484.06	4.37
484.41	4.37
484.761	4.38
485.111	4.38
485.461	4.39
485.811	4.39
486.162	4.39
486.512	4.4
486.862	4.42
487.212	4.42
487.562	4.41
487.912	4.41
488.262	4.41
488.612	4.41
488.961	4.43
489.311	4.44
489.661	4.45
490.011	4.44
490.36	4.45
490.71	4.46
491.06	4.47
491.409	4.49
491.759	4.51
492.108	4.52
492.458	4.53
492.807	4.54
493.157	4.55
493.506	4.58
493.855	4.59
494.204	4.61
494.554	4.64
494.903	4.68
495.252	4.7
495.601	4.73
495.95	4.75
496.299	4.79
496.648	4.85
496.997	4.89
497.346	4.98
497.695	5.02
498.043	5.09
498.392	5.13
498.741	5.16
499.09	5.21
499.438	5.29
499.787	5.36
500.135	5.45
500.484	5.56
500.832	5.63
501.181	5.74
501.529	5.84
501.878	5.95
502.226	6.07
502.574	6.2
502.923	6.31
503.271	6.43
503.619	6.54
503.967	6.65
504.315	6.79
504.663	6.91
505.011	7.07
505.359	7.19
505.707	7.34
506.055	7.52
506.403	7.69
506.751	7.84
507.098	8.01
507.446	8.18
507.794	8.36
508.141	8.53
508.489	8.7
508.837	8.85
509.184	9.05
509.531	9.25
509.879	9.4
510.226	9.59
510.574	9.8
510.921	9.99
511.268	10.21
511.616	10.42
511.963	10.62
512.31	10.82
512.657	11.06
513.004	11.28
513.351	11.5
513.698	11.72
514.045	11.98
514.392	12.24
514.739	12.5
515.086	12.75
515.432	13
515.779	13.21
516.126	13.45
516.473	13.66
516.819	13.84
517.166	14.08
517.512	14.31
517.859	14.51
518.205	14.68
518.552	14.86
518.898	15.04
519.245	15.26
519.591	15.47
519.937	15.65
520.283	15.83
520.629	16.03
520.976	16.24
521.322	16.45
521.668	16.66
522.014	16.87
522.36	17.05
522.706	17.29
523.052	17.55
523.398	17.83
523.743	18.08
524.089	18.36
524.435	18.59
524.781	18.87
525.126	19.07
525.472	19.31
525.817	19.5
526.163	19.65
526.509	19.79
526.854	19.91
527.199	20.06
527.545	20.21
527.89	20.36
528.235	20.51
528.581	20.68
528.926	20.84
529.271	21.01
529.616	21.18
529.961	21.33
530.306	21.49
530.651	21.64
530.996	21.81
531.341	21.99
531.686	22.19
532.031	22.34
532.376	22.54
532.721	22.72
533.065	22.93
533.41	23.16
533.755	23.4
534.099	23.66
534.444	23.88
534.788	24.12
535.133	24.32
535.477	24.54
535.822	24.74
536.166	24.98
536.51	25.22
536.855	25.43
537.199	25.69
537.543	25.99
537.887	26.26
538.231	26.53
538.576	26.81
538.92	27.06
539.264	27.31
539.608	27.52
539.951	27.74
540.295	27.97
540.639	28.18
540.983	28.37
541.327	28.55
541.671	28.74
542.014	28.92
542.358	29.12
542.701	29.28
543.045	29.45
543.389	29.65
543.732	29.81
544.075	30.05
544.419	30.25
544.762	30.41
545.105	30.63
545.449	30.83
545.792	31.04
546.135	31.27
546.478	31.53
546.821	31.78
547.165	32
547.508	32.23
547.851	32.48
548.194	32.74
548.536	32.96
548.879	33.2
549.222	33.42
549.565	33.68
549.908	33.92
550.25	34.17
550.593	34.32
550.936	34.58
551.278	34.79
551.621	34.98
551.963	35.21
552.306	35.43
552.648	35.65
552.991	35.87
553.333	36.04
553.675	36.22
554.017	36.4
554.36	36.59
554.702	36.72
555.044	36.88
555.386	37.02
555.728	37.21
556.07	37.43
556.412	37.61
556.754	37.75
557.096	37.93
557.438	38.15
557.78	38.34
558.121	38.44
558.463	38.61
558.805	38.81
559.147	38.96
559.488	39.06
559.83	39.24
560.171	39.41
560.513	39.58
560.854	39.72
561.196	39.86
561.537	40.05
561.878	40.21
562.22	40.39
562.561	40.56
562.902	40.68
563.243	40.76
563.584	40.92
563.925	41.08
564.266	41.2
564.607	41.26
564.948	41.39
565.289	41.53
565.63	41.57
565.971	41.67
566.312	41.77
566.653	41.9
566.993	42.01
567.334	42.08
567.675	42.13
568.015	42.23
568.356	42.38
568.696	42.49
569.037	42.6
569.377	42.6
569.718	42.72
570.058	42.81
570.398	42.94
570.739	43.01
571.079	43.06
571.419	43.11
571.759	43.2
572.099	43.26
572.439	43.31
572.779	43.46
573.119	43.55
573.459	43.64
573.799	43.7
574.139	43.76
574.479	43.84
574.819	43.94
575.158	43.99
575.498	44.05
575.838	44.13
576.177	44.19
576.517	44.26
576.856	44.26
577.196	44.27
577.535	44.34
577.875	44.38
578.214	44.4
578.553	44.47
578.893	44.6
579.232	44.68
579.571	44.82
579.91	44.87
580.25	44.94
580.589	45.06
580.928	45.15
581.267	45.27
581.606	45.31
581.945	45.38
582.283	45.48
582.622	45.56
582.961	45.53
583.3	45.59
583.639	45.75
583.977	45.81
584.316	45.97
584.654	46.01
584.993	46.1
585.332	46.22
585.67	46.33
586.008	46.34
586.347	46.43
586.685	46.45
587.024	46.53
587.362	46.59
587.7	46.63
588.038	46.72
588.376	46.74
588.715	46.78
589.053	46.86
589.391	46.9
589.729	46.99
590.067	47.1
590.404	47.13
590.742	47.14
591.08	47.17
591.418	47.17
591.756	47.25
592.093	47.29
592.431	47.34
592.769	47.31
593.106	47.35
593.444	47.44
593.781	47.57
594.119	47.58
594.456	47.6
594.793	47.61
595.131	47.6
595.468	47.66
595.805	47.76
596.143	47.75
596.48	47.78
596.817	47.78
597.154	47.78
597.491	47.88
597.828	47.9
598.165	47.95
598.502	48.04
598.839	48.11
599.176	48.15
599.512	48.24
599.849	48.43
600.186	48.5
600.523	48.47
600.859	48.51
601.196	48.44
601.532	48.47
601.869	48.49
602.205	48.53
602.542	48.52
602.878	48.58
603.215	48.63
603.551	48.63
603.887	48.67
604.223	48.72
604.56	48.73
604.896	48.81
605.232	48.83
605.568	48.85
605.904	48.84
606.24	48.83
606.576	48.8
606.912	48.69
607.248	48.7
607.583	48.75
607.919	48.66
608.255	48.83
608.591	48.89
608.926	48.98
609.262	49.04
609.597	49.1
609.933	49.08
610.268	49.13
610.604	49.18
610.939	49.19
611.275	49.16
611.61	49.12
611.945	49.15
612.281	49.14
612.616	49.14
612.951	49.25
613.286	49.37
613.621	49.37
613.956	49.52
614.291	49.57
614.626	49.62
614.961	49.72
615.296	49.72
615.631	49.78
615.966	49.78
616.3	49.82
616.635	49.79
616.97	49.73
617.304	49.7
617.639	49.76
617.973	49.78
618.308	49.87
618.642	49.86
618.977	49.88
619.311	49.96
619.646	49.98
619.98	49.86
620.314	49.87
620.648	49.9
620.983	49.85
621.317	49.82
621.651	49.83
621.985	49.8
622.319	49.76
622.653	49.7
622.987	49.67
623.321	49.69
623.655	49.82
623.988	50
624.322	50.03
624.656	50.02
624.99	50.08
625.323	50.1
625.657	50.18
625.99	50.24
626.324	50.3
626.657	50.23
626.991	50.29
627.324	50.32
627.658	50.4
627.991	50.43
628.324	50.41
628.657	50.45
628.991	50.46
629.324	50.53
629.657	50.59
629.99	50.66
630.323	50.7
630.656	50.58
630.989	50.56
631.322	50.52
631.655	50.53
631.987	50.48
632.32	50.46
632.653	50.5
632.986	50.48
633.318	50.46
633.651	50.51
633.984	50.5
634.316	50.39
634.649	50.38
634.981	50.44
635.313	50.55
635.646	50.52
635.978	50.59
636.31	50.55
636.643	50.45
636.975	50.47
637.307	50.44
637.639	50.57
637.971	50.52
638.303	50.58
638.635	50.66
638.967	50.67
639.299	50.69
639.631	50.63
639.963	50.63
640.295	50.64
640.626	50.74
640.958	50.74
641.29	50.87
641.621	50.84
641.953	50.79
642.285	50.83
642.616	50.9
642.948	50.84
643.279	50.89
643.61	51.09
643.942	51.03
644.273	51
644.604	50.91
644.936	50.88
645.267	50.94
645.598	50.97
645.929	50.95
646.26	50.94
646.591	51.16
646.922	51.17
647.253	51.14
647.584	51.09
647.915	51.2
648.245	51.14
648.576	51.23
648.907	51.23
649.238	51.19
649.568	51.26
649.899	51.3
650.229	51.36
650.56	51.26
650.89	51.38
651.221	51.38
651.551	51.38
651.882	51.46
652.212	51.48
652.542	51.55
652.872	51.66
653.203	51.69
653.533	51.51
653.863	51.67
654.193	51.62
654.523	51.59
654.853	51.6
655.183	51.76
655.513	51.8
655.843	51.83
656.172	51.94
656.502	51.81
656.832	51.85
657.162	51.83
657.491	51.9
657.821	51.8
658.15	51.86
658.48	51.94
658.809	51.92
659.139	51.97
659.468	51.88
659.798	51.93
660.127	51.91
660.456	51.96
660.785	51.95
661.115	51.88
661.444	51.96
661.773	51.93
662.102	51.84
662.431	51.86
662.76	51.91
663.089	51.92
663.418	51.95
663.747	51.87
664.076	51.86
664.404	51.86
664.733	51.84
665.062	51.92
665.39	51.99
665.719	51.99
666.048	51.88
666.376	51.9
666.705	51.84
667.033	51.86
667.362	51.89
667.69	51.75
668.018	51.93
