Data from MVZ_BU136690_Reflection_00015.txt Node
Date: Tue Nov 19 12:08:16 EST 2019
User: vgr7
Spectrometer: USB2G7710
Scans to average: 3
Trigger mode: 4
Integration Time (sec): 2.000000E-2
Electric dark correction enabled: true
Boxcar width: 10
XAxis mode: Wavelengths
Number of Pixels in Spectrum: 2048
>>>>>Begin Spectral Data<<<<<
177.721	72.9
178.105	74.45
178.488	638.14
178.871	188.57
179.254	150
179.636	39.72
180.019	372.94
180.402	100
180.785	-235.71
181.168	-199.07
181.55	-28.94
181.933	-27.37
182.316	-4.75
182.698	-39.39
183.081	-228.49
183.463	-122.01
183.846	-50.23
184.228	-125.54
184.611	355.43
184.993	201.92
185.376	-369.51
185.758	146.7
186.14	107.14
186.522	303.49
186.904	581.25
187.287	298.17
187.669	40.24
188.051	188.41
188.433	-122.56
188.815	-7.76
189.197	-115.91
189.579	-17.33
189.961	-26.41
190.342	-10.11
190.724	-26.73
191.106	-42.08
191.488	-45.1
191.869	-28.02
192.251	-23.37
192.633	-12.43
193.014	-20.57
193.396	-20.64
193.777	-5.24
194.159	-19.77
194.54	-9.01
194.922	-20.88
195.303	-14.55
195.684	9.26
196.065	10.87
196.447	34.41
196.828	23.9
197.209	47.43
197.59	38.17
197.971	41
198.352	27.33
198.733	23.74
199.114	-0.32
199.495	32.06
199.876	52.15
200.257	31.35
200.638	7.89
201.018	17.57
201.399	32.3
201.78	44.7
202.16	53.8
202.541	103.27
202.922	147.83
203.302	148.89
203.683	263.79
204.063	253.45
204.444	157.58
204.824	215.22
205.204	57.76
205.585	105.39
205.965	98.99
206.345	113.03
206.725	132.65
207.106	133.38
207.486	80.45
207.866	87.91
208.246	168.8
208.626	226.45
209.006	412.5
209.386	221.39
209.766	294.23
210.145	173.19
210.525	162.77
210.905	132.28
211.285	134.79
211.664	75
212.044	52.95
212.424	49.09
212.803	42.55
213.183	19.47
213.562	20.66
213.942	9.6
214.321	13.33
214.701	17.15
215.08	13
215.459	-2.83
215.838	-16.4
216.218	-41.58
216.597	-34.98
216.976	-42.14
217.355	-33.76
217.734	-23.97
218.113	-15.05
218.492	-4.91
218.871	-21.14
219.25	-67.41
219.629	-83.64
220.008	-55.31
220.387	-63.21
220.766	-26.46
221.144	-1.57
221.523	0.25
221.902	26.84
222.28	8.82
222.659	18.28
223.037	19
223.416	22.25
223.794	21.93
224.173	33.88
224.551	27.36
224.929	26.36
225.308	23.99
225.686	17.55
226.064	12.32
226.442	11.43
226.821	7.98
227.199	12.41
227.577	19.73
227.955	17.75
228.333	19.24
228.711	14.39
229.089	13.46
229.467	11.18
229.845	9.19
230.222	11.88
230.6	8.43
230.978	8.77
231.356	10.5
231.733	9.92
232.111	8.24
232.488	9.14
232.866	9.94
233.243	8.37
233.621	8.23
233.998	6.03
234.376	6.78
234.753	6.68
235.13	8.41
235.508	7.47
235.885	7.02
236.262	5.96
236.639	5.3
237.016	4.11
237.393	4.94
237.77	5.26
238.147	5.49
238.524	5.82
238.901	3.8
239.278	3.98
239.655	4.59
240.032	3.66
240.409	3.8
240.785	3.33
241.162	3.87
241.539	3.59
241.915	4.25
242.292	4.26
242.668	4.57
243.045	4.76
243.421	4.97
243.798	4.88
244.174	5.14
244.551	5.33
244.927	5.13
245.303	5.03
245.679	4.77
246.056	4.64
246.432	4.55
246.808	5.19
247.184	5.19
247.56	5.28
247.936	5.52
248.312	5.57
248.688	5.69
249.064	5.9
249.44	5.92
249.815	5.7
250.191	5.64
250.567	5.65
250.943	5.55
251.318	5.42
251.694	5.7
252.069	5.73
252.445	5.64
252.82	5.84
253.196	5.78
253.571	6.12
253.947	6.35
254.322	6.34
254.697	5.97
255.073	5.88
255.448	5.92
255.823	6.02
256.198	5.97
256.573	5.94
256.948	5.75
257.323	5.65
257.698	5.59
258.073	5.47
258.448	5.58
258.823	5.41
259.198	5.5
259.573	5.05
259.948	5.11
260.322	5.09
260.697	5.07
261.072	5.16
261.446	5.14
261.821	4.98
262.195	4.95
262.57	5.03
262.944	4.99
263.319	4.93
263.693	4.85
264.067	4.81
264.442	4.75
264.816	4.65
265.19	4.59
265.564	4.65
265.938	4.78
266.313	4.47
266.687	4.6
267.061	4.68
267.435	5.05
267.809	4.79
268.183	4.72
268.556	4.77
268.93	4.73
269.304	4.52
269.678	4.59
270.051	4.47
270.425	4.43
270.799	4.28
271.172	4.25
271.546	4.2
271.919	4.05
272.293	4.02
272.666	3.96
273.04	4.11
273.413	4.1
273.787	4.18
274.16	4.19
274.533	4.23
274.906	4.03
275.279	3.99
275.653	3.97
276.026	4
276.399	4
276.772	4.06
277.145	4.03
277.518	3.95
277.891	4.04
278.263	3.99
278.636	4.19
279.009	4.16
279.382	4.18
279.755	4.34
280.127	4.31
280.5	4.46
280.872	4.46
281.245	4.49
281.617	4.42
281.99	4.42
282.362	4.46
282.735	4.42
283.107	4.21
283.479	4.49
283.852	4.4
284.224	4.34
284.596	4.19
284.968	4.34
285.34	4.41
285.713	4.52
286.085	4.47
286.457	4.37
286.829	4.37
287.201	4.4
287.572	4.25
287.944	4.33
288.316	4.41
288.688	4.43
289.06	4.37
289.431	4.38
289.803	4.53
290.175	4.41
290.546	4.61
290.918	4.79
291.289	4.6
291.661	4.8
292.032	4.8
292.403	4.88
292.775	5.05
293.146	5.06
293.517	5.1
293.889	5.24
294.26	5.4
294.631	5.52
295.002	5.58
295.373	5.67
295.744	5.8
296.115	5.78
296.486	5.79
296.857	5.83
297.228	5.69
297.599	5.66
297.97	5.83
298.34	5.84
298.711	5.93
299.082	5.97
299.452	5.96
299.823	6.07
300.194	6.2
300.564	6.06
300.935	6.16
301.305	6.17
301.676	6.3
302.046	6.32
302.416	6.27
302.787	6.35
303.157	6.37
303.527	6.36
303.897	6.28
304.267	6.37
304.637	6.54
305.008	6.77
305.378	6.83
305.748	6.8
306.117	6.77
306.487	6.93
306.857	7.2
307.227	7.38
307.597	7.44
307.967	7.54
308.336	7.72
308.706	7.86
309.076	8.08
309.445	8.16
309.815	8.25
310.184	8.41
310.554	8.39
310.923	8.61
311.293	8.67
311.662	8.78
312.031	8.75
312.401	8.83
312.77	8.92
313.139	9.02
313.508	9.17
313.877	9.42
314.246	9.36
314.616	9.46
314.985	9.38
315.353	9.56
315.722	9.67
316.091	9.81
316.46	9.86
316.829	9.77
317.198	9.73
317.567	9.81
317.935	9.94
318.304	10.26
318.672	10.27
319.041	10.35
319.41	10.33
319.778	10.44
320.147	10.45
320.515	10.61
320.883	10.69
321.252	10.73
321.62	10.64
321.988	10.77
322.357	10.7
322.725	10.92
323.093	10.86
323.461	10.85
323.829	10.88
324.197	10.9
324.565	10.98
324.933	11.12
325.301	11.12
325.669	11.03
326.037	10.95
326.405	11.07
326.772	11.13
327.14	11.27
327.508	11.26
327.875	11.34
328.243	11.42
328.61	11.43
328.978	11.47
329.346	11.37
329.713	11.43
330.08	11.51
330.448	11.47
330.815	11.51
331.182	11.62
331.55	11.7
331.917	11.76
332.284	11.75
332.651	11.79
333.018	11.88
333.385	12.14
333.752	12.06
334.119	12
334.486	11.93
334.853	12
335.22	12.13
335.587	12.15
335.954	12.08
336.32	12.02
336.687	12.11
337.054	12.29
337.42	12.3
337.787	12.28
338.153	12.35
338.52	12.38
338.886	12.36
339.253	12.23
339.619	12.22
339.986	12.26
340.352	12.24
340.718	12.23
341.084	12.18
341.451	12.46
341.817	12.55
342.183	12.62
342.549	12.69
342.915	12.68
343.281	12.71
343.647	12.76
344.013	12.95
344.379	12.9
344.745	12.97
345.11	13.05
345.476	13.15
345.842	13.12
346.208	13.24
346.573	13.23
346.939	13.34
347.304	13.26
347.67	13.3
348.035	13.35
348.401	13.47
348.766	13.45
349.132	13.43
349.497	13.43
349.862	13.5
350.228	13.46
350.593	13.61
350.958	13.7
351.323	13.67
351.688	13.72
352.053	13.68
352.418	13.61
352.783	13.53
353.148	13.52
353.513	13.49
353.878	13.4
354.243	13.3
354.608	13.29
354.972	13.44
355.337	13.43
355.702	13.3
356.066	13.29
356.431	13.32
356.795	13.23
357.16	13.14
357.524	13.12
357.889	13.09
358.253	12.99
358.618	12.91
358.982	12.93
359.346	12.77
359.71	12.82
360.075	12.75
360.439	12.69
360.803	12.63
361.167	12.63
361.531	12.66
361.895	12.71
362.259	12.69
362.623	12.69
362.987	12.69
363.351	12.78
363.714	12.7
364.078	12.56
364.442	12.53
364.806	12.58
365.169	12.55
365.533	12.58
365.896	12.56
366.26	12.5
366.623	12.46
366.987	12.5
367.35	12.47
367.714	12.51
368.077	12.56
368.44	12.6
368.803	12.44
369.167	12.39
369.53	12.35
369.893	12.37
370.256	12.21
370.619	12.11
370.982	11.97
371.345	11.93
371.708	11.97
372.071	11.89
372.434	11.73
372.797	11.63
373.159	11.55
373.522	11.47
373.885	11.44
374.247	11.38
374.61	11.27
374.973	11.19
375.335	11.08
375.698	10.98
376.06	10.9
376.423	10.88
376.785	10.77
377.147	10.63
377.51	10.48
377.872	10.47
378.234	10.44
378.596	10.35
378.958	10.25
379.321	10.1
379.683	10.06
380.045	10.02
380.407	9.94
380.769	9.82
381.13	9.77
381.492	9.63
381.854	9.51
382.216	9.45
382.578	9.35
382.939	9.28
383.301	9.19
383.663	9.13
384.024	9.08
384.386	8.99
384.747	8.97
385.109	8.93
385.47	8.78
385.832	8.66
386.193	8.66
386.554	8.59
386.916	8.59
387.277	8.47
387.638	8.45
387.999	8.35
388.36	8.29
388.721	8.22
389.082	8.21
389.443	8.2
389.804	8.18
390.165	8.12
390.526	8.06
390.887	8.03
391.248	7.91
391.609	7.86
391.969	7.82
392.33	7.81
392.691	7.74
393.051	7.7
393.412	7.67
393.772	7.6
394.133	7.52
394.493	7.44
394.854	7.41
395.214	7.35
395.574	7.27
395.935	7.19
396.295	7.13
396.655	7.02
397.015	6.91
397.376	6.84
397.736	6.76
398.096	6.64
398.456	6.55
398.816	6.47
399.176	6.38
399.535	6.32
399.895	6.21
400.255	6.14
400.615	6.13
400.975	6.1
401.334	6.03
401.694	6
402.054	5.95
402.413	5.9
402.773	5.89
403.132	5.87
403.492	5.85
403.851	5.78
404.211	5.79
404.57	5.79
404.929	5.73
405.288	5.76
405.648	5.77
406.007	5.76
406.366	5.76
406.725	5.74
407.084	5.73
407.443	5.7
407.802	5.69
408.161	5.63
408.52	5.62
408.879	5.62
409.238	5.58
409.596	5.58
409.955	5.57
410.314	5.54
410.673	5.55
411.031	5.5
411.39	5.51
411.748	5.5
412.107	5.43
412.465	5.42
412.824	5.36
413.182	5.35
413.54	5.33
413.899	5.32
414.257	5.3
414.615	5.28
414.974	5.26
415.332	5.24
415.69	5.21
416.048	5.17
416.406	5.13
416.764	5.11
417.122	5.07
417.48	5.02
417.838	4.96
418.195	4.92
418.553	4.9
418.911	4.84
419.269	4.81
419.626	4.78
419.984	4.76
420.342	4.74
420.699	4.71
421.057	4.68
421.414	4.67
421.772	4.65
422.129	4.6
422.486	4.57
422.844	4.55
423.201	4.53
423.558	4.49
423.915	4.46
424.273	4.44
424.63	4.41
424.987	4.42
425.344	4.4
425.701	4.38
426.058	4.38
426.415	4.38
426.772	4.36
427.128	4.34
427.485	4.33
427.842	4.31
428.199	4.29
428.555	4.28
428.912	4.26
429.269	4.26
429.625	4.27
429.982	4.23
430.338	4.23
430.695	4.22
431.051	4.2
431.407	4.22
431.764	4.2
432.12	4.21
432.476	4.17
432.832	4.19
433.189	4.2
433.545	4.19
433.901	4.17
434.257	4.18
434.613	4.19
434.969	4.2
435.325	4.21
435.681	4.18
436.036	4.19
436.392	4.17
436.748	4.16
437.104	4.16
437.459	4.2
437.815	4.18
438.171	4.17
438.526	4.2
438.882	4.2
439.237	4.23
439.593	4.24
439.948	4.24
440.304	4.24
440.659	4.23
441.014	4.23
441.369	4.25
441.725	4.23
442.08	4.21
442.435	4.19
442.79	4.16
443.145	4.18
443.5	4.17
443.855	4.16
444.21	4.14
444.565	4.14
444.92	4.13
445.275	4.12
445.629	4.13
445.984	4.11
446.339	4.1
446.693	4.07
447.048	4.04
447.403	4.02
447.757	4
448.112	3.99
448.466	3.98
448.82	3.96
449.175	3.95
449.529	3.96
449.883	3.95
450.238	3.96
450.592	3.93
450.946	3.91
451.3	3.93
451.654	3.91
452.008	3.9
452.362	3.87
452.716	3.88
453.07	3.84
453.424	3.83
453.778	3.82
454.132	3.84
454.486	3.84
454.839	3.85
455.193	3.86
455.547	3.85
455.9	3.83
456.254	3.83
456.607	3.85
456.961	3.84
457.314	3.83
457.668	3.82
458.021	3.84
458.375	3.84
458.728	3.84
459.081	3.85
459.434	3.84
459.787	3.83
460.141	3.82
460.494	3.84
460.847	3.84
461.2	3.85
461.553	3.84
461.906	3.85
462.259	3.84
462.611	3.85
462.964	3.84
463.317	3.86
463.67	3.87
464.022	3.87
464.375	3.85
464.728	3.89
465.08	3.9
465.433	3.92
465.785	3.94
466.138	3.96
466.49	3.97
466.843	4.02
467.195	4.06
467.547	4.09
467.899	4.13
468.252	4.16
468.604	4.18
468.956	4.2
469.308	4.2
469.66	4.23
470.012	4.25
470.364	4.28
470.716	4.3
471.068	4.31
471.42	4.32
471.772	4.37
472.123	4.37
472.475	4.39
472.827	4.42
473.178	4.44
473.53	4.46
473.882	4.49
474.233	4.46
474.585	4.47
474.936	4.47
475.288	4.46
475.639	4.46
475.99	4.46
476.342	4.47
476.693	4.47
477.044	4.48
477.395	4.45
477.746	4.44
478.097	4.43
478.448	4.44
478.8	4.45
479.15	4.44
479.501	4.41
479.852	4.36
480.203	4.32
480.554	4.3
480.905	4.28
481.255	4.26
481.606	4.28
481.957	4.27
482.307	4.26
482.658	4.26
483.009	4.25
483.359	4.26
483.709	4.26
484.06	4.25
484.41	4.24
484.761	4.26
485.111	4.27
485.461	4.27
485.811	4.26
486.162	4.25
486.512	4.25
486.862	4.26
487.212	4.28
487.562	4.29
487.912	4.3
488.262	4.31
488.612	4.31
488.961	4.31
489.311	4.31
489.661	4.32
490.011	4.31
490.36	4.32
490.71	4.32
491.06	4.32
491.409	4.33
491.759	4.35
492.108	4.34
492.458	4.35
492.807	4.38
493.157	4.4
493.506	4.43
493.855	4.44
494.204	4.46
494.554	4.49
494.903	4.53
495.252	4.55
495.601	4.57
495.95	4.61
496.299	4.64
496.648	4.71
496.997	4.76
497.346	4.82
497.695	4.86
498.043	4.93
498.392	5
498.741	5.06
499.09	5.14
499.438	5.2
499.787	5.24
500.135	5.28
500.484	5.35
500.832	5.4
501.181	5.47
501.529	5.57
501.878	5.64
502.226	5.69
502.574	5.8
502.923	5.91
503.271	6
503.619	6.1
503.967	6.16
504.315	6.26
504.663	6.36
505.011	6.48
505.359	6.56
505.707	6.65
506.055	6.75
506.403	6.84
506.751	6.95
507.098	7.08
507.446	7.21
507.794	7.33
508.141	7.47
508.489	7.61
508.837	7.72
509.184	7.83
509.531	7.96
509.879	8.06
510.226	8.18
510.574	8.31
510.921	8.44
511.268	8.59
511.616	8.74
511.963	8.89
512.31	9.04
512.657	9.21
513.004	9.35
513.351	9.48
513.698	9.66
514.045	9.82
514.392	9.98
514.739	10.14
515.086	10.32
515.432	10.48
515.779	10.64
516.126	10.8
516.473	10.97
516.819	11.12
517.166	11.3
517.512	11.43
517.859	11.57
518.205	11.69
518.552	11.82
518.898	11.92
519.245	12.05
519.591	12.18
519.937	12.32
520.283	12.48
520.629	12.67
520.976	12.82
521.322	12.98
521.668	13.15
522.014	13.32
522.36	13.48
522.706	13.67
523.052	13.88
523.398	14.11
523.743	14.34
524.089	14.56
524.435	14.76
524.781	14.96
525.126	15.13
525.472	15.33
525.817	15.49
526.163	15.63
526.509	15.79
526.854	15.92
527.199	16.04
527.545	16.17
527.89	16.29
528.235	16.43
528.581	16.54
528.926	16.68
529.271	16.82
529.616	16.95
529.961	17.09
530.306	17.21
530.651	17.35
530.996	17.51
531.341	17.67
531.686	17.84
532.031	18.03
532.376	18.21
532.721	18.38
533.065	18.58
533.41	18.79
533.755	18.97
534.099	19.2
534.444	19.42
534.788	19.62
535.133	19.82
535.477	20.03
535.822	20.32
536.166	20.56
536.51	20.83
536.855	21.12
537.199	21.39
537.543	21.72
537.887	22.01
538.231	22.3
538.576	22.6
538.92	22.92
539.264	23.2
539.608	23.49
539.951	23.73
540.295	23.98
540.639	24.24
540.983	24.51
541.327	24.72
541.671	24.97
542.014	25.23
542.358	25.49
542.701	25.72
543.045	25.94
543.389	26.18
543.732	26.41
544.075	26.66
544.419	26.93
544.762	27.2
545.105	27.48
545.449	27.75
545.792	28.07
546.135	28.35
546.478	28.65
546.821	29
547.165	29.37
547.508	29.71
547.851	30.07
548.194	30.4
548.536	30.74
548.879	31.09
549.222	31.44
549.565	31.82
549.908	32.18
550.25	32.55
550.593	32.88
550.936	33.33
551.278	33.67
551.621	34.05
551.963	34.43
552.306	34.79
552.648	35.23
552.991	35.57
553.333	35.92
553.675	36.31
554.017	36.67
554.36	37.05
554.702	37.42
555.044	37.77
555.386	38.13
555.728	38.44
556.07	38.84
556.412	39.19
556.754	39.48
557.096	39.82
557.438	40.2
557.78	40.63
558.121	40.97
558.463	41.3
558.805	41.63
559.147	41.91
559.488	42.25
559.83	42.59
560.171	42.94
560.513	43.29
560.854	43.55
561.196	43.88
561.537	44.2
561.878	44.54
562.22	44.86
562.561	45.18
562.902	45.59
563.243	45.89
563.584	46.17
563.925	46.45
564.266	46.7
564.607	46.97
564.948	47.25
565.289	47.47
565.63	47.77
565.971	48.05
566.312	48.32
566.653	48.65
566.993	48.82
567.334	49.12
567.675	49.35
568.015	49.65
568.356	49.88
568.696	50.12
569.037	50.31
569.377	50.51
569.718	50.81
570.058	51.01
570.398	51.21
570.739	51.49
571.079	51.79
571.419	52
571.759	52.27
572.099	52.45
572.439	52.62
572.779	52.88
573.119	53.06
573.459	53.35
573.799	53.49
574.139	53.76
574.479	53.89
574.819	54.15
575.158	54.27
575.498	54.53
575.838	54.74
576.177	54.95
576.517	55.22
576.856	55.37
577.196	55.61
577.535	55.9
577.875	56.07
578.214	56.26
578.553	56.51
578.893	56.7
579.232	56.98
579.571	57.21
579.91	57.42
580.25	57.71
580.589	57.81
580.928	58.01
581.267	58.13
581.606	58.37
581.945	58.5
582.283	58.77
582.622	58.86
582.961	59.03
583.3	59.09
583.639	59.23
583.977	59.42
584.316	59.57
584.654	59.66
584.993	59.78
585.332	59.89
585.67	60.05
586.008	60.11
586.347	60.15
586.685	60.38
587.024	60.42
587.362	60.58
587.7	60.74
588.038	60.83
588.376	60.96
588.715	61.06
589.053	61.2
589.391	61.28
589.729	61.41
590.067	61.46
590.404	61.67
590.742	61.76
591.08	61.86
591.418	61.9
591.756	61.94
592.093	62.07
592.431	62.33
592.769	62.54
593.106	62.66
593.444	62.78
593.781	62.81
594.119	63.05
594.456	63.08
594.793	63.15
595.131	63.28
595.468	63.36
595.805	63.47
596.143	63.48
596.48	63.59
596.817	63.7
597.154	63.87
597.491	64.02
597.828	64.07
598.165	64.16
598.502	64.29
598.839	64.43
599.176	64.57
599.512	64.52
599.849	64.58
600.186	64.71
600.523	64.84
600.859	64.89
601.196	64.89
601.532	64.91
601.869	64.88
602.205	64.91
602.542	65.04
602.878	64.98
603.215	65.08
603.551	65.1
603.887	65.1
604.223	65.08
604.56	65.05
604.896	65.1
605.232	65.09
605.568	65.05
605.904	65.08
606.24	65.12
606.576	65.21
606.912	65.15
607.248	65.21
607.583	65.19
607.919	65.26
608.255	65.33
608.591	65.42
608.926	65.56
609.262	65.66
609.597	65.73
609.933	65.89
610.268	65.95
610.604	65.95
610.939	65.98
611.275	66.07
611.61	66.09
611.945	66.17
612.281	66.22
612.616	66.37
612.951	66.43
613.286	66.55
613.621	66.59
613.956	66.71
614.291	66.7
614.626	66.74
614.961	66.82
615.296	66.84
615.631	66.89
615.966	66.96
616.3	67.05
616.635	67.03
616.97	67.06
617.304	67.07
617.639	67.21
617.973	67.29
618.308	67.27
618.642	67.29
618.977	67.35
619.311	67.34
619.646	67.34
619.98	67.41
620.314	67.34
620.648	67.35
620.983	67.4
621.317	67.47
621.651	67.51
621.985	67.55
622.319	67.58
622.653	67.55
622.987	67.6
623.321	67.59
623.655	67.76
623.988	67.8
624.322	67.89
624.656	67.96
624.99	68.01
625.323	68.14
625.657	68.21
625.99	68.16
626.324	68.19
626.657	68.22
626.991	68.2
627.324	68.27
627.658	68.25
627.991	68.2
628.324	68.2
628.657	68.26
628.991	68.24
629.324	68.27
629.657	68.28
629.99	68.16
630.323	68.21
630.656	68.1
630.989	68.07
631.322	68.09
631.655	67.98
631.987	67.97
632.32	67.93
632.653	67.94
632.986	68.1
633.318	68.1
633.651	68.07
633.984	68.17
634.316	68.21
634.649	68.21
634.981	68.28
635.313	68.31
635.646	68.32
635.978	68.43
636.31	68.41
636.643	68.53
636.975	68.6
637.307	68.6
637.639	68.57
637.971	68.55
638.303	68.48
638.635	68.6
638.967	68.61
639.299	68.6
639.631	68.66
639.963	68.52
640.295	68.64
640.626	68.77
640.958	68.79
641.29	68.75
641.621	68.79
641.953	68.89
642.285	68.83
642.616	68.78
642.948	68.78
643.279	68.85
643.61	68.82
643.942	68.77
644.273	68.88
644.604	68.97
644.936	69.09
645.267	69.15
645.598	69.22
645.929	69.17
646.26	69.09
646.591	69.02
646.922	69.2
647.253	69.21
647.584	69.03
647.915	68.93
648.245	68.88
648.576	68.93
648.907	68.93
649.238	69.01
649.568	69.03
649.899	68.85
650.229	68.78
650.56	68.75
650.89	68.99
651.221	68.93
651.551	68.86
651.882	68.89
652.212	68.91
652.542	68.79
652.872	69.01
653.203	69.04
653.533	69.18
653.863	69.09
654.193	69.05
654.523	69.12
654.853	69.15
655.183	69.14
655.513	69.29
655.843	69.32
656.172	69.4
656.502	69.46
656.832	69.69
657.162	69.77
657.491	69.89
657.821	69.84
658.15	69.75
658.48	69.85
658.809	69.87
659.139	69.77
659.468	69.84
659.798	69.75
660.127	69.78
660.456	69.75
660.785	69.82
661.115	69.86
661.444	69.87
661.773	69.96
662.102	70.12
662.431	69.98
662.76	69.89
663.089	69.83
663.418	69.86
663.747	69.78
664.076	69.73
664.404	69.75
