Data from MVZ_BU78245_Reflection_00013.txt Node
Date: Tue Nov 19 12:01:23 EST 2019
User: vgr7
Spectrometer: USB2G7710
Scans to average: 3
Trigger mode: 4
Integration Time (sec): 2.000000E-2
Electric dark correction enabled: true
Boxcar width: 10
XAxis mode: Wavelengths
Number of Pixels in Spectrum: 2048
>>>>>Begin Spectral Data<<<<<
177.721	-233.33
178.105	-585.19
178.488	260.57
178.871	3766.67
179.254	-183.33
179.636	-111.84
180.019	-7.77
180.402	-375
180.785	29.17
181.168	123.22
181.55	480.95
181.933	235.42
182.316	-159.26
182.698	396.3
183.081	93.06
183.463	128.14
183.846	92.69
184.228	71.81
184.611	19.63
184.993	25.83
185.376	42.71
185.758	62.96
186.14	60.61
186.522	78.68
186.904	34.72
187.287	50.78
187.669	52.53
188.051	67.26
188.433	84.17
188.815	79.3
189.197	35.05
189.579	29.9
189.961	36.34
190.342	45.36
190.724	39.33
191.106	34.93
191.488	46.9
191.869	49.43
192.251	52.09
192.633	51.15
193.014	54.48
193.396	36.63
193.777	27.69
194.159	17.68
194.54	19
194.922	23.92
195.303	12.76
195.684	15.58
196.065	15.47
196.447	22.02
196.828	25.93
197.209	31.06
197.59	27.94
197.971	22.25
198.352	14.6
198.733	26.14
199.114	32.1
199.495	27.88
199.876	29.57
200.257	29.33
200.638	28.46
201.018	35.62
201.399	35.09
201.78	37.76
202.16	52.66
202.541	44.3
202.922	37.12
203.302	26.24
203.683	27.11
204.063	34.27
204.444	37.44
204.824	38.16
205.204	40.59
205.585	50.37
205.965	62.96
206.345	70.1
206.725	44.64
207.106	48.63
207.486	49.7
207.866	28.87
208.246	28.82
208.626	25.4
209.006	16.89
209.386	23.63
209.766	34.59
210.145	12.28
210.525	11.28
210.905	27.46
211.285	46.11
211.664	52.99
212.044	38.83
212.424	33.16
212.803	35.93
213.183	35.35
213.562	43.39
213.942	16.96
214.321	11.63
214.701	9.49
215.08	-10.71
215.459	-15.07
215.838	4.76
216.218	-37.01
216.597	-28.39
216.976	-61.36
217.355	-54.21
217.734	-51.2
218.113	-45.49
218.492	-23.93
218.871	-15.56
219.25	-28.21
219.629	-67.75
220.008	-43.98
220.387	-39.26
220.766	-30.9
221.144	-18.6
221.523	-36.54
221.902	-12.14
222.28	-3.03
222.659	12.2
223.037	16.67
223.416	20.14
223.794	5.92
224.173	13.84
224.551	23.95
224.929	26.79
225.308	21.03
225.686	12.05
226.064	9.28
226.442	3.23
226.821	1.59
227.199	1.58
227.577	1.59
227.955	1.75
228.333	0.05
228.711	0.05
229.089	4.28
229.467	5.11
229.845	7.03
230.222	8.47
230.6	3.23
230.978	4.16
231.356	2.75
231.733	4.72
232.111	2.71
232.488	1.25
232.866	3.11
233.243	5.26
233.621	5.84
233.998	7.85
234.376	8.49
234.753	6.71
235.13	7.6
235.508	7.61
235.885	6.92
236.262	6.53
236.639	4.84
237.016	3.59
237.393	4.43
237.77	3.25
238.147	3.21
238.524	4.7
238.901	4.35
239.278	4.08
239.655	3.36
240.032	4.56
240.409	4.72
240.785	4.58
241.162	4.83
241.539	4.74
241.915	4.04
242.292	4.37
242.668	4.99
243.045	4.51
243.421	4.7
243.798	4.43
244.174	4.72
244.551	4.73
244.927	4.84
245.303	4.88
245.679	4.67
246.056	4.5
246.432	4.53
246.808	4.67
247.184	4.82
247.56	5.2
247.936	5.09
248.312	4.98
248.688	4.8
249.064	4.6
249.44	4.52
249.815	4.82
250.191	4.48
250.567	4.42
250.943	4.7
251.318	4.64
251.694	5.01
252.069	5.21
252.445	5.19
252.82	5.16
253.196	5.2
253.571	5.66
253.947	5.96
254.322	5.53
254.697	5.54
255.073	5.21
255.448	4.89
255.823	4.98
256.198	5.03
256.573	5.05
256.948	5.07
257.323	5.17
257.698	5.24
258.073	5.25
258.448	5.33
258.823	4.91
259.198	4.94
259.573	4.61
259.948	4.27
260.322	4.26
260.697	4.13
261.072	3.99
261.446	3.79
261.821	3.51
262.195	3.64
262.57	3.56
262.944	3.66
263.319	3.69
263.693	3.48
264.067	3.24
264.442	3.31
264.816	3.28
265.19	3.34
265.564	3.09
265.938	3.17
266.313	2.84
266.687	3.25
267.061	3.23
267.435	3.4
267.809	3.71
268.183	3.72
268.556	3.63
268.93	3.72
269.304	3.89
269.678	4.05
270.051	4.1
270.425	4.11
270.799	3.81
271.172	3.79
271.546	3.85
271.919	3.92
272.293	3.72
272.666	3.72
273.04	3.69
273.413	3.87
273.787	3.85
274.16	3.72
274.533	3.69
274.906	3.68
275.279	3.56
275.653	3.64
276.026	3.79
276.399	4.08
276.772	4.26
277.145	4.21
277.518	4.24
277.891	4.16
278.263	4.12
278.636	4.35
279.009	4.3
279.382	4.25
279.755	4.37
280.127	4.54
280.5	4.57
280.872	4.53
281.245	4.38
281.617	4.31
281.99	4.47
282.362	4.4
282.735	4.33
283.107	4.29
283.479	4.24
283.852	4.08
284.224	3.91
284.596	3.67
284.968	3.54
285.34	3.38
285.713	3.61
286.085	3.6
286.457	3.55
286.829	3.77
287.201	3.81
287.572	3.82
287.944	3.76
288.316	3.74
288.688	3.87
289.06	3.9
289.431	4.06
289.803	4.11
290.175	3.93
290.546	3.89
290.918	3.95
291.289	3.86
291.661	4
292.032	4.04
292.403	4.08
292.775	4.2
293.146	4.32
293.517	4.08
293.889	4.09
294.26	4.13
294.631	4.04
295.002	4.04
295.373	3.88
295.744	3.93
296.115	3.9
296.486	3.92
296.857	3.92
297.228	3.72
297.599	3.76
297.97	4
298.34	3.97
298.711	4.07
299.082	4.14
299.452	4.11
299.823	4.15
300.194	4.4
300.564	4.35
300.935	4.28
301.305	4.25
301.676	4.14
302.046	4.22
302.416	4.2
302.787	4.15
303.157	4.25
303.527	4.35
303.897	4.31
304.267	4.18
304.637	4.3
305.008	4.37
305.378	4.36
305.748	4.28
306.117	4.43
306.487	4.41
306.857	4.43
307.227	4.46
307.597	4.39
307.967	4.35
308.336	4.54
308.706	4.75
309.076	4.98
309.445	5.12
309.815	5.17
310.184	5.13
310.554	5.24
310.923	5.41
311.293	5.32
311.662	5.4
312.031	5.4
312.401	5.21
312.77	5.4
313.139	5.47
313.508	5.42
313.877	5.6
314.246	5.58
314.616	5.56
314.985	5.63
315.353	5.78
315.722	5.76
316.091	5.65
316.46	5.66
316.829	5.7
317.198	5.75
317.567	5.73
317.935	5.88
318.304	6.01
318.672	5.94
319.041	6.02
319.41	6.14
319.778	6.23
320.147	6.42
320.515	6.41
320.883	6.42
321.252	6.62
321.62	6.62
321.988	6.82
322.357	6.78
322.725	6.72
323.093	6.75
323.461	6.74
323.829	6.85
324.197	6.77
324.565	6.67
324.933	6.83
325.301	6.79
325.669	6.79
326.037	6.91
326.405	7.01
326.772	7.05
327.14	6.92
327.508	6.85
327.875	6.82
328.243	6.88
328.61	6.79
328.978	6.79
329.346	6.63
329.713	6.74
330.08	6.89
330.448	6.82
330.815	6.76
331.182	6.74
331.55	6.69
331.917	6.73
332.284	6.71
332.651	6.57
333.018	6.65
333.385	6.59
333.752	6.36
334.119	6.4
334.486	6.48
334.853	6.51
335.22	6.62
335.587	6.67
335.954	6.68
336.32	6.79
336.687	6.67
337.054	6.75
337.42	6.59
337.787	6.6
338.153	6.81
338.52	6.85
338.886	6.82
339.253	6.82
339.619	6.89
339.986	6.93
340.352	7
340.718	7.08
341.084	7.23
341.451	7.37
341.817	7.41
342.183	7.33
342.549	7.47
342.915	7.4
343.281	7.32
343.647	7.19
344.013	7.15
344.379	7.14
344.745	7.17
345.11	7.1
345.476	7.17
345.842	7.07
346.208	7.1
346.573	7.17
346.939	7.17
347.304	7.13
347.67	7.11
348.035	7.09
348.401	6.99
348.766	6.85
349.132	6.73
349.497	6.56
349.862	6.58
350.228	6.55
350.593	6.53
350.958	6.66
351.323	6.64
351.688	6.64
352.053	6.73
352.418	6.7
352.783	6.83
353.148	6.78
353.513	6.8
353.878	6.82
354.243	6.79
354.608	6.8
354.972	6.79
355.337	6.87
355.702	6.78
356.066	6.89
356.431	6.96
356.795	7
357.16	7.06
357.524	6.98
357.889	6.87
358.253	6.9
358.618	6.87
358.982	6.89
359.346	6.83
359.71	6.79
360.075	6.87
360.439	6.8
360.803	6.81
361.167	6.77
361.531	6.7
361.895	6.7
362.259	6.72
362.623	6.7
362.987	6.65
363.351	6.66
363.714	6.61
364.078	6.52
364.442	6.49
364.806	6.49
365.169	6.49
365.533	6.52
365.896	6.56
366.26	6.43
366.623	6.41
366.987	6.51
367.35	6.51
367.714	6.43
368.077	6.42
368.44	6.44
368.803	6.47
369.167	6.4
369.53	6.37
369.893	6.3
370.256	6.25
370.619	6.15
370.982	6.15
371.345	6.07
371.708	6.1
372.071	6.03
372.434	5.96
372.797	5.93
373.159	5.91
373.522	5.82
373.885	5.91
374.247	5.88
374.61	5.73
374.973	5.68
375.335	5.66
375.698	5.67
376.06	5.59
376.423	5.58
376.785	5.56
377.147	5.55
377.51	5.5
377.872	5.46
378.234	5.5
378.596	5.46
378.958	5.41
379.321	5.37
379.683	5.37
380.045	5.27
380.407	5.27
380.769	5.19
381.13	5.13
381.492	4.98
381.854	4.94
382.216	4.96
382.578	4.94
382.939	4.91
383.301	4.81
383.663	4.73
384.024	4.71
384.386	4.71
384.747	4.66
385.109	4.68
385.47	4.68
385.832	4.67
386.193	4.67
386.554	4.63
386.916	4.62
387.277	4.68
387.638	4.67
387.999	4.69
388.36	4.69
388.721	4.68
389.082	4.75
389.443	4.79
389.804	4.75
390.165	4.73
390.526	4.72
390.887	4.71
391.248	4.71
391.609	4.67
391.969	4.63
392.33	4.55
392.691	4.55
393.051	4.52
393.412	4.49
393.772	4.49
394.133	4.45
394.493	4.41
394.854	4.33
395.214	4.33
395.574	4.25
395.935	4.21
396.295	4.19
396.655	4.09
397.015	4.04
397.376	4.04
397.736	4.04
398.096	3.97
398.456	3.98
398.816	3.98
399.176	3.91
399.535	3.9
399.895	3.96
400.255	3.92
400.615	3.92
400.975	3.91
401.334	3.87
401.694	3.88
402.054	3.87
402.413	3.86
402.773	3.86
403.132	3.82
403.492	3.84
403.851	3.84
404.211	3.89
404.57	3.87
404.929	3.84
405.288	3.79
405.648	3.78
406.007	3.77
406.366	3.75
406.725	3.78
407.084	3.77
407.443	3.73
407.802	3.67
408.161	3.65
408.52	3.63
408.879	3.59
409.238	3.6
409.596	3.6
409.955	3.6
410.314	3.58
410.673	3.58
411.031	3.55
411.39	3.54
411.748	3.51
412.107	3.47
412.465	3.49
412.824	3.48
413.182	3.46
413.54	3.44
413.899	3.44
414.257	3.45
414.615	3.44
414.974	3.45
415.332	3.49
415.69	3.48
416.048	3.48
416.406	3.48
416.764	3.46
417.122	3.44
417.48	3.41
417.838	3.4
418.195	3.41
418.553	3.4
418.911	3.39
419.269	3.37
419.626	3.37
419.984	3.35
420.342	3.35
420.699	3.34
421.057	3.33
421.414	3.31
421.772	3.29
422.129	3.28
422.486	3.27
422.844	3.26
423.201	3.25
423.558	3.23
423.915	3.22
424.273	3.2
424.63	3.22
424.987	3.22
425.344	3.22
425.701	3.19
426.058	3.2
426.415	3.19
426.772	3.18
427.128	3.18
427.485	3.17
427.842	3.17
428.199	3.18
428.555	3.17
428.912	3.18
429.269	3.16
429.625	3.15
429.982	3.15
430.338	3.13
430.695	3.12
431.051	3.14
431.407	3.14
431.764	3.13
432.12	3.1
432.476	3.1
432.832	3.1
433.189	3.09
433.545	3.07
433.901	3.08
434.257	3.08
434.613	3.08
434.969	3.07
435.325	3.08
435.681	3.08
436.036	3.08
436.392	3.06
436.748	3.06
437.104	3.06
437.459	3.07
437.815	3.09
438.171	3.1
438.526	3.07
438.882	3.08
439.237	3.09
439.593	3.1
439.948	3.09
440.304	3.09
440.659	3.09
441.014	3.1
441.369	3.08
441.725	3.1
442.08	3.07
442.435	3.09
442.79	3.07
443.145	3.07
443.5	3.07
443.855	3.08
444.21	3.1
444.565	3.1
444.92	3.08
445.275	3.06
445.629	3.05
445.984	3.05
446.339	3.04
446.693	3.03
447.048	3.01
447.403	3.01
447.757	2.99
448.112	2.99
448.466	2.99
448.82	2.99
449.175	2.97
449.529	2.99
449.883	2.95
450.238	2.96
450.592	2.95
450.946	2.93
451.3	2.92
451.654	2.88
452.008	2.88
452.362	2.87
452.716	2.89
453.07	2.88
453.424	2.89
453.778	2.88
454.132	2.88
454.486	2.89
454.839	2.92
455.193	2.92
455.547	2.94
455.9	2.94
456.254	2.93
456.607	2.94
456.961	2.95
457.314	2.97
457.668	2.97
458.021	3.01
458.375	3.01
458.728	3
459.081	3.01
459.434	3
459.787	3.01
460.141	2.99
460.494	3
460.847	3
461.2	3.02
461.553	3.03
461.906	3.04
462.259	3.03
462.611	3.05
462.964	3.05
463.317	3.06
463.67	3.05
464.022	3.06
464.375	3.05
464.728	3.03
465.08	3.05
465.433	3.03
465.785	3.03
466.138	3.04
466.49	3.07
466.843	3.11
467.195	3.12
467.547	3.14
467.899	3.16
468.252	3.16
468.604	3.16
468.956	3.17
469.308	3.17
469.66	3.18
470.012	3.18
470.364	3.2
470.716	3.21
471.068	3.25
471.42	3.25
471.772	3.27
472.123	3.3
472.475	3.28
472.827	3.28
473.178	3.31
473.53	3.32
473.882	3.3
474.233	3.28
474.585	3.28
474.936	3.3
475.288	3.31
475.639	3.31
475.99	3.3
476.342	3.31
476.693	3.33
477.044	3.32
477.395	3.3
477.746	3.29
478.097	3.28
478.448	3.26
478.8	3.25
479.15	3.22
479.501	3.22
479.852	3.22
480.203	3.22
480.554	3.21
480.905	3.19
481.255	3.19
481.606	3.18
481.957	3.18
482.307	3.18
482.658	3.17
483.009	3.17
483.359	3.17
483.709	3.17
484.06	3.17
484.41	3.17
484.761	3.17
485.111	3.17
485.461	3.18
485.811	3.18
486.162	3.19
486.512	3.2
486.862	3.19
487.212	3.19
487.562	3.19
487.912	3.19
488.262	3.2
488.612	3.2
488.961	3.22
489.311	3.2
489.661	3.21
490.011	3.21
490.36	3.22
490.71	3.21
491.06	3.21
491.409	3.22
491.759	3.22
492.108	3.22
492.458	3.22
492.807	3.21
493.157	3.22
493.506	3.23
493.855	3.24
494.204	3.24
494.554	3.26
494.903	3.28
495.252	3.3
495.601	3.31
495.95	3.32
496.299	3.32
496.648	3.35
496.997	3.37
497.346	3.38
497.695	3.4
498.043	3.43
498.392	3.44
498.741	3.49
499.09	3.53
499.438	3.57
499.787	3.61
500.135	3.62
500.484	3.62
500.832	3.66
501.181	3.69
501.529	3.74
501.878	3.79
502.226	3.84
502.574	3.87
502.923	3.9
503.271	3.96
503.619	4.01
503.967	4.05
504.315	4.08
504.663	4.1
505.011	4.14
505.359	4.15
505.707	4.23
506.055	4.24
506.403	4.25
506.751	4.26
507.098	4.32
507.446	4.41
507.794	4.46
508.141	4.5
508.489	4.56
508.837	4.59
509.184	4.63
509.531	4.65
509.879	4.72
510.226	4.78
510.574	4.83
510.921	4.87
511.268	4.94
511.616	5.02
511.963	5.11
512.31	5.17
512.657	5.24
513.004	5.28
513.351	5.36
513.698	5.45
514.045	5.54
514.392	5.59
514.739	5.68
515.086	5.78
515.432	5.85
515.779	5.9
516.126	6
516.473	6.07
516.819	6.15
517.166	6.21
517.512	6.27
517.859	6.35
518.205	6.4
518.552	6.47
518.898	6.52
519.245	6.58
519.591	6.66
519.937	6.73
520.283	6.82
520.629	6.9
520.976	6.96
521.322	7.04
521.668	7.14
522.014	7.2
522.36	7.29
522.706	7.38
523.052	7.49
523.398	7.6
523.743	7.71
524.089	7.8
524.435	7.89
524.781	7.99
525.126	8.08
525.472	8.19
525.817	8.27
526.163	8.34
526.509	8.4
526.854	8.46
527.199	8.52
527.545	8.57
527.89	8.63
528.235	8.7
528.581	8.78
528.926	8.83
529.271	8.91
529.616	8.98
529.961	9.05
530.306	9.13
530.651	9.19
530.996	9.27
531.341	9.36
531.686	9.46
532.031	9.55
532.376	9.64
532.721	9.72
533.065	9.83
533.41	9.94
533.755	10.07
534.099	10.17
534.444	10.29
534.788	10.42
535.133	10.54
535.477	10.67
535.822	10.8
536.166	10.94
536.51	11.07
536.855	11.24
537.199	11.4
537.543	11.57
537.887	11.75
538.231	11.92
538.576	12.09
538.92	12.27
539.264	12.42
539.608	12.58
539.951	12.73
540.295	12.86
540.639	12.98
540.983	13.13
541.327	13.29
541.671	13.41
542.014	13.55
542.358	13.67
542.701	13.81
543.045	13.95
543.389	14.11
543.732	14.25
544.075	14.38
544.419	14.53
544.762	14.71
545.105	14.89
545.449	15.08
545.792	15.28
546.135	15.46
546.478	15.65
546.821	15.87
547.165	16.1
547.508	16.32
547.851	16.6
548.194	16.79
548.536	17.02
548.879	17.25
549.222	17.51
549.565	17.73
549.908	17.97
550.25	18.19
550.593	18.43
550.936	18.66
551.278	18.91
551.621	19.13
551.963	19.36
552.306	19.56
552.648	19.78
552.991	19.99
553.333	20.21
553.675	20.46
554.017	20.71
554.36	20.9
554.702	21.08
555.044	21.28
555.386	21.53
555.728	21.77
556.07	22.01
556.412	22.19
556.754	22.42
557.096	22.61
557.438	22.82
557.78	23.04
558.121	23.31
558.463	23.55
558.805	23.79
559.147	24
559.488	24.19
559.83	24.4
560.171	24.66
560.513	24.89
560.854	25.1
561.196	25.32
561.537	25.59
561.878	25.87
562.22	26.08
562.561	26.28
562.902	26.5
563.243	26.67
563.584	26.93
563.925	27.2
564.266	27.42
564.607	27.63
564.948	27.87
565.289	28.04
565.63	28.15
565.971	28.34
566.312	28.46
566.653	28.7
566.993	28.92
567.334	29.06
567.675	29.25
568.015	29.45
568.356	29.6
568.696	29.78
569.037	29.95
569.377	30.09
569.718	30.27
570.058	30.39
570.398	30.55
570.739	30.68
571.079	30.8
571.419	30.93
571.759	31.1
572.099	31.22
572.439	31.36
572.779	31.56
573.119	31.66
573.459	31.84
573.799	31.92
574.139	32.02
574.479	32.2
574.819	32.31
575.158	32.4
575.498	32.55
575.838	32.62
576.177	32.73
576.517	32.87
576.856	33
577.196	33.16
577.535	33.31
577.875	33.44
578.214	33.57
578.553	33.71
578.893	33.83
579.232	33.94
579.571	34.1
579.91	34.23
580.25	34.39
580.589	34.47
580.928	34.61
581.267	34.72
581.606	34.76
581.945	34.88
582.283	34.95
582.622	35.05
582.961	35.15
583.3	35.27
583.639	35.38
583.977	35.42
584.316	35.48
584.654	35.58
584.993	35.72
585.332	35.82
585.67	35.94
586.008	36.08
586.347	36.17
586.685	36.24
587.024	36.26
587.362	36.34
587.7	36.5
588.038	36.6
588.376	36.66
588.715	36.83
589.053	36.91
589.391	36.96
589.729	36.98
590.067	37.05
590.404	37.16
590.742	37.2
591.08	37.31
591.418	37.37
591.756	37.43
592.093	37.4
592.431	37.46
592.769	37.5
593.106	37.52
593.444	37.58
593.781	37.69
594.119	37.76
594.456	37.83
594.793	37.86
595.131	37.83
595.468	37.93
595.805	37.95
596.143	37.98
596.48	38.09
596.817	38.19
597.154	38.28
597.491	38.25
597.828	38.32
598.165	38.37
598.502	38.48
598.839	38.53
599.176	38.64
599.512	38.73
599.849	38.84
600.186	38.92
600.523	38.95
600.859	38.96
601.196	39.02
601.532	39.04
601.869	39.09
602.205	39.21
602.542	39.24
602.878	39.31
603.215	39.3
603.551	39.37
603.887	39.44
604.223	39.43
604.56	39.58
604.896	39.6
605.232	39.65
605.568	39.65
605.904	39.66
606.24	39.7
606.576	39.67
606.912	39.62
607.248	39.65
607.583	39.75
607.919	39.81
608.255	39.9
608.591	39.99
608.926	40.05
609.262	40.07
609.597	40.12
609.933	40.12
610.268	40.19
610.604	40.21
610.939	40.26
611.275	40.3
611.61	40.28
611.945	40.31
612.281	40.36
612.616	40.43
612.951	40.52
613.286	40.52
613.621	40.56
613.956	40.66
614.291	40.68
614.626	40.69
614.961	40.74
615.296	40.69
615.631	40.67
615.966	40.68
616.3	40.74
616.635	40.74
616.97	40.73
617.304	40.73
617.639	40.8
617.973	40.78
618.308	40.82
618.642	40.77
618.977	40.78
619.311	40.81
619.646	40.81
619.98	40.88
620.314	40.95
620.648	40.99
620.983	41.02
621.317	41.03
621.651	41.04
621.985	40.99
622.319	41.06
622.653	41.21
622.987	41.21
623.321	41.21
623.655	41.26
623.988	41.28
624.322	41.37
624.656	41.41
624.99	41.45
625.323	41.44
625.657	41.5
625.99	41.49
626.324	41.47
626.657	41.5
626.991	41.44
627.324	41.41
627.658	41.45
627.991	41.45
628.324	41.4
628.657	41.39
628.991	41.37
629.324	41.4
629.657	41.38
629.99	41.32
630.323	41.37
630.656	41.32
630.989	41.3
631.322	41.34
631.655	41.27
631.987	41.32
632.32	41.37
632.653	41.37
632.986	41.4
633.318	41.39
633.651	41.36
633.984	41.4
634.316	41.47
634.649	41.5
634.981	41.56
635.313	41.62
635.646	41.66
635.978	41.79
636.31	41.73
636.643	41.68
636.975	41.77
637.307	41.8
637.639	41.82
637.971	41.82
638.303	41.79
638.635	41.82
638.967	41.8
639.299	41.78
639.631	41.74
639.963	41.78
640.295	41.83
640.626	41.83
640.958	41.8
641.29	41.74
641.621	41.71
641.953	41.62
642.285	41.72
642.616	41.71
642.948	41.68
643.279	41.57
643.61	41.57
643.942	41.62
644.273	41.55
644.604	41.61
644.936	41.71
645.267	41.8
645.598	41.78
645.929	41.63
646.26	41.65
646.591	41.64
646.922	41.6
647.253	41.55
647.584	41.62
647.915	41.63
648.245	41.74
648.576	41.83
648.907	41.89
649.238	41.81
649.568	41.85
649.899	41.89
650.229	42.12
650.56	42.08
650.89	42.16
651.221	42.23
651.551	42.18
651.882	42.18
652.212	42.19
652.542	42.2
652.872	42.48
653.203	42.55
653.533	42.58
653.863	42.59
654.193	42.66
654.523	42.71
654.853	42.85
655.183	42.91
655.513	42.94
655.843	42.96
656.172	43.05
656.502	43.02
656.832	42.95
657.162	42.9
657.491	43.03
657.821	42.97
658.15	43
658.48	43.17
658.809	43.25
659.139	43.16
659.468	43.2
659.798	43.19
660.127	43.12
660.456	43.18
660.785	43.24
661.115	43.27
661.444	43.26
661.773	43.2
662.102	43.16
662.431	43.07
662.76	43.1
663.089	43.09
663.418	43.22
663.747	43.32
664.076	43.37
664.404	43.37
664.733	43.36
665.062	43.36
665.39	43.26
665.719	43.21
666.048	43.22
666.376	43.19
666.705	43.13
667.033	43.16
667.362	43.11
667.69	43.19
668.018	43.3
668.347	43.29
668.675	43.3
669.003	43.26
669.331	43.42
669.659	43.45
669.987	43.4
670.315	43.44
670.643	43.43
670.971	43.38
