Data from MVZ_BU163024_Reflection_00012.txt Node
Date: Tue Nov 19 12:11:45 EST 2019
User: vgr7
Spectrometer: USB2G7710
Scans to average: 3
Trigger mode: 4
Integration Time (sec): 2.000000E-2
Electric dark correction enabled: true
Boxcar width: 10
XAxis mode: Wavelengths
Number of Pixels in Spectrum: 2048
>>>>>Begin Spectral Data<<<<<
177.721	-372.53
178.105	-64.47
178.488	-47.97
178.871	-29.03
179.254	-27.27
179.636	412.5
180.019	114.08
180.402	107.69
180.785	-25.71
181.168	27.97
181.55	25.31
181.933	32.81
182.316	28.83
182.698	43.15
183.081	35.41
183.463	32.75
183.846	34.35
184.228	22.52
184.611	-14.65
184.993	1.18
185.376	-28.53
185.758	-99.1
186.14	-78.95
186.522	-114.59
186.904	-120.41
187.287	-79.81
187.669	-141.51
188.051	-101.83
188.433	-101.55
188.815	-128.67
189.197	-118.29
189.579	-258.85
189.961	-212.27
190.342	-257.49
190.724	-169.08
191.106	-216.06
191.488	-185.71
191.869	-125.59
192.251	-159.67
192.633	-107.21
193.014	-84.87
193.396	-27.85
193.777	-8.11
194.159	0.8
194.54	-6.38
194.922	25.07
195.303	39.39
195.684	410.34
196.065	-147.19
196.447	-143.9
196.828	-142.72
197.209	-60.8
197.59	-90.11
197.971	-95.73
198.352	-92.93
198.733	-87.32
199.114	-100.67
199.495	-109
199.876	-69.05
200.257	-162.41
200.638	-129.36
201.018	-147.79
201.399	-72.77
201.78	-96.08
202.16	-53.19
202.541	-120.66
202.922	-60.62
203.302	-126.89
203.683	260
204.063	172.73
204.444	221.21
204.824	214.29
205.204	-417.24
205.585	957.14
205.965	-155.81
206.345	290.48
206.725	12.41
207.106	27.11
207.486	48.05
207.866	37.12
208.246	43.34
208.626	46.76
209.006	54.62
209.386	62.96
209.766	78.49
210.145	53.03
210.525	57.28
210.905	39.49
211.285	30.47
211.664	21.55
212.044	23.97
212.424	24.2
212.803	19.15
213.183	19.79
213.562	15.9
213.942	16.08
214.321	15.08
214.701	14.18
215.08	15.63
215.459	9.34
215.838	4.49
216.218	-13.6
216.597	-22.17
216.976	-22.78
217.355	-28.84
217.734	-34.05
218.113	-24.84
218.492	-22.96
218.871	-32.52
219.25	-35.49
219.629	-54.82
220.008	-55.7
220.387	-75.19
220.766	-76.02
221.144	-51.84
221.523	-57.64
221.902	-57.01
222.28	-46.58
222.659	-23.03
223.037	-34.31
223.416	-31.22
223.794	-11.79
224.173	-9.82
224.551	-3.76
224.929	-6.34
225.308	5.46
225.686	14.1
226.064	13.25
226.442	18.77
226.821	24.4
227.199	25.5
227.577	28.05
227.955	27.42
228.333	24.34
228.711	25.96
229.089	26.6
229.467	23.86
229.845	17.07
230.222	16.16
230.6	7.95
230.978	10.18
231.356	8.35
231.733	5.2
232.111	5.88
232.488	6.8
232.866	7.67
233.243	5.99
233.621	5.98
233.998	7.17
234.376	4.51
234.753	2.46
235.13	1.67
235.508	2.76
235.885	0.43
236.262	3.09
236.639	1.79
237.016	1.57
237.393	3.34
237.77	4.84
238.147	4.7
238.524	7.15
238.901	7.01
239.278	7.17
239.655	6.48
240.032	5.32
240.409	5.31
240.785	4.83
241.162	4.93
241.539	4.77
241.915	4.58
242.292	4.71
242.668	5.2
243.045	5.82
243.421	5.55
243.798	5.89
244.174	5.46
244.551	5.74
244.927	5.93
245.303	5.72
245.679	5.55
246.056	5.22
246.432	4.89
246.808	4.83
247.184	4.89
247.56	4.75
247.936	5.09
248.312	4.96
248.688	5.16
249.064	5.04
249.44	4.79
249.815	4.67
250.191	4.7
250.567	4.23
250.943	3.97
251.318	4.03
251.694	4.26
252.069	4.63
252.445	4.49
252.82	4.57
253.196	4.72
253.571	4.93
253.947	5.14
254.322	4.86
254.697	5.05
255.073	5.18
255.448	5.13
255.823	4.82
256.198	4.72
256.573	4.62
256.948	4.43
257.323	4.65
257.698	4.68
258.073	4.64
258.448	4.96
258.823	4.89
259.198	4.66
259.573	4.42
259.948	4.5
260.322	4.38
260.697	4.31
261.072	4.19
261.446	4.04
261.821	3.89
262.195	3.99
262.57	3.96
262.944	3.81
263.319	4.08
263.693	4.2
264.067	4.31
264.442	4.19
264.816	4.28
265.19	4.22
265.564	4.21
265.938	4.38
266.313	4.19
266.687	4.07
267.061	4.11
267.435	4.22
267.809	3.8
268.183	3.78
268.556	3.72
268.93	3.86
269.304	3.96
269.678	4.14
270.051	4.11
270.425	4.06
270.799	4
271.172	3.92
271.546	3.89
271.919	3.9
272.293	3.94
272.666	3.82
273.04	3.7
273.413	3.6
273.787	3.43
274.16	3.25
274.533	3.38
274.906	3.45
275.279	3.4
275.653	3.57
276.026	3.73
276.399	4.01
276.772	3.97
277.145	3.92
277.518	4.06
277.891	4.14
278.263	4.07
278.636	4.07
279.009	3.97
279.382	3.99
279.755	4.14
280.127	4.23
280.5	4.32
280.872	4.58
281.245	4.6
281.617	4.65
281.99	4.89
282.362	4.93
282.735	4.83
283.107	4.78
283.479	4.82
283.852	4.76
284.224	4.56
284.596	4.45
284.968	4.6
285.34	4.52
285.713	4.53
286.085	4.6
286.457	4.57
286.829	4.6
287.201	4.73
287.572	4.63
287.944	4.52
288.316	4.59
288.688	4.52
289.06	4.68
289.431	4.73
289.803	4.67
290.175	4.61
290.546	4.57
290.918	4.52
291.289	4.41
291.661	4.47
292.032	4.26
292.403	4.2
292.775	4.14
293.146	4.25
293.517	4.3
293.889	4.32
294.26	4.42
294.631	4.51
295.002	4.35
295.373	4.27
295.744	4.29
296.115	4.27
296.486	4.19
296.857	4.1
297.228	4.08
297.599	4.11
297.97	4.21
298.34	4.34
298.711	4.45
299.082	4.64
299.452	4.56
299.823	4.8
300.194	5.04
300.564	5.13
300.935	5.07
301.305	5.03
301.676	5.07
302.046	5.09
302.416	4.96
302.787	5.05
303.157	5.07
303.527	5.15
303.897	5.22
304.267	5.33
304.637	5.42
305.008	5.52
305.378	5.48
305.748	5.27
306.117	5.17
306.487	5.07
306.857	5.01
307.227	5.21
307.597	5.16
307.967	5.05
308.336	5.12
308.706	5.26
309.076	5.32
309.445	5.39
309.815	5.47
310.184	5.46
310.554	5.49
310.923	5.61
311.293	5.56
311.662	5.61
312.031	5.62
312.401	5.59
312.77	5.55
313.139	5.66
313.508	5.78
313.877	5.85
314.246	5.97
314.616	6.06
314.985	5.98
315.353	5.9
315.722	6.06
316.091	5.92
316.46	5.9
316.829	5.87
317.198	5.78
317.567	5.84
317.935	6.06
318.304	6.02
318.672	6.1
319.041	6.4
319.41	6.29
319.778	6.42
320.147	6.35
320.515	6.46
320.883	6.37
321.252	6.43
321.62	6.58
321.988	6.64
322.357	6.65
322.725	6.72
323.093	6.77
323.461	6.77
323.829	6.87
324.197	6.89
324.565	7.07
324.933	7.16
325.301	7.18
325.669	7.1
326.037	7.3
326.405	7.25
326.772	7.22
327.14	7.28
327.508	7.24
327.875	7.33
328.243	7.33
328.61	7.54
328.978	7.63
329.346	7.49
329.713	7.56
330.08	7.73
330.448	7.82
330.815	8.03
331.182	7.91
331.55	7.87
331.917	7.87
332.284	7.8
332.651	7.78
333.018	7.76
333.385	7.85
333.752	7.88
334.119	7.96
334.486	8.12
334.853	8.01
335.22	8
335.587	8.06
335.954	7.97
336.32	7.88
336.687	7.88
337.054	8.17
337.42	8.21
337.787	8.03
338.153	8.1
338.52	8.09
338.886	8.28
339.253	8.16
339.619	8.21
339.986	8.27
340.352	8.28
340.718	8.28
341.084	8.24
341.451	8.18
341.817	8.28
342.183	7.97
342.549	8.17
342.915	8.24
343.281	8.24
343.647	8.42
344.013	8.49
344.379	8.53
344.745	8.43
345.11	8.38
345.476	8.47
345.842	8.34
346.208	8.31
346.573	8.32
346.939	8.52
347.304	8.45
347.67	8.42
348.035	8.36
348.401	8.48
348.766	8.57
349.132	8.67
349.497	8.62
349.862	8.8
350.228	8.78
350.593	8.75
350.958	8.7
351.323	8.61
351.688	8.57
352.053	8.52
352.418	8.53
352.783	8.54
353.148	8.58
353.513	8.61
353.878	8.73
354.243	8.56
354.608	8.61
354.972	8.63
355.337	8.76
355.702	8.74
356.066	8.67
356.431	8.59
356.795	8.54
357.16	8.55
357.524	8.57
357.889	8.5
358.253	8.42
358.618	8.45
358.982	8.44
359.346	8.45
359.71	8.37
360.075	8.38
360.439	8.39
360.803	8.36
361.167	8.36
361.531	8.27
361.895	8.32
362.259	8.34
362.623	8.3
362.987	8.15
363.351	8.18
363.714	8.13
364.078	8.16
364.442	8.04
364.806	7.96
365.169	7.82
365.533	7.81
365.896	7.91
366.26	7.9
366.623	7.89
366.987	7.86
367.35	7.86
367.714	7.84
368.077	7.78
368.44	7.82
368.803	7.76
369.167	7.57
369.53	7.61
369.893	7.5
370.256	7.45
370.619	7.46
370.982	7.35
371.345	7.38
371.708	7.35
372.071	7.29
372.434	7.27
372.797	7.32
373.159	7.29
373.522	7.18
373.885	7.16
374.247	7.13
374.61	7.12
374.973	7.12
375.335	7.12
375.698	7.09
376.06	6.98
376.423	6.92
376.785	7.07
377.147	6.96
377.51	6.92
377.872	6.92
378.234	6.91
378.596	6.93
378.958	6.89
379.321	6.83
379.683	6.85
380.045	6.86
380.407	6.85
380.769	6.81
381.13	6.82
381.492	6.77
381.854	6.75
382.216	6.71
382.578	6.71
382.939	6.64
383.301	6.55
383.663	6.53
384.024	6.5
384.386	6.45
384.747	6.41
385.109	6.38
385.47	6.37
385.832	6.23
386.193	6.22
386.554	6.13
386.916	6.07
387.277	6.05
387.638	5.97
387.999	5.91
388.36	5.9
388.721	5.88
389.082	5.88
389.443	5.8
389.804	5.78
390.165	5.74
390.526	5.66
390.887	5.69
391.248	5.68
391.609	5.64
391.969	5.59
392.33	5.56
392.691	5.52
393.051	5.45
393.412	5.46
393.772	5.45
394.133	5.45
394.493	5.41
394.854	5.41
395.214	5.38
395.574	5.37
395.935	5.32
396.295	5.28
396.655	5.24
397.015	5.24
397.376	5.22
397.736	5.17
398.096	5.15
398.456	5.1
398.816	5.02
399.176	5
399.535	4.98
399.895	4.96
400.255	4.93
400.615	4.93
400.975	4.95
401.334	4.88
401.694	4.88
402.054	4.89
402.413	4.83
402.773	4.84
403.132	4.76
403.492	4.77
403.851	4.74
404.211	4.69
404.57	4.66
404.929	4.62
405.288	4.62
405.648	4.65
406.007	4.63
406.366	4.68
406.725	4.68
407.084	4.68
407.443	4.64
407.802	4.6
408.161	4.59
408.52	4.53
408.879	4.54
409.238	4.53
409.596	4.48
409.955	4.45
410.314	4.43
410.673	4.45
411.031	4.42
411.39	4.43
411.748	4.45
412.107	4.44
412.465	4.44
412.824	4.43
413.182	4.39
413.54	4.38
413.899	4.3
414.257	4.28
414.615	4.25
414.974	4.29
415.332	4.29
415.69	4.29
416.048	4.31
416.406	4.25
416.764	4.21
417.122	4.2
417.48	4.21
417.838	4.19
418.195	4.19
418.553	4.17
418.911	4.14
419.269	4.12
419.626	4.11
419.984	4.09
420.342	4.08
420.699	4.08
421.057	4.08
421.414	4.07
421.772	4.05
422.129	4.02
422.486	4.01
422.844	4
423.201	3.99
423.558	3.94
423.915	3.94
424.273	3.93
424.63	3.94
424.987	3.94
425.344	3.93
425.701	3.92
426.058	3.91
426.415	3.91
426.772	3.88
427.128	3.87
427.485	3.86
427.842	3.85
428.199	3.83
428.555	3.83
428.912	3.82
429.269	3.83
429.625	3.83
429.982	3.81
430.338	3.83
430.695	3.8
431.051	3.84
431.407	3.85
431.764	3.86
432.12	3.85
432.476	3.85
432.832	3.87
433.189	3.83
433.545	3.82
433.901	3.83
434.257	3.86
434.613	3.87
434.969	3.87
435.325	3.86
435.681	3.85
436.036	3.84
436.392	3.83
436.748	3.84
437.104	3.85
437.459	3.85
437.815	3.84
438.171	3.87
438.526	3.87
438.882	3.87
439.237	3.87
439.593	3.87
439.948	3.86
440.304	3.84
440.659	3.85
441.014	3.87
441.369	3.87
441.725	3.84
442.08	3.83
442.435	3.84
442.79	3.83
443.145	3.82
443.5	3.8
443.855	3.8
444.21	3.78
444.565	3.78
444.92	3.77
445.275	3.77
445.629	3.75
445.984	3.73
446.339	3.72
446.693	3.71
447.048	3.7
447.403	3.69
447.757	3.68
448.112	3.69
448.466	3.68
448.82	3.66
449.175	3.65
449.529	3.63
449.883	3.62
450.238	3.63
450.592	3.62
450.946	3.63
451.3	3.62
451.654	3.6
452.008	3.6
452.362	3.58
452.716	3.56
453.07	3.56
453.424	3.55
453.778	3.54
454.132	3.52
454.486	3.52
454.839	3.51
455.193	3.51
455.547	3.5
455.9	3.5
456.254	3.51
456.607	3.51
456.961	3.51
457.314	3.48
457.668	3.46
458.021	3.47
458.375	3.47
458.728	3.48
459.081	3.49
459.434	3.48
459.787	3.51
460.141	3.5
460.494	3.5
460.847	3.51
461.2	3.52
461.553	3.55
461.906	3.55
462.259	3.55
462.611	3.57
462.964	3.58
463.317	3.59
463.67	3.59
464.022	3.6
464.375	3.61
464.728	3.65
465.08	3.68
465.433	3.69
465.785	3.71
466.138	3.72
466.49	3.72
466.843	3.73
467.195	3.73
467.547	3.76
467.899	3.79
468.252	3.81
468.604	3.8
468.956	3.79
469.308	3.8
469.66	3.82
470.012	3.82
470.364	3.82
470.716	3.84
471.068	3.85
471.42	3.89
471.772	3.91
472.123	3.93
472.475	3.95
472.827	3.96
473.178	3.98
473.53	3.98
473.882	3.99
474.233	4.01
474.585	4.02
474.936	4.01
475.288	4.01
475.639	4.01
475.99	4.01
476.342	4.03
476.693	4.06
477.044	4.09
477.395	4.09
477.746	4.09
478.097	4.06
478.448	4.03
478.8	4.03
479.15	4
479.501	3.96
479.852	3.94
480.203	3.92
480.554	3.92
480.905	3.92
481.255	3.92
481.606	3.92
481.957	3.91
482.307	3.9
482.658	3.88
483.009	3.87
483.359	3.88
483.709	3.87
484.06	3.85
484.41	3.84
484.761	3.85
485.111	3.85
485.461	3.85
485.811	3.85
486.162	3.83
486.512	3.84
486.862	3.85
487.212	3.84
487.562	3.84
487.912	3.84
488.262	3.83
488.612	3.82
488.961	3.82
489.311	3.81
489.661	3.81
490.011	3.82
490.36	3.82
490.71	3.81
491.06	3.81
491.409	3.81
491.759	3.82
492.108	3.82
492.458	3.82
492.807	3.82
493.157	3.85
493.506	3.87
493.855	3.87
494.204	3.89
494.554	3.9
494.903	3.92
495.252	3.93
495.601	3.95
495.95	3.99
496.299	4
496.648	4.06
496.997	4.1
497.346	4.14
497.695	4.19
498.043	4.26
498.392	4.3
498.741	4.34
499.09	4.41
499.438	4.45
499.787	4.49
500.135	4.55
500.484	4.6
500.832	4.63
501.181	4.7
501.529	4.77
501.878	4.85
502.226	4.93
502.574	4.99
502.923	5.05
503.271	5.12
503.619	5.19
503.967	5.24
504.315	5.29
504.663	5.38
505.011	5.47
505.359	5.54
505.707	5.62
506.055	5.71
506.403	5.77
506.751	5.88
507.098	5.98
507.446	6.11
507.794	6.19
508.141	6.29
508.489	6.38
508.837	6.47
509.184	6.57
509.531	6.66
509.879	6.77
510.226	6.91
510.574	7.02
510.921	7.13
511.268	7.25
511.616	7.4
511.963	7.51
512.31	7.62
512.657	7.73
513.004	7.86
513.351	8.02
513.698	8.18
514.045	8.31
514.392	8.47
514.739	8.63
515.086	8.79
515.432	8.94
515.779	9.08
516.126	9.22
516.473	9.34
516.819	9.46
517.166	9.62
517.512	9.75
517.859	9.87
518.205	9.98
518.552	10.08
518.898	10.19
519.245	10.33
519.591	10.48
519.937	10.62
520.283	10.72
520.629	10.85
520.976	10.94
521.322	11.1
521.668	11.25
522.014	11.41
522.36	11.56
522.706	11.75
523.052	11.95
523.398	12.16
523.743	12.37
524.089	12.6
524.435	12.78
524.781	12.97
525.126	13.17
525.472	13.35
525.817	13.5
526.163	13.67
526.509	13.8
526.854	13.94
527.199	14.06
527.545	14.21
527.89	14.35
528.235	14.49
528.581	14.62
528.926	14.76
529.271	14.91
529.616	15.07
529.961	15.21
530.306	15.37
530.651	15.51
530.996	15.68
531.341	15.87
531.686	16.05
532.031	16.24
532.376	16.39
532.721	16.59
533.065	16.82
533.41	17.03
533.755	17.24
534.099	17.45
534.444	17.67
534.788	17.9
535.133	18.12
535.477	18.35
535.822	18.58
536.166	18.82
536.51	19.09
536.855	19.36
537.199	19.66
537.543	19.96
537.887	20.27
538.231	20.57
538.576	20.87
538.92	21.15
539.264	21.42
539.608	21.72
539.951	21.99
540.295	22.27
540.639	22.52
540.983	22.77
541.327	23.02
541.671	23.26
542.014	23.49
542.358	23.71
542.701	23.93
543.045	24.18
543.389	24.4
543.732	24.63
544.075	24.88
544.419	25.1
544.762	25.35
545.105	25.6
545.449	25.89
545.792	26.17
546.135	26.49
546.478	26.83
546.821	27.16
547.165	27.48
547.508	27.76
547.851	28.05
548.194	28.39
548.536	28.72
548.879	29.05
549.222	29.39
549.565	29.73
549.908	30.09
550.25	30.37
550.593	30.68
550.936	31.02
551.278	31.39
551.621	31.73
551.963	32.04
552.306	32.43
552.648	32.72
552.991	33.02
553.333	33.29
553.675	33.58
554.017	33.92
554.36	34.27
554.702	34.54
555.044	34.84
555.386	35.15
555.728	35.38
556.07	35.68
556.412	35.96
556.754	36.29
557.096	36.59
557.438	36.96
557.78	37.25
558.121	37.51
558.463	37.78
558.805	38.11
559.147	38.42
559.488	38.71
559.83	39.03
560.171	39.33
560.513	39.63
560.854	39.91
561.196	40.06
561.537	40.3
561.878	40.65
562.22	40.97
562.561	41.25
562.902	41.53
563.243	41.82
563.584	42.11
563.925	42.37
564.266	42.64
564.607	42.84
564.948	43.12
565.289	43.44
565.63	43.68
565.971	43.92
566.312	44.14
566.653	44.35
566.993	44.5
567.334	44.73
567.675	44.97
568.015	45.25
568.356	45.51
568.696	45.78
569.037	45.97
569.377	46.13
569.718	46.3
570.058	46.49
570.398	46.64
570.739	46.82
571.079	46.98
571.419	47.1
571.759	47.31
572.099	47.5
572.439	47.59
572.779	47.75
573.119	47.89
573.459	48.08
573.799	48.2
574.139	48.39
574.479	48.59
574.819	48.74
575.158	48.84
575.498	49.04
575.838	49.06
576.177	49.17
576.517	49.32
576.856	49.5
577.196	49.67
577.535	49.85
577.875	50.03
578.214	50.24
578.553	50.4
578.893	50.56
579.232	50.68
579.571	50.9
579.91	51.08
580.25	51.26
580.589	51.32
580.928	51.53
581.267	51.7
581.606	51.77
581.945	51.83
582.283	51.95
582.622	52.09
582.961	52.38
583.3	52.49
583.639	52.63
583.977	52.72
584.316	52.88
584.654	52.98
584.993	53.11
585.332	53.17
585.67	53.36
586.008	53.42
586.347	53.56
586.685	53.71
587.024	53.91
587.362	54.11
587.7	54.33
588.038	54.38
588.376	54.45
588.715	54.57
589.053	54.73
589.391	54.85
589.729	54.92
590.067	55.02
590.404	55.18
590.742	55.34
591.08	55.43
591.418	55.54
591.756	55.68
592.093	55.76
592.431	55.91
592.769	55.9
593.106	56.03
593.444	56.11
593.781	56.18
594.119	56.09
594.456	56.06
594.793	56.11
595.131	56.33
595.468	56.39
595.805	56.42
596.143	56.47
596.48	56.53
596.817	56.65
597.154	56.68
597.491	56.75
597.828	56.76
598.165	56.86
598.502	56.92
598.839	56.98
599.176	57.1
599.512	57.09
599.849	57.31
600.186	57.33
600.523	57.39
600.859	57.4
601.196	57.55
601.532	57.62
601.869	57.65
602.205	57.66
602.542	57.83
602.878	57.98
603.215	58.11
603.551	58.16
603.887	58.1
604.223	58.13
604.56	58.18
604.896	58.31
605.232	58.42
605.568	58.56
605.904	58.55
606.24	58.64
606.576	58.7
606.912	58.71
607.248	58.78
607.583	58.83
607.919	58.98
608.255	59.02
608.591	59.12
608.926	59.18
609.262	59.25
609.597	59.27
609.933	59.28
610.268	59.31
610.604	59.35
610.939	59.42
611.275	59.46
611.61	59.5
611.945	59.52
612.281	59.5
612.616	59.46
612.951	59.57
613.286	59.5
613.621	59.6
613.956	59.64
614.291	59.74
614.626	59.82
614.961	59.82
615.296	59.92
615.631	59.9
615.966	60.03
616.3	60.14
616.635	60.13
616.97	60.17
617.304	60.15
617.639	60.25
617.973	60.31
618.308	60.37
618.642	60.42
618.977	60.4
619.311	60.41
619.646	60.41
619.98	60.38
620.314	60.43
620.648	60.51
620.983	60.6
621.317	60.59
621.651	60.66
621.985	60.56
622.319	60.67
622.653	60.62
622.987	60.63
623.321	60.59
623.655	60.61
623.988	60.55
624.322	60.6
624.656	60.66
624.99	60.76
625.323	60.79
625.657	60.95
625.99	60.99
626.324	61.07
626.657	61.1
626.991	61.18
627.324	61.2
627.658	61.11
627.991	61.15
628.324	61.16
628.657	61.14
628.991	61.33
629.324	61.23
629.657	61.29
629.99	61.26
630.323	61.24
630.656	61.29
630.989	61.33
631.322	61.31
631.655	61.28
631.987	61.37
632.32	61.43
632.653	61.33
632.986	61.33
633.318	61.31
633.651	61.34
633.984	61.35
634.316	61.35
634.649	61.49
634.981	61.43
635.313	61.48
635.646	61.55
635.978	61.52
636.31	61.64
636.643	61.7
636.975	61.77
637.307	61.81
637.639	61.75
637.971	61.84
638.303	61.95
638.635	61.96
638.967	62.01
639.299	61.94
639.631	61.97
639.963	61.99
640.295	61.99
640.626	62.05
640.958	62.07
641.29	62.18
641.621	62.07
641.953	62.14
642.285	62.14
642.616	62.11
642.948	62.13
643.279	61.96
643.61	61.93
643.942	61.92
644.273	62.05
644.604	62.23
644.936	62.35
645.267	62.3
645.598	62.33
645.929	62.18
646.26	62.26
646.591	62.3
646.922	62.39
647.253	62.43
647.584	62.36
647.915	62.54
648.245	62.51
648.576	62.58
648.907	62.59
649.238	62.79
649.568	62.92
649.899	62.87
650.229	63.03
650.56	63.14
650.89	63.19
651.221	63.15
651.551	63.19
651.882	63.13
652.212	63.18
652.542	63.31
652.872	63.45
653.203	63.45
653.533	63.35
653.863	63.34
654.193	63.3
654.523	63.37
654.853	63.36
655.183	63.51
655.513	63.6
655.843	63.67
656.172	63.54
656.502	63.43
656.832	63.65
657.162	63.62
657.491	63.69
657.821	63.76
658.15	63.73
658.48	63.73
658.809	63.75
659.139	63.69
659.468	63.57
659.798	63.64
660.127	63.65
660.456	63.76
660.785	63.7
661.115	63.74
661.444	63.89
661.773	63.74
662.102	63.5
662.431	63.45
662.76	63.56
663.089	63.63
663.418	63.75
663.747	63.73
664.076	63.8
664.404	63.85
664.733	63.8
665.062	63.77
665.39	63.69
665.719	63.72
666.048	63.73
666.376	63.85
666.705	63.66
667.033	63.72
