Data from MVZ_BU26842_Reflection_00007.txt Node
Date: Tue Nov 19 12:18:24 EST 2019
User: vgr7
Spectrometer: USB2G7710
Scans to average: 3
Trigger mode: 4
Integration Time (sec): 2.000000E-2
Electric dark correction enabled: true
Boxcar width: 10
XAxis mode: Wavelengths
Number of Pixels in Spectrum: 2048
>>>>>Begin Spectral Data<<<<<
177.721	-78.1
178.105	7.41
178.488	127.78
178.871	-24.69
179.254	-366.67
179.636	-1455.56
180.019	229.63
180.402	172.73
180.785	18.52
181.168	-94.44
181.55	-42.36
181.933	-42.51
182.316	-0.25
182.698	-37.6
183.081	-50.36
183.463	64.91
183.846	-129.89
184.228	-622.22
184.611	-120.24
184.993	-62.04
185.376	-28.85
185.758	-28.82
186.14	-19.05
186.522	-30.24
186.904	-18.06
187.287	6.7
187.669	-3.33
188.051	-19.48
188.433	-50.34
188.815	-64.12
189.197	-63.98
189.579	-78.69
189.961	-76.55
190.342	-60.8
190.724	-66.67
191.106	-60.44
191.488	-80.89
191.869	-148.95
192.251	-6.06
192.633	16.67
193.014	2.12
193.396	-124.81
193.777	-83.91
194.159	-44.61
194.54	-13.05
194.922	-20.8
195.303	-45.83
195.684	-177.78
196.065	-41.2
196.447	27.17
196.828	42.79
197.209	25.79
197.59	21.13
197.971	22.72
198.352	26.13
198.733	23.03
199.114	9.86
199.495	22.26
199.876	21.03
200.257	0.36
200.638	-5.15
201.018	4.51
201.399	13.06
201.78	22.74
202.16	16.67
202.541	13.76
202.922	3.48
203.302	5.78
203.683	17.08
204.063	16.91
204.444	11.34
204.824	17.75
205.204	25.98
205.585	36.09
205.965	34.18
206.345	44.44
206.725	43.47
207.106	38.87
207.486	36.27
207.866	43.05
208.246	57.34
208.626	51.37
209.006	44.96
209.386	59.58
209.766	51.11
210.145	58.33
210.525	60.75
210.905	73.91
211.285	61.05
211.664	78.61
212.044	77.06
212.424	74.36
212.803	69.58
213.183	61.21
213.562	76.28
213.942	80.72
214.321	80.8
214.701	84.53
215.08	76.93
215.459	79.83
215.838	73.65
216.218	71.77
216.597	86.93
216.976	79.85
217.355	74.64
217.734	58.07
218.113	92.75
218.492	56.44
218.871	53.62
219.25	65.47
219.629	36.59
220.008	37.32
220.387	80.16
220.766	68.71
221.144	74.2
221.523	45.82
221.902	58.02
222.28	46.24
222.659	56.14
223.037	74.78
223.416	63.81
223.794	62.7
224.173	53.84
224.551	56.27
224.929	43.71
225.308	38.03
225.686	33.75
226.064	15.91
226.442	22.83
226.821	19.38
227.199	15.34
227.577	16.22
227.955	16.44
228.333	9.91
228.711	8.02
229.089	10.09
229.467	11.54
229.845	9.86
230.222	12.05
230.6	9.36
230.978	10.19
231.356	5.96
231.733	5.39
232.111	6.4
232.488	5.73
232.866	9.12
233.243	7.46
233.621	5.75
233.998	7.93
234.376	6.45
234.753	5.4
235.13	7.08
235.508	7.64
235.885	5.25
236.262	6.01
236.639	6.23
237.016	5.48
237.393	6.04
237.77	6.99
238.147	6.29
238.524	5.1
238.901	3.86
239.278	4.62
239.655	4.05
240.032	3.65
240.409	3.44
240.785	2.96
241.162	3.65
241.539	3.95
241.915	4.52
242.292	5.13
242.668	5.17
243.045	4.76
243.421	4.66
243.798	4.68
244.174	4.84
244.551	5.06
244.927	4.83
245.303	4.36
245.679	4.35
246.056	4.34
246.432	4.7
246.808	4.83
247.184	4.74
247.56	4.63
247.936	4.74
248.312	4.6
248.688	4.76
249.064	4.71
249.44	4.78
249.815	4.56
250.191	4.36
250.567	4.32
250.943	4.54
251.318	4.44
251.694	4.42
252.069	4.37
252.445	4.29
252.82	4.99
253.196	5.17
253.571	4.94
253.947	4.89
254.322	4.75
254.697	4.55
255.073	4.47
255.448	4.67
255.823	4.88
256.198	4.9
256.573	4.68
256.948	4.69
257.323	4.71
257.698	4.72
258.073	4.7
258.448	4.65
258.823	4.35
259.198	4.43
259.573	4.37
259.948	4.25
260.322	4.31
260.697	4.2
261.072	4.28
261.446	4.4
261.821	4.27
262.195	4.11
262.57	4.29
262.944	4.34
263.319	4.35
263.693	4.26
264.067	4.38
264.442	4.5
264.816	4.48
265.19	4.66
265.564	4.61
265.938	4.46
266.313	4.51
266.687	4.55
267.061	4.55
267.435	4.95
267.809	4.88
268.183	4.65
268.556	4.4
268.93	4.38
269.304	4.26
269.678	4.46
270.051	4.5
270.425	4.39
270.799	4.3
271.172	4.19
271.546	4.19
271.919	4.09
272.293	4.26
272.666	4.03
273.04	3.79
273.413	3.87
273.787	3.85
274.16	3.69
274.533	3.81
274.906	4
275.279	3.88
275.653	4.08
276.026	4.28
276.399	4.36
276.772	4.32
277.145	4.5
277.518	4.31
277.891	4.31
278.263	4.49
278.636	4.67
279.009	4.79
279.382	4.68
279.755	4.9
280.127	4.74
280.5	4.75
280.872	4.84
281.245	4.84
281.617	4.84
281.99	5.07
282.362	5.03
282.735	4.75
283.107	4.62
283.479	4.6
283.852	4.52
284.224	4.45
284.596	4.45
284.968	4.27
285.34	4.3
285.713	4.3
286.085	4.18
286.457	4.2
286.829	4.12
287.201	4.06
287.572	4.09
287.944	4.16
288.316	4.32
288.688	4.47
289.06	4.4
289.431	4.68
289.803	4.71
290.175	4.78
290.546	4.86
290.918	5.03
291.289	4.92
291.661	4.95
292.032	4.97
292.403	4.95
292.775	5.01
293.146	5.09
293.517	5.29
293.889	5.41
294.26	5.44
294.631	5.56
295.002	5.65
295.373	5.59
295.744	5.59
296.115	5.59
296.486	5.55
296.857	5.64
297.228	5.5
297.599	5.49
297.97	5.45
298.34	5.56
298.711	5.54
299.082	5.7
299.452	5.7
299.823	5.84
300.194	5.96
300.564	5.96
300.935	6.09
301.305	5.98
301.676	5.93
302.046	5.87
302.416	5.92
302.787	6.07
303.157	6.19
303.527	6.22
303.897	6.25
304.267	6.17
304.637	6.31
305.008	6.46
305.378	6.51
305.748	6.66
306.117	6.73
306.487	6.74
306.857	6.86
307.227	7.07
307.597	7.06
307.967	7.13
308.336	7.24
308.706	7.21
309.076	7.41
309.445	7.6
309.815	7.83
310.184	7.88
310.554	7.87
310.923	7.78
311.293	7.95
311.662	8.15
312.031	8.21
312.401	8.22
312.77	8.08
313.139	8.28
313.508	8.35
313.877	8.21
314.246	8.32
314.616	8.5
314.985	8.4
315.353	8.6
315.722	8.75
316.091	8.75
316.46	8.96
316.829	8.97
317.198	8.9
317.567	9
317.935	9.19
318.304	9.51
318.672	9.78
319.041	9.65
319.41	9.6
319.778	9.62
320.147	9.71
320.515	9.95
320.883	9.73
321.252	9.65
321.62	9.8
321.988	9.98
322.357	9.77
322.725	9.95
323.093	9.79
323.461	9.79
323.829	9.93
324.197	10.01
324.565	10.04
324.933	10.08
325.301	9.84
325.669	9.94
326.037	9.8
326.405	9.68
326.772	9.81
327.14	9.9
327.508	10
327.875	10.03
328.243	10.07
328.61	10.13
328.978	10.11
329.346	10.15
329.713	10.08
330.08	10.15
330.448	10.1
330.815	10.27
331.182	10.34
331.55	10.41
331.917	10.28
332.284	10.33
332.651	10.29
333.018	10.41
333.385	10.33
333.752	10.34
334.119	10.51
334.486	10.48
334.853	10.32
335.22	10.43
335.587	10.45
335.954	10.41
336.32	10.36
336.687	10.56
337.054	10.57
337.42	10.66
337.787	10.8
338.153	10.88
338.52	10.93
338.886	10.89
339.253	10.95
339.619	10.97
339.986	10.98
340.352	11.04
340.718	10.97
341.084	11
341.451	10.94
341.817	10.78
342.183	10.79
342.549	10.88
342.915	10.92
343.281	10.89
343.647	10.93
344.013	11.07
344.379	11.06
344.745	10.97
345.11	10.88
345.476	10.9
345.842	10.92
346.208	10.93
346.573	11.04
346.939	10.96
347.304	11.04
347.67	11.19
348.035	11.28
348.401	11.39
348.766	11.47
349.132	11.62
349.497	11.8
349.862	11.89
350.228	11.96
350.593	11.99
350.958	12.18
351.323	12.2
351.688	12.3
352.053	12.33
352.418	12.49
352.783	12.52
353.148	12.5
353.513	12.43
353.878	12.4
354.243	12.29
354.608	12.42
354.972	12.44
355.337	12.4
355.702	12.43
356.066	12.48
356.431	12.4
356.795	12.29
357.16	12.3
357.524	12.29
357.889	12.29
358.253	12.32
358.618	12.3
358.982	12.28
359.346	12.24
359.71	12.24
360.075	12.33
360.439	12.39
360.803	12.43
361.167	12.49
361.531	12.48
361.895	12.49
362.259	12.43
362.623	12.37
362.987	12.29
363.351	12.27
363.714	12.24
364.078	12.22
364.442	12.21
364.806	12.19
365.169	12.21
365.533	12.24
365.896	12.23
366.26	12.1
366.623	12.15
366.987	12.14
367.35	12.11
367.714	12.02
368.077	11.97
368.44	11.84
368.803	11.82
369.167	11.79
369.53	11.78
369.893	11.75
370.256	11.75
370.619	11.7
370.982	11.66
371.345	11.61
371.708	11.58
372.071	11.6
372.434	11.57
372.797	11.52
373.159	11.43
373.522	11.3
373.885	11.31
374.247	11.26
374.61	11.23
374.973	11.26
375.335	11.22
375.698	11.15
376.06	11.14
376.423	11.03
376.785	11
377.147	10.95
377.51	10.89
377.872	10.86
378.234	10.88
378.596	10.79
378.958	10.75
379.321	10.72
379.683	10.67
380.045	10.59
380.407	10.52
380.769	10.49
381.13	10.42
381.492	10.31
381.854	10.29
382.216	10.28
382.578	10.2
382.939	10.2
383.301	10.17
383.663	10.1
384.024	10.1
384.386	10.08
384.747	10.03
385.109	10.06
385.47	10.01
385.832	9.98
386.193	9.96
386.554	9.9
386.916	9.9
387.277	9.86
387.638	9.86
387.999	9.85
388.36	9.8
388.721	9.82
389.082	9.87
389.443	9.8
389.804	9.7
390.165	9.63
390.526	9.54
390.887	9.47
391.248	9.44
391.609	9.41
391.969	9.35
392.33	9.33
392.691	9.29
393.051	9.23
393.412	9.17
393.772	9.13
394.133	9.1
394.493	9.07
394.854	9.02
395.214	9
395.574	8.92
395.935	8.83
396.295	8.79
396.655	8.73
397.015	8.72
397.376	8.66
397.736	8.61
398.096	8.59
398.456	8.61
398.816	8.59
399.176	8.54
399.535	8.5
399.895	8.41
400.255	8.32
400.615	8.27
400.975	8.21
401.334	8.21
401.694	8.16
402.054	8.06
402.413	8.05
402.773	7.96
403.132	7.96
403.492	7.99
403.851	7.9
404.211	7.89
404.57	7.88
404.929	7.85
405.288	7.86
405.648	7.84
406.007	7.78
406.366	7.8
406.725	7.79
407.084	7.78
407.443	7.82
407.802	7.84
408.161	7.84
408.52	7.84
408.879	7.82
409.238	7.86
409.596	7.89
409.955	7.87
410.314	7.86
410.673	7.81
411.031	7.81
411.39	7.84
411.748	7.81
412.107	7.79
412.465	7.8
412.824	7.72
413.182	7.68
413.54	7.66
413.899	7.63
414.257	7.61
414.615	7.55
414.974	7.51
415.332	7.46
415.69	7.44
416.048	7.38
416.406	7.31
416.764	7.25
417.122	7.21
417.48	7.17
417.838	7.14
418.195	7.13
418.553	7.1
418.911	7.05
419.269	7.02
419.626	6.96
419.984	6.91
420.342	6.91
420.699	6.88
421.057	6.86
421.414	6.81
421.772	6.76
422.129	6.75
422.486	6.72
422.844	6.68
423.201	6.63
423.558	6.61
423.915	6.59
424.273	6.56
424.63	6.54
424.987	6.53
425.344	6.52
425.701	6.48
426.058	6.45
426.415	6.42
426.772	6.39
427.128	6.4
427.485	6.38
427.842	6.34
428.199	6.32
428.555	6.31
428.912	6.29
429.269	6.28
429.625	6.26
429.982	6.24
430.338	6.23
430.695	6.23
431.051	6.22
431.407	6.25
431.764	6.25
432.12	6.26
432.476	6.25
432.832	6.23
433.189	6.24
433.545	6.23
433.901	6.26
434.257	6.25
434.613	6.22
434.969	6.24
435.325	6.24
435.681	6.24
436.036	6.24
436.392	6.25
436.748	6.28
437.104	6.31
437.459	6.33
437.815	6.34
438.171	6.36
438.526	6.37
438.882	6.35
439.237	6.35
439.593	6.36
439.948	6.36
440.304	6.37
440.659	6.38
441.014	6.39
441.369	6.37
441.725	6.38
442.08	6.39
442.435	6.37
442.79	6.35
443.145	6.34
443.5	6.32
443.855	6.33
444.21	6.3
444.565	6.28
444.92	6.27
445.275	6.27
445.629	6.25
445.984	6.21
446.339	6.21
446.693	6.19
447.048	6.16
447.403	6.13
447.757	6.11
448.112	6.08
448.466	6.07
448.82	6.03
449.175	5.99
449.529	5.97
449.883	5.97
450.238	5.97
450.592	5.95
450.946	5.93
451.3	5.89
451.654	5.87
452.008	5.85
452.362	5.81
452.716	5.81
453.07	5.79
453.424	5.81
453.778	5.79
454.132	5.79
454.486	5.8
454.839	5.8
455.193	5.78
455.547	5.8
455.9	5.8
456.254	5.81
456.607	5.82
456.961	5.8
457.314	5.8
457.668	5.81
458.021	5.82
458.375	5.83
458.728	5.84
459.081	5.83
459.434	5.85
459.787	5.88
460.141	5.88
460.494	5.89
460.847	5.87
461.2	5.89
461.553	5.91
461.906	5.91
462.259	5.91
462.611	5.94
462.964	5.93
463.317	5.95
463.67	6.02
464.022	6.05
464.375	6.09
464.728	6.11
465.08	6.14
465.433	6.18
465.785	6.22
466.138	6.27
466.49	6.31
466.843	6.35
467.195	6.36
467.547	6.37
467.899	6.41
468.252	6.47
468.604	6.47
468.956	6.49
469.308	6.52
469.66	6.57
470.012	6.61
470.364	6.63
470.716	6.65
471.068	6.67
471.42	6.71
471.772	6.73
472.123	6.77
472.475	6.76
472.827	6.79
473.178	6.79
473.53	6.81
473.882	6.8
474.233	6.79
474.585	6.83
474.936	6.81
475.288	6.83
475.639	6.85
475.99	6.84
476.342	6.85
476.693	6.85
477.044	6.84
477.395	6.84
477.746	6.82
478.097	6.8
478.448	6.75
478.8	6.71
479.15	6.7
479.501	6.66
479.852	6.66
480.203	6.64
480.554	6.61
480.905	6.59
481.255	6.58
481.606	6.59
481.957	6.57
482.307	6.56
482.658	6.56
483.009	6.56
483.359	6.56
483.709	6.54
484.06	6.53
484.41	6.51
484.761	6.51
485.111	6.51
485.461	6.5
485.811	6.49
486.162	6.5
486.512	6.5
486.862	6.49
487.212	6.47
487.562	6.47
487.912	6.48
488.262	6.48
488.612	6.49
488.961	6.47
489.311	6.47
489.661	6.47
490.011	6.46
490.36	6.45
490.71	6.44
491.06	6.44
491.409	6.43
491.759	6.46
492.108	6.47
492.458	6.48
492.807	6.49
493.157	6.52
493.506	6.53
493.855	6.55
494.204	6.59
494.554	6.62
494.903	6.67
495.252	6.7
495.601	6.74
495.95	6.79
496.299	6.86
496.648	6.92
496.997	7
497.346	7.08
497.695	7.15
498.043	7.24
498.392	7.32
498.741	7.43
499.09	7.5
499.438	7.63
499.787	7.73
500.135	7.84
500.484	7.93
500.832	8.05
501.181	8.18
501.529	8.3
501.878	8.45
502.226	8.6
502.574	8.7
502.923	8.86
503.271	8.98
503.619	9.13
503.967	9.29
504.315	9.43
504.663	9.56
505.011	9.72
505.359	9.89
505.707	10.06
506.055	10.24
506.403	10.41
506.751	10.55
507.098	10.75
507.446	10.92
507.794	11.13
508.141	11.32
508.489	11.52
508.837	11.7
509.184	11.89
509.531	12.06
509.879	12.27
510.226	12.48
510.574	12.7
510.921	12.9
511.268	13.11
511.616	13.35
511.963	13.6
512.31	13.82
512.657	14.02
513.004	14.24
513.351	14.49
513.698	14.72
514.045	14.97
514.392	15.2
514.739	15.48
515.086	15.71
515.432	15.97
515.779	16.19
516.126	16.44
516.473	16.68
516.819	16.95
517.166	17.17
517.512	17.4
517.859	17.58
518.205	17.8
518.552	17.98
518.898	18.14
519.245	18.36
519.591	18.54
519.937	18.77
520.283	18.96
520.629	19.16
520.976	19.41
521.322	19.65
521.668	19.88
522.014	20.13
522.36	20.4
522.706	20.64
523.052	20.94
523.398	21.21
523.743	21.5
524.089	21.78
524.435	22.07
524.781	22.32
525.126	22.56
525.472	22.8
525.817	23
526.163	23.2
526.509	23.38
526.854	23.56
527.199	23.74
527.545	23.92
527.89	24.07
528.235	24.24
528.581	24.41
528.926	24.6
529.271	24.75
529.616	24.93
529.961	25.12
530.306	25.3
530.651	25.49
530.996	25.71
531.341	25.92
531.686	26.12
532.031	26.34
532.376	26.56
532.721	26.8
533.065	27.04
533.41	27.31
533.755	27.57
534.099	27.85
534.444	28.12
534.788	28.39
535.133	28.65
535.477	28.88
535.822	29.15
536.166	29.45
536.51	29.73
536.855	30.03
537.199	30.29
537.543	30.6
537.887	30.95
538.231	31.26
538.576	31.57
538.92	31.9
539.264	32.21
539.608	32.57
539.951	32.79
540.295	33.09
540.639	33.29
540.983	33.52
541.327	33.73
541.671	33.92
542.014	34.18
542.358	34.41
542.701	34.64
543.045	34.88
543.389	35.07
543.732	35.28
544.075	35.5
544.419	35.78
544.762	35.97
545.105	36.17
545.449	36.35
545.792	36.58
546.135	36.8
546.478	37.03
546.821	37.25
547.165	37.55
547.508	37.77
547.851	38.04
548.194	38.29
548.536	38.55
548.879	38.78
549.222	38.99
549.565	39.25
549.908	39.48
550.25	39.65
550.593	39.89
550.936	40.15
551.278	40.39
551.621	40.59
551.963	40.83
552.306	41.08
552.648	41.31
552.991	41.51
553.333	41.68
553.675	41.87
554.017	42.09
554.36	42.26
554.702	42.45
555.044	42.64
555.386	42.8
555.728	42.97
556.07	43.14
556.412	43.28
556.754	43.4
557.096	43.58
557.438	43.71
557.78	43.89
558.121	44.01
558.463	44.21
558.805	44.4
559.147	44.62
559.488	44.78
559.83	45.03
560.171	45.19
560.513	45.38
560.854	45.49
561.196	45.58
561.537	45.76
561.878	45.9
562.22	46.06
562.561	46.26
562.902	46.32
563.243	46.43
563.584	46.59
563.925	46.78
564.266	46.82
564.607	47.08
564.948	47.18
565.289	47.41
565.63	47.49
565.971	47.55
566.312	47.63
566.653	47.68
566.993	47.73
567.334	47.82
567.675	47.96
568.015	48.1
568.356	48.23
568.696	48.32
569.037	48.43
569.377	48.54
569.718	48.58
570.058	48.71
570.398	48.87
570.739	48.91
571.079	49.02
571.419	49.15
571.759	49.18
572.099	49.26
572.439	49.26
572.779	49.34
573.119	49.49
573.459	49.59
573.799	49.7
574.139	49.78
574.479	49.88
574.819	49.96
575.158	50.05
575.498	50.15
575.838	50.2
576.177	50.26
576.517	50.27
576.856	50.35
577.196	50.39
577.535	50.5
577.875	50.56
578.214	50.59
578.553	50.67
578.893	50.69
579.232	50.76
579.571	50.81
579.91	50.79
580.25	50.77
580.589	50.83
580.928	50.92
581.267	50.88
581.606	50.91
581.945	50.87
582.283	50.86
582.622	50.86
582.961	50.94
583.3	50.98
583.639	51.07
583.977	51.14
584.316	51.27
584.654	51.27
584.993	51.39
585.332	51.49
585.67	51.59
586.008	51.71
586.347	51.82
586.685	51.89
587.024	52.04
587.362	52.15
587.7	52.29
588.038	52.39
588.376	52.65
588.715	52.77
589.053	52.94
589.391	53.08
589.729	53.16
590.067	53.19
590.404	53.24
590.742	53.33
591.08	53.37
591.418	53.46
591.756	53.54
592.093	53.61
592.431	53.61
592.769	53.62
593.106	53.66
593.444	53.75
593.781	53.86
594.119	53.82
594.456	53.83
594.793	53.85
595.131	53.9
595.468	53.86
595.805	53.83
596.143	53.86
596.48	53.9
596.817	53.92
597.154	53.93
597.491	53.95
597.828	53.94
598.165	54.05
598.502	54.09
598.839	54.16
599.176	54.17
599.512	54.17
599.849	54.24
600.186	54.28
600.523	54.22
600.859	54.28
601.196	54.42
601.532	54.56
601.869	54.55
602.205	54.5
602.542	54.51
602.878	54.57
603.215	54.51
603.551	54.48
603.887	54.5
604.223	54.56
604.56	54.69
604.896	54.72
605.232	54.73
605.568	54.68
605.904	54.63
606.24	54.61
606.576	54.71
606.912	54.75
607.248	54.77
607.583	54.8
607.919	54.81
608.255	54.77
608.591	54.71
608.926	54.73
609.262	54.75
609.597	54.8
609.933	54.81
610.268	54.9
610.604	54.88
610.939	54.93
611.275	54.88
611.61	54.77
611.945	54.76
612.281	54.75
612.616	54.82
612.951	54.9
613.286	54.95
613.621	54.96
613.956	54.98
614.291	54.97
614.626	55.01
614.961	55.02
615.296	55.07
615.631	55.09
615.966	55.12
616.3	55.15
616.635	55.16
616.97	55.25
617.304	55.19
617.639	55.36
617.973	55.37
618.308	55.39
618.642	55.47
618.977	55.54
619.311	55.54
619.646	55.5
619.98	55.54
620.314	55.64
620.648	55.73
620.983	55.73
621.317	55.73
621.651	55.77
621.985	55.72
622.319	55.77
622.653	55.79
622.987	55.85
623.321	55.96
623.655	55.95
623.988	55.97
624.322	56.04
624.656	56.08
624.99	56.05
625.323	56.08
625.657	56.08
625.99	56.1
626.324	56.09
626.657	56.14
626.991	56.15
627.324	56.13
627.658	56.11
627.991	56.15
628.324	56.16
628.657	56.2
628.991	56.29
629.324	56.3
629.657	56.32
629.99	56.29
630.323	56.27
630.656	56.28
630.989	56.29
631.322	56.28
631.655	56.2
631.987	56.23
632.32	56.2
632.653	56.21
632.986	56.2
633.318	56.22
633.651	56.25
633.984	56.28
634.316	56.35
634.649	56.26
634.981	56.26
635.313	56.35
635.646	56.37
635.978	56.42
636.31	56.42
636.643	56.53
636.975	56.6
637.307	56.58
637.639	56.57
637.971	56.59
638.303	56.65
638.635	56.73
638.967	56.82
639.299	56.96
639.631	57.01
639.963	57.04
640.295	57.07
640.626	57.05
640.958	56.94
641.29	56.9
641.621	57.01
641.953	57.05
642.285	57.03
642.616	56.96
642.948	56.9
643.279	56.78
643.61	56.69
643.942	56.64
644.273	56.79
644.604	56.8
644.936	56.8
645.267	56.78
645.598	56.81
645.929	56.7
646.26	56.64
646.591	56.64
646.922	56.61
647.253	56.63
647.584	56.59
647.915	56.59
648.245	56.65
648.576	56.59
648.907	56.49
649.238	56.47
649.568	56.57
649.899	56.54
650.229	56.58
650.56	56.57
650.89	56.57
651.221	56.48
651.551	56.54
651.882	56.56
652.212	56.52
652.542	56.49
652.872	56.51
653.203	56.61
653.533	56.69
653.863	56.67
654.193	56.82
654.523	56.91
654.853	57.08
655.183	57.11
655.513	57.15
655.843	57.25
656.172	57.39
656.502	57.42
656.832	57.5
657.162	57.7
657.491	57.62
657.821	57.73
658.15	57.8
658.48	57.82
658.809	57.82
659.139	57.88
659.468	57.87
659.798	58.05
660.127	58.05
660.456	57.93
660.785	57.95
661.115	57.92
661.444	57.85
661.773	57.81
662.102	57.74
662.431	57.81
662.76	57.78
663.089	57.73
663.418	57.65
663.747	57.71
664.076	57.68
664.404	57.75
664.733	57.64
