Data from MVZ_BU8942_Reflection_00011.txt Node
Date: Tue Nov 19 12:04:09 EST 2019
User: vgr7
Spectrometer: USB2G7710
Scans to average: 3
Trigger mode: 4
Integration Time (sec): 2.000000E-2
Electric dark correction enabled: true
Boxcar width: 10
XAxis mode: Wavelengths
Number of Pixels in Spectrum: 2048
>>>>>Begin Spectral Data<<<<<
177.721	-61.7
178.105	-114.29
178.488	-119.1
178.871	-200
179.254	-140
179.636	56.2
180.019	218.81
180.402	59.09
180.785	-164
181.168	-1068.6
181.55	1814.29
181.933	-357.63
182.316	-306.08
182.698	-512.68
183.081	-590.65
183.463	-742.98
183.846	-259.59
184.228	-350.67
184.611	-310.79
184.993	-350
185.376	-258.13
185.758	-277.62
186.14	-340.43
186.522	-599.15
186.904	-443.75
187.287	-390.78
187.669	-436.84
188.051	-379.76
188.433	-300.72
188.815	-286.19
189.197	-142.05
189.579	-129.95
189.961	-195.37
190.342	-83.92
190.724	-31.13
191.106	-29.19
191.488	-19.58
191.869	-28.11
192.251	0.14
192.633	-5.63
193.014	-13.05
193.396	-11.36
193.777	-5.24
194.159	-9.31
194.54	-24.89
194.922	-27.07
195.303	-22.16
195.684	-23.98
196.065	-6.89
196.447	-22.6
196.828	-27.7
197.209	-38.1
197.59	-46.49
197.971	-20.14
198.352	-32.02
198.733	-86.8
199.114	-131.59
199.495	-247.49
199.876	-204.43
200.257	-225.66
200.638	-208.54
201.018	-197.71
201.399	-151.27
201.78	-138.88
202.16	-144.9
202.541	-131.85
202.922	-224.91
203.302	-169.7
203.683	-192.5
204.063	-211.69
204.444	-160.55
204.824	-143.24
205.204	-106.21
205.585	-91.24
205.965	-197.95
206.345	-141
206.725	-51.63
207.106	-16.88
207.486	-18.56
207.866	-35.58
208.246	-48.35
208.626	-67.43
209.006	-86.42
209.386	-128.66
209.766	-185.37
210.145	-109.76
210.525	-102.7
210.905	-51.86
211.285	-27.07
211.664	-13.79
212.044	-13.98
212.424	-23.8
212.803	-34.51
213.183	-46.2
213.562	-47.1
213.942	-50.78
214.321	-58.32
214.701	-83.99
215.08	-88.01
215.459	-12.97
215.838	-10.46
216.218	-6.04
216.597	-3.45
216.976	-9.82
217.355	-18.62
217.734	-33.44
218.113	29.48
218.492	16.8
218.871	20.31
219.25	37.95
219.629	21.45
220.008	36.42
220.387	17.06
220.766	35.55
221.144	39.17
221.523	26.55
221.902	33.19
222.28	33.48
222.659	37.96
223.037	26.34
223.416	19.02
223.794	28.36
224.173	26.81
224.551	26.38
224.929	19.39
225.308	24.16
225.686	27.71
226.064	19.19
226.442	21.16
226.821	19.5
227.199	17.5
227.577	18.85
227.955	17.59
228.333	20.39
228.711	19.3
229.089	20.61
229.467	23.51
229.845	22.68
230.222	18.61
230.6	14.57
230.978	16.26
231.356	16.64
231.733	13.14
232.111	15.39
232.488	13.7
232.866	15.49
233.243	13.78
233.621	13.35
233.998	12.68
234.376	11.52
234.753	10.57
235.13	8.5
235.508	9.8
235.885	9.56
236.262	8.84
236.639	7.04
237.016	7.66
237.393	6.07
237.77	4.8
238.147	5.86
238.524	5.76
238.901	4.97
239.278	4.54
239.655	4.5
240.032	4.25
240.409	4.42
240.785	4.75
241.162	5.16
241.539	4.45
241.915	5.02
242.292	4.8
242.668	5.12
243.045	5.47
243.421	5.03
243.798	5.03
244.174	4.83
244.551	4.74
244.927	4.54
245.303	4.6
245.679	4.94
246.056	4.68
246.432	4.89
246.808	4.9
247.184	4.99
247.56	4.79
247.936	4.76
248.312	4.85
248.688	4.89
249.064	4.54
249.44	4.66
249.815	4.41
250.191	4.59
250.567	4.51
250.943	4.25
251.318	4.29
251.694	4.15
252.069	4.47
252.445	4.56
252.82	4.68
253.196	4.75
253.571	4.6
253.947	4.57
254.322	4.24
254.697	4.1
255.073	3.83
255.448	3.98
255.823	3.72
256.198	3.43
256.573	3.26
256.948	3.37
257.323	3.42
257.698	3.5
258.073	3.45
258.448	3.54
258.823	3.61
259.198	3.78
259.573	3.76
259.948	3.66
260.322	3.62
260.697	3.61
261.072	3.66
261.446	3.65
261.821	3.79
262.195	3.73
262.57	3.83
262.944	3.98
263.319	4.1
263.693	4.04
264.067	3.84
264.442	3.73
264.816	3.84
265.19	3.86
265.564	3.8
265.938	3.83
266.313	3.65
266.687	3.72
267.061	3.53
267.435	3.58
267.809	3.53
268.183	3.49
268.556	3.48
268.93	3.39
269.304	3.24
269.678	3.24
270.051	3.35
270.425	3.12
270.799	2.96
271.172	3.07
271.546	3.3
271.919	3.56
272.293	3.8
272.666	3.74
273.04	3.77
273.413	3.9
273.787	3.74
274.16	3.79
274.533	3.82
274.906	3.91
275.279	3.89
275.653	4.08
276.026	4.26
276.399	4.2
276.772	4.3
277.145	4.52
277.518	4.46
277.891	4.55
278.263	4.71
278.636	4.81
279.009	4.77
279.382	4.84
279.755	4.92
280.127	4.78
280.5	4.7
280.872	4.63
281.245	4.51
281.617	4.62
281.99	4.59
282.362	4.55
282.735	4.22
283.107	3.98
283.479	3.8
283.852	3.73
284.224	3.78
284.596	3.62
284.968	3.53
285.34	3.46
285.713	3.43
286.085	3.49
286.457	3.48
286.829	3.45
287.201	3.4
287.572	3.23
287.944	3.39
288.316	3.39
288.688	3.47
289.06	3.43
289.431	3.41
289.803	3.39
290.175	3.33
290.546	3.43
290.918	3.49
291.289	3.43
291.661	3.46
292.032	3.38
292.403	3.45
292.775	3.52
293.146	3.59
293.517	3.52
293.889	3.43
294.26	3.48
294.631	3.49
295.002	3.44
295.373	3.53
295.744	3.47
296.115	3.53
296.486	3.44
296.857	3.61
297.228	3.58
297.599	3.58
297.97	3.73
298.34	3.93
298.711	3.97
299.082	4.11
299.452	4.19
299.823	4.33
300.194	4.42
300.564	4.37
300.935	4.51
301.305	4.48
301.676	4.51
302.046	4.53
302.416	4.5
302.787	4.53
303.157	4.36
303.527	4.44
303.897	4.55
304.267	4.55
304.637	4.52
305.008	4.67
305.378	4.79
305.748	4.68
306.117	4.67
306.487	4.79
306.857	4.85
307.227	4.84
307.597	4.86
307.967	4.78
308.336	4.77
308.706	4.75
309.076	4.99
309.445	4.93
309.815	4.9
310.184	4.93
310.554	4.98
310.923	5.15
311.293	5.19
311.662	5.17
312.031	5.12
312.401	5.06
312.77	5.1
313.139	5.06
313.508	4.99
313.877	4.99
314.246	4.91
314.616	4.92
314.985	5
315.353	5.04
315.722	5.23
316.091	5.33
316.46	5.36
316.829	5.28
317.198	5.31
317.567	5.51
317.935	5.52
318.304	5.72
318.672	5.88
319.041	5.9
319.41	5.87
319.778	6
320.147	6.14
320.515	6.25
320.883	6.35
321.252	6.47
321.62	6.36
321.988	6.56
322.357	6.41
322.725	6.24
323.093	6.15
323.461	6.02
323.829	6.02
324.197	6.06
324.565	6.17
324.933	6.26
325.301	6.13
325.669	6.18
326.037	6.06
326.405	5.98
326.772	5.97
327.14	6
327.508	6.05
327.875	6.05
328.243	5.87
328.61	5.86
328.978	5.79
329.346	5.83
329.713	5.8
330.08	5.91
330.448	6
330.815	6.23
331.182	6.22
331.55	6.19
331.917	6.12
332.284	6.1
332.651	6.26
333.018	6.33
333.385	6.29
333.752	6.39
334.119	6.38
334.486	6.29
334.853	6.21
335.22	6.2
335.587	6.09
335.954	6.22
336.32	6.11
336.687	6.42
337.054	6.44
337.42	6.5
337.787	6.49
338.153	6.6
338.52	6.48
338.886	6.61
339.253	6.61
339.619	6.65
339.986	6.6
340.352	6.54
340.718	6.53
341.084	6.66
341.451	6.66
341.817	6.88
342.183	6.88
342.549	6.93
342.915	6.99
343.281	7.04
343.647	7
344.013	7.22
344.379	7.03
344.745	7.04
345.11	6.86
345.476	7.01
345.842	6.92
346.208	6.83
346.573	6.83
346.939	6.9
347.304	6.97
347.67	7.06
348.035	7.01
348.401	7.04
348.766	6.99
349.132	7.03
349.497	7
349.862	7.08
350.228	7.12
350.593	7.19
350.958	7.24
351.323	7.27
351.688	7.19
352.053	7.27
352.418	7.41
352.783	7.43
353.148	7.37
353.513	7.31
353.878	7.4
354.243	7.34
354.608	7.36
354.972	7.2
355.337	7.12
355.702	7.15
356.066	7.18
356.431	7.21
356.795	7.21
357.16	7.22
357.524	7.18
357.889	7.13
358.253	7.07
358.618	7.03
358.982	7.02
359.346	7.01
359.71	6.99
360.075	6.9
360.439	6.97
360.803	7
361.167	6.99
361.531	6.97
361.895	7.03
362.259	6.99
362.623	7.04
362.987	7.09
363.351	7.04
363.714	7.05
364.078	7.03
364.442	6.94
364.806	6.93
365.169	6.91
365.533	7
365.896	7.02
366.26	7.02
366.623	6.97
366.987	7.02
367.35	6.98
367.714	7.02
368.077	7.04
368.44	6.94
368.803	6.97
369.167	6.95
369.53	6.84
369.893	6.9
370.256	6.93
370.619	6.86
370.982	6.84
371.345	6.83
371.708	6.77
372.071	6.74
372.434	6.65
372.797	6.64
373.159	6.52
373.522	6.4
373.885	6.37
374.247	6.35
374.61	6.23
374.973	6.22
375.335	6.23
375.698	6.1
376.06	6.06
376.423	5.99
376.785	5.92
377.147	5.94
377.51	5.89
377.872	5.79
378.234	5.79
378.596	5.83
378.958	5.78
379.321	5.67
379.683	5.68
380.045	5.65
380.407	5.6
380.769	5.58
381.13	5.6
381.492	5.55
381.854	5.54
382.216	5.5
382.578	5.45
382.939	5.38
383.301	5.4
383.663	5.39
384.024	5.4
384.386	5.38
384.747	5.36
385.109	5.36
385.47	5.39
385.832	5.33
386.193	5.29
386.554	5.18
386.916	5.18
387.277	5.14
387.638	5.16
387.999	5.19
388.36	5.19
388.721	5.16
389.082	5.2
389.443	5.23
389.804	5.27
390.165	5.25
390.526	5.2
390.887	5.18
391.248	5.22
391.609	5.22
391.969	5.22
392.33	5.21
392.691	5.18
393.051	5.17
393.412	5.19
393.772	5.17
394.133	5.18
394.493	5.17
394.854	5.15
395.214	5.11
395.574	5.04
395.935	5.04
396.295	5.02
396.655	4.96
397.015	4.91
397.376	4.87
397.736	4.82
398.096	4.82
398.456	4.8
398.816	4.73
399.176	4.7
399.535	4.65
399.895	4.58
400.255	4.51
400.615	4.44
400.975	4.41
401.334	4.39
401.694	4.41
402.054	4.39
402.413	4.4
402.773	4.36
403.132	4.34
403.492	4.33
403.851	4.3
404.211	4.28
404.57	4.23
404.929	4.2
405.288	4.19
405.648	4.18
406.007	4.18
406.366	4.16
406.725	4.14
407.084	4.13
407.443	4.14
407.802	4.16
408.161	4.17
408.52	4.15
408.879	4.13
409.238	4.12
409.596	4.12
409.955	4.08
410.314	4.06
410.673	4.06
411.031	4.01
411.39	4.01
411.748	4.05
412.107	4.02
412.465	4.02
412.824	4
413.182	3.98
413.54	3.96
413.899	3.95
414.257	3.94
414.615	3.95
414.974	3.92
415.332	3.89
415.69	3.87
416.048	3.87
416.406	3.85
416.764	3.81
417.122	3.82
417.48	3.82
417.838	3.82
418.195	3.81
418.553	3.8
418.911	3.79
419.269	3.75
419.626	3.75
419.984	3.72
420.342	3.73
420.699	3.71
421.057	3.7
421.414	3.7
421.772	3.69
422.129	3.68
422.486	3.68
422.844	3.68
423.201	3.68
423.558	3.67
423.915	3.67
424.273	3.66
424.63	3.66
424.987	3.65
425.344	3.64
425.701	3.64
426.058	3.64
426.415	3.64
426.772	3.64
427.128	3.64
427.485	3.65
427.842	3.63
428.199	3.65
428.555	3.64
428.912	3.63
429.269	3.61
429.625	3.59
429.982	3.61
430.338	3.61
430.695	3.6
431.051	3.61
431.407	3.61
431.764	3.6
432.12	3.61
432.476	3.62
432.832	3.64
433.189	3.62
433.545	3.63
433.901	3.6
434.257	3.61
434.613	3.6
434.969	3.6
435.325	3.6
435.681	3.6
436.036	3.62
436.392	3.61
436.748	3.62
437.104	3.62
437.459	3.6
437.815	3.61
438.171	3.6
438.526	3.59
438.882	3.59
439.237	3.57
439.593	3.57
439.948	3.56
440.304	3.54
440.659	3.55
441.014	3.54
441.369	3.54
441.725	3.55
442.08	3.54
442.435	3.55
442.79	3.53
443.145	3.52
443.5	3.51
443.855	3.53
444.21	3.53
444.565	3.54
444.92	3.54
445.275	3.53
445.629	3.53
445.984	3.53
446.339	3.52
446.693	3.55
447.048	3.53
447.403	3.52
447.757	3.51
448.112	3.51
448.466	3.52
448.82	3.53
449.175	3.53
449.529	3.55
449.883	3.52
450.238	3.54
450.592	3.54
450.946	3.54
451.3	3.53
451.654	3.52
452.008	3.52
452.362	3.53
452.716	3.52
453.07	3.51
453.424	3.51
453.778	3.5
454.132	3.48
454.486	3.51
454.839	3.51
455.193	3.54
455.547	3.54
455.9	3.53
456.254	3.49
456.607	3.49
456.961	3.47
457.314	3.51
457.668	3.51
458.021	3.49
458.375	3.49
458.728	3.48
459.081	3.5
459.434	3.48
459.787	3.46
460.141	3.45
460.494	3.47
460.847	3.46
461.2	3.48
461.553	3.5
461.906	3.49
462.259	3.47
462.611	3.47
462.964	3.45
463.317	3.45
463.67	3.48
464.022	3.49
464.375	3.49
464.728	3.49
465.08	3.47
465.433	3.5
465.785	3.52
466.138	3.55
466.49	3.56
466.843	3.58
467.195	3.59
467.547	3.62
467.899	3.62
468.252	3.66
468.604	3.65
468.956	3.63
469.308	3.66
469.66	3.67
470.012	3.66
470.364	3.71
470.716	3.73
471.068	3.74
471.42	3.74
471.772	3.75
472.123	3.79
472.475	3.83
472.827	3.83
473.178	3.84
473.53	3.83
473.882	3.83
474.233	3.83
474.585	3.85
474.936	3.85
475.288	3.86
475.639	3.84
475.99	3.85
476.342	3.87
476.693	3.88
477.044	3.88
477.395	3.9
477.746	3.88
478.097	3.87
478.448	3.86
478.8	3.83
479.15	3.84
479.501	3.79
479.852	3.77
480.203	3.77
480.554	3.75
480.905	3.74
481.255	3.74
481.606	3.76
481.957	3.76
482.307	3.75
482.658	3.75
483.009	3.74
483.359	3.73
483.709	3.72
484.06	3.72
484.41	3.73
484.761	3.73
485.111	3.72
485.461	3.72
485.811	3.72
486.162	3.73
486.512	3.73
486.862	3.74
487.212	3.74
487.562	3.74
487.912	3.74
488.262	3.74
488.612	3.74
488.961	3.73
489.311	3.73
489.661	3.74
490.011	3.74
490.36	3.74
490.71	3.75
491.06	3.77
491.409	3.76
491.759	3.77
492.108	3.77
492.458	3.79
492.807	3.79
493.157	3.79
493.506	3.8
493.855	3.8
494.204	3.81
494.554	3.83
494.903	3.86
495.252	3.88
495.601	3.9
495.95	3.92
496.299	3.94
496.648	3.98
496.997	3.98
497.346	4.03
497.695	4.07
498.043	4.11
498.392	4.12
498.741	4.16
499.09	4.18
499.438	4.23
499.787	4.22
500.135	4.28
500.484	4.33
500.832	4.38
501.181	4.43
501.529	4.5
501.878	4.51
502.226	4.55
502.574	4.59
502.923	4.64
503.271	4.72
503.619	4.76
503.967	4.78
504.315	4.84
504.663	4.88
505.011	4.92
505.359	4.96
505.707	5.04
506.055	5.11
506.403	5.17
506.751	5.24
507.098	5.34
507.446	5.4
507.794	5.47
508.141	5.53
508.489	5.6
508.837	5.64
509.184	5.72
509.531	5.79
509.879	5.87
510.226	5.91
510.574	5.97
510.921	6.05
511.268	6.12
511.616	6.22
511.963	6.3
512.31	6.36
512.657	6.46
513.004	6.54
513.351	6.63
513.698	6.73
514.045	6.8
514.392	6.88
514.739	7.01
515.086	7.11
515.432	7.22
515.779	7.31
516.126	7.45
516.473	7.58
516.819	7.66
517.166	7.76
517.512	7.88
517.859	7.95
518.205	8.02
518.552	8.13
518.898	8.22
519.245	8.32
519.591	8.43
519.937	8.54
520.283	8.66
520.629	8.76
520.976	8.87
521.322	8.99
521.668	9.11
522.014	9.21
522.36	9.3
522.706	9.43
523.052	9.59
523.398	9.74
523.743	9.88
524.089	10.05
524.435	10.19
524.781	10.33
525.126	10.44
525.472	10.56
525.817	10.68
526.163	10.76
526.509	10.86
526.854	10.96
527.199	11.03
527.545	11.12
527.89	11.2
528.235	11.3
528.581	11.4
528.926	11.48
529.271	11.58
529.616	11.7
529.961	11.78
530.306	11.88
530.651	11.96
530.996	12.07
531.341	12.18
531.686	12.29
532.031	12.4
532.376	12.53
532.721	12.66
533.065	12.79
533.41	12.92
533.755	13.04
534.099	13.17
534.444	13.32
534.788	13.45
535.133	13.59
535.477	13.73
535.822	13.89
536.166	14.04
536.51	14.2
536.855	14.38
537.199	14.54
537.543	14.73
537.887	14.91
538.231	15.1
538.576	15.29
538.92	15.47
539.264	15.67
539.608	15.85
539.951	16.01
540.295	16.19
540.639	16.36
540.983	16.5
541.327	16.65
541.671	16.81
542.014	16.97
542.358	17.11
542.701	17.25
543.045	17.4
543.389	17.59
543.732	17.74
544.075	17.91
544.419	18.13
544.762	18.28
545.105	18.48
545.449	18.66
545.792	18.85
546.135	19.08
546.478	19.27
546.821	19.5
547.165	19.71
547.508	19.93
547.851	20.16
548.194	20.43
548.536	20.68
548.879	20.94
549.222	21.19
549.565	21.44
549.908	21.71
550.25	21.95
550.593	22.19
550.936	22.46
551.278	22.68
551.621	22.89
551.963	23.24
552.306	23.5
552.648	23.76
552.991	24.02
553.333	24.29
553.675	24.55
554.017	24.8
554.36	25.12
554.702	25.39
555.044	25.63
555.386	25.93
555.728	26.18
556.07	26.4
556.412	26.64
556.754	26.93
557.096	27.2
557.438	27.48
557.78	27.78
558.121	28.08
558.463	28.39
558.805	28.65
559.147	28.88
559.488	29.14
559.83	29.41
560.171	29.66
560.513	29.91
560.854	30.23
561.196	30.48
561.537	30.73
561.878	30.99
562.22	31.23
562.561	31.46
562.902	31.7
563.243	31.98
563.584	32.23
563.925	32.49
564.266	32.74
564.607	32.95
564.948	33.18
565.289	33.43
565.63	33.6
565.971	33.84
566.312	34.06
566.653	34.27
566.993	34.51
567.334	34.75
567.675	34.98
568.015	35.19
568.356	35.46
568.696	35.68
569.037	35.86
569.377	36.12
569.718	36.35
570.058	36.57
570.398	36.82
570.739	37.06
571.079	37.31
571.419	37.51
571.759	37.7
572.099	37.87
572.439	37.99
572.779	38.21
573.119	38.42
573.459	38.64
573.799	38.82
574.139	39.02
574.479	39.17
574.819	39.28
575.158	39.43
575.498	39.52
575.838	39.65
576.177	39.83
576.517	39.97
576.856	40.12
577.196	40.34
577.535	40.46
577.875	40.65
578.214	40.71
578.553	40.89
578.893	41.12
579.232	41.25
579.571	41.46
579.91	41.62
580.25	41.79
580.589	41.88
580.928	42.03
581.267	42.19
581.606	42.36
581.945	42.58
582.283	42.74
582.622	42.89
582.961	43.05
583.3	43.25
583.639	43.47
583.977	43.62
584.316	43.67
584.654	43.84
584.993	43.95
585.332	44.18
585.67	44.23
586.008	44.32
586.347	44.53
586.685	44.63
587.024	44.72
587.362	44.8
587.7	44.84
588.038	45.02
588.376	45.05
588.715	45.12
589.053	45.21
589.391	45.33
589.729	45.44
590.067	45.59
590.404	45.67
590.742	45.77
591.08	45.89
591.418	46.01
591.756	46.04
592.093	46.05
592.431	46.16
592.769	46.3
593.106	46.35
593.444	46.43
593.781	46.57
594.119	46.73
594.456	46.78
594.793	46.92
595.131	46.94
595.468	47.01
595.805	47.18
596.143	47.28
596.48	47.33
596.817	47.38
597.154	47.42
597.491	47.43
597.828	47.47
598.165	47.55
598.502	47.57
598.839	47.69
599.176	47.8
599.512	47.85
599.849	47.95
600.186	48.08
600.523	48.12
600.859	48.26
601.196	48.34
601.532	48.44
601.869	48.49
602.205	48.57
602.542	48.68
602.878	48.7
603.215	48.7
603.551	48.86
603.887	48.9
604.223	48.98
604.56	49.06
604.896	49.13
605.232	49.12
605.568	49.27
605.904	49.27
606.24	49.33
606.576	49.4
606.912	49.49
607.248	49.5
607.583	49.64
607.919	49.59
608.255	49.5
608.591	49.59
608.926	49.66
609.262	49.73
609.597	49.74
609.933	49.8
610.268	49.88
610.604	49.83
610.939	49.88
611.275	49.99
611.61	50.12
611.945	50.14
612.281	50.29
612.616	50.36
612.951	50.5
613.286	50.62
613.621	50.67
613.956	50.68
614.291	50.76
614.626	50.68
614.961	50.7
615.296	50.91
615.631	50.94
615.966	51.03
616.3	51.16
616.635	51.2
616.97	51.26
617.304	51.29
617.639	51.32
617.973	51.44
618.308	51.36
618.642	51.4
618.977	51.45
619.311	51.41
619.646	51.34
619.98	51.45
620.314	51.46
620.648	51.34
620.983	51.29
621.317	51.44
621.651	51.51
621.985	51.67
622.319	51.66
622.653	51.72
622.987	51.73
623.321	51.7
623.655	51.71
623.988	51.71
624.322	51.75
624.656	51.74
624.99	51.68
625.323	51.76
625.657	51.73
625.99	51.8
626.324	51.78
626.657	51.9
626.991	51.85
627.324	51.8
627.658	51.89
627.991	51.92
628.324	51.84
628.657	51.9
628.991	51.85
629.324	51.84
629.657	51.85
629.99	51.91
630.323	51.94
630.656	52.04
630.989	52.1
631.322	52.09
631.655	52.16
631.987	52.25
632.32	52.25
632.653	52.24
632.986	52.13
633.318	52.16
633.651	52.12
633.984	52.01
634.316	52.11
634.649	52.14
634.981	52.15
635.313	52.18
635.646	52.19
635.978	52.21
636.31	52.25
636.643	52.21
636.975	52.25
637.307	52.27
637.639	52.22
637.971	52.28
638.303	52.28
638.635	52.25
638.967	52.18
639.299	52.24
639.631	52.37
639.963	52.43
640.295	52.53
640.626	52.52
640.958	52.7
641.29	52.65
641.621	52.74
641.953	52.82
642.285	52.9
642.616	52.91
642.948	52.92
643.279	53.12
643.61	53.17
643.942	53.17
644.273	53.14
644.604	53.11
644.936	53.01
645.267	53.03
645.598	53.08
645.929	53.18
646.26	53.24
646.591	53.17
646.922	53.21
647.253	53.24
647.584	53.23
647.915	53.24
648.245	53.32
648.576	53.31
648.907	53.4
649.238	53.31
649.568	53.36
649.899	53.32
650.229	53.27
650.56	53.23
650.89	53.18
651.221	53.19
651.551	53.35
651.882	53.4
652.212	53.49
652.542	53.48
652.872	53.42
653.203	53.5
653.533	53.52
653.863	53.58
654.193	53.51
654.523	53.47
654.853	53.44
655.183	53.43
655.513	53.49
655.843	53.46
656.172	53.63
656.502	53.66
656.832	53.77
657.162	53.75
657.491	53.87
657.821	54.06
658.15	54.12
658.48	54.14
658.809	54.23
659.139	54.28
659.468	54.38
659.798	54.53
660.127	54.53
660.456	54.52
660.785	54.47
661.115	54.5
661.444	54.64
661.773	54.71
662.102	54.87
662.431	54.76
662.76	54.77
663.089	54.76
663.418	54.74
663.747	54.77
664.076	54.8
664.404	54.71
664.733	54.59
665.062	54.64
665.39	54.57
665.719	54.4
666.048	54.42
666.376	54.51
666.705	54.4
667.033	54.23
