Data from MVZ_BU28167_Reflection_00006.txt Node
Date: Tue Nov 19 12:17:29 EST 2019
User: vgr7
Spectrometer: USB2G7710
Scans to average: 3
Trigger mode: 4
Integration Time (sec): 2.000000E-2
Electric dark correction enabled: true
Boxcar width: 10
XAxis mode: Wavelengths
Number of Pixels in Spectrum: 2048
>>>>>Begin Spectral Data<<<<<
177.721	361.26
178.105	-455.56
178.488	35.9
178.871	26.04
179.254	77.78
179.636	32.9
180.019	54.34
180.402	55
180.785	256.67
181.168	158.71
181.55	128.11
181.933	78.49
182.316	58.57
182.698	40.94
183.081	20.89
183.463	31.78
183.846	8.37
184.228	16.67
184.611	28.47
184.993	11.56
185.376	17.02
185.758	23.77
186.14	27.32
186.522	42.26
186.904	60.14
187.287	48.08
187.669	46.99
188.051	38.73
188.433	36.57
188.815	21.25
189.197	28.15
189.579	21.84
189.961	27.91
190.342	22.06
190.724	75.08
191.106	158.56
191.488	146.95
191.869	663.49
192.251	-831.37
192.633	579.17
193.014	4266.67
193.396	266.67
193.777	3016.67
194.159	1183.33
194.54	29.29
194.922	88.51
195.303	122.22
195.684	183.33
196.065	-11.11
196.447	219.05
196.828	-66.67
197.209	187.3
197.59	274.24
197.971	442.59
198.352	-25.73
198.733	-56.86
199.114	-63.58
199.495	-48.69
199.876	18.56
200.257	49.35
200.638	200.69
201.018	113.66
201.399	576.19
201.78	-94.44
202.16	-38.1
202.541	-247.22
202.922	988.89
203.302	-117.48
203.683	-74.6
204.063	-26.67
204.444	-26.15
204.824	-28.89
205.204	-56.01
205.585	-106.94
205.965	-114.12
206.345	-82.67
206.725	-66.67
207.106	-54.21
207.486	-27.62
207.866	3.35
208.246	43.68
208.626	54.11
209.006	31.57
209.386	26.77
209.766	-96.3
210.145	-27.85
210.525	17.95
210.905	30.27
211.285	25.21
211.664	-4.76
212.044	-58.44
212.424	-107.73
212.803	-108.33
213.183	-243.59
213.562	-174.36
213.942	-112.96
214.321	-146.53
214.701	-121.39
215.08	-100.56
215.459	-73.71
215.838	-66.67
216.218	-224.56
216.597	-49.86
216.976	-46.17
217.355	-20.27
217.734	-2.36
218.113	20.25
218.492	-13.45
218.871	7.29
219.25	25.39
219.629	28.72
220.008	43.65
220.387	83.91
220.766	130.7
221.144	93.62
221.523	81.12
221.902	80.39
222.28	52.56
222.659	40.78
223.037	44.28
223.416	38.97
223.794	29
224.173	26.78
224.551	14.11
224.929	9.84
225.308	6.86
225.686	-3.29
226.064	-10.9
226.442	0.25
226.821	0.22
227.199	9.19
227.577	9.94
227.955	13.4
228.333	6.13
228.711	3.5
229.089	3.64
229.467	4.37
229.845	5.04
230.222	10.95
230.6	7.52
230.978	8.5
231.356	8.28
231.733	9.95
232.111	11.93
232.488	12.91
232.866	14.53
233.243	13.87
233.621	17.7
233.998	19.98
234.376	19
234.753	19.65
235.13	15.85
235.508	17.3
235.885	15.86
236.262	14.63
236.639	14.95
237.016	14.98
237.393	15.13
237.77	13.86
238.147	11.86
238.524	11.44
238.901	9.49
239.278	7.94
239.655	6.72
240.032	6.01
240.409	6.72
240.785	6.46
241.162	6.81
241.539	5.76
241.915	4.36
242.292	4.24
242.668	3.73
243.045	3.75
243.421	3.53
243.798	3.78
244.174	3.76
244.551	3.75
244.927	3.9
245.303	4.16
245.679	4.05
246.056	3.85
246.432	3.77
246.808	3.82
247.184	4.21
247.56	4.19
247.936	4.14
248.312	4.01
248.688	3.9
249.064	3.86
249.44	3.96
249.815	4.46
250.191	4.63
250.567	4.61
250.943	4.57
251.318	4.35
251.694	3.98
252.069	4.03
252.445	3.85
252.82	3.76
253.196	3.81
253.571	3.82
253.947	3.98
254.322	3.9
254.697	3.84
255.073	3.39
255.448	3.58
255.823	3.84
256.198	3.39
256.573	3.35
256.948	3.43
257.323	3.39
257.698	3.26
258.073	3.49
258.448	3.45
258.823	3.35
259.198	3.39
259.573	3.45
259.948	3.53
260.322	3.72
260.697	3.86
261.072	3.83
261.446	3.71
261.821	3.8
262.195	3.88
262.57	3.97
262.944	4.02
263.319	4.09
263.693	4.08
264.067	4.28
264.442	4.2
264.816	4.04
265.19	4.05
265.564	3.9
265.938	3.62
266.313	3.68
266.687	3.73
267.061	3.98
267.435	4.09
267.809	3.97
268.183	3.76
268.556	3.55
268.93	3.4
269.304	3.41
269.678	3.45
270.051	3.56
270.425	3.44
270.799	3.62
271.172	3.45
271.546	3.51
271.919	3.44
272.293	3.55
272.666	3.59
273.04	3.42
273.413	3.46
273.787	3.41
274.16	3.27
274.533	3.35
274.906	3.35
275.279	3.37
275.653	3.42
276.026	3.43
276.399	3.69
276.772	3.64
277.145	3.77
277.518	3.54
277.891	3.41
278.263	3.36
278.636	3.38
279.009	3.48
279.382	3.36
279.755	3.28
280.127	3.36
280.5	3.42
280.872	3.62
281.245	3.71
281.617	3.76
281.99	3.76
282.362	3.7
282.735	3.52
283.107	3.36
283.479	3.54
283.852	3.58
284.224	3.47
284.596	3.57
284.968	3.48
285.34	3.49
285.713	3.57
286.085	3.61
286.457	3.44
286.829	3.29
287.201	3.31
287.572	3.55
287.944	3.47
288.316	3.4
288.688	3.58
289.06	3.57
289.431	3.6
289.803	3.82
290.175	3.78
290.546	3.86
290.918	3.96
291.289	3.7
291.661	3.61
292.032	3.52
292.403	3.5
292.775	3.55
293.146	3.54
293.517	3.44
293.889	3.47
294.26	3.63
294.631	3.72
295.002	3.64
295.373	3.55
295.744	3.68
296.115	3.58
296.486	3.48
296.857	3.38
297.228	3.39
297.599	3.21
297.97	3.44
298.34	3.36
298.711	3.32
299.082	3.49
299.452	3.5
299.823	3.5
300.194	3.53
300.564	3.45
300.935	3.75
301.305	3.81
301.676	3.75
302.046	3.56
302.416	3.51
302.787	3.62
303.157	3.49
303.527	3.54
303.897	3.61
304.267	3.55
304.637	3.64
305.008	3.51
305.378	3.61
305.748	3.48
306.117	3.51
306.487	3.6
306.857	3.58
307.227	3.77
307.597	3.87
307.967	3.83
308.336	3.84
308.706	3.62
309.076	3.64
309.445	3.76
309.815	3.83
310.184	3.91
310.554	3.94
310.923	3.95
311.293	3.89
311.662	3.95
312.031	3.97
312.401	3.87
312.77	3.93
313.139	3.91
313.508	3.85
313.877	3.98
314.246	3.84
314.616	3.74
314.985	3.57
315.353	3.53
315.722	3.59
316.091	3.66
316.46	3.78
316.829	3.73
317.198	3.63
317.567	3.7
317.935	3.71
318.304	3.74
318.672	3.86
319.041	3.88
319.41	3.94
319.778	3.87
320.147	3.94
320.515	3.99
320.883	4.06
321.252	4.06
321.62	3.94
321.988	4.17
322.357	4.25
322.725	4.35
323.093	4.32
323.461	4.28
323.829	4.43
324.197	4.37
324.565	4.36
324.933	4.38
325.301	4.1
325.669	4.14
326.037	4.1
326.405	4.13
326.772	4.02
327.14	3.98
327.508	3.97
327.875	4.05
328.243	4.02
328.61	3.88
328.978	3.96
329.346	4.02
329.713	3.95
330.08	3.95
330.448	4.02
330.815	3.93
331.182	3.89
331.55	3.68
331.917	3.64
332.284	3.77
332.651	3.74
333.018	3.92
333.385	3.94
333.752	4.08
334.119	4.07
334.486	4.14
334.853	4.03
335.22	4.06
335.587	4.02
335.954	3.97
336.32	3.97
336.687	3.91
337.054	3.84
337.42	3.79
337.787	3.83
338.153	3.74
338.52	3.77
338.886	3.75
339.253	3.66
339.619	3.7
339.986	3.53
340.352	3.51
340.718	3.61
341.084	3.58
341.451	3.5
341.817	3.42
342.183	3.31
342.549	3.4
342.915	3.46
343.281	3.39
343.647	3.47
344.013	3.55
344.379	3.66
344.745	3.6
345.11	3.59
345.476	3.58
345.842	3.62
346.208	3.57
346.573	3.6
346.939	3.82
347.304	3.77
347.67	3.75
348.035	3.81
348.401	3.76
348.766	3.83
349.132	3.87
349.497	3.98
349.862	4.06
350.228	4.16
350.593	4.09
350.958	4.1
351.323	3.98
351.688	3.92
352.053	3.94
352.418	4.08
352.783	4.03
353.148	4
353.513	3.92
353.878	3.95
354.243	3.86
354.608	3.8
354.972	3.78
355.337	3.96
355.702	3.96
356.066	3.88
356.431	3.93
356.795	3.86
357.16	3.79
357.524	3.82
357.889	3.74
358.253	3.74
358.618	3.73
358.982	3.77
359.346	3.82
359.71	3.78
360.075	3.73
360.439	3.78
360.803	3.85
361.167	3.88
361.531	3.98
361.895	3.97
362.259	4.01
362.623	4.07
362.987	3.94
363.351	3.96
363.714	4.05
364.078	3.95
364.442	3.91
364.806	3.95
365.169	3.91
365.533	3.93
365.896	3.97
366.26	4.01
366.623	4.03
366.987	4.02
367.35	4.02
367.714	4.06
368.077	4.13
368.44	4.13
368.803	4.11
369.167	3.99
369.53	4.11
369.893	4.13
370.256	4.13
370.619	4.14
370.982	4.02
371.345	3.98
371.708	4.01
372.071	3.93
372.434	3.93
372.797	3.94
373.159	3.94
373.522	3.92
373.885	3.87
374.247	3.86
374.61	3.83
374.973	3.83
375.335	3.86
375.698	3.78
376.06	3.76
376.423	3.77
376.785	3.8
377.147	3.76
377.51	3.71
377.872	3.68
378.234	3.81
378.596	3.9
378.958	3.95
379.321	3.92
379.683	4.03
380.045	4.08
380.407	4.06
380.769	4.06
381.13	4.02
381.492	4.09
381.854	4.14
382.216	4.15
382.578	4.2
382.939	4.13
383.301	4.17
383.663	4.15
384.024	4.17
384.386	4.15
384.747	4.12
385.109	4.09
385.47	4.14
385.832	4.02
386.193	3.98
386.554	3.91
386.916	3.92
387.277	3.87
387.638	3.83
387.999	3.84
388.36	3.88
388.721	3.95
389.082	3.91
389.443	3.9
389.804	3.91
390.165	3.86
390.526	3.88
390.887	3.85
391.248	3.82
391.609	3.84
391.969	3.87
392.33	3.86
392.691	3.86
393.051	3.82
393.412	3.88
393.772	3.9
394.133	3.95
394.493	3.97
394.854	3.98
395.214	3.99
395.574	4
395.935	3.96
396.295	3.94
396.655	3.99
397.015	3.99
397.376	4.04
397.736	4.02
398.096	4.03
398.456	4.05
398.816	4.11
399.176	4.09
399.535	4.06
399.895	4.07
400.255	4.07
400.615	4.09
400.975	4.06
401.334	4.04
401.694	4.03
402.054	4.02
402.413	4.05
402.773	4.03
403.132	4.03
403.492	4.05
403.851	4.04
404.211	3.98
404.57	3.95
404.929	3.94
405.288	3.98
405.648	3.99
406.007	3.96
406.366	3.94
406.725	3.94
407.084	3.96
407.443	3.96
407.802	3.99
408.161	3.98
408.52	4
408.879	4.05
409.238	4.04
409.596	4.03
409.955	4.01
410.314	4
410.673	4
411.031	3.99
411.39	4.02
411.748	4.06
412.107	4.06
412.465	4.04
412.824	4
413.182	3.98
413.54	4.02
413.899	3.99
414.257	4
414.615	4.02
414.974	4.02
415.332	4.01
415.69	4.01
416.048	4.02
416.406	4
416.764	3.98
417.122	3.99
417.48	4
417.838	4.01
418.195	4.01
418.553	4
418.911	3.98
419.269	3.98
419.626	3.99
419.984	3.98
420.342	3.98
420.699	3.98
421.057	3.98
421.414	4
421.772	4
422.129	3.98
422.486	3.98
422.844	3.98
423.201	3.98
423.558	3.98
423.915	3.98
424.273	3.99
424.63	3.99
424.987	3.99
425.344	3.99
425.701	3.99
426.058	4.02
426.415	4.01
426.772	4.03
427.128	4.04
427.485	4.05
427.842	4.06
428.199	4.06
428.555	4.06
428.912	4.05
429.269	4.06
429.625	4.06
429.982	4.08
430.338	4.09
430.695	4.09
431.051	4.08
431.407	4.08
431.764	4.09
432.12	4.08
432.476	4.09
432.832	4.08
433.189	4.07
433.545	4.06
433.901	4.07
434.257	4.05
434.613	4.04
434.969	4.03
435.325	4.06
435.681	4.04
436.036	4.05
436.392	4.04
436.748	4.03
437.104	4.03
437.459	4.02
437.815	4.03
438.171	4.04
438.526	4.04
438.882	4.03
439.237	4.03
439.593	4.03
439.948	4.03
440.304	4.04
440.659	4.04
441.014	4.04
441.369	4.05
441.725	4.05
442.08	4.05
442.435	4.06
442.79	4.04
443.145	4.06
443.5	4.06
443.855	4.07
444.21	4.07
444.565	4.07
444.92	4.08
445.275	4.06
445.629	4.06
445.984	4.07
446.339	4.08
446.693	4.07
447.048	4.08
447.403	4.07
447.757	4.05
448.112	4.06
448.466	4.05
448.82	4.05
449.175	4.05
449.529	4.05
449.883	4.03
450.238	4.01
450.592	3.99
450.946	3.99
451.3	3.98
451.654	4
452.008	4
452.362	3.98
452.716	3.99
453.07	3.98
453.424	3.95
453.778	3.95
454.132	3.95
454.486	3.95
454.839	3.94
455.193	3.95
455.547	3.95
455.9	3.95
456.254	3.95
456.607	3.95
456.961	3.96
457.314	3.96
457.668	3.99
458.021	4
458.375	4.01
458.728	4.01
459.081	4
459.434	4
459.787	4.02
460.141	4.02
460.494	4.04
460.847	4.03
461.2	4.02
461.553	4.04
461.906	4.04
462.259	4.05
462.611	4.05
462.964	4.06
463.317	4.05
463.67	4.07
464.022	4.07
464.375	4.08
464.728	4.1
465.08	4.07
465.433	4.07
465.785	4.04
466.138	4.06
466.49	4.07
466.843	4.08
467.195	4.06
467.547	4.07
467.899	4.1
468.252	4.12
468.604	4.13
468.956	4.14
469.308	4.15
469.66	4.14
470.012	4.16
470.364	4.15
470.716	4.15
471.068	4.15
471.42	4.19
471.772	4.19
472.123	4.18
472.475	4.23
472.827	4.22
473.178	4.25
473.53	4.27
473.882	4.26
474.233	4.26
474.585	4.25
474.936	4.25
475.288	4.22
475.639	4.23
475.99	4.24
476.342	4.22
476.693	4.22
477.044	4.21
477.395	4.2
477.746	4.2
478.097	4.2
478.448	4.19
478.8	4.16
479.15	4.16
479.501	4.16
479.852	4.14
480.203	4.15
480.554	4.15
480.905	4.15
481.255	4.15
481.606	4.16
481.957	4.17
482.307	4.18
482.658	4.18
483.009	4.18
483.359	4.19
483.709	4.2
484.06	4.21
484.41	4.21
484.761	4.21
485.111	4.21
485.461	4.21
485.811	4.21
486.162	4.22
486.512	4.22
486.862	4.23
487.212	4.22
487.562	4.22
487.912	4.23
488.262	4.24
488.612	4.24
488.961	4.23
489.311	4.23
489.661	4.22
490.011	4.22
490.36	4.22
490.71	4.21
491.06	4.2
491.409	4.19
491.759	4.2
492.108	4.2
492.458	4.2
492.807	4.2
493.157	4.22
493.506	4.21
493.855	4.22
494.204	4.2
494.554	4.21
494.903	4.21
495.252	4.22
495.601	4.21
495.95	4.22
496.299	4.23
496.648	4.24
496.997	4.28
497.346	4.29
497.695	4.3
498.043	4.33
498.392	4.33
498.741	4.35
499.09	4.35
499.438	4.35
499.787	4.36
500.135	4.39
500.484	4.37
500.832	4.4
501.181	4.41
501.529	4.45
501.878	4.48
502.226	4.48
502.574	4.47
502.923	4.46
503.271	4.46
503.619	4.48
503.967	4.47
504.315	4.46
504.663	4.46
505.011	4.47
505.359	4.45
505.707	4.45
506.055	4.44
506.403	4.47
506.751	4.48
507.098	4.5
507.446	4.5
507.794	4.53
508.141	4.53
508.489	4.54
508.837	4.53
509.184	4.5
509.531	4.5
509.879	4.51
510.226	4.51
510.574	4.5
510.921	4.5
511.268	4.5
511.616	4.51
511.963	4.51
512.31	4.5
512.657	4.52
513.004	4.51
513.351	4.51
513.698	4.51
514.045	4.51
514.392	4.51
514.739	4.51
515.086	4.53
515.432	4.52
515.779	4.52
516.126	4.55
516.473	4.56
516.819	4.56
517.166	4.58
517.512	4.6
517.859	4.59
518.205	4.58
518.552	4.6
518.898	4.57
519.245	4.57
519.591	4.58
519.937	4.58
520.283	4.56
520.629	4.57
520.976	4.58
521.322	4.59
521.668	4.61
522.014	4.6
522.36	4.6
522.706	4.62
523.052	4.62
523.398	4.58
523.743	4.6
524.089	4.64
524.435	4.63
524.781	4.64
525.126	4.65
525.472	4.67
525.817	4.67
526.163	4.69
526.509	4.7
526.854	4.69
527.199	4.68
527.545	4.71
527.89	4.71
528.235	4.71
528.581	4.7
528.926	4.69
529.271	4.7
529.616	4.68
529.961	4.68
530.306	4.67
530.651	4.69
530.996	4.68
531.341	4.67
531.686	4.68
532.031	4.67
532.376	4.67
532.721	4.67
533.065	4.67
533.41	4.67
533.755	4.67
534.099	4.68
534.444	4.69
534.788	4.67
535.133	4.66
535.477	4.67
535.822	4.68
536.166	4.7
536.51	4.69
536.855	4.71
537.199	4.71
537.543	4.73
537.887	4.73
538.231	4.74
538.576	4.73
538.92	4.76
539.264	4.76
539.608	4.77
539.951	4.74
540.295	4.73
540.639	4.76
540.983	4.76
541.327	4.77
541.671	4.77
542.014	4.79
542.358	4.81
542.701	4.79
543.045	4.78
543.389	4.78
543.732	4.79
544.075	4.79
544.419	4.79
544.762	4.79
545.105	4.79
545.449	4.79
545.792	4.8
546.135	4.78
546.478	4.79
546.821	4.81
547.165	4.84
547.508	4.85
547.851	4.83
548.194	4.85
548.536	4.84
548.879	4.82
549.222	4.8
549.565	4.75
549.908	4.77
550.25	4.78
550.593	4.79
550.936	4.79
551.278	4.81
551.621	4.78
551.963	4.82
552.306	4.8
552.648	4.82
552.991	4.82
553.333	4.79
553.675	4.8
554.017	4.79
554.36	4.79
554.702	4.77
555.044	4.79
555.386	4.75
555.728	4.78
556.07	4.77
556.412	4.8
556.754	4.83
557.096	4.79
557.438	4.76
557.78	4.72
558.121	4.71
558.463	4.7
558.805	4.73
559.147	4.66
559.488	4.7
559.83	4.66
560.171	4.67
560.513	4.67
560.854	4.62
561.196	4.64
561.537	4.62
561.878	4.66
562.22	4.67
562.561	4.67
562.902	4.65
563.243	4.71
563.584	4.7
563.925	4.69
564.266	4.68
564.607	4.68
564.948	4.69
565.289	4.7
565.63	4.64
565.971	4.65
566.312	4.63
566.653	4.62
566.993	4.66
567.334	4.7
567.675	4.7
568.015	4.76
568.356	4.71
568.696	4.68
569.037	4.66
569.377	4.65
569.718	4.67
570.058	4.66
570.398	4.64
570.739	4.65
571.079	4.66
571.419	4.68
571.759	4.7
572.099	4.7
572.439	4.65
572.779	4.69
573.119	4.69
573.459	4.73
573.799	4.72
574.139	4.7
574.479	4.66
574.819	4.68
575.158	4.69
575.498	4.73
575.838	4.76
576.177	4.75
576.517	4.79
576.856	4.8
577.196	4.82
577.535	4.84
577.875	4.85
578.214	4.91
578.553	4.93
578.893	4.94
579.232	4.97
579.571	5.04
579.91	5.05
580.25	5.07
580.589	5.06
580.928	5.07
581.267	5.08
581.606	5.08
581.945	5.06
582.283	5.06
582.622	5.02
582.961	5.03
583.3	5.05
583.639	5
583.977	4.98
584.316	4.96
584.654	4.91
584.993	4.88
585.332	4.83
585.67	4.89
586.008	4.86
586.347	4.86
586.685	4.81
587.024	4.81
587.362	4.78
587.7	4.84
588.038	4.85
588.376	4.86
588.715	4.85
589.053	4.84
589.391	4.82
589.729	4.8
590.067	4.76
590.404	4.75
590.742	4.78
591.08	4.81
591.418	4.83
591.756	4.85
592.093	4.84
592.431	4.84
592.769	4.82
593.106	4.82
593.444	4.82
593.781	4.86
594.119	4.85
594.456	4.86
594.793	4.83
595.131	4.8
595.468	4.79
595.805	4.82
596.143	4.87
596.48	4.89
596.817	4.9
597.154	4.93
597.491	4.96
597.828	4.93
598.165	4.9
598.502	4.87
598.839	4.87
599.176	4.88
599.512	4.92
599.849	4.93
600.186	4.94
600.523	4.97
600.859	4.95
601.196	4.97
601.532	5
601.869	4.94
602.205	4.95
602.542	4.94
602.878	4.96
603.215	4.92
603.551	4.94
603.887	4.94
604.223	4.98
604.56	4.98
604.896	5.01
605.232	5.02
605.568	5.03
605.904	4.99
606.24	5
606.576	4.97
606.912	4.98
607.248	4.98
607.583	4.99
607.919	5
608.255	5.01
608.591	5
608.926	5.05
609.262	5.08
609.597	5.08
609.933	5.05
610.268	5.07
610.604	5.04
610.939	5.07
611.275	5.06
611.61	5.05
611.945	5.01
612.281	4.99
612.616	5.03
612.951	5.12
613.286	5.16
613.621	5.15
613.956	5.13
614.291	5.15
614.626	5.15
614.961	5.19
615.296	5.17
615.631	5.19
615.966	5.21
616.3	5.25
616.635	5.25
616.97	5.26
617.304	5.26
617.639	5.29
617.973	5.26
618.308	5.23
618.642	5.19
618.977	5.18
619.311	5.22
619.646	5.23
619.98	5.21
620.314	5.15
620.648	5.2
620.983	5.16
621.317	5.14
621.651	5.11
621.985	5.16
622.319	5.15
622.653	5.16
622.987	5.13
623.321	5.07
623.655	5.13
623.988	5.1
624.322	5.11
624.656	5.14
624.99	5.16
625.323	5.18
625.657	5.2
625.99	5.26
626.324	5.22
626.657	5.2
626.991	5.17
627.324	5.18
627.658	5.15
627.991	5.21
628.324	5.19
628.657	5.18
628.991	5.15
629.324	5.16
629.657	5.12
629.99	5.12
630.323	5.1
630.656	5.05
630.989	5.1
631.322	5.05
631.655	5.01
631.987	4.95
632.32	4.96
632.653	4.95
632.986	4.98
633.318	5
633.651	5.04
633.984	5.06
634.316	5.08
634.649	5.03
634.981	4.9
635.313	4.94
635.646	4.95
635.978	4.95
636.31	4.94
636.643	4.95
636.975	4.97
637.307	4.99
637.639	5
637.971	4.93
638.303	4.94
638.635	4.97
638.967	5.02
639.299	5.05
639.631	5.09
639.963	5
640.295	4.99
640.626	4.96
640.958	4.95
641.29	4.93
641.621	5.03
641.953	5.1
642.285	5.1
642.616	5.17
642.948	5.2
643.279	5.13
643.61	5.14
643.942	5.15
644.273	5.16
644.604	5.16
644.936	5.15
645.267	5.23
645.598	5.22
645.929	5.15
646.26	5.1
646.591	5.09
646.922	5.22
647.253	5.22
647.584	5.22
647.915	5.26
648.245	5.28
648.576	5.29
648.907	5.34
649.238	5.28
649.568	5.16
649.899	5.12
650.229	5.2
650.56	5.2
650.89	5.22
651.221	5.22
651.551	5.23
651.882	5.3
652.212	5.26
652.542	5.3
652.872	5.37
653.203	5.43
653.533	5.43
653.863	5.35
654.193	5.35
654.523	5.32
654.853	5.39
655.183	5.39
655.513	5.38
655.843	5.34
656.172	5.46
656.502	5.49
656.832	5.42
657.162	5.44
657.491	5.45
657.821	5.44
658.15	5.48
658.48	5.5
658.809	5.5
659.139	5.46
659.468	5.43
659.798	5.48
660.127	5.42
660.456	5.39
660.785	5.41
661.115	5.5
661.444	5.5
661.773	5.49
662.102	5.47
662.431	5.44
662.76	5.46
663.089	5.48
663.418	5.61
663.747	5.7
664.076	5.7
664.404	5.69
664.733	5.64
665.062	5.61
665.39	5.61
665.719	5.59
666.048	5.56
666.376	5.51
666.705	5.43
667.033	5.44
667.362	5.47
667.69	5.46
668.018	5.41
668.347	5.4
668.675	5.31
669.003	5.35
669.331	5.43
669.659	5.5
669.987	5.47
670.315	5.48
670.643	5.45
670.971	5.48
671.299	5.48
671.627	5.51
671.955	5.57
672.283	5.49
672.61	5.53
672.938	5.68
673.266	5.74
673.593	5.77
673.921	5.79
674.249	5.84
674.576	5.85
674.904	5.86
675.231	5.99
675.558	6.04
675.886	6.1
676.213	6.03
676.54	6.01
676.867	6
677.195	5.96
677.522	5.98
677.849	5.94
678.176	5.97
678.503	5.96
678.83	5.93
679.157	6.02
679.484	6.04
