Data from MVZ_BU147393_Reflection_00007.txt Node
Date: Tue Nov 19 12:07:00 EST 2019
User: vgr7
Spectrometer: USB2G7710
Scans to average: 3
Trigger mode: 4
Integration Time (sec): 2.000000E-2
Electric dark correction enabled: true
Boxcar width: 10
XAxis mode: Wavelengths
Number of Pixels in Spectrum: 2048
>>>>>Begin Spectral Data<<<<<
177.721	-161.08
178.105	-6900
178.488	-96.85
178.871	-65.62
179.254	81.82
179.636	163.75
180.019	157.55
180.402	-100
180.785	-47.73
181.168	-84.47
181.55	444.83
181.933	169.67
182.316	97.77
182.698	307.96
183.081	124.91
183.463	184.82
183.846	493.81
184.228	402.4
184.611	536.97
184.993	969.23
185.376	-15525
185.758	-71400
186.14	-2820
186.522	-467.8
186.904	-1680
187.287	-6471.43
187.669	-380.77
188.051	-538.39
188.433	-264.5
188.815	-308.07
189.197	-297.68
189.579	-190.83
189.961	-103.31
190.342	-110.83
190.724	-107.98
191.106	-78.4
191.488	-44.6
191.869	-41.55
192.251	-50.09
192.633	-41.07
193.014	-41.72
193.396	-49.64
193.777	-43.71
194.159	-32.07
194.54	-35.97
194.922	-42.86
195.303	-38.84
195.684	-33.75
196.065	-37.44
196.447	-46.25
196.828	-57.7
197.209	-36.27
197.59	-34.9
197.971	-56.85
198.352	-44.06
198.733	-45.94
199.114	-55.94
199.495	-74.04
199.876	-83.41
200.257	-67.73
200.638	-58.97
201.018	-49.13
201.399	-47.38
201.78	-30.45
202.16	-48.17
202.541	-48.78
202.922	-44.44
203.302	-48.48
203.683	-43.64
204.063	-30.63
204.444	-25.08
204.824	-17.2
205.204	-22.06
205.585	-20.25
205.965	-20.25
206.345	-17.9
206.725	-4.25
207.106	1.72
207.486	-4.25
207.866	3.8
208.246	-4.79
208.626	-14
209.006	-16.66
209.386	-17.83
209.766	-27.76
210.145	-13.6
210.525	-10.82
210.905	-10.41
211.285	9.13
211.664	13.47
212.044	1.54
212.424	5.89
212.803	7.01
213.183	14.15
213.562	15.79
213.942	25.56
214.321	20.73
214.701	18.49
215.08	21.08
215.459	33.74
215.838	23.95
216.218	51.65
216.597	85.17
216.976	112.24
217.355	114.17
217.734	126.99
218.113	121.45
218.492	76.08
218.871	53.47
219.25	46.77
219.629	61.42
220.008	87.56
220.387	85.14
220.766	61.03
221.144	65.97
221.523	31.32
221.902	5.03
222.28	25.42
222.659	33.81
223.037	8.36
223.416	13.74
223.794	26.01
224.173	22.38
224.551	13.26
224.929	16.37
225.308	25.4
225.686	19.65
226.064	13.99
226.442	17.16
226.821	13.36
227.199	12.41
227.577	5.59
227.955	8.03
228.333	2.27
228.711	1.26
229.089	-0.25
229.467	-3.11
229.845	-4.01
230.222	-2.8
230.6	-7.95
230.978	-4.43
231.356	-4.99
231.733	-6.44
232.111	-6.42
232.488	-5.28
232.866	-2.84
233.243	-4.23
233.621	-4.54
233.998	-4.74
234.376	-3.86
234.753	-2.6
235.13	-2.96
235.508	-0.77
235.885	-3.77
236.262	-1.22
236.639	-0.68
237.016	0.1
237.393	2.62
237.77	6.04
238.147	5.11
238.524	6.64
238.901	6.44
239.278	6.12
239.655	6.4
240.032	6.37
240.409	6.21
240.785	5.36
241.162	5.06
241.539	5.15
241.915	4.73
242.292	3.99
242.668	4.49
243.045	4.66
243.421	5.07
243.798	5.36
244.174	5.3
244.551	5.09
244.927	5.05
245.303	4.73
245.679	4.33
246.056	4.55
246.432	4.03
246.808	3.9
247.184	3.96
247.56	3.84
247.936	3.85
248.312	4.04
248.688	4.19
249.064	4.35
249.44	3.94
249.815	3.93
250.191	4.03
250.567	3.8
250.943	3.91
251.318	3.58
251.694	3.52
252.069	3.56
252.445	3.7
252.82	3.82
253.196	4.14
253.571	3.92
253.947	3.97
254.322	4.38
254.697	4.45
255.073	4.13
255.448	4.2
255.823	4.18
256.198	4.1
256.573	4.09
256.948	4.13
257.323	4.46
257.698	4.67
258.073	4.82
258.448	4.82
258.823	4.7
259.198	4.76
259.573	4.7
259.948	4.63
260.322	4.53
260.697	4.64
261.072	4.59
261.446	4.66
261.821	4.54
262.195	4.35
262.57	4.37
262.944	4.57
263.319	4.59
263.693	4.6
264.067	4.51
264.442	4.61
264.816	4.62
265.19	4.51
265.564	4.21
265.938	4.3
266.313	4.37
266.687	4.3
267.061	4.43
267.435	4.57
267.809	4.49
268.183	4.61
268.556	4.43
268.93	4.47
269.304	4.38
269.678	4.59
270.051	4.63
270.425	4.65
270.799	4.41
271.172	4.42
271.546	4.52
271.919	4.43
272.293	4.52
272.666	4.37
273.04	4.36
273.413	4.74
273.787	4.69
274.16	4.58
274.533	4.7
274.906	4.6
275.279	4.31
275.653	4.43
276.026	4.26
276.399	4.12
276.772	4.01
277.145	4.06
277.518	3.92
277.891	4.08
278.263	4.17
278.636	4.47
279.009	4.48
279.382	4.35
279.755	4.48
280.127	4.4
280.5	4.53
280.872	4.66
281.245	4.56
281.617	4.54
281.99	4.64
282.362	4.46
282.735	4.3
283.107	4.39
283.479	4.43
283.852	4.54
284.224	4.71
284.596	4.72
284.968	4.73
285.34	4.61
285.713	4.62
286.085	4.4
286.457	4.31
286.829	4.33
287.201	4.25
287.572	4.22
287.944	4.16
288.316	4.09
288.688	4.06
289.06	3.94
289.431	3.98
289.803	3.97
290.175	4
290.546	4.22
290.918	4.3
291.289	4.09
291.661	3.95
292.032	3.85
292.403	3.84
292.775	3.86
293.146	4.09
293.517	4.09
293.889	4.33
294.26	4.41
294.631	4.55
295.002	4.65
295.373	4.74
295.744	4.74
296.115	4.78
296.486	4.81
296.857	5.01
297.228	4.98
297.599	4.9
297.97	4.95
298.34	4.77
298.711	4.79
299.082	4.9
299.452	5.02
299.823	5.03
300.194	5.12
300.564	5.2
300.935	5.13
301.305	5.18
301.676	5.07
302.046	5.02
302.416	4.85
302.787	4.9
303.157	4.81
303.527	4.86
303.897	4.9
304.267	5.01
304.637	5.03
305.008	5.07
305.378	5.23
305.748	5.27
306.117	5.41
306.487	5.5
306.857	5.58
307.227	5.75
307.597	5.89
307.967	5.89
308.336	5.85
308.706	5.81
309.076	5.79
309.445	5.91
309.815	6.09
310.184	6.28
310.554	6.35
310.923	6.38
311.293	6.44
311.662	6.56
312.031	6.43
312.401	6.43
312.77	6.39
313.139	6.34
313.508	6.3
313.877	6.34
314.246	6.39
314.616	6.38
314.985	6.33
315.353	6.44
315.722	6.69
316.091	6.71
316.46	6.8
316.829	6.92
317.198	6.96
317.567	6.91
317.935	6.81
318.304	6.8
318.672	6.95
319.041	7.05
319.41	6.92
319.778	7.11
320.147	7.02
320.515	7.1
320.883	7.1
321.252	7.13
321.62	7.21
321.988	7.27
322.357	7.37
322.725	7.3
323.093	7.05
323.461	7.07
323.829	7.12
324.197	7.2
324.565	7.17
324.933	7.04
325.301	6.94
325.669	7.14
326.037	7.18
326.405	7.19
326.772	7.11
327.14	7.25
327.508	7.3
327.875	7.33
328.243	7.37
328.61	7.51
328.978	7.49
329.346	7.67
329.713	7.83
330.08	7.95
330.448	8.14
330.815	8.28
331.182	8.09
331.55	8.19
331.917	8.12
332.284	8.16
332.651	8.27
333.018	8.31
333.385	8.23
333.752	8.16
334.119	8.18
334.486	8.24
334.853	8.29
335.22	8.13
335.587	8.07
335.954	7.99
336.32	7.91
336.687	8.11
337.054	7.97
337.42	7.84
337.787	7.79
338.153	7.75
338.52	7.79
338.886	7.79
339.253	7.71
339.619	7.79
339.986	7.81
340.352	7.87
340.718	7.93
341.084	7.79
341.451	8.01
341.817	8.06
342.183	8.02
342.549	7.99
342.915	8.11
343.281	8.36
343.647	8.45
344.013	8.52
344.379	8.54
344.745	8.61
345.11	8.62
345.476	8.67
345.842	8.69
346.208	8.71
346.573	8.73
346.939	8.74
347.304	8.76
347.67	8.71
348.035	8.68
348.401	8.76
348.766	8.81
349.132	8.76
349.497	8.77
349.862	8.76
350.228	8.66
350.593	8.79
350.958	8.65
351.323	8.66
351.688	8.71
352.053	8.63
352.418	8.6
352.783	8.58
353.148	8.56
353.513	8.56
353.878	8.55
354.243	8.55
354.608	8.66
354.972	8.56
355.337	8.6
355.702	8.65
356.066	8.67
356.431	8.7
356.795	8.71
357.16	8.66
357.524	8.71
357.889	8.76
358.253	8.67
358.618	8.72
358.982	8.73
359.346	8.72
359.71	8.77
360.075	8.79
360.439	8.86
360.803	8.88
361.167	8.89
361.531	8.98
361.895	9
362.259	9
362.623	9.1
362.987	9.16
363.351	9.16
363.714	9.11
364.078	9.24
364.442	9.19
364.806	9.17
365.169	9.17
365.533	9.22
365.896	9.22
366.26	9.17
366.623	9.16
366.987	9.15
367.35	9.11
367.714	9.07
368.077	9.04
368.44	9.08
368.803	9.07
369.167	8.96
369.53	9.03
369.893	8.98
370.256	8.89
370.619	8.73
370.982	8.71
371.345	8.67
371.708	8.51
372.071	8.49
372.434	8.51
372.797	8.51
373.159	8.39
373.522	8.29
373.885	8.25
374.247	8.23
374.61	8.24
374.973	8.13
375.335	8.11
375.698	7.97
376.06	7.88
376.423	7.82
376.785	7.84
377.147	7.81
377.51	7.76
377.872	7.73
378.234	7.75
378.596	7.69
378.958	7.7
379.321	7.69
379.683	7.67
380.045	7.64
380.407	7.61
380.769	7.59
381.13	7.6
381.492	7.55
381.854	7.55
382.216	7.56
382.578	7.57
382.939	7.54
383.301	7.55
383.663	7.46
384.024	7.44
384.386	7.4
384.747	7.3
385.109	7.25
385.47	7.22
385.832	7.2
386.193	7.16
386.554	7.05
386.916	7.05
387.277	7.03
387.638	6.99
387.999	6.93
388.36	6.93
388.721	6.88
389.082	6.87
389.443	6.84
389.804	6.76
390.165	6.73
390.526	6.71
390.887	6.69
391.248	6.68
391.609	6.67
391.969	6.67
392.33	6.65
392.691	6.63
393.051	6.62
393.412	6.58
393.772	6.57
394.133	6.57
394.493	6.53
394.854	6.51
395.214	6.52
395.574	6.53
395.935	6.45
396.295	6.41
396.655	6.37
397.015	6.31
397.376	6.24
397.736	6.2
398.096	6.14
398.456	6.09
398.816	6.09
399.176	6.03
399.535	5.97
399.895	5.94
400.255	5.9
400.615	5.84
400.975	5.83
401.334	5.81
401.694	5.77
402.054	5.72
402.413	5.65
402.773	5.53
403.132	5.45
403.492	5.49
403.851	5.47
404.211	5.46
404.57	5.47
404.929	5.47
405.288	5.49
405.648	5.48
406.007	5.48
406.366	5.43
406.725	5.43
407.084	5.4
407.443	5.39
407.802	5.39
408.161	5.4
408.52	5.39
408.879	5.35
409.238	5.31
409.596	5.32
409.955	5.31
410.314	5.34
410.673	5.35
411.031	5.32
411.39	5.37
411.748	5.34
412.107	5.3
412.465	5.31
412.824	5.28
413.182	5.24
413.54	5.24
413.899	5.21
414.257	5.18
414.615	5.14
414.974	5.13
415.332	5.13
415.69	5.09
416.048	5.07
416.406	5.04
416.764	5.06
417.122	5.03
417.48	5
417.838	4.99
418.195	4.95
418.553	4.93
418.911	4.91
419.269	4.89
419.626	4.87
419.984	4.83
420.342	4.81
420.699	4.8
421.057	4.78
421.414	4.77
421.772	4.76
422.129	4.75
422.486	4.74
422.844	4.72
423.201	4.72
423.558	4.7
423.915	4.7
424.273	4.68
424.63	4.67
424.987	4.69
425.344	4.68
425.701	4.67
426.058	4.67
426.415	4.64
426.772	4.62
427.128	4.63
427.485	4.63
427.842	4.6
428.199	4.61
428.555	4.62
428.912	4.62
429.269	4.63
429.625	4.64
429.982	4.62
430.338	4.63
430.695	4.61
431.051	4.62
431.407	4.61
431.764	4.6
432.12	4.6
432.476	4.62
432.832	4.61
433.189	4.61
433.545	4.6
433.901	4.6
434.257	4.61
434.613	4.6
434.969	4.6
435.325	4.64
435.681	4.62
436.036	4.6
436.392	4.61
436.748	4.6
437.104	4.61
437.459	4.61
437.815	4.61
438.171	4.59
438.526	4.59
438.882	4.6
439.237	4.6
439.593	4.59
439.948	4.58
440.304	4.59
440.659	4.61
441.014	4.59
441.369	4.6
441.725	4.6
442.08	4.59
442.435	4.59
442.79	4.58
443.145	4.59
443.5	4.57
443.855	4.56
444.21	4.55
444.565	4.54
444.92	4.53
445.275	4.53
445.629	4.53
445.984	4.52
446.339	4.52
446.693	4.51
447.048	4.51
447.403	4.5
447.757	4.49
448.112	4.47
448.466	4.48
448.82	4.46
449.175	4.45
449.529	4.46
449.883	4.46
450.238	4.45
450.592	4.43
450.946	4.42
451.3	4.42
451.654	4.38
452.008	4.38
452.362	4.38
452.716	4.36
453.07	4.36
453.424	4.36
453.778	4.35
454.132	4.34
454.486	4.34
454.839	4.34
455.193	4.33
455.547	4.34
455.9	4.33
456.254	4.36
456.607	4.37
456.961	4.37
457.314	4.37
457.668	4.35
458.021	4.4
458.375	4.41
458.728	4.41
459.081	4.44
459.434	4.45
459.787	4.46
460.141	4.48
460.494	4.51
460.847	4.51
461.2	4.53
461.553	4.53
461.906	4.53
462.259	4.53
462.611	4.54
462.964	4.54
463.317	4.55
463.67	4.56
464.022	4.57
464.375	4.59
464.728	4.59
465.08	4.63
465.433	4.62
465.785	4.62
466.138	4.64
466.49	4.65
466.843	4.65
467.195	4.67
467.547	4.67
467.899	4.67
468.252	4.69
468.604	4.68
468.956	4.72
469.308	4.72
469.66	4.76
470.012	4.77
470.364	4.77
470.716	4.79
471.068	4.8
471.42	4.82
471.772	4.81
472.123	4.83
472.475	4.84
472.827	4.86
473.178	4.89
473.53	4.92
473.882	4.93
474.233	4.95
474.585	4.96
474.936	4.97
475.288	4.97
475.639	4.96
475.99	4.97
476.342	4.97
476.693	4.97
477.044	4.97
477.395	4.96
477.746	4.95
478.097	4.92
478.448	4.9
478.8	4.89
479.15	4.87
479.501	4.84
479.852	4.83
480.203	4.82
480.554	4.81
480.905	4.79
481.255	4.77
481.606	4.77
481.957	4.76
482.307	4.75
482.658	4.75
483.009	4.75
483.359	4.76
483.709	4.77
484.06	4.77
484.41	4.76
484.761	4.76
485.111	4.77
485.461	4.77
485.811	4.76
486.162	4.76
486.512	4.76
486.862	4.77
487.212	4.77
487.562	4.76
487.912	4.76
488.262	4.76
488.612	4.77
488.961	4.76
489.311	4.76
489.661	4.77
490.011	4.75
490.36	4.75
490.71	4.75
491.06	4.75
491.409	4.75
491.759	4.76
492.108	4.76
492.458	4.76
492.807	4.77
493.157	4.8
493.506	4.82
493.855	4.83
494.204	4.84
494.554	4.87
494.903	4.91
495.252	4.96
495.601	4.99
495.95	5.01
496.299	5.08
496.648	5.12
496.997	5.13
497.346	5.17
497.695	5.22
498.043	5.29
498.392	5.32
498.741	5.38
499.09	5.44
499.438	5.5
499.787	5.59
500.135	5.66
500.484	5.7
500.832	5.78
501.181	5.88
501.529	5.98
501.878	6.08
502.226	6.16
502.574	6.25
502.923	6.34
503.271	6.46
503.619	6.57
503.967	6.69
504.315	6.85
504.663	7
505.011	7.1
505.359	7.21
505.707	7.37
506.055	7.51
506.403	7.67
506.751	7.8
507.098	7.94
507.446	8.12
507.794	8.3
508.141	8.46
508.489	8.61
508.837	8.75
509.184	8.92
509.531	9.08
509.879	9.23
510.226	9.41
510.574	9.59
510.921	9.74
511.268	9.88
511.616	10.07
511.963	10.25
512.31	10.45
512.657	10.63
513.004	10.81
513.351	11.01
513.698	11.2
514.045	11.4
514.392	11.64
514.739	11.85
515.086	12.11
515.432	12.3
515.779	12.51
516.126	12.73
516.473	12.92
516.819	13.12
517.166	13.33
517.512	13.5
517.859	13.67
518.205	13.84
518.552	14.03
518.898	14.21
519.245	14.4
519.591	14.61
519.937	14.79
520.283	14.99
520.629	15.21
520.976	15.41
521.322	15.64
521.668	15.79
522.014	15.99
522.36	16.16
522.706	16.42
523.052	16.68
523.398	16.95
523.743	17.22
524.089	17.45
524.435	17.68
524.781	17.92
525.126	18.16
525.472	18.39
525.817	18.55
526.163	18.72
526.509	18.86
526.854	19
527.199	19.18
527.545	19.28
527.89	19.41
528.235	19.56
528.581	19.7
528.926	19.85
529.271	20.01
529.616	20.17
529.961	20.31
530.306	20.47
530.651	20.62
530.996	20.78
531.341	20.96
531.686	21.16
532.031	21.34
532.376	21.5
532.721	21.67
533.065	21.91
533.41	22.09
533.755	22.32
534.099	22.53
534.444	22.69
534.788	22.91
535.133	23.1
535.477	23.29
535.822	23.52
536.166	23.76
536.51	24
536.855	24.22
537.199	24.45
537.543	24.7
537.887	24.96
538.231	25.22
538.576	25.47
538.92	25.71
539.264	25.93
539.608	26.18
539.951	26.39
540.295	26.6
540.639	26.84
540.983	26.98
541.327	27.17
541.671	27.39
542.014	27.61
542.358	27.79
542.701	27.98
543.045	28.15
543.389	28.3
543.732	28.46
544.075	28.68
544.419	28.86
544.762	29.06
545.105	29.25
545.449	29.44
545.792	29.68
546.135	29.88
546.478	30.16
546.821	30.39
547.165	30.61
547.508	30.81
547.851	31.02
548.194	31.27
548.536	31.46
548.879	31.65
549.222	31.85
549.565	32.09
549.908	32.24
550.25	32.47
550.593	32.66
550.936	32.86
551.278	33.05
551.621	33.33
551.963	33.51
552.306	33.75
552.648	33.92
552.991	34.09
553.333	34.24
553.675	34.4
554.017	34.54
554.36	34.67
554.702	34.84
555.044	35
555.386	35.18
555.728	35.38
556.07	35.59
556.412	35.74
556.754	35.91
557.096	36.13
557.438	36.36
557.78	36.61
558.121	36.75
558.463	36.86
558.805	36.95
559.147	37.11
559.488	37.2
559.83	37.34
560.171	37.47
560.513	37.69
560.854	37.84
561.196	37.98
561.537	38.15
561.878	38.3
562.22	38.44
562.561	38.59
562.902	38.68
563.243	38.8
563.584	38.95
563.925	39.08
564.266	39.14
564.607	39.21
564.948	39.35
565.289	39.53
565.63	39.66
565.971	39.76
566.312	39.88
566.653	40
566.993	40.14
567.334	40.24
567.675	40.32
568.015	40.42
568.356	40.5
568.696	40.61
569.037	40.79
569.377	40.87
569.718	40.95
570.058	41.05
570.398	41.19
570.739	41.28
571.079	41.33
571.419	41.42
571.759	41.52
572.099	41.56
572.439	41.58
572.779	41.68
573.119	41.76
573.459	41.83
573.799	41.9
574.139	41.98
574.479	42.03
574.819	42.12
575.158	42.16
575.498	42.22
575.838	42.26
576.177	42.25
576.517	42.32
576.856	42.41
577.196	42.47
577.535	42.48
577.875	42.52
578.214	42.62
578.553	42.75
578.893	42.82
579.232	42.85
579.571	42.96
579.91	43.01
580.25	43.09
580.589	43.12
580.928	43.24
581.267	43.31
581.606	43.39
581.945	43.5
582.283	43.61
582.622	43.83
582.961	43.98
583.3	44.03
583.639	44.08
583.977	44.11
584.316	44.19
584.654	44.22
584.993	44.36
585.332	44.44
585.67	44.52
586.008	44.56
586.347	44.71
586.685	44.74
587.024	44.89
587.362	44.91
587.7	45.09
588.038	45.14
588.376	45.17
588.715	45.22
589.053	45.22
589.391	45.28
589.729	45.29
590.067	45.39
590.404	45.48
590.742	45.51
591.08	45.63
591.418	45.7
591.756	45.75
592.093	45.75
592.431	45.76
592.769	45.79
593.106	45.83
593.444	45.91
593.781	46.01
594.119	46
594.456	46.07
594.793	46.06
595.131	46.05
595.468	46.07
595.805	46.06
596.143	46.13
596.48	46.16
596.817	46.18
597.154	46.18
597.491	46.22
597.828	46.24
598.165	46.26
598.502	46.36
598.839	46.51
599.176	46.59
599.512	46.64
599.849	46.64
600.186	46.68
600.523	46.64
600.859	46.69
601.196	46.69
601.532	46.72
601.869	46.75
602.205	46.8
602.542	46.88
602.878	46.98
603.215	47.03
603.551	47.02
603.887	47.08
604.223	47.04
604.56	47.08
604.896	47.17
605.232	47.19
605.568	47.18
605.904	47.19
606.24	47.26
606.576	47.24
606.912	47.33
607.248	47.43
607.583	47.51
607.919	47.52
608.255	47.67
608.591	47.69
608.926	47.74
609.262	47.84
609.597	47.85
609.933	47.93
610.268	47.95
610.604	48.01
610.939	47.96
611.275	47.99
611.61	48
611.945	48.01
612.281	48.02
612.616	48.03
612.951	48.12
613.286	48.11
613.621	48.12
613.956	48.1
614.291	48.07
614.626	48.08
614.961	48.13
615.296	48.14
615.631	48.29
615.966	48.32
616.3	48.25
616.635	48.31
616.97	48.32
617.304	48.3
617.639	48.34
617.973	48.45
618.308	48.52
618.642	48.51
618.977	48.52
619.311	48.46
619.646	48.53
619.98	48.43
620.314	48.36
620.648	48.36
620.983	48.37
621.317	48.3
621.651	48.27
621.985	48.2
622.319	48.17
622.653	48.1
622.987	48.07
623.321	48.17
623.655	48.18
623.988	48.19
624.322	48.2
624.656	48.21
624.99	48.19
625.323	48.23
625.657	48.29
625.99	48.37
626.324	48.52
626.657	48.4
626.991	48.46
627.324	48.6
627.658	48.72
627.991	48.76
628.324	48.9
628.657	49
628.991	49.02
629.324	48.99
629.657	49.03
629.99	49.16
630.323	49.2
630.656	49.19
630.989	49.1
631.322	49.09
631.655	49.1
631.987	49.06
632.32	49.12
632.653	49.09
632.986	49.02
633.318	49
633.651	49.07
633.984	49.02
634.316	48.86
634.649	48.87
634.981	48.94
635.313	48.94
635.646	48.88
635.978	49.05
636.31	49.05
636.643	48.95
636.975	48.85
637.307	48.82
637.639	48.93
637.971	49.02
638.303	49.08
638.635	49.12
638.967	49.26
639.299	49.27
639.631	49.31
639.963	49.37
640.295	49.31
640.626	49.38
640.958	49.39
641.29	49.4
641.621	49.49
641.953	49.43
642.285	49.48
642.616	49.49
642.948	49.41
643.279	49.42
643.61	49.63
643.942	49.6
644.273	49.53
644.604	49.37
644.936	49.38
645.267	49.48
645.598	49.55
645.929	49.47
646.26	49.35
646.591	49.37
646.922	49.38
647.253	49.47
647.584	49.52
647.915	49.67
648.245	49.86
648.576	49.77
648.907	49.75
649.238	49.65
649.568	49.72
649.899	49.68
650.229	49.72
650.56	49.66
650.89	49.84
651.221	49.9
651.551	49.94
651.882	49.93
652.212	49.88
652.542	49.92
652.872	49.89
653.203	49.97
653.533	49.93
653.863	50
654.193	49.9
654.523	49.85
654.853	49.83
655.183	49.83
655.513	49.96
655.843	50.05
656.172	50.12
656.502	50.18
656.832	50.22
657.162	50.26
657.491	50.29
657.821	50.2
658.15	50.21
658.48	50.29
658.809	50.27
659.139	50.33
659.468	50.28
659.798	50.42
660.127	50.39
660.456	50.5
660.785	50.51
661.115	50.61
661.444	50.6
661.773	50.64
662.102	50.62
662.431	50.57
662.76	50.53
663.089	50.54
663.418	50.6
663.747	50.63
664.076	50.56
664.404	50.57
664.733	50.64
665.062	50.72
665.39	50.69
665.719	50.75
666.048	50.62
666.376	50.53
666.705	50.36
667.033	50.42
667.362	50.36
