Data from MVZ_BU88648_Reflection_00001.txt Node
Date: Tue Nov 19 12:01:53 EST 2019
User: vgr7
Spectrometer: USB2G7710
Scans to average: 3
Trigger mode: 4
Integration Time (sec): 2.000000E-2
Electric dark correction enabled: true
Boxcar width: 10
XAxis mode: Wavelengths
Number of Pixels in Spectrum: 2048
>>>>>Begin Spectral Data<<<<<
177.721	842.65
178.105	75.9
178.488	85.66
178.871	334.62
179.254	86.54
179.636	93.24
180.019	24.52
180.402	100
180.785	-45.35
181.168	-39.86
181.55	-109.82
181.933	239.42
182.316	-29.46
182.698	25.32
183.081	-25.88
183.463	4.34
183.846	10.88
184.228	-32.51
184.611	-40.03
184.993	-27.13
185.376	19.67
185.758	38.72
186.14	58.86
186.522	48.14
186.904	52.36
187.287	132.38
187.669	103.04
188.051	123.78
188.433	81.41
188.815	76.32
189.197	55.62
189.579	58.72
189.961	31.77
190.342	49.24
190.724	14.19
191.106	-15.07
191.488	-42.28
191.869	-46.22
192.251	-16.17
192.633	-35.87
193.014	-99.86
193.396	-136.64
193.777	-127.53
194.159	-144.04
194.54	-137.47
194.922	-194.8
195.303	-199.51
195.684	-307.8
196.065	-352.35
196.447	-317.82
196.828	-456.82
197.209	-309.16
197.59	-192.25
197.971	-122.88
198.352	-131.35
198.733	-135.27
199.114	-153.59
199.495	-206.17
199.876	-356.74
200.257	-415.13
200.638	-194.33
201.018	-152.12
201.399	-136.72
201.78	-154.24
202.16	-166.54
202.541	-181.82
202.922	-151
203.302	-145.17
203.683	-122.81
204.063	-85.18
204.444	-71.75
204.824	-64.29
205.204	-60.63
205.585	-60.95
205.965	-66.57
206.345	-73.74
206.725	-52.41
207.106	-42.56
207.486	-24.56
207.866	-6.86
208.246	-5.99
208.626	-9.09
209.006	-13.86
209.386	-8.64
209.766	-12.28
210.145	9.35
210.525	18.93
210.905	16.37
211.285	12.92
211.664	9.11
212.044	-3.35
212.424	-9.14
212.803	-12.75
213.183	-16.78
213.562	-19.1
213.942	-11.34
214.321	-9.65
214.701	-24.45
215.08	-19.87
215.459	-17.18
215.838	-13.31
216.218	-11.56
216.597	-10.18
216.976	-16.48
217.355	-11.46
217.734	-11.13
218.113	-7.19
218.492	-11.02
218.871	-14.03
219.25	-14.88
219.629	-12.14
220.008	-2.23
220.387	-3.89
220.766	5.22
221.144	0.37
221.523	-16.1
221.902	-16.02
222.28	-20.05
222.659	9.54
223.037	-3.1
223.416	-5.09
223.794	-10.52
224.173	-19.11
224.551	-19.21
224.929	-8.86
225.308	-10.43
225.686	-6.06
226.064	-13.98
226.442	-13.15
226.821	-10.1
227.199	-8.29
227.577	-9.56
227.955	-6.02
228.333	-11.03
228.711	-12.47
229.089	-8.57
229.467	-4.43
229.845	-5.48
230.222	-2.77
230.6	-6.63
230.978	-3.18
231.356	-3.79
231.733	-0.46
232.111	0.64
232.488	-0.52
232.866	-0.49
233.243	-2.56
233.621	-4.33
233.998	-3.13
234.376	-2.3
234.753	0.71
235.13	0.7
235.508	0.52
235.885	-0.92
236.262	2.51
236.639	1.81
237.016	1.62
237.393	2.33
237.77	2.91
238.147	3.49
238.524	2.78
238.901	1.99
239.278	1.95
239.655	0.7
240.032	1.73
240.409	2.3
240.785	2.22
241.162	3.25
241.539	3.23
241.915	3
242.292	3.12
242.668	2.38
243.045	2.63
243.421	3.33
243.798	3.09
244.174	3.19
244.551	3.53
244.927	3.33
245.303	3.25
245.679	2.95
246.056	2.69
246.432	3.07
246.808	3.32
247.184	3.16
247.56	3.24
247.936	3.16
248.312	3.44
248.688	3.57
249.064	3.15
249.44	3.33
249.815	3.44
250.191	3.34
250.567	3.49
250.943	3.13
251.318	3.07
251.694	3.01
252.069	2.48
252.445	2.12
252.82	2.46
253.196	2.56
253.571	2.93
253.947	2.79
254.322	2.55
254.697	2.04
255.073	2.08
255.448	2.22
255.823	2.29
256.198	2.31
256.573	2.36
256.948	2.72
257.323	2.87
257.698	2.78
258.073	2.94
258.448	3.07
258.823	2.99
259.198	2.68
259.573	2.76
259.948	3.05
260.322	3.11
260.697	3.13
261.072	2.94
261.446	2.8
261.821	2.85
262.195	2.93
262.57	3.23
262.944	3.27
263.319	3.12
263.693	3.15
264.067	3.03
264.442	2.85
264.816	2.48
265.19	2.35
265.564	2.39
265.938	2.16
266.313	1.91
266.687	2.25
267.061	2.44
267.435	2.73
267.809	2.61
268.183	2.53
268.556	2.35
268.93	2.46
269.304	2.38
269.678	2.48
270.051	2.44
270.425	2.22
270.799	2.14
271.172	2.38
271.546	2.27
271.919	2.23
272.293	2.23
272.666	2.48
273.04	2.46
273.413	2.34
273.787	2.22
274.16	2.18
274.533	2.17
274.906	2.28
275.279	2.03
275.653	2.04
276.026	2.1
276.399	2.05
276.772	2.08
277.145	2.12
277.518	1.91
277.891	1.8
278.263	1.96
278.636	2.07
279.009	2
279.382	2.06
279.755	2.16
280.127	2.31
280.5	2.41
280.872	2.51
281.245	2.56
281.617	2.76
281.99	2.85
282.362	2.71
282.735	2.72
283.107	2.69
283.479	2.69
283.852	2.72
284.224	2.79
284.596	2.75
284.968	2.68
285.34	2.73
285.713	2.78
286.085	2.64
286.457	2.67
286.829	2.59
287.201	2.51
287.572	2.32
287.944	2.45
288.316	2.46
288.688	2.3
289.06	2.41
289.431	2.38
289.803	2.36
290.175	2.34
290.546	2.26
290.918	2.19
291.289	2.05
291.661	2.19
292.032	2.16
292.403	2.22
292.775	2.48
293.146	2.6
293.517	2.48
293.889	2.53
294.26	2.46
294.631	2.56
295.002	2.6
295.373	2.66
295.744	2.36
296.115	2.36
296.486	2.53
296.857	2.51
297.228	2.49
297.599	2.39
297.97	2.57
298.34	2.67
298.711	2.68
299.082	3.02
299.452	2.91
299.823	2.89
300.194	2.91
300.564	2.64
300.935	2.76
301.305	2.79
301.676	2.89
302.046	2.97
302.416	2.77
302.787	2.81
303.157	2.85
303.527	3.04
303.897	2.97
304.267	2.97
304.637	2.97
305.008	2.96
305.378	2.93
305.748	2.89
306.117	2.65
306.487	2.75
306.857	2.6
307.227	2.68
307.597	2.78
307.967	2.75
308.336	2.94
308.706	2.84
309.076	3.03
309.445	3.01
309.815	2.93
310.184	3.01
310.554	2.93
310.923	2.91
311.293	2.91
311.662	3.02
312.031	2.95
312.401	2.89
312.77	2.91
313.139	3.06
313.508	2.99
313.877	3.11
314.246	3.11
314.616	3.02
314.985	3.02
315.353	2.93
315.722	2.93
316.091	2.92
316.46	2.84
316.829	2.81
317.198	2.86
317.567	2.72
317.935	2.85
318.304	3.01
318.672	2.91
319.041	2.8
319.41	2.7
319.778	2.83
320.147	2.8
320.515	2.89
320.883	2.75
321.252	2.73
321.62	2.66
321.988	2.61
322.357	2.54
322.725	2.45
323.093	2.42
323.461	2.29
323.829	2.26
324.197	2.25
324.565	2.11
324.933	1.92
325.301	1.91
325.669	1.92
326.037	1.72
326.405	1.9
326.772	2.03
327.14	2.03
327.508	1.82
327.875	1.92
328.243	1.92
328.61	1.94
328.978	1.92
329.346	2.02
329.713	2.02
330.08	2.18
330.448	2.26
330.815	2.32
331.182	2.44
331.55	2.42
331.917	2.41
332.284	2.62
332.651	2.72
333.018	2.88
333.385	2.85
333.752	2.9
334.119	2.88
334.486	2.75
334.853	2.67
335.22	2.66
335.587	2.55
335.954	2.47
336.32	2.57
336.687	2.72
337.054	2.63
337.42	2.63
337.787	2.54
338.153	2.55
338.52	2.59
338.886	2.67
339.253	2.67
339.619	2.7
339.986	2.54
340.352	2.54
340.718	2.45
341.084	2.47
341.451	2.42
341.817	2.34
342.183	2.42
342.549	2.65
342.915	2.82
343.281	2.86
343.647	2.85
344.013	2.76
344.379	2.74
344.745	2.72
345.11	2.65
345.476	2.74
345.842	2.71
346.208	2.8
346.573	2.75
346.939	2.77
347.304	2.83
347.67	2.84
348.035	2.94
348.401	3.09
348.766	3.05
349.132	3.17
349.497	3.29
349.862	3.32
350.228	3.18
350.593	3.14
350.958	3.19
351.323	3.2
351.688	3.21
352.053	3.15
352.418	3.26
352.783	3.36
353.148	3.24
353.513	3.25
353.878	3.09
354.243	2.93
354.608	2.94
354.972	2.91
355.337	2.85
355.702	2.91
356.066	2.86
356.431	2.88
356.795	2.93
357.16	2.86
357.524	2.82
357.889	2.85
358.253	2.82
358.618	2.84
358.982	2.8
359.346	2.86
359.71	2.86
360.075	2.82
360.439	2.83
360.803	2.87
361.167	2.89
361.531	2.92
361.895	3.03
362.259	3.04
362.623	3.05
362.987	3.16
363.351	2.99
363.714	3.03
364.078	3.02
364.442	2.95
364.806	3
365.169	2.98
365.533	2.97
365.896	3.01
366.26	2.92
366.623	2.99
366.987	2.94
367.35	2.91
367.714	2.91
368.077	2.93
368.44	2.93
368.803	2.84
369.167	2.78
369.53	2.8
369.893	2.84
370.256	2.82
370.619	2.81
370.982	2.8
371.345	2.79
371.708	2.77
372.071	2.79
372.434	2.79
372.797	2.81
373.159	2.81
373.522	2.72
373.885	2.72
374.247	2.7
374.61	2.73
374.973	2.77
375.335	2.8
375.698	2.77
376.06	2.73
376.423	2.8
376.785	2.91
377.147	2.89
377.51	2.9
377.872	2.94
378.234	2.93
378.596	3
378.958	3.01
379.321	3.03
379.683	3.05
380.045	3.04
380.407	3.06
380.769	3.07
381.13	3.08
381.492	3.12
381.854	3.17
382.216	3.14
382.578	3.21
382.939	3.26
383.301	3.27
383.663	3.28
384.024	3.28
384.386	3.3
384.747	3.31
385.109	3.27
385.47	3.27
385.832	3.28
386.193	3.31
386.554	3.25
386.916	3.25
387.277	3.23
387.638	3.24
387.999	3.24
388.36	3.22
388.721	3.29
389.082	3.3
389.443	3.3
389.804	3.34
390.165	3.31
390.526	3.26
390.887	3.29
391.248	3.3
391.609	3.31
391.969	3.28
392.33	3.26
392.691	3.28
393.051	3.24
393.412	3.22
393.772	3.22
394.133	3.25
394.493	3.25
394.854	3.24
395.214	3.21
395.574	3.23
395.935	3.3
396.295	3.24
396.655	3.23
397.015	3.19
397.376	3.18
397.736	3.18
398.096	3.19
398.456	3.14
398.816	3.12
399.176	3.09
399.535	3.1
399.895	3.09
400.255	3.05
400.615	3.08
400.975	3.1
401.334	3.07
401.694	3.07
402.054	3.09
402.413	3.1
402.773	3.15
403.132	3.14
403.492	3.1
403.851	3.12
404.211	3.12
404.57	3.12
404.929	3.09
405.288	3.09
405.648	3.12
406.007	3.11
406.366	3.13
406.725	3.14
407.084	3.14
407.443	3.18
407.802	3.2
408.161	3.2
408.52	3.22
408.879	3.26
409.238	3.28
409.596	3.27
409.955	3.29
410.314	3.26
410.673	3.25
411.031	3.22
411.39	3.23
411.748	3.27
412.107	3.31
412.465	3.34
412.824	3.35
413.182	3.33
413.54	3.38
413.899	3.38
414.257	3.41
414.615	3.41
414.974	3.38
415.332	3.39
415.69	3.38
416.048	3.37
416.406	3.34
416.764	3.33
417.122	3.32
417.48	3.33
417.838	3.34
418.195	3.33
418.553	3.33
418.911	3.35
419.269	3.35
419.626	3.34
419.984	3.34
420.342	3.33
420.699	3.33
421.057	3.32
421.414	3.33
421.772	3.33
422.129	3.32
422.486	3.32
422.844	3.32
423.201	3.33
423.558	3.33
423.915	3.34
424.273	3.35
424.63	3.38
424.987	3.38
425.344	3.38
425.701	3.38
426.058	3.39
426.415	3.38
426.772	3.38
427.128	3.38
427.485	3.38
427.842	3.39
428.199	3.39
428.555	3.38
428.912	3.36
429.269	3.36
429.625	3.39
429.982	3.4
430.338	3.41
430.695	3.41
431.051	3.41
431.407	3.41
431.764	3.39
432.12	3.4
432.476	3.39
432.832	3.39
433.189	3.38
433.545	3.39
433.901	3.38
434.257	3.36
434.613	3.37
434.969	3.38
435.325	3.37
435.681	3.38
436.036	3.39
436.392	3.41
436.748	3.4
437.104	3.4
437.459	3.39
437.815	3.4
438.171	3.41
438.526	3.43
438.882	3.42
439.237	3.42
439.593	3.4
439.948	3.4
440.304	3.39
440.659	3.41
441.014	3.41
441.369	3.44
441.725	3.44
442.08	3.44
442.435	3.45
442.79	3.44
443.145	3.45
443.5	3.45
443.855	3.44
444.21	3.45
444.565	3.46
444.92	3.47
445.275	3.46
445.629	3.45
445.984	3.44
446.339	3.45
446.693	3.45
447.048	3.46
447.403	3.46
447.757	3.47
448.112	3.47
448.466	3.48
448.82	3.46
449.175	3.46
449.529	3.48
449.883	3.46
450.238	3.46
450.592	3.46
450.946	3.46
451.3	3.46
451.654	3.45
452.008	3.43
452.362	3.42
452.716	3.43
453.07	3.44
453.424	3.43
453.778	3.44
454.132	3.43
454.486	3.41
454.839	3.41
455.193	3.43
455.547	3.44
455.9	3.43
456.254	3.44
456.607	3.44
456.961	3.44
457.314	3.46
457.668	3.45
458.021	3.46
458.375	3.46
458.728	3.46
459.081	3.47
459.434	3.49
459.787	3.5
460.141	3.49
460.494	3.5
460.847	3.49
461.2	3.49
461.553	3.5
461.906	3.52
462.259	3.52
462.611	3.53
462.964	3.53
463.317	3.55
463.67	3.55
464.022	3.57
464.375	3.56
464.728	3.55
465.08	3.57
465.433	3.56
465.785	3.56
466.138	3.58
466.49	3.57
466.843	3.57
467.195	3.56
467.547	3.58
467.899	3.55
468.252	3.58
468.604	3.57
468.956	3.57
469.308	3.56
469.66	3.57
470.012	3.57
470.364	3.57
470.716	3.57
471.068	3.57
471.42	3.57
471.772	3.58
472.123	3.57
472.475	3.59
472.827	3.61
473.178	3.63
473.53	3.61
473.882	3.63
474.233	3.63
474.585	3.63
474.936	3.63
475.288	3.66
475.639	3.68
475.99	3.66
476.342	3.69
476.693	3.69
477.044	3.69
477.395	3.67
477.746	3.68
478.097	3.67
478.448	3.67
478.8	3.68
479.15	3.68
479.501	3.68
479.852	3.68
480.203	3.67
480.554	3.67
480.905	3.68
481.255	3.68
481.606	3.69
481.957	3.7
482.307	3.69
482.658	3.68
483.009	3.67
483.359	3.69
483.709	3.67
484.06	3.68
484.41	3.67
484.761	3.68
485.111	3.68
485.461	3.68
485.811	3.69
486.162	3.68
486.512	3.68
486.862	3.68
487.212	3.67
487.562	3.66
487.912	3.66
488.262	3.66
488.612	3.66
488.961	3.66
489.311	3.65
489.661	3.66
490.011	3.65
490.36	3.65
490.71	3.65
491.06	3.65
491.409	3.65
491.759	3.66
492.108	3.64
492.458	3.65
492.807	3.65
493.157	3.65
493.506	3.65
493.855	3.66
494.204	3.66
494.554	3.67
494.903	3.68
495.252	3.68
495.601	3.68
495.95	3.7
496.299	3.7
496.648	3.7
496.997	3.71
497.346	3.73
497.695	3.74
498.043	3.75
498.392	3.76
498.741	3.76
499.09	3.76
499.438	3.78
499.787	3.79
500.135	3.78
500.484	3.8
500.832	3.8
501.181	3.82
501.529	3.84
501.878	3.86
502.226	3.85
502.574	3.87
502.923	3.86
503.271	3.86
503.619	3.87
503.967	3.86
504.315	3.86
504.663	3.85
505.011	3.85
505.359	3.84
505.707	3.84
506.055	3.85
506.403	3.86
506.751	3.84
507.098	3.83
507.446	3.84
507.794	3.83
508.141	3.84
508.489	3.84
508.837	3.83
509.184	3.82
509.531	3.83
509.879	3.83
510.226	3.83
510.574	3.84
510.921	3.82
511.268	3.84
511.616	3.87
511.963	3.88
512.31	3.91
512.657	3.93
513.004	3.95
513.351	3.95
513.698	3.94
514.045	3.96
514.392	3.99
514.739	4
515.086	4.01
515.432	3.99
515.779	3.98
516.126	3.99
516.473	3.99
516.819	4.01
517.166	4.02
517.512	4.02
517.859	4.02
518.205	4.02
518.552	4.01
518.898	3.99
519.245	3.98
519.591	3.95
519.937	3.94
520.283	3.95
520.629	3.94
520.976	3.94
521.322	3.95
521.668	3.93
522.014	3.94
522.36	3.91
522.706	3.92
523.052	3.95
523.398	3.93
523.743	3.92
524.089	3.93
524.435	3.94
524.781	3.96
525.126	3.96
525.472	3.98
525.817	4
526.163	4
526.509	4.03
526.854	4.03
527.199	4.04
527.545	4.04
527.89	4.04
528.235	4.05
528.581	4.05
528.926	4.06
529.271	4.05
529.616	4.07
529.961	4.07
530.306	4.06
530.651	4.06
530.996	4.07
531.341	4.07
531.686	4.07
532.031	4.06
532.376	4.07
532.721	4.06
533.065	4.06
533.41	4.04
533.755	4.03
534.099	4.03
534.444	4.02
534.788	4.01
535.133	4.02
535.477	4.02
535.822	4.01
536.166	4.02
536.51	4.02
536.855	4.01
537.199	3.99
537.543	4
537.887	4.01
538.231	4.01
538.576	4.01
538.92	4.02
539.264	4.04
539.608	4.03
539.951	4.02
540.295	4.02
540.639	4.05
540.983	4.05
541.327	4.04
541.671	4.05
542.014	4.06
542.358	4.05
542.701	4.05
543.045	4.06
543.389	4.06
543.732	4.06
544.075	4.07
544.419	4.09
544.762	4.08
545.105	4.1
545.449	4.12
545.792	4.13
546.135	4.12
546.478	4.11
546.821	4.13
547.165	4.15
547.508	4.16
547.851	4.14
548.194	4.12
548.536	4.15
548.879	4.15
549.222	4.16
549.565	4.17
549.908	4.16
550.25	4.15
550.593	4.14
550.936	4.18
551.278	4.19
551.621	4.18
551.963	4.19
552.306	4.18
552.648	4.13
552.991	4.12
553.333	4.13
553.675	4.14
554.017	4.12
554.36	4.11
554.702	4.1
555.044	4.13
555.386	4.14
555.728	4.15
556.07	4.14
556.412	4.16
556.754	4.14
557.096	4.13
557.438	4.17
557.78	4.18
558.121	4.2
558.463	4.18
558.805	4.19
559.147	4.2
559.488	4.21
559.83	4.23
560.171	4.23
560.513	4.25
560.854	4.26
561.196	4.23
561.537	4.24
561.878	4.25
562.22	4.24
562.561	4.24
562.902	4.21
563.243	4.23
563.584	4.24
563.925	4.28
564.266	4.29
564.607	4.27
564.948	4.25
565.289	4.25
565.63	4.25
565.971	4.24
566.312	4.21
566.653	4.17
566.993	4.15
567.334	4.15
567.675	4.14
568.015	4.14
568.356	4.16
568.696	4.17
569.037	4.15
569.377	4.14
569.718	4.16
570.058	4.18
570.398	4.16
570.739	4.1
571.079	4.07
571.419	4.07
571.759	4.06
572.099	4.08
572.439	4.06
572.779	4.08
573.119	4.11
573.459	4.13
573.799	4.16
574.139	4.16
574.479	4.18
574.819	4.17
575.158	4.16
575.498	4.16
575.838	4.16
576.177	4.16
576.517	4.18
576.856	4.17
577.196	4.18
577.535	4.18
577.875	4.17
578.214	4.2
578.553	4.19
578.893	4.2
579.232	4.2
579.571	4.2
579.91	4.18
580.25	4.18
580.589	4.19
580.928	4.2
581.267	4.22
581.606	4.23
581.945	4.23
582.283	4.23
582.622	4.2
582.961	4.18
583.3	4.23
583.639	4.25
583.977	4.28
584.316	4.28
584.654	4.32
584.993	4.33
585.332	4.33
585.67	4.4
586.008	4.39
586.347	4.43
586.685	4.4
587.024	4.39
587.362	4.35
587.7	4.36
588.038	4.38
588.376	4.37
588.715	4.33
589.053	4.31
589.391	4.3
589.729	4.35
590.067	4.41
590.404	4.36
590.742	4.32
591.08	4.33
591.418	4.32
591.756	4.3
592.093	4.37
592.431	4.37
592.769	4.33
593.106	4.32
593.444	4.3
593.781	4.32
594.119	4.31
594.456	4.32
594.793	4.29
595.131	4.29
595.468	4.31
595.805	4.32
596.143	4.33
596.48	4.35
596.817	4.33
597.154	4.31
597.491	4.35
597.828	4.33
598.165	4.3
598.502	4.27
598.839	4.27
599.176	4.24
599.512	4.26
599.849	4.29
600.186	4.31
600.523	4.32
600.859	4.33
601.196	4.35
601.532	4.34
601.869	4.37
602.205	4.3
602.542	4.28
602.878	4.3
603.215	4.32
603.551	4.31
603.887	4.3
604.223	4.27
604.56	4.25
604.896	4.31
605.232	4.32
605.568	4.36
605.904	4.36
606.24	4.4
606.576	4.41
606.912	4.37
607.248	4.36
607.583	4.35
607.919	4.31
608.255	4.33
608.591	4.35
608.926	4.35
609.262	4.4
609.597	4.36
609.933	4.35
610.268	4.37
610.604	4.37
610.939	4.42
611.275	4.42
611.61	4.45
611.945	4.4
612.281	4.45
612.616	4.45
612.951	4.47
613.286	4.48
613.621	4.42
613.956	4.48
614.291	4.47
614.626	4.48
614.961	4.46
615.296	4.48
615.631	4.48
615.966	4.5
616.3	4.5
616.635	4.54
616.97	4.51
617.304	4.47
617.639	4.47
617.973	4.39
618.308	4.4
618.642	4.36
618.977	4.33
619.311	4.27
619.646	4.28
619.98	4.26
620.314	4.18
620.648	4.25
620.983	4.17
621.317	4.24
621.651	4.26
621.985	4.28
622.319	4.26
622.653	4.3
622.987	4.27
623.321	4.26
623.655	4.27
623.988	4.32
624.322	4.3
624.656	4.34
624.99	4.41
625.323	4.43
625.657	4.49
625.99	4.53
626.324	4.51
626.657	4.49
626.991	4.52
627.324	4.51
627.658	4.46
627.991	4.46
628.324	4.36
628.657	4.36
628.991	4.43
629.324	4.47
629.657	4.45
629.99	4.48
630.323	4.5
630.656	4.5
630.989	4.47
631.322	4.51
631.655	4.47
631.987	4.49
632.32	4.49
632.653	4.46
632.986	4.45
633.318	4.48
633.651	4.48
633.984	4.51
634.316	4.57
634.649	4.64
634.981	4.69
635.313	4.74
635.646	4.75
635.978	4.74
636.31	4.7
636.643	4.71
636.975	4.73
637.307	4.74
637.639	4.75
637.971	4.77
638.303	4.79
638.635	4.78
638.967	4.73
639.299	4.69
639.631	4.68
639.963	4.61
640.295	4.6
640.626	4.62
640.958	4.53
641.29	4.52
641.621	4.42
641.953	4.37
642.285	4.42
642.616	4.45
642.948	4.44
643.279	4.43
643.61	4.42
643.942	4.37
644.273	4.38
644.604	4.43
644.936	4.44
645.267	4.37
645.598	4.39
645.929	4.37
646.26	4.43
646.591	4.5
646.922	4.62
647.253	4.64
647.584	4.59
647.915	4.6
648.245	4.66
648.576	4.67
648.907	4.71
649.238	4.63
649.568	4.54
649.899	4.56
650.229	4.58
650.56	4.56
650.89	4.54
651.221	4.51
651.551	4.46
651.882	4.48
652.212	4.56
652.542	4.6
652.872	4.66
653.203	4.63
653.533	4.6
653.863	4.63
654.193	4.57
654.523	4.6
654.853	4.66
655.183	4.58
655.513	4.6
655.843	4.61
656.172	4.72
656.502	4.78
656.832	4.74
657.162	4.73
657.491	4.8
657.821	4.77
658.15	4.88
658.48	4.95
658.809	4.91
659.139	4.85
659.468	4.83
659.798	4.84
660.127	4.85
660.456	4.85
660.785	4.86
661.115	4.9
661.444	4.92
661.773	4.88
662.102	4.9
662.431	4.95
662.76	5
663.089	5.02
663.418	4.99
663.747	5.03
664.076	5.02
664.404	4.93
664.733	5.01
665.062	4.88
665.39	4.81
665.719	4.84
666.048	4.86
666.376	4.9
666.705	4.88
667.033	4.92
667.362	4.93
667.69	4.83
668.018	4.82
668.347	4.81
668.675	4.79
669.003	4.81
669.331	4.78
669.659	4.71
669.987	4.68
670.315	4.7
670.643	4.66
670.971	4.71
671.299	4.77
671.627	4.74
671.955	4.75
672.283	4.76
672.61	4.87
672.938	4.93
673.266	4.95
673.593	4.91
673.921	4.85
674.249	4.85
674.576	4.94
674.904	4.91
675.231	4.9
675.558	5.05
675.886	5.01
676.213	4.87
676.54	5.02
676.867	4.92
