Data from MVZ_BU163026_Reflection_00005.txt Node
Date: Tue Nov 19 12:05:58 EST 2019
User: vgr7
Spectrometer: USB2G7710
Scans to average: 3
Trigger mode: 4
Integration Time (sec): 2.000000E-2
Electric dark correction enabled: true
Boxcar width: 10
XAxis mode: Wavelengths
Number of Pixels in Spectrum: 2048
>>>>>Begin Spectral Data<<<<<
177.721	75.14
178.105	221.62
178.488	238.23
178.871	59.7
179.254	30.77
179.636	50.09
180.019	-24.8
180.402	100
180.785	-309.09
181.168	-161.16
181.55	-10.84
181.933	285.39
182.316	96.83
182.698	115.65
183.081	109.41
183.463	102.3
183.846	90.52
184.228	52.81
184.611	46.59
184.993	-42.29
185.376	-64.04
185.758	-89.08
186.14	-59.57
186.522	-75.15
186.904	-55.34
187.287	-52.14
187.669	-69
188.051	-72.17
188.433	-49.07
188.815	-73.74
189.197	-76.53
189.579	-100.79
189.961	-104.77
190.342	-176.98
190.724	-196.2
191.106	-208.13
191.488	-149.02
191.869	-284.36
192.251	-403.55
192.633	-550.12
193.014	-587.32
193.396	-316.52
193.777	-338.96
194.159	-675.09
194.54	-1984.42
194.922	7442.11
195.303	-1136
195.684	-775.63
196.065	-661.08
196.447	680.4
196.828	-8763.64
197.209	-550.44
197.59	-1985.37
197.971	-1974.47
198.352	-267.7
198.733	-165.89
199.114	-247.29
199.495	-174.54
199.876	-165.13
200.257	-111.51
200.638	-137.84
201.018	-98.25
201.399	-659.74
201.78	-892.96
202.16	-106.8
202.541	-166.02
202.922	-179.43
203.302	-161.35
203.683	-116.56
204.063	-68.45
204.444	-111.68
204.824	-192.94
205.204	-2022.64
205.585	-2204.88
205.965	-1273.24
206.345	434.01
206.725	276.27
207.106	184.04
207.486	130.81
207.866	162.4
208.246	90.45
208.626	75.91
209.006	101.72
209.386	135.37
209.766	164.04
210.145	117.13
210.525	45.78
210.905	61.41
211.285	56.26
211.664	60.45
212.044	66.37
212.424	72.63
212.803	92.59
213.183	106.61
213.562	103.86
213.942	67.86
214.321	70.06
214.701	82.06
215.08	101.53
215.459	73.28
215.838	60.14
216.218	95.77
216.597	125.31
216.976	159.83
217.355	81.44
217.734	49.53
218.113	34.3
218.492	45.41
218.871	56.23
219.25	56.43
219.629	55.31
220.008	62.48
220.387	60.56
220.766	54.48
221.144	44.37
221.523	45.08
221.902	70.54
222.28	69.6
222.659	71.51
223.037	69.98
223.416	67.95
223.794	69.21
224.173	49.35
224.551	50.36
224.929	38.92
225.308	39.07
225.686	41.95
226.064	42.94
226.442	45.48
226.821	38
227.199	32.91
227.577	31.67
227.955	25.66
228.333	22.76
228.711	20.66
229.089	21.2
229.467	21.65
229.845	21.11
230.222	20.18
230.6	17.96
230.978	19.6
231.356	15.82
231.733	14.69
232.111	15.65
232.488	10.03
232.866	12.92
233.243	12.17
233.621	10.54
233.998	11.53
234.376	8.18
234.753	6.41
235.13	8.74
235.508	9.27
235.885	10.29
236.262	10.89
236.639	10.17
237.016	8.06
237.393	6.85
237.77	6.51
238.147	5.74
238.524	5.23
238.901	4.43
239.278	4.25
239.655	4.4
240.032	5.06
240.409	5.95
240.785	5.38
241.162	5.75
241.539	6.03
241.915	5.61
242.292	5.38
242.668	5.8
243.045	5.16
243.421	4.94
243.798	4.64
244.174	4.53
244.551	4.69
244.927	4.93
245.303	4.58
245.679	4.28
246.056	4.53
246.432	4.5
246.808	4.7
247.184	4.84
247.56	4.53
247.936	4.27
248.312	4.33
248.688	4.15
249.064	4.12
249.44	3.89
249.815	4.03
250.191	4.27
250.567	4.06
250.943	4.01
251.318	4.08
251.694	3.98
252.069	4.07
252.445	3.77
252.82	3.84
253.196	4.18
253.571	4.35
253.947	4.34
254.322	4.36
254.697	3.96
255.073	4.16
255.448	4.29
255.823	4.6
256.198	4.34
256.573	4.21
256.948	4.21
257.323	4.44
257.698	4.17
258.073	3.69
258.448	3.81
258.823	3.63
259.198	3.4
259.573	3.4
259.948	3.47
260.322	3.52
260.697	3.65
261.072	3.52
261.446	3.48
261.821	3.35
262.195	3.28
262.57	3.44
262.944	3.27
263.319	3.21
263.693	3.07
264.067	3.25
264.442	3.33
264.816	3.25
265.19	3.08
265.564	3.14
265.938	3.43
266.313	3.19
266.687	3.43
267.061	3.42
267.435	3.64
267.809	3.28
268.183	3.1
268.556	2.83
268.93	2.91
269.304	2.84
269.678	2.76
270.051	2.93
270.425	2.73
270.799	2.76
271.172	2.83
271.546	2.86
271.919	2.71
272.293	2.67
272.666	2.82
273.04	2.97
273.413	2.82
273.787	2.87
274.16	3.01
274.533	2.98
274.906	3.34
275.279	3.21
275.653	3.36
276.026	3.48
276.399	3.45
276.772	3.48
277.145	3.54
277.518	3.61
277.891	3.39
278.263	3.66
278.636	3.65
279.009	3.58
279.382	3.57
279.755	3.58
280.127	3.65
280.5	3.49
280.872	3.27
281.245	3.38
281.617	3.28
281.99	3.21
282.362	3.25
282.735	2.99
283.107	3.08
283.479	3.26
283.852	3.27
284.224	3.4
284.596	3.42
284.968	3.34
285.34	3.3
285.713	3.37
286.085	3.16
286.457	3.21
286.829	3.3
287.201	3.3
287.572	3.33
287.944	3.27
288.316	3.19
288.688	3.26
289.06	3.15
289.431	3.18
289.803	3.27
290.175	3.17
290.546	3.25
290.918	3.23
291.289	3.08
291.661	3.07
292.032	3.05
292.403	2.98
292.775	3.14
293.146	3.29
293.517	3.26
293.889	3.33
294.26	3.25
294.631	3.25
295.002	3.12
295.373	3.22
295.744	3.27
296.115	3.44
296.486	3.5
296.857	3.63
297.228	3.53
297.599	3.36
297.97	3.47
298.34	3.48
298.711	3.48
299.082	3.4
299.452	3.48
299.823	3.46
300.194	3.53
300.564	3.32
300.935	3.3
301.305	3.31
301.676	3.32
302.046	3.47
302.416	3.4
302.787	3.44
303.157	3.43
303.527	3.34
303.897	3.1
304.267	2.99
304.637	2.99
305.008	3.16
305.378	3.23
305.748	3.05
306.117	3.06
306.487	3.1
306.857	3.4
307.227	3.36
307.597	3.39
307.967	3.42
308.336	3.55
308.706	3.41
309.076	3.51
309.445	3.61
309.815	3.55
310.184	3.51
310.554	3.52
310.923	3.3
311.293	3.44
311.662	3.55
312.031	3.64
312.401	3.81
312.77	3.73
313.139	3.84
313.508	3.98
313.877	3.9
314.246	3.93
314.616	3.73
314.985	3.73
315.353	3.72
315.722	3.76
316.091	3.55
316.46	3.7
316.829	3.73
317.198	3.56
317.567	3.57
317.935	3.73
318.304	3.79
318.672	3.98
319.041	3.91
319.41	3.94
319.778	3.82
320.147	3.66
320.515	3.82
320.883	3.82
321.252	3.69
321.62	3.63
321.988	3.68
322.357	3.71
322.725	3.69
323.093	3.65
323.461	3.68
323.829	3.96
324.197	3.9
324.565	3.85
324.933	3.79
325.301	3.69
325.669	3.61
326.037	3.7
326.405	3.69
326.772	3.87
327.14	3.81
327.508	3.81
327.875	3.74
328.243	3.72
328.61	3.62
328.978	3.72
329.346	3.72
329.713	3.63
330.08	3.63
330.448	3.67
330.815	3.74
331.182	3.57
331.55	3.58
331.917	3.45
332.284	3.6
332.651	3.71
333.018	3.72
333.385	3.7
333.752	3.69
334.119	3.67
334.486	3.56
334.853	3.5
335.22	3.48
335.587	3.47
335.954	3.4
336.32	3.36
336.687	3.44
337.054	3.47
337.42	3.42
337.787	3.42
338.153	3.5
338.52	3.52
338.886	3.56
339.253	3.6
339.619	3.76
339.986	3.6
340.352	3.57
340.718	3.62
341.084	3.67
341.451	3.65
341.817	3.68
342.183	3.58
342.549	3.65
342.915	3.72
343.281	3.74
343.647	3.74
344.013	3.74
344.379	3.7
344.745	3.74
345.11	3.72
345.476	3.77
345.842	3.64
346.208	3.57
346.573	3.63
346.939	3.66
347.304	3.63
347.67	3.64
348.035	3.6
348.401	3.61
348.766	3.64
349.132	3.52
349.497	3.57
349.862	3.61
350.228	3.82
350.593	3.75
350.958	3.83
351.323	3.69
351.688	3.75
352.053	3.74
352.418	3.8
352.783	3.88
353.148	3.81
353.513	3.87
353.878	3.82
354.243	3.72
354.608	3.62
354.972	3.64
355.337	3.58
355.702	3.54
356.066	3.62
356.431	3.56
356.795	3.62
357.16	3.48
357.524	3.53
357.889	3.34
358.253	3.34
358.618	3.3
358.982	3.32
359.346	3.29
359.71	3.24
360.075	3.18
360.439	3.2
360.803	3.17
361.167	3.14
361.531	3.21
361.895	3.23
362.259	3.29
362.623	3.28
362.987	3.33
363.351	3.36
363.714	3.28
364.078	3.25
364.442	3.22
364.806	3.3
365.169	3.24
365.533	3.31
365.896	3.39
366.26	3.4
366.623	3.47
366.987	3.47
367.35	3.49
367.714	3.5
368.077	3.46
368.44	3.5
368.803	3.46
369.167	3.41
369.53	3.34
369.893	3.31
370.256	3.3
370.619	3.24
370.982	3.17
371.345	3.21
371.708	3.31
372.071	3.34
372.434	3.31
372.797	3.27
373.159	3.23
373.522	3.21
373.885	3.23
374.247	3.23
374.61	3.27
374.973	3.31
375.335	3.34
375.698	3.27
376.06	3.31
376.423	3.34
376.785	3.44
377.147	3.5
377.51	3.51
377.872	3.51
378.234	3.57
378.596	3.62
378.958	3.63
379.321	3.61
379.683	3.61
380.045	3.61
380.407	3.66
380.769	3.6
381.13	3.56
381.492	3.45
381.854	3.44
382.216	3.4
382.578	3.42
382.939	3.37
383.301	3.39
383.663	3.34
384.024	3.34
384.386	3.29
384.747	3.26
385.109	3.22
385.47	3.17
385.832	3.17
386.193	3.19
386.554	3.19
386.916	3.18
387.277	3.15
387.638	3.15
387.999	3.15
388.36	3.21
388.721	3.21
389.082	3.26
389.443	3.29
389.804	3.3
390.165	3.27
390.526	3.31
390.887	3.36
391.248	3.4
391.609	3.39
391.969	3.35
392.33	3.4
392.691	3.41
393.051	3.43
393.412	3.42
393.772	3.42
394.133	3.38
394.493	3.37
394.854	3.38
395.214	3.37
395.574	3.38
395.935	3.34
396.295	3.37
396.655	3.38
397.015	3.38
397.376	3.38
397.736	3.39
398.096	3.4
398.456	3.37
398.816	3.35
399.176	3.32
399.535	3.34
399.895	3.3
400.255	3.33
400.615	3.35
400.975	3.33
401.334	3.32
401.694	3.35
402.054	3.35
402.413	3.37
402.773	3.33
403.132	3.29
403.492	3.34
403.851	3.32
404.211	3.29
404.57	3.28
404.929	3.28
405.288	3.27
405.648	3.24
406.007	3.23
406.366	3.19
406.725	3.23
407.084	3.24
407.443	3.25
407.802	3.26
408.161	3.23
408.52	3.26
408.879	3.27
409.238	3.27
409.596	3.25
409.955	3.23
410.314	3.28
410.673	3.3
411.031	3.26
411.39	3.27
411.748	3.34
412.107	3.3
412.465	3.3
412.824	3.3
413.182	3.33
413.54	3.37
413.899	3.4
414.257	3.4
414.615	3.38
414.974	3.39
415.332	3.37
415.69	3.37
416.048	3.36
416.406	3.33
416.764	3.31
417.122	3.33
417.48	3.35
417.838	3.34
418.195	3.32
418.553	3.31
418.911	3.3
419.269	3.26
419.626	3.26
419.984	3.28
420.342	3.28
420.699	3.26
421.057	3.25
421.414	3.26
421.772	3.27
422.129	3.27
422.486	3.25
422.844	3.25
423.201	3.26
423.558	3.25
423.915	3.26
424.273	3.27
424.63	3.26
424.987	3.25
425.344	3.26
425.701	3.26
426.058	3.28
426.415	3.28
426.772	3.3
427.128	3.32
427.485	3.31
427.842	3.29
428.199	3.3
428.555	3.29
428.912	3.26
429.269	3.25
429.625	3.26
429.982	3.28
430.338	3.27
430.695	3.27
431.051	3.26
431.407	3.26
431.764	3.25
432.12	3.27
432.476	3.27
432.832	3.27
433.189	3.26
433.545	3.27
433.901	3.27
434.257	3.27
434.613	3.23
434.969	3.24
435.325	3.26
435.681	3.24
436.036	3.23
436.392	3.22
436.748	3.23
437.104	3.23
437.459	3.21
437.815	3.21
438.171	3.22
438.526	3.22
438.882	3.22
439.237	3.22
439.593	3.2
439.948	3.21
440.304	3.18
440.659	3.21
441.014	3.18
441.369	3.19
441.725	3.2
442.08	3.22
442.435	3.21
442.79	3.19
443.145	3.22
443.5	3.21
443.855	3.22
444.21	3.21
444.565	3.21
444.92	3.22
445.275	3.22
445.629	3.21
445.984	3.21
446.339	3.22
446.693	3.21
447.048	3.22
447.403	3.21
447.757	3.22
448.112	3.23
448.466	3.24
448.82	3.23
449.175	3.22
449.529	3.21
449.883	3.19
450.238	3.21
450.592	3.2
450.946	3.23
451.3	3.23
451.654	3.21
452.008	3.2
452.362	3.2
452.716	3.2
453.07	3.19
453.424	3.18
453.778	3.18
454.132	3.18
454.486	3.17
454.839	3.14
455.193	3.15
455.547	3.13
455.9	3.13
456.254	3.13
456.607	3.13
456.961	3.14
457.314	3.16
457.668	3.14
458.021	3.16
458.375	3.15
458.728	3.15
459.081	3.17
459.434	3.19
459.787	3.21
460.141	3.2
460.494	3.22
460.847	3.23
461.2	3.24
461.553	3.27
461.906	3.28
462.259	3.29
462.611	3.29
462.964	3.3
463.317	3.31
463.67	3.32
464.022	3.32
464.375	3.32
464.728	3.32
465.08	3.35
465.433	3.36
465.785	3.38
466.138	3.41
466.49	3.38
466.843	3.38
467.195	3.38
467.547	3.4
467.899	3.39
468.252	3.38
468.604	3.37
468.956	3.37
469.308	3.34
469.66	3.38
470.012	3.38
470.364	3.38
470.716	3.38
471.068	3.4
471.42	3.4
471.772	3.42
472.123	3.44
472.475	3.45
472.827	3.45
473.178	3.43
473.53	3.43
473.882	3.45
474.233	3.42
474.585	3.38
474.936	3.39
475.288	3.39
475.639	3.41
475.99	3.4
476.342	3.38
476.693	3.37
477.044	3.35
477.395	3.34
477.746	3.32
478.097	3.3
478.448	3.29
478.8	3.29
479.15	3.29
479.501	3.25
479.852	3.25
480.203	3.24
480.554	3.24
480.905	3.24
481.255	3.25
481.606	3.28
481.957	3.3
482.307	3.29
482.658	3.29
483.009	3.29
483.359	3.3
483.709	3.31
484.06	3.32
484.41	3.33
484.761	3.35
485.111	3.35
485.461	3.37
485.811	3.37
486.162	3.37
486.512	3.38
486.862	3.39
487.212	3.4
487.562	3.39
487.912	3.4
488.262	3.4
488.612	3.41
488.961	3.41
489.311	3.4
489.661	3.41
490.011	3.41
490.36	3.42
490.71	3.41
491.06	3.4
491.409	3.41
491.759	3.41
492.108	3.4
492.458	3.39
492.807	3.39
493.157	3.39
493.506	3.4
493.855	3.39
494.204	3.4
494.554	3.39
494.903	3.41
495.252	3.42
495.601	3.41
495.95	3.41
496.299	3.41
496.648	3.43
496.997	3.44
497.346	3.44
497.695	3.44
498.043	3.46
498.392	3.49
498.741	3.5
499.09	3.5
499.438	3.5
499.787	3.55
500.135	3.54
500.484	3.54
500.832	3.54
501.181	3.58
501.529	3.59
501.878	3.61
502.226	3.61
502.574	3.62
502.923	3.62
503.271	3.61
503.619	3.62
503.967	3.6
504.315	3.65
504.663	3.65
505.011	3.66
505.359	3.66
505.707	3.67
506.055	3.66
506.403	3.67
506.751	3.67
507.098	3.66
507.446	3.67
507.794	3.7
508.141	3.72
508.489	3.7
508.837	3.69
509.184	3.69
509.531	3.69
509.879	3.69
510.226	3.7
510.574	3.73
510.921	3.73
511.268	3.75
511.616	3.72
511.963	3.74
512.31	3.74
512.657	3.74
513.004	3.72
513.351	3.74
513.698	3.74
514.045	3.74
514.392	3.78
514.739	3.77
515.086	3.77
515.432	3.79
515.779	3.79
516.126	3.81
516.473	3.82
516.819	3.84
517.166	3.84
517.512	3.84
517.859	3.84
518.205	3.81
518.552	3.83
518.898	3.82
519.245	3.81
519.591	3.82
519.937	3.83
520.283	3.84
520.629	3.82
520.976	3.82
521.322	3.85
521.668	3.82
522.014	3.82
522.36	3.81
522.706	3.79
523.052	3.8
523.398	3.79
523.743	3.79
524.089	3.79
524.435	3.8
524.781	3.83
525.126	3.83
525.472	3.86
525.817	3.86
526.163	3.88
526.509	3.9
526.854	3.91
527.199	3.91
527.545	3.93
527.89	3.95
528.235	3.95
528.581	3.95
528.926	3.95
529.271	3.95
529.616	3.96
529.961	3.97
530.306	3.97
530.651	3.99
530.996	4
531.341	4.01
531.686	4.01
532.031	4.01
532.376	4.02
532.721	4.01
533.065	4
533.41	4.02
533.755	4.02
534.099	4
534.444	4.02
534.788	4.01
535.133	4.01
535.477	4
535.822	4.01
536.166	4.01
536.51	4.03
536.855	4.03
537.199	4.04
537.543	4.03
537.887	4.03
538.231	4.02
538.576	4.01
538.92	4.03
539.264	4.05
539.608	4.06
539.951	4.05
540.295	4.06
540.639	4.04
540.983	4.04
541.327	4.06
541.671	4.06
542.014	4.07
542.358	4.07
542.701	4.09
543.045	4.1
543.389	4.12
543.732	4.1
544.075	4.11
544.419	4.11
544.762	4.12
545.105	4.15
545.449	4.15
545.792	4.17
546.135	4.16
546.478	4.15
546.821	4.15
547.165	4.17
547.508	4.2
547.851	4.22
548.194	4.21
548.536	4.23
548.879	4.19
549.222	4.2
549.565	4.19
549.908	4.19
550.25	4.18
550.593	4.17
550.936	4.2
551.278	4.21
551.621	4.19
551.963	4.19
552.306	4.17
552.648	4.16
552.991	4.13
553.333	4.17
553.675	4.19
554.017	4.17
554.36	4.2
554.702	4.16
555.044	4.16
555.386	4.18
555.728	4.16
556.07	4.2
556.412	4.2
556.754	4.2
557.096	4.22
557.438	4.19
557.78	4.2
558.121	4.19
558.463	4.18
558.805	4.19
559.147	4.2
559.488	4.22
559.83	4.24
560.171	4.28
560.513	4.28
560.854	4.25
561.196	4.26
561.537	4.23
561.878	4.24
562.22	4.25
562.561	4.24
562.902	4.26
563.243	4.22
563.584	4.21
563.925	4.21
564.266	4.21
564.607	4.24
564.948	4.24
565.289	4.23
565.63	4.23
565.971	4.23
566.312	4.22
566.653	4.24
566.993	4.22
567.334	4.2
567.675	4.19
568.015	4.21
568.356	4.23
568.696	4.23
569.037	4.22
569.377	4.18
569.718	4.21
570.058	4.22
570.398	4.23
570.739	4.21
571.079	4.19
571.419	4.16
571.759	4.14
572.099	4.14
572.439	4.13
572.779	4.14
573.119	4.14
573.459	4.16
573.799	4.12
574.139	4.13
574.479	4.16
574.819	4.18
575.158	4.21
575.498	4.19
575.838	4.21
576.177	4.21
576.517	4.26
576.856	4.24
577.196	4.21
577.535	4.24
577.875	4.25
578.214	4.3
578.553	4.35
578.893	4.36
579.232	4.4
579.571	4.42
579.91	4.44
580.25	4.44
580.589	4.45
580.928	4.44
581.267	4.45
581.606	4.39
581.945	4.31
582.283	4.25
582.622	4.21
582.961	4.2
583.3	4.22
583.639	4.25
583.977	4.25
584.316	4.23
584.654	4.23
584.993	4.28
585.332	4.24
585.67	4.24
586.008	4.28
586.347	4.28
586.685	4.26
587.024	4.25
587.362	4.25
587.7	4.26
588.038	4.32
588.376	4.35
588.715	4.36
589.053	4.43
589.391	4.46
589.729	4.48
590.067	4.49
590.404	4.52
590.742	4.51
591.08	4.52
591.418	4.57
591.756	4.55
592.093	4.52
592.431	4.53
592.769	4.56
593.106	4.55
593.444	4.53
593.781	4.55
594.119	4.57
594.456	4.58
594.793	4.55
595.131	4.55
595.468	4.54
595.805	4.57
596.143	4.54
596.48	4.51
596.817	4.51
597.154	4.49
597.491	4.43
597.828	4.41
598.165	4.42
598.502	4.38
598.839	4.38
599.176	4.4
599.512	4.4
599.849	4.39
600.186	4.36
600.523	4.36
600.859	4.34
601.196	4.3
601.532	4.31
601.869	4.31
602.205	4.29
602.542	4.28
602.878	4.31
603.215	4.31
603.551	4.37
603.887	4.36
604.223	4.36
604.56	4.38
604.896	4.42
605.232	4.4
605.568	4.42
605.904	4.42
606.24	4.42
606.576	4.43
606.912	4.4
607.248	4.42
607.583	4.46
607.919	4.44
608.255	4.44
608.591	4.43
608.926	4.47
609.262	4.47
609.597	4.43
609.933	4.44
610.268	4.47
610.604	4.45
610.939	4.52
611.275	4.51
611.61	4.51
611.945	4.45
612.281	4.49
612.616	4.54
612.951	4.59
613.286	4.6
613.621	4.62
613.956	4.62
614.291	4.63
614.626	4.6
614.961	4.64
615.296	4.73
615.631	4.67
615.966	4.62
616.3	4.59
616.635	4.67
616.97	4.62
617.304	4.59
617.639	4.58
617.973	4.5
618.308	4.54
618.642	4.54
618.977	4.55
619.311	4.57
619.646	4.58
619.98	4.53
620.314	4.53
620.648	4.51
620.983	4.52
621.317	4.54
621.651	4.53
621.985	4.55
622.319	4.49
622.653	4.6
622.987	4.64
623.321	4.7
623.655	4.7
623.988	4.66
624.322	4.65
624.656	4.66
624.99	4.7
625.323	4.7
625.657	4.73
625.99	4.78
626.324	4.77
626.657	4.73
626.991	4.74
627.324	4.74
627.658	4.75
627.991	4.78
628.324	4.74
628.657	4.75
628.991	4.73
629.324	4.74
629.657	4.7
629.99	4.68
630.323	4.68
630.656	4.65
630.989	4.66
631.322	4.74
631.655	4.72
631.987	4.71
632.32	4.71
632.653	4.68
632.986	4.66
633.318	4.68
633.651	4.75
633.984	4.77
634.316	4.74
634.649	4.77
634.981	4.72
635.313	4.8
635.646	4.81
635.978	4.88
636.31	4.88
636.643	4.89
636.975	4.92
637.307	4.91
637.639	4.9
637.971	4.93
638.303	4.88
638.635	4.89
638.967	4.9
639.299	4.92
639.631	4.91
639.963	4.93
640.295	4.84
640.626	4.79
640.958	4.74
641.29	4.78
641.621	4.71
641.953	4.77
642.285	4.77
642.616	4.8
642.948	4.81
643.279	4.79
643.61	4.81
643.942	4.77
644.273	4.8
644.604	4.81
644.936	4.81
645.267	4.82
645.598	4.84
645.929	4.87
646.26	4.77
646.591	4.83
646.922	4.84
647.253	4.89
647.584	4.82
647.915	4.91
648.245	4.88
648.576	4.89
648.907	4.91
649.238	4.91
649.568	4.97
649.899	4.88
650.229	4.9
650.56	4.92
650.89	4.98
651.221	4.98
651.551	5.03
651.882	4.99
652.212	4.98
652.542	5.02
652.872	4.96
653.203	5.05
653.533	5.07
653.863	5.03
654.193	4.99
654.523	5
654.853	5.02
655.183	5.1
655.513	5.14
655.843	5.14
656.172	5.15
656.502	5.09
656.832	5.14
657.162	5.13
657.491	5.15
657.821	5.09
658.15	5.07
658.48	5.08
658.809	5.16
659.139	5.2
659.468	5.16
659.798	5.2
660.127	5.25
660.456	5.21
660.785	5.23
661.115	5.33
661.444	5.36
661.773	5.35
662.102	5.24
662.431	5.25
662.76	5.17
663.089	5.22
663.418	5.29
663.747	5.25
664.076	5.24
664.404	5.23
664.733	5.3
665.062	5.3
665.39	5.29
665.719	5.29
666.048	5.17
666.376	5.27
666.705	5.24
667.033	5.23
667.362	5.23
667.69	5.25
668.018	5.22
668.347	5.28
668.675	5.28
669.003	5.38
669.331	5.33
669.659	5.3
669.987	5.23
670.315	5.17
670.643	5.19
670.971	5.24
671.299	5.25
671.627	5.27
671.955	5.28
672.283	5.24
672.61	5.23
672.938	5.32
673.266	5.15
673.593	5.21
673.921	5.19
674.249	5.22
674.576	5.2
674.904	5.21
675.231	5.24
675.558	5.22
675.886	5.17
676.213	5.11
676.54	5.23
676.867	5.2
677.195	5.21
