Data from MVZ_BU8940_Reflection_00014.txt Node
Date: Tue Nov 19 12:16:43 EST 2019
User: vgr7
Spectrometer: USB2G7710
Scans to average: 3
Trigger mode: 4
Integration Time (sec): 2.000000E-2
Electric dark correction enabled: true
Boxcar width: 10
XAxis mode: Wavelengths
Number of Pixels in Spectrum: 2048
>>>>>Begin Spectral Data<<<<<
177.721	-135.92
178.105	-81.82
178.488	-427.92
178.871	-171.43
179.254	-21.95
179.636	198.21
180.019	261.85
180.402	340
180.785	1500
181.168	-157.43
181.55	110.36
181.933	67.94
182.316	70.85
182.698	-23.52
183.081	-22.94
183.463	-42.86
183.846	-69.44
184.228	0.95
184.611	-3.06
184.993	-37.82
185.376	-26.52
185.758	-91.2
186.14	-92.52
186.522	-372.36
186.904	-385.71
187.287	-129.61
187.669	-147.46
188.051	-166.03
188.433	-91.88
188.815	-69.55
189.197	-79.15
189.579	-737.84
189.961	145.33
190.342	267.79
190.724	30.48
191.106	2257.89
191.488	-2348.28
191.869	47100
192.251	1407.69
192.633	76.74
193.014	14.44
193.396	-20.52
193.777	-251.35
194.159	277.22
194.54	162.99
194.922	89.77
195.303	-2.65
195.684	-0.7
196.065	1.19
196.447	23.08
196.828	55.68
197.209	-25.56
197.59	-80.81
197.971	-0.58
198.352	60.99
198.733	138.06
199.114	117.67
199.495	-321.69
199.876	789.32
200.257	609.55
200.638	393.29
201.018	415.61
201.399	-920.98
201.78	-612.92
202.16	-608.11
202.541	2050.82
202.922	-1169.66
203.302	-433.07
203.683	-376.36
204.063	-1184.21
204.444	-840.59
204.824	652.94
205.204	6253.85
205.585	2390.32
205.965	-1255.93
206.345	-217.37
206.725	-187.13
207.106	52.65
207.486	65.22
207.866	444.83
208.246	242.26
208.626	164.04
209.006	38.9
209.386	115.94
209.766	471.43
210.145	-7328.57
210.525	1671.43
210.905	233.05
211.285	102.26
211.664	79.82
212.044	14.59
212.424	23.08
212.803	8.06
213.183	14.75
213.562	-16.48
213.942	-25.88
214.321	-21.72
214.701	-35.16
215.08	-70.08
215.459	-15.23
215.838	-3.02
216.218	-27.86
216.597	-2.92
216.976	-31.98
217.355	44.29
217.734	-108.79
218.113	363.16
218.492	-44.8
218.871	-118.6
219.25	634.88
219.629	190.91
220.008	-103.79
220.387	-158.82
220.766	138.91
221.144	43.03
221.523	29.37
221.902	26.41
222.28	101.74
222.659	87.31
223.037	77.17
223.416	54.89
223.794	39.69
224.173	26.35
224.551	29.43
224.929	24.29
225.308	9.48
225.686	1.78
226.064	-3.68
226.442	-6.02
226.821	-4.9
227.199	-6.9
227.577	-8.79
227.955	-6.68
228.333	-6.01
228.711	-9.2
229.089	-6.91
229.467	-6.52
229.845	-5.81
230.222	-7.95
230.6	-9.79
230.978	-8.88
231.356	-6.15
231.733	-4.94
232.111	-2.78
232.488	-0.31
232.866	2.54
233.243	1.96
233.621	2.38
233.998	4.46
234.376	6.88
234.753	7.66
235.13	8.7
235.508	8.4
235.885	6.74
236.262	6.91
236.639	7.08
237.016	6.27
237.393	8.06
237.77	7.99
238.147	8.27
238.524	7.17
238.901	7.09
239.278	5.65
239.655	5.56
240.032	5.25
240.409	4.88
240.785	4.34
241.162	4.68
241.539	4.12
241.915	3.18
242.292	3.37
242.668	3.07
243.045	3.15
243.421	3.71
243.798	3.56
244.174	3.55
244.551	3.87
244.927	4.04
245.303	3.81
245.679	3.67
246.056	3.48
246.432	3.61
246.808	3.86
247.184	4.22
247.56	3.89
247.936	3.78
248.312	3.57
248.688	3.72
249.064	3.73
249.44	4.06
249.815	4.36
250.191	4.07
250.567	4.12
250.943	4.12
251.318	3.89
251.694	3.53
252.069	3.65
252.445	3.27
252.82	3.2
253.196	2.96
253.571	3
253.947	2.98
254.322	2.72
254.697	2.71
255.073	2.41
255.448	2.64
255.823	2.82
256.198	3.12
256.573	3.01
256.948	2.86
257.323	2.8
257.698	2.93
258.073	2.99
258.448	3.05
258.823	2.78
259.198	2.96
259.573	3.17
259.948	3.24
260.322	3.41
260.697	3.39
261.072	3.26
261.446	3.42
261.821	3.41
262.195	3.58
262.57	3.36
262.944	3.51
263.319	3.49
263.693	3.38
264.067	3.2
264.442	3.31
264.816	3.35
265.19	3.29
265.564	3.24
265.938	3.43
266.313	3.52
266.687	3.71
267.061	3.56
267.435	3.77
267.809	3.69
268.183	3.69
268.556	3.77
268.93	3.92
269.304	3.75
269.678	3.77
270.051	3.73
270.425	3.7
270.799	3.43
271.172	3.59
271.546	3.61
271.919	3.73
272.293	3.74
272.666	3.65
273.04	3.61
273.413	3.63
273.787	3.36
274.16	3.26
274.533	3.49
274.906	3.57
275.279	3.35
275.653	3.41
276.026	3.35
276.399	3.22
276.772	3.34
277.145	3.5
277.518	3.4
277.891	3.44
278.263	3.61
278.636	3.78
279.009	3.75
279.382	3.76
279.755	3.75
280.127	3.64
280.5	3.77
280.872	3.82
281.245	3.66
281.617	3.87
281.99	3.95
282.362	3.86
282.735	3.77
283.107	3.83
283.479	3.73
283.852	3.79
284.224	3.9
284.596	3.86
284.968	3.69
285.34	3.77
285.713	3.84
286.085	3.84
286.457	3.86
286.829	3.94
287.201	3.93
287.572	3.91
287.944	4.08
288.316	4.22
288.688	4.28
289.06	4.41
289.431	4.39
289.803	4.41
290.175	4.36
290.546	4.46
290.918	4.39
291.289	4.53
291.661	4.4
292.032	4.34
292.403	4.43
292.775	4.62
293.146	4.73
293.517	4.54
293.889	4.42
294.26	4.34
294.631	4.27
295.002	4.34
295.373	4.36
295.744	4.33
296.115	4.22
296.486	4.27
296.857	4.26
297.228	4.15
297.599	4.12
297.97	4.18
298.34	4.15
298.711	4.34
299.082	4.15
299.452	4.24
299.823	4.2
300.194	4.16
300.564	4.1
300.935	3.99
301.305	4.1
301.676	4.1
302.046	4.23
302.416	4.32
302.787	4.27
303.157	4.42
303.527	4.27
303.897	4.39
304.267	4.52
304.637	4.48
305.008	4.64
305.378	4.88
305.748	4.82
306.117	4.87
306.487	4.8
306.857	5.05
307.227	5.12
307.597	5.18
307.967	5.27
308.336	5.36
308.706	5.41
309.076	5.57
309.445	5.68
309.815	5.71
310.184	5.7
310.554	5.71
310.923	5.55
311.293	5.65
311.662	5.57
312.031	5.43
312.401	5.56
312.77	5.58
313.139	5.5
313.508	5.56
313.877	5.46
314.246	5.45
314.616	5.42
314.985	5.43
315.353	5.51
315.722	5.52
316.091	5.37
316.46	5.35
316.829	5.17
317.198	5.38
317.567	5.48
317.935	5.53
318.304	5.83
318.672	6.11
319.041	6.22
319.41	6.29
319.778	6.48
320.147	6.49
320.515	6.47
320.883	6.53
321.252	6.68
321.62	6.85
321.988	7.01
322.357	7.13
322.725	7.18
323.093	7.14
323.461	7.02
323.829	7.29
324.197	7.31
324.565	7.51
324.933	7.24
325.301	6.99
325.669	7.09
326.037	7.15
326.405	7.13
326.772	7.2
327.14	7.22
327.508	7.23
327.875	7.19
328.243	7.16
328.61	7.03
328.978	6.94
329.346	6.98
329.713	7.04
330.08	6.98
330.448	7.03
330.815	7.07
331.182	7.29
331.55	7.25
331.917	7.23
332.284	7.16
332.651	7.37
333.018	7.75
333.385	7.67
333.752	7.5
334.119	7.49
334.486	7.41
334.853	7.7
335.22	7.73
335.587	7.79
335.954	7.97
336.32	8.01
336.687	8.06
337.054	8.18
337.42	8.29
337.787	8.41
338.153	8.45
338.52	8.69
338.886	8.66
339.253	8.57
339.619	8.7
339.986	8.68
340.352	8.76
340.718	8.59
341.084	8.57
341.451	8.67
341.817	8.64
342.183	8.73
342.549	8.63
342.915	8.61
343.281	8.63
343.647	8.66
344.013	8.72
344.379	8.85
344.745	8.85
345.11	8.8
345.476	8.77
345.842	8.84
346.208	8.8
346.573	8.82
346.939	9.01
347.304	9.08
347.67	9.13
348.035	9.04
348.401	9.19
348.766	9.26
349.132	9.26
349.497	9.41
349.862	9.46
350.228	9.59
350.593	9.61
350.958	9.74
351.323	9.69
351.688	9.84
352.053	9.81
352.418	9.72
352.783	9.73
353.148	9.76
353.513	9.7
353.878	9.64
354.243	9.61
354.608	9.53
354.972	9.5
355.337	9.59
355.702	9.74
356.066	9.69
356.431	9.72
356.795	9.79
357.16	9.71
357.524	9.64
357.889	9.54
358.253	9.52
358.618	9.46
358.982	9.52
359.346	9.5
359.71	9.49
360.075	9.55
360.439	9.63
360.803	9.66
361.167	9.69
361.531	9.72
361.895	9.72
362.259	9.78
362.623	9.82
362.987	9.8
363.351	9.69
363.714	9.71
364.078	9.71
364.442	9.7
364.806	9.77
365.169	9.79
365.533	9.82
365.896	9.89
366.26	9.82
366.623	9.8
366.987	9.74
367.35	9.75
367.714	9.7
368.077	9.66
368.44	9.69
368.803	9.63
369.167	9.52
369.53	9.51
369.893	9.48
370.256	9.36
370.619	9.31
370.982	9.33
371.345	9.26
371.708	9.17
372.071	9.08
372.434	9.02
372.797	8.99
373.159	8.98
373.522	8.97
373.885	8.93
374.247	8.9
374.61	8.87
374.973	8.8
375.335	8.77
375.698	8.67
376.06	8.56
376.423	8.5
376.785	8.5
377.147	8.45
377.51	8.33
377.872	8.31
378.234	8.28
378.596	8.28
378.958	8.23
379.321	8.18
379.683	8.16
380.045	8.14
380.407	8.08
380.769	7.99
381.13	7.92
381.492	7.88
381.854	7.78
382.216	7.78
382.578	7.76
382.939	7.7
383.301	7.65
383.663	7.6
384.024	7.63
384.386	7.54
384.747	7.51
385.109	7.49
385.47	7.5
385.832	7.47
386.193	7.41
386.554	7.38
386.916	7.44
387.277	7.37
387.638	7.26
387.999	7.24
388.36	7.22
388.721	7.19
389.082	7.21
389.443	7.26
389.804	7.23
390.165	7.24
390.526	7.23
390.887	7.2
391.248	7.16
391.609	7.11
391.969	7.16
392.33	7.16
392.691	7.19
393.051	7.14
393.412	7.08
393.772	7.04
394.133	7.01
394.493	6.93
394.854	6.94
395.214	6.97
395.574	6.93
395.935	6.89
396.295	6.84
396.655	6.78
397.015	6.72
397.376	6.66
397.736	6.58
398.096	6.55
398.456	6.57
398.816	6.6
399.176	6.57
399.535	6.48
399.895	6.47
400.255	6.38
400.615	6.36
400.975	6.32
401.334	6.28
401.694	6.27
402.054	6.23
402.413	6.18
402.773	6.15
403.132	6.11
403.492	6.06
403.851	6.08
404.211	6.05
404.57	6.03
404.929	5.96
405.288	5.96
405.648	5.93
406.007	5.85
406.366	5.86
406.725	5.86
407.084	5.9
407.443	5.84
407.802	5.88
408.161	5.85
408.52	5.83
408.879	5.83
409.238	5.81
409.596	5.78
409.955	5.76
410.314	5.76
410.673	5.75
411.031	5.74
411.39	5.67
411.748	5.71
412.107	5.66
412.465	5.66
412.824	5.6
413.182	5.58
413.54	5.59
413.899	5.53
414.257	5.49
414.615	5.43
414.974	5.43
415.332	5.39
415.69	5.38
416.048	5.38
416.406	5.35
416.764	5.35
417.122	5.35
417.48	5.36
417.838	5.35
418.195	5.34
418.553	5.33
418.911	5.32
419.269	5.3
419.626	5.3
419.984	5.31
420.342	5.3
420.699	5.28
421.057	5.25
421.414	5.26
421.772	5.25
422.129	5.23
422.486	5.21
422.844	5.19
423.201	5.19
423.558	5.19
423.915	5.19
424.273	5.15
424.63	5.14
424.987	5.14
425.344	5.12
425.701	5.12
426.058	5.12
426.415	5.12
426.772	5.08
427.128	5.07
427.485	5.07
427.842	5.07
428.199	5.08
428.555	5.07
428.912	5.06
429.269	5.07
429.625	5.06
429.982	5.08
430.338	5.08
430.695	5.07
431.051	5.06
431.407	5.04
431.764	5.04
432.12	5.05
432.476	5.07
432.832	5.06
433.189	5.04
433.545	5.04
433.901	5.02
434.257	5.01
434.613	5
434.969	4.98
435.325	4.99
435.681	4.98
436.036	4.99
436.392	4.98
436.748	4.99
437.104	4.99
437.459	4.98
437.815	4.98
438.171	4.98
438.526	4.98
438.882	4.99
439.237	5
439.593	5
439.948	4.96
440.304	4.95
440.659	4.96
441.014	4.94
441.369	4.96
441.725	4.99
442.08	4.99
442.435	5
442.79	5
443.145	5
443.5	5.01
443.855	5
444.21	4.98
444.565	4.98
444.92	4.98
445.275	4.99
445.629	4.98
445.984	4.99
446.339	4.99
446.693	4.98
447.048	4.97
447.403	4.99
447.757	4.97
448.112	4.97
448.466	4.98
448.82	4.97
449.175	4.95
449.529	4.96
449.883	4.95
450.238	4.95
450.592	4.95
450.946	4.92
451.3	4.94
451.654	4.93
452.008	4.94
452.362	4.91
452.716	4.92
453.07	4.92
453.424	4.9
453.778	4.88
454.132	4.88
454.486	4.88
454.839	4.84
455.193	4.85
455.547	4.83
455.9	4.84
456.254	4.86
456.607	4.86
456.961	4.84
457.314	4.83
457.668	4.83
458.021	4.82
458.375	4.83
458.728	4.81
459.081	4.83
459.434	4.83
459.787	4.86
460.141	4.85
460.494	4.87
460.847	4.88
461.2	4.88
461.553	4.89
461.906	4.9
462.259	4.92
462.611	4.94
462.964	4.95
463.317	4.94
463.67	4.93
464.022	4.94
464.375	4.96
464.728	4.98
465.08	4.97
465.433	5.02
465.785	5.06
466.138	5.07
466.49	5.07
466.843	5.08
467.195	5.1
467.547	5.08
467.899	5.1
468.252	5.11
468.604	5.12
468.956	5.13
469.308	5.15
469.66	5.18
470.012	5.19
470.364	5.23
470.716	5.28
471.068	5.33
471.42	5.37
471.772	5.4
472.123	5.45
472.475	5.5
472.827	5.5
473.178	5.49
473.53	5.51
473.882	5.52
474.233	5.52
474.585	5.52
474.936	5.55
475.288	5.55
475.639	5.55
475.99	5.56
476.342	5.56
476.693	5.57
477.044	5.57
477.395	5.58
477.746	5.55
478.097	5.51
478.448	5.47
478.8	5.42
479.15	5.39
479.501	5.36
479.852	5.35
480.203	5.36
480.554	5.36
480.905	5.37
481.255	5.36
481.606	5.36
481.957	5.37
482.307	5.37
482.658	5.37
483.009	5.36
483.359	5.36
483.709	5.36
484.06	5.35
484.41	5.34
484.761	5.34
485.111	5.34
485.461	5.34
485.811	5.35
486.162	5.36
486.512	5.37
486.862	5.38
487.212	5.38
487.562	5.38
487.912	5.39
488.262	5.37
488.612	5.37
488.961	5.38
489.311	5.37
489.661	5.37
490.011	5.37
490.36	5.38
490.71	5.38
491.06	5.4
491.409	5.4
491.759	5.4
492.108	5.41
492.458	5.42
492.807	5.44
493.157	5.46
493.506	5.48
493.855	5.5
494.204	5.5
494.554	5.51
494.903	5.54
495.252	5.56
495.601	5.61
495.95	5.66
496.299	5.69
496.648	5.74
496.997	5.79
497.346	5.84
497.695	5.9
498.043	5.96
498.392	5.99
498.741	6.08
499.09	6.16
499.438	6.21
499.787	6.28
500.135	6.34
500.484	6.41
500.832	6.48
501.181	6.58
501.529	6.7
501.878	6.8
502.226	6.89
502.574	7
502.923	7.1
503.271	7.2
503.619	7.34
503.967	7.44
504.315	7.58
504.663	7.71
505.011	7.83
505.359	7.95
505.707	8.1
506.055	8.21
506.403	8.34
506.751	8.5
507.098	8.66
507.446	8.79
507.794	8.94
508.141	9.09
508.489	9.24
508.837	9.36
509.184	9.51
509.531	9.66
509.879	9.81
510.226	9.95
510.574	10.13
510.921	10.28
511.268	10.45
511.616	10.6
511.963	10.78
512.31	10.96
512.657	11.11
513.004	11.29
513.351	11.53
513.698	11.76
514.045	11.97
514.392	12.18
514.739	12.43
515.086	12.68
515.432	12.92
515.779	13.12
516.126	13.36
516.473	13.56
516.819	13.78
517.166	13.98
517.512	14.17
517.859	14.38
518.205	14.54
518.552	14.72
518.898	14.93
519.245	15.12
519.591	15.34
519.937	15.56
520.283	15.74
520.629	15.93
520.976	16.13
521.322	16.34
521.668	16.55
522.014	16.78
522.36	17
522.706	17.26
523.052	17.55
523.398	17.84
523.743	18.12
524.089	18.42
524.435	18.7
524.781	18.99
525.126	19.2
525.472	19.43
525.817	19.64
526.163	19.81
526.509	19.99
526.854	20.15
527.199	20.3
527.545	20.45
527.89	20.61
528.235	20.76
528.581	20.92
528.926	21.07
529.271	21.22
529.616	21.38
529.961	21.54
530.306	21.7
530.651	21.84
530.996	22.02
531.341	22.18
531.686	22.36
532.031	22.52
532.376	22.75
532.721	22.94
533.065	23.13
533.41	23.33
533.755	23.56
534.099	23.77
534.444	24
534.788	24.24
535.133	24.45
535.477	24.66
535.822	24.91
536.166	25.17
536.51	25.45
536.855	25.69
537.199	25.93
537.543	26.21
537.887	26.53
538.231	26.81
538.576	27.07
538.92	27.34
539.264	27.61
539.608	27.81
539.951	28.03
540.295	28.26
540.639	28.5
540.983	28.68
541.327	28.88
541.671	29.09
542.014	29.31
542.358	29.49
542.701	29.71
543.045	29.87
543.389	30.07
543.732	30.24
544.075	30.45
544.419	30.65
544.762	30.84
545.105	31.01
545.449	31.22
545.792	31.44
546.135	31.65
546.478	31.87
546.821	32.13
547.165	32.42
547.508	32.64
547.851	32.89
548.194	33.17
548.536	33.4
548.879	33.61
549.222	33.8
549.565	34.05
549.908	34.28
550.25	34.51
550.593	34.77
550.936	34.99
551.278	35.21
551.621	35.43
551.963	35.64
552.306	35.86
552.648	36.12
552.991	36.34
553.333	36.55
553.675	36.8
554.017	36.94
554.36	37.1
554.702	37.31
555.044	37.49
555.386	37.63
555.728	37.88
556.07	38.12
556.412	38.25
556.754	38.36
557.096	38.56
557.438	38.74
557.78	38.88
558.121	39.15
558.463	39.33
558.805	39.48
559.147	39.67
559.488	39.9
559.83	40.01
560.171	40.13
560.513	40.33
560.854	40.44
561.196	40.59
561.537	40.77
561.878	40.93
562.22	41.09
562.561	41.23
562.902	41.35
563.243	41.38
563.584	41.59
563.925	41.74
564.266	41.87
564.607	42
564.948	42.1
565.289	42.13
565.63	42.27
565.971	42.45
566.312	42.62
566.653	42.74
566.993	42.88
567.334	43
567.675	43.16
568.015	43.31
568.356	43.47
568.696	43.6
569.037	43.73
569.377	43.83
569.718	43.96
570.058	44.1
570.398	44.28
570.739	44.37
571.079	44.52
571.419	44.65
571.759	44.74
572.099	44.92
572.439	45.06
572.779	45.12
573.119	45.26
573.459	45.37
573.799	45.47
574.139	45.56
574.479	45.67
574.819	45.73
575.158	45.8
575.498	45.87
575.838	45.96
576.177	46.03
576.517	46.13
576.856	46.18
577.196	46.25
577.535	46.32
577.875	46.43
578.214	46.55
578.553	46.58
578.893	46.73
579.232	46.8
579.571	46.91
579.91	47
580.25	47.02
580.589	47.05
580.928	47.09
581.267	47.21
581.606	47.28
581.945	47.34
582.283	47.41
582.622	47.48
582.961	47.48
583.3	47.56
583.639	47.64
583.977	47.78
584.316	47.86
584.654	47.95
584.993	47.98
585.332	47.93
585.67	47.93
586.008	47.94
586.347	48.01
586.685	48.07
587.024	48.12
587.362	48.22
587.7	48.2
588.038	48.27
588.376	48.36
588.715	48.39
589.053	48.35
589.391	48.39
589.729	48.47
590.067	48.59
590.404	48.64
590.742	48.67
591.08	48.77
591.418	48.87
591.756	48.95
592.093	48.99
592.431	49.22
592.769	49.33
593.106	49.41
593.444	49.43
593.781	49.43
594.119	49.51
594.456	49.56
594.793	49.62
595.131	49.64
595.468	49.62
595.805	49.67
596.143	49.77
596.48	49.73
596.817	49.78
597.154	49.79
597.491	49.82
597.828	49.83
598.165	49.84
598.502	49.81
598.839	49.83
599.176	49.86
599.512	49.84
599.849	49.94
600.186	50.03
600.523	50.06
600.859	50.11
601.196	50.15
601.532	50.14
601.869	50.21
602.205	50.24
602.542	50.27
602.878	50.35
603.215	50.45
603.551	50.6
603.887	50.6
604.223	50.59
604.56	50.68
604.896	50.75
605.232	50.76
605.568	50.82
605.904	50.89
606.24	50.92
606.576	50.95
606.912	50.98
607.248	50.96
607.583	51.06
607.919	51.12
608.255	51.1
608.591	51.15
608.926	51.17
609.262	51.19
609.597	51.25
609.933	51.24
610.268	51.15
610.604	51.16
610.939	51.23
611.275	51.33
611.61	51.3
611.945	51.27
612.281	51.27
612.616	51.37
612.951	51.44
613.286	51.44
613.621	51.46
613.956	51.42
614.291	51.38
614.626	51.34
614.961	51.26
615.296	51.28
615.631	51.34
615.966	51.4
616.3	51.48
616.635	51.52
616.97	51.56
617.304	51.7
617.639	51.72
617.973	51.62
618.308	51.54
618.642	51.63
618.977	51.71
619.311	51.74
619.646	51.69
619.98	51.61
620.314	51.68
620.648	51.7
620.983	51.74
621.317	51.79
621.651	51.84
621.985	52.01
622.319	52.12
622.653	52.09
622.987	52.05
623.321	52.05
623.655	52.06
623.988	52.14
624.322	52.23
624.656	52.2
624.99	52.32
625.323	52.31
625.657	52.34
625.99	52.38
626.324	52.32
626.657	52.37
626.991	52.4
627.324	52.48
627.658	52.47
627.991	52.45
628.324	52.47
628.657	52.47
628.991	52.44
629.324	52.37
629.657	52.42
629.99	52.53
630.323	52.59
630.656	52.62
630.989	52.58
631.322	52.49
631.655	52.51
631.987	52.54
632.32	52.61
632.653	52.59
632.986	52.54
633.318	52.61
633.651	52.57
633.984	52.57
634.316	52.58
634.649	52.63
634.981	52.71
635.313	52.77
635.646	52.91
635.978	52.94
636.31	53.05
636.643	53.06
636.975	52.94
637.307	52.95
637.639	52.92
637.971	52.95
638.303	53.02
638.635	53.05
638.967	52.95
639.299	53.04
639.631	53.02
639.963	53.06
640.295	53.02
640.626	53.02
640.958	53.01
641.29	52.99
641.621	52.99
641.953	52.88
642.285	52.93
642.616	52.85
642.948	52.83
643.279	52.73
643.61	52.86
643.942	52.97
644.273	52.9
644.604	52.93
644.936	52.95
645.267	52.78
645.598	52.83
645.929	52.95
646.26	52.92
646.591	52.91
646.922	52.92
647.253	53.15
647.584	53.16
647.915	53.14
648.245	53.2
648.576	53.21
648.907	53.33
649.238	53.28
649.568	53.19
649.899	53.2
650.229	53.28
650.56	53.16
650.89	53.12
651.221	53.26
651.551	53.3
651.882	53.39
652.212	53.43
652.542	53.49
652.872	53.49
653.203	53.43
653.533	53.55
653.863	53.61
654.193	53.51
654.523	53.55
654.853	53.6
655.183	53.5
655.513	53.45
655.843	53.45
656.172	53.53
656.502	53.63
656.832	53.68
657.162	53.71
657.491	53.74
657.821	53.81
658.15	53.7
658.48	53.7
658.809	53.58
659.139	53.74
659.468	53.71
659.798	53.66
660.127	53.61
660.456	53.7
660.785	53.71
661.115	53.74
661.444	53.74
661.773	53.7
662.102	53.87
662.431	53.9
662.76	53.9
663.089	53.87
663.418	53.87
663.747	53.8
664.076	53.84
664.404	54.04
664.733	54.09
665.062	54.24
665.39	54.22
665.719	54.18
666.048	54.18
666.376	54.12
