Data from MVZ_BU165823_Reflection_00003.txt Node
Date: Tue Nov 19 12:10:19 EST 2019
User: vgr7
Spectrometer: USB2G7710
Scans to average: 3
Trigger mode: 4
Integration Time (sec): 2.000000E-2
Electric dark correction enabled: true
Boxcar width: 10
XAxis mode: Wavelengths
Number of Pixels in Spectrum: 2048
>>>>>Begin Spectral Data<<<<<
177.721	108.46
178.105	90.78
178.488	50.09
178.871	48.76
179.254	40.43
179.636	39.66
180.019	33.14
180.402	75
180.785	18.03
181.168	155.71
181.55	211.59
181.933	147.35
182.316	180.92
182.698	1645.45
183.081	5.11
183.463	110.31
183.846	610.2
184.228	29.05
184.611	26.8
184.993	3.55
185.376	19.7
185.758	-19.56
186.14	-46.76
186.522	-45.43
186.904	-45.17
187.287	-47.2
187.669	-44.32
188.051	-43.13
188.433	-75.1
188.815	-92.55
189.197	-72.74
189.579	-82.92
189.961	-72.11
190.342	-88.93
190.724	-110.72
191.106	-148.33
191.488	-141
191.869	-116.37
192.251	-91.97
192.633	-111.95
193.014	-99.66
193.396	-119.85
193.777	-108.98
194.159	-103.02
194.54	-110.56
194.922	-150.26
195.303	-216.13
195.684	-339.77
196.065	-385.49
196.447	-256.41
196.828	-187.86
197.209	-172.13
197.59	-173.62
197.971	-197.69
198.352	-146.11
198.733	-174.47
199.114	-102.54
199.495	-150.19
199.876	-146.72
200.257	-268.11
200.638	-219.1
201.018	-276.83
201.399	-335.36
201.78	-227.71
202.16	-280.35
202.541	-245.52
202.922	-255.47
203.302	-227.26
203.683	-181.53
204.063	-160.9
204.444	-151.9
204.824	-155.7
205.204	-183.94
205.585	-134.13
205.965	-138.34
206.345	-165
206.725	-152.64
207.106	-134.66
207.486	-110.63
207.866	-122.47
208.246	-88.78
208.626	-110.48
209.006	-93.57
209.386	-91.09
209.766	-78.37
210.145	-78.52
210.525	-78.73
210.905	-45.92
211.285	-48.18
211.664	-50.49
212.044	-53.19
212.424	-54.92
212.803	-33.36
213.183	-22.74
213.562	-33.65
213.942	-23.4
214.321	-18.99
214.701	-25.2
215.08	-36.34
215.459	-38.72
215.838	-39.78
216.218	-52.74
216.597	-53.98
216.976	-85.22
217.355	-91.93
217.734	-170.81
218.113	-87.25
218.492	-104.26
218.871	-143.28
219.25	-120.6
219.629	-137.57
220.008	-112.4
220.387	-118.43
220.766	-116.36
221.144	-108.76
221.523	-140.4
221.902	-129.98
222.28	-123.4
222.659	-79.87
223.037	-81.89
223.416	-69.17
223.794	-63.31
224.173	-62.13
224.551	-55.26
224.929	-56.34
225.308	-48.33
225.686	-40.72
226.064	-48.33
226.442	-40.42
226.821	-36.36
227.199	-33.48
227.577	-27.84
227.955	-25.16
228.333	-27.97
228.711	-29.28
229.089	-32.3
229.467	-27.76
229.845	-27.74
230.222	-25.21
230.6	-27.99
230.978	-24.88
231.356	-24.37
231.733	-21.27
232.111	-19.34
232.488	-19.04
232.866	-12
233.243	-12.45
233.621	-10.43
233.998	-8.95
234.376	-10.07
234.753	-11.89
235.13	-12.41
235.508	-13.3
235.885	-15.04
236.262	-11.75
236.639	-11.16
237.016	-7.83
237.393	-5.45
237.77	-5.19
238.147	-4.44
238.524	-2.17
238.901	-2.88
239.278	-3.24
239.655	-2.71
240.032	-2.28
240.409	-1.47
240.785	-2.32
241.162	-1.4
241.539	-1.39
241.915	-0.76
242.292	-0.18
242.668	0.41
243.045	0.89
243.421	1.47
243.798	1.8
244.174	1.73
244.551	1.88
244.927	2.07
245.303	1.64
245.679	1.84
246.056	1.87
246.432	1.79
246.808	2.11
247.184	2.33
247.56	2.17
247.936	2.32
248.312	2.39
248.688	2.61
249.064	2.72
249.44	2.63
249.815	2.8
250.191	2.82
250.567	2.95
250.943	2.84
251.318	2.62
251.694	2.39
252.069	2.59
252.445	2.82
252.82	2.76
253.196	3.25
253.571	3.65
253.947	3.75
254.322	4.1
254.697	3.72
255.073	3.46
255.448	3.83
255.823	3.64
256.198	3.7
256.573	3.54
256.948	3.55
257.323	3.63
257.698	3.47
258.073	3.3
258.448	3.18
258.823	3.37
259.198	3.55
259.573	3.44
259.948	3.33
260.322	3.21
260.697	3.21
261.072	2.95
261.446	2.84
261.821	2.7
262.195	2.41
262.57	2.71
262.944	2.76
263.319	2.69
263.693	2.51
264.067	2.48
264.442	2.28
264.816	2.03
265.19	1.97
265.564	1.92
265.938	2.12
266.313	2.06
266.687	1.84
267.061	1.53
267.435	1.83
267.809	1.61
268.183	1.63
268.556	1.67
268.93	2.02
269.304	1.75
269.678	1.96
270.051	2.12
270.425	1.77
270.799	1.67
271.172	1.45
271.546	1.73
271.919	1.65
272.293	1.97
272.666	2.05
273.04	1.87
273.413	1.94
273.787	1.89
274.16	1.78
274.533	1.86
274.906	2.09
275.279	2
275.653	2.26
276.026	2.27
276.399	2.34
276.772	2.16
277.145	2.16
277.518	1.96
277.891	1.88
278.263	1.99
278.636	2.21
279.009	2.24
279.382	2.11
279.755	2.02
280.127	1.64
280.5	1.71
280.872	1.88
281.245	1.76
281.617	1.61
281.99	1.76
282.362	1.7
282.735	1.66
283.107	1.7
283.479	1.67
283.852	1.74
284.224	1.67
284.596	1.75
284.968	1.84
285.34	1.9
285.713	2.11
286.085	2.06
286.457	2.07
286.829	2.2
287.201	2.18
287.572	2.17
287.944	2.38
288.316	2.47
288.688	2.46
289.06	2.51
289.431	2.58
289.803	2.51
290.175	2.43
290.546	2.4
290.918	2.31
291.289	2.2
291.661	2.21
292.032	2.04
292.403	2.05
292.775	2.13
293.146	2.32
293.517	2.07
293.889	2.12
294.26	2.07
294.631	2
295.002	2.08
295.373	2.28
295.744	2.31
296.115	2.25
296.486	2.33
296.857	2.44
297.228	2.41
297.599	2.41
297.97	2.54
298.34	2.56
298.711	2.7
299.082	2.74
299.452	2.52
299.823	2.62
300.194	2.58
300.564	2.58
300.935	2.43
301.305	2.52
301.676	2.39
302.046	2.43
302.416	2.4
302.787	2.33
303.157	2.18
303.527	2.09
303.897	1.85
304.267	1.75
304.637	1.7
305.008	1.7
305.378	1.83
305.748	1.76
306.117	1.75
306.487	1.82
306.857	2.02
307.227	2.26
307.597	2.27
307.967	2.39
308.336	2.43
308.706	2.53
309.076	2.64
309.445	2.92
309.815	2.87
310.184	2.96
310.554	2.81
310.923	2.82
311.293	2.85
311.662	3.08
312.031	3.18
312.401	3.01
312.77	3.05
313.139	2.96
313.508	2.91
313.877	2.85
314.246	2.73
314.616	2.6
314.985	2.56
315.353	2.45
315.722	2.45
316.091	2.34
316.46	2.19
316.829	2.07
317.198	2
317.567	2.1
317.935	1.97
318.304	2.36
318.672	2.36
319.041	2.41
319.41	2.28
319.778	2.27
320.147	2.26
320.515	2.33
320.883	2.28
321.252	2.42
321.62	2.57
321.988	2.45
322.357	2.59
322.725	2.56
323.093	2.56
323.461	2.54
323.829	2.69
324.197	2.78
324.565	2.77
324.933	2.63
325.301	2.51
325.669	2.5
326.037	2.38
326.405	2.37
326.772	2.36
327.14	2.25
327.508	2.27
327.875	2.27
328.243	2.25
328.61	2.33
328.978	2.3
329.346	2.28
329.713	2.44
330.08	2.35
330.448	2.34
330.815	2.45
331.182	2.4
331.55	2.38
331.917	2.31
332.284	2.29
332.651	2.33
333.018	2.37
333.385	2.47
333.752	2.32
334.119	2.52
334.486	2.44
334.853	2.6
335.22	2.6
335.587	2.64
335.954	2.54
336.32	2.5
336.687	2.45
337.054	2.47
337.42	2.47
337.787	2.43
338.153	2.54
338.52	2.55
338.886	2.42
339.253	2.32
339.619	2.33
339.986	2.38
340.352	2.54
340.718	2.63
341.084	2.65
341.451	2.81
341.817	2.75
342.183	2.82
342.549	2.78
342.915	2.83
343.281	2.76
343.647	2.81
344.013	2.84
344.379	2.87
344.745	2.82
345.11	2.78
345.476	2.86
345.842	2.66
346.208	2.63
346.573	2.74
346.939	2.78
347.304	2.79
347.67	2.73
348.035	2.52
348.401	2.49
348.766	2.45
349.132	2.5
349.497	2.46
349.862	2.39
350.228	2.45
350.593	2.38
350.958	2.47
351.323	2.49
351.688	2.57
352.053	2.57
352.418	2.56
352.783	2.53
353.148	2.46
353.513	2.61
353.878	2.63
354.243	2.57
354.608	2.58
354.972	2.59
355.337	2.67
355.702	2.67
356.066	2.64
356.431	2.65
356.795	2.58
357.16	2.58
357.524	2.55
357.889	2.55
358.253	2.55
358.618	2.58
358.982	2.54
359.346	2.52
359.71	2.54
360.075	2.57
360.439	2.66
360.803	2.73
361.167	2.7
361.531	2.72
361.895	2.76
362.259	2.81
362.623	2.83
362.987	2.8
363.351	2.86
363.714	2.87
364.078	2.82
364.442	2.78
364.806	2.78
365.169	2.83
365.533	2.78
365.896	2.77
366.26	2.74
366.623	2.78
366.987	2.75
367.35	2.76
367.714	2.77
368.077	2.71
368.44	2.68
368.803	2.65
369.167	2.53
369.53	2.59
369.893	2.52
370.256	2.48
370.619	2.51
370.982	2.5
371.345	2.56
371.708	2.65
372.071	2.68
372.434	2.68
372.797	2.71
373.159	2.72
373.522	2.71
373.885	2.69
374.247	2.7
374.61	2.73
374.973	2.74
375.335	2.72
375.698	2.77
376.06	2.73
376.423	2.72
376.785	2.84
377.147	2.82
377.51	2.85
377.872	2.85
378.234	2.8
378.596	2.84
378.958	2.83
379.321	2.79
379.683	2.84
380.045	2.82
380.407	2.81
380.769	2.81
381.13	2.81
381.492	2.8
381.854	2.81
382.216	2.81
382.578	2.84
382.939	2.81
383.301	2.73
383.663	2.76
384.024	2.83
384.386	2.84
384.747	2.76
385.109	2.77
385.47	2.76
385.832	2.77
386.193	2.69
386.554	2.62
386.916	2.65
387.277	2.58
387.638	2.65
387.999	2.67
388.36	2.67
388.721	2.71
389.082	2.77
389.443	2.78
389.804	2.79
390.165	2.76
390.526	2.78
390.887	2.8
391.248	2.82
391.609	2.79
391.969	2.79
392.33	2.81
392.691	2.82
393.051	2.83
393.412	2.81
393.772	2.84
394.133	2.83
394.493	2.82
394.854	2.84
395.214	2.8
395.574	2.79
395.935	2.83
396.295	2.82
396.655	2.76
397.015	2.76
397.376	2.74
397.736	2.74
398.096	2.72
398.456	2.76
398.816	2.73
399.176	2.7
399.535	2.7
399.895	2.7
400.255	2.66
400.615	2.65
400.975	2.68
401.334	2.7
401.694	2.78
402.054	2.77
402.413	2.73
402.773	2.77
403.132	2.75
403.492	2.71
403.851	2.67
404.211	2.7
404.57	2.71
404.929	2.7
405.288	2.7
405.648	2.73
406.007	2.71
406.366	2.72
406.725	2.76
407.084	2.77
407.443	2.76
407.802	2.78
408.161	2.8
408.52	2.8
408.879	2.8
409.238	2.78
409.596	2.8
409.955	2.82
410.314	2.83
410.673	2.86
411.031	2.88
411.39	2.91
411.748	2.93
412.107	2.92
412.465	2.94
412.824	2.94
413.182	2.92
413.54	2.93
413.899	2.95
414.257	2.96
414.615	2.92
414.974	2.96
415.332	2.93
415.69	2.92
416.048	2.93
416.406	2.92
416.764	2.92
417.122	2.89
417.48	2.9
417.838	2.9
418.195	2.9
418.553	2.91
418.911	2.91
419.269	2.91
419.626	2.92
419.984	2.92
420.342	2.93
420.699	2.94
421.057	2.94
421.414	2.93
421.772	2.91
422.129	2.91
422.486	2.91
422.844	2.92
423.201	2.91
423.558	2.91
423.915	2.91
424.273	2.92
424.63	2.95
424.987	2.95
425.344	2.95
425.701	2.94
426.058	2.95
426.415	2.95
426.772	2.95
427.128	2.95
427.485	2.94
427.842	2.94
428.199	2.93
428.555	2.91
428.912	2.91
429.269	2.94
429.625	2.95
429.982	2.95
430.338	2.97
430.695	2.98
431.051	2.99
431.407	3.01
431.764	3
432.12	3
432.476	3
432.832	2.99
433.189	3.01
433.545	3
433.901	2.98
434.257	2.97
434.613	2.97
434.969	2.96
435.325	2.99
435.681	2.99
436.036	3.01
436.392	3.01
436.748	2.99
437.104	2.98
437.459	2.99
437.815	2.99
438.171	3.02
438.526	3.01
438.882	3.01
439.237	3.02
439.593	3.02
439.948	3.03
440.304	3.04
440.659	3.03
441.014	3.03
441.369	3.05
441.725	3.03
442.08	3.03
442.435	3.03
442.79	3.02
443.145	3.03
443.5	3.03
443.855	3.03
444.21	3.04
444.565	3.06
444.92	3.06
445.275	3.07
445.629	3.06
445.984	3.07
446.339	3.06
446.693	3.05
447.048	3.03
447.403	3.02
447.757	3.01
448.112	3
448.466	3
448.82	2.99
449.175	3.01
449.529	3.02
449.883	3.03
450.238	3.02
450.592	3.01
450.946	3.02
451.3	3.02
451.654	3
452.008	3
452.362	2.98
452.716	2.97
453.07	2.96
453.424	2.97
453.778	2.97
454.132	2.98
454.486	3
454.839	3.02
455.193	3.04
455.547	3.06
455.9	3.07
456.254	3.07
456.607	3.07
456.961	3.07
457.314	3.08
457.668	3.08
458.021	3.08
458.375	3.07
458.728	3.07
459.081	3.07
459.434	3.07
459.787	3.08
460.141	3.08
460.494	3.08
460.847	3.07
461.2	3.06
461.553	3.06
461.906	3.04
462.259	3.03
462.611	3.02
462.964	3.01
463.317	3.02
463.67	3.02
464.022	3.02
464.375	3.02
464.728	3.01
465.08	3.02
465.433	3.02
465.785	3.04
466.138	3.04
466.49	3.05
466.843	3.03
467.195	3.04
467.547	3.04
467.899	3.06
468.252	3.06
468.604	3.06
468.956	3.07
469.308	3.06
469.66	3.08
470.012	3.06
470.364	3.07
470.716	3.08
471.068	3.09
471.42	3.1
471.772	3.07
472.123	3.08
472.475	3.06
472.827	3.06
473.178	3.07
473.53	3.07
473.882	3.09
474.233	3.1
474.585	3.1
474.936	3.11
475.288	3.07
475.639	3.1
475.99	3.11
476.342	3.1
476.693	3.12
477.044	3.12
477.395	3.13
477.746	3.14
478.097	3.12
478.448	3.1
478.8	3.1
479.15	3.12
479.501	3.11
479.852	3.13
480.203	3.15
480.554	3.17
480.905	3.19
481.255	3.18
481.606	3.19
481.957	3.18
482.307	3.17
482.658	3.2
483.009	3.2
483.359	3.19
483.709	3.21
484.06	3.21
484.41	3.21
484.761	3.22
485.111	3.22
485.461	3.23
485.811	3.24
486.162	3.23
486.512	3.24
486.862	3.26
487.212	3.26
487.562	3.25
487.912	3.24
488.262	3.23
488.612	3.23
488.961	3.23
489.311	3.24
489.661	3.25
490.011	3.24
490.36	3.22
490.71	3.22
491.06	3.21
491.409	3.21
491.759	3.21
492.108	3.21
492.458	3.21
492.807	3.2
493.157	3.19
493.506	3.2
493.855	3.22
494.204	3.18
494.554	3.19
494.903	3.19
495.252	3.19
495.601	3.2
495.95	3.2
496.299	3.21
496.648	3.21
496.997	3.19
497.346	3.19
497.695	3.21
498.043	3.23
498.392	3.24
498.741	3.25
499.09	3.23
499.438	3.23
499.787	3.22
500.135	3.21
500.484	3.19
500.832	3.2
501.181	3.19
501.529	3.22
501.878	3.22
502.226	3.21
502.574	3.21
502.923	3.2
503.271	3.2
503.619	3.2
503.967	3.18
504.315	3.18
504.663	3.2
505.011	3.21
505.359	3.21
505.707	3.19
506.055	3.19
506.403	3.18
506.751	3.19
507.098	3.2
507.446	3.21
507.794	3.22
508.141	3.22
508.489	3.23
508.837	3.22
509.184	3.22
509.531	3.25
509.879	3.26
510.226	3.25
510.574	3.26
510.921	3.25
511.268	3.29
511.616	3.31
511.963	3.31
512.31	3.31
512.657	3.3
513.004	3.3
513.351	3.3
513.698	3.3
514.045	3.31
514.392	3.32
514.739	3.32
515.086	3.34
515.432	3.36
515.779	3.34
516.126	3.36
516.473	3.34
516.819	3.35
517.166	3.35
517.512	3.35
517.859	3.35
518.205	3.34
518.552	3.34
518.898	3.33
519.245	3.33
519.591	3.33
519.937	3.32
520.283	3.33
520.629	3.34
520.976	3.35
521.322	3.34
521.668	3.35
522.014	3.35
522.36	3.35
522.706	3.36
523.052	3.38
523.398	3.36
523.743	3.34
524.089	3.32
524.435	3.32
524.781	3.34
525.126	3.34
525.472	3.36
525.817	3.37
526.163	3.39
526.509	3.39
526.854	3.4
527.199	3.42
527.545	3.43
527.89	3.43
528.235	3.43
528.581	3.43
528.926	3.41
529.271	3.41
529.616	3.41
529.961	3.4
530.306	3.39
530.651	3.39
530.996	3.42
531.341	3.42
531.686	3.44
532.031	3.45
532.376	3.46
532.721	3.44
533.065	3.44
533.41	3.42
533.755	3.42
534.099	3.42
534.444	3.41
534.788	3.4
535.133	3.4
535.477	3.42
535.822	3.42
536.166	3.42
536.51	3.41
536.855	3.41
537.199	3.41
537.543	3.42
537.887	3.42
538.231	3.41
538.576	3.4
538.92	3.39
539.264	3.39
539.608	3.38
539.951	3.38
540.295	3.38
540.639	3.4
540.983	3.39
541.327	3.38
541.671	3.37
542.014	3.39
542.358	3.39
542.701	3.39
543.045	3.38
543.389	3.4
543.732	3.41
544.075	3.41
544.419	3.41
544.762	3.41
545.105	3.41
545.449	3.43
545.792	3.43
546.135	3.43
546.478	3.42
546.821	3.42
547.165	3.44
547.508	3.44
547.851	3.42
548.194	3.43
548.536	3.42
548.879	3.41
549.222	3.41
549.565	3.38
549.908	3.38
550.25	3.39
550.593	3.39
550.936	3.36
551.278	3.36
551.621	3.37
551.963	3.38
552.306	3.39
552.648	3.37
552.991	3.38
553.333	3.38
553.675	3.38
554.017	3.36
554.36	3.35
554.702	3.33
555.044	3.3
555.386	3.29
555.728	3.3
556.07	3.31
556.412	3.29
556.754	3.32
557.096	3.31
557.438	3.28
557.78	3.29
558.121	3.29
558.463	3.3
558.805	3.29
559.147	3.28
559.488	3.26
559.83	3.25
560.171	3.23
560.513	3.23
560.854	3.24
561.196	3.26
561.537	3.29
561.878	3.33
562.22	3.37
562.561	3.36
562.902	3.35
563.243	3.35
563.584	3.37
563.925	3.36
564.266	3.34
564.607	3.35
564.948	3.34
565.289	3.38
565.63	3.34
565.971	3.36
566.312	3.36
566.653	3.41
566.993	3.41
567.334	3.39
567.675	3.39
568.015	3.4
568.356	3.4
568.696	3.39
569.037	3.38
569.377	3.37
569.718	3.38
570.058	3.4
570.398	3.38
570.739	3.37
571.079	3.39
571.419	3.39
571.759	3.37
572.099	3.37
572.439	3.36
572.779	3.39
573.119	3.36
573.459	3.34
573.799	3.33
574.139	3.35
574.479	3.39
574.819	3.39
575.158	3.36
575.498	3.37
575.838	3.33
576.177	3.31
576.517	3.28
576.856	3.3
577.196	3.32
577.535	3.35
577.875	3.33
578.214	3.31
578.553	3.32
578.893	3.35
579.232	3.36
579.571	3.36
579.91	3.38
580.25	3.39
580.589	3.47
580.928	3.43
581.267	3.39
581.606	3.38
581.945	3.34
582.283	3.37
582.622	3.34
582.961	3.38
583.3	3.42
583.639	3.44
583.977	3.41
584.316	3.37
584.654	3.35
584.993	3.38
585.332	3.39
585.67	3.42
586.008	3.44
586.347	3.45
586.685	3.38
587.024	3.37
587.362	3.36
587.7	3.3
588.038	3.33
588.376	3.37
588.715	3.33
589.053	3.35
589.391	3.32
589.729	3.34
590.067	3.33
590.404	3.33
590.742	3.36
591.08	3.4
591.418	3.44
591.756	3.46
592.093	3.43
592.431	3.44
592.769	3.4
593.106	3.4
593.444	3.36
593.781	3.4
594.119	3.39
594.456	3.38
594.793	3.4
595.131	3.38
595.468	3.43
595.805	3.48
596.143	3.47
596.48	3.46
596.817	3.47
597.154	3.47
597.491	3.47
597.828	3.44
598.165	3.41
598.502	3.38
598.839	3.38
599.176	3.38
599.512	3.35
599.849	3.39
600.186	3.36
600.523	3.4
600.859	3.41
601.196	3.43
601.532	3.45
601.869	3.45
602.205	3.43
602.542	3.4
602.878	3.46
603.215	3.46
603.551	3.51
603.887	3.51
604.223	3.52
604.56	3.51
604.896	3.52
605.232	3.52
605.568	3.57
605.904	3.57
606.24	3.59
606.576	3.63
606.912	3.62
607.248	3.66
607.583	3.68
607.919	3.7
608.255	3.7
608.591	3.7
608.926	3.66
609.262	3.67
609.597	3.68
609.933	3.6
610.268	3.62
610.604	3.57
610.939	3.56
611.275	3.58
611.61	3.62
611.945	3.59
612.281	3.62
612.616	3.61
612.951	3.61
613.286	3.58
613.621	3.53
613.956	3.5
614.291	3.49
614.626	3.48
614.961	3.45
615.296	3.5
615.631	3.5
615.966	3.55
616.3	3.56
616.635	3.56
616.97	3.6
617.304	3.59
617.639	3.62
617.973	3.61
618.308	3.6
618.642	3.52
618.977	3.51
619.311	3.48
619.646	3.49
619.98	3.53
620.314	3.57
620.648	3.6
620.983	3.61
621.317	3.64
621.651	3.66
621.985	3.69
622.319	3.61
622.653	3.61
622.987	3.62
623.321	3.6
623.655	3.54
623.988	3.52
624.322	3.52
624.656	3.49
624.99	3.46
625.323	3.47
625.657	3.56
625.99	3.58
626.324	3.6
626.657	3.55
626.991	3.54
627.324	3.5
627.658	3.45
627.991	3.5
628.324	3.47
628.657	3.46
628.991	3.44
629.324	3.5
629.657	3.4
629.99	3.41
630.323	3.46
630.656	3.53
630.989	3.49
631.322	3.53
631.655	3.55
631.987	3.58
632.32	3.64
632.653	3.59
632.986	3.58
633.318	3.6
633.651	3.64
633.984	3.64
634.316	3.64
634.649	3.69
634.981	3.65
635.313	3.64
635.646	3.65
635.978	3.65
636.31	3.68
636.643	3.76
636.975	3.68
637.307	3.63
637.639	3.58
637.971	3.66
638.303	3.64
638.635	3.64
638.967	3.68
639.299	3.58
639.631	3.55
639.963	3.59
640.295	3.62
640.626	3.65
640.958	3.66
641.29	3.69
641.621	3.68
641.953	3.68
642.285	3.66
642.616	3.65
642.948	3.69
643.279	3.61
643.61	3.66
643.942	3.74
644.273	3.81
644.604	3.82
644.936	3.84
645.267	3.82
645.598	3.84
645.929	3.77
646.26	3.81
646.591	3.87
646.922	3.86
647.253	3.82
647.584	3.76
647.915	3.75
648.245	3.77
648.576	3.72
648.907	3.73
649.238	3.75
649.568	3.7
649.899	3.7
650.229	3.76
650.56	3.73
650.89	3.79
651.221	3.8
651.551	3.84
651.882	3.84
652.212	3.85
652.542	3.84
652.872	3.85
653.203	3.83
653.533	3.77
653.863	3.77
654.193	3.77
654.523	3.75
654.853	3.81
655.183	3.85
655.513	3.95
655.843	3.95
656.172	3.98
656.502	3.98
656.832	3.91
657.162	3.86
657.491	3.86
657.821	3.78
658.15	3.73
658.48	3.76
658.809	3.79
659.139	3.78
659.468	3.84
659.798	3.88
660.127	3.87
660.456	3.9
660.785	3.92
661.115	3.91
661.444	3.97
661.773	3.89
662.102	3.82
662.431	3.81
662.76	3.79
663.089	3.85
663.418	3.88
663.747	3.9
664.076	3.93
664.404	3.99
664.733	3.97
665.062	3.98
665.39	3.92
665.719	3.85
666.048	3.85
666.376	3.86
666.705	3.88
667.033	3.89
667.362	3.93
667.69	3.88
668.018	3.93
668.347	3.86
668.675	3.92
669.003	4
669.331	3.93
669.659	3.94
669.987	3.88
670.315	3.81
670.643	3.88
670.971	3.87
671.299	3.8
671.627	3.88
671.955	3.91
672.283	3.92
672.61	3.92
672.938	4.03
673.266	3.99
673.593	3.94
673.921	3.96
674.249	3.88
674.576	4
674.904	3.88
675.231	3.9
675.558	3.89
