Data from MVZ_BU26842_Reflection_00010.txt Node
Date: Tue Nov 19 12:18:31 EST 2019
User: vgr7
Spectrometer: USB2G7710
Scans to average: 3
Trigger mode: 4
Integration Time (sec): 2.000000E-2
Electric dark correction enabled: true
Boxcar width: 10
XAxis mode: Wavelengths
Number of Pixels in Spectrum: 2048
>>>>>Begin Spectral Data<<<<<
177.721	92.65
178.105	100
178.488	-1337.5
178.871	-166.67
179.254	-1150
179.636	-7400
180.019	641.67
180.402	-100
180.785	116.67
181.168	42.31
181.55	-9.38
181.933	23.91
182.316	0.38
182.698	-48.26
183.081	-65.76
183.463	198.68
183.846	-460.34
184.228	-626.19
184.611	-103.13
184.993	-37.5
185.376	-33.4
185.758	-38.89
186.14	-91.07
186.522	-70.53
186.904	-72.92
187.287	-39.95
187.669	-21.25
188.051	-29
188.433	-81.7
188.815	-113.01
189.197	-88.51
189.579	-117.55
189.961	-94.66
190.342	-101.58
190.724	-157.35
191.106	-168.67
191.488	-203.35
191.869	-396.84
192.251	-435.71
192.633	-397.28
193.014	-650
193.396	-1022.09
193.777	-740.52
194.159	-298.9
194.54	-268.88
194.922	-370.18
195.303	-578.13
195.684	-1528.79
196.065	-764.58
196.447	-448.32
196.828	-338.43
197.209	-321.53
197.59	-193.53
197.971	-179.23
198.352	-146.34
198.733	-113.46
199.114	-142.22
199.495	-117.28
199.876	-93.06
200.257	-97.69
200.638	-99.61
201.018	-94.66
201.399	-83.84
201.78	-75.13
202.16	-87.86
202.541	-89.68
202.922	-73.02
203.302	-64.06
203.683	-68.13
204.063	-74.64
204.444	-59.21
204.824	-69.48
205.204	-65.53
205.585	-71.83
205.965	-80.73
206.345	-72.87
206.725	-77.45
207.106	-35.22
207.486	-37.5
207.866	-24.61
208.246	-15.44
208.626	-18.27
209.006	-22.27
209.386	-22.09
209.766	-40.83
210.145	-44.05
210.525	-42.74
210.905	-50.96
211.285	-56.07
211.664	-33.58
212.044	-28.51
212.424	-34.62
212.803	-45.83
213.183	-50
213.562	-33.65
213.942	-39.46
214.321	-57.41
214.701	-61.39
215.08	-50.67
215.459	-34.34
215.838	-59.09
216.218	-73.5
216.597	-80.15
216.976	-96.43
217.355	-110.6
217.734	-140.57
218.113	-128.26
218.492	-131.53
218.871	-88.04
219.25	-76.8
219.629	-124.18
220.008	-104.06
220.387	-105.95
220.766	-86.82
221.144	-99.79
221.523	-112.96
221.902	-105.83
222.28	-83.06
222.659	-50.93
223.037	-73.52
223.416	-75
223.794	-52.98
224.173	-57.33
224.551	-52.38
224.929	-47.53
225.308	-43.03
225.686	-39.27
226.064	-33.87
226.442	-33.03
226.821	-32.34
227.199	-31.46
227.577	-24.33
227.955	-19.96
228.333	-24.37
228.711	-22.53
229.089	-22.87
229.467	-20.38
229.845	-17.06
230.222	-18.75
230.6	-22.46
230.978	-20.18
231.356	-17.8
231.733	-18
232.111	-15.96
232.488	-14.73
232.866	-14.33
233.243	-12.87
233.621	-10.24
233.998	-10.56
234.376	-8.5
234.753	-10.6
235.13	-8.66
235.508	-7.96
235.885	-9.32
236.262	-6.41
236.639	-6.32
237.016	-4.19
237.393	-3.56
237.77	-2.08
238.147	-0.9
238.524	-0.08
238.901	-0.89
239.278	-0.7
239.655	-0.48
240.032	-0.79
240.409	-0.92
240.785	-0.37
241.162	0.44
241.539	0.85
241.915	0.57
242.292	0.79
242.668	1.68
243.045	1.59
243.421	1.73
243.798	2.22
244.174	2.15
244.551	2.34
244.927	2.44
245.303	1.84
245.679	1.77
246.056	1.76
246.432	1.75
246.808	2.1
247.184	2.28
247.56	2.22
247.936	2.39
248.312	2.86
248.688	2.74
249.064	2.47
249.44	2.22
249.815	2.56
250.191	2.31
250.567	2.2
250.943	2.23
251.318	1.97
251.694	1.8
252.069	1.86
252.445	1.92
252.82	2.1
253.196	2.57
253.571	2.77
253.947	2.6
254.322	2.59
254.697	2.35
255.073	2.37
255.448	2.34
255.823	2.71
256.198	2.35
256.573	2.67
256.948	2.59
257.323	2.76
257.698	2.59
258.073	2.59
258.448	2.33
258.823	2.22
259.198	2.31
259.573	2.23
259.948	2.25
260.322	2.36
260.697	2.24
261.072	2.18
261.446	2.15
261.821	2.13
262.195	2.09
262.57	2.18
262.944	2.26
263.319	2.32
263.693	2.11
264.067	2.14
264.442	1.86
264.816	2.04
265.19	2.11
265.564	2.06
265.938	2.05
266.313	2.11
266.687	2.2
267.061	2.45
267.435	2.6
267.809	2.4
268.183	2.17
268.556	2.15
268.93	2.32
269.304	2.27
269.678	2.45
270.051	2.51
270.425	2.37
270.799	2.16
271.172	2.3
271.546	2.41
271.919	2.32
272.293	2.56
272.666	2.46
273.04	2.44
273.413	2.41
273.787	2.49
274.16	2.69
274.533	2.66
274.906	2.66
275.279	2.5
275.653	2.77
276.026	2.71
276.399	2.66
276.772	2.67
277.145	2.56
277.518	2.34
277.891	2.22
278.263	2.34
278.636	2.56
279.009	2.52
279.382	2.44
279.755	2.56
280.127	2.4
280.5	2.49
280.872	2.48
281.245	2.71
281.617	2.66
281.99	2.57
282.362	2.45
282.735	2.38
283.107	2.56
283.479	2.41
283.852	2.55
284.224	2.68
284.596	2.54
284.968	2.67
285.34	2.74
285.713	2.83
286.085	2.77
286.457	2.6
286.829	2.5
287.201	2.56
287.572	2.6
287.944	2.75
288.316	2.62
288.688	2.76
289.06	2.76
289.431	2.91
289.803	2.94
290.175	2.99
290.546	2.89
290.918	2.78
291.289	2.64
291.661	2.7
292.032	2.49
292.403	2.49
292.775	2.55
293.146	2.56
293.517	2.58
293.889	2.64
294.26	2.65
294.631	2.83
295.002	2.79
295.373	2.78
295.744	2.68
296.115	2.74
296.486	2.54
296.857	2.44
297.228	2.28
297.599	2.28
297.97	2.41
298.34	2.53
298.711	2.63
299.082	2.87
299.452	2.83
299.823	2.92
300.194	3.03
300.564	2.88
300.935	3
301.305	2.91
301.676	2.85
302.046	2.98
302.416	3.04
302.787	3.09
303.157	3.11
303.527	3.11
303.897	3.14
304.267	3.21
304.637	3.24
305.008	3.47
305.378	3.56
305.748	3.62
306.117	3.74
306.487	3.69
306.857	3.57
307.227	3.68
307.597	3.7
307.967	3.66
308.336	3.76
308.706	3.65
309.076	3.99
309.445	4.13
309.815	4.23
310.184	4.1
310.554	4.05
310.923	4.11
311.293	4.13
311.662	4.17
312.031	4.21
312.401	4.29
312.77	4.32
313.139	4.4
313.508	4.39
313.877	4.33
314.246	4.47
314.616	4.7
314.985	4.52
315.353	4.68
315.722	4.85
316.091	4.87
316.46	4.89
316.829	4.55
317.198	4.53
317.567	4.56
317.935	4.7
318.304	4.85
318.672	4.8
319.041	4.94
319.41	4.83
319.778	4.97
320.147	5.04
320.515	4.99
320.883	4.81
321.252	4.9
321.62	5.02
321.988	4.89
322.357	4.78
322.725	4.87
323.093	4.8
323.461	4.8
323.829	4.84
324.197	4.96
324.565	5.14
324.933	5.13
325.301	4.97
325.669	4.94
326.037	4.99
326.405	5.15
326.772	5.15
327.14	5.31
327.508	5.21
327.875	5.22
328.243	5.26
328.61	5.26
328.978	5.22
329.346	5.15
329.713	5.39
330.08	5.51
330.448	5.64
330.815	5.54
331.182	5.57
331.55	5.65
331.917	5.73
332.284	5.82
332.651	5.86
333.018	5.96
333.385	5.97
333.752	6.07
334.119	6.02
334.486	6.07
334.853	5.95
335.22	6.06
335.587	6.06
335.954	6.07
336.32	6.17
336.687	6.24
337.054	6.24
337.42	6.12
337.787	6.01
338.153	6.07
338.52	6.13
338.886	6.1
339.253	6.21
339.619	6.29
339.986	6.29
340.352	6.3
340.718	6.44
341.084	6.4
341.451	6.39
341.817	6.42
342.183	6.35
342.549	6.37
342.915	6.45
343.281	6.58
343.647	6.54
344.013	6.52
344.379	6.47
344.745	6.51
345.11	6.51
345.476	6.65
345.842	6.57
346.208	6.6
346.573	6.67
346.939	6.66
347.304	6.62
347.67	6.61
348.035	6.59
348.401	6.49
348.766	6.48
349.132	6.45
349.497	6.53
349.862	6.59
350.228	6.7
350.593	6.54
350.958	6.48
351.323	6.57
351.688	6.56
352.053	6.55
352.418	6.61
352.783	6.77
353.148	6.73
353.513	6.74
353.878	6.83
354.243	6.73
354.608	6.73
354.972	6.72
355.337	6.7
355.702	6.65
356.066	6.66
356.431	6.69
356.795	6.73
357.16	6.65
357.524	6.63
357.889	6.61
358.253	6.58
358.618	6.55
358.982	6.56
359.346	6.57
359.71	6.66
360.075	6.65
360.439	6.63
360.803	6.6
361.167	6.59
361.531	6.58
361.895	6.6
362.259	6.62
362.623	6.59
362.987	6.65
363.351	6.75
363.714	6.69
364.078	6.68
364.442	6.64
364.806	6.66
365.169	6.66
365.533	6.72
365.896	6.77
366.26	6.71
366.623	6.6
366.987	6.69
367.35	6.59
367.714	6.53
368.077	6.47
368.44	6.48
368.803	6.51
369.167	6.44
369.53	6.47
369.893	6.38
370.256	6.32
370.619	6.23
370.982	6.18
371.345	6.27
371.708	6.35
372.071	6.27
372.434	6.16
372.797	6.22
373.159	6.13
373.522	6.12
373.885	6.13
374.247	6.17
374.61	6.15
374.973	6.14
375.335	6.13
375.698	6.05
376.06	6.06
376.423	6.02
376.785	6.03
377.147	5.99
377.51	5.98
377.872	5.96
378.234	5.97
378.596	5.91
378.958	5.78
379.321	5.65
379.683	5.64
380.045	5.64
380.407	5.56
380.769	5.53
381.13	5.46
381.492	5.38
381.854	5.31
382.216	5.27
382.578	5.2
382.939	5.18
383.301	5.17
383.663	5.04
384.024	5
384.386	4.97
384.747	4.9
385.109	4.86
385.47	4.89
385.832	4.84
386.193	4.82
386.554	4.79
386.916	4.82
387.277	4.83
387.638	4.85
387.999	4.86
388.36	4.85
388.721	4.82
389.082	4.86
389.443	4.82
389.804	4.77
390.165	4.77
390.526	4.72
390.887	4.68
391.248	4.74
391.609	4.73
391.969	4.67
392.33	4.62
392.691	4.55
393.051	4.52
393.412	4.51
393.772	4.51
394.133	4.5
394.493	4.43
394.854	4.37
395.214	4.29
395.574	4.21
395.935	4.18
396.295	4.2
396.655	4.15
397.015	4.16
397.376	4.1
397.736	4.04
398.096	4.04
398.456	3.99
398.816	3.88
399.176	3.85
399.535	3.82
399.895	3.81
400.255	3.84
400.615	3.79
400.975	3.76
401.334	3.73
401.694	3.77
402.054	3.76
402.413	3.75
402.773	3.76
403.132	3.76
403.492	3.74
403.851	3.68
404.211	3.64
404.57	3.6
404.929	3.61
405.288	3.62
405.648	3.59
406.007	3.59
406.366	3.6
406.725	3.61
407.084	3.61
407.443	3.62
407.802	3.58
408.161	3.6
408.52	3.6
408.879	3.6
409.238	3.57
409.596	3.56
409.955	3.54
410.314	3.52
410.673	3.5
411.031	3.48
411.39	3.44
411.748	3.47
412.107	3.47
412.465	3.44
412.824	3.44
413.182	3.43
413.54	3.43
413.899	3.42
414.257	3.42
414.615	3.41
414.974	3.4
415.332	3.42
415.69	3.39
416.048	3.37
416.406	3.34
416.764	3.34
417.122	3.34
417.48	3.33
417.838	3.32
418.195	3.33
418.553	3.33
418.911	3.34
419.269	3.32
419.626	3.32
419.984	3.31
420.342	3.29
420.699	3.27
421.057	3.26
421.414	3.28
421.772	3.26
422.129	3.25
422.486	3.24
422.844	3.22
423.201	3.21
423.558	3.21
423.915	3.21
424.273	3.21
424.63	3.2
424.987	3.22
425.344	3.21
425.701	3.21
426.058	3.2
426.415	3.19
426.772	3.19
427.128	3.18
427.485	3.17
427.842	3.17
428.199	3.16
428.555	3.17
428.912	3.11
429.269	3.11
429.625	3.1
429.982	3.13
430.338	3.13
430.695	3.12
431.051	3.14
431.407	3.12
431.764	3.09
432.12	3.08
432.476	3.06
432.832	3.07
433.189	3.05
433.545	3.03
433.901	3.04
434.257	3.03
434.613	3.04
434.969	3.03
435.325	3.04
435.681	3.06
436.036	3.06
436.392	3.09
436.748	3.1
437.104	3.11
437.459	3.08
437.815	3.09
438.171	3.11
438.526	3.09
438.882	3.1
439.237	3.11
439.593	3.12
439.948	3.13
440.304	3.12
440.659	3.14
441.014	3.14
441.369	3.15
441.725	3.15
442.08	3.16
442.435	3.16
442.79	3.14
443.145	3.13
443.5	3.12
443.855	3.11
444.21	3.09
444.565	3.09
444.92	3.08
445.275	3.08
445.629	3.05
445.984	3.05
446.339	3.05
446.693	3.05
447.048	3.04
447.403	3.03
447.757	3.03
448.112	3.01
448.466	3
448.82	3.01
449.175	3.02
449.529	3.01
449.883	3
450.238	3
450.592	3
450.946	3
451.3	3.01
451.654	3
452.008	2.98
452.362	2.98
452.716	2.97
453.07	2.96
453.424	2.95
453.778	2.92
454.132	2.91
454.486	2.9
454.839	2.89
455.193	2.89
455.547	2.9
455.9	2.9
456.254	2.88
456.607	2.88
456.961	2.87
457.314	2.89
457.668	2.89
458.021	2.89
458.375	2.89
458.728	2.87
459.081	2.88
459.434	2.88
459.787	2.89
460.141	2.9
460.494	2.92
460.847	2.93
461.2	2.94
461.553	2.96
461.906	2.97
462.259	2.98
462.611	3
462.964	3
463.317	3
463.67	3.01
464.022	3.01
464.375	3
464.728	3.02
465.08	3.04
465.433	3.04
465.785	3.07
466.138	3.12
466.49	3.14
466.843	3.17
467.195	3.19
467.547	3.19
467.899	3.2
468.252	3.21
468.604	3.24
468.956	3.24
469.308	3.21
469.66	3.25
470.012	3.23
470.364	3.23
470.716	3.25
471.068	3.26
471.42	3.3
471.772	3.31
472.123	3.33
472.475	3.32
472.827	3.34
473.178	3.3
473.53	3.29
473.882	3.29
474.233	3.31
474.585	3.3
474.936	3.29
475.288	3.31
475.639	3.31
475.99	3.3
476.342	3.32
476.693	3.33
477.044	3.3
477.395	3.31
477.746	3.3
478.097	3.3
478.448	3.3
478.8	3.27
479.15	3.26
479.501	3.26
479.852	3.26
480.203	3.27
480.554	3.3
480.905	3.29
481.255	3.29
481.606	3.27
481.957	3.27
482.307	3.27
482.658	3.26
483.009	3.24
483.359	3.24
483.709	3.24
484.06	3.25
484.41	3.25
484.761	3.25
485.111	3.25
485.461	3.25
485.811	3.25
486.162	3.24
486.512	3.24
486.862	3.24
487.212	3.23
487.562	3.22
487.912	3.21
488.262	3.2
488.612	3.2
488.961	3.21
489.311	3.2
489.661	3.2
490.011	3.19
490.36	3.19
490.71	3.19
491.06	3.19
491.409	3.18
491.759	3.18
492.108	3.19
492.458	3.2
492.807	3.2
493.157	3.21
493.506	3.23
493.855	3.24
494.204	3.24
494.554	3.25
494.903	3.28
495.252	3.3
495.601	3.34
495.95	3.36
496.299	3.38
496.648	3.42
496.997	3.44
497.346	3.49
497.695	3.51
498.043	3.55
498.392	3.6
498.741	3.65
499.09	3.68
499.438	3.71
499.787	3.75
500.135	3.8
500.484	3.86
500.832	3.9
501.181	3.97
501.529	4.05
501.878	4.11
502.226	4.16
502.574	4.22
502.923	4.25
503.271	4.31
503.619	4.4
503.967	4.47
504.315	4.56
504.663	4.64
505.011	4.71
505.359	4.76
505.707	4.85
506.055	4.96
506.403	5.04
506.751	5.13
507.098	5.25
507.446	5.34
507.794	5.44
508.141	5.54
508.489	5.65
508.837	5.76
509.184	5.84
509.531	5.97
509.879	6.06
510.226	6.18
510.574	6.31
510.921	6.39
511.268	6.51
511.616	6.64
511.963	6.75
512.31	6.89
512.657	7.03
513.004	7.14
513.351	7.24
513.698	7.41
514.045	7.56
514.392	7.7
514.739	7.86
515.086	8.01
515.432	8.18
515.779	8.3
516.126	8.46
516.473	8.62
516.819	8.76
517.166	8.91
517.512	9.06
517.859	9.19
518.205	9.33
518.552	9.47
518.898	9.58
519.245	9.74
519.591	9.89
519.937	10.04
520.283	10.2
520.629	10.36
520.976	10.52
521.322	10.68
521.668	10.85
522.014	11.02
522.36	11.21
522.706	11.38
523.052	11.61
523.398	11.81
523.743	12.04
524.089	12.28
524.435	12.51
524.781	12.74
525.126	12.94
525.472	13.14
525.817	13.29
526.163	13.45
526.509	13.61
526.854	13.76
527.199	13.91
527.545	14.05
527.89	14.2
528.235	14.35
528.581	14.51
528.926	14.67
529.271	14.81
529.616	14.96
529.961	15.13
530.306	15.27
530.651	15.44
530.996	15.62
531.341	15.8
531.686	15.98
532.031	16.16
532.376	16.36
532.721	16.55
533.065	16.79
533.41	17.01
533.755	17.25
534.099	17.46
534.444	17.67
534.788	17.89
535.133	18.1
535.477	18.31
535.822	18.52
536.166	18.75
536.51	19.02
536.855	19.3
537.199	19.59
537.543	19.88
537.887	20.19
538.231	20.46
538.576	20.76
538.92	21.03
539.264	21.31
539.608	21.56
539.951	21.82
540.295	22.07
540.639	22.31
540.983	22.51
541.327	22.74
541.671	22.96
542.014	23.2
542.358	23.42
542.701	23.64
543.045	23.86
543.389	24.06
543.732	24.29
544.075	24.5
544.419	24.72
544.762	24.95
545.105	25.18
545.449	25.44
545.792	25.66
546.135	25.94
546.478	26.18
546.821	26.48
547.165	26.78
547.508	27.03
547.851	27.29
548.194	27.56
548.536	27.85
548.879	28.14
549.222	28.39
549.565	28.66
549.908	28.94
550.25	29.17
550.593	29.44
550.936	29.68
551.278	29.96
551.621	30.18
551.963	30.41
552.306	30.66
552.648	30.89
552.991	31.15
553.333	31.34
553.675	31.58
554.017	31.8
554.36	32.01
554.702	32.17
555.044	32.43
555.386	32.58
555.728	32.77
556.07	32.96
556.412	33.1
556.754	33.27
557.096	33.45
557.438	33.71
557.78	33.93
558.121	34.13
558.463	34.31
558.805	34.49
559.147	34.72
559.488	34.85
559.83	35.1
560.171	35.29
560.513	35.49
560.854	35.63
561.196	35.84
561.537	36.02
561.878	36.26
562.22	36.45
562.561	36.67
562.902	36.79
563.243	36.94
563.584	37.12
563.925	37.28
564.266	37.41
564.607	37.54
564.948	37.67
565.289	37.78
565.63	37.92
565.971	38.05
566.312	38.18
566.653	38.34
566.993	38.38
567.334	38.52
567.675	38.63
568.015	38.82
568.356	38.93
568.696	39.08
569.037	39.18
569.377	39.24
569.718	39.4
570.058	39.57
570.398	39.74
570.739	39.84
571.079	40.04
571.419	40.17
571.759	40.32
572.099	40.47
572.439	40.61
572.779	40.73
573.119	40.88
573.459	40.98
573.799	41.06
574.139	41.21
574.479	41.29
574.819	41.41
575.158	41.5
575.498	41.54
575.838	41.6
576.177	41.67
576.517	41.76
576.856	41.86
577.196	41.99
577.535	42.05
577.875	42.18
578.214	42.24
578.553	42.29
578.893	42.39
579.232	42.45
579.571	42.57
579.91	42.68
580.25	42.72
580.589	42.83
580.928	42.96
581.267	42.96
581.606	43.1
581.945	43.15
582.283	43.18
582.622	43.26
582.961	43.31
583.3	43.37
583.639	43.47
583.977	43.51
584.316	43.52
584.654	43.66
584.993	43.72
585.332	43.81
585.67	43.92
586.008	43.98
586.347	44.1
586.685	44.16
587.024	44.3
587.362	44.44
587.7	44.49
588.038	44.51
588.376	44.66
588.715	44.68
589.053	44.75
589.391	44.91
589.729	45.08
590.067	45.19
590.404	45.34
590.742	45.43
591.08	45.45
591.418	45.48
591.756	45.54
592.093	45.65
592.431	45.65
592.769	45.76
593.106	45.85
593.444	45.89
593.781	45.97
594.119	45.93
594.456	45.95
594.793	46.04
595.131	46.14
595.468	46.2
595.805	46.21
596.143	46.31
596.48	46.26
596.817	46.23
597.154	46.23
597.491	46.26
597.828	46.28
598.165	46.4
598.502	46.47
598.839	46.52
599.176	46.55
599.512	46.61
599.849	46.63
600.186	46.66
600.523	46.69
600.859	46.67
601.196	46.73
601.532	46.84
601.869	46.79
602.205	46.86
602.542	46.92
602.878	47.05
603.215	47.03
603.551	47.1
603.887	47.19
604.223	47.24
604.56	47.24
604.896	47.3
605.232	47.34
605.568	47.36
605.904	47.44
606.24	47.46
606.576	47.54
606.912	47.57
607.248	47.55
607.583	47.59
607.919	47.62
608.255	47.7
608.591	47.68
608.926	47.79
609.262	47.83
609.597	47.87
609.933	47.82
610.268	47.93
610.604	47.94
610.939	47.98
611.275	48.05
611.61	48.08
611.945	48.08
612.281	48.08
612.616	48.1
612.951	48.22
613.286	48.23
613.621	48.27
613.956	48.44
614.291	48.51
614.626	48.57
614.961	48.65
615.296	48.6
615.631	48.65
615.966	48.7
616.3	48.65
616.635	48.67
616.97	48.72
617.304	48.76
617.639	48.87
617.973	48.86
618.308	48.89
618.642	48.92
618.977	48.99
619.311	49
619.646	49.07
619.98	48.92
620.314	48.99
620.648	49.1
620.983	49.1
621.317	49.14
621.651	49.15
621.985	49.15
622.319	49.22
622.653	49.28
622.987	49.3
623.321	49.3
623.655	49.2
623.988	49.34
624.322	49.34
624.656	49.39
624.99	49.41
625.323	49.49
625.657	49.49
625.99	49.55
626.324	49.59
626.657	49.56
626.991	49.62
627.324	49.6
627.658	49.51
627.991	49.51
628.324	49.45
628.657	49.46
628.991	49.42
629.324	49.46
629.657	49.5
629.99	49.55
630.323	49.68
630.656	49.79
630.989	49.7
631.322	49.76
631.655	49.82
631.987	49.82
632.32	49.73
632.653	49.8
632.986	49.9
633.318	49.88
633.651	49.97
633.984	50
634.316	50.02
634.649	49.98
634.981	49.91
635.313	50.01
635.646	50.06
635.978	50.32
636.31	50.31
636.643	50.31
636.975	50.29
637.307	50.27
637.639	50.35
637.971	50.39
638.303	50.3
638.635	50.31
638.967	50.34
639.299	50.43
639.631	50.36
639.963	50.2
640.295	50.34
640.626	50.37
640.958	50.4
641.29	50.48
641.621	50.63
641.953	50.56
642.285	50.6
642.616	50.64
642.948	50.55
643.279	50.48
643.61	50.41
643.942	50.49
644.273	50.52
644.604	50.55
644.936	50.58
645.267	50.69
645.598	50.62
645.929	50.6
646.26	50.49
646.591	50.59
646.922	50.61
647.253	50.48
647.584	50.44
647.915	50.34
648.245	50.35
648.576	50.25
648.907	50.4
649.238	50.36
649.568	50.35
649.899	50.42
650.229	50.49
650.56	50.67
650.89	50.66
651.221	50.66
651.551	50.63
651.882	50.62
652.212	50.59
652.542	50.65
652.872	50.76
653.203	50.78
653.533	50.75
653.863	50.89
654.193	51.1
654.523	51.16
654.853	51.16
655.183	51.24
655.513	51.34
655.843	51.38
656.172	51.51
656.502	51.54
656.832	51.51
657.162	51.47
657.491	51.36
657.821	51.33
658.15	51.39
658.48	51.47
658.809	51.57
659.139	51.59
659.468	51.66
659.798	51.67
660.127	51.81
660.456	51.82
660.785	51.71
661.115	51.61
661.444	51.54
661.773	51.57
662.102	51.51
662.431	51.57
662.76	51.58
663.089	51.56
663.418	51.43
663.747	51.44
664.076	51.46
664.404	51.51
664.733	51.55
665.062	51.49
665.39	51.44
665.719	51.31
666.048	51.36
