Data from MVZ_BU34099_Reflection_00010.txt Node
Date: Tue Nov 19 12:15:39 EST 2019
User: vgr7
Spectrometer: USB2G7710
Scans to average: 3
Trigger mode: 4
Integration Time (sec): 2.000000E-2
Electric dark correction enabled: true
Boxcar width: 10
XAxis mode: Wavelengths
Number of Pixels in Spectrum: 2048
>>>>>Begin Spectral Data<<<<<
177.721	489.11
178.105	-150
178.488	585.98
178.871	-73.58
179.254	-27.27
179.636	273.27
180.019	85.84
180.402	233.33
180.785	2.16
181.168	-420.94
181.55	4407.69
181.933	1242.86
182.316	704.65
182.698	177.35
183.081	667.16
183.463	4407.69
183.846	550.33
184.228	1732.65
184.611	3484.62
184.993	-2528.57
185.376	-193.52
185.758	-63.19
186.14	-190.91
186.522	-252.67
186.904	-138.62
187.287	-146.42
187.669	-93.87
188.051	-80.99
188.433	-118.96
188.815	-95.95
189.197	-25.68
189.579	-7.89
189.961	-6.63
190.342	-5
190.724	-8.95
191.106	-5.05
191.488	1.81
191.869	26.45
192.251	28.2
192.633	15.82
193.014	31.47
193.396	14.07
193.777	15.47
194.159	-5.78
194.54	5.95
194.922	-5.8
195.303	-12.78
195.684	-17
196.065	-12.68
196.447	-11.39
196.828	-16.89
197.209	-22.95
197.59	-23.09
197.971	-22.17
198.352	-28.01
198.733	-39.47
199.114	-42.86
199.495	-39.43
199.876	-55.12
200.257	-49.4
200.638	-63.24
201.018	-70.45
201.399	-51.83
201.78	-51.47
202.16	-37.84
202.541	-56.38
202.922	-55.47
203.302	-58.11
203.683	-74.8
204.063	-88.92
204.444	-66.75
204.824	-74.39
205.204	-61.82
205.585	-72.46
205.965	-65.77
206.345	-55.17
206.725	-35.57
207.106	-28.57
207.486	-33.45
207.866	-34.01
208.246	-32.69
208.626	-45.1
209.006	-51.16
209.386	-47.27
209.766	-49.35
210.145	-59.26
210.525	-50.47
210.905	-36.35
211.285	-23.11
211.664	-5.45
212.044	2.3
212.424	-1.49
212.803	-8.96
213.183	-4.54
213.562	-5.04
213.942	-15.97
214.321	-15.98
214.701	-28.51
215.08	-35.17
215.459	-24.95
215.838	-33.3
216.218	-42.25
216.597	-21.82
216.976	-19.98
217.355	-17.8
217.734	-15.31
218.113	1.88
218.492	2.06
218.871	-0.63
219.25	-1.73
219.629	-14.27
220.008	-13.41
220.387	-25.76
220.766	-4.16
221.144	2.88
221.523	-5.29
221.902	10.64
222.28	21.66
222.659	38.8
223.037	34.23
223.416	31.69
223.794	34.23
224.173	26.41
224.551	25.39
224.929	22.37
225.308	21.31
225.686	21.71
226.064	16.48
226.442	20.74
226.821	16.32
227.199	13.23
227.577	13.7
227.955	11.23
228.333	11.59
228.711	10.3
229.089	8.94
229.467	11.14
229.845	8.37
230.222	7.76
230.6	2.41
230.978	2.74
231.356	3.44
231.733	3.84
232.111	3.49
232.488	1.82
232.866	1.93
233.243	2.25
233.621	3.31
233.998	1.54
234.376	0.02
234.753	0.8
235.13	0.79
235.508	-0.05
235.885	0.68
236.262	0.14
236.639	0.56
237.016	0.44
237.393	2.04
237.77	2.92
238.147	2.32
238.524	3.53
238.901	3.45
239.278	2.45
239.655	2.79
240.032	3.8
240.409	3.85
240.785	3.91
241.162	4.21
241.539	3.86
241.915	4.08
242.292	4.57
242.668	4.72
243.045	4.82
243.421	5.23
243.798	5.04
244.174	5.31
244.551	5.29
244.927	5.14
245.303	4.73
245.679	4.98
246.056	5.12
246.432	5.12
246.808	5.21
247.184	5.5
247.56	5.34
247.936	5.33
248.312	5.48
248.688	5.64
249.064	5.19
249.44	5.15
249.815	5.07
250.191	5.02
250.567	4.95
250.943	5.04
251.318	4.84
251.694	4.71
252.069	4.58
252.445	4.13
252.82	4.39
253.196	4.59
253.571	4.27
253.947	3.94
254.322	3.62
254.697	3.83
255.073	3.75
255.448	3.95
255.823	3.77
256.198	3.69
256.573	3.74
256.948	4.08
257.323	3.87
257.698	4.17
258.073	4.02
258.448	4.06
258.823	3.89
259.198	3.8
259.573	3.7
259.948	3.75
260.322	3.97
260.697	3.99
261.072	3.89
261.446	3.89
261.821	3.91
262.195	4.01
262.57	3.73
262.944	3.58
263.319	3.51
263.693	3.65
264.067	3.7
264.442	3.58
264.816	3.43
265.19	3.51
265.564	3.35
265.938	3.4
266.313	3.37
266.687	3.18
267.061	3.23
267.435	3.53
267.809	3.47
268.183	3.61
268.556	3.63
268.93	3.75
269.304	3.66
269.678	3.74
270.051	3.76
270.425	3.98
270.799	3.9
271.172	3.78
271.546	3.66
271.919	3.53
272.293	3.7
272.666	3.83
273.04	3.78
273.413	3.73
273.787	3.54
274.16	3.4
274.533	3.62
274.906	3.55
275.279	3.42
275.653	3.41
276.026	3.44
276.399	3.43
276.772	3.34
277.145	3.53
277.518	3.46
277.891	3.39
278.263	3.29
278.636	3.49
279.009	3.63
279.382	3.64
279.755	3.67
280.127	3.59
280.5	3.36
280.872	3.63
281.245	3.76
281.617	3.78
281.99	3.89
282.362	3.97
282.735	3.97
283.107	3.99
283.479	4.15
283.852	4.04
284.224	3.99
284.596	4
284.968	3.86
285.34	3.89
285.713	4.07
286.085	4.05
286.457	4.08
286.829	4.06
287.201	3.94
287.572	3.97
287.944	3.97
288.316	4.05
288.688	4
289.06	3.88
289.431	3.9
289.803	3.97
290.175	3.88
290.546	3.94
290.918	3.92
291.289	3.67
291.661	3.62
292.032	3.63
292.403	3.69
292.775	3.78
293.146	3.8
293.517	3.7
293.889	3.82
294.26	3.82
294.631	3.86
295.002	4.04
295.373	4.02
295.744	3.97
296.115	3.96
296.486	4.08
296.857	4.19
297.228	4.18
297.599	4
297.97	4.03
298.34	3.98
298.711	4.01
299.082	4.24
299.452	4.29
299.823	4.32
300.194	4.43
300.564	4.36
300.935	4.41
301.305	4.42
301.676	4.46
302.046	4.5
302.416	4.41
302.787	4.51
303.157	4.56
303.527	4.7
303.897	4.82
304.267	4.74
304.637	4.85
305.008	5.09
305.378	5.32
305.748	5.34
306.117	5.58
306.487	5.8
306.857	5.8
307.227	5.94
307.597	5.99
307.967	5.98
308.336	6.15
308.706	6.16
309.076	6.35
309.445	6.38
309.815	6.33
310.184	6.39
310.554	6.3
310.923	6.41
311.293	6.43
311.662	6.53
312.031	6.41
312.401	6.34
312.77	6.35
313.139	6.42
313.508	6.52
313.877	6.46
314.246	6.43
314.616	6.46
314.985	6.39
315.353	6.47
315.722	6.49
316.091	6.43
316.46	6.45
316.829	6.45
317.198	6.45
317.567	6.59
317.935	6.84
318.304	7.01
318.672	7.1
319.041	7.14
319.41	7.08
319.778	7.39
320.147	7.58
320.515	7.63
320.883	7.58
321.252	7.59
321.62	7.68
321.988	7.68
322.357	7.69
322.725	7.84
323.093	7.84
323.461	7.81
323.829	7.87
324.197	7.83
324.565	7.77
324.933	7.87
325.301	7.79
325.669	7.71
326.037	7.7
326.405	7.78
326.772	7.91
327.14	7.99
327.508	8
327.875	7.85
328.243	7.83
328.61	7.92
328.978	8.02
329.346	8.04
329.713	8.18
330.08	8.29
330.448	8.14
330.815	8.28
331.182	8.2
331.55	8.26
331.917	8.58
332.284	8.51
332.651	8.54
333.018	8.62
333.385	8.73
333.752	8.74
334.119	8.65
334.486	8.58
334.853	8.75
335.22	8.63
335.587	8.66
335.954	8.79
336.32	8.75
336.687	8.71
337.054	8.79
337.42	8.72
337.787	8.68
338.153	8.94
338.52	8.96
338.886	9.11
339.253	9.19
339.619	9.15
339.986	9.18
340.352	9.23
340.718	9.33
341.084	9.13
341.451	9.18
341.817	9.26
342.183	9.24
342.549	9.13
342.915	9.22
343.281	9.4
343.647	9.35
344.013	9.53
344.379	9.58
344.745	9.6
345.11	9.56
345.476	9.67
345.842	9.56
346.208	9.51
346.573	9.57
346.939	9.49
347.304	9.5
347.67	9.55
348.035	9.44
348.401	9.39
348.766	9.46
349.132	9.46
349.497	9.44
349.862	9.46
350.228	9.43
350.593	9.4
350.958	9.41
351.323	9.38
351.688	9.27
352.053	9.24
352.418	9.24
352.783	9.24
353.148	9.04
353.513	9.01
353.878	8.98
354.243	8.91
354.608	8.97
354.972	8.91
355.337	8.97
355.702	9.06
356.066	9.1
356.431	9.14
356.795	9.16
357.16	9.11
357.524	9.07
357.889	9.1
358.253	9.12
358.618	9.04
358.982	9.06
359.346	9.07
359.71	9.09
360.075	9.11
360.439	9.18
360.803	9.27
361.167	9.24
361.531	9.23
361.895	9.23
362.259	9.16
362.623	9.07
362.987	9.01
363.351	8.88
363.714	8.86
364.078	8.88
364.442	8.83
364.806	8.84
365.169	8.85
365.533	8.82
365.896	8.85
366.26	8.75
366.623	8.74
366.987	8.71
367.35	8.72
367.714	8.63
368.077	8.52
368.44	8.39
368.803	8.38
369.167	8.28
369.53	8.32
369.893	8.34
370.256	8.36
370.619	8.27
370.982	8.29
371.345	8.25
371.708	8.18
372.071	8.11
372.434	8.07
372.797	8.02
373.159	7.99
373.522	7.84
373.885	7.85
374.247	7.81
374.61	7.7
374.973	7.6
375.335	7.56
375.698	7.48
376.06	7.52
376.423	7.53
376.785	7.56
377.147	7.43
377.51	7.36
377.872	7.34
378.234	7.35
378.596	7.28
378.958	7.26
379.321	7.23
379.683	7.22
380.045	7.16
380.407	7.14
380.769	7.1
381.13	7.06
381.492	6.98
381.854	6.9
382.216	6.9
382.578	6.87
382.939	6.83
383.301	6.86
383.663	6.79
384.024	6.79
384.386	6.75
384.747	6.73
385.109	6.72
385.47	6.68
385.832	6.61
386.193	6.59
386.554	6.53
386.916	6.51
387.277	6.44
387.638	6.44
387.999	6.41
388.36	6.33
388.721	6.34
389.082	6.32
389.443	6.29
389.804	6.27
390.165	6.24
390.526	6.23
390.887	6.13
391.248	6.12
391.609	6.07
391.969	6.01
392.33	5.95
392.691	5.91
393.051	5.87
393.412	5.85
393.772	5.78
394.133	5.73
394.493	5.68
394.854	5.64
395.214	5.58
395.574	5.53
395.935	5.49
396.295	5.43
396.655	5.41
397.015	5.38
397.376	5.35
397.736	5.3
398.096	5.24
398.456	5.23
398.816	5.21
399.176	5.09
399.535	5.07
399.895	5.06
400.255	5.02
400.615	5.02
400.975	4.97
401.334	4.97
401.694	4.93
402.054	4.87
402.413	4.84
402.773	4.83
403.132	4.81
403.492	4.81
403.851	4.78
404.211	4.78
404.57	4.74
404.929	4.69
405.288	4.68
405.648	4.65
406.007	4.68
406.366	4.65
406.725	4.69
407.084	4.69
407.443	4.66
407.802	4.65
408.161	4.61
408.52	4.59
408.879	4.58
409.238	4.58
409.596	4.62
409.955	4.6
410.314	4.58
410.673	4.59
411.031	4.56
411.39	4.55
411.748	4.55
412.107	4.52
412.465	4.52
412.824	4.47
413.182	4.46
413.54	4.39
413.899	4.36
414.257	4.34
414.615	4.31
414.974	4.29
415.332	4.28
415.69	4.26
416.048	4.26
416.406	4.24
416.764	4.21
417.122	4.16
417.48	4.16
417.838	4.14
418.195	4.1
418.553	4.11
418.911	4.09
419.269	4.04
419.626	4.04
419.984	4.03
420.342	4.03
420.699	4.03
421.057	4.02
421.414	4.01
421.772	4
422.129	3.97
422.486	3.97
422.844	3.94
423.201	3.93
423.558	3.93
423.915	3.92
424.273	3.92
424.63	3.91
424.987	3.9
425.344	3.89
425.701	3.88
426.058	3.86
426.415	3.85
426.772	3.86
427.128	3.85
427.485	3.83
427.842	3.83
428.199	3.81
428.555	3.81
428.912	3.78
429.269	3.75
429.625	3.75
429.982	3.75
430.338	3.77
430.695	3.75
431.051	3.73
431.407	3.73
431.764	3.69
432.12	3.71
432.476	3.7
432.832	3.72
433.189	3.69
433.545	3.69
433.901	3.67
434.257	3.65
434.613	3.65
434.969	3.65
435.325	3.62
435.681	3.63
436.036	3.64
436.392	3.63
436.748	3.65
437.104	3.65
437.459	3.64
437.815	3.65
438.171	3.65
438.526	3.66
438.882	3.66
439.237	3.68
439.593	3.68
439.948	3.67
440.304	3.64
440.659	3.66
441.014	3.67
441.369	3.68
441.725	3.69
442.08	3.69
442.435	3.69
442.79	3.68
443.145	3.68
443.5	3.64
443.855	3.64
444.21	3.64
444.565	3.63
444.92	3.62
445.275	3.6
445.629	3.6
445.984	3.58
446.339	3.59
446.693	3.57
447.048	3.54
447.403	3.53
447.757	3.52
448.112	3.53
448.466	3.53
448.82	3.53
449.175	3.52
449.529	3.51
449.883	3.51
450.238	3.51
450.592	3.49
450.946	3.51
451.3	3.53
451.654	3.51
452.008	3.52
452.362	3.53
452.716	3.54
453.07	3.52
453.424	3.53
453.778	3.51
454.132	3.49
454.486	3.5
454.839	3.5
455.193	3.52
455.547	3.5
455.9	3.5
456.254	3.49
456.607	3.48
456.961	3.48
457.314	3.47
457.668	3.46
458.021	3.46
458.375	3.45
458.728	3.42
459.081	3.44
459.434	3.43
459.787	3.43
460.141	3.43
460.494	3.46
460.847	3.43
461.2	3.46
461.553	3.47
461.906	3.48
462.259	3.47
462.611	3.47
462.964	3.48
463.317	3.47
463.67	3.49
464.022	3.49
464.375	3.49
464.728	3.51
465.08	3.52
465.433	3.53
465.785	3.56
466.138	3.57
466.49	3.57
466.843	3.59
467.195	3.61
467.547	3.6
467.899	3.6
468.252	3.62
468.604	3.63
468.956	3.62
469.308	3.62
469.66	3.65
470.012	3.66
470.364	3.65
470.716	3.67
471.068	3.69
471.42	3.7
471.772	3.71
472.123	3.73
472.475	3.78
472.827	3.8
473.178	3.8
473.53	3.83
473.882	3.85
474.233	3.84
474.585	3.83
474.936	3.85
475.288	3.83
475.639	3.84
475.99	3.86
476.342	3.87
476.693	3.88
477.044	3.87
477.395	3.87
477.746	3.86
478.097	3.83
478.448	3.81
478.8	3.81
479.15	3.8
479.501	3.78
479.852	3.75
480.203	3.75
480.554	3.74
480.905	3.72
481.255	3.7
481.606	3.69
481.957	3.7
482.307	3.7
482.658	3.69
483.009	3.69
483.359	3.67
483.709	3.67
484.06	3.68
484.41	3.69
484.761	3.7
485.111	3.7
485.461	3.71
485.811	3.71
486.162	3.72
486.512	3.72
486.862	3.73
487.212	3.74
487.562	3.73
487.912	3.74
488.262	3.74
488.612	3.76
488.961	3.77
489.311	3.77
489.661	3.77
490.011	3.78
490.36	3.78
490.71	3.78
491.06	3.78
491.409	3.79
491.759	3.8
492.108	3.79
492.458	3.81
492.807	3.82
493.157	3.82
493.506	3.83
493.855	3.84
494.204	3.84
494.554	3.85
494.903	3.87
495.252	3.89
495.601	3.92
495.95	3.93
496.299	3.95
496.648	3.98
496.997	4.01
497.346	4.06
497.695	4.11
498.043	4.15
498.392	4.18
498.741	4.21
499.09	4.22
499.438	4.26
499.787	4.3
500.135	4.34
500.484	4.38
500.832	4.42
501.181	4.46
501.529	4.52
501.878	4.57
502.226	4.62
502.574	4.66
502.923	4.7
503.271	4.74
503.619	4.8
503.967	4.84
504.315	4.91
504.663	4.95
505.011	5
505.359	5.06
505.707	5.11
506.055	5.17
506.403	5.25
506.751	5.35
507.098	5.41
507.446	5.46
507.794	5.53
508.141	5.59
508.489	5.64
508.837	5.7
509.184	5.78
509.531	5.87
509.879	5.91
510.226	5.99
510.574	6.08
510.921	6.17
511.268	6.24
511.616	6.33
511.963	6.4
512.31	6.47
512.657	6.56
513.004	6.65
513.351	6.75
513.698	6.82
514.045	6.89
514.392	7
514.739	7.12
515.086	7.22
515.432	7.3
515.779	7.41
516.126	7.52
516.473	7.62
516.819	7.7
517.166	7.82
517.512	7.9
517.859	7.98
518.205	8.04
518.552	8.12
518.898	8.18
519.245	8.25
519.591	8.35
519.937	8.43
520.283	8.48
520.629	8.58
520.976	8.69
521.322	8.78
521.668	8.86
522.014	8.93
522.36	9.03
522.706	9.14
523.052	9.26
523.398	9.38
523.743	9.51
524.089	9.66
524.435	9.76
524.781	9.87
525.126	9.99
525.472	10.1
525.817	10.21
526.163	10.31
526.509	10.41
526.854	10.48
527.199	10.55
527.545	10.64
527.89	10.71
528.235	10.78
528.581	10.86
528.926	10.94
529.271	11.03
529.616	11.13
529.961	11.23
530.306	11.33
530.651	11.41
530.996	11.5
531.341	11.58
531.686	11.69
532.031	11.82
532.376	11.92
532.721	12.04
533.065	12.15
533.41	12.29
533.755	12.41
534.099	12.55
534.444	12.7
534.788	12.84
535.133	12.99
535.477	13.15
535.822	13.33
536.166	13.51
536.51	13.7
536.855	13.88
537.199	14.07
537.543	14.26
537.887	14.47
538.231	14.68
538.576	14.89
538.92	15.09
539.264	15.27
539.608	15.48
539.951	15.67
540.295	15.84
540.639	15.98
540.983	16.16
541.327	16.31
541.671	16.48
542.014	16.67
542.358	16.83
542.701	16.98
543.045	17.13
543.389	17.31
543.732	17.44
544.075	17.6
544.419	17.78
544.762	17.96
545.105	18.17
545.449	18.38
545.792	18.62
546.135	18.86
546.478	19.09
546.821	19.32
547.165	19.58
547.508	19.85
547.851	20.12
548.194	20.39
548.536	20.66
548.879	20.96
549.222	21.19
549.565	21.46
549.908	21.76
550.25	22.02
550.593	22.29
550.936	22.6
551.278	22.91
551.621	23.18
551.963	23.48
552.306	23.71
552.648	23.97
552.991	24.19
553.333	24.4
553.675	24.67
554.017	24.95
554.36	25.19
554.702	25.41
555.044	25.7
555.386	25.97
555.728	26.22
556.07	26.45
556.412	26.67
556.754	26.97
557.096	27.21
557.438	27.52
557.78	27.8
558.121	28.03
558.463	28.28
558.805	28.54
559.147	28.8
559.488	29.04
559.83	29.31
560.171	29.62
560.513	29.91
560.854	30.16
561.196	30.39
561.537	30.63
561.878	30.92
562.22	31.12
562.561	31.36
562.902	31.64
563.243	31.93
563.584	32.18
563.925	32.4
564.266	32.65
564.607	32.86
564.948	33.01
565.289	33.27
565.63	33.5
565.971	33.69
566.312	33.85
566.653	34.09
566.993	34.3
567.334	34.5
567.675	34.69
568.015	34.88
568.356	35.09
568.696	35.28
569.037	35.49
569.377	35.71
569.718	35.88
570.058	36.02
570.398	36.16
570.739	36.35
571.079	36.45
571.419	36.59
571.759	36.73
572.099	36.95
572.439	37.1
572.779	37.25
573.119	37.43
573.459	37.65
573.799	37.77
574.139	37.92
574.479	38.04
574.819	38.15
575.158	38.28
575.498	38.39
575.838	38.55
576.177	38.66
576.517	38.77
576.856	38.9
577.196	39.08
577.535	39.22
577.875	39.36
578.214	39.61
578.553	39.71
578.893	39.85
579.232	39.96
579.571	40.14
579.91	40.24
580.25	40.38
580.589	40.47
580.928	40.63
581.267	40.72
581.606	40.86
581.945	40.99
582.283	41.15
582.622	41.34
582.961	41.44
583.3	41.52
583.639	41.66
583.977	41.8
584.316	41.88
584.654	41.96
584.993	42.05
585.332	42.15
585.67	42.29
586.008	42.47
586.347	42.6
586.685	42.65
587.024	42.73
587.362	42.8
587.7	42.93
588.038	43
588.376	43.22
588.715	43.37
589.053	43.46
589.391	43.51
589.729	43.62
590.067	43.64
590.404	43.77
590.742	43.92
591.08	43.94
591.418	44.04
591.756	44.12
592.093	44.2
592.431	44.33
592.769	44.4
593.106	44.39
593.444	44.45
593.781	44.54
594.119	44.64
594.456	44.76
594.793	44.81
595.131	44.9
595.468	44.86
595.805	44.87
596.143	44.96
596.48	44.98
596.817	44.95
597.154	45.05
597.491	45.12
597.828	45.17
598.165	45.23
598.502	45.26
598.839	45.34
599.176	45.44
599.512	45.4
599.849	45.5
600.186	45.57
600.523	45.62
600.859	45.69
601.196	45.74
601.532	45.77
601.869	45.8
602.205	45.78
602.542	45.82
602.878	45.83
603.215	45.86
603.551	45.95
603.887	45.98
604.223	46.02
604.56	46.03
604.896	46.05
605.232	46.16
605.568	46.22
605.904	46.24
606.24	46.28
606.576	46.33
606.912	46.34
607.248	46.41
607.583	46.51
607.919	46.52
608.255	46.53
608.591	46.55
608.926	46.66
609.262	46.76
609.597	46.8
609.933	46.87
610.268	46.87
610.604	46.95
610.939	47.07
611.275	47.13
611.61	47.13
611.945	47.06
612.281	47.08
612.616	47.15
612.951	47.21
613.286	47.21
613.621	47.27
613.956	47.28
614.291	47.37
614.626	47.39
614.961	47.37
615.296	47.49
615.631	47.62
615.966	47.59
616.3	47.63
616.635	47.69
616.97	47.69
617.304	47.85
617.639	47.78
617.973	47.74
618.308	47.82
618.642	47.84
618.977	47.91
619.311	47.89
619.646	47.89
619.98	47.99
620.314	47.93
620.648	48.11
620.983	48.16
621.317	48.17
621.651	48.16
621.985	48.23
622.319	48.21
622.653	48.19
622.987	48.24
623.321	48.24
623.655	48.28
623.988	48.34
624.322	48.32
624.656	48.44
624.99	48.52
625.323	48.42
625.657	48.48
625.99	48.5
626.324	48.53
626.657	48.47
626.991	48.46
627.324	48.53
627.658	48.51
627.991	48.58
628.324	48.53
628.657	48.53
628.991	48.59
629.324	48.56
629.657	48.6
629.99	48.6
630.323	48.68
630.656	48.72
630.989	48.73
631.322	48.81
631.655	48.76
631.987	48.74
632.32	48.91
632.653	48.92
632.986	49.02
633.318	49.06
633.651	49.21
633.984	49.18
634.316	49.26
634.649	49.21
634.981	49.22
635.313	49.28
635.646	49.33
635.978	49.42
636.31	49.56
636.643	49.56
636.975	49.6
637.307	49.66
637.639	49.61
637.971	49.62
638.303	49.55
638.635	49.63
638.967	49.66
639.299	49.64
639.631	49.79
639.963	49.79
640.295	49.82
640.626	49.89
640.958	49.88
641.29	49.88
641.621	49.84
641.953	49.92
642.285	49.89
642.616	49.91
642.948	49.86
643.279	49.88
643.61	49.91
643.942	49.91
644.273	49.9
644.604	49.95
644.936	50.01
645.267	49.97
645.598	49.97
645.929	50.03
646.26	50.07
646.591	49.9
646.922	49.9
647.253	49.97
647.584	49.84
647.915	49.87
648.245	49.93
648.576	50
648.907	49.97
649.238	50
649.568	50.05
649.899	50.06
650.229	50.02
650.56	50.02
650.89	50.1
651.221	50.1
651.551	50.17
651.882	50.21
652.212	50.24
652.542	50.17
652.872	50.09
653.203	50.05
653.533	50.22
653.863	50.37
654.193	50.28
654.523	50.33
654.853	50.46
655.183	50.48
655.513	50.51
655.843	50.51
656.172	50.68
656.502	50.64
656.832	50.67
657.162	50.75
657.491	50.78
657.821	50.76
658.15	50.7
658.48	50.65
658.809	50.62
659.139	50.72
659.468	50.92
659.798	51.04
660.127	51.06
660.456	51.05
660.785	50.96
661.115	51.09
661.444	51.18
661.773	51.19
662.102	51.11
662.431	51.12
662.76	51.05
663.089	50.98
663.418	51.08
663.747	50.99
664.076	50.98
664.404	51.04
664.733	51.03
665.062	51.09
665.39	51.23
665.719	51.22
666.048	51.07
666.376	50.91
666.705	50.95
667.033	50.98
667.362	50.96
667.69	50.89
668.018	50.76
