Data from MVZ_BU62167_Reflection_00012.txt Node
Date: Tue Nov 19 12:14:40 EST 2019
User: vgr7
Spectrometer: USB2G7710
Scans to average: 3
Trigger mode: 4
Integration Time (sec): 2.000000E-2
Electric dark correction enabled: true
Boxcar width: 10
XAxis mode: Wavelengths
Number of Pixels in Spectrum: 2048
>>>>>Begin Spectral Data<<<<<
177.721	3.83
178.105	-66.67
178.488	-205.16
178.871	-7.02
179.254	-45.1
179.636	39.86
180.019	-10.19
180.402	43.75
180.785	1246.67
181.168	-299.12
181.55	124.15
181.933	50.19
182.316	73.78
182.698	185.27
183.081	-1307.41
183.463	-246.41
183.846	-220.99
184.228	139.22
184.611	3.35
184.993	31.07
185.376	60.41
185.758	36.2
186.14	55.56
186.522	4.21
186.904	49.02
187.287	-0.46
187.669	93.94
188.051	188.05
188.433	3988.89
188.815	492.16
189.197	71.19
189.579	-56.46
189.961	-131.64
190.342	282.39
190.724	607.94
191.106	85.14
191.488	22.69
191.869	54.49
192.251	106.44
192.633	145.86
193.014	83.42
193.396	54.85
193.777	63.23
194.159	82.26
194.54	67.56
194.922	59.97
195.303	57.18
195.684	67.89
196.065	59.7
196.447	59.21
196.828	33.07
197.209	71.25
197.59	57.53
197.971	40.2
198.352	25.86
198.733	25.69
199.114	24.32
199.495	41.62
199.876	19.25
200.257	18.05
200.638	18.99
201.018	12.2
201.399	12.51
201.78	30.25
202.16	28.4
202.541	30.94
202.922	33.1
203.302	34.39
203.683	21.51
204.063	15.06
204.444	8.64
204.824	9.37
205.204	9.86
205.585	17.55
205.965	22.95
206.345	34.1
206.725	24.33
207.106	28.76
207.486	29.09
207.866	38.04
208.246	34.29
208.626	44.96
209.006	56.48
209.386	63.27
209.766	52.57
210.145	41.2
210.525	51.74
210.905	52.26
211.285	53.57
211.664	73.7
212.044	76.48
212.424	88.52
212.803	99.6
213.183	104.92
213.562	90.14
213.942	83.49
214.321	81.96
214.701	70.34
215.08	69.73
215.459	65.83
215.838	70.45
216.218	60.97
216.597	65.68
216.976	61.97
217.355	60.2
217.734	45.09
218.113	43.94
218.492	42.93
218.871	45.77
219.25	41.07
219.629	25.16
220.008	23.89
220.387	13.82
220.766	19.02
221.144	13.33
221.523	12.03
221.902	19.19
222.28	20.07
222.659	47.49
223.037	43.89
223.416	41.93
223.794	38.29
224.173	45.58
224.551	30.9
224.929	28.69
225.308	26.28
225.686	31.69
226.064	27.66
226.442	27.06
226.821	20.78
227.199	18.32
227.577	18.81
227.955	21.7
228.333	23.18
228.711	19.14
229.089	16.46
229.467	16.52
229.845	10.29
230.222	10.46
230.6	4.76
230.978	7.33
231.356	10.45
231.733	12.62
232.111	12.46
232.488	14.4
232.866	14.39
233.243	12.9
233.621	11.19
233.998	12.38
234.376	11.13
234.753	11.25
235.13	11.11
235.508	10.49
235.885	9.4
236.262	9.66
236.639	8.22
237.016	9.84
237.393	10.46
237.77	11.72
238.147	11.21
238.524	10.71
238.901	8.56
239.278	7.29
239.655	5.7
240.032	5.37
240.409	5
240.785	5.42
241.162	5.61
241.539	5.25
241.915	4.72
242.292	4.91
242.668	5.06
243.045	5.84
243.421	5.79
243.798	5.62
244.174	5.84
244.551	5.96
244.927	5.85
245.303	5.41
245.679	5.64
246.056	5.29
246.432	5.2
246.808	5.31
247.184	5.4
247.56	5.35
247.936	5.3
248.312	5.55
248.688	5.34
249.064	5.55
249.44	5.61
249.815	5.73
250.191	5.78
250.567	5.89
250.943	5.61
251.318	5.7
251.694	5.54
252.069	5.04
252.445	5.27
252.82	5.38
253.196	5.73
253.571	5.31
253.947	5.37
254.322	5.41
254.697	5.81
255.073	5.43
255.448	5.86
255.823	5.86
256.198	5.53
256.573	5.51
256.948	5.48
257.323	5.45
257.698	5.38
258.073	5.11
258.448	5.12
258.823	4.96
259.198	4.76
259.573	4.69
259.948	4.97
260.322	4.97
260.697	5.11
261.072	5.13
261.446	5.18
261.821	5.12
262.195	5.06
262.57	4.9
262.944	5.12
263.319	5.13
263.693	5.1
264.067	5.04
264.442	4.91
264.816	4.76
265.19	4.64
265.564	4.73
265.938	4.89
266.313	4.89
266.687	5.05
267.061	5.46
267.435	5.84
267.809	5.61
268.183	5.46
268.556	5.23
268.93	4.99
269.304	4.94
269.678	5.11
270.051	5.2
270.425	5.32
270.799	5.11
271.172	4.98
271.546	5.14
271.919	5.26
272.293	5.46
272.666	5.37
273.04	5.46
273.413	5.42
273.787	5.37
274.16	5.18
274.533	5.25
274.906	4.98
275.279	4.77
275.653	4.71
276.026	4.71
276.399	4.67
276.772	4.94
277.145	5.07
277.518	5.01
277.891	5.1
278.263	5.04
278.636	5.35
279.009	5.39
279.382	5.27
279.755	5.21
280.127	5.25
280.5	5.47
280.872	5.65
281.245	5.67
281.617	5.68
281.99	5.95
282.362	5.86
282.735	5.95
283.107	5.79
283.479	5.99
283.852	5.91
284.224	5.91
284.596	5.84
284.968	5.63
285.34	5.65
285.713	5.55
286.085	5.55
286.457	5.46
286.829	5.53
287.201	5.48
287.572	5.48
287.944	5.5
288.316	5.49
288.688	5.49
289.06	5.66
289.431	5.67
289.803	5.58
290.175	5.56
290.546	5.61
290.918	5.72
291.289	5.54
291.661	5.69
292.032	5.79
292.403	5.66
292.775	5.91
293.146	6.01
293.517	6.1
293.889	6.24
294.26	6.36
294.631	6.35
295.002	6.48
295.373	6.61
295.744	6.65
296.115	6.65
296.486	6.73
296.857	6.65
297.228	6.55
297.599	6.49
297.97	6.67
298.34	6.67
298.711	6.81
299.082	6.97
299.452	6.89
299.823	6.85
300.194	7.16
300.564	7.06
300.935	6.94
301.305	6.8
301.676	6.71
302.046	6.57
302.416	6.51
302.787	6.55
303.157	6.49
303.527	6.76
303.897	6.74
304.267	6.77
304.637	6.75
305.008	7.02
305.378	7.13
305.748	6.92
306.117	6.89
306.487	6.88
306.857	6.84
307.227	6.98
307.597	7.04
307.967	6.91
308.336	7.12
308.706	7.21
309.076	7.6
309.445	7.66
309.815	7.79
310.184	7.92
310.554	7.9
310.923	8.09
311.293	7.94
311.662	8.09
312.031	8
312.401	8.05
312.77	7.97
313.139	8.04
313.508	8.12
313.877	8.32
314.246	8.3
314.616	8.35
314.985	8.41
315.353	8.46
315.722	8.47
316.091	8.51
316.46	8.57
316.829	8.36
317.198	8.38
317.567	8.41
317.935	8.53
318.304	8.67
318.672	8.67
319.041	8.74
319.41	8.7
319.778	8.89
320.147	8.98
320.515	9.1
320.883	9.03
321.252	9.26
321.62	9.19
321.988	9.37
322.357	9.5
322.725	9.5
323.093	9.64
323.461	9.72
323.829	9.74
324.197	9.91
324.565	10.13
324.933	10.3
325.301	10.2
325.669	10.24
326.037	10.2
326.405	10.14
326.772	10.13
327.14	10.26
327.508	10.15
327.875	10.12
328.243	9.99
328.61	10.03
328.978	10.08
329.346	10.21
329.713	10.27
330.08	10.4
330.448	10.65
330.815	10.65
331.182	10.65
331.55	10.63
331.917	10.67
332.284	10.75
332.651	10.7
333.018	10.84
333.385	10.73
333.752	10.8
334.119	11.02
334.486	11.1
334.853	11.14
335.22	11.26
335.587	11.23
335.954	11.39
336.32	11.52
336.687	11.46
337.054	11.53
337.42	11.62
337.787	11.49
338.153	11.33
338.52	11.34
338.886	11.35
339.253	11.26
339.619	11.2
339.986	11.06
340.352	11.07
340.718	10.99
341.084	11.04
341.451	11.08
341.817	11
342.183	10.84
342.549	10.79
342.915	10.82
343.281	10.9
343.647	10.86
344.013	10.96
344.379	11.04
344.745	10.92
345.11	10.95
345.476	11.03
345.842	11.03
346.208	11.05
346.573	11.08
346.939	11.22
347.304	11.22
347.67	11.17
348.035	11.05
348.401	11.24
348.766	11.13
349.132	11.13
349.497	11.18
349.862	11.37
350.228	11.39
350.593	11.37
350.958	11.44
351.323	11.53
351.688	11.49
352.053	11.42
352.418	11.55
352.783	11.51
353.148	11.44
353.513	11.49
353.878	11.39
354.243	11.34
354.608	11.24
354.972	11.22
355.337	11.2
355.702	11.28
356.066	11.28
356.431	11.34
356.795	11.38
357.16	11.34
357.524	11.38
357.889	11.29
358.253	11.28
358.618	11.19
358.982	11.06
359.346	10.97
359.71	10.97
360.075	10.91
360.439	10.84
360.803	10.91
361.167	10.81
361.531	10.84
361.895	10.88
362.259	10.95
362.623	10.97
362.987	11.02
363.351	11
363.714	11
364.078	10.94
364.442	10.85
364.806	10.82
365.169	10.75
365.533	10.78
365.896	10.78
366.26	10.81
366.623	10.91
366.987	10.9
367.35	10.89
367.714	10.84
368.077	10.84
368.44	10.76
368.803	10.74
369.167	10.68
369.53	10.64
369.893	10.63
370.256	10.53
370.619	10.48
370.982	10.43
371.345	10.28
371.708	10.32
372.071	10.25
372.434	10.15
372.797	10.06
373.159	9.91
373.522	9.78
373.885	9.76
374.247	9.6
374.61	9.55
374.973	9.42
375.335	9.39
375.698	9.29
376.06	9.15
376.423	9.16
376.785	9.12
377.147	8.92
377.51	8.82
377.872	8.81
378.234	8.79
378.596	8.74
378.958	8.69
379.321	8.6
379.683	8.59
380.045	8.51
380.407	8.44
380.769	8.44
381.13	8.42
381.492	8.25
381.854	8.2
382.216	8.15
382.578	8.16
382.939	8.07
383.301	7.98
383.663	7.96
384.024	7.85
384.386	7.81
384.747	7.79
385.109	7.71
385.47	7.62
385.832	7.54
386.193	7.48
386.554	7.4
386.916	7.36
387.277	7.24
387.638	7.21
387.999	7.17
388.36	7.08
388.721	6.99
389.082	6.98
389.443	7
389.804	6.98
390.165	6.88
390.526	6.87
390.887	6.85
391.248	6.86
391.609	6.84
391.969	6.77
392.33	6.79
392.691	6.74
393.051	6.67
393.412	6.63
393.772	6.57
394.133	6.57
394.493	6.51
394.854	6.47
395.214	6.43
395.574	6.37
395.935	6.33
396.295	6.32
396.655	6.28
397.015	6.22
397.376	6.16
397.736	6.13
398.096	6.02
398.456	5.93
398.816	5.84
399.176	5.75
399.535	5.7
399.895	5.65
400.255	5.68
400.615	5.67
400.975	5.64
401.334	5.63
401.694	5.58
402.054	5.57
402.413	5.51
402.773	5.45
403.132	5.43
403.492	5.41
403.851	5.4
404.211	5.39
404.57	5.33
404.929	5.28
405.288	5.24
405.648	5.26
406.007	5.26
406.366	5.27
406.725	5.28
407.084	5.26
407.443	5.22
407.802	5.14
408.161	5.16
408.52	5.15
408.879	5.16
409.238	5.13
409.596	5.1
409.955	5.11
410.314	5.1
410.673	5.07
411.031	5.05
411.39	5.02
411.748	4.99
412.107	5
412.465	4.98
412.824	4.96
413.182	4.94
413.54	4.96
413.899	4.91
414.257	4.9
414.615	4.88
414.974	4.88
415.332	4.88
415.69	4.84
416.048	4.83
416.406	4.79
416.764	4.79
417.122	4.77
417.48	4.73
417.838	4.71
418.195	4.68
418.553	4.65
418.911	4.62
419.269	4.61
419.626	4.57
419.984	4.58
420.342	4.55
420.699	4.53
421.057	4.48
421.414	4.47
421.772	4.45
422.129	4.44
422.486	4.42
422.844	4.4
423.201	4.37
423.558	4.35
423.915	4.34
424.273	4.32
424.63	4.32
424.987	4.33
425.344	4.31
425.701	4.31
426.058	4.3
426.415	4.3
426.772	4.27
427.128	4.26
427.485	4.23
427.842	4.23
428.199	4.23
428.555	4.24
428.912	4.22
429.269	4.2
429.625	4.17
429.982	4.18
430.338	4.18
430.695	4.19
431.051	4.19
431.407	4.19
431.764	4.16
432.12	4.15
432.476	4.13
432.832	4.14
433.189	4.14
433.545	4.12
433.901	4.1
434.257	4.13
434.613	4.12
434.969	4.11
435.325	4.12
435.681	4.12
436.036	4.1
436.392	4.11
436.748	4.13
437.104	4.15
437.459	4.15
437.815	4.16
438.171	4.15
438.526	4.15
438.882	4.15
439.237	4.15
439.593	4.16
439.948	4.17
440.304	4.16
440.659	4.16
441.014	4.17
441.369	4.17
441.725	4.15
442.08	4.15
442.435	4.15
442.79	4.13
443.145	4.13
443.5	4.13
443.855	4.11
444.21	4.09
444.565	4.09
444.92	4.08
445.275	4.06
445.629	4.05
445.984	4.03
446.339	4.03
446.693	4.03
447.048	4.01
447.403	4
447.757	3.98
448.112	3.98
448.466	3.97
448.82	3.97
449.175	3.98
449.529	3.97
449.883	3.97
450.238	3.96
450.592	3.95
450.946	3.93
451.3	3.93
451.654	3.93
452.008	3.93
452.362	3.93
452.716	3.94
453.07	3.94
453.424	3.93
453.778	3.9
454.132	3.89
454.486	3.89
454.839	3.88
455.193	3.91
455.547	3.91
455.9	3.91
456.254	3.92
456.607	3.91
456.961	3.91
457.314	3.94
457.668	3.93
458.021	3.92
458.375	3.94
458.728	3.93
459.081	3.95
459.434	3.93
459.787	3.95
460.141	3.94
460.494	3.95
460.847	3.96
461.2	3.98
461.553	3.99
461.906	3.99
462.259	3.98
462.611	3.99
462.964	4
463.317	4
463.67	4
464.022	4.03
464.375	4.05
464.728	4.05
465.08	4.08
465.433	4.1
465.785	4.12
466.138	4.17
466.49	4.17
466.843	4.19
467.195	4.18
467.547	4.22
467.899	4.25
468.252	4.24
468.604	4.26
468.956	4.3
469.308	4.31
469.66	4.35
470.012	4.36
470.364	4.36
470.716	4.4
471.068	4.41
471.42	4.42
471.772	4.42
472.123	4.42
472.475	4.45
472.827	4.45
473.178	4.45
473.53	4.42
473.882	4.44
474.233	4.44
474.585	4.44
474.936	4.42
475.288	4.42
475.639	4.42
475.99	4.41
476.342	4.4
476.693	4.41
477.044	4.41
477.395	4.4
477.746	4.4
478.097	4.38
478.448	4.37
478.8	4.35
479.15	4.34
479.501	4.32
479.852	4.29
480.203	4.31
480.554	4.32
480.905	4.31
481.255	4.31
481.606	4.29
481.957	4.28
482.307	4.26
482.658	4.27
483.009	4.27
483.359	4.27
483.709	4.26
484.06	4.26
484.41	4.26
484.761	4.27
485.111	4.27
485.461	4.27
485.811	4.27
486.162	4.27
486.512	4.27
486.862	4.29
487.212	4.29
487.562	4.29
487.912	4.28
488.262	4.29
488.612	4.3
488.961	4.32
489.311	4.33
489.661	4.35
490.011	4.34
490.36	4.35
490.71	4.35
491.06	4.36
491.409	4.36
491.759	4.37
492.108	4.37
492.458	4.4
492.807	4.44
493.157	4.46
493.506	4.5
493.855	4.52
494.204	4.53
494.554	4.56
494.903	4.59
495.252	4.62
495.601	4.69
495.95	4.72
496.299	4.75
496.648	4.82
496.997	4.87
497.346	4.97
497.695	5.04
498.043	5.11
498.392	5.17
498.741	5.23
499.09	5.29
499.438	5.37
499.787	5.42
500.135	5.48
500.484	5.54
500.832	5.61
501.181	5.7
501.529	5.81
501.878	5.95
502.226	6.06
502.574	6.18
502.923	6.25
503.271	6.37
503.619	6.5
503.967	6.59
504.315	6.72
504.663	6.83
505.011	6.96
505.359	7.07
505.707	7.22
506.055	7.36
506.403	7.5
506.751	7.63
507.098	7.79
507.446	7.94
507.794	8.09
508.141	8.24
508.489	8.39
508.837	8.51
509.184	8.63
509.531	8.78
509.879	8.93
510.226	9.09
510.574	9.22
510.921	9.36
511.268	9.53
511.616	9.67
511.963	9.82
512.31	9.95
512.657	10.11
513.004	10.3
513.351	10.47
513.698	10.66
514.045	10.86
514.392	11.06
514.739	11.25
515.086	11.45
515.432	11.66
515.779	11.83
516.126	12.05
516.473	12.25
516.819	12.4
517.166	12.58
517.512	12.71
517.859	12.89
518.205	13.03
518.552	13.18
518.898	13.33
519.245	13.5
519.591	13.68
519.937	13.84
520.283	14.01
520.629	14.18
520.976	14.36
521.322	14.54
521.668	14.73
522.014	14.92
522.36	15.12
522.706	15.3
523.052	15.55
523.398	15.78
523.743	16
524.089	16.23
524.435	16.47
524.781	16.72
525.126	16.95
525.472	17.16
525.817	17.37
526.163	17.55
526.509	17.69
526.854	17.87
527.199	18.02
527.545	18.17
527.89	18.32
528.235	18.48
528.581	18.61
528.926	18.76
529.271	18.91
529.616	19.08
529.961	19.24
530.306	19.39
530.651	19.56
530.996	19.76
531.341	20
531.686	20.19
532.031	20.41
532.376	20.58
532.721	20.81
533.065	21.02
533.41	21.26
533.755	21.52
534.099	21.75
534.444	22.01
534.788	22.24
535.133	22.51
535.477	22.78
535.822	23.09
536.166	23.39
536.51	23.73
536.855	24.06
537.199	24.41
537.543	24.78
537.887	25.11
538.231	25.48
538.576	25.83
538.92	26.19
539.264	26.5
539.608	26.85
539.951	27.15
540.295	27.43
540.639	27.72
540.983	28.01
541.327	28.31
541.671	28.58
542.014	28.89
542.358	29.14
542.701	29.41
543.045	29.68
543.389	29.96
543.732	30.22
544.075	30.51
544.419	30.83
544.762	31.16
545.105	31.5
545.449	31.84
545.792	32.17
546.135	32.52
546.478	32.94
546.821	33.39
547.165	33.79
547.508	34.23
547.851	34.66
548.194	35.08
548.536	35.49
548.879	35.93
549.222	36.32
549.565	36.81
549.908	37.24
550.25	37.64
550.593	38.07
550.936	38.51
551.278	38.91
551.621	39.29
551.963	39.71
552.306	40.1
552.648	40.46
552.991	40.82
553.333	41.22
553.675	41.57
554.017	41.84
554.36	42.27
554.702	42.61
555.044	42.93
555.386	43.23
555.728	43.59
556.07	43.92
556.412	44.31
556.754	44.57
557.096	44.87
557.438	45.22
557.78	45.51
558.121	45.85
558.463	46.16
558.805	46.55
559.147	46.88
559.488	47.21
559.83	47.6
560.171	47.88
560.513	48.23
560.854	48.54
561.196	48.86
561.537	49.11
561.878	49.39
562.22	49.71
562.561	50.08
562.902	50.34
563.243	50.59
563.584	50.83
563.925	51.12
564.266	51.41
564.607	51.7
564.948	52.04
565.289	52.31
565.63	52.56
565.971	52.81
566.312	52.98
566.653	53.22
566.993	53.41
567.334	53.73
567.675	53.94
568.015	54.18
568.356	54.36
568.696	54.57
569.037	54.76
569.377	54.89
569.718	55.06
570.058	55.28
570.398	55.48
570.739	55.61
571.079	55.78
571.419	56.03
571.759	56.2
572.099	56.29
572.439	56.55
572.779	56.76
573.119	56.88
573.459	57
573.799	57.18
574.139	57.3
574.479	57.44
574.819	57.59
575.158	57.78
575.498	57.94
575.838	58.11
576.177	58.36
576.517	58.57
576.856	58.67
577.196	58.79
577.535	58.96
577.875	59.25
578.214	59.45
578.553	59.53
578.893	59.67
579.232	59.85
579.571	59.94
579.91	60.01
580.25	60.19
580.589	60.43
580.928	60.5
581.267	60.69
581.606	60.76
581.945	60.9
582.283	60.97
582.622	61.17
582.961	61.27
583.3	61.27
583.639	61.41
583.977	61.63
584.316	61.85
584.654	61.97
584.993	61.91
585.332	61.97
585.67	62.02
586.008	62.13
586.347	62.25
586.685	62.22
587.024	62.36
587.362	62.44
587.7	62.55
588.038	62.67
588.376	62.84
588.715	62.97
589.053	62.97
589.391	63.12
589.729	63.25
590.067	63.41
590.404	63.57
590.742	63.61
591.08	63.59
591.418	63.62
591.756	63.64
592.093	63.83
592.431	63.93
592.769	64
593.106	64.08
593.444	64.26
593.781	64.48
594.119	64.59
594.456	64.68
594.793	64.79
595.131	64.92
595.468	64.91
595.805	64.94
596.143	65.1
596.48	65.09
596.817	65.08
597.154	65.05
597.491	65.09
597.828	65.17
598.165	65.24
598.502	65.35
598.839	65.47
599.176	65.51
599.512	65.6
599.849	65.78
600.186	65.95
600.523	65.81
600.859	65.8
601.196	65.92
601.532	66.06
601.869	66.06
602.205	66.03
602.542	66.07
602.878	66.1
603.215	66.07
603.551	66.14
603.887	66.21
604.223	66.24
604.56	66.26
604.896	66.37
605.232	66.54
605.568	66.61
605.904	66.68
606.24	66.75
606.576	66.73
606.912	66.61
607.248	66.54
607.583	66.62
607.919	66.74
608.255	66.69
608.591	66.7
608.926	66.73
609.262	66.8
609.597	66.88
609.933	66.87
610.268	66.94
610.604	67
610.939	66.99
611.275	67.09
611.61	67.16
611.945	67.17
612.281	67.17
612.616	67.1
612.951	67.07
613.286	67.01
613.621	67.05
613.956	67.25
614.291	67.32
614.626	67.44
614.961	67.48
615.296	67.46
615.631	67.44
615.966	67.46
616.3	67.53
616.635	67.59
616.97	67.62
617.304	67.69
617.639	67.69
617.973	67.73
618.308	67.73
618.642	67.74
618.977	67.85
619.311	67.69
619.646	67.81
619.98	67.85
620.314	67.87
620.648	68.02
620.983	68.08
621.317	68.11
621.651	68.14
621.985	68.1
622.319	68.3
622.653	68.35
622.987	68.43
623.321	68.52
623.655	68.48
623.988	68.63
624.322	68.66
624.656	68.8
624.99	68.76
625.323	68.79
625.657	68.89
625.99	68.89
626.324	69.12
626.657	69.04
626.991	69.27
627.324	69.36
627.658	69.34
627.991	69.28
628.324	69.31
628.657	69.35
628.991	69.48
629.324	69.44
629.657	69.48
629.99	69.47
630.323	69.54
630.656	69.62
630.989	69.6
631.322	69.63
631.655	69.53
631.987	69.65
632.32	69.78
632.653	69.74
632.986	69.65
633.318	69.55
633.651	69.69
633.984	69.48
634.316	69.59
634.649	69.69
634.981	69.79
635.313	69.88
635.646	69.97
635.978	70.07
636.31	70.1
636.643	70.11
636.975	70.16
637.307	70.1
637.639	70.1
637.971	70.06
638.303	70.25
638.635	70.32
638.967	70.42
639.299	70.44
639.631	70.51
639.963	70.41
640.295	70.54
640.626	70.5
640.958	70.48
641.29	70.38
641.621	70.32
641.953	70.33
642.285	70.38
642.616	70.3
642.948	70.08
643.279	70.05
643.61	69.95
643.942	70.03
644.273	69.96
644.604	69.93
644.936	70.06
645.267	69.88
645.598	69.84
645.929	69.81
646.26	69.69
646.591	69.85
646.922	70.16
647.253	70.07
647.584	70.19
647.915	70.18
648.245	70.27
648.576	70.32
648.907	70.4
649.238	70.41
649.568	70.45
649.899	70.52
650.229	70.57
650.56	70.69
650.89	70.56
651.221	70.65
651.551	70.65
651.882	70.77
652.212	70.78
652.542	70.91
652.872	70.8
653.203	70.79
653.533	70.79
653.863	70.67
654.193	70.69
654.523	70.64
654.853	70.79
655.183	70.73
655.513	70.71
655.843	70.66
656.172	70.62
656.502	70.73
656.832	70.7
657.162	70.76
657.491	70.75
657.821	70.82
658.15	70.73
658.48	70.79
658.809	70.67
659.139	70.65
659.468	70.66
659.798	70.74
660.127	70.74
660.456	70.67
660.785	70.72
661.115	70.72
661.444	70.63
661.773	70.59
662.102	70.59
662.431	70.61
662.76	70.59
663.089	70.64
663.418	70.53
663.747	70.55
664.076	70.48
664.404	70.49
664.733	70.59
665.062	70.71
665.39	70.76
