Data from MVZ_BU78245_Reflection_00002.txt Node
Date: Tue Nov 19 12:01:01 EST 2019
User: vgr7
Spectrometer: USB2G7710
Scans to average: 3
Trigger mode: 4
Integration Time (sec): 2.000000E-2
Electric dark correction enabled: true
Boxcar width: 10
XAxis mode: Wavelengths
Number of Pixels in Spectrum: 2048
>>>>>Begin Spectral Data<<<<<
177.721	1198.48
178.105	581.48
178.488	-178.46
178.871	-1333.33
179.254	-120.83
179.636	0.31
180.019	-19.05
180.402	225
180.785	-45.83
181.168	-73.5
181.55	-590.48
181.933	-327.08
182.316	257.41
182.698	-325.93
183.081	-136.11
183.463	-99.13
183.846	-3.8
184.228	20.34
184.611	-23.52
184.993	3.33
185.376	11.46
185.758	24.5
186.14	-71.21
186.522	-31.78
186.904	-44.44
187.287	-73.38
187.669	-8.08
188.051	-8.63
188.433	-10.8
188.815	7.87
189.197	-14.24
189.579	-10.87
189.961	-21.6
190.342	-5.87
190.724	-39.62
191.106	-14.87
191.488	22.39
191.869	10.97
192.251	1.48
192.633	10.2
193.014	8.26
193.396	-0.11
193.777	-13.32
194.159	4.3
194.54	5
194.922	-3.78
195.303	-8.23
195.684	-40.56
196.065	-49.38
196.447	-37.1
196.828	-39.11
197.209	-18.67
197.59	-13.12
197.971	-11.25
198.352	-14.75
198.733	-5.18
199.114	-13.04
199.495	-24.91
199.876	-29.06
200.257	-33.17
200.638	-26.7
201.018	-25.51
201.399	-17.67
201.78	-3.59
202.16	3.38
202.541	-25.22
202.922	-19.61
203.302	-14.38
203.683	0.44
204.063	3.29
204.444	6.65
204.824	7.73
205.204	2.73
205.585	1.78
205.965	5.62
206.345	5.22
206.725	-14.8
207.106	-8.72
207.486	-3.03
207.866	-12.53
208.246	-2.43
208.626	-8.59
209.006	-34.32
209.386	-39.71
209.766	-59.75
210.145	-54.28
210.525	-41.03
210.905	-35.9
211.285	-42.21
211.664	-26.5
212.044	-27.67
212.424	-42.04
212.803	-66.22
213.183	-94.95
213.562	-101.06
213.942	-94.54
214.321	-104.14
214.701	-91.5
215.08	-96.47
215.459	-55.99
215.838	-71.59
216.218	-107.57
216.597	-71.45
216.976	-77.28
217.355	-74.33
217.734	-82.13
218.113	-89.69
218.492	-84.83
218.871	-88.89
219.25	-77.66
219.629	-106.71
220.008	-61.74
220.387	-32.59
220.766	5.53
221.144	20.59
221.523	13.02
221.902	-0.54
222.28	4.92
222.659	14.43
223.037	5.65
223.416	-21.53
223.794	-23.05
224.173	-25.37
224.551	-30.1
224.929	-23.44
225.308	-20.08
225.686	-7.89
226.064	-11.17
226.442	-11.05
226.821	-7.46
227.199	-7.83
227.577	-9.88
227.955	-11.2
228.333	-14.92
228.711	-15.81
229.089	-12.85
229.467	-13.54
229.845	-15.19
230.222	-9.92
230.6	-13.02
230.978	-9.88
231.356	-7.36
231.733	-3.55
232.111	-1.75
232.488	0.19
232.866	0.91
233.243	-0.06
233.621	-1.2
233.998	0.07
234.376	-1.1
234.753	-1.43
235.13	-1.39
235.508	-0.5
235.885	-1.6
236.262	-1.02
236.639	-0.27
237.016	-0.35
237.393	1.17
237.77	2.7
238.147	2.31
238.524	2.82
238.901	0.59
239.278	-0.32
239.655	-0.13
240.032	0.28
240.409	-0.08
240.785	-0.38
241.162	0.16
241.539	0.33
241.915	0.39
242.292	0.68
242.668	0.9
243.045	1.22
243.421	1.6
243.798	1.84
244.174	2.3
244.551	2.5
244.927	2.6
245.303	2.4
245.679	2.45
246.056	2.48
246.432	2.34
246.808	2.99
247.184	3.55
247.56	3.36
247.936	3.09
248.312	3.48
248.688	3.45
249.064	3.54
249.44	3.31
249.815	3.27
250.191	3.3
250.567	3.31
250.943	3.31
251.318	3.3
251.694	3.04
252.069	2.89
252.445	2.64
252.82	2.55
253.196	2.89
253.571	2.28
253.947	2.15
254.322	2.13
254.697	2.1
255.073	1.84
255.448	2.05
255.823	2.21
256.198	2.21
256.573	2.38
256.948	2.34
257.323	2.66
257.698	2.85
258.073	3
258.448	3.06
258.823	3.16
259.198	3.07
259.573	3.12
259.948	3.12
260.322	3.1
260.697	3.06
261.072	2.97
261.446	3.38
261.821	3.39
262.195	3.47
262.57	3.3
262.944	3.35
263.319	3.26
263.693	3.19
264.067	3.04
264.442	3.14
264.816	3.14
265.19	3.06
265.564	2.91
265.938	2.73
266.313	2.45
266.687	2.12
267.061	2.2
267.435	2.23
267.809	2.17
268.183	2.24
268.556	2.15
268.93	2.28
269.304	2.09
269.678	2.11
270.051	2.03
270.425	2.15
270.799	1.86
271.172	1.84
271.546	1.97
271.919	2.07
272.293	2.03
272.666	2.14
273.04	2.06
273.413	2.12
273.787	2.24
274.16	2.43
274.533	2.71
274.906	2.67
275.279	2.68
275.653	2.77
276.026	2.79
276.399	2.94
276.772	3.13
277.145	3.05
277.518	3.05
277.891	3.19
278.263	3.31
278.636	3.57
279.009	3.66
279.382	3.52
279.755	3.55
280.127	3.62
280.5	3.44
280.872	3.48
281.245	3.64
281.617	3.41
281.99	3.36
282.362	3.32
282.735	3.31
283.107	3.37
283.479	3.38
283.852	3.23
284.224	3.23
284.596	3
284.968	3.24
285.34	3.29
285.713	3.29
286.085	3.23
286.457	3.25
286.829	3.2
287.201	3.29
287.572	3.25
287.944	3.19
288.316	3.17
288.688	3.27
289.06	3
289.431	3.16
289.803	3.23
290.175	3.14
290.546	3.04
290.918	3.04
291.289	2.84
291.661	3.07
292.032	2.98
292.403	3.06
292.775	2.85
293.146	2.99
293.517	2.91
293.889	2.84
294.26	2.78
294.631	2.83
295.002	2.93
295.373	2.94
295.744	3.01
296.115	3.13
296.486	3.02
296.857	3.26
297.228	3.12
297.599	2.96
297.97	3.1
298.34	3.11
298.711	3.11
299.082	3.2
299.452	3.1
299.823	3.06
300.194	3.15
300.564	3.06
300.935	2.91
301.305	2.98
301.676	2.86
302.046	2.74
302.416	2.89
302.787	2.8
303.157	2.72
303.527	2.65
303.897	2.62
304.267	2.7
304.637	2.52
305.008	2.6
305.378	2.77
305.748	2.66
306.117	2.58
306.487	2.56
306.857	2.57
307.227	2.75
307.597	2.79
307.967	2.64
308.336	2.72
308.706	2.72
309.076	2.79
309.445	2.94
309.815	3.12
310.184	2.84
310.554	2.86
310.923	2.84
311.293	2.71
311.662	2.78
312.031	2.82
312.401	2.88
312.77	2.91
313.139	2.8
313.508	2.75
313.877	2.93
314.246	3.01
314.616	3.12
314.985	2.99
315.353	3.23
315.722	3.32
316.091	3.34
316.46	3.33
316.829	3.38
317.198	3.41
317.567	3.36
317.935	3.5
318.304	3.44
318.672	3.59
319.041	3.75
319.41	3.56
319.778	3.54
320.147	3.55
320.515	3.56
320.883	3.58
321.252	3.8
321.62	3.71
321.988	3.58
322.357	3.52
322.725	3.4
323.093	3.26
323.461	3.15
323.829	3.19
324.197	3.09
324.565	2.92
324.933	2.93
325.301	2.83
325.669	2.89
326.037	2.89
326.405	2.78
326.772	2.77
327.14	2.76
327.508	2.76
327.875	2.78
328.243	2.73
328.61	2.69
328.978	2.52
329.346	2.54
329.713	2.58
330.08	2.56
330.448	2.58
330.815	2.42
331.182	2.28
331.55	2.28
331.917	2.42
332.284	2.47
332.651	2.39
333.018	2.49
333.385	2.45
333.752	2.49
334.119	2.49
334.486	2.38
334.853	2.43
335.22	2.3
335.587	2.22
335.954	2.21
336.32	2.22
336.687	2.33
337.054	2.36
337.42	2.42
337.787	2.47
338.153	2.58
338.52	2.69
338.886	2.78
339.253	2.76
339.619	2.76
339.986	2.68
340.352	2.7
340.718	2.68
341.084	2.68
341.451	2.77
341.817	2.99
342.183	3.01
342.549	3.13
342.915	3.22
343.281	3.26
343.647	3.35
344.013	3.38
344.379	3.26
344.745	3.24
345.11	3.24
345.476	3.29
345.842	3.15
346.208	3.17
346.573	3.13
346.939	3.22
347.304	3.25
347.67	3.19
348.035	3.18
348.401	3.22
348.766	3.2
349.132	3.13
349.497	3.02
349.862	3.07
350.228	2.94
350.593	2.85
350.958	3.02
351.323	2.97
351.688	3.03
352.053	3.05
352.418	3.09
352.783	3.03
353.148	2.97
353.513	3.07
353.878	3.01
354.243	3.12
354.608	3.1
354.972	3.12
355.337	3.19
355.702	3.15
356.066	3.19
356.431	3.2
356.795	3.14
357.16	3.15
357.524	3.11
357.889	3.2
358.253	3.21
358.618	3.07
358.982	3.07
359.346	3.02
359.71	3.03
360.075	2.98
360.439	2.98
360.803	3
361.167	3.05
361.531	3.08
361.895	3.02
362.259	2.98
362.623	2.89
362.987	2.9
363.351	2.95
363.714	2.9
364.078	2.86
364.442	2.94
364.806	2.93
365.169	2.93
365.533	2.83
365.896	2.92
366.26	2.92
366.623	2.91
366.987	2.96
367.35	3
367.714	2.98
368.077	3.04
368.44	3.05
368.803	2.98
369.167	2.91
369.53	2.92
369.893	2.95
370.256	2.98
370.619	2.93
370.982	2.87
371.345	2.99
371.708	3.01
372.071	2.93
372.434	2.95
372.797	2.98
373.159	2.98
373.522	2.98
373.885	2.95
374.247	2.99
374.61	2.94
374.973	2.87
375.335	2.9
375.698	2.89
376.06	2.87
376.423	2.95
376.785	3
377.147	2.98
377.51	2.94
377.872	2.97
378.234	3.04
378.596	3.13
378.958	3.12
379.321	3.14
379.683	3.21
380.045	3.18
380.407	3.16
380.769	3.19
381.13	3.14
381.492	3.22
381.854	3.19
382.216	3.31
382.578	3.32
382.939	3.32
383.301	3.31
383.663	3.3
384.024	3.23
384.386	3.22
384.747	3.24
385.109	3.27
385.47	3.27
385.832	3.22
386.193	3.16
386.554	3.09
386.916	3.08
387.277	3.04
387.638	3.03
387.999	3.07
388.36	3.06
388.721	3.08
389.082	3.06
389.443	3.12
389.804	3.04
390.165	3.07
390.526	3.08
390.887	3.08
391.248	3.07
391.609	3.1
391.969	3.1
392.33	3.11
392.691	3.09
393.051	3.06
393.412	3.07
393.772	3.12
394.133	3.14
394.493	3.16
394.854	3.17
395.214	3.2
395.574	3.17
395.935	3.18
396.295	3.19
396.655	3.18
397.015	3.15
397.376	3.16
397.736	3.15
398.096	3.15
398.456	3.17
398.816	3.17
399.176	3.15
399.535	3.15
399.895	3.13
400.255	3.14
400.615	3.17
400.975	3.22
401.334	3.17
401.694	3.16
402.054	3.14
402.413	3.12
402.773	3.14
403.132	3.14
403.492	3.15
403.851	3.14
404.211	3.14
404.57	3.13
404.929	3.12
405.288	3.16
405.648	3.14
406.007	3.1
406.366	3.13
406.725	3.13
407.084	3.18
407.443	3.19
407.802	3.19
408.161	3.22
408.52	3.2
408.879	3.23
409.238	3.25
409.596	3.26
409.955	3.3
410.314	3.27
410.673	3.27
411.031	3.26
411.39	3.26
411.748	3.29
412.107	3.27
412.465	3.26
412.824	3.2
413.182	3.21
413.54	3.23
413.899	3.21
414.257	3.25
414.615	3.21
414.974	3.24
415.332	3.25
415.69	3.24
416.048	3.23
416.406	3.21
416.764	3.21
417.122	3.19
417.48	3.21
417.838	3.22
418.195	3.23
418.553	3.24
418.911	3.25
419.269	3.24
419.626	3.25
419.984	3.27
420.342	3.29
420.699	3.29
421.057	3.28
421.414	3.29
421.772	3.28
422.129	3.27
422.486	3.27
422.844	3.25
423.201	3.24
423.558	3.24
423.915	3.26
424.273	3.26
424.63	3.28
424.987	3.26
425.344	3.26
425.701	3.24
426.058	3.25
426.415	3.24
426.772	3.25
427.128	3.25
427.485	3.24
427.842	3.23
428.199	3.24
428.555	3.23
428.912	3.24
429.269	3.22
429.625	3.22
429.982	3.21
430.338	3.25
430.695	3.24
431.051	3.24
431.407	3.23
431.764	3.21
432.12	3.21
432.476	3.23
432.832	3.21
433.189	3.24
433.545	3.22
433.901	3.21
434.257	3.21
434.613	3.24
434.969	3.23
435.325	3.25
435.681	3.23
436.036	3.26
436.392	3.26
436.748	3.28
437.104	3.29
437.459	3.31
437.815	3.29
438.171	3.31
438.526	3.3
438.882	3.28
439.237	3.29
439.593	3.31
439.948	3.29
440.304	3.3
440.659	3.31
441.014	3.29
441.369	3.31
441.725	3.32
442.08	3.3
442.435	3.3
442.79	3.3
443.145	3.31
443.5	3.31
443.855	3.31
444.21	3.32
444.565	3.33
444.92	3.3
445.275	3.3
445.629	3.29
445.984	3.3
446.339	3.32
446.693	3.33
447.048	3.31
447.403	3.31
447.757	3.3
448.112	3.28
448.466	3.29
448.82	3.3
449.175	3.29
449.529	3.3
449.883	3.32
450.238	3.33
450.592	3.33
450.946	3.32
451.3	3.32
451.654	3.32
452.008	3.32
452.362	3.35
452.716	3.35
453.07	3.37
453.424	3.39
453.778	3.39
454.132	3.37
454.486	3.38
454.839	3.38
455.193	3.41
455.547	3.41
455.9	3.43
456.254	3.43
456.607	3.42
456.961	3.42
457.314	3.41
457.668	3.41
458.021	3.4
458.375	3.39
458.728	3.39
459.081	3.38
459.434	3.36
459.787	3.37
460.141	3.38
460.494	3.38
460.847	3.39
461.2	3.39
461.553	3.4
461.906	3.4
462.259	3.41
462.611	3.4
462.964	3.41
463.317	3.42
463.67	3.42
464.022	3.41
464.375	3.4
464.728	3.39
465.08	3.39
465.433	3.39
465.785	3.42
466.138	3.4
466.49	3.43
466.843	3.45
467.195	3.42
467.547	3.41
467.899	3.41
468.252	3.38
468.604	3.36
468.956	3.39
469.308	3.39
469.66	3.4
470.012	3.37
470.364	3.37
470.716	3.38
471.068	3.37
471.42	3.38
471.772	3.37
472.123	3.39
472.475	3.41
472.827	3.42
473.178	3.42
473.53	3.42
473.882	3.4
474.233	3.4
474.585	3.39
474.936	3.38
475.288	3.38
475.639	3.39
475.99	3.38
476.342	3.39
476.693	3.39
477.044	3.38
477.395	3.4
477.746	3.4
478.097	3.38
478.448	3.39
478.8	3.4
479.15	3.4
479.501	3.42
479.852	3.41
480.203	3.42
480.554	3.42
480.905	3.43
481.255	3.44
481.606	3.45
481.957	3.45
482.307	3.45
482.658	3.47
483.009	3.48
483.359	3.49
483.709	3.49
484.06	3.49
484.41	3.51
484.761	3.51
485.111	3.51
485.461	3.51
485.811	3.5
486.162	3.5
486.512	3.51
486.862	3.5
487.212	3.51
487.562	3.5
487.912	3.5
488.262	3.51
488.612	3.5
488.961	3.5
489.311	3.5
489.661	3.5
490.011	3.49
490.36	3.48
490.71	3.47
491.06	3.47
491.409	3.46
491.759	3.46
492.108	3.44
492.458	3.45
492.807	3.46
493.157	3.47
493.506	3.48
493.855	3.47
494.204	3.46
494.554	3.48
494.903	3.48
495.252	3.49
495.601	3.5
495.95	3.52
496.299	3.52
496.648	3.55
496.997	3.53
497.346	3.54
497.695	3.55
498.043	3.58
498.392	3.58
498.741	3.59
499.09	3.6
499.438	3.64
499.787	3.62
500.135	3.61
500.484	3.61
500.832	3.62
501.181	3.64
501.529	3.66
501.878	3.67
502.226	3.66
502.574	3.67
502.923	3.65
503.271	3.63
503.619	3.63
503.967	3.61
504.315	3.63
504.663	3.63
505.011	3.63
505.359	3.6
505.707	3.59
506.055	3.58
506.403	3.58
506.751	3.56
507.098	3.6
507.446	3.61
507.794	3.62
508.141	3.61
508.489	3.62
508.837	3.6
509.184	3.57
509.531	3.6
509.879	3.59
510.226	3.59
510.574	3.6
510.921	3.61
511.268	3.61
511.616	3.62
511.963	3.64
512.31	3.64
512.657	3.67
513.004	3.67
513.351	3.67
513.698	3.68
514.045	3.67
514.392	3.66
514.739	3.66
515.086	3.66
515.432	3.67
515.779	3.67
516.126	3.7
516.473	3.7
516.819	3.67
517.166	3.66
517.512	3.67
517.859	3.68
518.205	3.68
518.552	3.69
518.898	3.69
519.245	3.69
519.591	3.71
519.937	3.69
520.283	3.68
520.629	3.66
520.976	3.64
521.322	3.65
521.668	3.65
522.014	3.64
522.36	3.63
522.706	3.64
523.052	3.65
523.398	3.62
523.743	3.63
524.089	3.66
524.435	3.68
524.781	3.68
525.126	3.69
525.472	3.7
525.817	3.69
526.163	3.69
526.509	3.69
526.854	3.69
527.199	3.7
527.545	3.73
527.89	3.73
528.235	3.74
528.581	3.74
528.926	3.74
529.271	3.74
529.616	3.74
529.961	3.73
530.306	3.73
530.651	3.74
530.996	3.76
531.341	3.75
531.686	3.75
532.031	3.76
532.376	3.75
532.721	3.74
533.065	3.76
533.41	3.75
533.755	3.76
534.099	3.76
534.444	3.76
534.788	3.76
535.133	3.77
535.477	3.77
535.822	3.78
536.166	3.79
536.51	3.82
536.855	3.82
537.199	3.81
537.543	3.82
537.887	3.82
538.231	3.82
538.576	3.8
538.92	3.82
539.264	3.82
539.608	3.83
539.951	3.84
540.295	3.84
540.639	3.84
540.983	3.83
541.327	3.84
541.671	3.84
542.014	3.85
542.358	3.86
542.701	3.89
543.045	3.88
543.389	3.89
543.732	3.87
544.075	3.9
544.419	3.91
544.762	3.89
545.105	3.91
545.449	3.9
545.792	3.92
546.135	3.91
546.478	3.92
546.821	3.92
547.165	3.91
547.508	3.91
547.851	3.91
548.194	3.89
548.536	3.87
548.879	3.86
549.222	3.83
549.565	3.83
549.908	3.77
550.25	3.77
550.593	3.75
550.936	3.75
551.278	3.71
551.621	3.7
551.963	3.72
552.306	3.72
552.648	3.73
552.991	3.71
553.333	3.7
553.675	3.7
554.017	3.71
554.36	3.73
554.702	3.76
555.044	3.77
555.386	3.81
555.728	3.81
556.07	3.8
556.412	3.84
556.754	3.79
557.096	3.82
557.438	3.83
557.78	3.86
558.121	3.91
558.463	3.95
558.805	3.98
559.147	3.97
559.488	3.94
559.83	3.96
560.171	3.95
560.513	3.98
560.854	3.99
561.196	4
561.537	3.99
561.878	3.98
562.22	3.99
562.561	4
562.902	4.03
563.243	4.05
563.584	4.04
563.925	4.04
564.266	4.05
564.607	4.04
564.948	4.02
565.289	3.99
565.63	3.97
565.971	3.98
566.312	3.96
566.653	3.98
566.993	3.94
567.334	3.97
567.675	3.97
568.015	3.95
568.356	3.93
568.696	3.93
569.037	3.91
569.377	3.89
569.718	3.88
570.058	3.86
570.398	3.88
570.739	3.87
571.079	3.9
571.419	3.87
571.759	3.85
572.099	3.84
572.439	3.84
572.779	3.85
573.119	3.84
573.459	3.86
573.799	3.87
574.139	3.88
574.479	3.87
574.819	3.85
575.158	3.85
575.498	3.86
575.838	3.86
576.177	3.85
576.517	3.87
576.856	3.87
577.196	3.88
577.535	3.87
577.875	3.85
578.214	3.87
578.553	3.89
578.893	3.93
579.232	3.93
579.571	3.96
579.91	3.96
580.25	3.95
580.589	3.91
580.928	3.88
581.267	3.88
581.606	3.89
581.945	3.86
582.283	3.86
582.622	3.9
582.961	3.91
583.3	3.92
583.639	3.93
583.977	3.95
584.316	3.92
584.654	3.87
584.993	3.89
585.332	3.89
585.67	3.89
586.008	3.89
586.347	3.91
586.685	3.85
587.024	3.86
587.362	3.88
587.7	3.95
588.038	4
588.376	4.02
588.715	4
589.053	4.02
589.391	4.06
589.729	4.04
590.067	4.01
590.404	4.05
590.742	4.02
591.08	4.03
591.418	4.03
591.756	4.07
592.093	4.07
592.431	4.03
592.769	4.01
593.106	3.99
593.444	3.99
593.781	4.01
594.119	4.01
594.456	4
594.793	3.95
595.131	3.93
595.468	3.95
595.805	3.98
596.143	4
596.48	3.98
596.817	3.96
597.154	3.98
597.491	3.98
597.828	3.99
598.165	3.94
598.502	3.93
598.839	3.9
599.176	3.89
599.512	3.87
599.849	3.89
600.186	3.89
600.523	3.94
600.859	3.96
601.196	3.96
601.532	3.95
601.869	3.99
602.205	3.98
602.542	3.97
602.878	3.94
603.215	3.91
603.551	3.91
603.887	3.95
604.223	3.96
604.56	3.95
604.896	3.98
605.232	4.01
605.568	4.03
605.904	4.02
606.24	4.04
606.576	4.05
606.912	4.05
607.248	4.08
607.583	4.07
607.919	4.06
608.255	4.05
608.591	4.06
608.926	4
609.262	3.99
609.597	3.96
609.933	3.99
610.268	4.03
610.604	4.01
610.939	4
611.275	4
611.61	4
611.945	3.96
612.281	3.94
612.616	3.96
612.951	4.02
613.286	4
613.621	3.98
613.956	3.99
614.291	3.94
614.626	3.9
614.961	3.89
615.296	3.9
615.631	3.89
615.966	3.95
616.3	4.04
616.635	4.05
616.97	3.98
617.304	3.97
617.639	4
617.973	3.94
618.308	3.96
618.642	3.93
618.977	3.95
619.311	3.97
619.646	3.95
619.98	3.96
620.314	3.94
620.648	4
620.983	3.99
621.317	4
621.651	4.05
621.985	4.07
622.319	4.1
622.653	4.11
622.987	4.15
623.321	4.11
623.655	4.13
623.988	4.21
624.322	4.24
624.656	4.24
624.99	4.32
625.323	4.27
625.657	4.34
625.99	4.33
626.324	4.32
626.657	4.32
626.991	4.3
627.324	4.28
627.658	4.24
627.991	4.27
628.324	4.27
628.657	4.22
628.991	4.26
629.324	4.25
629.657	4.28
629.99	4.26
630.323	4.22
630.656	4.2
630.989	4.17
631.322	4.11
631.655	4.1
631.987	4.02
632.32	4.05
632.653	3.95
632.986	3.96
633.318	3.93
633.651	3.96
633.984	3.93
634.316	3.99
634.649	4
634.981	4
635.313	4.05
635.646	4.02
635.978	3.99
636.31	3.99
636.643	3.94
636.975	3.97
637.307	3.97
637.639	4
637.971	4.01
638.303	4.03
638.635	4.06
638.967	4.07
639.299	4.06
639.631	4.07
639.963	4.16
640.295	4.2
640.626	4.14
640.958	4.21
641.29	4.24
641.621	4.22
641.953	4.21
642.285	4.17
642.616	4.23
642.948	4.21
643.279	4.07
643.61	4.09
643.942	4.09
644.273	4.17
644.604	4.15
644.936	4.17
645.267	4.26
645.598	4.2
645.929	4.23
646.26	4.23
646.591	4.34
646.922	4.26
647.253	4.22
647.584	4.29
647.915	4.25
648.245	4.19
648.576	4.23
648.907	4.18
649.238	4.21
649.568	4.22
649.899	4.25
650.229	4.38
650.56	4.41
650.89	4.4
651.221	4.37
651.551	4.37
651.882	4.38
652.212	4.32
652.542	4.45
652.872	4.48
653.203	4.57
653.533	4.58
653.863	4.6
654.193	4.61
654.523	4.54
654.853	4.63
655.183	4.64
655.513	4.74
655.843	4.84
656.172	4.81
656.502	4.79
656.832	4.75
657.162	4.73
657.491	4.77
657.821	4.76
658.15	4.75
658.48	4.78
658.809	4.73
659.139	4.73
659.468	4.66
659.798	4.67
660.127	4.57
660.456	4.49
660.785	4.48
661.115	4.53
661.444	4.57
661.773	4.5
662.102	4.5
662.431	4.49
662.76	4.48
663.089	4.49
663.418	4.45
663.747	4.5
664.076	4.46
664.404	4.49
664.733	4.57
665.062	4.61
665.39	4.54
665.719	4.59
666.048	4.65
666.376	4.69
666.705	4.61
667.033	4.64
667.362	4.7
667.69	4.68
668.018	4.72
668.347	4.74
668.675	4.75
669.003	4.69
669.331	4.62
669.659	4.5
669.987	4.5
670.315	4.55
670.643	4.52
670.971	4.59
671.299	4.49
671.627	4.45
671.955	4.29
672.283	4.34
672.61	4.28
672.938	4.28
673.266	4.21
673.593	4.23
673.921	4.2
674.249	4.14
674.576	4.16
674.904	4.15
675.231	4.11
675.558	4.15
675.886	4.24
676.213	4.26
676.54	4.23
676.867	4.24
677.195	4.23
677.522	4.22
677.849	4.23
678.176	4.22
678.503	4.17
678.83	4.3
679.157	4.28
