Data from MVZ_BU163024_Reflection_00003.txt Node
Date: Tue Nov 19 12:11:21 EST 2019
User: vgr7
Spectrometer: USB2G7710
Scans to average: 3
Trigger mode: 4
Integration Time (sec): 2.000000E-2
Electric dark correction enabled: true
Boxcar width: 10
XAxis mode: Wavelengths
Number of Pixels in Spectrum: 2048
>>>>>Begin Spectral Data<<<<<
177.721	-650.92
178.105	-88.6
178.488	-61.5
178.871	-68.82
179.254	-287.88
179.636	438.54
180.019	146.95
180.402	246.15
180.785	63.81
181.168	71.75
181.55	40.53
181.933	39.39
182.316	9.85
182.698	-11.97
183.081	-9.87
183.463	12.51
183.846	18.31
184.228	7.18
184.611	14.37
184.993	-6.67
185.376	-38.98
185.758	-59.88
186.14	4.09
186.522	-0.14
186.904	-3.4
187.287	-36.7
187.669	-14.47
188.051	19.47
188.433	44.88
188.815	61.32
189.197	48.87
189.579	107.97
189.961	117.35
190.342	112.88
190.724	126.77
191.106	170.81
191.488	130.72
191.869	82.04
192.251	120.26
192.633	187.09
193.014	240.06
193.396	230.9
193.777	195.24
194.159	125.92
194.54	159.78
194.922	153.79
195.303	364.65
195.684	1847.13
196.065	-536.7
196.447	-417.62
196.828	-479.29
197.209	-250.08
197.59	-149.68
197.971	-133.69
198.352	-107.93
198.733	-95
199.114	-133
199.495	-127.22
199.876	-108.21
200.257	-308.98
200.638	-309.79
201.018	-268.73
201.399	-55.32
201.78	-28.54
202.16	-4.96
202.541	-20.5
202.922	-43.35
203.302	-82.07
203.683	606.67
204.063	384.85
204.444	89.9
204.824	4.76
205.204	180.46
205.585	480.95
205.965	-8.53
206.345	512.7
206.725	-65.45
207.106	1.85
207.486	-3.03
207.866	-21.03
208.246	-23.53
208.626	-49.2
209.006	-50.19
209.386	-61.67
209.766	-90.68
210.145	-81.34
210.525	-77.99
210.905	-55.32
211.285	-28.53
211.664	-14.55
212.044	-11.58
212.424	-18.03
212.803	-20.95
213.183	-27.99
213.562	-16.58
213.942	-18.98
214.321	-7.56
214.701	1.47
215.08	-1.89
215.459	11.2
215.838	13.65
216.218	16.24
216.597	11.51
216.976	0.38
217.355	2.39
217.734	-2.81
218.113	10.34
218.492	7.57
218.871	7.16
219.25	-5.55
219.629	-33.75
220.008	-40.72
220.387	-35.92
220.766	-31.51
221.144	-25.35
221.523	-27.16
221.902	-6.39
222.28	-11.39
222.659	-0.6
223.037	-5.63
223.416	-9.7
223.794	-5.3
224.173	-7.36
224.551	6.75
224.929	7.36
225.308	-1.19
225.686	5.2
226.064	-0.94
226.442	2.17
226.821	5.38
227.199	2.59
227.577	7.44
227.955	9.83
228.333	3.41
228.711	2.74
229.089	3.13
229.467	-0.91
229.845	-5.92
230.222	-5.79
230.6	-12.29
230.978	-12.88
231.356	-12.5
231.733	-10.65
232.111	-7.59
232.488	-8.84
232.866	-6.77
233.243	-5.4
233.621	-4.64
233.998	-5.39
234.376	-5.33
234.753	-7.31
235.13	-5.61
235.508	-6.07
235.885	-4.03
236.262	-2.29
236.639	-2.21
237.016	-2.68
237.393	-0.16
237.77	1.42
238.147	2.01
238.524	3.11
238.901	3.74
239.278	3.42
239.655	3.65
240.032	3.36
240.409	2.69
240.785	2.44
241.162	2.67
241.539	3.08
241.915	3.1
242.292	3.11
242.668	3.25
243.045	3.31
243.421	2.99
243.798	2.8
244.174	2.72
244.551	3.12
244.927	3.22
245.303	3.18
245.679	2.94
246.056	2.8
246.432	2.75
246.808	2.81
247.184	2.76
247.56	2.45
247.936	2.44
248.312	2.69
248.688	2.66
249.064	2.59
249.44	2.43
249.815	2.57
250.191	2.76
250.567	2.65
250.943	2.36
251.318	2.36
251.694	2.24
252.069	2.32
252.445	2.33
252.82	2.49
253.196	2.32
253.571	2.34
253.947	2.24
254.322	1.86
254.697	1.69
255.073	1.91
255.448	2.02
255.823	2.21
256.198	2.24
256.573	2.31
256.948	2.4
257.323	2.53
257.698	2.49
258.073	2.51
258.448	2.67
258.823	2.83
259.198	3.07
259.573	3.06
259.948	3.09
260.322	2.78
260.697	2.64
261.072	2.66
261.446	2.56
261.821	2.62
262.195	2.55
262.57	2.53
262.944	2.46
263.319	2.5
263.693	2.4
264.067	2.24
264.442	2.22
264.816	2.18
265.19	2.01
265.564	1.79
265.938	1.49
266.313	1.38
266.687	1.3
267.061	1.14
267.435	1.27
267.809	1.24
268.183	1.44
268.556	1.53
268.93	1.78
269.304	1.79
269.678	1.85
270.051	2.16
270.425	2.31
270.799	2.36
271.172	2.46
271.546	2.5
271.919	2.6
272.293	2.71
272.666	2.6
273.04	2.6
273.413	2.63
273.787	2.68
274.16	2.8
274.533	2.92
274.906	2.86
275.279	2.75
275.653	2.91
276.026	2.89
276.399	2.94
276.772	2.84
277.145	2.91
277.518	2.63
277.891	2.58
278.263	2.86
278.636	2.88
279.009	2.85
279.382	2.8
279.755	2.66
280.127	2.47
280.5	2.67
280.872	2.77
281.245	2.95
281.617	2.94
281.99	3.07
282.362	3.1
282.735	3.18
283.107	3.16
283.479	2.97
283.852	2.87
284.224	2.88
284.596	2.64
284.968	2.58
285.34	2.8
285.713	2.81
286.085	2.52
286.457	2.49
286.829	2.46
287.201	2.5
287.572	2.67
287.944	2.64
288.316	2.54
288.688	2.62
289.06	2.58
289.431	2.79
289.803	2.65
290.175	2.65
290.546	2.55
290.918	2.59
291.289	2.58
291.661	2.63
292.032	2.59
292.403	2.67
292.775	2.73
293.146	2.69
293.517	2.63
293.889	2.7
294.26	2.73
294.631	2.86
295.002	2.85
295.373	2.79
295.744	2.92
296.115	3.03
296.486	2.93
296.857	2.96
297.228	2.78
297.599	2.79
297.97	2.69
298.34	2.95
298.711	2.94
299.082	2.94
299.452	2.95
299.823	2.89
300.194	2.97
300.564	2.97
300.935	3.06
301.305	3.04
301.676	2.91
302.046	2.91
302.416	2.7
302.787	2.75
303.157	2.72
303.527	2.73
303.897	2.71
304.267	2.6
304.637	2.5
305.008	2.5
305.378	2.51
305.748	2.63
306.117	2.44
306.487	2.36
306.857	2.45
307.227	2.72
307.597	2.7
307.967	2.8
308.336	2.77
308.706	2.79
309.076	2.9
309.445	3.11
309.815	3.03
310.184	3.12
310.554	3.13
310.923	3.08
311.293	3.01
311.662	3.02
312.031	3.07
312.401	3.11
312.77	3.11
313.139	3.01
313.508	2.9
313.877	2.92
314.246	2.94
314.616	3.12
314.985	2.95
315.353	3.17
315.722	3.03
316.091	3.08
316.46	3.1
316.829	3.07
317.198	2.98
317.567	3.24
317.935	3.17
318.304	3.38
318.672	3.38
319.041	3.45
319.41	3.4
319.778	3.44
320.147	3.44
320.515	3.55
320.883	3.54
321.252	3.59
321.62	3.49
321.988	3.67
322.357	3.37
322.725	3.29
323.093	3.03
323.461	3.09
323.829	3.06
324.197	3.1
324.565	3.1
324.933	3.02
325.301	2.84
325.669	2.81
326.037	2.65
326.405	2.7
326.772	2.68
327.14	2.66
327.508	2.59
327.875	2.69
328.243	2.65
328.61	2.59
328.978	2.52
329.346	2.59
329.713	2.53
330.08	2.64
330.448	2.62
330.815	2.75
331.182	2.73
331.55	2.74
331.917	2.62
332.284	2.74
332.651	2.76
333.018	2.76
333.385	2.88
333.752	2.8
334.119	2.8
334.486	2.8
334.853	2.91
335.22	2.95
335.587	2.86
335.954	2.81
336.32	2.84
336.687	3.04
337.054	2.97
337.42	3.1
337.787	2.99
338.153	3.11
338.52	3.08
338.886	3.11
339.253	3.09
339.619	3.13
339.986	2.94
340.352	2.92
340.718	3
341.084	2.98
341.451	3.11
341.817	3.09
342.183	3.15
342.549	3.21
342.915	3.23
343.281	3.32
343.647	3.42
344.013	3.51
344.379	3.28
344.745	3.35
345.11	3.21
345.476	3.3
345.842	3.23
346.208	3.16
346.573	3.18
346.939	3.23
347.304	3.21
347.67	3.21
348.035	3.31
348.401	3.32
348.766	3.15
349.132	3.13
349.497	3.11
349.862	3.16
350.228	3.04
350.593	3.06
350.958	3.09
351.323	3.03
351.688	3.01
352.053	3.13
352.418	3.13
352.783	3.16
353.148	3.17
353.513	3.14
353.878	3.24
354.243	3.15
354.608	3.08
354.972	3.01
355.337	3.07
355.702	3.05
356.066	3.06
356.431	3.23
356.795	3.2
357.16	3.22
357.524	3.17
357.889	3.13
358.253	3.13
358.618	3.03
358.982	3.09
359.346	3.08
359.71	3.07
360.075	3.08
360.439	3.13
360.803	3.09
361.167	3.15
361.531	3.13
361.895	3.13
362.259	3.17
362.623	3.16
362.987	3.11
363.351	3.08
363.714	3.12
364.078	3.1
364.442	3.08
364.806	3.1
365.169	3.08
365.533	3.03
365.896	3.05
366.26	3.03
366.623	2.96
366.987	3
367.35	3.08
367.714	3.07
368.077	3.05
368.44	3.12
368.803	3.04
369.167	3.03
369.53	3.15
369.893	3.18
370.256	3.21
370.619	3.27
370.982	3.28
371.345	3.2
371.708	3.18
372.071	3.18
372.434	3.23
372.797	3.26
373.159	3.34
373.522	3.35
373.885	3.37
374.247	3.38
374.61	3.39
374.973	3.36
375.335	3.45
375.698	3.41
376.06	3.4
376.423	3.46
376.785	3.51
377.147	3.49
377.51	3.49
377.872	3.51
378.234	3.51
378.596	3.55
378.958	3.58
379.321	3.57
379.683	3.66
380.045	3.63
380.407	3.6
380.769	3.61
381.13	3.55
381.492	3.54
381.854	3.54
382.216	3.53
382.578	3.51
382.939	3.42
383.301	3.41
383.663	3.37
384.024	3.35
384.386	3.31
384.747	3.28
385.109	3.25
385.47	3.24
385.832	3.24
386.193	3.18
386.554	3.13
386.916	3.15
387.277	3.05
387.638	3.03
387.999	3.04
388.36	3.05
388.721	3.09
389.082	3.15
389.443	3.17
389.804	3.11
390.165	3.1
390.526	3.12
390.887	3.13
391.248	3.14
391.609	3.17
391.969	3.15
392.33	3.13
392.691	3.13
393.051	3.13
393.412	3.14
393.772	3.21
394.133	3.25
394.493	3.22
394.854	3.29
395.214	3.31
395.574	3.29
395.935	3.26
396.295	3.28
396.655	3.19
397.015	3.21
397.376	3.21
397.736	3.24
398.096	3.26
398.456	3.23
398.816	3.22
399.176	3.15
399.535	3.17
399.895	3.18
400.255	3.2
400.615	3.19
400.975	3.2
401.334	3.17
401.694	3.17
402.054	3.17
402.413	3.11
402.773	3.08
403.132	3.09
403.492	3.13
403.851	3.1
404.211	3.14
404.57	3.13
404.929	3.16
405.288	3.15
405.648	3.14
406.007	3.19
406.366	3.19
406.725	3.22
407.084	3.2
407.443	3.2
407.802	3.18
408.161	3.21
408.52	3.19
408.879	3.19
409.238	3.22
409.596	3.2
409.955	3.23
410.314	3.25
410.673	3.26
411.031	3.23
411.39	3.24
411.748	3.25
412.107	3.25
412.465	3.24
412.824	3.21
413.182	3.2
413.54	3.2
413.899	3.18
414.257	3.21
414.615	3.21
414.974	3.21
415.332	3.22
415.69	3.19
416.048	3.2
416.406	3.18
416.764	3.18
417.122	3.18
417.48	3.17
417.838	3.18
418.195	3.18
418.553	3.19
418.911	3.17
419.269	3.18
419.626	3.16
419.984	3.17
420.342	3.18
420.699	3.2
421.057	3.19
421.414	3.2
421.772	3.19
422.129	3.19
422.486	3.18
422.844	3.18
423.201	3.18
423.558	3.18
423.915	3.18
424.273	3.16
424.63	3.18
424.987	3.19
425.344	3.19
425.701	3.21
426.058	3.21
426.415	3.22
426.772	3.2
427.128	3.22
427.485	3.23
427.842	3.22
428.199	3.21
428.555	3.21
428.912	3.22
429.269	3.24
429.625	3.25
429.982	3.26
430.338	3.26
430.695	3.26
431.051	3.26
431.407	3.28
431.764	3.28
432.12	3.28
432.476	3.29
432.832	3.26
433.189	3.23
433.545	3.24
433.901	3.25
434.257	3.24
434.613	3.23
434.969	3.21
435.325	3.22
435.681	3.21
436.036	3.22
436.392	3.21
436.748	3.19
437.104	3.19
437.459	3.19
437.815	3.22
438.171	3.23
438.526	3.23
438.882	3.23
439.237	3.23
439.593	3.25
439.948	3.23
440.304	3.24
440.659	3.24
441.014	3.24
441.369	3.25
441.725	3.26
442.08	3.26
442.435	3.27
442.79	3.26
443.145	3.26
443.5	3.24
443.855	3.24
444.21	3.22
444.565	3.23
444.92	3.23
445.275	3.21
445.629	3.2
445.984	3.19
446.339	3.19
446.693	3.18
447.048	3.16
447.403	3.15
447.757	3.13
448.112	3.16
448.466	3.14
448.82	3.13
449.175	3.12
449.529	3.15
449.883	3.14
450.238	3.15
450.592	3.16
450.946	3.17
451.3	3.18
451.654	3.18
452.008	3.17
452.362	3.18
452.716	3.18
453.07	3.19
453.424	3.18
453.778	3.19
454.132	3.17
454.486	3.17
454.839	3.19
455.193	3.23
455.547	3.2
455.9	3.2
456.254	3.19
456.607	3.22
456.961	3.22
457.314	3.22
457.668	3.22
458.021	3.2
458.375	3.19
458.728	3.21
459.081	3.22
459.434	3.23
459.787	3.22
460.141	3.22
460.494	3.22
460.847	3.22
461.2	3.21
461.553	3.24
461.906	3.25
462.259	3.23
462.611	3.21
462.964	3.24
463.317	3.24
463.67	3.26
464.022	3.23
464.375	3.2
464.728	3.2
465.08	3.2
465.433	3.21
465.785	3.24
466.138	3.22
466.49	3.24
466.843	3.23
467.195	3.24
467.547	3.24
467.899	3.24
468.252	3.25
468.604	3.27
468.956	3.27
469.308	3.27
469.66	3.3
470.012	3.3
470.364	3.3
470.716	3.32
471.068	3.32
471.42	3.34
471.772	3.33
472.123	3.34
472.475	3.36
472.827	3.35
473.178	3.34
473.53	3.35
473.882	3.34
474.233	3.35
474.585	3.35
474.936	3.38
475.288	3.38
475.639	3.39
475.99	3.36
476.342	3.38
476.693	3.37
477.044	3.35
477.395	3.36
477.746	3.34
478.097	3.35
478.448	3.34
478.8	3.32
479.15	3.33
479.501	3.31
479.852	3.3
480.203	3.33
480.554	3.33
480.905	3.33
481.255	3.33
481.606	3.35
481.957	3.34
482.307	3.33
482.658	3.33
483.009	3.34
483.359	3.35
483.709	3.34
484.06	3.35
484.41	3.36
484.761	3.37
485.111	3.38
485.461	3.37
485.811	3.38
486.162	3.39
486.512	3.4
486.862	3.41
487.212	3.41
487.562	3.4
487.912	3.41
488.262	3.4
488.612	3.39
488.961	3.39
489.311	3.4
489.661	3.4
490.011	3.4
490.36	3.39
490.71	3.39
491.06	3.4
491.409	3.39
491.759	3.39
492.108	3.39
492.458	3.4
492.807	3.39
493.157	3.4
493.506	3.39
493.855	3.38
494.204	3.39
494.554	3.39
494.903	3.4
495.252	3.4
495.601	3.41
495.95	3.43
496.299	3.42
496.648	3.43
496.997	3.45
497.346	3.45
497.695	3.48
498.043	3.5
498.392	3.49
498.741	3.52
499.09	3.52
499.438	3.53
499.787	3.52
500.135	3.52
500.484	3.51
500.832	3.51
501.181	3.55
501.529	3.56
501.878	3.56
502.226	3.56
502.574	3.58
502.923	3.58
503.271	3.59
503.619	3.6
503.967	3.6
504.315	3.61
504.663	3.63
505.011	3.61
505.359	3.6
505.707	3.61
506.055	3.58
506.403	3.59
506.751	3.59
507.098	3.61
507.446	3.63
507.794	3.64
508.141	3.66
508.489	3.68
508.837	3.69
509.184	3.7
509.531	3.7
509.879	3.68
510.226	3.71
510.574	3.71
510.921	3.71
511.268	3.72
511.616	3.72
511.963	3.72
512.31	3.74
512.657	3.76
513.004	3.75
513.351	3.77
513.698	3.77
514.045	3.79
514.392	3.79
514.739	3.81
515.086	3.84
515.432	3.85
515.779	3.85
516.126	3.87
516.473	3.88
516.819	3.89
517.166	3.92
517.512	3.92
517.859	3.94
518.205	3.92
518.552	3.92
518.898	3.93
519.245	3.92
519.591	3.91
519.937	3.91
520.283	3.92
520.629	3.93
520.976	3.92
521.322	3.94
521.668	3.93
522.014	3.93
522.36	3.94
522.706	3.92
523.052	3.9
523.398	3.89
523.743	3.89
524.089	3.89
524.435	3.87
524.781	3.88
525.126	3.88
525.472	3.9
525.817	3.9
526.163	3.91
526.509	3.92
526.854	3.94
527.199	3.96
527.545	3.97
527.89	3.98
528.235	3.99
528.581	3.98
528.926	3.98
529.271	3.98
529.616	3.98
529.961	3.99
530.306	4
530.651	4
530.996	4.01
531.341	4.03
531.686	4.04
532.031	4.05
532.376	4.05
532.721	4.05
533.065	4.06
533.41	4.07
533.755	4.07
534.099	4.07
534.444	4.05
534.788	4.05
535.133	4.05
535.477	4.06
535.822	4.05
536.166	4.06
536.51	4.06
536.855	4.04
537.199	4.03
537.543	4.05
537.887	4.05
538.231	4.02
538.576	4.01
538.92	4.02
539.264	4.02
539.608	4.02
539.951	4.01
540.295	4.02
540.639	4.02
540.983	4.02
541.327	4.02
541.671	4.02
542.014	4.04
542.358	4.03
542.701	4.03
543.045	4.05
543.389	4.05
543.732	4.07
544.075	4.08
544.419	4.08
544.762	4.06
545.105	4.08
545.449	4.09
545.792	4.11
546.135	4.11
546.478	4.12
546.821	4.14
547.165	4.15
547.508	4.14
547.851	4.13
548.194	4.11
548.536	4.08
548.879	4.08
549.222	4.07
549.565	4.07
549.908	4.06
550.25	4.07
550.593	4.05
550.936	4.02
551.278	4.02
551.621	4.05
551.963	4.07
552.306	4.05
552.648	4.06
552.991	4.04
553.333	4.05
553.675	4.06
554.017	4.03
554.36	4.06
554.702	4.07
555.044	4.08
555.386	4.12
555.728	4.13
556.07	4.13
556.412	4.11
556.754	4.11
557.096	4.12
557.438	4.08
557.78	4.13
558.121	4.15
558.463	4.18
558.805	4.18
559.147	4.19
559.488	4.21
559.83	4.18
560.171	4.15
560.513	4.17
560.854	4.16
561.196	4.16
561.537	4.16
561.878	4.2
562.22	4.2
562.561	4.16
562.902	4.16
563.243	4.19
563.584	4.22
563.925	4.29
564.266	4.28
564.607	4.27
564.948	4.26
565.289	4.28
565.63	4.22
565.971	4.21
566.312	4.21
566.653	4.22
566.993	4.22
567.334	4.27
567.675	4.24
568.015	4.25
568.356	4.26
568.696	4.25
569.037	4.24
569.377	4.25
569.718	4.27
570.058	4.29
570.398	4.26
570.739	4.28
571.079	4.24
571.419	4.26
571.759	4.28
572.099	4.28
572.439	4.26
572.779	4.3
573.119	4.31
573.459	4.29
573.799	4.29
574.139	4.31
574.479	4.29
574.819	4.31
575.158	4.3
575.498	4.33
575.838	4.28
576.177	4.25
576.517	4.21
576.856	4.21
577.196	4.22
577.535	4.26
577.875	4.26
578.214	4.24
578.553	4.25
578.893	4.26
579.232	4.25
579.571	4.27
579.91	4.26
580.25	4.26
580.589	4.3
580.928	4.31
581.267	4.32
581.606	4.34
581.945	4.35
582.283	4.34
582.622	4.31
582.961	4.32
583.3	4.32
583.639	4.38
583.977	4.39
584.316	4.38
584.654	4.37
584.993	4.36
585.332	4.39
585.67	4.35
586.008	4.35
586.347	4.37
586.685	4.33
587.024	4.31
587.362	4.33
587.7	4.34
588.038	4.33
588.376	4.3
588.715	4.3
589.053	4.27
589.391	4.25
589.729	4.3
590.067	4.36
590.404	4.35
590.742	4.34
591.08	4.35
591.418	4.36
591.756	4.36
592.093	4.35
592.431	4.29
592.769	4.31
593.106	4.29
593.444	4.28
593.781	4.34
594.119	4.36
594.456	4.36
594.793	4.33
595.131	4.32
595.468	4.36
595.805	4.36
596.143	4.35
596.48	4.41
596.817	4.35
597.154	4.33
597.491	4.39
597.828	4.38
598.165	4.35
598.502	4.32
598.839	4.31
599.176	4.32
599.512	4.33
599.849	4.37
600.186	4.35
600.523	4.37
600.859	4.34
601.196	4.35
601.532	4.37
601.869	4.4
602.205	4.38
602.542	4.39
602.878	4.43
603.215	4.42
603.551	4.34
603.887	4.35
604.223	4.37
604.56	4.38
604.896	4.43
605.232	4.46
605.568	4.48
605.904	4.44
606.24	4.44
606.576	4.49
606.912	4.49
607.248	4.55
607.583	4.53
607.919	4.53
608.255	4.51
608.591	4.52
608.926	4.51
609.262	4.53
609.597	4.51
609.933	4.46
610.268	4.5
610.604	4.57
610.939	4.61
611.275	4.62
611.61	4.56
611.945	4.54
612.281	4.57
612.616	4.58
612.951	4.63
613.286	4.63
613.621	4.62
613.956	4.61
614.291	4.61
614.626	4.64
614.961	4.71
615.296	4.75
615.631	4.74
615.966	4.75
616.3	4.76
616.635	4.78
616.97	4.83
617.304	4.85
617.639	4.84
617.973	4.83
618.308	4.8
618.642	4.86
618.977	4.85
619.311	4.82
619.646	4.84
619.98	4.88
620.314	4.91
620.648	4.93
620.983	4.93
621.317	4.88
621.651	4.89
621.985	4.84
622.319	4.81
622.653	4.77
622.987	4.77
623.321	4.81
623.655	4.79
623.988	4.8
624.322	4.83
624.656	4.81
624.99	4.76
625.323	4.76
625.657	4.77
625.99	4.81
626.324	4.84
626.657	4.81
626.991	4.85
627.324	4.8
627.658	4.76
627.991	4.79
628.324	4.82
628.657	4.8
628.991	4.81
629.324	4.81
629.657	4.85
629.99	4.85
630.323	4.82
630.656	4.85
630.989	4.85
631.322	4.76
631.655	4.8
631.987	4.86
632.32	4.91
632.653	4.89
632.986	4.86
633.318	4.86
633.651	4.9
633.984	4.85
634.316	4.86
634.649	4.88
634.981	4.88
635.313	4.88
635.646	4.91
635.978	4.93
636.31	4.95
636.643	5.02
636.975	5.02
637.307	5.07
637.639	5.05
637.971	5.03
638.303	5.11
638.635	5.08
638.967	5.11
639.299	5.11
639.631	5.1
639.963	5.1
640.295	5.09
640.626	4.96
640.958	4.93
641.29	4.94
641.621	4.94
641.953	4.81
642.285	4.84
642.616	4.88
642.948	4.83
643.279	4.81
643.61	4.8
643.942	4.82
644.273	4.81
644.604	4.8
644.936	4.87
645.267	4.8
645.598	4.87
645.929	4.76
646.26	4.73
646.591	4.74
646.922	4.86
647.253	4.79
647.584	4.92
647.915	4.94
648.245	4.99
648.576	4.97
648.907	5.1
649.238	5.06
649.568	5.05
649.899	5.06
650.229	5.03
650.56	5.01
650.89	4.97
651.221	4.93
651.551	5.02
651.882	4.93
652.212	5.04
652.542	4.99
652.872	5.02
653.203	4.96
653.533	5.01
653.863	4.89
654.193	4.93
654.523	4.93
654.853	4.98
655.183	4.97
655.513	5.04
655.843	5.01
656.172	5.07
656.502	4.99
656.832	5.04
657.162	5.06
657.491	5.09
657.821	5.17
658.15	5.16
658.48	5.13
658.809	5.12
659.139	5.14
659.468	5.18
659.798	5.25
660.127	5.31
660.456	5.33
660.785	5.34
661.115	5.36
661.444	5.36
661.773	5.39
662.102	5.33
662.431	5.34
662.76	5.31
663.089	5.32
663.418	5.34
663.747	5.27
664.076	5.25
664.404	5.26
664.733	5.19
665.062	5.24
665.39	5.23
665.719	5.31
666.048	5.26
666.376	5.21
666.705	5.15
667.033	5.18
667.362	5.16
667.69	5.16
668.018	5.24
668.347	5.18
668.675	5.12
669.003	5.14
669.331	5.14
669.659	5.17
669.987	5.13
670.315	5.19
670.643	5.29
670.971	5.35
671.299	5.32
671.627	5.38
671.955	5.38
672.283	5.32
672.61	5.3
672.938	5.29
673.266	5.31
673.593	5.26
673.921	5.23
674.249	5.2
674.576	5.28
674.904	5.14
675.231	5.27
675.558	5.37
675.886	5.34
676.213	5.26
676.54	5.29
676.867	5.25
677.195	5.3
677.522	5.31
677.849	5.4
