Data from MVZ_BU147395_Reflection_00004.txt Node
Date: Tue Nov 19 12:04:56 EST 2019
User: vgr7
Spectrometer: USB2G7710
Scans to average: 3
Trigger mode: 4
Integration Time (sec): 2.000000E-2
Electric dark correction enabled: true
Boxcar width: 10
XAxis mode: Wavelengths
Number of Pixels in Spectrum: 2048
>>>>>Begin Spectral Data<<<<<
177.721	55.63
178.105	75.71
178.488	53.31
178.871	49.06
179.254	-21.78
179.636	8.96
180.019	-246.15
180.402	209.09
180.785	16.15
181.168	-43.06
181.55	-414.93
181.933	119.28
182.316	264.74
182.698	-1400
183.081	387.23
183.463	298.8
183.846	-298.73
184.228	-345.05
184.611	-71.01
184.993	-45.54
185.376	4.35
185.758	12.71
186.14	13.39
186.522	-8.58
186.904	-21.53
187.287	-23.88
187.669	-28.33
188.051	-32.12
188.433	-39.65
188.815	-33.58
189.197	-35.82
189.579	-36.05
189.961	-32.77
190.342	-40.6
190.724	-41.27
191.106	-39.81
191.488	-45.72
191.869	-46.71
192.251	-41.17
192.633	-31.62
193.014	-29.93
193.396	-35.86
193.777	-36.56
194.159	-33.86
194.54	-23.41
194.922	-16.57
195.303	-16.45
195.684	-16.17
196.065	-15.27
196.447	-18.67
196.828	-27.23
197.209	-21.79
197.59	-10.13
197.971	-1.23
198.352	-14.46
198.733	-29.16
199.114	-39.68
199.495	-28.49
199.876	-25.72
200.257	-28.27
200.638	-31.07
201.018	-52.2
201.399	-50.81
201.78	-57.33
202.16	-112.04
202.541	-190.26
202.922	-209.76
203.302	-340.35
203.683	-338.46
204.063	-268.26
204.444	-274.52
204.824	-312.26
205.204	-245.92
205.585	-257.45
205.965	-296.26
206.345	-240.36
206.725	-172.6
207.106	-124.58
207.486	-107.85
207.866	-104.41
208.246	-103.88
208.626	-117.89
209.006	-96.17
209.386	-89.64
209.766	-94.71
210.145	-72.53
210.525	-73.05
210.905	-40.65
211.285	-23.22
211.664	4.62
212.044	-1.59
212.424	-8.21
212.803	-9.06
213.183	-12.78
213.562	-12.92
213.942	-18.37
214.321	-13.76
214.701	-28.65
215.08	-29.13
215.459	-34.94
215.838	-52.78
216.218	-54.42
216.597	-56.05
216.976	-49.34
217.355	-30.15
217.734	-17.51
218.113	-16.09
218.492	-8.85
218.871	-29.12
219.25	-34.46
219.629	-55.5
220.008	-54.4
220.387	-41.47
220.766	-31.02
221.144	-28.18
221.523	-34.44
221.902	-31.52
222.28	-29.93
222.659	-19.57
223.037	-23.78
223.416	-18.68
223.794	-5.97
224.173	-9.49
224.551	-2.07
224.929	-9.87
225.308	-10.77
225.686	-8.4
226.064	-12.53
226.442	-11.12
226.821	-5.22
227.199	-4.74
227.577	-4.11
227.955	-0.88
228.333	0.36
228.711	2.55
229.089	3.81
229.467	3.9
229.845	4.51
230.222	4.93
230.6	5.55
230.978	9.6
231.356	8.82
231.733	5.55
232.111	7.3
232.488	4.44
232.866	4.94
233.243	5.79
233.621	4.84
233.998	5.09
234.376	4.25
234.753	1.14
235.13	1.99
235.508	2.45
235.885	0.15
236.262	0.11
236.639	0.52
237.016	0.41
237.393	1.6
237.77	2.84
238.147	3.04
238.524	3.36
238.901	1.72
239.278	1.43
239.655	1.96
240.032	2.22
240.409	2.94
240.785	3.28
241.162	2.88
241.539	2.79
241.915	2.99
242.292	3.3
242.668	3.52
243.045	3.37
243.421	3.39
243.798	3.82
244.174	4.12
244.551	3.8
244.927	3.79
245.303	3.79
245.679	3.62
246.056	3.55
246.432	3.37
246.808	3.59
247.184	3.63
247.56	3.53
247.936	3.76
248.312	3.82
248.688	4.11
249.064	4.06
249.44	4.13
249.815	4.32
250.191	4.38
250.567	4.46
250.943	4.47
251.318	4.38
251.694	4.28
252.069	4.26
252.445	4.49
252.82	4.73
253.196	4.87
253.571	5.05
253.947	5.22
254.322	5.26
254.697	5.04
255.073	4.98
255.448	4.89
255.823	4.71
256.198	4.22
256.573	4.03
256.948	4.17
257.323	4.3
257.698	4.07
258.073	4.04
258.448	3.93
258.823	3.86
259.198	4.02
259.573	3.88
259.948	3.89
260.322	3.8
260.697	3.71
261.072	3.58
261.446	3.6
261.821	3.47
262.195	3.46
262.57	3.66
262.944	3.71
263.319	3.7
263.693	3.54
264.067	3.65
264.442	3.44
264.816	3.27
265.19	3.2
265.564	3.1
265.938	3.08
266.313	3.06
266.687	3.15
267.061	3.08
267.435	3.25
267.809	3.17
268.183	3.16
268.556	2.93
268.93	3
269.304	2.93
269.678	2.92
270.051	2.88
270.425	2.74
270.799	2.67
271.172	2.86
271.546	3.06
271.919	3.16
272.293	3.36
272.666	3.47
273.04	3.45
273.413	3.47
273.787	3.33
274.16	3.37
274.533	3.43
274.906	3.4
275.279	3.32
275.653	3.31
276.026	3.46
276.399	3.6
276.772	3.72
277.145	3.67
277.518	3.67
277.891	3.67
278.263	3.63
278.636	3.78
279.009	3.65
279.382	3.58
279.755	3.45
280.127	3.42
280.5	3.36
280.872	3.35
281.245	3.5
281.617	3.59
281.99	3.61
282.362	3.54
282.735	3.61
283.107	3.62
283.479	3.6
283.852	3.58
284.224	3.56
284.596	3.51
284.968	3.34
285.34	3.41
285.713	3.46
286.085	3.39
286.457	3.31
286.829	3.32
287.201	3.27
287.572	3.4
287.944	3.47
288.316	3.51
288.688	3.54
289.06	3.56
289.431	3.6
289.803	3.63
290.175	3.66
290.546	3.55
290.918	3.63
291.289	3.57
291.661	3.48
292.032	3.38
292.403	3.33
292.775	3.56
293.146	3.49
293.517	3.49
293.889	3.68
294.26	3.68
294.631	3.8
295.002	3.84
295.373	3.78
295.744	3.82
296.115	3.84
296.486	3.82
296.857	3.75
297.228	3.64
297.599	3.59
297.97	3.72
298.34	3.79
298.711	3.83
299.082	3.89
299.452	3.86
299.823	3.99
300.194	4.01
300.564	3.97
300.935	4.07
301.305	4.07
301.676	4.01
302.046	3.98
302.416	3.81
302.787	3.78
303.157	3.73
303.527	3.52
303.897	3.48
304.267	3.58
304.637	3.63
305.008	3.58
305.378	3.68
305.748	3.5
306.117	3.38
306.487	3.39
306.857	3.34
307.227	3.45
307.597	3.41
307.967	3.38
308.336	3.41
308.706	3.51
309.076	3.56
309.445	3.6
309.815	3.75
310.184	3.76
310.554	3.74
310.923	3.72
311.293	3.78
311.662	3.84
312.031	3.71
312.401	3.55
312.77	3.62
313.139	3.49
313.508	3.42
313.877	3.56
314.246	3.49
314.616	3.45
314.985	3.47
315.353	3.48
315.722	3.61
316.091	3.54
316.46	3.49
316.829	3.46
317.198	3.36
317.567	3.32
317.935	3.36
318.304	3.49
318.672	3.61
319.041	3.66
319.41	3.52
319.778	3.61
320.147	3.6
320.515	3.57
320.883	3.58
321.252	3.72
321.62	3.61
321.988	3.61
322.357	3.67
322.725	3.62
323.093	3.6
323.461	3.48
323.829	3.59
324.197	3.41
324.565	3.47
324.933	3.5
325.301	3.32
325.669	3.24
326.037	3.21
326.405	3.25
326.772	3.3
327.14	3.33
327.508	3.29
327.875	3.26
328.243	3.33
328.61	3.35
328.978	3.33
329.346	3.28
329.713	3.33
330.08	3.4
330.448	3.45
330.815	3.57
331.182	3.56
331.55	3.41
331.917	3.56
332.284	3.6
332.651	3.59
333.018	3.57
333.385	3.57
333.752	3.58
334.119	3.56
334.486	3.54
334.853	3.45
335.22	3.36
335.587	3.4
335.954	3.4
336.32	3.4
336.687	3.4
337.054	3.4
337.42	3.35
337.787	3.25
338.153	3.21
338.52	3.25
338.886	3.28
339.253	3.3
339.619	3.21
339.986	3.21
340.352	3.17
340.718	3.29
341.084	3.44
341.451	3.4
341.817	3.43
342.183	3.44
342.549	3.59
342.915	3.68
343.281	3.72
343.647	3.74
344.013	3.71
344.379	3.73
344.745	3.85
345.11	3.82
345.476	3.93
345.842	3.98
346.208	3.95
346.573	3.96
346.939	3.99
347.304	4.1
347.67	4.06
348.035	4.15
348.401	4.16
348.766	4.08
349.132	4.16
349.497	4.12
349.862	4.09
350.228	4.05
350.593	4
350.958	4.13
351.323	4.15
351.688	4.19
352.053	4.12
352.418	4.09
352.783	4.13
353.148	4.04
353.513	4.04
353.878	3.94
354.243	3.95
354.608	4.04
354.972	4.01
355.337	4.05
355.702	4.07
356.066	4.09
356.431	4.11
356.795	4.09
357.16	4.12
357.524	4.16
357.889	4.2
358.253	4.21
358.618	4.11
358.982	4.05
359.346	4.05
359.71	4.07
360.075	4.06
360.439	4.08
360.803	4.16
361.167	4.09
361.531	4.08
361.895	4.11
362.259	4.07
362.623	4.04
362.987	4.01
363.351	3.92
363.714	3.92
364.078	3.96
364.442	3.9
364.806	3.88
365.169	3.85
365.533	3.81
365.896	3.87
366.26	3.86
366.623	3.85
366.987	3.93
367.35	3.95
367.714	3.96
368.077	3.95
368.44	3.92
368.803	3.9
369.167	3.92
369.53	3.9
369.893	3.91
370.256	3.9
370.619	3.84
370.982	3.87
371.345	3.9
371.708	3.82
372.071	3.83
372.434	3.84
372.797	3.81
373.159	3.79
373.522	3.73
373.885	3.77
374.247	3.79
374.61	3.73
374.973	3.71
375.335	3.72
375.698	3.71
376.06	3.74
376.423	3.8
376.785	3.86
377.147	3.81
377.51	3.8
377.872	3.8
378.234	3.87
378.596	3.9
378.958	3.83
379.321	3.89
379.683	3.93
380.045	3.9
380.407	3.99
380.769	4.02
381.13	4.04
381.492	4.03
381.854	4.04
382.216	4.06
382.578	4.02
382.939	4.04
383.301	4.03
383.663	3.99
384.024	3.96
384.386	3.92
384.747	3.94
385.109	3.95
385.47	3.99
385.832	3.93
386.193	3.91
386.554	3.93
386.916	3.94
387.277	3.89
387.638	3.92
387.999	3.88
388.36	3.87
388.721	3.86
389.082	3.88
389.443	3.9
389.804	3.91
390.165	3.95
390.526	3.94
390.887	3.96
391.248	3.95
391.609	3.98
391.969	3.99
392.33	3.97
392.691	3.96
393.051	3.92
393.412	3.99
393.772	3.97
394.133	3.97
394.493	3.95
394.854	3.95
395.214	3.93
395.574	3.9
395.935	3.9
396.295	3.89
396.655	3.9
397.015	3.89
397.376	3.87
397.736	3.87
398.096	3.84
398.456	3.83
398.816	3.83
399.176	3.79
399.535	3.8
399.895	3.79
400.255	3.79
400.615	3.8
400.975	3.78
401.334	3.79
401.694	3.83
402.054	3.81
402.413	3.83
402.773	3.83
403.132	3.83
403.492	3.82
403.851	3.82
404.211	3.82
404.57	3.82
404.929	3.85
405.288	3.85
405.648	3.88
406.007	3.85
406.366	3.87
406.725	3.87
407.084	3.86
407.443	3.88
407.802	3.88
408.161	3.9
408.52	3.91
408.879	3.9
409.238	3.89
409.596	3.92
409.955	3.91
410.314	3.9
410.673	3.91
411.031	3.91
411.39	3.91
411.748	3.91
412.107	3.86
412.465	3.82
412.824	3.83
413.182	3.83
413.54	3.87
413.899	3.84
414.257	3.88
414.615	3.89
414.974	3.9
415.332	3.91
415.69	3.88
416.048	3.9
416.406	3.91
416.764	3.9
417.122	3.9
417.48	3.91
417.838	3.92
418.195	3.91
418.553	3.91
418.911	3.91
419.269	3.92
419.626	3.94
419.984	3.94
420.342	3.92
420.699	3.91
421.057	3.9
421.414	3.92
421.772	3.92
422.129	3.9
422.486	3.9
422.844	3.89
423.201	3.9
423.558	3.88
423.915	3.9
424.273	3.9
424.63	3.9
424.987	3.89
425.344	3.91
425.701	3.9
426.058	3.91
426.415	3.91
426.772	3.91
427.128	3.92
427.485	3.92
427.842	3.94
428.199	3.94
428.555	3.93
428.912	3.92
429.269	3.91
429.625	3.91
429.982	3.9
430.338	3.91
430.695	3.92
431.051	3.93
431.407	3.91
431.764	3.89
432.12	3.89
432.476	3.89
432.832	3.87
433.189	3.87
433.545	3.87
433.901	3.85
434.257	3.85
434.613	3.84
434.969	3.85
435.325	3.84
435.681	3.85
436.036	3.88
436.392	3.88
436.748	3.89
437.104	3.9
437.459	3.92
437.815	3.94
438.171	3.94
438.526	3.93
438.882	3.94
439.237	3.95
439.593	3.97
439.948	3.97
440.304	3.99
440.659	3.99
441.014	4
441.369	4.02
441.725	4.02
442.08	4.02
442.435	4.02
442.79	4.03
443.145	4.03
443.5	4
443.855	4
444.21	4
444.565	4
444.92	4
445.275	3.99
445.629	3.99
445.984	4
446.339	3.99
446.693	3.99
447.048	3.97
447.403	3.98
447.757	3.96
448.112	3.96
448.466	3.94
448.82	3.94
449.175	3.94
449.529	3.95
449.883	3.93
450.238	3.94
450.592	3.95
450.946	3.95
451.3	3.96
451.654	3.95
452.008	3.96
452.362	3.95
452.716	3.95
453.07	3.94
453.424	3.95
453.778	3.95
454.132	3.96
454.486	3.96
454.839	3.95
455.193	3.96
455.547	3.97
455.9	3.99
456.254	3.97
456.607	3.96
456.961	3.96
457.314	3.97
457.668	3.97
458.021	3.95
458.375	3.96
458.728	3.95
459.081	3.95
459.434	3.94
459.787	3.94
460.141	3.94
460.494	3.95
460.847	3.96
461.2	3.96
461.553	3.96
461.906	3.99
462.259	3.99
462.611	3.98
462.964	3.98
463.317	3.98
463.67	4.02
464.022	4.01
464.375	4.01
464.728	4
465.08	4.01
465.433	4.02
465.785	4.03
466.138	4.05
466.49	4.07
466.843	4.08
467.195	4.1
467.547	4.1
467.899	4.11
468.252	4.1
468.604	4.09
468.956	4.09
469.308	4.09
469.66	4.11
470.012	4.11
470.364	4.11
470.716	4.13
471.068	4.13
471.42	4.13
471.772	4.13
472.123	4.16
472.475	4.16
472.827	4.17
473.178	4.16
473.53	4.15
473.882	4.13
474.233	4.15
474.585	4.14
474.936	4.13
475.288	4.13
475.639	4.13
475.99	4.11
476.342	4.11
476.693	4.09
477.044	4.07
477.395	4.07
477.746	4.05
478.097	4.05
478.448	4.02
478.8	4.03
479.15	4.04
479.501	4.05
479.852	4.06
480.203	4.07
480.554	4.08
480.905	4.08
481.255	4.09
481.606	4.09
481.957	4.1
482.307	4.11
482.658	4.12
483.009	4.12
483.359	4.13
483.709	4.14
484.06	4.15
484.41	4.15
484.761	4.17
485.111	4.18
485.461	4.18
485.811	4.19
486.162	4.2
486.512	4.2
486.862	4.19
487.212	4.2
487.562	4.19
487.912	4.19
488.262	4.2
488.612	4.2
488.961	4.21
489.311	4.2
489.661	4.19
490.011	4.18
490.36	4.17
490.71	4.17
491.06	4.16
491.409	4.16
491.759	4.15
492.108	4.13
492.458	4.13
492.807	4.14
493.157	4.12
493.506	4.13
493.855	4.13
494.204	4.13
494.554	4.12
494.903	4.12
495.252	4.12
495.601	4.13
495.95	4.14
496.299	4.14
496.648	4.15
496.997	4.17
497.346	4.18
497.695	4.2
498.043	4.22
498.392	4.22
498.741	4.22
499.09	4.23
499.438	4.24
499.787	4.24
500.135	4.24
500.484	4.24
500.832	4.23
501.181	4.22
501.529	4.23
501.878	4.24
502.226	4.24
502.574	4.24
502.923	4.21
503.271	4.2
503.619	4.22
503.967	4.2
504.315	4.21
504.663	4.21
505.011	4.2
505.359	4.19
505.707	4.21
506.055	4.23
506.403	4.26
506.751	4.27
507.098	4.29
507.446	4.3
507.794	4.32
508.141	4.33
508.489	4.36
508.837	4.36
509.184	4.35
509.531	4.36
509.879	4.37
510.226	4.39
510.574	4.4
510.921	4.39
511.268	4.42
511.616	4.43
511.963	4.45
512.31	4.48
512.657	4.47
513.004	4.45
513.351	4.44
513.698	4.42
514.045	4.41
514.392	4.39
514.739	4.39
515.086	4.41
515.432	4.39
515.779	4.36
516.126	4.37
516.473	4.39
516.819	4.41
517.166	4.42
517.512	4.42
517.859	4.43
518.205	4.42
518.552	4.41
518.898	4.42
519.245	4.42
519.591	4.41
519.937	4.43
520.283	4.45
520.629	4.45
520.976	4.46
521.322	4.47
521.668	4.48
522.014	4.49
522.36	4.47
522.706	4.49
523.052	4.52
523.398	4.52
523.743	4.52
524.089	4.51
524.435	4.5
524.781	4.53
525.126	4.53
525.472	4.55
525.817	4.55
526.163	4.55
526.509	4.55
526.854	4.55
527.199	4.56
527.545	4.56
527.89	4.58
528.235	4.58
528.581	4.59
528.926	4.59
529.271	4.61
529.616	4.61
529.961	4.62
530.306	4.62
530.651	4.63
530.996	4.64
531.341	4.65
531.686	4.65
532.031	4.64
532.376	4.65
532.721	4.64
533.065	4.65
533.41	4.65
533.755	4.65
534.099	4.65
534.444	4.65
534.788	4.65
535.133	4.65
535.477	4.65
535.822	4.65
536.166	4.65
536.51	4.63
536.855	4.64
537.199	4.64
537.543	4.64
537.887	4.64
538.231	4.63
538.576	4.64
538.92	4.65
539.264	4.65
539.608	4.65
539.951	4.67
540.295	4.68
540.639	4.69
540.983	4.68
541.327	4.7
541.671	4.72
542.014	4.74
542.358	4.73
542.701	4.74
543.045	4.74
543.389	4.75
543.732	4.75
544.075	4.76
544.419	4.75
544.762	4.76
545.105	4.76
545.449	4.77
545.792	4.78
546.135	4.78
546.478	4.79
546.821	4.81
547.165	4.81
547.508	4.8
547.851	4.8
548.194	4.81
548.536	4.78
548.879	4.76
549.222	4.75
549.565	4.74
549.908	4.74
550.25	4.74
550.593	4.73
550.936	4.74
551.278	4.73
551.621	4.71
551.963	4.75
552.306	4.76
552.648	4.76
552.991	4.75
553.333	4.77
553.675	4.79
554.017	4.75
554.36	4.74
554.702	4.74
555.044	4.73
555.386	4.74
555.728	4.76
556.07	4.74
556.412	4.73
556.754	4.73
557.096	4.73
557.438	4.72
557.78	4.73
558.121	4.73
558.463	4.73
558.805	4.73
559.147	4.72
559.488	4.7
559.83	4.7
560.171	4.69
560.513	4.67
560.854	4.65
561.196	4.67
561.537	4.67
561.878	4.66
562.22	4.67
562.561	4.66
562.902	4.68
563.243	4.72
563.584	4.73
563.925	4.75
564.266	4.72
564.607	4.75
564.948	4.76
565.289	4.76
565.63	4.78
565.971	4.8
566.312	4.77
566.653	4.79
566.993	4.76
567.334	4.78
567.675	4.78
568.015	4.77
568.356	4.77
568.696	4.79
569.037	4.77
569.377	4.78
569.718	4.8
570.058	4.78
570.398	4.75
570.739	4.74
571.079	4.73
571.419	4.73
571.759	4.71
572.099	4.67
572.439	4.69
572.779	4.68
573.119	4.69
573.459	4.69
573.799	4.67
574.139	4.69
574.479	4.69
574.819	4.7
575.158	4.72
575.498	4.7
575.838	4.66
576.177	4.67
576.517	4.67
576.856	4.66
577.196	4.64
577.535	4.68
577.875	4.67
578.214	4.69
578.553	4.7
578.893	4.7
579.232	4.72
579.571	4.73
579.91	4.72
580.25	4.7
580.589	4.72
580.928	4.74
581.267	4.77
581.606	4.76
581.945	4.72
582.283	4.7
582.622	4.71
582.961	4.72
583.3	4.72
583.639	4.71
583.977	4.72
584.316	4.75
584.654	4.74
584.993	4.76
585.332	4.79
585.67	4.81
586.008	4.81
586.347	4.85
586.685	4.79
587.024	4.81
587.362	4.81
587.7	4.81
588.038	4.87
588.376	4.88
588.715	4.85
589.053	4.86
589.391	4.85
589.729	4.89
590.067	4.91
590.404	4.94
590.742	4.96
591.08	5
591.418	5
591.756	4.99
592.093	4.96
592.431	4.94
592.769	4.98
593.106	4.96
593.444	4.96
593.781	4.99
594.119	4.99
594.456	5.02
594.793	4.99
595.131	4.94
595.468	4.98
595.805	4.99
596.143	5.02
596.48	5.04
596.817	5.01
597.154	5.01
597.491	4.98
597.828	4.98
598.165	4.94
598.502	4.92
598.839	4.93
599.176	4.95
599.512	4.94
599.849	4.91
600.186	4.9
600.523	4.89
600.859	4.88
601.196	4.87
601.532	4.89
601.869	4.89
602.205	4.89
602.542	4.85
602.878	4.83
603.215	4.81
603.551	4.8
603.887	4.81
604.223	4.79
604.56	4.82
604.896	4.82
605.232	4.82
605.568	4.83
605.904	4.81
606.24	4.82
606.576	4.84
606.912	4.84
607.248	4.86
607.583	4.88
607.919	4.88
608.255	4.9
608.591	4.9
608.926	4.9
609.262	4.9
609.597	4.9
609.933	4.89
610.268	4.88
610.604	4.85
610.939	4.86
611.275	4.89
611.61	4.86
611.945	4.84
612.281	4.88
612.616	4.9
612.951	4.94
613.286	4.96
613.621	4.94
613.956	4.96
614.291	4.97
614.626	4.98
614.961	4.99
615.296	4.96
615.631	4.95
615.966	4.96
616.3	4.93
616.635	4.93
616.97	4.94
617.304	4.98
617.639	5.02
617.973	4.99
618.308	5
618.642	5
618.977	4.99
619.311	4.95
619.646	4.95
619.98	4.96
620.314	4.94
620.648	4.99
620.983	4.96
621.317	4.98
621.651	4.92
621.985	4.9
622.319	4.9
622.653	4.91
622.987	4.92
623.321	4.92
623.655	4.94
623.988	4.94
624.322	4.93
624.656	4.92
624.99	4.93
625.323	4.95
625.657	4.96
625.99	4.94
626.324	4.97
626.657	4.93
626.991	4.9
627.324	4.89
627.658	4.86
627.991	4.9
628.324	4.87
628.657	4.88
628.991	4.9
629.324	4.92
629.657	4.9
629.99	4.91
630.323	4.89
630.656	4.82
630.989	4.86
631.322	4.91
631.655	4.93
631.987	4.96
632.32	4.95
632.653	4.95
632.986	4.99
633.318	4.97
633.651	5.01
633.984	5.05
634.316	5.06
634.649	5.09
634.981	5.04
635.313	5.04
635.646	5.04
635.978	5.04
636.31	5.07
636.643	5.07
636.975	5.06
637.307	5.12
637.639	5.19
637.971	5.14
638.303	5.02
638.635	5
638.967	4.98
639.299	4.99
639.631	4.98
639.963	4.96
640.295	4.95
640.626	4.93
640.958	4.86
641.29	4.89
641.621	4.8
641.953	4.76
642.285	4.79
642.616	4.84
642.948	4.86
643.279	4.78
643.61	4.74
643.942	4.74
644.273	4.73
644.604	4.76
644.936	4.78
645.267	4.85
645.598	4.8
645.929	4.73
646.26	4.71
646.591	4.68
646.922	4.71
647.253	4.79
647.584	4.8
647.915	4.85
648.245	4.84
648.576	4.92
648.907	4.95
649.238	4.94
649.568	4.93
649.899	4.88
650.229	4.93
650.56	4.97
650.89	5.03
651.221	4.99
651.551	4.99
651.882	4.97
652.212	5.03
652.542	5.16
652.872	5.21
653.203	5.2
653.533	5.32
653.863	5.34
654.193	5.28
654.523	5.28
654.853	5.32
655.183	5.27
655.513	5.29
655.843	5.32
656.172	5.4
656.502	5.36
656.832	5.36
657.162	5.39
657.491	5.48
657.821	5.49
658.15	5.54
658.48	5.57
658.809	5.58
659.139	5.57
659.468	5.53
659.798	5.57
660.127	5.64
660.456	5.52
660.785	5.5
661.115	5.56
661.444	5.51
661.773	5.51
662.102	5.57
662.431	5.58
662.76	5.57
663.089	5.59
663.418	5.66
663.747	5.73
664.076	5.72
664.404	5.61
664.733	5.58
665.062	5.61
665.39	5.58
665.719	5.7
666.048	5.65
666.376	5.61
666.705	5.62
667.033	5.59
667.362	5.7
667.69	5.72
668.018	5.73
668.347	5.77
668.675	5.76
669.003	5.73
669.331	5.68
669.659	5.64
669.987	5.59
670.315	5.57
670.643	5.56
670.971	5.59
671.299	5.61
671.627	5.65
671.955	5.57
672.283	5.55
672.61	5.41
672.938	5.55
673.266	5.49
673.593	5.52
673.921	5.45
674.249	5.38
674.576	5.37
674.904	5.33
675.231	5.41
675.558	5.35
675.886	5.35
676.213	5.32
676.54	5.39
676.867	5.42
677.195	5.45
677.522	5.4
677.849	5.36
