Data from MVZ_BU163026_Reflection_00010.txt Node
Date: Tue Nov 19 12:06:07 EST 2019
User: vgr7
Spectrometer: USB2G7710
Scans to average: 3
Trigger mode: 4
Integration Time (sec): 2.000000E-2
Electric dark correction enabled: true
Boxcar width: 10
XAxis mode: Wavelengths
Number of Pixels in Spectrum: 2048
>>>>>Begin Spectral Data<<<<<
177.721	12.79
178.105	72.97
178.488	-239.59
178.871	-26.87
179.254	-46.15
179.636	-34.94
180.019	-143.88
180.402	300
180.785	-0
181.168	144.64
181.55	274.88
181.933	734.83
182.316	156.03
182.698	103.73
183.081	129.49
183.463	186.52
183.846	175.22
184.228	119.54
184.611	123.91
184.993	137.14
185.376	173.84
185.758	182.23
186.14	145.53
186.522	154.87
186.904	128.06
187.287	142.45
187.669	141.48
188.051	149.13
188.433	98.03
188.815	117.89
189.197	127.91
189.579	103.94
189.961	91.59
190.342	107.58
190.724	112.14
191.106	74.45
191.488	19.35
191.869	12.61
192.251	3.2
192.633	4.36
193.014	-83
193.396	-89.95
193.777	-105.57
194.159	-314.5
194.54	-763.64
194.922	2810.53
195.303	-624
195.684	-176.65
196.065	-212.81
196.447	298.49
196.828	-8127.27
197.209	-1072.57
197.59	-3058.54
197.971	-2336.17
198.352	-357.2
198.733	-192.64
199.114	-183.25
199.495	-52.52
199.876	-82.81
200.257	-46.68
200.638	-59.62
201.018	-58.35
201.399	-257.14
201.78	-160.56
202.16	-29.13
202.541	-12.52
202.922	-12.52
203.302	-1.76
203.683	-7.95
204.063	-25.67
204.444	-73.75
204.824	-141.18
205.204	-1211.32
205.585	-863.41
205.965	-287.32
206.345	77.73
206.725	141.02
207.106	105.94
207.486	64.86
207.866	86.9
208.246	62.24
208.626	69.99
209.006	55.8
209.386	50.76
209.766	87.64
210.145	37.19
210.525	21.69
210.905	8.23
211.285	1.69
211.664	9.65
212.044	-9.22
212.424	-19.78
212.803	-35.14
213.183	-52.86
213.562	-20.6
213.942	-7.46
214.321	-2.89
214.701	-37.53
215.08	-74.16
215.459	-48.33
215.838	-55.22
216.218	-119.66
216.597	-169.4
216.976	-192.3
217.355	-101.91
217.734	-67.82
218.113	-38.49
218.492	-27.37
218.871	-22.28
219.25	-29.52
219.629	-62.34
220.008	-40.63
220.387	-64.54
220.766	-54.2
221.144	-65.5
221.523	-93.47
221.902	-81.47
222.28	-68.72
222.659	-29.95
223.037	-11.68
223.416	-23.01
223.794	-2.86
224.173	-10.54
224.551	-8.22
224.929	-11.75
225.308	-21.72
225.686	-16.71
226.064	-20.61
226.442	-17.22
226.821	-11.68
227.199	-5.08
227.577	-0.8
227.955	-3.37
228.333	1.25
228.711	1.98
229.089	1.7
229.467	0.8
229.845	-2.18
230.222	0.32
230.6	-1.66
230.978	0.48
231.356	2.05
231.733	-0.06
232.111	3.32
232.488	4.14
232.866	6.96
233.243	8.8
233.621	8.44
233.998	11.24
234.376	14.53
234.753	14.42
235.13	12.48
235.508	12.67
235.885	12.36
236.262	10.83
236.639	9.03
237.016	9.02
237.393	9.57
237.77	8.85
238.147	7
238.524	8.27
238.901	6.91
239.278	6.1
239.655	6
240.032	5.37
240.409	4.92
240.785	3.77
241.162	3.95
241.539	3.58
241.915	3.01
242.292	2.95
242.668	2.63
243.045	2.97
243.421	3.45
243.798	3.6
244.174	3.71
244.551	3.73
244.927	3.6
245.303	3.35
245.679	3.55
246.056	3.58
246.432	3.44
246.808	3.69
247.184	3.65
247.56	3.59
247.936	3.7
248.312	3.74
248.688	3.82
249.064	3.44
249.44	3.46
249.815	3.5
250.191	3.54
250.567	3.63
250.943	3.57
251.318	3.29
251.694	3.16
252.069	3.24
252.445	3.3
252.82	3.56
253.196	3.85
253.571	3.98
253.947	4.07
254.322	4.22
254.697	3.99
255.073	3.93
255.448	4.12
255.823	4.09
256.198	4.22
256.573	4.33
256.948	4.47
257.323	4.43
257.698	4.38
258.073	3.91
258.448	3.88
258.823	3.68
259.198	3.62
259.573	3.48
259.948	3.46
260.322	3.57
260.697	3.51
261.072	3.63
261.446	3.46
261.821	3.48
262.195	3.35
262.57	3.4
262.944	3.54
263.319	3.44
263.693	3.54
264.067	3.35
264.442	3.11
264.816	3.09
265.19	3.09
265.564	2.85
265.938	3.06
266.313	2.76
266.687	2.67
267.061	2.84
267.435	3.09
267.809	2.91
268.183	2.84
268.556	2.86
268.93	2.81
269.304	2.85
269.678	2.83
270.051	2.76
270.425	2.75
270.799	2.67
271.172	2.74
271.546	2.59
271.919	2.8
272.293	2.88
272.666	2.73
273.04	2.72
273.413	2.77
273.787	2.73
274.16	2.89
274.533	3.04
274.906	2.9
275.279	2.69
275.653	2.89
276.026	2.87
276.399	2.81
276.772	2.79
277.145	2.68
277.518	2.6
277.891	2.65
278.263	2.74
278.636	2.69
279.009	2.62
279.382	2.7
279.755	2.65
280.127	2.76
280.5	2.54
280.872	2.73
281.245	2.79
281.617	2.81
281.99	2.78
282.362	2.7
282.735	2.85
283.107	3
283.479	2.88
283.852	2.86
284.224	2.85
284.596	2.76
284.968	2.89
285.34	2.81
285.713	2.89
286.085	2.69
286.457	2.7
286.829	2.72
287.201	2.67
287.572	2.64
287.944	2.74
288.316	2.89
288.688	2.8
289.06	2.74
289.431	2.78
289.803	2.87
290.175	2.89
290.546	2.69
290.918	2.55
291.289	2.43
291.661	2.39
292.032	2.38
292.403	2.4
292.775	2.32
293.146	2.59
293.517	2.54
293.889	2.62
294.26	2.68
294.631	2.71
295.002	2.7
295.373	2.76
295.744	2.62
296.115	2.71
296.486	2.68
296.857	2.82
297.228	2.74
297.599	2.71
297.97	2.88
298.34	2.99
298.711	3.12
299.082	3.24
299.452	3.32
299.823	3.35
300.194	3.39
300.564	3.45
300.935	3.45
301.305	3.42
301.676	3.42
302.046	3.45
302.416	3.37
302.787	3.53
303.157	3.47
303.527	3.52
303.897	3.58
304.267	3.65
304.637	3.65
305.008	3.72
305.378	3.82
305.748	3.71
306.117	3.77
306.487	3.9
306.857	3.98
307.227	4.06
307.597	4.14
307.967	4.17
308.336	4.27
308.706	4.19
309.076	4.29
309.445	4.52
309.815	4.58
310.184	4.64
310.554	4.61
310.923	4.53
311.293	4.48
311.662	4.4
312.031	4.44
312.401	4.42
312.77	4.39
313.139	4.38
313.508	4.38
313.877	4.35
314.246	4.3
314.616	4.34
314.985	4.27
315.353	4.27
315.722	4.35
316.091	4.46
316.46	4.49
316.829	4.67
317.198	4.6
317.567	4.49
317.935	4.57
318.304	4.72
318.672	4.77
319.041	4.92
319.41	5.09
319.778	5.11
320.147	5.23
320.515	5.24
320.883	5.45
321.252	5.61
321.62	5.64
321.988	5.89
322.357	5.91
322.725	6
323.093	5.98
323.461	6.02
323.829	5.79
324.197	5.8
324.565	5.63
324.933	5.52
325.301	5.5
325.669	5.57
326.037	5.57
326.405	5.78
326.772	5.85
327.14	5.69
327.508	5.64
327.875	5.53
328.243	5.59
328.61	5.57
328.978	5.5
329.346	5.58
329.713	5.43
330.08	5.42
330.448	5.31
330.815	5.36
331.182	5.27
331.55	5.28
331.917	5.31
332.284	5.44
332.651	5.45
333.018	5.45
333.385	5.41
333.752	5.35
334.119	5.31
334.486	5.21
334.853	5.32
335.22	5.28
335.587	5.34
335.954	5.29
336.32	5.3
336.687	5.27
337.054	5.15
337.42	5.16
337.787	5.14
338.153	5.39
338.52	5.55
338.886	5.52
339.253	5.63
339.619	5.67
339.986	5.57
340.352	5.68
340.718	5.9
341.084	5.93
341.451	5.95
341.817	5.9
342.183	5.92
342.549	6.01
342.915	6.04
343.281	6.08
343.647	6.23
344.013	6.2
344.379	6.31
344.745	6.45
345.11	6.43
345.476	6.57
345.842	6.46
346.208	6.42
346.573	6.61
346.939	6.61
347.304	6.62
347.67	6.75
348.035	6.71
348.401	6.58
348.766	6.54
349.132	6.54
349.497	6.66
349.862	6.73
350.228	6.78
350.593	6.86
350.958	6.89
351.323	6.87
351.688	6.91
352.053	6.88
352.418	6.87
352.783	6.87
353.148	6.82
353.513	6.78
353.878	6.69
354.243	6.53
354.608	6.6
354.972	6.6
355.337	6.49
355.702	6.52
356.066	6.58
356.431	6.69
356.795	6.73
357.16	6.65
357.524	6.66
357.889	6.63
358.253	6.52
358.618	6.46
358.982	6.44
359.346	6.46
359.71	6.45
360.075	6.41
360.439	6.48
360.803	6.42
361.167	6.4
361.531	6.46
361.895	6.48
362.259	6.4
362.623	6.29
362.987	6.32
363.351	6.29
363.714	6.27
364.078	6.22
364.442	6.21
364.806	6.19
365.169	6.15
365.533	6.08
365.896	6.08
366.26	6.11
366.623	6.05
366.987	5.99
367.35	6
367.714	6.01
368.077	5.84
368.44	5.85
368.803	5.79
369.167	5.69
369.53	5.66
369.893	5.66
370.256	5.71
370.619	5.66
370.982	5.62
371.345	5.6
371.708	5.48
372.071	5.4
372.434	5.38
372.797	5.41
373.159	5.4
373.522	5.41
373.885	5.41
374.247	5.37
374.61	5.28
374.973	5.17
375.335	5.12
375.698	5.13
376.06	5.1
376.423	5.12
376.785	5.12
377.147	5.1
377.51	5.04
377.872	5.01
378.234	4.99
378.596	4.98
378.958	4.91
379.321	4.9
379.683	4.9
380.045	4.92
380.407	4.78
380.769	4.75
381.13	4.76
381.492	4.68
381.854	4.65
382.216	4.67
382.578	4.68
382.939	4.64
383.301	4.6
383.663	4.57
384.024	4.52
384.386	4.49
384.747	4.47
385.109	4.46
385.47	4.47
385.832	4.43
386.193	4.39
386.554	4.35
386.916	4.34
387.277	4.29
387.638	4.27
387.999	4.28
388.36	4.22
388.721	4.18
389.082	4.17
389.443	4.18
389.804	4.16
390.165	4.17
390.526	4.14
390.887	4.14
391.248	4.12
391.609	4.12
391.969	4.07
392.33	4.04
392.691	3.97
393.051	3.89
393.412	3.9
393.772	3.89
394.133	3.86
394.493	3.81
394.854	3.75
395.214	3.76
395.574	3.74
395.935	3.75
396.295	3.69
396.655	3.64
397.015	3.6
397.376	3.56
397.736	3.47
398.096	3.44
398.456	3.39
398.816	3.38
399.176	3.34
399.535	3.31
399.895	3.31
400.255	3.35
400.615	3.38
400.975	3.36
401.334	3.35
401.694	3.37
402.054	3.37
402.413	3.35
402.773	3.29
403.132	3.31
403.492	3.29
403.851	3.29
404.211	3.31
404.57	3.31
404.929	3.29
405.288	3.29
405.648	3.32
406.007	3.32
406.366	3.3
406.725	3.28
407.084	3.3
407.443	3.26
407.802	3.24
408.161	3.21
408.52	3.2
408.879	3.18
409.238	3.15
409.596	3.12
409.955	3.1
410.314	3.06
410.673	3.02
411.031	3.01
411.39	3.04
411.748	3.06
412.107	3.03
412.465	3.04
412.824	3.05
413.182	3.06
413.54	3.07
413.899	3.04
414.257	3.05
414.615	3.01
414.974	3.03
415.332	3
415.69	3
416.048	2.99
416.406	2.98
416.764	2.99
417.122	2.98
417.48	3.01
417.838	3.04
418.195	3.04
418.553	3.05
418.911	3
419.269	2.97
419.626	2.95
419.984	2.95
420.342	2.94
420.699	2.92
421.057	2.9
421.414	2.92
421.772	2.92
422.129	2.93
422.486	2.92
422.844	2.91
423.201	2.91
423.558	2.9
423.915	2.89
424.273	2.88
424.63	2.9
424.987	2.89
425.344	2.87
425.701	2.85
426.058	2.84
426.415	2.86
426.772	2.86
427.128	2.87
427.485	2.84
427.842	2.83
428.199	2.82
428.555	2.81
428.912	2.76
429.269	2.75
429.625	2.72
429.982	2.75
430.338	2.76
430.695	2.75
431.051	2.77
431.407	2.77
431.764	2.76
432.12	2.76
432.476	2.78
432.832	2.77
433.189	2.78
433.545	2.77
433.901	2.77
434.257	2.76
434.613	2.75
434.969	2.77
435.325	2.8
435.681	2.78
436.036	2.79
436.392	2.83
436.748	2.83
437.104	2.85
437.459	2.82
437.815	2.82
438.171	2.82
438.526	2.82
438.882	2.83
439.237	2.84
439.593	2.82
439.948	2.8
440.304	2.79
440.659	2.78
441.014	2.77
441.369	2.77
441.725	2.77
442.08	2.75
442.435	2.75
442.79	2.74
443.145	2.75
443.5	2.74
443.855	2.72
444.21	2.71
444.565	2.72
444.92	2.73
445.275	2.72
445.629	2.71
445.984	2.7
446.339	2.71
446.693	2.7
447.048	2.68
447.403	2.67
447.757	2.66
448.112	2.66
448.466	2.67
448.82	2.67
449.175	2.67
449.529	2.69
449.883	2.67
450.238	2.67
450.592	2.67
450.946	2.67
451.3	2.68
451.654	2.66
452.008	2.65
452.362	2.63
452.716	2.64
453.07	2.63
453.424	2.62
453.778	2.61
454.132	2.61
454.486	2.64
454.839	2.64
455.193	2.66
455.547	2.66
455.9	2.65
456.254	2.66
456.607	2.66
456.961	2.66
457.314	2.65
457.668	2.64
458.021	2.65
458.375	2.65
458.728	2.65
459.081	2.65
459.434	2.64
459.787	2.64
460.141	2.64
460.494	2.64
460.847	2.64
461.2	2.65
461.553	2.66
461.906	2.65
462.259	2.66
462.611	2.65
462.964	2.66
463.317	2.66
463.67	2.66
464.022	2.66
464.375	2.68
464.728	2.71
465.08	2.72
465.433	2.72
465.785	2.73
466.138	2.75
466.49	2.77
466.843	2.78
467.195	2.8
467.547	2.79
467.899	2.8
468.252	2.8
468.604	2.8
468.956	2.81
469.308	2.82
469.66	2.85
470.012	2.86
470.364	2.87
470.716	2.87
471.068	2.88
471.42	2.88
471.772	2.89
472.123	2.9
472.475	2.91
472.827	2.9
473.178	2.93
473.53	2.94
473.882	2.96
474.233	2.96
474.585	2.95
474.936	2.97
475.288	2.99
475.639	3
475.99	2.98
476.342	2.98
476.693	2.97
477.044	2.95
477.395	2.95
477.746	2.93
478.097	2.95
478.448	2.93
478.8	2.93
479.15	2.89
479.501	2.87
479.852	2.87
480.203	2.88
480.554	2.86
480.905	2.84
481.255	2.83
481.606	2.83
481.957	2.83
482.307	2.84
482.658	2.83
483.009	2.84
483.359	2.84
483.709	2.86
484.06	2.85
484.41	2.86
484.761	2.86
485.111	2.87
485.461	2.87
485.811	2.87
486.162	2.87
486.512	2.89
486.862	2.89
487.212	2.87
487.562	2.86
487.912	2.87
488.262	2.88
488.612	2.88
488.961	2.88
489.311	2.88
489.661	2.88
490.011	2.86
490.36	2.85
490.71	2.86
491.06	2.85
491.409	2.86
491.759	2.87
492.108	2.87
492.458	2.87
492.807	2.86
493.157	2.88
493.506	2.89
493.855	2.88
494.204	2.89
494.554	2.91
494.903	2.93
495.252	2.93
495.601	2.96
495.95	2.98
496.299	3.01
496.648	3.04
496.997	3.05
497.346	3.1
497.695	3.13
498.043	3.15
498.392	3.18
498.741	3.21
499.09	3.22
499.438	3.23
499.787	3.23
500.135	3.26
500.484	3.28
500.832	3.31
501.181	3.37
501.529	3.45
501.878	3.51
502.226	3.55
502.574	3.59
502.923	3.61
503.271	3.66
503.619	3.72
503.967	3.77
504.315	3.83
504.663	3.91
505.011	3.96
505.359	4
505.707	4.04
506.055	4.11
506.403	4.16
506.751	4.23
507.098	4.32
507.446	4.4
507.794	4.46
508.141	4.54
508.489	4.59
508.837	4.61
509.184	4.67
509.531	4.72
509.879	4.78
510.226	4.85
510.574	4.94
510.921	4.98
511.268	5.06
511.616	5.13
511.963	5.18
512.31	5.26
512.657	5.35
513.004	5.44
513.351	5.51
513.698	5.6
514.045	5.72
514.392	5.81
514.739	5.9
515.086	6.03
515.432	6.13
515.779	6.21
516.126	6.32
516.473	6.42
516.819	6.52
517.166	6.64
517.512	6.71
517.859	6.79
518.205	6.86
518.552	6.94
518.898	7.02
519.245	7.11
519.591	7.21
519.937	7.29
520.283	7.41
520.629	7.48
520.976	7.59
521.322	7.68
521.668	7.77
522.014	7.86
522.36	7.96
522.706	8.07
523.052	8.2
523.398	8.31
523.743	8.44
524.089	8.57
524.435	8.69
524.781	8.83
525.126	8.95
525.472	9.09
525.817	9.19
526.163	9.28
526.509	9.36
526.854	9.42
527.199	9.51
527.545	9.58
527.89	9.66
528.235	9.73
528.581	9.81
528.926	9.91
529.271	10
529.616	10.1
529.961	10.21
530.306	10.3
530.651	10.41
530.996	10.53
531.341	10.65
531.686	10.76
532.031	10.87
532.376	11
532.721	11.12
533.065	11.25
533.41	11.38
533.755	11.54
534.099	11.71
534.444	11.87
534.788	12.02
535.133	12.17
535.477	12.35
535.822	12.56
536.166	12.75
536.51	12.96
536.855	13.15
537.199	13.34
537.543	13.58
537.887	13.82
538.231	14.06
538.576	14.27
538.92	14.5
539.264	14.74
539.608	14.94
539.951	15.13
540.295	15.31
540.639	15.51
540.983	15.71
541.327	15.91
541.671	16.09
542.014	16.3
542.358	16.48
542.701	16.67
543.045	16.85
543.389	17.03
543.732	17.21
544.075	17.44
544.419	17.65
544.762	17.84
545.105	18.04
545.449	18.26
545.792	18.51
546.135	18.76
546.478	19.01
546.821	19.31
547.165	19.59
547.508	19.9
547.851	20.25
548.194	20.52
548.536	20.78
548.879	21.09
549.222	21.38
549.565	21.73
549.908	22.04
550.25	22.34
550.593	22.69
550.936	23.05
551.278	23.36
551.621	23.66
551.963	24.04
552.306	24.4
552.648	24.71
552.991	25.05
553.333	25.4
553.675	25.76
554.017	26.06
554.36	26.35
554.702	26.64
555.044	26.87
555.386	27.16
555.728	27.45
556.07	27.74
556.412	28.05
556.754	28.37
557.096	28.7
557.438	28.98
557.78	29.26
558.121	29.56
558.463	29.91
558.805	30.23
559.147	30.53
559.488	30.83
559.83	31.13
560.171	31.44
560.513	31.73
560.854	31.98
561.196	32.24
561.537	32.55
561.878	32.89
562.22	33.18
562.561	33.47
562.902	33.79
563.243	34.12
563.584	34.44
563.925	34.7
564.266	34.95
564.607	35.25
564.948	35.43
565.289	35.66
565.63	35.81
565.971	36.06
566.312	36.29
566.653	36.53
566.993	36.75
567.334	37
567.675	37.2
568.015	37.39
568.356	37.63
568.696	37.85
569.037	38.06
569.377	38.29
569.718	38.54
570.058	38.75
570.398	38.96
570.739	39.13
571.079	39.31
571.419	39.51
571.759	39.7
572.099	39.94
572.439	40.13
572.779	40.34
573.119	40.5
573.459	40.65
573.799	40.79
574.139	40.93
574.479	41.05
574.819	41.19
575.158	41.39
575.498	41.57
575.838	41.74
576.177	41.89
576.517	42.09
576.856	42.27
577.196	42.5
577.535	42.58
577.875	42.72
578.214	42.86
578.553	43
578.893	43.2
579.232	43.34
579.571	43.45
579.91	43.63
580.25	43.76
580.589	43.87
580.928	44.04
581.267	44.28
581.606	44.35
581.945	44.49
582.283	44.61
582.622	44.74
582.961	44.9
583.3	44.98
583.639	45.15
583.977	45.24
584.316	45.24
584.654	45.46
584.993	45.54
585.332	45.73
585.67	45.9
586.008	45.96
586.347	46.07
586.685	46.18
587.024	46.23
587.362	46.39
587.7	46.55
588.038	46.65
588.376	46.76
588.715	46.96
589.053	47.14
589.391	47.23
589.729	47.27
590.067	47.42
590.404	47.55
590.742	47.56
591.08	47.64
591.418	47.84
591.756	47.85
592.093	48.04
592.431	48.05
592.769	48.17
593.106	48.29
593.444	48.45
593.781	48.58
594.119	48.68
594.456	48.73
594.793	48.8
595.131	48.86
595.468	48.89
595.805	48.93
596.143	48.97
596.48	49.08
596.817	49.23
597.154	49.21
597.491	49.26
597.828	49.32
598.165	49.39
598.502	49.46
598.839	49.52
599.176	49.54
599.512	49.66
599.849	49.74
600.186	49.81
600.523	49.9
600.859	49.94
601.196	49.99
601.532	50.04
601.869	50.17
602.205	50.2
602.542	50.27
602.878	50.42
603.215	50.48
603.551	50.51
603.887	50.5
604.223	50.6
604.56	50.62
604.896	50.74
605.232	50.78
605.568	50.8
605.904	50.92
606.24	51.01
606.576	51.05
606.912	51.03
607.248	51.16
607.583	51.18
607.919	51.26
608.255	51.35
608.591	51.42
608.926	51.47
609.262	51.53
609.597	51.54
609.933	51.5
610.268	51.56
610.604	51.65
610.939	51.71
611.275	51.74
611.61	51.88
611.945	51.79
612.281	51.86
612.616	51.85
612.951	51.86
613.286	51.88
613.621	51.91
613.956	52.01
614.291	51.89
614.626	51.92
614.961	52.02
615.296	52.11
615.631	52.14
615.966	52.15
616.3	52.22
616.635	52.27
616.97	52.32
617.304	52.34
617.639	52.36
617.973	52.47
618.308	52.41
618.642	52.4
618.977	52.46
619.311	52.46
619.646	52.58
619.98	52.6
620.314	52.58
620.648	52.68
620.983	52.6
621.317	52.71
621.651	52.83
621.985	52.88
622.319	52.76
622.653	52.84
622.987	52.81
623.321	52.87
623.655	52.95
623.988	52.91
624.322	53.02
624.656	53.06
624.99	53
625.323	53.18
625.657	53.1
625.99	53.19
626.324	53.26
626.657	53.18
626.991	53.33
627.324	53.36
627.658	53.37
627.991	53.37
628.324	53.39
628.657	53.35
628.991	53.31
629.324	53.43
629.657	53.4
629.99	53.46
630.323	53.46
630.656	53.49
630.989	53.56
631.322	53.5
631.655	53.58
631.987	53.56
632.32	53.56
632.653	53.68
632.986	53.8
633.318	53.79
633.651	53.91
633.984	53.8
634.316	53.81
634.649	53.66
634.981	53.73
635.313	53.7
635.646	53.6
635.978	53.56
636.31	53.56
636.643	53.54
636.975	53.57
637.307	53.66
637.639	53.7
637.971	53.75
638.303	53.77
638.635	53.69
638.967	53.74
639.299	53.56
639.631	53.51
639.963	53.33
640.295	53.35
640.626	53.33
640.958	53.39
641.29	53.48
641.621	53.66
641.953	53.68
642.285	53.77
642.616	53.99
642.948	54.12
643.279	54.28
643.61	54.35
643.942	54.28
644.273	54.3
644.604	54.18
644.936	54.22
645.267	54.24
645.598	54.21
645.929	54.22
646.26	54.34
646.591	54.41
646.922	54.52
647.253	54.44
647.584	54.41
647.915	54.38
648.245	54.47
648.576	54.38
648.907	54.29
649.238	54.36
649.568	54.31
649.899	54.27
650.229	54.26
650.56	54.31
650.89	54.46
651.221	54.4
651.551	54.44
651.882	54.42
652.212	54.45
652.542	54.52
652.872	54.56
653.203	54.62
653.533	54.63
653.863	54.72
654.193	54.81
654.523	54.85
654.853	54.97
655.183	54.81
655.513	54.89
655.843	55.14
656.172	55.14
656.502	55.09
656.832	55.22
657.162	55.13
657.491	55.26
657.821	55.19
658.15	55.21
658.48	55.33
658.809	55.38
659.139	55.4
659.468	55.46
659.798	55.49
660.127	55.45
660.456	55.46
660.785	55.36
661.115	55.34
661.444	55.45
661.773	55.43
662.102	55.46
662.431	55.44
662.76	55.32
663.089	55.28
663.418	55.38
663.747	55.27
664.076	55.25
664.404	55.09
664.733	55.16
665.062	55.14
665.39	55.17
665.719	55.03
666.048	55
666.376	54.95
666.705	54.93
667.033	54.9
667.362	54.95
667.69	54.95
668.018	55.03
