Data from MVZ_BU26842_Reflection_00005.txt Node
Date: Tue Nov 19 12:18:19 EST 2019
User: vgr7
Spectrometer: USB2G7710
Scans to average: 3
Trigger mode: 4
Integration Time (sec): 2.000000E-2
Electric dark correction enabled: true
Boxcar width: 10
XAxis mode: Wavelengths
Number of Pixels in Spectrum: 2048
>>>>>Begin Spectral Data<<<<<
177.721	56.7
178.105	-381.48
178.488	1773.61
178.871	156.79
179.254	1183.33
179.636	877.78
180.019	160.19
180.402	163.64
180.785	-75.93
181.168	52.99
181.55	77.43
181.933	69.81
182.316	65.54
182.698	93.22
183.081	33.88
183.463	110.96
183.846	-224.71
184.228	-253.17
184.611	-28.72
184.993	-21.76
185.376	-2.59
185.758	-3.46
186.14	-2.98
186.522	7.84
186.904	-20.14
187.287	-16.39
187.669	15.42
188.051	27.32
188.433	5.07
188.815	26.45
189.197	17.67
189.579	21.07
189.961	19.3
190.342	31.63
190.724	45.73
191.106	27.73
191.488	73.07
191.869	221.31
192.251	230.95
192.633	187.86
193.014	299.74
193.396	357.75
193.777	334.2
194.159	115.32
194.54	51.63
194.922	73.24
195.303	163.54
195.684	344.95
196.065	170.6
196.447	146.92
196.828	115.55
197.209	111.56
197.59	51.26
197.971	43.88
198.352	32.54
198.733	12.24
199.114	4.99
199.495	-0.39
199.876	-3.18
200.257	-13.9
200.638	-13.66
201.018	-16.97
201.399	-15.56
201.78	-27.39
202.16	-41.19
202.541	-43.65
202.922	-41.01
203.302	-53.17
203.683	-38.54
204.063	-53.38
204.444	-49.4
204.824	-38.74
205.204	-46.91
205.585	-36.92
205.965	-44.64
206.345	-23.82
206.725	-1.11
207.106	9.19
207.486	-7.11
207.866	-12.59
208.246	-4
208.626	-17.33
209.006	-22.79
209.386	-35.94
209.766	-24.72
210.145	-12.55
210.525	-19.09
210.905	-9.96
211.285	-10.7
211.664	-23.63
212.044	-21.96
212.424	-20.12
212.803	-44.51
213.183	-26.97
213.562	-7.37
213.942	1.17
214.321	-23.11
214.701	-66.32
215.08	-98.29
215.459	-66.96
215.838	-89.39
216.218	-109.93
216.597	-88.32
216.976	-91.85
217.355	-84.33
217.734	-122.75
218.113	-92.03
218.492	-44.41
218.871	-40.94
219.25	-30.26
219.629	-57.16
220.008	-27.85
220.387	-30.56
220.766	-17.03
221.144	-20.99
221.523	-35.46
221.902	-18.11
222.28	-2.96
222.659	25.95
223.037	37.77
223.416	44.52
223.794	54.96
224.173	39.07
224.551	36.12
224.929	21.41
225.308	18.4
225.686	18.96
226.064	11.08
226.442	15.25
226.821	13.68
227.199	9.13
227.577	12.84
227.955	10.84
228.333	5.48
228.711	5.34
229.089	4.48
229.467	6.29
229.845	1.31
230.222	1.75
230.6	0.94
230.978	4.52
231.356	6.11
231.733	4.37
232.111	3.72
232.488	5.87
232.866	11.59
233.243	12.22
233.621	12.6
233.998	14.36
234.376	9.65
234.753	10.28
235.13	11.82
235.508	11.7
235.885	10.54
236.262	11.5
236.639	11.07
237.016	10.47
237.393	9.47
237.77	9.51
238.147	7.79
238.524	8.68
238.901	7.15
239.278	4.86
239.655	4.64
240.032	4.7
240.409	4.41
240.785	3.43
241.162	2.53
241.539	3.15
241.915	3.16
242.292	3.87
242.668	4
243.045	4.4
243.421	4.42
243.798	4.54
244.174	4.63
244.551	4.62
244.927	4.71
245.303	4.47
245.679	4.31
246.056	4.27
246.432	3.9
246.808	3.91
247.184	4.1
247.56	4.21
247.936	4.4
248.312	4.56
248.688	4.82
249.064	5.27
249.44	5.02
249.815	4.8
250.191	4.91
250.567	4.75
250.943	4.42
251.318	4.51
251.694	4.3
252.069	4.36
252.445	4.43
252.82	4.27
253.196	4.24
253.571	4.47
253.947	4.54
254.322	4.36
254.697	4.3
255.073	4.29
255.448	4.02
255.823	3.81
256.198	3.61
256.573	3.24
256.948	3.01
257.323	2.85
257.698	2.76
258.073	2.69
258.448	2.99
258.823	2.97
259.198	2.75
259.573	2.77
259.948	2.65
260.322	2.66
260.697	2.87
261.072	3.12
261.446	3.14
261.821	3.2
262.195	3.33
262.57	3.37
262.944	3.48
263.319	3.47
263.693	3.51
264.067	3.48
264.442	3.5
264.816	3.68
265.19	3.65
265.564	3.78
265.938	3.8
266.313	3.49
266.687	3.45
267.061	3.76
267.435	3.83
267.809	3.86
268.183	3.69
268.556	3.34
268.93	3.28
269.304	3.21
269.678	3.34
270.051	3.41
270.425	3.58
270.799	3.18
271.172	3.27
271.546	3.37
271.919	3.4
272.293	3.37
272.666	3.33
273.04	3.37
273.413	3.25
273.787	3.36
274.16	3.37
274.533	3.38
274.906	3.38
275.279	3.35
275.653	3.46
276.026	3.42
276.399	3.72
276.772	3.61
277.145	3.62
277.518	3.35
277.891	3.28
278.263	3.36
278.636	3.85
279.009	3.83
279.382	3.59
279.755	3.69
280.127	3.94
280.5	3.89
280.872	4.06
281.245	4.06
281.617	3.93
281.99	4.06
282.362	3.99
282.735	3.78
283.107	3.89
283.479	3.74
283.852	3.95
284.224	3.87
284.596	3.76
284.968	3.75
285.34	3.88
285.713	3.85
286.085	3.62
286.457	3.39
286.829	3.31
287.201	3.43
287.572	3.4
287.944	3.26
288.316	3.31
288.688	3.26
289.06	3.44
289.431	3.54
289.803	3.64
290.175	3.74
290.546	3.81
290.918	3.75
291.289	3.71
291.661	3.56
292.032	3.62
292.403	3.81
292.775	3.86
293.146	3.89
293.517	3.86
293.889	3.92
294.26	4.13
294.631	4.27
295.002	4.18
295.373	4.14
295.744	4.21
296.115	4.22
296.486	4.16
296.857	3.96
297.228	3.8
297.599	3.63
297.97	3.6
298.34	3.7
298.711	3.67
299.082	3.78
299.452	3.74
299.823	3.61
300.194	3.53
300.564	3.61
300.935	3.66
301.305	3.51
301.676	3.48
302.046	3.33
302.416	3.24
302.787	3.13
303.157	3.09
303.527	3.14
303.897	2.88
304.267	2.96
304.637	3.17
305.008	3.13
305.378	3.23
305.748	3.34
306.117	3.23
306.487	3.19
306.857	3.2
307.227	3.32
307.597	3.26
307.967	3.26
308.336	3.12
308.706	3.06
309.076	3.29
309.445	3.47
309.815	3.56
310.184	3.53
310.554	3.69
310.923	3.75
311.293	3.69
311.662	3.77
312.031	3.69
312.401	3.59
312.77	3.59
313.139	3.52
313.508	3.49
313.877	3.46
314.246	3.46
314.616	3.43
314.985	3.33
315.353	3.65
315.722	3.84
316.091	3.77
316.46	3.75
316.829	3.74
317.198	3.6
317.567	3.43
317.935	3.52
318.304	3.55
318.672	3.57
319.041	3.56
319.41	3.66
319.778	3.62
320.147	3.55
320.515	3.55
320.883	3.54
321.252	3.42
321.62	3.59
321.988	3.65
322.357	3.56
322.725	3.68
323.093	3.56
323.461	3.39
323.829	3.49
324.197	3.48
324.565	3.6
324.933	3.49
325.301	3.47
325.669	3.37
326.037	3.35
326.405	3.28
326.772	3.41
327.14	3.32
327.508	3.39
327.875	3.4
328.243	3.49
328.61	3.55
328.978	3.59
329.346	3.52
329.713	3.61
330.08	3.76
330.448	3.54
330.815	3.46
331.182	3.44
331.55	3.28
331.917	3.28
332.284	3.17
332.651	3.24
333.018	3.3
333.385	3.37
333.752	3.3
334.119	3.28
334.486	3.16
334.853	3.15
335.22	3.01
335.587	3.05
335.954	2.87
336.32	2.8
336.687	2.87
337.054	2.84
337.42	2.73
337.787	2.63
338.153	2.74
338.52	2.66
338.886	2.59
339.253	2.69
339.619	2.65
339.986	2.58
340.352	2.68
340.718	2.8
341.084	2.92
341.451	2.96
341.817	3.09
342.183	3.06
342.549	3.12
342.915	3.12
343.281	3.11
343.647	3.3
344.013	3.45
344.379	3.51
344.745	3.49
345.11	3.48
345.476	3.6
345.842	3.67
346.208	3.7
346.573	3.81
346.939	3.89
347.304	3.84
347.67	3.78
348.035	3.69
348.401	3.7
348.766	3.52
349.132	3.57
349.497	3.57
349.862	3.54
350.228	3.52
350.593	3.67
350.958	3.75
351.323	3.73
351.688	3.59
352.053	3.56
352.418	3.6
352.783	3.6
353.148	3.57
353.513	3.47
353.878	3.56
354.243	3.51
354.608	3.53
354.972	3.51
355.337	3.65
355.702	3.58
356.066	3.54
356.431	3.62
356.795	3.57
357.16	3.62
357.524	3.63
357.889	3.6
358.253	3.47
358.618	3.46
358.982	3.43
359.346	3.42
359.71	3.44
360.075	3.45
360.439	3.53
360.803	3.51
361.167	3.54
361.531	3.44
361.895	3.47
362.259	3.38
362.623	3.47
362.987	3.42
363.351	3.47
363.714	3.47
364.078	3.41
364.442	3.44
364.806	3.42
365.169	3.43
365.533	3.5
365.896	3.56
366.26	3.55
366.623	3.52
366.987	3.54
367.35	3.51
367.714	3.5
368.077	3.48
368.44	3.46
368.803	3.43
369.167	3.43
369.53	3.38
369.893	3.46
370.256	3.46
370.619	3.45
370.982	3.38
371.345	3.35
371.708	3.43
372.071	3.37
372.434	3.32
372.797	3.37
373.159	3.33
373.522	3.29
373.885	3.34
374.247	3.36
374.61	3.41
374.973	3.42
375.335	3.44
375.698	3.41
376.06	3.41
376.423	3.45
376.785	3.54
377.147	3.58
377.51	3.54
377.872	3.55
378.234	3.59
378.596	3.66
378.958	3.66
379.321	3.64
379.683	3.7
380.045	3.69
380.407	3.71
380.769	3.7
381.13	3.77
381.492	3.71
381.854	3.76
382.216	3.75
382.578	3.77
382.939	3.75
383.301	3.79
383.663	3.74
384.024	3.75
384.386	3.72
384.747	3.65
385.109	3.69
385.47	3.65
385.832	3.6
386.193	3.63
386.554	3.56
386.916	3.56
387.277	3.51
387.638	3.54
387.999	3.52
388.36	3.52
388.721	3.5
389.082	3.51
389.443	3.48
389.804	3.46
390.165	3.43
390.526	3.43
390.887	3.4
391.248	3.41
391.609	3.42
391.969	3.44
392.33	3.48
392.691	3.48
393.051	3.49
393.412	3.49
393.772	3.47
394.133	3.51
394.493	3.51
394.854	3.53
395.214	3.5
395.574	3.47
395.935	3.47
396.295	3.52
396.655	3.49
397.015	3.5
397.376	3.51
397.736	3.51
398.096	3.53
398.456	3.52
398.816	3.54
399.176	3.51
399.535	3.47
399.895	3.47
400.255	3.5
400.615	3.51
400.975	3.5
401.334	3.5
401.694	3.49
402.054	3.45
402.413	3.43
402.773	3.44
403.132	3.43
403.492	3.45
403.851	3.42
404.211	3.43
404.57	3.45
404.929	3.43
405.288	3.42
405.648	3.41
406.007	3.42
406.366	3.43
406.725	3.45
407.084	3.44
407.443	3.44
407.802	3.4
408.161	3.41
408.52	3.41
408.879	3.44
409.238	3.45
409.596	3.5
409.955	3.54
410.314	3.56
410.673	3.6
411.031	3.59
411.39	3.64
411.748	3.66
412.107	3.65
412.465	3.65
412.824	3.66
413.182	3.65
413.54	3.64
413.899	3.61
414.257	3.61
414.615	3.63
414.974	3.66
415.332	3.66
415.69	3.65
416.048	3.67
416.406	3.64
416.764	3.64
417.122	3.63
417.48	3.62
417.838	3.61
418.195	3.57
418.553	3.57
418.911	3.54
419.269	3.55
419.626	3.55
419.984	3.57
420.342	3.59
420.699	3.6
421.057	3.61
421.414	3.63
421.772	3.63
422.129	3.62
422.486	3.63
422.844	3.63
423.201	3.62
423.558	3.63
423.915	3.64
424.273	3.65
424.63	3.68
424.987	3.67
425.344	3.69
425.701	3.71
426.058	3.72
426.415	3.7
426.772	3.68
427.128	3.69
427.485	3.67
427.842	3.68
428.199	3.67
428.555	3.66
428.912	3.69
429.269	3.69
429.625	3.7
429.982	3.67
430.338	3.66
430.695	3.65
431.051	3.66
431.407	3.67
431.764	3.69
432.12	3.66
432.476	3.65
432.832	3.61
433.189	3.61
433.545	3.64
433.901	3.67
434.257	3.71
434.613	3.69
434.969	3.7
435.325	3.69
435.681	3.68
436.036	3.7
436.392	3.7
436.748	3.69
437.104	3.7
437.459	3.71
437.815	3.73
438.171	3.76
438.526	3.73
438.882	3.72
439.237	3.7
439.593	3.72
439.948	3.74
440.304	3.75
440.659	3.75
441.014	3.72
441.369	3.72
441.725	3.7
442.08	3.68
442.435	3.69
442.79	3.67
443.145	3.69
443.5	3.7
443.855	3.69
444.21	3.68
444.565	3.68
444.92	3.68
445.275	3.66
445.629	3.62
445.984	3.66
446.339	3.66
446.693	3.67
447.048	3.67
447.403	3.67
447.757	3.67
448.112	3.66
448.466	3.68
448.82	3.69
449.175	3.69
449.529	3.73
449.883	3.72
450.238	3.73
450.592	3.73
450.946	3.71
451.3	3.71
451.654	3.71
452.008	3.71
452.362	3.72
452.716	3.73
453.07	3.74
453.424	3.73
453.778	3.74
454.132	3.72
454.486	3.71
454.839	3.71
455.193	3.73
455.547	3.75
455.9	3.74
456.254	3.75
456.607	3.75
456.961	3.75
457.314	3.75
457.668	3.74
458.021	3.74
458.375	3.73
458.728	3.71
459.081	3.71
459.434	3.71
459.787	3.73
460.141	3.74
460.494	3.77
460.847	3.75
461.2	3.75
461.553	3.75
461.906	3.76
462.259	3.76
462.611	3.74
462.964	3.75
463.317	3.74
463.67	3.74
464.022	3.77
464.375	3.76
464.728	3.76
465.08	3.79
465.433	3.79
465.785	3.81
466.138	3.86
466.49	3.89
466.843	3.92
467.195	3.91
467.547	3.9
467.899	3.88
468.252	3.89
468.604	3.88
468.956	3.91
469.308	3.91
469.66	3.93
470.012	3.94
470.364	3.92
470.716	3.95
471.068	3.95
471.42	3.93
471.772	3.9
472.123	3.91
472.475	3.92
472.827	3.91
473.178	3.9
473.53	3.89
473.882	3.86
474.233	3.84
474.585	3.84
474.936	3.85
475.288	3.88
475.639	3.91
475.99	3.92
476.342	3.94
476.693	3.95
477.044	3.92
477.395	3.95
477.746	3.97
478.097	3.93
478.448	3.94
478.8	3.93
479.15	3.94
479.501	3.94
479.852	3.92
480.203	3.92
480.554	3.94
480.905	3.94
481.255	3.94
481.606	3.97
481.957	3.97
482.307	3.95
482.658	3.94
483.009	3.93
483.359	3.93
483.709	3.92
484.06	3.92
484.41	3.93
484.761	3.94
485.111	3.94
485.461	3.95
485.811	3.94
486.162	3.95
486.512	3.96
486.862	3.96
487.212	3.98
487.562	3.97
487.912	3.96
488.262	3.97
488.612	3.97
488.961	3.97
489.311	3.96
489.661	3.97
490.011	3.97
490.36	3.96
490.71	3.95
491.06	3.93
491.409	3.93
491.759	3.93
492.108	3.92
492.458	3.91
492.807	3.9
493.157	3.9
493.506	3.91
493.855	3.9
494.204	3.9
494.554	3.9
494.903	3.9
495.252	3.9
495.601	3.91
495.95	3.89
496.299	3.88
496.648	3.89
496.997	3.9
497.346	3.92
497.695	3.95
498.043	3.98
498.392	4
498.741	4.01
499.09	4.02
499.438	4.03
499.787	4.01
500.135	4
500.484	4.03
500.832	4.03
501.181	4.02
501.529	4.04
501.878	4.02
502.226	4.05
502.574	4.06
502.923	4.05
503.271	4.08
503.619	4.07
503.967	4.08
504.315	4.06
504.663	4.04
505.011	4.06
505.359	4.02
505.707	4.02
506.055	4.02
506.403	4.03
506.751	4.03
507.098	4.06
507.446	4.09
507.794	4.09
508.141	4.1
508.489	4.11
508.837	4.11
509.184	4.14
509.531	4.13
509.879	4.13
510.226	4.14
510.574	4.13
510.921	4.15
511.268	4.12
511.616	4.16
511.963	4.19
512.31	4.19
512.657	4.2
513.004	4.2
513.351	4.19
513.698	4.17
514.045	4.18
514.392	4.19
514.739	4.19
515.086	4.19
515.432	4.2
515.779	4.2
516.126	4.19
516.473	4.18
516.819	4.2
517.166	4.21
517.512	4.22
517.859	4.22
518.205	4.2
518.552	4.22
518.898	4.2
519.245	4.21
519.591	4.22
519.937	4.24
520.283	4.24
520.629	4.23
520.976	4.24
521.322	4.23
521.668	4.24
522.014	4.25
522.36	4.25
522.706	4.2
523.052	4.21
523.398	4.24
523.743	4.23
524.089	4.21
524.435	4.22
524.781	4.21
525.126	4.21
525.472	4.23
525.817	4.25
526.163	4.26
526.509	4.25
526.854	4.24
527.199	4.25
527.545	4.25
527.89	4.27
528.235	4.28
528.581	4.28
528.926	4.27
529.271	4.27
529.616	4.28
529.961	4.3
530.306	4.3
530.651	4.28
530.996	4.3
531.341	4.31
531.686	4.3
532.031	4.32
532.376	4.33
532.721	4.33
533.065	4.32
533.41	4.32
533.755	4.32
534.099	4.32
534.444	4.31
534.788	4.31
535.133	4.3
535.477	4.3
535.822	4.3
536.166	4.29
536.51	4.29
536.855	4.28
537.199	4.28
537.543	4.3
537.887	4.3
538.231	4.29
538.576	4.29
538.92	4.31
539.264	4.31
539.608	4.31
539.951	4.31
540.295	4.32
540.639	4.31
540.983	4.32
541.327	4.32
541.671	4.32
542.014	4.34
542.358	4.34
542.701	4.35
543.045	4.35
543.389	4.35
543.732	4.36
544.075	4.36
544.419	4.38
544.762	4.36
545.105	4.39
545.449	4.4
545.792	4.4
546.135	4.4
546.478	4.39
546.821	4.38
547.165	4.38
547.508	4.38
547.851	4.39
548.194	4.39
548.536	4.38
548.879	4.43
549.222	4.42
549.565	4.41
549.908	4.42
550.25	4.42
550.593	4.43
550.936	4.43
551.278	4.43
551.621	4.44
551.963	4.47
552.306	4.46
552.648	4.43
552.991	4.42
553.333	4.4
553.675	4.43
554.017	4.44
554.36	4.45
554.702	4.43
555.044	4.42
555.386	4.42
555.728	4.46
556.07	4.44
556.412	4.41
556.754	4.42
557.096	4.42
557.438	4.44
557.78	4.44
558.121	4.46
558.463	4.47
558.805	4.44
559.147	4.4
559.488	4.41
559.83	4.41
560.171	4.45
560.513	4.47
560.854	4.44
561.196	4.48
561.537	4.48
561.878	4.51
562.22	4.49
562.561	4.49
562.902	4.5
563.243	4.49
563.584	4.54
563.925	4.56
564.266	4.56
564.607	4.57
564.948	4.56
565.289	4.56
565.63	4.57
565.971	4.57
566.312	4.57
566.653	4.58
566.993	4.58
567.334	4.59
567.675	4.59
568.015	4.58
568.356	4.56
568.696	4.57
569.037	4.54
569.377	4.55
569.718	4.56
570.058	4.54
570.398	4.54
570.739	4.5
571.079	4.49
571.419	4.5
571.759	4.47
572.099	4.49
572.439	4.47
572.779	4.45
573.119	4.46
573.459	4.47
573.799	4.48
574.139	4.47
574.479	4.42
574.819	4.43
575.158	4.47
575.498	4.46
575.838	4.46
576.177	4.48
576.517	4.49
576.856	4.48
577.196	4.51
577.535	4.51
577.875	4.52
578.214	4.53
578.553	4.51
578.893	4.5
579.232	4.48
579.571	4.52
579.91	4.53
580.25	4.5
580.589	4.49
580.928	4.45
581.267	4.49
581.606	4.51
581.945	4.5
582.283	4.47
582.622	4.47
582.961	4.48
583.3	4.48
583.639	4.48
583.977	4.5
584.316	4.48
584.654	4.49
584.993	4.53
585.332	4.57
585.67	4.59
586.008	4.62
586.347	4.61
586.685	4.55
587.024	4.61
587.362	4.68
587.7	4.73
588.038	4.78
588.376	4.8
588.715	4.82
589.053	4.84
589.391	4.86
589.729	4.88
590.067	4.9
590.404	4.92
590.742	4.91
591.08	4.9
591.418	4.89
591.756	4.91
592.093	4.9
592.431	4.87
592.769	4.85
593.106	4.85
593.444	4.91
593.781	4.98
594.119	4.95
594.456	4.92
594.793	4.89
595.131	4.89
595.468	4.88
595.805	4.89
596.143	4.92
596.48	4.92
596.817	4.87
597.154	4.85
597.491	4.87
597.828	4.86
598.165	4.88
598.502	4.91
598.839	4.87
599.176	4.84
599.512	4.84
599.849	4.85
600.186	4.83
600.523	4.81
600.859	4.78
601.196	4.79
601.532	4.78
601.869	4.75
602.205	4.71
602.542	4.67
602.878	4.67
603.215	4.61
603.551	4.6
603.887	4.62
604.223	4.64
604.56	4.62
604.896	4.65
605.232	4.65
605.568	4.64
605.904	4.68
606.24	4.71
606.576	4.71
606.912	4.72
607.248	4.74
607.583	4.74
607.919	4.74
608.255	4.76
608.591	4.78
608.926	4.81
609.262	4.85
609.597	4.87
609.933	4.86
610.268	4.9
610.604	4.9
610.939	4.91
611.275	4.89
611.61	4.91
611.945	4.9
612.281	4.91
612.616	4.92
612.951	4.91
613.286	4.89
613.621	4.89
613.956	4.92
614.291	4.89
614.626	4.89
614.961	4.85
615.296	4.86
615.631	4.87
615.966	4.83
616.3	4.83
616.635	4.83
616.97	4.83
617.304	4.78
617.639	4.83
617.973	4.86
618.308	4.9
618.642	4.92
618.977	4.93
619.311	4.9
619.646	4.89
619.98	4.92
620.314	4.94
620.648	4.94
620.983	4.94
621.317	5
621.651	5.03
621.985	5.06
622.319	5.07
622.653	5.07
622.987	5.15
623.321	5.14
623.655	5.14
623.988	5.21
624.322	5.28
624.656	5.26
624.99	5.25
625.323	5.27
625.657	5.25
625.99	5.29
626.324	5.27
626.657	5.26
626.991	5.24
627.324	5.2
627.658	5.19
627.991	5.2
628.324	5.21
628.657	5.22
628.991	5.26
629.324	5.25
629.657	5.21
629.99	5.18
630.323	5.17
630.656	5.2
630.989	5.16
631.322	5.12
631.655	5.12
631.987	5.1
632.32	5.09
632.653	5.09
632.986	5.07
633.318	5.11
633.651	5.09
633.984	5.15
634.316	5.18
634.649	5.21
634.981	5.14
635.313	5.15
635.646	5.11
635.978	5.16
636.31	5.17
636.643	5.23
636.975	5.29
637.307	5.34
637.639	5.29
637.971	5.36
638.303	5.36
638.635	5.39
638.967	5.44
639.299	5.38
639.631	5.41
639.963	5.38
640.295	5.41
640.626	5.54
640.958	5.46
641.29	5.49
641.621	5.47
641.953	5.54
642.285	5.56
642.616	5.59
642.948	5.46
643.279	5.4
643.61	5.43
643.942	5.39
644.273	5.32
644.604	5.37
644.936	5.28
645.267	5.31
645.598	5.32
645.929	5.27
646.26	5.32
646.591	5.29
646.922	5.34
647.253	5.33
647.584	5.21
647.915	5.21
648.245	5.22
648.576	5.25
648.907	5.23
649.238	5.1
649.568	5.09
649.899	5.1
650.229	5.17
650.56	5.13
650.89	5.18
651.221	5.26
651.551	5.26
651.882	5.27
652.212	5.25
652.542	5.3
652.872	5.37
653.203	5.39
653.533	5.4
653.863	5.39
654.193	5.42
654.523	5.42
654.853	5.48
655.183	5.51
655.513	5.55
655.843	5.6
656.172	5.7
656.502	5.72
656.832	5.73
657.162	5.67
657.491	5.74
657.821	5.66
658.15	5.63
658.48	5.61
658.809	5.59
659.139	5.61
659.468	5.51
659.798	5.53
660.127	5.49
660.456	5.42
660.785	5.48
661.115	5.51
661.444	5.55
661.773	5.56
662.102	5.59
662.431	5.56
662.76	5.57
663.089	5.55
663.418	5.61
663.747	5.63
664.076	5.62
664.404	5.59
664.733	5.57
665.062	5.61
665.39	5.64
665.719	5.74
666.048	5.76
666.376	5.82
666.705	5.84
667.033	5.9
667.362	6.01
667.69	6.03
668.018	6.04
668.347	5.99
668.675	5.97
669.003	5.92
669.331	6.02
669.659	5.92
669.987	5.96
670.315	5.93
670.643	5.9
670.971	6
671.299	5.93
671.627	6.01
671.955	5.96
672.283	5.89
672.61	5.92
672.938	5.94
673.266	5.91
673.593	5.92
673.921	5.86
674.249	5.79
674.576	5.73
674.904	5.62
675.231	5.65
675.558	5.68
675.886	5.7
676.213	5.6
676.54	5.71
676.867	5.76
677.195	5.77
677.522	5.75
677.849	5.7
678.176	5.74
