Data from MVZ_BU26842_Reflection_00014.txt Node
Date: Tue Nov 19 12:18:39 EST 2019
User: vgr7
Spectrometer: USB2G7710
Scans to average: 3
Trigger mode: 4
Integration Time (sec): 2.000000E-2
Electric dark correction enabled: true
Boxcar width: 10
XAxis mode: Wavelengths
Number of Pixels in Spectrum: 2048
>>>>>Begin Spectral Data<<<<<
177.721	-51.14
178.105	-325.93
178.488	356.94
178.871	-17.28
179.254	283.33
179.636	-1288.89
180.019	-534.26
180.402	127.27
180.785	112.96
181.168	-68.8
181.55	46.18
181.933	19.08
182.316	-5.89
182.698	-52.13
183.081	-25.91
183.463	-33.77
183.846	85.63
184.228	199.21
184.611	47.17
184.993	44.91
185.376	41.53
185.758	49.68
186.14	39.88
186.522	74.06
186.904	117.36
187.287	65.13
187.669	92.92
188.051	68.42
188.433	87.54
188.815	92.77
189.197	84.21
189.579	112.42
189.961	88.47
190.342	102.05
190.724	117.16
191.106	98.27
191.488	191.97
191.869	417.51
192.251	367.32
192.633	372.64
193.014	529.89
193.396	706.59
193.777	541.09
194.159	273.41
194.54	268.41
194.922	343.88
195.303	526.04
195.684	1102.53
196.065	510.88
196.447	306.58
196.828	276
197.209	242.94
197.59	174.03
197.971	154.77
198.352	116.79
198.733	95.29
199.114	135.34
199.495	95.25
199.876	72.73
200.257	70.34
200.638	51.79
201.018	48.13
201.399	56.96
201.78	44.23
202.16	40.24
202.541	23.21
202.922	11.25
203.302	-6.3
203.683	-7.29
204.063	-12.8
204.444	4.31
204.824	-7.58
205.204	0.77
205.585	1.43
205.965	-4.83
206.345	-20.27
206.725	-16.84
207.106	-22.47
207.486	-5.64
207.866	-17.29
208.246	3.91
208.626	-7.41
209.006	-2.54
209.386	-6.04
209.766	10.28
210.145	13.36
210.525	24.46
210.905	41.16
211.285	46.99
211.664	73.38
212.044	55.29
212.424	55.13
212.803	70.57
213.183	58.48
213.562	63.78
213.942	75.55
214.321	75.65
214.701	66.6
215.08	80.28
215.459	70.05
215.838	94.4
216.218	119.58
216.597	120.02
216.976	94.96
217.355	76
217.734	75.37
218.113	100.52
218.492	72.06
218.871	67.75
219.25	64.34
219.629	43.39
220.008	53.35
220.387	52.78
220.766	38.93
221.144	48.05
221.523	32.44
221.902	28.88
222.28	32.53
222.659	33.69
223.037	19.68
223.416	-6.9
223.794	-2.18
224.173	1.39
224.551	2.03
224.929	3.38
225.308	9.59
225.686	7.27
226.064	0.11
226.442	7.37
226.821	2.81
227.199	1.18
227.577	3.4
227.955	6.35
228.333	8.01
228.711	10.69
229.089	9.89
229.467	10.63
229.845	8.99
230.222	9.52
230.6	10.47
230.978	14.01
231.356	17.52
231.733	16.62
232.111	16.15
232.488	17.57
232.866	19.14
233.243	18.12
233.621	19.32
233.998	17.27
234.376	14.62
234.753	14.09
235.13	15.97
235.508	13.23
235.885	12.41
236.262	11.1
236.639	8.79
237.016	8.72
237.393	8.67
237.77	8.79
238.147	8.44
238.524	6.81
238.901	5.32
239.278	4.08
239.655	2.74
240.032	2.36
240.409	2.7
240.785	2.64
241.162	2.93
241.539	3.15
241.915	3.46
242.292	3.64
242.668	3.85
243.045	3.25
243.421	3.84
243.798	3.68
244.174	3.88
244.551	4.2
244.927	3.79
245.303	3.43
245.679	3.38
246.056	3.6
246.432	3.9
246.808	4.02
247.184	3.96
247.56	4.18
247.936	4.32
248.312	4.22
248.688	4.46
249.064	4.46
249.44	4.2
249.815	4.29
250.191	4.22
250.567	4.18
250.943	4.39
251.318	4.11
251.694	3.86
252.069	3.87
252.445	3.95
252.82	4.49
253.196	4.68
253.571	4.79
253.947	4.57
254.322	4.42
254.697	4.5
255.073	4.33
255.448	4.12
255.823	4.08
256.198	3.89
256.573	3.61
256.948	3.53
257.323	3.7
257.698	3.85
258.073	3.83
258.448	3.83
258.823	3.63
259.198	3.74
259.573	3.82
259.948	3.87
260.322	3.59
260.697	3.5
261.072	3.54
261.446	3.57
261.821	3.37
262.195	3.35
262.57	3.37
262.944	3.46
263.319	3.7
263.693	3.53
264.067	3.51
264.442	3.55
264.816	3.35
265.19	3.26
265.564	3.18
265.938	3.16
266.313	3.22
266.687	3.28
267.061	3.31
267.435	3.6
267.809	3.15
268.183	3.34
268.556	3.32
268.93	3.24
269.304	3.03
269.678	3.26
270.051	3.32
270.425	3.29
270.799	3.2
271.172	2.94
271.546	3.16
271.919	3
272.293	2.83
272.666	3.06
273.04	3.06
273.413	2.99
273.787	2.88
274.16	2.75
274.533	2.88
274.906	2.67
275.279	2.64
275.653	2.83
276.026	2.7
276.399	2.74
276.772	2.7
277.145	2.86
277.518	2.79
277.891	2.9
278.263	2.79
278.636	3.08
279.009	3.24
279.382	3.13
279.755	3.33
280.127	3.31
280.5	3.05
280.872	2.93
281.245	2.89
281.617	3
281.99	3
282.362	2.89
282.735	3.06
283.107	2.95
283.479	2.97
283.852	3.09
284.224	3.11
284.596	3.21
284.968	3.24
285.34	3.36
285.713	3.33
286.085	3.37
286.457	3.18
286.829	3.13
287.201	3.26
287.572	3.25
287.944	3.53
288.316	3.7
288.688	3.8
289.06	3.91
289.431	4.05
289.803	4.2
290.175	4.2
290.546	4.26
290.918	4.36
291.289	4.36
291.661	4.38
292.032	4.34
292.403	4.36
292.775	4.38
293.146	4.31
293.517	4.22
293.889	4.21
294.26	4.23
294.631	4.44
295.002	4.24
295.373	4.24
295.744	4.04
296.115	3.99
296.486	4.03
296.857	4
297.228	3.87
297.599	3.76
297.97	3.87
298.34	3.88
298.711	3.86
299.082	3.96
299.452	3.87
299.823	3.84
300.194	3.76
300.564	3.66
300.935	3.76
301.305	3.79
301.676	3.75
302.046	4.02
302.416	3.89
302.787	3.94
303.157	3.92
303.527	4.07
303.897	4.05
304.267	4.06
304.637	4.12
305.008	4.25
305.378	4.41
305.748	4.25
306.117	4.24
306.487	4.38
306.857	4.34
307.227	4.49
307.597	4.42
307.967	4.44
308.336	4.45
308.706	4.35
309.076	4.53
309.445	4.57
309.815	4.54
310.184	4.49
310.554	4.63
310.923	4.76
311.293	4.74
311.662	4.86
312.031	4.72
312.401	4.62
312.77	4.68
313.139	4.64
313.508	4.87
313.877	4.89
314.246	4.67
314.616	4.71
314.985	4.63
315.353	4.79
315.722	4.82
316.091	4.97
316.46	5.04
316.829	5.02
317.198	5.22
317.567	5.21
317.935	5.4
318.304	5.52
318.672	5.59
319.041	5.6
319.41	5.66
319.778	5.88
320.147	5.9
320.515	5.88
320.883	6.05
321.252	6.15
321.62	6.06
321.988	6.39
322.357	6.47
322.725	6.54
323.093	6.49
323.461	6.53
323.829	6.53
324.197	6.54
324.565	6.53
324.933	6.51
325.301	6.33
325.669	6.39
326.037	6.43
326.405	6.45
326.772	6.52
327.14	6.47
327.508	6.57
327.875	6.65
328.243	6.64
328.61	6.58
328.978	6.49
329.346	6.57
329.713	6.41
330.08	6.32
330.448	6.46
330.815	6.53
331.182	6.59
331.55	6.58
331.917	6.76
332.284	6.86
332.651	6.9
333.018	7.01
333.385	6.85
333.752	6.79
334.119	6.8
334.486	6.8
334.853	6.93
335.22	6.86
335.587	6.88
335.954	6.91
336.32	6.97
336.687	7.08
337.054	7.21
337.42	7.31
337.787	7.37
338.153	7.39
338.52	7.59
338.886	7.62
339.253	7.66
339.619	7.62
339.986	7.44
340.352	7.4
340.718	7.45
341.084	7.55
341.451	7.64
341.817	7.55
342.183	7.58
342.549	7.62
342.915	7.64
343.281	7.66
343.647	7.76
344.013	7.76
344.379	7.61
344.745	7.58
345.11	7.56
345.476	7.53
345.842	7.47
346.208	7.47
346.573	7.53
346.939	7.57
347.304	7.67
347.67	7.79
348.035	7.84
348.401	7.86
348.766	7.82
349.132	7.75
349.497	7.87
349.862	7.83
350.228	7.73
350.593	7.7
350.958	7.77
351.323	7.63
351.688	7.61
352.053	7.7
352.418	7.71
352.783	7.72
353.148	7.77
353.513	7.81
353.878	7.58
354.243	7.46
354.608	7.44
354.972	7.31
355.337	7.32
355.702	7.26
356.066	7.32
356.431	7.36
356.795	7.38
357.16	7.34
357.524	7.34
357.889	7.35
358.253	7.33
358.618	7.25
358.982	7.26
359.346	7.18
359.71	7.15
360.075	7.15
360.439	7.13
360.803	7.14
361.167	7.11
361.531	7.14
361.895	7.13
362.259	7.17
362.623	7.15
362.987	7.08
363.351	7.06
363.714	7.04
364.078	7.06
364.442	7
364.806	7.01
365.169	7.01
365.533	7.01
365.896	7.05
366.26	7.01
366.623	6.99
366.987	7.12
367.35	7.16
367.714	7.04
368.077	7.06
368.44	7.04
368.803	6.94
369.167	6.97
369.53	6.96
369.893	6.9
370.256	6.87
370.619	6.86
370.982	6.84
371.345	6.83
371.708	6.78
372.071	6.74
372.434	6.69
372.797	6.66
373.159	6.62
373.522	6.52
373.885	6.54
374.247	6.51
374.61	6.38
374.973	6.3
375.335	6.38
375.698	6.3
376.06	6.24
376.423	6.31
376.785	6.25
377.147	6.2
377.51	6.14
377.872	6.16
378.234	6.16
378.596	6.04
378.958	5.94
379.321	5.87
379.683	5.84
380.045	5.78
380.407	5.82
380.769	5.72
381.13	5.72
381.492	5.66
381.854	5.59
382.216	5.6
382.578	5.6
382.939	5.54
383.301	5.54
383.663	5.51
384.024	5.44
384.386	5.44
384.747	5.41
385.109	5.34
385.47	5.3
385.832	5.25
386.193	5.3
386.554	5.25
386.916	5.21
387.277	5.21
387.638	5.2
387.999	5.08
388.36	5.06
388.721	5.05
389.082	5.08
389.443	5.09
389.804	5.04
390.165	5
390.526	5
390.887	5
391.248	4.95
391.609	4.92
391.969	4.88
392.33	4.86
392.691	4.9
393.051	4.83
393.412	4.82
393.772	4.77
394.133	4.79
394.493	4.77
394.854	4.76
395.214	4.75
395.574	4.72
395.935	4.72
396.295	4.68
396.655	4.64
397.015	4.65
397.376	4.62
397.736	4.58
398.096	4.53
398.456	4.46
398.816	4.45
399.176	4.37
399.535	4.38
399.895	4.33
400.255	4.27
400.615	4.3
400.975	4.25
401.334	4.29
401.694	4.25
402.054	4.26
402.413	4.18
402.773	4.16
403.132	4.15
403.492	4.15
403.851	4.12
404.211	4.06
404.57	4
404.929	3.97
405.288	3.96
405.648	3.96
406.007	3.94
406.366	3.93
406.725	3.97
407.084	3.93
407.443	3.93
407.802	3.94
408.161	3.93
408.52	3.92
408.879	3.89
409.238	3.92
409.596	3.89
409.955	3.88
410.314	3.86
410.673	3.87
411.031	3.84
411.39	3.85
411.748	3.89
412.107	3.85
412.465	3.87
412.824	3.87
413.182	3.85
413.54	3.86
413.899	3.86
414.257	3.83
414.615	3.8
414.974	3.8
415.332	3.8
415.69	3.77
416.048	3.79
416.406	3.74
416.764	3.72
417.122	3.7
417.48	3.7
417.838	3.7
418.195	3.69
418.553	3.68
418.911	3.66
419.269	3.65
419.626	3.67
419.984	3.65
420.342	3.64
420.699	3.64
421.057	3.63
421.414	3.63
421.772	3.65
422.129	3.63
422.486	3.62
422.844	3.6
423.201	3.58
423.558	3.55
423.915	3.56
424.273	3.54
424.63	3.52
424.987	3.53
425.344	3.52
425.701	3.51
426.058	3.52
426.415	3.51
426.772	3.49
427.128	3.49
427.485	3.49
427.842	3.49
428.199	3.48
428.555	3.44
428.912	3.42
429.269	3.4
429.625	3.41
429.982	3.43
430.338	3.42
430.695	3.41
431.051	3.43
431.407	3.44
431.764	3.42
432.12	3.45
432.476	3.46
432.832	3.48
433.189	3.47
433.545	3.45
433.901	3.47
434.257	3.47
434.613	3.43
434.969	3.45
435.325	3.44
435.681	3.45
436.036	3.46
436.392	3.48
436.748	3.49
437.104	3.51
437.459	3.49
437.815	3.5
438.171	3.51
438.526	3.52
438.882	3.5
439.237	3.49
439.593	3.5
439.948	3.49
440.304	3.49
440.659	3.51
441.014	3.51
441.369	3.51
441.725	3.51
442.08	3.52
442.435	3.5
442.79	3.5
443.145	3.48
443.5	3.48
443.855	3.47
444.21	3.46
444.565	3.45
444.92	3.48
445.275	3.48
445.629	3.48
445.984	3.47
446.339	3.47
446.693	3.48
447.048	3.46
447.403	3.45
447.757	3.43
448.112	3.42
448.466	3.41
448.82	3.41
449.175	3.42
449.529	3.41
449.883	3.42
450.238	3.4
450.592	3.42
450.946	3.38
451.3	3.38
451.654	3.36
452.008	3.34
452.362	3.32
452.716	3.31
453.07	3.32
453.424	3.3
453.778	3.3
454.132	3.31
454.486	3.32
454.839	3.31
455.193	3.32
455.547	3.32
455.9	3.35
456.254	3.35
456.607	3.35
456.961	3.37
457.314	3.37
457.668	3.39
458.021	3.38
458.375	3.41
458.728	3.41
459.081	3.41
459.434	3.43
459.787	3.42
460.141	3.44
460.494	3.42
460.847	3.41
461.2	3.42
461.553	3.42
461.906	3.42
462.259	3.42
462.611	3.43
462.964	3.42
463.317	3.42
463.67	3.42
464.022	3.42
464.375	3.42
464.728	3.42
465.08	3.42
465.433	3.43
465.785	3.43
466.138	3.44
466.49	3.48
466.843	3.49
467.195	3.48
467.547	3.49
467.899	3.52
468.252	3.53
468.604	3.53
468.956	3.54
469.308	3.54
469.66	3.57
470.012	3.56
470.364	3.57
470.716	3.58
471.068	3.61
471.42	3.64
471.772	3.63
472.123	3.65
472.475	3.64
472.827	3.64
473.178	3.65
473.53	3.67
473.882	3.65
474.233	3.65
474.585	3.68
474.936	3.67
475.288	3.67
475.639	3.69
475.99	3.7
476.342	3.72
476.693	3.73
477.044	3.73
477.395	3.74
477.746	3.72
478.097	3.72
478.448	3.7
478.8	3.67
479.15	3.67
479.501	3.66
479.852	3.67
480.203	3.67
480.554	3.67
480.905	3.64
481.255	3.64
481.606	3.65
481.957	3.65
482.307	3.66
482.658	3.66
483.009	3.65
483.359	3.65
483.709	3.64
484.06	3.64
484.41	3.64
484.761	3.64
485.111	3.64
485.461	3.64
485.811	3.64
486.162	3.63
486.512	3.64
486.862	3.64
487.212	3.64
487.562	3.63
487.912	3.63
488.262	3.64
488.612	3.64
488.961	3.63
489.311	3.62
489.661	3.62
490.011	3.61
490.36	3.61
490.71	3.6
491.06	3.61
491.409	3.61
491.759	3.62
492.108	3.62
492.458	3.63
492.807	3.64
493.157	3.66
493.506	3.67
493.855	3.68
494.204	3.69
494.554	3.69
494.903	3.71
495.252	3.74
495.601	3.76
495.95	3.78
496.299	3.81
496.648	3.85
496.997	3.87
497.346	3.92
497.695	3.96
498.043	4
498.392	4.03
498.741	4.05
499.09	4.07
499.438	4.1
499.787	4.15
500.135	4.2
500.484	4.23
500.832	4.28
501.181	4.33
501.529	4.37
501.878	4.45
502.226	4.52
502.574	4.56
502.923	4.62
503.271	4.68
503.619	4.77
503.967	4.82
504.315	4.91
504.663	4.97
505.011	5.06
505.359	5.15
505.707	5.24
506.055	5.33
506.403	5.44
506.751	5.52
507.098	5.62
507.446	5.7
507.794	5.8
508.141	5.9
508.489	6.02
508.837	6.1
509.184	6.2
509.531	6.28
509.879	6.39
510.226	6.49
510.574	6.62
510.921	6.72
511.268	6.83
511.616	6.95
511.963	7.1
512.31	7.21
512.657	7.34
513.004	7.47
513.351	7.63
513.698	7.78
514.045	7.96
514.392	8.11
514.739	8.27
515.086	8.44
515.432	8.61
515.779	8.77
516.126	8.97
516.473	9.15
516.819	9.33
517.166	9.5
517.512	9.66
517.859	9.79
518.205	9.96
518.552	10.1
518.898	10.25
519.245	10.4
519.591	10.55
519.937	10.69
520.283	10.83
520.629	10.98
520.976	11.16
521.322	11.34
521.668	11.52
522.014	11.73
522.36	11.94
522.706	12.15
523.052	12.4
523.398	12.59
523.743	12.84
524.089	13.1
524.435	13.36
524.781	13.58
525.126	13.81
525.472	13.98
525.817	14.18
526.163	14.36
526.509	14.52
526.854	14.66
527.199	14.84
527.545	15.01
527.89	15.17
528.235	15.32
528.581	15.46
528.926	15.61
529.271	15.76
529.616	15.92
529.961	16.09
530.306	16.23
530.651	16.42
530.996	16.61
531.341	16.77
531.686	16.95
532.031	17.14
532.376	17.35
532.721	17.57
533.065	17.79
533.41	18.01
533.755	18.26
534.099	18.53
534.444	18.78
534.788	19.01
535.133	19.23
535.477	19.48
535.822	19.75
536.166	20.02
536.51	20.33
536.855	20.62
537.199	20.93
537.543	21.29
537.887	21.64
538.231	21.95
538.576	22.3
538.92	22.64
539.264	22.94
539.608	23.22
539.951	23.46
540.295	23.76
540.639	23.99
540.983	24.22
541.327	24.42
541.671	24.6
542.014	24.84
542.358	25.06
542.701	25.28
543.045	25.52
543.389	25.74
543.732	25.96
544.075	26.21
544.419	26.48
544.762	26.71
545.105	26.94
545.449	27.18
545.792	27.41
546.135	27.65
546.478	27.93
546.821	28.26
547.165	28.61
547.508	28.86
547.851	29.18
548.194	29.49
548.536	29.82
548.879	30.15
549.222	30.43
549.565	30.78
549.908	31.05
550.25	31.31
550.593	31.63
550.936	31.92
551.278	32.2
551.621	32.43
551.963	32.67
552.306	32.93
552.648	33.2
552.991	33.49
553.333	33.71
553.675	33.97
554.017	34.21
554.36	34.43
554.702	34.63
555.044	34.89
555.386	35.1
555.728	35.32
556.07	35.53
556.412	35.75
556.754	35.9
557.096	36.13
557.438	36.32
557.78	36.54
558.121	36.81
558.463	37.05
558.805	37.24
559.147	37.49
559.488	37.66
559.83	37.91
560.171	38.11
560.513	38.33
560.854	38.52
561.196	38.69
561.537	38.93
561.878	39.1
562.22	39.25
562.561	39.39
562.902	39.53
563.243	39.67
563.584	39.85
563.925	40.01
564.266	40.19
564.607	40.37
564.948	40.48
565.289	40.57
565.63	40.68
565.971	40.8
566.312	40.94
566.653	41.02
566.993	41.15
567.334	41.28
567.675	41.43
568.015	41.59
568.356	41.68
568.696	41.81
569.037	41.94
569.377	42.06
569.718	42.17
570.058	42.32
570.398	42.46
570.739	42.54
571.079	42.73
571.419	42.87
571.759	43.02
572.099	43.12
572.439	43.21
572.779	43.29
573.119	43.41
573.459	43.51
573.799	43.64
574.139	43.71
574.479	43.76
574.819	43.89
575.158	43.98
575.498	44.05
575.838	44.1
576.177	44.17
576.517	44.28
576.856	44.41
577.196	44.46
577.535	44.62
577.875	44.7
578.214	44.73
578.553	44.82
578.893	44.91
579.232	45
579.571	45.1
579.91	45.21
580.25	45.33
580.589	45.39
580.928	45.52
581.267	45.58
581.606	45.73
581.945	45.77
582.283	45.84
582.622	45.94
582.961	46.02
583.3	46.12
583.639	46.15
583.977	46.18
584.316	46.29
584.654	46.35
584.993	46.47
585.332	46.56
585.67	46.63
586.008	46.68
586.347	46.89
586.685	46.97
587.024	47.07
587.362	47.11
587.7	47.22
588.038	47.29
588.376	47.51
588.715	47.54
589.053	47.62
589.391	47.67
589.729	47.79
590.067	47.89
590.404	47.99
590.742	48.09
591.08	48.16
591.418	48.23
591.756	48.29
592.093	48.36
592.431	48.37
592.769	48.38
593.106	48.43
593.444	48.45
593.781	48.48
594.119	48.48
594.456	48.49
594.793	48.51
595.131	48.6
595.468	48.55
595.805	48.61
596.143	48.68
596.48	48.74
596.817	48.77
597.154	48.78
597.491	48.8
597.828	48.85
598.165	48.97
598.502	49.01
598.839	49.11
599.176	49.15
599.512	49.15
599.849	49.24
600.186	49.3
600.523	49.34
600.859	49.42
601.196	49.52
601.532	49.62
601.869	49.69
602.205	49.68
602.542	49.68
602.878	49.78
603.215	49.72
603.551	49.69
603.887	49.73
604.223	49.85
604.56	49.87
604.896	49.88
605.232	49.93
605.568	50
605.904	49.96
606.24	49.96
606.576	50.1
606.912	50.14
607.248	50.14
607.583	50.16
607.919	50.16
608.255	50.17
608.591	50.16
608.926	50.1
609.262	50.19
609.597	50.29
609.933	50.26
610.268	50.36
610.604	50.45
610.939	50.49
611.275	50.43
611.61	50.5
611.945	50.51
612.281	50.6
612.616	50.7
612.951	50.81
613.286	50.91
613.621	50.93
613.956	51.03
614.291	51.14
614.626	51.17
614.961	51.24
615.296	51.22
615.631	51.2
615.966	51.28
616.3	51.17
616.635	51.24
616.97	51.28
617.304	51.29
617.639	51.43
617.973	51.52
618.308	51.62
618.642	51.57
618.977	51.65
619.311	51.51
619.646	51.44
619.98	51.42
620.314	51.44
620.648	51.46
620.983	51.48
621.317	51.48
621.651	51.54
621.985	51.53
622.319	51.68
622.653	51.8
622.987	51.89
623.321	52
623.655	51.97
623.988	52.01
624.322	52.06
624.656	52.05
624.99	52.02
625.323	51.98
625.657	52
625.99	52.04
626.324	52.12
626.657	52.16
626.991	52.15
627.324	52.16
627.658	52.13
627.991	52.09
628.324	52.08
628.657	52.04
628.991	52.07
629.324	52.01
629.657	52.01
629.99	51.96
630.323	52.09
630.656	52.15
630.989	52.14
631.322	52.06
631.655	52.01
631.987	52.09
632.32	52.16
632.653	52.23
632.986	52.18
633.318	52.15
633.651	52.15
633.984	52.26
634.316	52.33
634.649	52.37
634.981	52.43
635.313	52.49
635.646	52.53
635.978	52.69
636.31	52.72
636.643	52.86
636.975	52.99
637.307	53.01
637.639	52.96
637.971	52.99
638.303	53.13
638.635	53.16
638.967	53.07
639.299	53.16
639.631	53.08
639.963	53.17
640.295	53.29
640.626	53.39
640.958	53.34
641.29	53.29
641.621	53.33
641.953	53.29
642.285	53.31
642.616	53.31
642.948	53.2
643.279	53.23
643.61	53.26
643.942	53.2
644.273	53.23
644.604	53.38
644.936	53.4
645.267	53.36
645.598	53.45
645.929	53.42
646.26	53.3
646.591	53.4
646.922	53.42
647.253	53.36
647.584	53.26
647.915	53.24
648.245	53.27
648.576	53.22
648.907	53.31
649.238	53.29
649.568	53.27
649.899	53.41
650.229	53.39
650.56	53.34
650.89	53.33
651.221	53.25
651.551	53.21
651.882	53.24
652.212	53.13
652.542	53.15
652.872	53.3
653.203	53.3
653.533	53.41
653.863	53.37
654.193	53.52
654.523	53.6
654.853	53.8
655.183	53.85
655.513	53.92
655.843	53.9
656.172	53.98
656.502	53.99
656.832	53.89
657.162	53.91
657.491	53.85
657.821	53.79
658.15	53.8
658.48	53.84
658.809	53.84
659.139	53.98
659.468	54.09
659.798	54.13
660.127	54.17
660.456	54.13
660.785	54.16
661.115	54.09
661.444	54.04
661.773	53.94
662.102	53.94
662.431	53.9
662.76	53.96
663.089	53.94
663.418	54.01
663.747	54.04
664.076	54.07
664.404	54
664.733	54.14
665.062	54.2
665.39	54.03
665.719	54.09
666.048	54.04
666.376	53.94
666.705	53.77
667.033	53.76
667.362	53.74
667.69	53.77
668.018	53.81
668.347	53.84
668.675	53.92
