Data from MVZ_BU123442_Reflection_00004.txt Node
Date: Tue Nov 19 12:12:23 EST 2019
User: vgr7
Spectrometer: USB2G7710
Scans to average: 3
Trigger mode: 4
Integration Time (sec): 2.000000E-2
Electric dark correction enabled: true
Boxcar width: 10
XAxis mode: Wavelengths
Number of Pixels in Spectrum: 2048
>>>>>Begin Spectral Data<<<<<
177.721	277.99
178.105	418.18
178.488	341.84
178.871	286.44
179.254	231.58
179.636	-92.55
180.019	-60.38
180.402	84.62
180.785	207.23
181.168	285.12
181.55	194.75
181.933	125.77
182.316	299.77
182.698	122.41
183.081	70.01
183.463	132.2
183.846	118.8
184.228	117.72
184.611	170.19
184.993	-568
185.376	-3008.7
185.758	240.32
186.14	360.98
186.522	563.3
186.904	-520
187.287	-863.09
187.669	-541.82
188.051	-520.4
188.433	-516.99
188.815	-225.63
189.197	-219.91
189.579	-228.7
189.961	-241.09
190.342	-212.77
190.724	-152.64
191.106	-137.13
191.488	-115.01
191.869	-118.34
192.251	-119
192.633	-142.38
193.014	-176.09
193.396	-169.92
193.777	-123.93
194.159	-133.29
194.54	-136.58
194.922	-176.44
195.303	-185.53
195.684	-206.21
196.065	-179.6
196.447	-130.91
196.828	-202.92
197.209	-212.69
197.59	-150.97
197.971	-110.54
198.352	-100.5
198.733	-105.81
199.114	-88.24
199.495	-80.89
199.876	-54.31
200.257	-74.38
200.638	-60.89
201.018	-113.46
201.399	-129.28
201.78	-156.85
202.16	-171.22
202.541	-160.67
202.922	-99.54
203.302	-79.09
203.683	-189.19
204.063	-229.85
204.444	-766.41
204.824	-189.01
205.204	-136.09
205.585	-254.1
205.965	-1010.17
206.345	501.84
206.725	866.06
207.106	792.05
207.486	930.43
207.866	204.99
208.246	297.1
208.626	-4965.22
209.006	-246.36
209.386	-205.93
209.766	-86.96
210.145	-89.36
210.525	-120.74
210.905	-153.19
211.285	-154.2
211.664	-93.16
212.044	-82.59
212.424	-69.16
212.803	-86.76
213.183	-62.84
213.562	-43.12
213.942	-36.32
214.321	-45.03
214.701	-59.88
215.08	-38.39
215.459	-28.01
215.838	-28.78
216.218	-19.6
216.597	-5.45
216.976	-8.29
217.355	-12.3
217.734	-42.67
218.113	-21.59
218.492	-16.3
218.871	-15.95
219.25	-6.62
219.629	-10.78
220.008	-17.92
220.387	-16.24
220.766	1.87
221.144	-7.07
221.523	-18.09
221.902	-29.7
222.28	-17.77
222.659	-6.94
223.037	-19.48
223.416	-26.31
223.794	-26.17
224.173	-36.51
224.551	-35.79
224.929	-38.37
225.308	-31.94
225.686	-26.05
226.064	-26.16
226.442	-21.98
226.821	-20.51
227.199	-22.98
227.577	-22.06
227.955	-20.86
228.333	-19.66
228.711	-28
229.089	-24
229.467	-22.84
229.845	-24.77
230.222	-21.75
230.6	-21.36
230.978	-20.1
231.356	-17.61
231.733	-16.86
232.111	-15.87
232.488	-14.05
232.866	-10.35
233.243	-10.44
233.621	-8.05
233.998	-9.25
234.376	-10.59
234.753	-10.66
235.13	-9.18
235.508	-8.35
235.885	-7.41
236.262	-7.58
236.639	-4.54
237.016	-3.03
237.393	-1
237.77	0.75
238.147	0.63
238.524	0.95
238.901	1.34
239.278	0.86
239.655	1.12
240.032	0.69
240.409	0.38
240.785	-0.16
241.162	-0.05
241.539	0.01
241.915	0.32
242.292	1.12
242.668	1.62
243.045	1.9
243.421	2.21
243.798	2.21
244.174	2.65
244.551	2.48
244.927	2.73
245.303	2.75
245.679	2.74
246.056	2.89
246.432	3.03
246.808	3.3
247.184	3.39
247.56	3.15
247.936	3.28
248.312	3.55
248.688	3.91
249.064	3.92
249.44	3.56
249.815	3.51
250.191	3.46
250.567	3.48
250.943	3.36
251.318	3.09
251.694	3.15
252.069	3.14
252.445	3.36
252.82	3.21
253.196	3.17
253.571	3.37
253.947	3.09
254.322	2.63
254.697	2.39
255.073	2.29
255.448	2.65
255.823	3
256.198	2.96
256.573	2.92
256.948	3.01
257.323	3.22
257.698	3.44
258.073	3.24
258.448	3.25
258.823	3.12
259.198	3.32
259.573	3.19
259.948	3.06
260.322	2.76
260.697	2.77
261.072	2.78
261.446	2.69
261.821	2.76
262.195	2.85
262.57	3.02
262.944	3.04
263.319	3.1
263.693	2.87
264.067	2.72
264.442	2.36
264.816	2.5
265.19	2.63
265.564	2.45
265.938	2.59
266.313	2.32
266.687	2.28
267.061	2.15
267.435	2.34
267.809	2.34
268.183	2.56
268.556	2.52
268.93	2.59
269.304	2.56
269.678	2.65
270.051	2.82
270.425	2.75
270.799	2.64
271.172	2.65
271.546	2.68
271.919	2.68
272.293	2.91
272.666	2.78
273.04	2.77
273.413	2.84
273.787	2.75
274.16	2.93
274.533	2.89
274.906	3.09
275.279	3.03
275.653	2.99
276.026	3.03
276.399	3.16
276.772	3.07
277.145	3.18
277.518	3
277.891	2.69
278.263	2.71
278.636	2.86
279.009	2.97
279.382	2.94
279.755	3.01
280.127	2.89
280.5	2.72
280.872	2.76
281.245	2.59
281.617	2.69
281.99	2.62
282.362	2.76
282.735	2.48
283.107	2.35
283.479	2.49
283.852	2.53
284.224	2.41
284.596	2.38
284.968	2.3
285.34	2.32
285.713	2.54
286.085	2.26
286.457	2.22
286.829	2.07
287.201	2.07
287.572	2.26
287.944	2.4
288.316	2.44
288.688	2.4
289.06	2.43
289.431	2.52
289.803	2.6
290.175	2.6
290.546	2.73
290.918	2.91
291.289	2.81
291.661	2.68
292.032	2.7
292.403	2.68
292.775	2.73
293.146	2.88
293.517	2.82
293.889	2.99
294.26	3.01
294.631	3.08
295.002	3.13
295.373	2.95
295.744	2.78
296.115	2.84
296.486	2.68
296.857	2.66
297.228	2.5
297.599	2.26
297.97	2.3
298.34	2.25
298.711	2.32
299.082	2.38
299.452	2.4
299.823	2.48
300.194	2.47
300.564	2.47
300.935	2.48
301.305	2.38
301.676	2.26
302.046	2.24
302.416	2.25
302.787	2.19
303.157	2.16
303.527	2.27
303.897	2.05
304.267	2.22
304.637	2.39
305.008	2.49
305.378	2.76
305.748	2.48
306.117	2.42
306.487	2.27
306.857	2.32
307.227	2.4
307.597	2.26
307.967	2.34
308.336	2.31
308.706	2.28
309.076	2.43
309.445	2.68
309.815	2.58
310.184	2.53
310.554	2.41
310.923	2.39
311.293	2.41
311.662	2.61
312.031	2.42
312.401	2.33
312.77	2.26
313.139	2.25
313.508	2.35
313.877	2.47
314.246	2.39
314.616	2.29
314.985	2.17
315.353	2.31
315.722	2.42
316.091	2.53
316.46	2.49
316.829	2.45
317.198	2.27
317.567	2.56
317.935	2.59
318.304	2.87
318.672	2.86
319.041	2.88
319.41	2.85
319.778	3.05
320.147	3.1
320.515	3.08
320.883	2.81
321.252	2.88
321.62	2.86
321.988	3.19
322.357	3.22
322.725	3.36
323.093	3.22
323.461	3.04
323.829	2.95
324.197	2.99
324.565	2.92
324.933	2.92
325.301	2.55
325.669	2.55
326.037	2.53
326.405	2.63
326.772	2.51
327.14	2.43
327.508	2.53
327.875	2.48
328.243	2.39
328.61	2.67
328.978	2.53
329.346	2.39
329.713	2.2
330.08	2.32
330.448	2.41
330.815	2.42
331.182	2.44
331.55	2.39
331.917	2.39
332.284	2.38
332.651	2.49
333.018	2.71
333.385	2.77
333.752	2.74
334.119	2.8
334.486	2.94
334.853	2.94
335.22	2.75
335.587	2.77
335.954	3
336.32	2.88
336.687	3.07
337.054	3.15
337.42	3.09
337.787	3.13
338.153	3.11
338.52	3.23
338.886	3.29
339.253	3.24
339.619	3.19
339.986	3.13
340.352	3.13
340.718	3.11
341.084	3.03
341.451	3.05
341.817	2.92
342.183	2.82
342.549	2.84
342.915	2.94
343.281	2.87
343.647	2.78
344.013	2.76
344.379	2.69
344.745	2.64
345.11	2.62
345.476	2.61
345.842	2.5
346.208	2.41
346.573	2.32
346.939	2.47
347.304	2.49
347.67	2.59
348.035	2.61
348.401	2.63
348.766	2.52
349.132	2.52
349.497	2.57
349.862	2.59
350.228	2.66
350.593	2.61
350.958	2.77
351.323	2.76
351.688	2.82
352.053	2.94
352.418	2.99
352.783	3.02
353.148	2.82
353.513	2.79
353.878	2.81
354.243	2.8
354.608	2.8
354.972	2.82
355.337	2.78
355.702	2.77
356.066	2.74
356.431	2.84
356.795	2.77
357.16	2.77
357.524	2.81
357.889	2.81
358.253	2.77
358.618	2.75
358.982	2.7
359.346	2.69
359.71	2.67
360.075	2.68
360.439	2.71
360.803	2.86
361.167	2.94
361.531	2.93
361.895	2.99
362.259	3.02
362.623	3.02
362.987	3.02
363.351	2.95
363.714	3.03
364.078	3.04
364.442	3.11
364.806	3.13
365.169	3.14
365.533	3.12
365.896	3.17
366.26	3.1
366.623	3.15
366.987	3.17
367.35	3.14
367.714	3.16
368.077	3.2
368.44	3.1
368.803	3.12
369.167	3.1
369.53	3.04
369.893	2.97
370.256	2.94
370.619	3.02
370.982	3.07
371.345	2.99
371.708	3.02
372.071	3
372.434	3.03
372.797	3.07
373.159	3
373.522	3.02
373.885	3.13
374.247	3.13
374.61	3.18
374.973	3.24
375.335	3.27
375.698	3.22
376.06	3.27
376.423	3.26
376.785	3.25
377.147	3.32
377.51	3.28
377.872	3.26
378.234	3.23
378.596	3.21
378.958	3.27
379.321	3.24
379.683	3.24
380.045	3.25
380.407	3.19
380.769	3.2
381.13	3.18
381.492	3.14
381.854	3.07
382.216	3.03
382.578	3.01
382.939	2.95
383.301	2.96
383.663	2.96
384.024	2.96
384.386	2.98
384.747	2.96
385.109	3.01
385.47	3.07
385.832	3.07
386.193	3.07
386.554	2.99
386.916	2.94
387.277	2.93
387.638	2.9
387.999	2.96
388.36	2.96
388.721	2.99
389.082	3
389.443	3.06
389.804	3.08
390.165	3.07
390.526	3.09
390.887	3.08
391.248	3.14
391.609	3.11
391.969	3.13
392.33	3.12
392.691	3.12
393.051	3.13
393.412	3.15
393.772	3.22
394.133	3.24
394.493	3.27
394.854	3.31
395.214	3.33
395.574	3.3
395.935	3.32
396.295	3.36
396.655	3.38
397.015	3.36
397.376	3.36
397.736	3.35
398.096	3.37
398.456	3.41
398.816	3.39
399.176	3.39
399.535	3.4
399.895	3.42
400.255	3.4
400.615	3.42
400.975	3.39
401.334	3.35
401.694	3.36
402.054	3.38
402.413	3.36
402.773	3.33
403.132	3.33
403.492	3.33
403.851	3.28
404.211	3.26
404.57	3.29
404.929	3.27
405.288	3.3
405.648	3.27
406.007	3.26
406.366	3.21
406.725	3.23
407.084	3.23
407.443	3.23
407.802	3.23
408.161	3.17
408.52	3.22
408.879	3.23
409.238	3.25
409.596	3.24
409.955	3.25
410.314	3.27
410.673	3.31
411.031	3.29
411.39	3.35
411.748	3.32
412.107	3.33
412.465	3.35
412.824	3.32
413.182	3.31
413.54	3.33
413.899	3.36
414.257	3.35
414.615	3.33
414.974	3.32
415.332	3.37
415.69	3.38
416.048	3.35
416.406	3.36
416.764	3.36
417.122	3.34
417.48	3.35
417.838	3.34
418.195	3.33
418.553	3.37
418.911	3.35
419.269	3.38
419.626	3.4
419.984	3.41
420.342	3.4
420.699	3.41
421.057	3.42
421.414	3.44
421.772	3.45
422.129	3.46
422.486	3.46
422.844	3.44
423.201	3.45
423.558	3.47
423.915	3.46
424.273	3.48
424.63	3.51
424.987	3.52
425.344	3.53
425.701	3.52
426.058	3.51
426.415	3.53
426.772	3.52
427.128	3.51
427.485	3.52
427.842	3.54
428.199	3.59
428.555	3.55
428.912	3.53
429.269	3.54
429.625	3.54
429.982	3.57
430.338	3.57
430.695	3.58
431.051	3.59
431.407	3.59
431.764	3.55
432.12	3.56
432.476	3.55
432.832	3.56
433.189	3.58
433.545	3.6
433.901	3.58
434.257	3.59
434.613	3.58
434.969	3.59
435.325	3.6
435.681	3.56
436.036	3.58
436.392	3.61
436.748	3.59
437.104	3.61
437.459	3.61
437.815	3.62
438.171	3.62
438.526	3.6
438.882	3.6
439.237	3.61
439.593	3.6
439.948	3.58
440.304	3.58
440.659	3.58
441.014	3.56
441.369	3.57
441.725	3.58
442.08	3.57
442.435	3.56
442.79	3.54
443.145	3.56
443.5	3.55
443.855	3.54
444.21	3.55
444.565	3.54
444.92	3.54
445.275	3.53
445.629	3.52
445.984	3.53
446.339	3.54
446.693	3.55
447.048	3.56
447.403	3.57
447.757	3.56
448.112	3.56
448.466	3.55
448.82	3.56
449.175	3.55
449.529	3.59
449.883	3.57
450.238	3.59
450.592	3.59
450.946	3.62
451.3	3.63
451.654	3.62
452.008	3.63
452.362	3.63
452.716	3.64
453.07	3.63
453.424	3.62
453.778	3.61
454.132	3.62
454.486	3.62
454.839	3.61
455.193	3.62
455.547	3.62
455.9	3.64
456.254	3.63
456.607	3.64
456.961	3.62
457.314	3.64
457.668	3.64
458.021	3.64
458.375	3.62
458.728	3.62
459.081	3.63
459.434	3.63
459.787	3.64
460.141	3.65
460.494	3.66
460.847	3.65
461.2	3.68
461.553	3.67
461.906	3.67
462.259	3.68
462.611	3.68
462.964	3.71
463.317	3.7
463.67	3.71
464.022	3.71
464.375	3.7
464.728	3.67
465.08	3.68
465.433	3.68
465.785	3.66
466.138	3.66
466.49	3.67
466.843	3.67
467.195	3.65
467.547	3.64
467.899	3.64
468.252	3.65
468.604	3.63
468.956	3.62
469.308	3.62
469.66	3.61
470.012	3.64
470.364	3.61
470.716	3.6
471.068	3.6
471.42	3.6
471.772	3.62
472.123	3.66
472.475	3.66
472.827	3.67
473.178	3.68
473.53	3.68
473.882	3.68
474.233	3.67
474.585	3.69
474.936	3.71
475.288	3.72
475.639	3.72
475.99	3.71
476.342	3.73
476.693	3.77
477.044	3.78
477.395	3.78
477.746	3.79
478.097	3.79
478.448	3.79
478.8	3.78
479.15	3.77
479.501	3.75
479.852	3.75
480.203	3.75
480.554	3.76
480.905	3.76
481.255	3.77
481.606	3.77
481.957	3.78
482.307	3.77
482.658	3.79
483.009	3.79
483.359	3.8
483.709	3.8
484.06	3.79
484.41	3.81
484.761	3.81
485.111	3.81
485.461	3.81
485.811	3.8
486.162	3.81
486.512	3.83
486.862	3.83
487.212	3.84
487.562	3.84
487.912	3.84
488.262	3.85
488.612	3.84
488.961	3.86
489.311	3.85
489.661	3.85
490.011	3.84
490.36	3.83
490.71	3.83
491.06	3.83
491.409	3.82
491.759	3.82
492.108	3.81
492.458	3.8
492.807	3.81
493.157	3.81
493.506	3.81
493.855	3.79
494.204	3.78
494.554	3.77
494.903	3.78
495.252	3.78
495.601	3.79
495.95	3.78
496.299	3.78
496.648	3.78
496.997	3.78
497.346	3.8
497.695	3.8
498.043	3.8
498.392	3.8
498.741	3.83
499.09	3.81
499.438	3.83
499.787	3.86
500.135	3.86
500.484	3.86
500.832	3.86
501.181	3.89
501.529	3.91
501.878	3.92
502.226	3.92
502.574	3.91
502.923	3.89
503.271	3.9
503.619	3.86
503.967	3.84
504.315	3.84
504.663	3.82
505.011	3.84
505.359	3.82
505.707	3.84
506.055	3.83
506.403	3.83
506.751	3.82
507.098	3.81
507.446	3.79
507.794	3.82
508.141	3.81
508.489	3.79
508.837	3.78
509.184	3.78
509.531	3.78
509.879	3.79
510.226	3.78
510.574	3.79
510.921	3.82
511.268	3.83
511.616	3.83
511.963	3.84
512.31	3.86
512.657	3.87
513.004	3.84
513.351	3.85
513.698	3.87
514.045	3.86
514.392	3.89
514.739	3.91
515.086	3.9
515.432	3.91
515.779	3.9
516.126	3.93
516.473	3.94
516.819	3.93
517.166	3.96
517.512	3.98
517.859	3.98
518.205	3.96
518.552	3.98
518.898	4
519.245	4
519.591	3.99
519.937	4
520.283	4.02
520.629	4
520.976	4
521.322	4.02
521.668	3.98
522.014	3.98
522.36	3.99
522.706	3.97
523.052	4
523.398	3.99
523.743	3.97
524.089	4
524.435	3.98
524.781	3.99
525.126	3.98
525.472	4.01
525.817	4.03
526.163	4.02
526.509	4.02
526.854	4.01
527.199	4.01
527.545	4
527.89	4.02
528.235	4.01
528.581	4.02
528.926	4.03
529.271	4.02
529.616	4.02
529.961	4.04
530.306	4.02
530.651	4.03
530.996	4.04
531.341	4.02
531.686	4.03
532.031	4.02
532.376	4.02
532.721	4.02
533.065	4.01
533.41	4.01
533.755	4.02
534.099	4.03
534.444	4.03
534.788	4.03
535.133	4.03
535.477	4.03
535.822	4.02
536.166	4.02
536.51	4.05
536.855	4.03
537.199	4.03
537.543	4.03
537.887	4.03
538.231	4.04
538.576	4.04
538.92	4.05
539.264	4.05
539.608	4.05
539.951	4.04
540.295	4.02
540.639	4.02
540.983	4
541.327	4.01
541.671	4.01
542.014	4.02
542.358	4.03
542.701	4.04
543.045	4.05
543.389	4.06
543.732	4.05
544.075	4.08
544.419	4.08
544.762	4.09
545.105	4.1
545.449	4.09
545.792	4.1
546.135	4.07
546.478	4.08
546.821	4.09
547.165	4.1
547.508	4.14
547.851	4.17
548.194	4.18
548.536	4.15
548.879	4.16
549.222	4.15
549.565	4.14
549.908	4.15
550.25	4.11
550.593	4.08
550.936	4.09
551.278	4.06
551.621	4.08
551.963	4.07
552.306	4.04
552.648	4.03
552.991	4.04
553.333	4.03
553.675	4.05
554.017	4.05
554.36	4.04
554.702	4.03
555.044	4.01
555.386	4.02
555.728	4.03
556.07	4
556.412	4.02
556.754	4
557.096	3.96
557.438	3.98
557.78	3.98
558.121	3.99
558.463	4.02
558.805	4.01
559.147	4
559.488	4.01
559.83	4.03
560.171	4.03
560.513	4.06
560.854	4.05
561.196	4.04
561.537	4.07
561.878	4.05
562.22	4.07
562.561	4.05
562.902	4.06
563.243	4.07
563.584	4.08
563.925	4.11
564.266	4.11
564.607	4.11
564.948	4.11
565.289	4.14
565.63	4.12
565.971	4.13
566.312	4.14
566.653	4.13
566.993	4.11
567.334	4.12
567.675	4.13
568.015	4.13
568.356	4.1
568.696	4.05
569.037	4.07
569.377	4.06
569.718	4.08
570.058	4.08
570.398	4.08
570.739	4.07
571.079	4.05
571.419	4.04
571.759	4.03
572.099	4.03
572.439	3.99
572.779	4.01
573.119	3.99
573.459	3.97
573.799	3.99
574.139	4.02
574.479	4.01
574.819	4.01
575.158	4.06
575.498	4.06
575.838	4.07
576.177	4.06
576.517	4.06
576.856	4.04
577.196	4.04
577.535	4.05
577.875	4.06
578.214	4.1
578.553	4.1
578.893	4.14
579.232	4.19
579.571	4.23
579.91	4.22
580.25	4.23
580.589	4.26
580.928	4.25
581.267	4.21
581.606	4.2
581.945	4.17
582.283	4.15
582.622	4.16
582.961	4.2
583.3	4.23
583.639	4.21
583.977	4.23
584.316	4.25
584.654	4.25
584.993	4.26
585.332	4.24
585.67	4.27
586.008	4.28
586.347	4.25
586.685	4.2
587.024	4.24
587.362	4.24
587.7	4.27
588.038	4.24
588.376	4.25
588.715	4.26
589.053	4.26
589.391	4.26
589.729	4.32
590.067	4.31
590.404	4.27
590.742	4.29
591.08	4.28
591.418	4.25
591.756	4.24
592.093	4.21
592.431	4.23
592.769	4.26
593.106	4.22
593.444	4.24
593.781	4.28
594.119	4.23
594.456	4.21
594.793	4.2
595.131	4.22
595.468	4.24
595.805	4.24
596.143	4.29
596.48	4.25
596.817	4.17
597.154	4.14
597.491	4.15
597.828	4.14
598.165	4.16
598.502	4.16
598.839	4.17
599.176	4.2
599.512	4.19
599.849	4.15
600.186	4.18
600.523	4.16
600.859	4.13
601.196	4.11
601.532	4.15
601.869	4.18
602.205	4.18
602.542	4.16
602.878	4.18
603.215	4.17
603.551	4.18
603.887	4.23
604.223	4.25
604.56	4.29
604.896	4.29
605.232	4.29
605.568	4.31
605.904	4.32
606.24	4.3
606.576	4.31
606.912	4.28
607.248	4.3
607.583	4.32
607.919	4.34
608.255	4.36
608.591	4.38
608.926	4.36
609.262	4.34
609.597	4.34
609.933	4.33
610.268	4.31
610.604	4.32
610.939	4.34
611.275	4.29
611.61	4.22
611.945	4.23
612.281	4.25
612.616	4.23
612.951	4.28
613.286	4.25
613.621	4.25
613.956	4.31
614.291	4.25
614.626	4.21
614.961	4.25
615.296	4.26
615.631	4.23
615.966	4.26
616.3	4.31
616.635	4.38
616.97	4.4
617.304	4.38
617.639	4.41
617.973	4.38
618.308	4.45
618.642	4.52
618.977	4.53
619.311	4.44
619.646	4.48
619.98	4.43
620.314	4.43
620.648	4.45
620.983	4.38
621.317	4.39
621.651	4.41
621.985	4.33
622.319	4.33
622.653	4.34
622.987	4.31
623.321	4.29
623.655	4.26
623.988	4.19
624.322	4.26
624.656	4.25
624.99	4.27
625.323	4.27
625.657	4.31
625.99	4.28
626.324	4.32
626.657	4.27
626.991	4.32
627.324	4.34
627.658	4.33
627.991	4.38
628.324	4.39
628.657	4.35
628.991	4.39
629.324	4.4
629.657	4.39
629.99	4.38
630.323	4.42
630.656	4.38
630.989	4.42
631.322	4.39
631.655	4.38
631.987	4.36
632.32	4.37
632.653	4.34
632.986	4.39
633.318	4.4
633.651	4.4
633.984	4.34
634.316	4.31
634.649	4.29
634.981	4.3
635.313	4.35
635.646	4.45
635.978	4.44
636.31	4.47
636.643	4.48
636.975	4.5
637.307	4.43
637.639	4.49
637.971	4.53
638.303	4.54
638.635	4.46
638.967	4.49
639.299	4.46
639.631	4.47
639.963	4.39
640.295	4.41
640.626	4.46
640.958	4.41
641.29	4.49
641.621	4.48
641.953	4.47
642.285	4.41
642.616	4.47
642.948	4.48
643.279	4.45
643.61	4.4
643.942	4.41
644.273	4.43
644.604	4.36
644.936	4.3
645.267	4.33
645.598	4.42
645.929	4.34
646.26	4.33
646.591	4.27
646.922	4.32
647.253	4.3
647.584	4.26
647.915	4.31
648.245	4.36
648.576	4.31
648.907	4.38
649.238	4.38
649.568	4.21
649.899	4.17
650.229	4.2
650.56	4.27
650.89	4.26
651.221	4.21
651.551	4.25
651.882	4.26
652.212	4.18
652.542	4.22
652.872	4.34
653.203	4.39
653.533	4.47
653.863	4.52
654.193	4.49
654.523	4.45
654.853	4.48
655.183	4.37
655.513	4.43
655.843	4.46
656.172	4.51
656.502	4.55
656.832	4.61
657.162	4.61
657.491	4.62
657.821	4.66
658.15	4.73
658.48	4.75
658.809	4.8
659.139	4.86
659.468	4.81
659.798	4.81
660.127	4.8
660.456	4.71
660.785	4.71
661.115	4.8
661.444	4.88
661.773	4.84
662.102	4.83
662.431	4.85
662.76	4.77
663.089	4.73
663.418	4.82
663.747	4.81
664.076	4.76
664.404	4.85
664.733	4.9
665.062	4.9
665.39	4.91
665.719	4.85
666.048	4.83
666.376	4.87
666.705	4.86
667.033	4.9
667.362	4.93
667.69	4.97
668.018	5.05
668.347	4.92
668.675	4.95
669.003	5.01
669.331	5.08
669.659	5.03
669.987	5.03
670.315	4.99
670.643	4.99
670.971	4.99
671.299	4.87
671.627	4.77
671.955	4.79
672.283	4.72
672.61	4.82
672.938	4.78
673.266	4.73
673.593	4.71
673.921	4.67
674.249	4.71
674.576	4.69
674.904	4.58
675.231	4.68
675.558	4.67
