Data from MVZ_BU147395_Reflection_00012.txt Node
Date: Tue Nov 19 12:05:13 EST 2019
User: vgr7
Spectrometer: USB2G7710
Scans to average: 3
Trigger mode: 4
Integration Time (sec): 2.000000E-2
Electric dark correction enabled: true
Boxcar width: 10
XAxis mode: Wavelengths
Number of Pixels in Spectrum: 2048
>>>>>Begin Spectral Data<<<<<
177.721	21.38
178.105	69.64
178.488	62.89
178.871	-4.72
179.254	7.92
179.636	0.29
180.019	-1861.54
180.402	318.18
180.785	34.78
181.168	143.35
181.55	435.82
181.933	-50.39
182.316	-99.42
182.698	3968.42
183.081	-2421.28
183.463	-1110.84
183.846	992.41
184.228	940.66
184.611	329.64
184.993	227.72
185.376	176.98
185.758	112.09
186.14	133.89
186.522	106.73
186.904	68.56
187.287	66.73
187.669	87.25
188.051	90.11
188.433	95.25
188.815	103.06
189.197	83.15
189.579	71.76
189.961	58.47
190.342	67.22
190.724	39.66
191.106	12.06
191.488	20.01
191.869	29.16
192.251	44.13
192.633	43.76
193.014	44.16
193.396	52.48
193.777	49.69
194.159	45.42
194.54	44.13
194.922	56.03
195.303	52.96
195.684	53.97
196.065	53.15
196.447	67.98
196.828	79.77
197.209	84.22
197.59	87.76
197.971	64.71
198.352	65.84
198.733	77.28
199.114	95.09
199.495	107.81
199.876	99.21
200.257	77.01
200.638	91.57
201.018	126.24
201.399	119.57
201.78	142.03
202.16	189.53
202.541	215.7
202.922	237.05
203.302	319
203.683	219.58
204.063	173.65
204.444	148.02
204.824	125.16
205.204	104.65
205.585	131.01
205.965	195.9
206.345	135.92
206.725	132.83
207.106	134.83
207.486	98.98
207.866	99.01
208.246	102.6
208.626	63.83
209.006	48.53
209.386	47.28
209.766	49.89
210.145	51.49
210.525	61.92
210.905	64.02
211.285	57.77
211.664	70.69
212.044	84.24
212.424	88.64
212.803	95.64
213.183	103.69
213.562	92.65
213.942	74.39
214.321	75.76
214.701	65.65
215.08	46.25
215.459	59.31
215.838	82.69
216.218	88.36
216.597	126.44
216.976	147.9
217.355	154.15
217.734	144.44
218.113	117.68
218.492	119.85
218.871	103.21
219.25	111.15
219.629	102.04
220.008	93.18
220.387	78.53
220.766	67.83
221.144	67.85
221.523	69.59
221.902	70.09
222.28	70.2
222.659	65.49
223.037	68.29
223.416	61.91
223.794	57.67
224.173	48.78
224.551	40.79
224.929	37.88
225.308	33
225.686	28.68
226.064	25.49
226.442	20.23
226.821	18.84
227.199	12.86
227.577	13.99
227.955	14.26
228.333	15.98
228.711	13.85
229.089	13.68
229.467	13.41
229.845	13
230.222	15.96
230.6	15.27
230.978	15.52
231.356	14.62
231.733	14.53
232.111	14.52
232.488	14.71
232.866	13.69
233.243	15.06
233.621	15.99
233.998	16.83
234.376	17.04
234.753	15.5
235.13	15.5
235.508	16.08
235.885	15
236.262	13.77
236.639	12.84
237.016	11.67
237.393	11.43
237.77	12.05
238.147	10.72
238.524	10.25
238.901	9.48
239.278	9.31
239.655	8.69
240.032	8.06
240.409	7.24
240.785	6.87
241.162	6.54
241.539	6.36
241.915	6.1
242.292	5.87
242.668	5.9
243.045	6.1
243.421	5.99
243.798	5.69
244.174	5.53
244.551	5.64
244.927	5.54
245.303	5.06
245.679	4.81
246.056	4.72
246.432	5.09
246.808	5.01
247.184	4.85
247.56	4.43
247.936	4.31
248.312	4.55
248.688	4.53
249.064	4.36
249.44	4.25
249.815	4.39
250.191	4.55
250.567	4.57
250.943	4.47
251.318	4.29
251.694	4.33
252.069	4.37
252.445	4.39
252.82	4.61
253.196	5.13
253.571	5.32
253.947	5.19
254.322	4.55
254.697	4.54
255.073	4.35
255.448	4.66
255.823	5.01
256.198	4.92
256.573	4.84
256.948	4.88
257.323	4.79
257.698	4.41
258.073	4.27
258.448	4.1
258.823	3.97
259.198	3.87
259.573	3.65
259.948	3.69
260.322	3.58
260.697	3.49
261.072	3.33
261.446	3.27
261.821	3.3
262.195	3.33
262.57	3.53
262.944	3.73
263.319	3.8
263.693	3.69
264.067	3.64
264.442	3.71
264.816	3.66
265.19	3.64
265.564	3.59
265.938	3.62
266.313	3.68
266.687	3.72
267.061	3.76
267.435	4
267.809	3.89
268.183	3.81
268.556	3.79
268.93	3.85
269.304	3.67
269.678	3.68
270.051	3.75
270.425	3.71
270.799	3.51
271.172	3.45
271.546	3.46
271.919	3.5
272.293	3.47
272.666	3.61
273.04	3.67
273.413	3.79
273.787	3.67
274.16	3.73
274.533	3.76
274.906	3.68
275.279	3.74
275.653	3.68
276.026	3.7
276.399	3.57
276.772	3.53
277.145	3.69
277.518	3.57
277.891	3.45
278.263	3.43
278.636	3.49
279.009	3.52
279.382	3.45
279.755	3.57
280.127	3.58
280.5	3.4
280.872	3.58
281.245	3.6
281.617	3.78
281.99	3.77
282.362	3.78
282.735	3.86
283.107	3.72
283.479	3.79
283.852	3.9
284.224	4
284.596	3.87
284.968	3.91
285.34	3.95
285.713	4.15
286.085	4.05
286.457	3.98
286.829	3.89
287.201	3.86
287.572	3.76
287.944	3.83
288.316	3.84
288.688	3.72
289.06	3.64
289.431	3.53
289.803	3.59
290.175	3.58
290.546	3.6
290.918	3.61
291.289	3.59
291.661	3.63
292.032	3.59
292.403	3.56
292.775	3.51
293.146	3.58
293.517	3.4
293.889	3.49
294.26	3.63
294.631	3.76
295.002	3.85
295.373	3.8
295.744	3.74
296.115	3.8
296.486	3.84
296.857	3.93
297.228	3.99
297.599	3.89
297.97	3.99
298.34	4.01
298.711	4.14
299.082	4.22
299.452	4.09
299.823	4.13
300.194	4.37
300.564	4.48
300.935	4.46
301.305	4.48
301.676	4.32
302.046	4.26
302.416	4.16
302.787	4.21
303.157	4.34
303.527	4.45
303.897	4.48
304.267	4.44
304.637	4.44
305.008	4.38
305.378	4.49
305.748	4.5
306.117	4.45
306.487	4.47
306.857	4.43
307.227	4.59
307.597	4.61
307.967	4.61
308.336	4.66
308.706	4.66
309.076	4.93
309.445	5.06
309.815	5.11
310.184	5.2
310.554	5.23
310.923	5.3
311.293	5.26
311.662	5.25
312.031	5.29
312.401	5.28
312.77	5.34
313.139	5.36
313.508	5.31
313.877	5.36
314.246	5.35
314.616	5.47
314.985	5.45
315.353	5.47
315.722	5.54
316.091	5.5
316.46	5.63
316.829	5.38
317.198	5.5
317.567	5.6
317.935	5.61
318.304	5.77
318.672	5.71
319.041	5.67
319.41	5.71
319.778	5.87
320.147	5.89
320.515	5.92
320.883	5.93
321.252	5.94
321.62	6.03
321.988	6.01
322.357	5.97
322.725	6.1
323.093	6.1
323.461	5.9
323.829	5.96
324.197	5.91
324.565	6.27
324.933	6.19
325.301	6.08
325.669	6.07
326.037	6.04
326.405	6.06
326.772	6.06
327.14	6.09
327.508	5.98
327.875	6.15
328.243	6.09
328.61	6.13
328.978	6.15
329.346	6.13
329.713	6.29
330.08	6.38
330.448	6.3
330.815	6.28
331.182	6.37
331.55	6.2
331.917	6.22
332.284	6.08
332.651	6.13
333.018	6.14
333.385	6.24
333.752	6.17
334.119	6.18
334.486	6.2
334.853	6.29
335.22	6.36
335.587	6.26
335.954	6.32
336.32	6.29
336.687	6.33
337.054	6.34
337.42	6.25
337.787	6.31
338.153	6.33
338.52	6.51
338.886	6.66
339.253	6.78
339.619	6.81
339.986	6.77
340.352	6.7
340.718	6.86
341.084	6.76
341.451	6.74
341.817	6.76
342.183	6.72
342.549	6.76
342.915	6.73
343.281	6.81
343.647	6.83
344.013	6.92
344.379	6.94
344.745	7.02
345.11	7.04
345.476	7.04
345.842	7.02
346.208	6.96
346.573	6.88
346.939	6.88
347.304	6.95
347.67	6.93
348.035	6.99
348.401	6.98
348.766	7
349.132	7.08
349.497	7.13
349.862	7.14
350.228	7.05
350.593	7.14
350.958	7.23
351.323	7.21
351.688	7.2
352.053	7.15
352.418	7.05
352.783	7.04
353.148	6.93
353.513	6.98
353.878	6.98
354.243	6.94
354.608	7.04
354.972	6.99
355.337	7.07
355.702	7.03
356.066	6.99
356.431	7.05
356.795	6.96
357.16	6.93
357.524	6.97
357.889	6.96
358.253	6.86
358.618	6.76
358.982	6.79
359.346	6.73
359.71	6.73
360.075	6.79
360.439	6.78
360.803	6.85
361.167	6.83
361.531	6.82
361.895	6.85
362.259	6.81
362.623	6.77
362.987	6.75
363.351	6.76
363.714	6.75
364.078	6.74
364.442	6.82
364.806	6.82
365.169	6.82
365.533	6.78
365.896	6.75
366.26	6.65
366.623	6.59
366.987	6.58
367.35	6.57
367.714	6.49
368.077	6.5
368.44	6.43
368.803	6.32
369.167	6.26
369.53	6.29
369.893	6.26
370.256	6.26
370.619	6.14
370.982	6.09
371.345	6.04
371.708	5.94
372.071	5.85
372.434	5.76
372.797	5.65
373.159	5.66
373.522	5.65
373.885	5.67
374.247	5.64
374.61	5.63
374.973	5.61
375.335	5.6
375.698	5.53
376.06	5.5
376.423	5.54
376.785	5.56
377.147	5.5
377.51	5.46
377.872	5.42
378.234	5.41
378.596	5.41
378.958	5.41
379.321	5.37
379.683	5.38
380.045	5.33
380.407	5.37
380.769	5.37
381.13	5.37
381.492	5.36
381.854	5.4
382.216	5.44
382.578	5.43
382.939	5.41
383.301	5.39
383.663	5.34
384.024	5.31
384.386	5.27
384.747	5.2
385.109	5.19
385.47	5.21
385.832	5.2
386.193	5.17
386.554	5.15
386.916	5.17
387.277	5.11
387.638	5.12
387.999	5.08
388.36	5.03
388.721	5.01
389.082	5.01
389.443	4.92
389.804	4.86
390.165	4.81
390.526	4.76
390.887	4.73
391.248	4.72
391.609	4.73
391.969	4.72
392.33	4.71
392.691	4.66
393.051	4.59
393.412	4.58
393.772	4.58
394.133	4.51
394.493	4.48
394.854	4.45
395.214	4.43
395.574	4.43
395.935	4.43
396.295	4.38
396.655	4.37
397.015	4.35
397.376	4.3
397.736	4.27
398.096	4.22
398.456	4.2
398.816	4.18
399.176	4.14
399.535	4.09
399.895	4.07
400.255	4.06
400.615	4.08
400.975	4.04
401.334	4.01
401.694	4.02
402.054	3.98
402.413	4
402.773	4
403.132	3.94
403.492	3.93
403.851	3.95
404.211	3.91
404.57	3.91
404.929	3.92
405.288	3.92
405.648	3.9
406.007	3.9
406.366	3.87
406.725	3.83
407.084	3.81
407.443	3.82
407.802	3.82
408.161	3.81
408.52	3.8
408.879	3.82
409.238	3.82
409.596	3.82
409.955	3.78
410.314	3.76
410.673	3.76
411.031	3.71
411.39	3.67
411.748	3.69
412.107	3.7
412.465	3.69
412.824	3.68
413.182	3.71
413.54	3.7
413.899	3.69
414.257	3.7
414.615	3.68
414.974	3.66
415.332	3.64
415.69	3.59
416.048	3.59
416.406	3.55
416.764	3.56
417.122	3.54
417.48	3.54
417.838	3.5
418.195	3.49
418.553	3.5
418.911	3.49
419.269	3.46
419.626	3.45
419.984	3.42
420.342	3.41
420.699	3.39
421.057	3.39
421.414	3.38
421.772	3.38
422.129	3.37
422.486	3.37
422.844	3.36
423.201	3.36
423.558	3.35
423.915	3.36
424.273	3.34
424.63	3.35
424.987	3.34
425.344	3.35
425.701	3.35
426.058	3.34
426.415	3.33
426.772	3.33
427.128	3.32
427.485	3.31
427.842	3.3
428.199	3.3
428.555	3.29
428.912	3.29
429.269	3.28
429.625	3.29
429.982	3.29
430.338	3.3
430.695	3.3
431.051	3.3
431.407	3.27
431.764	3.25
432.12	3.26
432.476	3.26
432.832	3.28
433.189	3.29
433.545	3.28
433.901	3.3
434.257	3.3
434.613	3.3
434.969	3.32
435.325	3.33
435.681	3.31
436.036	3.31
436.392	3.31
436.748	3.32
437.104	3.31
437.459	3.3
437.815	3.3
438.171	3.31
438.526	3.29
438.882	3.31
439.237	3.31
439.593	3.29
439.948	3.3
440.304	3.28
440.659	3.27
441.014	3.28
441.369	3.29
441.725	3.29
442.08	3.27
442.435	3.27
442.79	3.25
443.145	3.27
443.5	3.26
443.855	3.24
444.21	3.23
444.565	3.23
444.92	3.22
445.275	3.21
445.629	3.19
445.984	3.2
446.339	3.2
446.693	3.2
447.048	3.19
447.403	3.18
447.757	3.17
448.112	3.14
448.466	3.14
448.82	3.13
449.175	3.14
449.529	3.15
449.883	3.15
450.238	3.16
450.592	3.14
450.946	3.16
451.3	3.18
451.654	3.19
452.008	3.17
452.362	3.17
452.716	3.15
453.07	3.15
453.424	3.16
453.778	3.15
454.132	3.13
454.486	3.16
454.839	3.16
455.193	3.17
455.547	3.19
455.9	3.2
456.254	3.2
456.607	3.2
456.961	3.2
457.314	3.19
457.668	3.21
458.021	3.2
458.375	3.2
458.728	3.2
459.081	3.18
459.434	3.2
459.787	3.21
460.141	3.22
460.494	3.24
460.847	3.23
461.2	3.24
461.553	3.26
461.906	3.26
462.259	3.26
462.611	3.26
462.964	3.29
463.317	3.29
463.67	3.28
464.022	3.27
464.375	3.26
464.728	3.28
465.08	3.27
465.433	3.27
465.785	3.27
466.138	3.29
466.49	3.33
466.843	3.34
467.195	3.35
467.547	3.33
467.899	3.35
468.252	3.37
468.604	3.37
468.956	3.38
469.308	3.39
469.66	3.4
470.012	3.39
470.364	3.39
470.716	3.41
471.068	3.43
471.42	3.46
471.772	3.48
472.123	3.49
472.475	3.51
472.827	3.53
473.178	3.54
473.53	3.53
473.882	3.54
474.233	3.55
474.585	3.58
474.936	3.61
475.288	3.59
475.639	3.61
475.99	3.58
476.342	3.59
476.693	3.6
477.044	3.58
477.395	3.59
477.746	3.56
478.097	3.54
478.448	3.52
478.8	3.48
479.15	3.46
479.501	3.45
479.852	3.43
480.203	3.41
480.554	3.4
480.905	3.4
481.255	3.39
481.606	3.36
481.957	3.35
482.307	3.34
482.658	3.34
483.009	3.33
483.359	3.33
483.709	3.34
484.06	3.32
484.41	3.33
484.761	3.32
485.111	3.32
485.461	3.32
485.811	3.33
486.162	3.34
486.512	3.35
486.862	3.35
487.212	3.36
487.562	3.36
487.912	3.35
488.262	3.35
488.612	3.35
488.961	3.37
489.311	3.36
489.661	3.37
490.011	3.36
490.36	3.36
490.71	3.36
491.06	3.36
491.409	3.37
491.759	3.37
492.108	3.39
492.458	3.4
492.807	3.41
493.157	3.4
493.506	3.41
493.855	3.41
494.204	3.4
494.554	3.41
494.903	3.43
495.252	3.46
495.601	3.48
495.95	3.49
496.299	3.53
496.648	3.56
496.997	3.59
497.346	3.63
497.695	3.67
498.043	3.71
498.392	3.75
498.741	3.78
499.09	3.83
499.438	3.88
499.787	3.92
500.135	3.97
500.484	4.01
500.832	4.05
501.181	4.12
501.529	4.18
501.878	4.24
502.226	4.28
502.574	4.33
502.923	4.36
503.271	4.44
503.619	4.51
503.967	4.58
504.315	4.64
504.663	4.7
505.011	4.78
505.359	4.82
505.707	4.88
506.055	4.98
506.403	5.05
506.751	5.14
507.098	5.23
507.446	5.31
507.794	5.42
508.141	5.52
508.489	5.61
508.837	5.7
509.184	5.8
509.531	5.91
509.879	6.02
510.226	6.16
510.574	6.27
510.921	6.39
511.268	6.5
511.616	6.64
511.963	6.78
512.31	6.91
512.657	7.09
513.004	7.24
513.351	7.4
513.698	7.55
514.045	7.71
514.392	7.89
514.739	8.09
515.086	8.28
515.432	8.47
515.779	8.65
516.126	8.85
516.473	9.02
516.819	9.24
517.166	9.42
517.512	9.6
517.859	9.76
518.205	9.9
518.552	10.08
518.898	10.23
519.245	10.39
519.591	10.57
519.937	10.74
520.283	10.93
520.629	11.11
520.976	11.3
521.322	11.49
521.668	11.68
522.014	11.87
522.36	12.08
522.706	12.29
523.052	12.54
523.398	12.77
523.743	13.05
524.089	13.3
524.435	13.53
524.781	13.77
525.126	13.97
525.472	14.18
525.817	14.36
526.163	14.55
526.509	14.71
526.854	14.85
527.199	14.99
527.545	15.15
527.89	15.28
528.235	15.43
528.581	15.59
528.926	15.75
529.271	15.91
529.616	16.07
529.961	16.23
530.306	16.39
530.651	16.55
530.996	16.72
531.341	16.89
531.686	17.08
532.031	17.26
532.376	17.46
532.721	17.65
533.065	17.83
533.41	18.03
533.755	18.24
534.099	18.47
534.444	18.69
534.788	18.89
535.133	19.09
535.477	19.32
535.822	19.56
536.166	19.77
536.51	20.01
536.855	20.25
537.199	20.5
537.543	20.78
537.887	21.05
538.231	21.28
538.576	21.55
538.92	21.78
539.264	22.03
539.608	22.28
539.951	22.51
540.295	22.78
540.639	23
540.983	23.2
541.327	23.38
541.671	23.59
542.014	23.79
542.358	24.01
542.701	24.18
543.045	24.34
543.389	24.55
543.732	24.75
544.075	24.95
544.419	25.15
544.762	25.34
545.105	25.56
545.449	25.8
545.792	25.99
546.135	26.24
546.478	26.45
546.821	26.69
547.165	26.98
547.508	27.18
547.851	27.44
548.194	27.7
548.536	27.96
548.879	28.21
549.222	28.42
549.565	28.7
549.908	28.94
550.25	29.21
550.593	29.45
550.936	29.71
551.278	29.94
551.621	30.2
551.963	30.47
552.306	30.69
552.648	30.92
552.991	31.14
553.333	31.36
553.675	31.65
554.017	31.83
554.36	32
554.702	32.2
555.044	32.36
555.386	32.52
555.728	32.71
556.07	32.9
556.412	33.11
556.754	33.24
557.096	33.4
557.438	33.54
557.78	33.74
558.121	33.86
558.463	34.05
558.805	34.2
559.147	34.38
559.488	34.54
559.83	34.74
560.171	34.97
560.513	35.1
560.854	35.23
561.196	35.41
561.537	35.56
561.878	35.71
562.22	35.88
562.561	36.02
562.902	36.19
563.243	36.31
563.584	36.39
563.925	36.55
564.266	36.7
564.607	36.88
564.948	37.02
565.289	37.21
565.63	37.37
565.971	37.49
566.312	37.6
566.653	37.68
566.993	37.82
567.334	37.93
567.675	38.07
568.015	38.21
568.356	38.3
568.696	38.43
569.037	38.55
569.377	38.65
569.718	38.76
570.058	38.9
570.398	38.96
570.739	39.14
571.079	39.23
571.419	39.35
571.759	39.41
572.099	39.5
572.439	39.56
572.779	39.65
573.119	39.75
573.459	39.83
573.799	39.94
574.139	39.98
574.479	40.05
574.819	40.15
575.158	40.2
575.498	40.33
575.838	40.44
576.177	40.56
576.517	40.62
576.856	40.73
577.196	40.8
577.535	40.9
577.875	41.02
578.214	41.15
578.553	41.25
578.893	41.38
579.232	41.5
579.571	41.63
579.91	41.73
580.25	41.85
580.589	42
580.928	42.1
581.267	42.25
581.606	42.35
581.945	42.42
582.283	42.5
582.622	42.56
582.961	42.66
583.3	42.72
583.639	42.91
583.977	43
584.316	43.08
584.654	43.28
584.993	43.33
585.332	43.37
585.67	43.46
586.008	43.53
586.347	43.63
586.685	43.66
587.024	43.71
587.362	43.79
587.7	43.85
588.038	43.95
588.376	43.99
588.715	44.01
589.053	44.13
589.391	44.23
589.729	44.36
590.067	44.4
590.404	44.45
590.742	44.47
591.08	44.49
591.418	44.57
591.756	44.6
592.093	44.62
592.431	44.68
592.769	44.79
593.106	44.85
593.444	44.86
593.781	44.94
594.119	45
594.456	45.02
594.793	45.03
595.131	45.02
595.468	45.1
595.805	45.21
596.143	45.19
596.48	45.18
596.817	45.13
597.154	45.16
597.491	45.21
597.828	45.25
598.165	45.35
598.502	45.34
598.839	45.39
599.176	45.5
599.512	45.62
599.849	45.61
600.186	45.69
600.523	45.77
600.859	45.88
601.196	45.96
601.532	45.97
601.869	46.08
602.205	46.23
602.542	46.24
602.878	46.24
603.215	46.3
603.551	46.29
603.887	46.4
604.223	46.42
604.56	46.43
604.896	46.53
605.232	46.59
605.568	46.62
605.904	46.68
606.24	46.72
606.576	46.68
606.912	46.76
607.248	46.8
607.583	46.8
607.919	46.76
608.255	46.77
608.591	46.83
608.926	46.82
609.262	46.84
609.597	46.89
609.933	46.96
610.268	47.03
610.604	47.16
610.939	47.21
611.275	47.31
611.61	47.4
611.945	47.33
612.281	47.38
612.616	47.49
612.951	47.56
613.286	47.55
613.621	47.63
613.956	47.66
614.291	47.66
614.626	47.84
614.961	48.02
615.296	48.1
615.631	48.24
615.966	48.31
616.3	48.34
616.635	48.4
616.97	48.43
617.304	48.47
617.639	48.53
617.973	48.57
618.308	48.58
618.642	48.61
618.977	48.68
619.311	48.7
619.646	48.76
619.98	48.69
620.314	48.7
620.648	48.67
620.983	48.65
621.317	48.68
621.651	48.62
621.985	48.53
622.319	48.58
622.653	48.56
622.987	48.54
623.321	48.64
623.655	48.68
623.988	48.7
624.322	48.73
624.656	48.76
624.99	48.81
625.323	48.81
625.657	48.79
625.99	48.82
626.324	48.8
626.657	48.73
626.991	48.77
627.324	48.79
627.658	48.81
627.991	48.82
628.324	48.86
628.657	48.87
628.991	48.96
629.324	48.92
629.657	48.97
629.99	48.99
630.323	48.94
630.656	49
630.989	48.98
631.322	48.98
631.655	48.98
631.987	48.94
632.32	48.96
632.653	48.89
632.986	48.9
633.318	48.94
633.651	48.95
633.984	48.98
634.316	49.05
634.649	49.13
634.981	49.21
635.313	49.22
635.646	49.18
635.978	49.19
636.31	49.17
636.643	49.16
636.975	49.17
637.307	49.14
637.639	49.03
637.971	49.06
638.303	49.1
638.635	49.13
638.967	49.14
639.299	49.2
639.631	49.29
639.963	49.33
640.295	49.32
640.626	49.4
640.958	49.46
641.29	49.4
641.621	49.39
641.953	49.33
642.285	49.4
642.616	49.55
642.948	49.63
643.279	49.68
643.61	49.62
643.942	49.6
644.273	49.64
644.604	49.76
644.936	49.81
645.267	49.74
645.598	49.79
645.929	49.87
646.26	49.95
646.591	49.94
646.922	49.93
647.253	49.95
647.584	50.05
647.915	50.05
648.245	50.14
648.576	50.17
648.907	50.25
649.238	50.2
649.568	50.18
649.899	50.08
650.229	50.17
650.56	50.27
650.89	50.37
651.221	50.37
651.551	50.47
651.882	50.49
652.212	50.61
652.542	50.56
652.872	50.54
653.203	50.52
653.533	50.68
653.863	50.74
654.193	50.76
654.523	50.69
654.853	50.68
655.183	50.82
655.513	50.83
655.843	50.83
656.172	50.86
656.502	50.92
656.832	50.94
657.162	50.89
657.491	51
657.821	51.04
658.15	51.02
658.48	51.04
658.809	51.06
659.139	51.01
659.468	51.02
659.798	50.98
660.127	51.06
660.456	51.01
660.785	51.09
661.115	51.09
661.444	51.08
661.773	51.14
662.102	51.03
662.431	51.03
662.76	51.08
663.089	51.22
663.418	51.14
663.747	51.22
664.076	51.33
664.404	51.19
664.733	51.24
665.062	51.36
665.39	51.27
665.719	51.29
666.048	51.32
666.376	51.35
666.705	51.4
667.033	51.3
667.362	51.3
667.69	51.22
668.018	51.25
668.347	51.3
668.675	51.28
