Data from MVZ_BU26842_Reflection_00009.txt Node
Date: Tue Nov 19 12:18:29 EST 2019
User: vgr7
Spectrometer: USB2G7710
Scans to average: 3
Trigger mode: 4
Integration Time (sec): 2.000000E-2
Electric dark correction enabled: true
Boxcar width: 10
XAxis mode: Wavelengths
Number of Pixels in Spectrum: 2048
>>>>>Begin Spectral Data<<<<<
177.721	-43.79
178.105	-159.26
178.488	1044.44
178.871	104.94
179.254	433.33
179.636	-288.89
180.019	-75.93
180.402	109.09
180.785	129.63
181.168	8.12
181.55	61.81
181.933	58.94
182.316	59.9
182.698	148.45
183.081	139.86
183.463	288.6
183.846	-405.75
184.228	-550.79
184.611	-111.31
184.993	-73.15
185.376	-60.36
185.758	-55.39
186.14	-76.19
186.522	-96.47
186.904	-130.56
187.287	-63.95
187.669	-58.33
188.051	-60.58
188.433	-78.69
188.815	-76.87
189.197	-88.17
189.579	-102.72
189.961	-104.22
190.342	-88.97
190.724	-98.18
191.106	-99.86
191.488	-184.55
191.869	-351.48
192.251	-337.23
192.633	-276.81
193.014	-466.14
193.396	-613.18
193.777	-428.74
194.159	-206.37
194.54	-208.86
194.922	-286.85
195.303	-408.33
195.684	-995.96
196.065	-443.98
196.447	-262.75
196.828	-240.8
197.209	-178.59
197.59	-92.71
197.971	-61.96
198.352	-54.46
198.733	-51.72
199.114	-62.13
199.495	-53.24
199.876	-33.94
200.257	-34.96
200.638	-33.94
201.018	-35.85
201.399	-34.01
201.78	-17.62
202.16	-17.62
202.541	-13.86
202.922	-3.58
203.302	-21.21
203.683	-10.42
204.063	-19.32
204.444	-18.07
204.824	-22.51
205.204	-18.98
205.585	-33.24
205.965	-29.51
206.345	-22.93
206.725	-29.95
207.106	-17.85
207.486	-9.31
207.866	-11.81
208.246	-11.26
208.626	-19.45
209.006	-22.01
209.386	-28.46
209.766	-53.89
210.145	-45.33
210.525	-39.25
210.905	-45.9
211.285	-29.19
211.664	-30.35
212.044	-22.66
212.424	-17.61
212.803	-39.55
213.183	-44.24
213.562	-42.95
213.942	-57.71
214.321	-75.58
214.701	-65.26
215.08	-70.39
215.459	-44.72
215.838	-66.67
216.218	-83.97
216.597	-82.19
216.976	-93.22
217.355	-85.69
217.734	-86.58
218.113	-84.27
218.492	-102.65
218.871	-92.03
219.25	-116.97
219.629	-159.06
220.008	-133.62
220.387	-150.79
220.766	-91.94
221.144	-95.26
221.523	-98.22
221.902	-77.32
222.28	-61.83
222.659	-30.55
223.037	-42
223.416	-47.62
223.794	-46.83
224.173	-51.05
224.551	-50.14
224.929	-39.78
225.308	-34.88
225.686	-38.47
226.064	-38.28
226.442	-35.96
226.821	-24.09
227.199	-13.49
227.577	-14.81
227.955	-10.46
228.333	-12.47
228.711	-12.99
229.089	-14.68
229.467	-14.17
229.845	-15.96
230.222	-13.63
230.6	-16.37
230.978	-13.7
231.356	-13.55
231.733	-11.82
232.111	-9.98
232.488	-8.42
232.866	-9.35
233.243	-10.77
233.621	-7.96
233.998	-8.09
234.376	-3.96
234.753	-5.32
235.13	-8.39
235.508	-6.17
235.885	-7
236.262	-4.78
236.639	-5.53
237.016	-4.16
237.393	-2.73
237.77	-2.35
238.147	-1.79
238.524	-1.94
238.901	-3.03
239.278	-3.23
239.655	-1.73
240.032	-0.95
240.409	-1.38
240.785	-0.72
241.162	-0.57
241.539	-0.61
241.915	-0.26
242.292	-0.15
242.668	-0.03
243.045	0.88
243.421	1.56
243.798	1.85
244.174	2.27
244.551	2.73
244.927	3.04
245.303	3.16
245.679	3.39
246.056	3.18
246.432	3.3
246.808	3.79
247.184	4.25
247.56	4.14
247.936	4.02
248.312	4.08
248.688	4.1
249.064	4.11
249.44	4.08
249.815	4.02
250.191	3.93
250.567	4.24
250.943	4.3
251.318	4.25
251.694	4.26
252.069	3.69
252.445	3.32
252.82	3.3
253.196	3.24
253.571	2.78
253.947	2.81
254.322	2.4
254.697	2.35
255.073	1.85
255.448	1.75
255.823	1.87
256.198	1.9
256.573	2.06
256.948	2.5
257.323	2.55
257.698	2.86
258.073	2.72
258.448	2.5
258.823	2.42
259.198	2.41
259.573	2.29
259.948	2.6
260.322	2.69
260.697	2.62
261.072	2.75
261.446	2.91
261.821	2.95
262.195	3.03
262.57	2.94
262.944	3.19
263.319	3.29
263.693	3.21
264.067	3.36
264.442	3.38
264.816	3.21
265.19	3.29
265.564	3.07
265.938	3.27
266.313	3.46
266.687	3.4
267.061	3.28
267.435	3.35
267.809	3.09
268.183	3.25
268.556	3.21
268.93	3.23
269.304	3.29
269.678	3.39
270.051	3.57
270.425	3.79
270.799	3.67
271.172	3.62
271.546	3.68
271.919	3.72
272.293	3.65
272.666	3.7
273.04	3.58
273.413	3.59
273.787	3.59
274.16	3.29
274.533	3.25
274.906	3.43
275.279	3.41
275.653	3.58
276.026	3.59
276.399	3.58
276.772	3.34
277.145	3.14
277.518	2.98
277.891	3.07
278.263	2.84
278.636	2.86
279.009	2.87
279.382	2.83
279.755	2.81
280.127	2.78
280.5	2.8
280.872	2.99
281.245	3
281.617	3.1
281.99	3.17
282.362	3.28
282.735	3.2
283.107	3.37
283.479	3.43
283.852	3.41
284.224	3.47
284.596	3.55
284.968	3.68
285.34	3.74
285.713	3.66
286.085	3.56
286.457	3.48
286.829	3.58
287.201	3.53
287.572	3.69
287.944	3.84
288.316	3.79
288.688	3.79
289.06	3.82
289.431	3.64
289.803	3.81
290.175	3.83
290.546	3.84
290.918	3.78
291.289	3.6
291.661	3.64
292.032	3.61
292.403	3.58
292.775	3.54
293.146	3.78
293.517	3.71
293.889	3.84
294.26	3.93
294.631	3.92
295.002	4.06
295.373	3.91
295.744	3.84
296.115	3.98
296.486	3.97
296.857	4.02
297.228	4
297.599	4.1
297.97	4.2
298.34	4.25
298.711	4.48
299.082	4.67
299.452	4.74
299.823	4.75
300.194	4.94
300.564	5.1
300.935	5.07
301.305	5.22
301.676	5.3
302.046	5.41
302.416	5.34
302.787	5.46
303.157	5.54
303.527	5.59
303.897	5.6
304.267	5.74
304.637	5.7
305.008	6
305.378	5.8
305.748	5.72
306.117	5.77
306.487	5.49
306.857	5.57
307.227	5.54
307.597	5.69
307.967	5.65
308.336	5.59
308.706	5.47
309.076	5.42
309.445	5.48
309.815	5.5
310.184	5.6
310.554	5.6
310.923	5.64
311.293	5.64
311.662	5.65
312.031	5.54
312.401	5.72
312.77	5.64
313.139	5.78
313.508	6
313.877	6.03
314.246	6.12
314.616	6.09
314.985	6.16
315.353	6.17
315.722	6.28
316.091	6.37
316.46	6.54
316.829	6.68
317.198	6.71
317.567	6.92
317.935	7.09
318.304	7.33
318.672	7.42
319.041	7.39
319.41	7.44
319.778	7.57
320.147	7.72
320.515	7.74
320.883	7.79
321.252	7.73
321.62	7.76
321.988	7.91
322.357	7.98
322.725	7.87
323.093	7.91
323.461	7.93
323.829	8.13
324.197	8.1
324.565	8.17
324.933	8.17
325.301	8.09
325.669	8.15
326.037	8.12
326.405	8.24
326.772	8.45
327.14	8.47
327.508	8.58
327.875	8.49
328.243	8.63
328.61	8.66
328.978	8.65
329.346	8.78
329.713	8.74
330.08	8.7
330.448	8.78
330.815	8.8
331.182	8.68
331.55	8.74
331.917	8.78
332.284	8.96
332.651	9.06
333.018	9.14
333.385	9.08
333.752	8.96
334.119	9.1
334.486	9.09
334.853	9.03
335.22	8.99
335.587	8.94
335.954	9.02
336.32	8.94
336.687	9.13
337.054	9.07
337.42	9.26
337.787	9.26
338.153	9.45
338.52	9.5
338.886	9.72
339.253	9.64
339.619	9.75
339.986	9.51
340.352	9.62
340.718	9.61
341.084	9.52
341.451	9.51
341.817	9.4
342.183	9.31
342.549	9.42
342.915	9.43
343.281	9.56
343.647	9.53
344.013	9.63
344.379	9.39
344.745	9.44
345.11	9.43
345.476	9.63
345.842	9.58
346.208	9.54
346.573	9.54
346.939	9.6
347.304	9.58
347.67	9.73
348.035	9.68
348.401	9.67
348.766	9.79
349.132	9.99
349.497	10.09
349.862	10.14
350.228	10.28
350.593	10.23
350.958	10.29
351.323	10.33
351.688	10.4
352.053	10.48
352.418	10.52
352.783	10.45
353.148	10.39
353.513	10.39
353.878	10.44
354.243	10.23
354.608	10.26
354.972	10.25
355.337	10.32
355.702	10.32
356.066	10.3
356.431	10.31
356.795	10.27
357.16	10.16
357.524	10.2
357.889	10.06
358.253	10.13
358.618	10.13
358.982	10.12
359.346	10.07
359.71	10.08
360.075	10.1
360.439	10.1
360.803	10.2
361.167	10.21
361.531	10.23
361.895	10.36
362.259	10.36
362.623	10.38
362.987	10.35
363.351	10.33
363.714	10.37
364.078	10.3
364.442	10.3
364.806	10.32
365.169	10.31
365.533	10.36
365.896	10.35
366.26	10.25
366.623	10.21
366.987	10.21
367.35	10.23
367.714	10.2
368.077	10.31
368.44	10.2
368.803	10.16
369.167	10.07
369.53	10.04
369.893	9.95
370.256	9.91
370.619	9.75
370.982	9.65
371.345	9.66
371.708	9.6
372.071	9.55
372.434	9.46
372.797	9.45
373.159	9.51
373.522	9.41
373.885	9.42
374.247	9.47
374.61	9.48
374.973	9.41
375.335	9.4
375.698	9.24
376.06	9.18
376.423	9.18
376.785	9.16
377.147	9.15
377.51	9.19
377.872	9.14
378.234	9.17
378.596	9.19
378.958	9.09
379.321	9.09
379.683	9.01
380.045	9.01
380.407	8.94
380.769	8.84
381.13	8.85
381.492	8.8
381.854	8.76
382.216	8.62
382.578	8.59
382.939	8.5
383.301	8.52
383.663	8.52
384.024	8.5
384.386	8.42
384.747	8.36
385.109	8.26
385.47	8.16
385.832	8.1
386.193	8.1
386.554	8.02
386.916	7.99
387.277	7.92
387.638	7.9
387.999	7.92
388.36	7.85
388.721	7.82
389.082	7.82
389.443	7.76
389.804	7.78
390.165	7.77
390.526	7.73
390.887	7.64
391.248	7.56
391.609	7.47
391.969	7.46
392.33	7.44
392.691	7.42
393.051	7.43
393.412	7.42
393.772	7.34
394.133	7.33
394.493	7.31
394.854	7.32
395.214	7.29
395.574	7.24
395.935	7.21
396.295	7.16
396.655	7.08
397.015	7.02
397.376	6.93
397.736	6.88
398.096	6.84
398.456	6.79
398.816	6.75
399.176	6.7
399.535	6.7
399.895	6.61
400.255	6.53
400.615	6.5
400.975	6.42
401.334	6.39
401.694	6.37
402.054	6.3
402.413	6.24
402.773	6.21
403.132	6.14
403.492	6.09
403.851	6.05
404.211	6.03
404.57	6
404.929	6
405.288	5.98
405.648	5.94
406.007	5.94
406.366	5.91
406.725	5.9
407.084	5.86
407.443	5.85
407.802	5.85
408.161	5.84
408.52	5.89
408.879	5.89
409.238	5.86
409.596	5.85
409.955	5.86
410.314	5.81
410.673	5.81
411.031	5.77
411.39	5.75
411.748	5.75
412.107	5.73
412.465	5.72
412.824	5.68
413.182	5.68
413.54	5.66
413.899	5.65
414.257	5.68
414.615	5.66
414.974	5.65
415.332	5.64
415.69	5.6
416.048	5.54
416.406	5.48
416.764	5.48
417.122	5.45
417.48	5.42
417.838	5.37
418.195	5.36
418.553	5.36
418.911	5.33
419.269	5.3
419.626	5.28
419.984	5.28
420.342	5.26
420.699	5.22
421.057	5.21
421.414	5.19
421.772	5.14
422.129	5.1
422.486	5.07
422.844	5.06
423.201	5.07
423.558	5.03
423.915	5.04
424.273	5.01
424.63	5.01
424.987	4.99
425.344	5.01
425.701	5
426.058	4.97
426.415	4.95
426.772	4.94
427.128	4.91
427.485	4.86
427.842	4.86
428.199	4.85
428.555	4.81
428.912	4.8
429.269	4.79
429.625	4.78
429.982	4.77
430.338	4.75
430.695	4.7
431.051	4.7
431.407	4.7
431.764	4.71
432.12	4.68
432.476	4.68
432.832	4.66
433.189	4.65
433.545	4.67
433.901	4.68
434.257	4.68
434.613	4.69
434.969	4.69
435.325	4.7
435.681	4.69
436.036	4.7
436.392	4.69
436.748	4.71
437.104	4.72
437.459	4.73
437.815	4.72
438.171	4.73
438.526	4.75
438.882	4.72
439.237	4.7
439.593	4.74
439.948	4.74
440.304	4.74
440.659	4.75
441.014	4.74
441.369	4.74
441.725	4.74
442.08	4.74
442.435	4.75
442.79	4.73
443.145	4.75
443.5	4.75
443.855	4.74
444.21	4.74
444.565	4.74
444.92	4.73
445.275	4.71
445.629	4.69
445.984	4.67
446.339	4.67
446.693	4.67
447.048	4.62
447.403	4.61
447.757	4.57
448.112	4.54
448.466	4.54
448.82	4.52
449.175	4.51
449.529	4.5
449.883	4.47
450.238	4.47
450.592	4.44
450.946	4.44
451.3	4.43
451.654	4.39
452.008	4.36
452.362	4.35
452.716	4.38
453.07	4.37
453.424	4.36
453.778	4.34
454.132	4.32
454.486	4.32
454.839	4.31
455.193	4.33
455.547	4.33
455.9	4.32
456.254	4.3
456.607	4.31
456.961	4.29
457.314	4.28
457.668	4.26
458.021	4.27
458.375	4.25
458.728	4.26
459.081	4.27
459.434	4.28
459.787	4.29
460.141	4.28
460.494	4.3
460.847	4.31
461.2	4.34
461.553	4.36
461.906	4.38
462.259	4.38
462.611	4.39
462.964	4.42
463.317	4.41
463.67	4.43
464.022	4.46
464.375	4.48
464.728	4.5
465.08	4.54
465.433	4.56
465.785	4.59
466.138	4.62
466.49	4.65
466.843	4.67
467.195	4.68
467.547	4.69
467.899	4.69
468.252	4.74
468.604	4.75
468.956	4.75
469.308	4.76
469.66	4.81
470.012	4.82
470.364	4.81
470.716	4.86
471.068	4.89
471.42	4.9
471.772	4.93
472.123	4.95
472.475	4.97
472.827	4.98
473.178	4.98
473.53	4.99
473.882	5.01
474.233	5.02
474.585	5.02
474.936	5.04
475.288	5.05
475.639	5.05
475.99	5.07
476.342	5.08
476.693	5.11
477.044	5.09
477.395	5.08
477.746	5.08
478.097	5.08
478.448	5.03
478.8	5
479.15	4.97
479.501	4.97
479.852	4.97
480.203	4.96
480.554	4.95
480.905	4.96
481.255	4.94
481.606	4.94
481.957	4.93
482.307	4.91
482.658	4.9
483.009	4.89
483.359	4.87
483.709	4.86
484.06	4.86
484.41	4.85
484.761	4.86
485.111	4.86
485.461	4.85
485.811	4.86
486.162	4.87
486.512	4.87
486.862	4.86
487.212	4.85
487.562	4.85
487.912	4.85
488.262	4.83
488.612	4.83
488.961	4.84
489.311	4.85
489.661	4.86
490.011	4.86
490.36	4.87
490.71	4.88
491.06	4.88
491.409	4.89
491.759	4.9
492.108	4.9
492.458	4.91
492.807	4.94
493.157	4.95
493.506	4.97
493.855	5
494.204	5.02
494.554	5.07
494.903	5.11
495.252	5.14
495.601	5.18
495.95	5.23
496.299	5.27
496.648	5.32
496.997	5.37
497.346	5.45
497.695	5.52
498.043	5.59
498.392	5.66
498.741	5.73
499.09	5.82
499.438	5.91
499.787	6
500.135	6.05
500.484	6.16
500.832	6.24
501.181	6.34
501.529	6.46
501.878	6.54
502.226	6.64
502.574	6.76
502.923	6.9
503.271	7.01
503.619	7.14
503.967	7.25
504.315	7.4
504.663	7.52
505.011	7.69
505.359	7.82
505.707	7.97
506.055	8.13
506.403	8.29
506.751	8.47
507.098	8.61
507.446	8.81
507.794	8.99
508.141	9.18
508.489	9.36
508.837	9.51
509.184	9.69
509.531	9.88
509.879	10.08
510.226	10.25
510.574	10.46
510.921	10.65
511.268	10.82
511.616	11
511.963	11.21
512.31	11.38
512.657	11.6
513.004	11.79
513.351	12.01
513.698	12.23
514.045	12.44
514.392	12.69
514.739	12.93
515.086	13.13
515.432	13.35
515.779	13.55
516.126	13.78
516.473	13.99
516.819	14.22
517.166	14.45
517.512	14.65
517.859	14.84
518.205	15.01
518.552	15.23
518.898	15.42
519.245	15.63
519.591	15.84
519.937	16.04
520.283	16.25
520.629	16.46
520.976	16.67
521.322	16.9
521.668	17.14
522.014	17.38
522.36	17.62
522.706	17.87
523.052	18.18
523.398	18.47
523.743	18.79
524.089	19.06
524.435	19.31
524.781	19.58
525.126	19.8
525.472	20.03
525.817	20.27
526.163	20.46
526.509	20.62
526.854	20.78
527.199	20.94
527.545	21.14
527.89	21.31
528.235	21.5
528.581	21.66
528.926	21.82
529.271	22.01
529.616	22.19
529.961	22.4
530.306	22.56
530.651	22.74
530.996	22.93
531.341	23.13
531.686	23.31
532.031	23.54
532.376	23.77
532.721	24.03
533.065	24.24
533.41	24.5
533.755	24.77
534.099	25.03
534.444	25.3
534.788	25.53
535.133	25.75
535.477	25.99
535.822	26.24
536.166	26.52
536.51	26.79
536.855	27.09
537.199	27.37
537.543	27.7
537.887	28.03
538.231	28.34
538.576	28.65
538.92	28.97
539.264	29.29
539.608	29.56
539.951	29.8
540.295	30.09
540.639	30.31
540.983	30.53
541.327	30.75
541.671	30.97
542.014	31.2
542.358	31.43
542.701	31.63
543.045	31.88
543.389	32.07
543.732	32.29
544.075	32.52
544.419	32.73
544.762	32.93
545.105	33.14
545.449	33.41
545.792	33.66
546.135	33.95
546.478	34.17
546.821	34.44
547.165	34.7
547.508	34.92
547.851	35.2
548.194	35.45
548.536	35.72
548.879	35.95
549.222	36.19
549.565	36.47
549.908	36.69
550.25	36.87
550.593	37.15
550.936	37.32
551.278	37.56
551.621	37.81
551.963	38.01
552.306	38.23
552.648	38.41
552.991	38.65
553.333	38.75
553.675	38.89
554.017	39.12
554.36	39.29
554.702	39.45
555.044	39.64
555.386	39.86
555.728	40.03
556.07	40.18
556.412	40.34
556.754	40.47
557.096	40.68
557.438	40.81
557.78	41.02
558.121	41.28
558.463	41.4
558.805	41.63
559.147	41.87
559.488	41.98
559.83	42.13
560.171	42.28
560.513	42.46
560.854	42.65
561.196	42.79
561.537	42.98
561.878	43.13
562.22	43.26
562.561	43.38
562.902	43.53
563.243	43.63
563.584	43.8
563.925	43.85
564.266	43.95
564.607	44.17
564.948	44.24
565.289	44.35
565.63	44.51
565.971	44.52
566.312	44.61
566.653	44.77
566.993	44.91
567.334	45
567.675	45.09
568.015	45.23
568.356	45.33
568.696	45.43
569.037	45.52
569.377	45.64
569.718	45.76
570.058	45.88
570.398	46.01
570.739	46.07
571.079	46.3
571.419	46.42
571.759	46.54
572.099	46.63
572.439	46.69
572.779	46.72
573.119	46.83
573.459	46.9
573.799	46.97
574.139	47.02
574.479	47.12
574.819	47.21
575.158	47.27
575.498	47.36
575.838	47.43
576.177	47.51
576.517	47.54
576.856	47.57
577.196	47.56
577.535	47.64
577.875	47.69
578.214	47.67
578.553	47.77
578.893	47.79
579.232	47.86
579.571	47.93
579.91	48.03
580.25	48.07
580.589	48.2
580.928	48.33
581.267	48.35
581.606	48.39
581.945	48.47
582.283	48.51
582.622	48.52
582.961	48.56
583.3	48.64
583.639	48.68
583.977	48.73
584.316	48.87
584.654	48.94
584.993	49.1
585.332	49.23
585.67	49.23
586.008	49.29
586.347	49.39
586.685	49.38
587.024	49.47
587.362	49.55
587.7	49.64
588.038	49.7
588.376	49.86
588.715	49.94
589.053	50.01
589.391	50.07
589.729	50.21
590.067	50.23
590.404	50.29
590.742	50.43
591.08	50.51
591.418	50.58
591.756	50.63
592.093	50.61
592.431	50.59
592.769	50.68
593.106	50.74
593.444	50.72
593.781	50.81
594.119	50.82
594.456	50.94
594.793	50.96
595.131	50.99
595.468	51.02
595.805	51.11
596.143	51.1
596.48	51.16
596.817	51.07
597.154	51.06
597.491	51.11
597.828	51.09
598.165	51.15
598.502	51.16
598.839	51.28
599.176	51.33
599.512	51.3
599.849	51.28
600.186	51.28
600.523	51.32
600.859	51.37
601.196	51.45
601.532	51.45
601.869	51.48
602.205	51.48
602.542	51.47
602.878	51.46
603.215	51.51
603.551	51.54
603.887	51.66
604.223	51.78
604.56	51.81
604.896	51.9
605.232	51.9
605.568	51.93
605.904	51.88
606.24	51.89
606.576	52.04
606.912	52.07
607.248	52.1
607.583	52.21
607.919	52.25
608.255	52.26
608.591	52.27
608.926	52.26
609.262	52.32
609.597	52.34
609.933	52.31
610.268	52.36
610.604	52.33
610.939	52.33
611.275	52.31
611.61	52.28
611.945	52.23
612.281	52.25
612.616	52.37
612.951	52.39
613.286	52.45
613.621	52.45
613.956	52.6
614.291	52.58
614.626	52.49
614.961	52.54
615.296	52.56
615.631	52.53
615.966	52.51
616.3	52.47
616.635	52.56
616.97	52.63
617.304	52.52
617.639	52.65
617.973	52.76
618.308	52.75
618.642	52.77
618.977	52.88
619.311	52.92
619.646	52.81
619.98	52.86
620.314	52.93
620.648	52.95
620.983	52.92
621.317	53.04
621.651	53.15
621.985	53.11
622.319	53.16
622.653	53.24
622.987	53.26
623.321	53.27
623.655	53.25
623.988	53.26
624.322	53.37
624.656	53.39
624.99	53.31
625.323	53.36
625.657	53.31
625.99	53.29
626.324	53.3
626.657	53.29
626.991	53.26
627.324	53.22
627.658	53.21
627.991	53.25
628.324	53.19
628.657	53.16
628.991	53.17
629.324	53.15
629.657	53.13
629.99	53.12
630.323	53.19
630.656	53.25
630.989	53.28
631.322	53.34
631.655	53.36
631.987	53.41
632.32	53.43
632.653	53.55
632.986	53.62
633.318	53.65
633.651	53.65
633.984	53.75
634.316	53.78
634.649	53.74
634.981	53.75
635.313	53.86
635.646	53.99
635.978	54.14
636.31	54.15
636.643	54.17
636.975	54.22
637.307	54.22
637.639	54.2
637.971	54.22
638.303	54.15
638.635	54.17
638.967	54.25
639.299	54.27
639.631	54.23
639.963	54.14
640.295	54.15
640.626	54.23
640.958	54.2
641.29	54.21
641.621	54.24
641.953	54.23
642.285	54.15
642.616	54.04
642.948	53.92
643.279	53.91
643.61	54.02
643.942	54.03
644.273	54
644.604	54
644.936	53.99
645.267	54.07
645.598	54.03
645.929	53.89
646.26	53.83
646.591	53.86
646.922	53.97
647.253	54.05
647.584	54.03
647.915	53.88
648.245	53.91
648.576	53.95
648.907	54
649.238	54.07
649.568	54.12
649.899	54.17
650.229	54.14
650.56	54.21
650.89	54.27
651.221	54.32
651.551	54.35
651.882	54.29
652.212	54.23
652.542	54.2
652.872	54.29
653.203	54.28
653.533	54.32
653.863	54.32
654.193	54.33
654.523	54.39
654.853	54.63
655.183	54.71
655.513	54.74
655.843	54.75
656.172	54.8
656.502	54.73
656.832	54.75
657.162	54.83
657.491	54.81
657.821	54.71
658.15	54.87
658.48	54.94
658.809	55.1
659.139	55.07
659.468	55.17
659.798	55.22
660.127	55.29
660.456	55.29
660.785	55.31
661.115	55.31
661.444	55.27
661.773	55.14
662.102	55.06
662.431	55
662.76	55.08
663.089	55.15
663.418	55.25
663.747	55.33
