Data from MVZ_BU163026_Reflection_00012.txt Node
Date: Tue Nov 19 12:06:10 EST 2019
User: vgr7
Spectrometer: USB2G7710
Scans to average: 3
Trigger mode: 4
Integration Time (sec): 2.000000E-2
Electric dark correction enabled: true
Boxcar width: 10
XAxis mode: Wavelengths
Number of Pixels in Spectrum: 2048
>>>>>Begin Spectral Data<<<<<
177.721	31.33
178.105	-143.24
178.488	-33.11
178.871	-29.85
179.254	-20
179.636	14.05
180.019	46.17
180.402	350
180.785	809.09
181.168	-94.2
181.55	-3.45
181.933	437.08
182.316	49.26
182.698	55.29
183.081	69.89
183.463	49.46
183.846	50.7
184.228	57.1
184.611	38.96
184.993	21.14
185.376	35.74
185.758	24.37
186.14	38.72
186.522	42.05
186.904	45.45
187.287	63.94
187.669	55.46
188.051	43.02
188.433	37.68
188.815	45.42
189.197	47.55
189.579	37.72
189.961	23.34
190.342	33.1
190.724	52.48
191.106	31.18
191.488	33.91
191.869	17.21
192.251	25.4
192.633	41.89
193.014	82.71
193.396	94.89
193.777	46.14
194.159	77.7
194.54	216.88
194.922	-847.37
195.303	-116
195.684	23.86
196.065	129.56
196.447	-216.58
196.828	5554.55
197.209	524.78
197.59	1709.76
197.971	1568.09
198.352	391.83
198.733	270.57
199.114	543.35
199.495	259.15
199.876	317.92
200.257	168.07
200.638	271.25
201.018	354.36
201.399	1658.44
201.78	2254.93
202.16	338.83
202.541	243.07
202.922	238.6
203.302	244.95
203.683	207.28
204.063	135.29
204.444	127.31
204.824	128.24
205.204	1345.28
205.585	1197.56
205.965	353.52
206.345	2.83
206.725	13.53
207.106	100
207.486	57.84
207.866	118.49
208.246	83.62
208.626	87.32
209.006	113.78
209.386	124.97
209.766	174.16
210.145	134.26
210.525	179.52
210.905	208.06
211.285	116.93
211.664	96.14
212.044	92.31
212.424	80.58
212.803	85.18
213.183	110.57
213.562	107.73
213.942	83.41
214.321	81.42
214.701	94.48
215.08	63.23
215.459	72.11
215.838	47.5
216.218	26.62
216.597	35.88
216.976	75.24
217.355	79.75
217.734	58.58
218.113	68.54
218.492	61.56
218.871	53.85
219.25	55.54
219.629	45
220.008	43.26
220.387	56.97
220.766	64.01
221.144	53.81
221.523	48.31
221.902	53.89
222.28	57.71
222.659	56.05
223.037	54.57
223.416	55.62
223.794	44.15
224.173	47.32
224.551	39.52
224.929	26.33
225.308	22.91
225.686	24.57
226.064	17.55
226.442	16.47
226.821	9.36
227.199	13.49
227.577	15.02
227.955	12.43
228.333	8.29
228.711	6.03
229.089	7.45
229.467	9.83
229.845	10.03
230.222	14.6
230.6	13.64
230.978	12.32
231.356	12.83
231.733	14.28
232.111	12.97
232.488	13.18
232.866	14.51
233.243	15.81
233.621	15.39
233.998	13.4
234.376	12.94
234.753	13.51
235.13	11.81
235.508	11.82
235.885	11.94
236.262	12.11
236.639	11.52
237.016	10.67
237.393	10
237.77	10.23
238.147	8.55
238.524	8.14
238.901	7.22
239.278	5.49
239.655	5.62
240.032	5.44
240.409	5.68
240.785	5.12
241.162	4.28
241.539	4.14
241.915	4.32
242.292	4.79
242.668	5.05
243.045	5.14
243.421	5.22
243.798	4.9
244.174	4.88
244.551	4.95
244.927	4.91
245.303	4.2
245.679	4.12
246.056	3.88
246.432	3.92
246.808	4.47
247.184	4.59
247.56	4.52
247.936	4.82
248.312	5.06
248.688	5.23
249.064	5.21
249.44	5.1
249.815	5.16
250.191	4.98
250.567	4.72
250.943	4.58
251.318	4.33
251.694	3.88
252.069	3.83
252.445	3.79
252.82	4.18
253.196	4.25
253.571	4.14
253.947	4.09
254.322	4.21
254.697	4.11
255.073	3.95
255.448	4
255.823	3.74
256.198	3.26
256.573	3.1
256.948	3.04
257.323	3.29
257.698	3.29
258.073	3.33
258.448	3.33
258.823	3.45
259.198	3.58
259.573	3.81
259.948	4
260.322	3.77
260.697	3.61
261.072	3.94
261.446	3.89
261.821	3.94
262.195	3.74
262.57	3.82
262.944	4
263.319	3.97
263.693	3.89
264.067	3.98
264.442	3.88
264.816	3.86
265.19	3.78
265.564	3.68
265.938	3.68
266.313	3.88
266.687	3.74
267.061	3.47
267.435	3.43
267.809	3.07
268.183	3.31
268.556	3.09
268.93	2.98
269.304	2.88
269.678	2.93
270.051	3.04
270.425	2.87
270.799	2.43
271.172	2.52
271.546	2.67
271.919	2.5
272.293	2.51
272.666	2.64
273.04	2.64
273.413	2.73
273.787	2.78
274.16	2.54
274.533	2.58
274.906	2.85
275.279	2.93
275.653	3.17
276.026	3.03
276.399	2.97
276.772	3.01
277.145	2.92
277.518	2.79
277.891	2.66
278.263	2.63
278.636	3.09
279.009	2.95
279.382	2.66
279.755	2.85
280.127	2.91
280.5	2.66
280.872	2.67
281.245	2.67
281.617	2.52
281.99	2.62
282.362	2.72
282.735	2.5
283.107	2.41
283.479	2.15
283.852	2.2
284.224	2.38
284.596	2.26
284.968	2.41
285.34	2.42
285.713	2.44
286.085	2.47
286.457	2.43
286.829	2.48
287.201	2.65
287.572	2.67
287.944	2.68
288.316	2.79
288.688	2.88
289.06	2.9
289.431	3.01
289.803	3.11
290.175	3.02
290.546	3.09
290.918	3.28
291.289	3.45
291.661	3.64
292.032	3.69
292.403	3.72
292.775	3.75
293.146	3.79
293.517	3.92
293.889	4.02
294.26	3.99
294.631	3.99
295.002	4.06
295.373	4.02
295.744	4.06
296.115	4.04
296.486	4.03
296.857	3.97
297.228	3.87
297.599	3.75
297.97	3.75
298.34	3.69
298.711	3.55
299.082	3.62
299.452	3.46
299.823	3.48
300.194	3.55
300.564	3.62
300.935	3.77
301.305	3.72
301.676	3.57
302.046	3.54
302.416	3.55
302.787	3.45
303.157	3.48
303.527	3.55
303.897	3.59
304.267	3.64
304.637	3.66
305.008	3.83
305.378	3.94
305.748	4.12
306.117	4.23
306.487	4.36
306.857	4.43
307.227	4.56
307.597	4.53
307.967	4.52
308.336	4.38
308.706	4.24
309.076	4.32
309.445	4.44
309.815	4.45
310.184	4.36
310.554	4.47
310.923	4.44
311.293	4.41
311.662	4.48
312.031	4.54
312.401	4.63
312.77	4.56
313.139	4.48
313.508	4.41
313.877	4.4
314.246	4.42
314.616	4.34
314.985	4.35
315.353	4.4
315.722	4.45
316.091	4.69
316.46	4.72
316.829	4.62
317.198	4.53
317.567	4.57
317.935	4.66
318.304	4.78
318.672	4.9
319.041	5
319.41	5.02
319.778	4.93
320.147	4.93
320.515	4.88
320.883	4.95
321.252	5.07
321.62	5.21
321.988	5.28
322.357	5.31
322.725	5.2
323.093	5.2
323.461	5.23
323.829	5.11
324.197	5.21
324.565	5.34
324.933	5.48
325.301	5.49
325.669	5.54
326.037	5.36
326.405	5.31
326.772	5.35
327.14	5.38
327.508	5.46
327.875	5.49
328.243	5.55
328.61	5.64
328.978	5.4
329.346	5.41
329.713	5.37
330.08	5.42
330.448	5.5
330.815	5.44
331.182	5.35
331.55	5.48
331.917	5.39
332.284	5.36
332.651	5.34
333.018	5.32
333.385	5.37
333.752	5.51
334.119	5.53
334.486	5.47
334.853	5.52
335.22	5.47
335.587	5.51
335.954	5.51
336.32	5.42
336.687	5.66
337.054	5.6
337.42	5.63
337.787	5.52
338.153	5.56
338.52	5.87
338.886	5.96
339.253	5.87
339.619	6.05
339.986	5.96
340.352	6.1
340.718	6.22
341.084	6.15
341.451	6.22
341.817	6.29
342.183	6.32
342.549	6.3
342.915	6.32
343.281	6.29
343.647	6.47
344.013	6.51
344.379	6.53
344.745	6.63
345.11	6.59
345.476	6.77
345.842	6.76
346.208	6.5
346.573	6.54
346.939	6.62
347.304	6.69
347.67	6.84
348.035	6.7
348.401	6.71
348.766	6.76
349.132	6.73
349.497	6.69
349.862	6.65
350.228	6.72
350.593	6.67
350.958	6.69
351.323	6.53
351.688	6.6
352.053	6.64
352.418	6.52
352.783	6.63
353.148	6.53
353.513	6.47
353.878	6.51
354.243	6.47
354.608	6.49
354.972	6.36
355.337	6.4
355.702	6.38
356.066	6.26
356.431	6.28
356.795	6.27
357.16	6.31
357.524	6.36
357.889	6.23
358.253	6.27
358.618	6.23
358.982	6.22
359.346	6.15
359.71	6.07
360.075	6.1
360.439	6.05
360.803	6.11
361.167	6.06
361.531	6.13
361.895	6.04
362.259	6.03
362.623	6.03
362.987	5.96
363.351	5.94
363.714	5.99
364.078	5.99
364.442	6
364.806	6.02
365.169	5.94
365.533	6.06
365.896	6.11
366.26	6.14
366.623	6.11
366.987	6.15
367.35	6.23
367.714	6.2
368.077	6.14
368.44	6.07
368.803	6.15
369.167	6.09
369.53	6.16
369.893	6.14
370.256	6.06
370.619	5.97
370.982	6
371.345	5.92
371.708	5.88
372.071	5.73
372.434	5.61
372.797	5.6
373.159	5.52
373.522	5.37
373.885	5.37
374.247	5.38
374.61	5.28
374.973	5.2
375.335	5.17
375.698	5.13
376.06	5.09
376.423	4.99
376.785	5.06
377.147	4.96
377.51	4.85
377.872	4.89
378.234	4.9
378.596	4.88
378.958	4.91
379.321	4.82
379.683	4.91
380.045	4.83
380.407	4.84
380.769	4.77
381.13	4.82
381.492	4.79
381.854	4.81
382.216	4.86
382.578	4.85
382.939	4.84
383.301	4.81
383.663	4.8
384.024	4.82
384.386	4.76
384.747	4.79
385.109	4.8
385.47	4.71
385.832	4.65
386.193	4.63
386.554	4.53
386.916	4.55
387.277	4.44
387.638	4.48
387.999	4.47
388.36	4.47
388.721	4.41
389.082	4.38
389.443	4.3
389.804	4.29
390.165	4.23
390.526	4.21
390.887	4.17
391.248	4.13
391.609	4.1
391.969	4.02
392.33	3.97
392.691	3.94
393.051	3.96
393.412	3.97
393.772	3.96
394.133	3.96
394.493	3.93
394.854	3.93
395.214	3.88
395.574	3.82
395.935	3.79
396.295	3.77
396.655	3.71
397.015	3.72
397.376	3.68
397.736	3.7
398.096	3.68
398.456	3.7
398.816	3.7
399.176	3.66
399.535	3.71
399.895	3.73
400.255	3.73
400.615	3.69
400.975	3.67
401.334	3.62
401.694	3.6
402.054	3.59
402.413	3.58
402.773	3.59
403.132	3.57
403.492	3.59
403.851	3.57
404.211	3.56
404.57	3.55
404.929	3.49
405.288	3.44
405.648	3.4
406.007	3.39
406.366	3.38
406.725	3.37
407.084	3.32
407.443	3.3
407.802	3.31
408.161	3.33
408.52	3.31
408.879	3.31
409.238	3.31
409.596	3.32
409.955	3.33
410.314	3.31
410.673	3.32
411.031	3.28
411.39	3.28
411.748	3.29
412.107	3.27
412.465	3.22
412.824	3.23
413.182	3.23
413.54	3.2
413.899	3.18
414.257	3.2
414.615	3.21
414.974	3.21
415.332	3.16
415.69	3.13
416.048	3.13
416.406	3.1
416.764	3.09
417.122	3.06
417.48	3.05
417.838	3.05
418.195	3.04
418.553	3.02
418.911	3.02
419.269	3.01
419.626	3.02
419.984	3.06
420.342	3.06
420.699	3.05
421.057	3.04
421.414	3.03
421.772	3
422.129	2.98
422.486	2.97
422.844	2.97
423.201	2.96
423.558	2.95
423.915	2.96
424.273	2.96
424.63	2.97
424.987	2.96
425.344	2.95
425.701	2.94
426.058	2.95
426.415	2.94
426.772	2.94
427.128	2.9
427.485	2.89
427.842	2.9
428.199	2.91
428.555	2.91
428.912	2.89
429.269	2.9
429.625	2.9
429.982	2.9
430.338	2.92
430.695	2.94
431.051	2.94
431.407	2.92
431.764	2.94
432.12	2.93
432.476	2.93
432.832	2.94
433.189	2.94
433.545	2.93
433.901	2.94
434.257	2.94
434.613	2.96
434.969	2.97
435.325	2.95
435.681	2.96
436.036	2.96
436.392	2.97
436.748	2.97
437.104	2.96
437.459	2.94
437.815	2.94
438.171	2.94
438.526	2.96
438.882	2.97
439.237	2.95
439.593	2.95
439.948	2.95
440.304	2.95
440.659	2.96
441.014	2.95
441.369	2.95
441.725	2.94
442.08	2.94
442.435	2.93
442.79	2.91
443.145	2.9
443.5	2.9
443.855	2.9
444.21	2.9
444.565	2.91
444.92	2.93
445.275	2.93
445.629	2.93
445.984	2.91
446.339	2.9
446.693	2.92
447.048	2.91
447.403	2.9
447.757	2.9
448.112	2.89
448.466	2.9
448.82	2.9
449.175	2.91
449.529	2.92
449.883	2.92
450.238	2.94
450.592	2.95
450.946	2.93
451.3	2.94
451.654	2.91
452.008	2.91
452.362	2.89
452.716	2.85
453.07	2.84
453.424	2.85
453.778	2.85
454.132	2.82
454.486	2.84
454.839	2.85
455.193	2.83
455.547	2.85
455.9	2.84
456.254	2.84
456.607	2.83
456.961	2.81
457.314	2.79
457.668	2.78
458.021	2.77
458.375	2.79
458.728	2.79
459.081	2.82
459.434	2.81
459.787	2.82
460.141	2.84
460.494	2.84
460.847	2.85
461.2	2.87
461.553	2.88
461.906	2.9
462.259	2.89
462.611	2.91
462.964	2.91
463.317	2.92
463.67	2.93
464.022	2.94
464.375	2.95
464.728	2.99
465.08	3
465.433	3.01
465.785	3.01
466.138	3.02
466.49	3.02
466.843	3.04
467.195	3.07
467.547	3.07
467.899	3.07
468.252	3.05
468.604	3.06
468.956	3.06
469.308	3.04
469.66	3.05
470.012	3.04
470.364	3.06
470.716	3.07
471.068	3.09
471.42	3.09
471.772	3.1
472.123	3.09
472.475	3.09
472.827	3.09
473.178	3.08
473.53	3.1
473.882	3.12
474.233	3.14
474.585	3.13
474.936	3.13
475.288	3.15
475.639	3.17
475.99	3.17
476.342	3.16
476.693	3.16
477.044	3.14
477.395	3.14
477.746	3.12
478.097	3.09
478.448	3.08
478.8	3.06
479.15	3.04
479.501	3.04
479.852	3.05
480.203	3.04
480.554	3.05
480.905	3.04
481.255	3.02
481.606	3
481.957	3.01
482.307	3
482.658	3.01
483.009	3
483.359	3
483.709	3
484.06	3
484.41	2.99
484.761	3
485.111	3.01
485.461	3.01
485.811	3.02
486.162	3.03
486.512	3.04
486.862	3.04
487.212	3.04
487.562	3.04
487.912	3.06
488.262	3.05
488.612	3.06
488.961	3.06
489.311	3.07
489.661	3.08
490.011	3.06
490.36	3.07
490.71	3.07
491.06	3.08
491.409	3.09
491.759	3.1
492.108	3.09
492.458	3.1
492.807	3.11
493.157	3.12
493.506	3.12
493.855	3.13
494.204	3.13
494.554	3.14
494.903	3.15
495.252	3.14
495.601	3.15
495.95	3.17
496.299	3.2
496.648	3.2
496.997	3.23
497.346	3.26
497.695	3.27
498.043	3.31
498.392	3.34
498.741	3.37
499.09	3.42
499.438	3.45
499.787	3.47
500.135	3.49
500.484	3.5
500.832	3.51
501.181	3.55
501.529	3.62
501.878	3.7
502.226	3.74
502.574	3.79
502.923	3.84
503.271	3.88
503.619	3.94
503.967	3.99
504.315	4.04
504.663	4.11
505.011	4.18
505.359	4.21
505.707	4.26
506.055	4.31
506.403	4.36
506.751	4.45
507.098	4.53
507.446	4.63
507.794	4.7
508.141	4.8
508.489	4.87
508.837	4.92
509.184	4.96
509.531	5.05
509.879	5.11
510.226	5.2
510.574	5.29
510.921	5.34
511.268	5.45
511.616	5.53
511.963	5.61
512.31	5.72
512.657	5.81
513.004	5.9
513.351	6
513.698	6.11
514.045	6.21
514.392	6.3
514.739	6.39
515.086	6.51
515.432	6.61
515.779	6.72
516.126	6.84
516.473	6.95
516.819	7.07
517.166	7.17
517.512	7.25
517.859	7.35
518.205	7.42
518.552	7.52
518.898	7.59
519.245	7.68
519.591	7.77
519.937	7.86
520.283	7.95
520.629	8.04
520.976	8.15
521.322	8.25
521.668	8.35
522.014	8.46
522.36	8.56
522.706	8.68
523.052	8.82
523.398	8.92
523.743	9.05
524.089	9.18
524.435	9.28
524.781	9.41
525.126	9.53
525.472	9.66
525.817	9.75
526.163	9.86
526.509	9.94
526.854	10.03
527.199	10.1
527.545	10.19
527.89	10.27
528.235	10.36
528.581	10.46
528.926	10.56
529.271	10.66
529.616	10.77
529.961	10.86
530.306	10.95
530.651	11.05
530.996	11.15
531.341	11.28
531.686	11.42
532.031	11.54
532.376	11.68
532.721	11.82
533.065	11.95
533.41	12.09
533.755	12.24
534.099	12.39
534.444	12.55
534.788	12.68
535.133	12.86
535.477	13.03
535.822	13.2
536.166	13.41
536.51	13.61
536.855	13.8
537.199	14.04
537.543	14.27
537.887	14.5
538.231	14.74
538.576	14.96
538.92	15.19
539.264	15.41
539.608	15.61
539.951	15.79
540.295	15.99
540.639	16.17
540.983	16.37
541.327	16.58
541.671	16.79
542.014	17.01
542.358	17.2
542.701	17.39
543.045	17.55
543.389	17.73
543.732	17.91
544.075	18.13
544.419	18.32
544.762	18.52
545.105	18.77
545.449	19.01
545.792	19.27
546.135	19.55
546.478	19.83
546.821	20.12
547.165	20.44
547.508	20.77
547.851	21.08
548.194	21.42
548.536	21.71
548.879	22.05
549.222	22.37
549.565	22.65
549.908	22.94
550.25	23.3
550.593	23.59
550.936	23.92
551.278	24.25
551.621	24.57
551.963	24.94
552.306	25.29
552.648	25.62
552.991	25.95
553.333	26.19
553.675	26.49
554.017	26.82
554.36	27.16
554.702	27.43
555.044	27.74
555.386	27.98
555.728	28.26
556.07	28.52
556.412	28.81
556.754	29.12
557.096	29.47
557.438	29.76
557.78	30.14
558.121	30.47
558.463	30.79
558.805	31.15
559.147	31.44
559.488	31.73
559.83	32.03
560.171	32.3
560.513	32.6
560.854	32.9
561.196	33.2
561.537	33.49
561.878	33.81
562.22	34.15
562.561	34.42
562.902	34.79
563.243	35.07
563.584	35.4
563.925	35.68
564.266	35.89
564.607	36.16
564.948	36.34
565.289	36.58
565.63	36.79
565.971	37
566.312	37.19
566.653	37.41
566.993	37.63
567.334	37.89
567.675	38.16
568.015	38.39
568.356	38.57
568.696	38.74
569.037	38.92
569.377	39.1
569.718	39.31
570.058	39.45
570.398	39.66
570.739	39.83
571.079	40.03
571.419	40.22
571.759	40.39
572.099	40.64
572.439	40.82
572.779	41.04
573.119	41.17
573.459	41.36
573.799	41.5
574.139	41.63
574.479	41.81
574.819	41.93
575.158	42.08
575.498	42.25
575.838	42.42
576.177	42.56
576.517	42.72
576.856	42.91
577.196	43.1
577.535	43.23
577.875	43.33
578.214	43.48
578.553	43.7
578.893	43.88
579.232	44.04
579.571	44.21
579.91	44.35
580.25	44.54
580.589	44.73
580.928	44.86
581.267	45
581.606	45.12
581.945	45.2
582.283	45.3
582.622	45.43
582.961	45.61
583.3	45.74
583.639	45.88
583.977	45.98
584.316	46.11
584.654	46.26
584.993	46.46
585.332	46.65
585.67	46.77
586.008	46.87
586.347	46.97
586.685	47.05
587.024	47.06
587.362	47.12
587.7	47.22
588.038	47.43
588.376	47.64
588.715	47.71
589.053	47.89
589.391	48.02
589.729	48.1
590.067	48.18
590.404	48.27
590.742	48.4
591.08	48.56
591.418	48.72
591.756	48.75
592.093	48.83
592.431	48.92
592.769	49.01
593.106	49.09
593.444	49.23
593.781	49.36
594.119	49.5
594.456	49.68
594.793	49.72
595.131	49.8
595.468	49.8
595.805	49.92
596.143	49.95
596.48	50
596.817	50.18
597.154	50.21
597.491	50.33
597.828	50.43
598.165	50.45
598.502	50.47
598.839	50.56
599.176	50.61
599.512	50.69
599.849	50.82
600.186	50.93
600.523	50.86
600.859	50.94
601.196	51.03
601.532	51.09
601.869	51.21
602.205	51.24
602.542	51.36
602.878	51.4
603.215	51.42
603.551	51.5
603.887	51.46
604.223	51.53
604.56	51.5
604.896	51.54
605.232	51.59
605.568	51.55
605.904	51.64
606.24	51.69
606.576	51.74
606.912	51.74
607.248	51.77
607.583	51.92
607.919	51.97
608.255	51.98
608.591	52.01
608.926	51.97
609.262	51.99
609.597	51.97
609.933	52.07
610.268	52.23
610.604	52.25
610.939	52.32
611.275	52.42
611.61	52.51
611.945	52.52
612.281	52.66
612.616	52.83
612.951	52.84
613.286	52.94
613.621	52.95
613.956	52.94
614.291	53.04
614.626	53.07
614.961	53.13
615.296	53.27
615.631	53.34
615.966	53.46
616.3	53.45
616.635	53.51
616.97	53.47
617.304	53.46
617.639	53.44
617.973	53.5
618.308	53.43
618.642	53.48
618.977	53.46
619.311	53.35
619.646	53.42
619.98	53.44
620.314	53.39
620.648	53.42
620.983	53.51
621.317	53.46
621.651	53.5
621.985	53.52
622.319	53.42
622.653	53.35
622.987	53.31
623.321	53.45
623.655	53.55
623.988	53.51
624.322	53.56
624.656	53.76
624.99	53.76
625.323	53.78
625.657	53.75
625.99	53.8
626.324	53.87
626.657	53.84
626.991	53.95
627.324	53.95
627.658	53.99
627.991	53.88
628.324	53.95
628.657	53.93
628.991	53.97
629.324	54.07
629.657	54.08
629.99	54.15
630.323	54.16
630.656	54.14
630.989	54.26
631.322	54.24
631.655	54.17
631.987	54.19
632.32	54.21
632.653	54.32
632.986	54.37
633.318	54.46
633.651	54.51
633.984	54.46
634.316	54.48
634.649	54.47
634.981	54.58
635.313	54.54
635.646	54.56
635.978	54.55
636.31	54.51
636.643	54.58
636.975	54.61
637.307	54.5
637.639	54.5
637.971	54.54
638.303	54.56
638.635	54.56
638.967	54.53
639.299	54.58
639.631	54.55
639.963	54.4
640.295	54.32
640.626	54.31
640.958	54.39
641.29	54.6
641.621	54.63
641.953	54.7
642.285	54.8
642.616	54.87
642.948	54.91
643.279	55.02
643.61	55.13
643.942	55.1
644.273	55.29
644.604	55.24
644.936	55.25
645.267	55.27
645.598	55.31
645.929	55.25
646.26	55.26
646.591	55.35
646.922	55.56
647.253	55.51
647.584	55.5
647.915	55.52
648.245	55.45
648.576	55.45
648.907	55.39
649.238	55.43
649.568	55.45
649.899	55.51
650.229	55.56
650.56	55.47
650.89	55.64
651.221	55.62
651.551	55.79
651.882	55.86
652.212	55.98
652.542	56.02
652.872	56
653.203	56.13
653.533	56.09
653.863	56.15
654.193	56.23
654.523	56.41
654.853	56.49
655.183	56.52
655.513	56.52
655.843	56.69
656.172	56.74
656.502	56.7
656.832	56.52
657.162	56.37
657.491	56.43
657.821	56.39
658.15	56.37
658.48	56.31
658.809	56.27
659.139	56.24
659.468	56.19
659.798	56.32
660.127	56.23
660.456	56.25
660.785	56.1
661.115	56.07
661.444	56.03
661.773	55.98
662.102	55.92
662.431	55.9
662.76	55.76
663.089	55.66
663.418	55.62
663.747	55.77
664.076	55.94
664.404	56.02
664.733	56.09
665.062	56.08
665.39	56.15
665.719	56.12
666.048	56.08
666.376	56.15
666.705	56.19
667.033	56.15
667.362	56.18
667.69	56.25
668.018	56.31
668.347	56.2
668.675	56.14
669.003	56.14
669.331	56.18
