Data from MVZ_BU123442_Reflection_00003.txt Node
Date: Tue Nov 19 12:12:22 EST 2019
User: vgr7
Spectrometer: USB2G7710
Scans to average: 3
Trigger mode: 4
Integration Time (sec): 2.000000E-2
Electric dark correction enabled: true
Boxcar width: 10
XAxis mode: Wavelengths
Number of Pixels in Spectrum: 2048
>>>>>Begin Spectral Data<<<<<
177.721	24.67
178.105	-55.84
178.488	-100.62
178.871	-154.24
179.254	-500
179.636	-244.72
180.019	-1371.7
180.402	123.08
180.785	-167.47
181.168	-190.66
181.55	-92.42
181.933	-32.55
182.316	-107.85
182.698	-95.9
183.081	-85.32
183.463	-151.52
183.846	-112.67
184.228	-140.37
184.611	-262.85
184.993	964
185.376	6100
185.758	-623.32
186.14	-778.05
186.522	-1386.24
186.904	988
187.287	563.09
187.669	405.45
188.051	441.14
188.433	450.97
188.815	211.77
189.197	209.81
189.579	196.63
189.961	201.12
190.342	139.19
190.724	74.11
191.106	44.66
191.488	43.44
191.869	46.26
192.251	51.27
192.633	58.93
193.014	74.87
193.396	46.39
193.777	31.4
194.159	35.76
194.54	67.78
194.922	100
195.303	143.4
195.684	134.34
196.065	133.71
196.447	111.12
196.828	159.44
197.209	155.27
197.59	127.93
197.971	106.69
198.352	116.73
198.733	144.97
199.114	135.47
199.495	117.73
199.876	124.32
200.257	147.89
200.638	132.82
201.018	186.31
201.399	194.44
201.78	203.69
202.16	216.55
202.541	222.45
202.922	154.63
203.302	206.97
203.683	667.57
204.063	386.57
204.444	924.43
204.824	297.8
205.204	223.88
205.585	410.03
205.965	1472.88
206.345	-341.72
206.725	44.95
207.106	-138.41
207.486	-343.48
207.866	0.21
208.246	-61.83
208.626	1404.35
209.006	59.57
209.386	59.57
209.766	6.09
210.145	-0.67
210.525	-16.13
210.905	-32.1
211.285	-33.27
211.664	-5.54
212.044	-12.42
212.424	8.1
212.803	-0.91
213.183	-17.82
213.562	-12.21
213.942	12.31
214.321	22.12
214.701	38.91
215.08	54.36
215.459	64.72
215.838	66.54
216.218	47.05
216.597	49.27
216.976	49.66
217.355	40.59
217.734	50.77
218.113	71.14
218.492	58.79
218.871	64.46
219.25	48.47
219.629	36.96
220.008	38.53
220.387	34.65
220.766	38.42
221.144	61.43
221.523	57.57
221.902	46.58
222.28	56.9
222.659	57.75
223.037	46.06
223.416	46.75
223.794	48.79
224.173	57.29
224.551	48.7
224.929	47.75
225.308	46.86
225.686	46.8
226.064	40.78
226.442	42.55
226.821	46.4
227.199	46.82
227.577	49.06
227.955	45.31
228.333	40.37
228.711	41.17
229.089	35.03
229.467	34.32
229.845	37.02
230.222	32.68
230.6	29.42
230.978	27.11
231.356	24.86
231.733	22.98
232.111	22.29
232.488	22.61
232.866	21.42
233.243	21.35
233.621	21.88
233.998	22.15
234.376	21.53
234.753	19.46
235.13	18.73
235.508	16.79
235.885	15.31
236.262	15.71
236.639	12.56
237.016	11.36
237.393	10.85
237.77	9.64
238.147	8.15
238.524	9.31
238.901	9.12
239.278	8.33
239.655	7.71
240.032	7.87
240.409	7.75
240.785	7.21
241.162	7.39
241.539	7.14
241.915	6.39
242.292	5.96
242.668	5.56
243.045	5.5
243.421	5.63
243.798	5.73
244.174	5.35
244.551	5.36
244.927	5.14
245.303	4.58
245.679	4.47
246.056	4.7
246.432	4.55
246.808	4.84
247.184	4.7
247.56	4.61
247.936	4.62
248.312	4.65
248.688	4.59
249.064	4.55
249.44	4.45
249.815	4.49
250.191	4.5
250.567	4.46
250.943	4.58
251.318	4.24
251.694	4.14
252.069	4.2
252.445	4.26
252.82	4.62
253.196	4.73
253.571	4.76
253.947	4.72
254.322	4.21
254.697	4.03
255.073	4.28
255.448	4.26
255.823	4.12
256.198	4.14
256.573	4.15
256.948	3.83
257.323	3.71
257.698	3.64
258.073	3.58
258.448	3.57
258.823	3.24
259.198	3.62
259.573	3.49
259.948	3.46
260.322	3.39
260.697	3.44
261.072	3.72
261.446	3.54
261.821	3.47
262.195	3.48
262.57	3.48
262.944	3.43
263.319	3.45
263.693	3.25
264.067	3.06
264.442	3.05
264.816	3
265.19	2.85
265.564	2.78
265.938	2.59
266.313	2.52
266.687	2.78
267.061	2.72
267.435	2.85
267.809	2.83
268.183	2.72
268.556	2.48
268.93	2.47
269.304	2.67
269.678	2.8
270.051	2.99
270.425	2.96
270.799	2.71
271.172	2.68
271.546	2.86
271.919	3.02
272.293	2.99
272.666	3.09
273.04	3.18
273.413	3.35
273.787	3.61
274.16	3.61
274.533	3.51
274.906	3.54
275.279	3.57
275.653	3.62
276.026	3.75
276.399	3.82
276.772	3.8
277.145	3.8
277.518	3.69
277.891	3.51
278.263	3.44
278.636	3.63
279.009	3.66
279.382	3.4
279.755	3.34
280.127	3.36
280.5	3.42
280.872	3.66
281.245	3.54
281.617	3.47
281.99	3.51
282.362	3.6
282.735	3.34
283.107	3.36
283.479	3.32
283.852	3.32
284.224	3.44
284.596	3.24
284.968	3.11
285.34	3.06
285.713	3.09
286.085	2.95
286.457	2.83
286.829	2.71
287.201	2.89
287.572	2.78
287.944	2.93
288.316	2.94
288.688	2.83
289.06	2.87
289.431	2.85
289.803	2.84
290.175	2.72
290.546	2.76
290.918	2.73
291.289	2.57
291.661	2.54
292.032	2.5
292.403	2.49
292.775	2.55
293.146	2.64
293.517	2.58
293.889	2.69
294.26	2.74
294.631	2.78
295.002	2.76
295.373	2.78
295.744	2.53
296.115	2.59
296.486	2.54
296.857	2.53
297.228	2.44
297.599	2.36
297.97	2.42
298.34	2.53
298.711	2.68
299.082	2.85
299.452	2.8
299.823	2.83
300.194	2.91
300.564	2.89
300.935	2.89
301.305	2.98
301.676	2.96
302.046	2.9
302.416	3.01
302.787	3.07
303.157	3.08
303.527	3.23
303.897	3.06
304.267	3.18
304.637	3.26
305.008	3.39
305.378	3.56
305.748	3.59
306.117	3.45
306.487	3.29
306.857	3.28
307.227	3.41
307.597	3.22
307.967	3.44
308.336	3.44
308.706	3.41
309.076	3.44
309.445	3.59
309.815	3.7
310.184	3.64
310.554	3.59
310.923	3.62
311.293	3.63
311.662	3.64
312.031	3.55
312.401	3.42
312.77	3.32
313.139	3.22
313.508	3.15
313.877	3.06
314.246	3.03
314.616	2.92
314.985	2.77
315.353	2.81
315.722	2.59
316.091	2.48
316.46	2.49
316.829	2.51
317.198	2.42
317.567	2.42
317.935	2.4
318.304	2.35
318.672	2.45
319.041	2.52
319.41	2.63
319.778	2.65
320.147	2.68
320.515	2.81
320.883	2.97
321.252	3.08
321.62	3.09
321.988	3.1
322.357	3.19
322.725	3.33
323.093	3.32
323.461	3.4
323.829	3.53
324.197	3.63
324.565	3.56
324.933	3.54
325.301	3.53
325.669	3.54
326.037	3.45
326.405	3.4
326.772	3.36
327.14	3.25
327.508	3.32
327.875	3.36
328.243	3.39
328.61	3.27
328.978	3.18
329.346	3.31
329.713	3.36
330.08	3.47
330.448	3.44
330.815	3.4
331.182	3.31
331.55	3.38
331.917	3.2
332.284	3.25
332.651	3.18
333.018	3.23
333.385	3.26
333.752	3.32
334.119	3.26
334.486	3.1
334.853	3.19
335.22	3.18
335.587	3.08
335.954	3.02
336.32	2.98
336.687	2.96
337.054	2.91
337.42	2.91
337.787	2.74
338.153	2.77
338.52	2.8
338.886	2.85
339.253	2.77
339.619	2.84
339.986	2.82
340.352	2.84
340.718	2.68
341.084	2.73
341.451	2.82
341.817	2.85
342.183	2.95
342.549	2.88
342.915	2.89
343.281	2.91
343.647	2.94
344.013	3.05
344.379	3
344.745	2.9
345.11	2.9
345.476	2.98
345.842	3.01
346.208	3.05
346.573	2.95
346.939	3.06
347.304	3.05
347.67	3
348.035	2.98
348.401	3.06
348.766	2.96
349.132	3
349.497	2.99
349.862	2.97
350.228	3.01
350.593	2.91
350.958	2.99
351.323	2.86
351.688	2.89
352.053	2.92
352.418	3.07
352.783	3.01
353.148	3.04
353.513	2.95
353.878	3
354.243	2.99
354.608	2.97
354.972	2.93
355.337	2.97
355.702	3.05
356.066	3.06
356.431	3.16
356.795	3.06
357.16	3.07
357.524	3.09
357.889	3.08
358.253	3.12
358.618	3.05
358.982	3.17
359.346	3.08
359.71	3.13
360.075	3.17
360.439	3.21
360.803	3.2
361.167	3.2
361.531	3.15
361.895	3.22
362.259	3.13
362.623	3.14
362.987	3.14
363.351	3.12
363.714	3.09
364.078	3.03
364.442	3.07
364.806	3.12
365.169	3.13
365.533	3.13
365.896	3.15
366.26	3.11
366.623	3.04
366.987	3.08
367.35	3.14
367.714	3.13
368.077	3.08
368.44	3.11
368.803	3.09
369.167	3.1
369.53	3.12
369.893	3.23
370.256	3.26
370.619	3.21
370.982	3.16
371.345	3.21
371.708	3.19
372.071	3.12
372.434	3.03
372.797	2.99
373.159	2.99
373.522	3.02
373.885	3.14
374.247	3.19
374.61	3.21
374.973	3.18
375.335	3.17
375.698	3.23
376.06	3.21
376.423	3.26
376.785	3.25
377.147	3.26
377.51	3.23
377.872	3.23
378.234	3.35
378.596	3.37
378.958	3.32
379.321	3.34
379.683	3.35
380.045	3.35
380.407	3.35
380.769	3.37
381.13	3.3
381.492	3.23
381.854	3.15
382.216	3.11
382.578	3.13
382.939	3.12
383.301	3.08
383.663	3.05
384.024	3.08
384.386	3.06
384.747	3
385.109	3.01
385.47	3.04
385.832	2.98
386.193	2.97
386.554	2.97
386.916	2.98
387.277	3.01
387.638	3.04
387.999	3.04
388.36	3.01
388.721	3.04
389.082	3.09
389.443	3.15
389.804	3.19
390.165	3.18
390.526	3.14
390.887	3.13
391.248	3.15
391.609	3.15
391.969	3.19
392.33	3.15
392.691	3.13
393.051	3.1
393.412	3.1
393.772	3.09
394.133	3.11
394.493	3.04
394.854	3.04
395.214	3.03
395.574	3
395.935	3.01
396.295	3.03
396.655	2.98
397.015	2.95
397.376	2.92
397.736	2.87
398.096	2.9
398.456	2.89
398.816	2.89
399.176	2.83
399.535	2.86
399.895	2.91
400.255	2.91
400.615	2.9
400.975	2.92
401.334	2.89
401.694	2.9
402.054	2.96
402.413	2.99
402.773	3.02
403.132	3.04
403.492	3.04
403.851	3
404.211	3.02
404.57	3.04
404.929	3.03
405.288	3.08
405.648	3.09
406.007	3.12
406.366	3.11
406.725	3.1
407.084	3.06
407.443	3.08
407.802	3.09
408.161	3.09
408.52	3.04
408.879	3.09
409.238	3.04
409.596	3.07
409.955	3.05
410.314	3.02
410.673	3.03
411.031	3.02
411.39	3
411.748	2.99
412.107	2.95
412.465	2.96
412.824	2.92
413.182	2.9
413.54	2.93
413.899	2.91
414.257	2.94
414.615	2.95
414.974	2.95
415.332	2.95
415.69	2.94
416.048	2.95
416.406	2.95
416.764	2.97
417.122	2.95
417.48	2.97
417.838	2.96
418.195	2.95
418.553	2.96
418.911	2.97
419.269	2.97
419.626	2.99
419.984	2.99
420.342	2.99
420.699	2.99
421.057	2.99
421.414	3
421.772	3
422.129	3
422.486	3
422.844	2.99
423.201	3.01
423.558	3.02
423.915	3.03
424.273	3.03
424.63	3.05
424.987	3.06
425.344	3.07
425.701	3.07
426.058	3.08
426.415	3.08
426.772	3.1
427.128	3.1
427.485	3.09
427.842	3.11
428.199	3.1
428.555	3.11
428.912	3.11
429.269	3.11
429.625	3.11
429.982	3.11
430.338	3.12
430.695	3.11
431.051	3.1
431.407	3.1
431.764	3.09
432.12	3.08
432.476	3.07
432.832	3.07
433.189	3.07
433.545	3.07
433.901	3.08
434.257	3.06
434.613	3.07
434.969	3.1
435.325	3.11
435.681	3.11
436.036	3.1
436.392	3.09
436.748	3.08
437.104	3.1
437.459	3.11
437.815	3.1
438.171	3.09
438.526	3.1
438.882	3.11
439.237	3.12
439.593	3.13
439.948	3.11
440.304	3.11
440.659	3.1
441.014	3.1
441.369	3.11
441.725	3.11
442.08	3.11
442.435	3.1
442.79	3.08
443.145	3.09
443.5	3.07
443.855	3.08
444.21	3.11
444.565	3.1
444.92	3.1
445.275	3.11
445.629	3.12
445.984	3.11
446.339	3.11
446.693	3.12
447.048	3.11
447.403	3.12
447.757	3.14
448.112	3.15
448.466	3.17
448.82	3.18
449.175	3.2
449.529	3.2
449.883	3.21
450.238	3.22
450.592	3.24
450.946	3.28
451.3	3.29
451.654	3.27
452.008	3.27
452.362	3.27
452.716	3.28
453.07	3.3
453.424	3.31
453.778	3.3
454.132	3.27
454.486	3.28
454.839	3.26
455.193	3.25
455.547	3.25
455.9	3.25
456.254	3.26
456.607	3.26
456.961	3.25
457.314	3.23
457.668	3.24
458.021	3.21
458.375	3.17
458.728	3.17
459.081	3.18
459.434	3.17
459.787	3.17
460.141	3.17
460.494	3.16
460.847	3.18
461.2	3.19
461.553	3.2
461.906	3.22
462.259	3.22
462.611	3.24
462.964	3.24
463.317	3.23
463.67	3.22
464.022	3.21
464.375	3.22
464.728	3.24
465.08	3.24
465.433	3.27
465.785	3.31
466.138	3.32
466.49	3.33
466.843	3.36
467.195	3.39
467.547	3.39
467.899	3.41
468.252	3.4
468.604	3.39
468.956	3.39
469.308	3.37
469.66	3.41
470.012	3.4
470.364	3.39
470.716	3.4
471.068	3.41
471.42	3.41
471.772	3.41
472.123	3.44
472.475	3.41
472.827	3.41
473.178	3.42
473.53	3.41
473.882	3.39
474.233	3.34
474.585	3.31
474.936	3.32
475.288	3.3
475.639	3.3
475.99	3.33
476.342	3.35
476.693	3.35
477.044	3.33
477.395	3.31
477.746	3.32
478.097	3.31
478.448	3.31
478.8	3.3
479.15	3.29
479.501	3.27
479.852	3.28
480.203	3.27
480.554	3.26
480.905	3.27
481.255	3.28
481.606	3.29
481.957	3.29
482.307	3.28
482.658	3.28
483.009	3.29
483.359	3.29
483.709	3.29
484.06	3.29
484.41	3.3
484.761	3.32
485.111	3.32
485.461	3.33
485.811	3.33
486.162	3.34
486.512	3.34
486.862	3.35
487.212	3.35
487.562	3.35
487.912	3.35
488.262	3.35
488.612	3.35
488.961	3.36
489.311	3.36
489.661	3.37
490.011	3.36
490.36	3.36
490.71	3.35
491.06	3.34
491.409	3.34
491.759	3.35
492.108	3.34
492.458	3.33
492.807	3.32
493.157	3.32
493.506	3.32
493.855	3.32
494.204	3.33
494.554	3.32
494.903	3.33
495.252	3.34
495.601	3.37
495.95	3.35
496.299	3.36
496.648	3.37
496.997	3.37
497.346	3.39
497.695	3.41
498.043	3.42
498.392	3.43
498.741	3.45
499.09	3.45
499.438	3.43
499.787	3.45
500.135	3.44
500.484	3.46
500.832	3.45
501.181	3.46
501.529	3.47
501.878	3.49
502.226	3.52
502.574	3.52
502.923	3.5
503.271	3.53
503.619	3.55
503.967	3.55
504.315	3.58
504.663	3.57
505.011	3.58
505.359	3.58
505.707	3.58
506.055	3.59
506.403	3.58
506.751	3.6
507.098	3.59
507.446	3.61
507.794	3.59
508.141	3.62
508.489	3.61
508.837	3.6
509.184	3.6
509.531	3.59
509.879	3.59
510.226	3.58
510.574	3.6
510.921	3.59
511.268	3.59
511.616	3.59
511.963	3.6
512.31	3.59
512.657	3.59
513.004	3.61
513.351	3.6
513.698	3.6
514.045	3.59
514.392	3.61
514.739	3.61
515.086	3.62
515.432	3.6
515.779	3.6
516.126	3.61
516.473	3.6
516.819	3.6
517.166	3.61
517.512	3.63
517.859	3.62
518.205	3.61
518.552	3.61
518.898	3.61
519.245	3.62
519.591	3.64
519.937	3.65
520.283	3.64
520.629	3.63
520.976	3.64
521.322	3.63
521.668	3.61
522.014	3.64
522.36	3.65
522.706	3.64
523.052	3.64
523.398	3.63
523.743	3.64
524.089	3.65
524.435	3.64
524.781	3.63
525.126	3.61
525.472	3.62
525.817	3.62
526.163	3.61
526.509	3.59
526.854	3.59
527.199	3.59
527.545	3.61
527.89	3.6
528.235	3.61
528.581	3.62
528.926	3.63
529.271	3.6
529.616	3.61
529.961	3.61
530.306	3.62
530.651	3.61
530.996	3.62
531.341	3.61
531.686	3.62
532.031	3.65
532.376	3.67
532.721	3.68
533.065	3.68
533.41	3.69
533.755	3.69
534.099	3.68
534.444	3.68
534.788	3.66
535.133	3.68
535.477	3.69
535.822	3.71
536.166	3.7
536.51	3.72
536.855	3.7
537.199	3.7
537.543	3.7
537.887	3.71
538.231	3.69
538.576	3.71
538.92	3.69
539.264	3.67
539.608	3.67
539.951	3.66
540.295	3.66
540.639	3.66
540.983	3.67
541.327	3.7
541.671	3.7
542.014	3.74
542.358	3.74
542.701	3.72
543.045	3.71
543.389	3.72
543.732	3.71
544.075	3.73
544.419	3.75
544.762	3.76
545.105	3.77
545.449	3.79
545.792	3.78
546.135	3.8
546.478	3.81
546.821	3.83
547.165	3.83
547.508	3.84
547.851	3.84
548.194	3.87
548.536	3.87
548.879	3.85
549.222	3.81
549.565	3.81
549.908	3.8
550.25	3.8
550.593	3.79
550.936	3.83
551.278	3.81
551.621	3.82
551.963	3.81
552.306	3.82
552.648	3.83
552.991	3.82
553.333	3.81
553.675	3.86
554.017	3.83
554.36	3.83
554.702	3.82
555.044	3.84
555.386	3.82
555.728	3.8
556.07	3.79
556.412	3.82
556.754	3.8
557.096	3.87
557.438	3.86
557.78	3.87
558.121	3.86
558.463	3.88
558.805	3.87
559.147	3.86
559.488	3.86
559.83	3.86
560.171	3.85
560.513	3.86
560.854	3.87
561.196	3.89
561.537	3.91
561.878	3.94
562.22	3.91
562.561	3.92
562.902	3.89
563.243	3.92
563.584	3.9
563.925	3.92
564.266	3.89
564.607	3.92
564.948	3.94
565.289	3.93
565.63	3.93
565.971	3.93
566.312	3.95
566.653	3.93
566.993	3.91
567.334	3.93
567.675	3.95
568.015	3.88
568.356	3.86
568.696	3.86
569.037	3.83
569.377	3.86
569.718	3.87
570.058	3.89
570.398	3.87
570.739	3.88
571.079	3.87
571.419	3.86
571.759	3.83
572.099	3.81
572.439	3.81
572.779	3.79
573.119	3.8
573.459	3.8
573.799	3.82
574.139	3.84
574.479	3.86
574.819	3.82
575.158	3.85
575.498	3.84
575.838	3.84
576.177	3.83
576.517	3.81
576.856	3.82
577.196	3.79
577.535	3.81
577.875	3.8
578.214	3.8
578.553	3.8
578.893	3.81
579.232	3.85
579.571	3.89
579.91	3.92
580.25	3.94
580.589	3.93
580.928	3.94
581.267	3.93
581.606	3.87
581.945	3.89
582.283	3.85
582.622	3.86
582.961	3.87
583.3	3.87
583.639	3.89
583.977	3.86
584.316	3.9
584.654	3.88
584.993	3.87
585.332	3.86
585.67	3.89
586.008	3.92
586.347	3.9
586.685	3.85
587.024	3.83
587.362	3.82
587.7	3.82
588.038	3.83
588.376	3.88
588.715	3.93
589.053	3.93
589.391	3.97
589.729	3.99
590.067	3.95
590.404	3.96
590.742	3.98
591.08	4.01
591.418	4.05
591.756	4.11
592.093	4.12
592.431	4.14
592.769	4.16
593.106	4.13
593.444	4.13
593.781	4.14
594.119	4.16
594.456	4.14
594.793	4.13
595.131	4.14
595.468	4.15
595.805	4.14
596.143	4.18
596.48	4.19
596.817	4.16
597.154	4.21
597.491	4.24
597.828	4.22
598.165	4.18
598.502	4.15
598.839	4.07
599.176	4.11
599.512	4.1
599.849	4.08
600.186	4.08
600.523	4.08
600.859	4.09
601.196	4.08
601.532	4.11
601.869	4.12
602.205	4.09
602.542	4.07
602.878	4.07
603.215	4.03
603.551	4.03
603.887	4.02
604.223	4
604.56	4
604.896	4.03
605.232	4.06
605.568	4.06
605.904	4.08
606.24	4.07
606.576	4.05
606.912	4.08
607.248	4.12
607.583	4.11
607.919	4.13
608.255	4.11
608.591	4.14
608.926	4.13
609.262	4.1
609.597	4.09
609.933	4.09
610.268	4.1
610.604	4.09
610.939	4.16
611.275	4.16
611.61	4.12
611.945	4.09
612.281	4.1
612.616	4.09
612.951	4.14
613.286	4.17
613.621	4.19
613.956	4.18
614.291	4.15
614.626	4.16
614.961	4.14
615.296	4.13
615.631	4.07
615.966	4.08
616.3	4.14
616.635	4.13
616.97	4.13
617.304	4.15
617.639	4.18
617.973	4.12
618.308	4.09
618.642	4.11
618.977	4.12
619.311	4.11
619.646	4.14
619.98	4.12
620.314	4.08
620.648	4.07
620.983	4.09
621.317	4.14
621.651	4.13
621.985	4.11
622.319	4.14
622.653	4.15
622.987	4.15
623.321	4.15
623.655	4.2
623.988	4.17
624.322	4.17
624.656	4.16
624.99	4.21
625.323	4.25
625.657	4.31
625.99	4.3
626.324	4.29
626.657	4.27
626.991	4.26
627.324	4.3
627.658	4.26
627.991	4.29
628.324	4.22
628.657	4.26
628.991	4.26
629.324	4.32
629.657	4.31
629.99	4.36
630.323	4.33
630.656	4.31
630.989	4.3
631.322	4.33
631.655	4.29
631.987	4.25
632.32	4.3
632.653	4.34
632.986	4.39
633.318	4.4
633.651	4.42
633.984	4.47
634.316	4.47
634.649	4.52
634.981	4.45
635.313	4.51
635.646	4.51
635.978	4.52
636.31	4.51
636.643	4.55
636.975	4.49
637.307	4.52
637.639	4.52
637.971	4.59
638.303	4.59
638.635	4.56
638.967	4.61
639.299	4.55
639.631	4.44
639.963	4.37
640.295	4.41
640.626	4.4
640.958	4.32
641.29	4.3
641.621	4.35
641.953	4.42
642.285	4.41
642.616	4.38
642.948	4.37
643.279	4.28
643.61	4.24
643.942	4.23
644.273	4.28
644.604	4.29
644.936	4.26
645.267	4.21
645.598	4.32
645.929	4.31
646.26	4.28
646.591	4.33
646.922	4.38
647.253	4.32
647.584	4.32
647.915	4.36
648.245	4.38
648.576	4.35
648.907	4.35
649.238	4.32
649.568	4.33
649.899	4.32
650.229	4.42
650.56	4.5
650.89	4.58
651.221	4.51
651.551	4.5
651.882	4.56
652.212	4.56
652.542	4.46
652.872	4.47
653.203	4.51
653.533	4.62
653.863	4.63
654.193	4.61
654.523	4.59
654.853	4.6
655.183	4.59
655.513	4.6
655.843	4.57
656.172	4.59
656.502	4.52
656.832	4.52
657.162	4.51
657.491	4.56
657.821	4.49
658.15	4.51
658.48	4.55
658.809	4.51
659.139	4.58
659.468	4.71
659.798	4.71
660.127	4.69
660.456	4.62
660.785	4.6
661.115	4.64
661.444	4.66
661.773	4.7
662.102	4.74
662.431	4.75
662.76	4.72
663.089	4.75
663.418	4.84
663.747	4.89
664.076	4.88
664.404	4.83
664.733	4.89
665.062	4.81
665.39	4.88
665.719	4.85
666.048	4.83
666.376	4.78
666.705	4.7
667.033	4.76
667.362	4.68
667.69	4.7
668.018	4.74
668.347	4.71
668.675	4.63
669.003	4.53
669.331	4.58
669.659	4.59
669.987	4.59
670.315	4.6
670.643	4.64
670.971	4.75
671.299	4.77
671.627	4.76
671.955	4.81
672.283	4.72
672.61	4.82
672.938	4.83
673.266	4.83
673.593	4.93
673.921	4.91
674.249	4.98
674.576	4.96
674.904	4.9
675.231	4.98
675.558	5.04
675.886	5.13
676.213	5.04
676.54	5.12
676.867	5.13
677.195	5.15
677.522	5.06
677.849	4.93
678.176	4.93
678.503	4.88
