Data from MVZ_BU5182_Reflection_00015.txt Node
Date: Tue Nov 19 12:19:32 EST 2019
User: vgr7
Spectrometer: USB2G7710
Scans to average: 3
Trigger mode: 4
Integration Time (sec): 2.000000E-2
Electric dark correction enabled: true
Boxcar width: 10
XAxis mode: Wavelengths
Number of Pixels in Spectrum: 2048
>>>>>Begin Spectral Data<<<<<
177.721	65.91
178.105	71.75
178.488	35.58
178.871	58.33
179.254	57.78
179.636	10.8
180.019	-9.79
180.402	-27.27
180.785	-59.77
181.168	-638.1
181.55	162.09
181.933	178.62
182.316	-211.97
182.698	-22.35
183.081	-16.81
183.463	-30.92
183.846	-16.95
184.228	8.94
184.611	11.24
184.993	16.08
185.376	31.5
185.758	30.76
186.14	10.64
186.522	15.33
186.904	10.64
187.287	7.47
187.669	-7.59
188.051	-12.05
188.433	-19.62
188.815	-15.51
189.197	-7.96
189.579	-11.02
189.961	-8.41
190.342	-12.05
190.724	-27.19
191.106	-52.5
191.488	-52.69
191.869	-50.44
192.251	-81.07
192.633	-60.2
193.014	-46.19
193.396	-39.78
193.777	-29.81
194.159	-25.05
194.54	-38.2
194.922	-33.84
195.303	-36.79
195.684	-31.62
196.065	-22.41
196.447	-17.53
196.828	-20.17
197.209	-23.06
197.59	-23.67
197.971	-33.04
198.352	-26
198.733	-22.6
199.114	-22.86
199.495	-31.17
199.876	-37.85
200.257	-35.45
200.638	-43.38
201.018	-59.1
201.399	-50.02
201.78	-65.18
202.16	-76.75
202.541	-76.67
202.922	-73.42
203.302	-73
203.683	-77.29
204.063	-95.16
204.444	-86.53
204.824	-79.13
205.204	-62.8
205.585	-45.58
205.965	-40.8
206.345	-39.31
206.725	-35.91
207.106	-23.79
207.486	-9.47
207.866	-17.16
208.246	-6.03
208.626	-4.51
209.006	-10.71
209.386	-21.55
209.766	-15.86
210.145	-11.06
210.525	-24.8
210.905	-18.91
211.285	-21.4
211.664	-12.36
212.044	-6.69
212.424	-22.47
212.803	-23.14
213.183	-37.17
213.562	-43.27
213.942	-44.42
214.321	-60.01
214.701	-82.18
215.08	-93.31
215.459	-102.82
215.838	-98.48
216.218	-111.36
216.597	-85.6
216.976	-98.14
217.355	-97.36
217.734	-100.58
218.113	-102.86
218.492	-99.76
218.871	-88.78
219.25	-79.95
219.629	-88.49
220.008	-91.04
220.387	-83.89
220.766	-76.16
221.144	-71.14
221.523	-66.14
221.902	-57.74
222.28	-41.98
222.659	-34.21
223.037	-39.58
223.416	-38.7
223.794	-32.02
224.173	-31.36
224.551	-33.59
224.929	-32.94
225.308	-35.29
225.686	-35.21
226.064	-34.54
226.442	-25.35
226.821	-27.95
227.199	-31.25
227.577	-31.11
227.955	-24.32
228.333	-27.67
228.711	-26.77
229.089	-26.65
229.467	-28.43
229.845	-31.2
230.222	-29.15
230.6	-26.38
230.978	-20.07
231.356	-20.41
231.733	-21.53
232.111	-20.87
232.488	-19.13
232.866	-13.64
233.243	-10.16
233.621	-7.43
233.998	-6.52
234.376	-5.96
234.753	-5.67
235.13	-3.19
235.508	-4.09
235.885	-5.1
236.262	-3.58
236.639	-2.02
237.016	-2.47
237.393	-0.99
237.77	1.44
238.147	1.27
238.524	1.52
238.901	-0.05
239.278	0.17
239.655	0.84
240.032	1.51
240.409	2.39
240.785	2.37
241.162	2.05
241.539	1.81
241.915	1.65
242.292	1.34
242.668	1.92
243.045	2.5
243.421	3.3
243.798	3.21
244.174	3.5
244.551	3.33
244.927	3.7
245.303	3.5
245.679	3.17
246.056	3.21
246.432	3.11
246.808	3.52
247.184	3.57
247.56	3.3
247.936	3.32
248.312	3.27
248.688	3.3
249.064	3.49
249.44	3.29
249.815	3.52
250.191	3.67
250.567	3.49
250.943	3.2
251.318	2.9
251.694	3.05
252.069	3.06
252.445	3.31
252.82	3.37
253.196	3.46
253.571	3.93
253.947	3.61
254.322	3.49
254.697	3.58
255.073	3.62
255.448	3.43
255.823	3.5
256.198	3.36
256.573	3.1
256.948	3.4
257.323	3.66
257.698	3.45
258.073	3.14
258.448	3.24
258.823	3.12
259.198	3.18
259.573	2.89
259.948	2.88
260.322	2.78
260.697	2.63
261.072	2.78
261.446	2.58
261.821	2.69
262.195	2.8
262.57	2.78
262.944	2.93
263.319	3.22
263.693	3.18
264.067	3.03
264.442	3.04
264.816	2.74
265.19	2.53
265.564	2.37
265.938	2.45
266.313	2.22
266.687	2.38
267.061	2.27
267.435	2.63
267.809	2.36
268.183	2.36
268.556	2.49
268.93	2.48
269.304	2.53
269.678	2.59
270.051	2.5
270.425	2.31
270.799	2.08
271.172	1.91
271.546	2.2
271.919	2.35
272.293	2.49
272.666	2.48
273.04	2.49
273.413	2.89
273.787	2.91
274.16	2.99
274.533	3.01
274.906	3.02
275.279	2.86
275.653	3
276.026	2.95
276.399	2.92
276.772	2.97
277.145	2.99
277.518	2.86
277.891	2.76
278.263	2.73
278.636	3.07
279.009	3.12
279.382	2.7
279.755	2.84
280.127	2.88
280.5	2.54
280.872	2.58
281.245	2.34
281.617	2.36
281.99	2.3
282.362	2.35
282.735	2.45
283.107	2.37
283.479	2.33
283.852	2.42
284.224	2.46
284.596	2.37
284.968	2.36
285.34	2.42
285.713	2.67
286.085	2.61
286.457	2.35
286.829	2.43
287.201	2.61
287.572	2.48
287.944	2.41
288.316	2.82
288.688	2.85
289.06	2.89
289.431	3
289.803	3.19
290.175	3.27
290.546	3.31
290.918	3.38
291.289	3.34
291.661	3.25
292.032	3.31
292.403	3.46
292.775	3.64
293.146	3.76
293.517	3.78
293.889	3.88
294.26	4.01
294.631	4.1
295.002	4.08
295.373	4.23
295.744	4.25
296.115	4.04
296.486	4.11
296.857	4.28
297.228	4.23
297.599	4.08
297.97	4.09
298.34	4.13
298.711	4.18
299.082	4.36
299.452	4.36
299.823	4.29
300.194	4.09
300.564	3.91
300.935	3.88
301.305	3.85
301.676	3.76
302.046	3.71
302.416	3.64
302.787	3.61
303.157	3.48
303.527	3.61
303.897	3.74
304.267	3.6
304.637	3.41
305.008	3.43
305.378	3.52
305.748	3.35
306.117	3.25
306.487	3.31
306.857	3.28
307.227	3.33
307.597	3.26
307.967	3.39
308.336	3.49
308.706	3.32
309.076	3.29
309.445	3.45
309.815	3.53
310.184	3.54
310.554	3.54
310.923	3.44
311.293	3.38
311.662	3.46
312.031	3.53
312.401	3.5
312.77	3.34
313.139	3.29
313.508	3.39
313.877	3.44
314.246	3.29
314.616	3.31
314.985	3.44
315.353	3.54
315.722	3.63
316.091	3.64
316.46	3.99
316.829	4.01
317.198	3.98
317.567	4.03
317.935	3.88
318.304	4
318.672	4.26
319.041	4.21
319.41	4.38
319.778	4.48
320.147	4.59
320.515	4.8
320.883	4.83
321.252	4.89
321.62	4.88
321.988	5.07
322.357	4.98
322.725	4.9
323.093	4.86
323.461	4.8
323.829	4.92
324.197	4.84
324.565	4.73
324.933	4.83
325.301	4.68
325.669	4.8
326.037	4.73
326.405	4.59
326.772	4.65
327.14	4.48
327.508	4.29
327.875	4.28
328.243	4.27
328.61	4.35
328.978	4.27
329.346	4.34
329.713	4.4
330.08	4.42
330.448	4.51
330.815	4.51
331.182	4.46
331.55	4.43
331.917	4.46
332.284	4.62
332.651	4.61
333.018	4.61
333.385	4.61
333.752	4.61
334.119	4.79
334.486	4.88
334.853	4.98
335.22	5.16
335.587	5.17
335.954	5.06
336.32	5
336.687	5.03
337.054	4.96
337.42	5
337.787	5.12
338.153	5.03
338.52	5.17
338.886	5.35
339.253	5.07
339.619	5.03
339.986	5
340.352	4.98
340.718	5.15
341.084	5.07
341.451	5.13
341.817	5.05
342.183	5.03
342.549	4.95
342.915	4.94
343.281	4.9
343.647	5.05
344.013	5.13
344.379	5.08
344.745	5.19
345.11	5.14
345.476	5.17
345.842	5.24
346.208	5.21
346.573	5.24
346.939	5.42
347.304	5.47
347.67	5.52
348.035	5.49
348.401	5.43
348.766	5.5
349.132	5.49
349.497	5.49
349.862	5.55
350.228	5.57
350.593	5.67
350.958	5.79
351.323	5.8
351.688	5.71
352.053	5.75
352.418	5.69
352.783	5.69
353.148	5.6
353.513	5.58
353.878	5.57
354.243	5.45
354.608	5.52
354.972	5.46
355.337	5.37
355.702	5.42
356.066	5.43
356.431	5.39
356.795	5.49
357.16	5.59
357.524	5.48
357.889	5.56
358.253	5.47
358.618	5.43
358.982	5.38
359.346	5.47
359.71	5.47
360.075	5.5
360.439	5.42
360.803	5.43
361.167	5.4
361.531	5.41
361.895	5.46
362.259	5.43
362.623	5.39
362.987	5.41
363.351	5.38
363.714	5.36
364.078	5.34
364.442	5.21
364.806	5.11
365.169	5.12
365.533	5.07
365.896	5.1
366.26	5.11
366.623	5.08
366.987	5.05
367.35	5.05
367.714	5.01
368.077	5.08
368.44	5.07
368.803	5.04
369.167	4.93
369.53	4.94
369.893	4.95
370.256	4.94
370.619	4.91
370.982	4.82
371.345	4.85
371.708	4.83
372.071	4.82
372.434	4.81
372.797	4.82
373.159	4.77
373.522	4.69
373.885	4.66
374.247	4.63
374.61	4.6
374.973	4.61
375.335	4.58
375.698	4.45
376.06	4.4
376.423	4.46
376.785	4.47
377.147	4.38
377.51	4.32
377.872	4.32
378.234	4.28
378.596	4.34
378.958	4.31
379.321	4.29
379.683	4.31
380.045	4.27
380.407	4.18
380.769	4.14
381.13	4.15
381.492	4.12
381.854	4.13
382.216	4.1
382.578	4.07
382.939	4.06
383.301	4.1
383.663	4.1
384.024	4.02
384.386	4.01
384.747	3.94
385.109	3.96
385.47	3.96
385.832	3.95
386.193	3.92
386.554	3.84
386.916	3.86
387.277	3.83
387.638	3.84
387.999	3.87
388.36	3.9
388.721	3.89
389.082	3.87
389.443	3.89
389.804	3.86
390.165	3.88
390.526	3.86
390.887	3.79
391.248	3.78
391.609	3.83
391.969	3.79
392.33	3.81
392.691	3.76
393.051	3.75
393.412	3.77
393.772	3.77
394.133	3.8
394.493	3.79
394.854	3.77
395.214	3.76
395.574	3.71
395.935	3.67
396.295	3.65
396.655	3.64
397.015	3.61
397.376	3.61
397.736	3.6
398.096	3.58
398.456	3.63
398.816	3.64
399.176	3.55
399.535	3.56
399.895	3.57
400.255	3.54
400.615	3.54
400.975	3.51
401.334	3.5
401.694	3.47
402.054	3.45
402.413	3.46
402.773	3.48
403.132	3.52
403.492	3.51
403.851	3.49
404.211	3.48
404.57	3.49
404.929	3.45
405.288	3.43
405.648	3.43
406.007	3.41
406.366	3.41
406.725	3.44
407.084	3.42
407.443	3.39
407.802	3.41
408.161	3.41
408.52	3.38
408.879	3.37
409.238	3.4
409.596	3.38
409.955	3.39
410.314	3.35
410.673	3.33
411.031	3.3
411.39	3.29
411.748	3.26
412.107	3.22
412.465	3.19
412.824	3.17
413.182	3.16
413.54	3.13
413.899	3.11
414.257	3.12
414.615	3.12
414.974	3.12
415.332	3.12
415.69	3.1
416.048	3.12
416.406	3.12
416.764	3.14
417.122	3.16
417.48	3.14
417.838	3.16
418.195	3.17
418.553	3.19
418.911	3.19
419.269	3.19
419.626	3.18
419.984	3.21
420.342	3.2
420.699	3.21
421.057	3.21
421.414	3.2
421.772	3.21
422.129	3.18
422.486	3.18
422.844	3.17
423.201	3.17
423.558	3.17
423.915	3.17
424.273	3.15
424.63	3.15
424.987	3.16
425.344	3.15
425.701	3.14
426.058	3.13
426.415	3.12
426.772	3.13
427.128	3.17
427.485	3.15
427.842	3.17
428.199	3.15
428.555	3.16
428.912	3.16
429.269	3.12
429.625	3.15
429.982	3.16
430.338	3.16
430.695	3.14
431.051	3.13
431.407	3.11
431.764	3.09
432.12	3.09
432.476	3.08
432.832	3.06
433.189	3.05
433.545	3.03
433.901	3.02
434.257	3.02
434.613	2.99
434.969	3.01
435.325	3.01
435.681	3.02
436.036	3.02
436.392	3.03
436.748	3.04
437.104	3.04
437.459	3.03
437.815	3.04
438.171	3.06
438.526	3.06
438.882	3.08
439.237	3.07
439.593	3.06
439.948	3.06
440.304	3.06
440.659	3.07
441.014	3.09
441.369	3.11
441.725	3.12
442.08	3.12
442.435	3.11
442.79	3.1
443.145	3.09
443.5	3.09
443.855	3.08
444.21	3.09
444.565	3.09
444.92	3.1
445.275	3.1
445.629	3.08
445.984	3.07
446.339	3.05
446.693	3.06
447.048	3.06
447.403	3.06
447.757	3.06
448.112	3.06
448.466	3.04
448.82	3.04
449.175	3.03
449.529	3.05
449.883	3.04
450.238	3.03
450.592	3.04
450.946	3.03
451.3	3.04
451.654	3.03
452.008	3.02
452.362	3
452.716	3
453.07	3.02
453.424	3.02
453.778	3.04
454.132	3.05
454.486	3.07
454.839	3.08
455.193	3.08
455.547	3.07
455.9	3.09
456.254	3.09
456.607	3.09
456.961	3.04
457.314	3.04
457.668	3.05
458.021	3.05
458.375	3.05
458.728	3.06
459.081	3.06
459.434	3.06
459.787	3.07
460.141	3.07
460.494	3.07
460.847	3.09
461.2	3.1
461.553	3.12
461.906	3.11
462.259	3.11
462.611	3.11
462.964	3.13
463.317	3.11
463.67	3.12
464.022	3.11
464.375	3.13
464.728	3.13
465.08	3.15
465.433	3.16
465.785	3.18
466.138	3.18
466.49	3.18
466.843	3.2
467.195	3.22
467.547	3.22
467.899	3.23
468.252	3.21
468.604	3.23
468.956	3.22
469.308	3.21
469.66	3.25
470.012	3.27
470.364	3.26
470.716	3.27
471.068	3.27
471.42	3.29
471.772	3.31
472.123	3.33
472.475	3.32
472.827	3.3
473.178	3.3
473.53	3.31
473.882	3.33
474.233	3.31
474.585	3.29
474.936	3.31
475.288	3.32
475.639	3.34
475.99	3.31
476.342	3.32
476.693	3.32
477.044	3.26
477.395	3.25
477.746	3.24
478.097	3.23
478.448	3.23
478.8	3.24
479.15	3.22
479.501	3.21
479.852	3.21
480.203	3.22
480.554	3.21
480.905	3.21
481.255	3.21
481.606	3.21
481.957	3.21
482.307	3.21
482.658	3.21
483.009	3.21
483.359	3.22
483.709	3.21
484.06	3.21
484.41	3.22
484.761	3.23
485.111	3.23
485.461	3.24
485.811	3.25
486.162	3.24
486.512	3.25
486.862	3.26
487.212	3.26
487.562	3.26
487.912	3.26
488.262	3.27
488.612	3.27
488.961	3.28
489.311	3.28
489.661	3.27
490.011	3.27
490.36	3.27
490.71	3.26
491.06	3.27
491.409	3.27
491.759	3.27
492.108	3.27
492.458	3.27
492.807	3.27
493.157	3.27
493.506	3.28
493.855	3.27
494.204	3.25
494.554	3.26
494.903	3.28
495.252	3.29
495.601	3.29
495.95	3.29
496.299	3.3
496.648	3.31
496.997	3.33
497.346	3.33
497.695	3.35
498.043	3.38
498.392	3.39
498.741	3.43
499.09	3.44
499.438	3.47
499.787	3.51
500.135	3.52
500.484	3.52
500.832	3.55
501.181	3.57
501.529	3.64
501.878	3.67
502.226	3.71
502.574	3.74
502.923	3.76
503.271	3.8
503.619	3.84
503.967	3.87
504.315	3.88
504.663	3.91
505.011	3.93
505.359	3.96
505.707	4
506.055	4.03
506.403	4.08
506.751	4.12
507.098	4.17
507.446	4.24
507.794	4.3
508.141	4.34
508.489	4.41
508.837	4.45
509.184	4.51
509.531	4.54
509.879	4.6
510.226	4.64
510.574	4.72
510.921	4.78
511.268	4.86
511.616	4.94
511.963	5.03
512.31	5.12
512.657	5.16
513.004	5.24
513.351	5.31
513.698	5.38
514.045	5.47
514.392	5.53
514.739	5.6
515.086	5.68
515.432	5.77
515.779	5.85
516.126	5.95
516.473	6.02
516.819	6.12
517.166	6.2
517.512	6.28
517.859	6.34
518.205	6.41
518.552	6.47
518.898	6.53
519.245	6.6
519.591	6.69
519.937	6.79
520.283	6.85
520.629	6.93
520.976	7.01
521.322	7.07
521.668	7.14
522.014	7.24
522.36	7.33
522.706	7.43
523.052	7.52
523.398	7.61
523.743	7.73
524.089	7.83
524.435	7.93
524.781	8.06
525.126	8.17
525.472	8.26
525.817	8.37
526.163	8.45
526.509	8.53
526.854	8.59
527.199	8.66
527.545	8.73
527.89	8.81
528.235	8.87
528.581	8.96
528.926	9.05
529.271	9.14
529.616	9.22
529.961	9.3
530.306	9.38
530.651	9.46
530.996	9.56
531.341	9.67
531.686	9.77
532.031	9.87
532.376	9.96
532.721	10.05
533.065	10.17
533.41	10.3
533.755	10.42
534.099	10.55
534.444	10.68
534.788	10.82
535.133	10.94
535.477	11.08
535.822	11.22
536.166	11.35
536.51	11.51
536.855	11.68
537.199	11.87
537.543	12.08
537.887	12.27
538.231	12.47
538.576	12.64
538.92	12.87
539.264	13.02
539.608	13.22
539.951	13.42
540.295	13.61
540.639	13.77
540.983	13.95
541.327	14.12
541.671	14.29
542.014	14.46
542.358	14.64
542.701	14.83
543.045	14.99
543.389	15.18
543.732	15.34
544.075	15.53
544.419	15.72
544.762	15.91
545.105	16.13
545.449	16.32
545.792	16.57
546.135	16.75
546.478	17.03
546.821	17.29
547.165	17.53
547.508	17.77
547.851	18.01
548.194	18.25
548.536	18.5
548.879	18.76
549.222	19
549.565	19.25
549.908	19.51
550.25	19.79
550.593	20.09
550.936	20.37
551.278	20.67
551.621	20.9
551.963	21.15
552.306	21.37
552.648	21.64
552.991	21.91
553.333	22.15
553.675	22.41
554.017	22.7
554.36	22.96
554.702	23.21
555.044	23.45
555.386	23.73
555.728	23.99
556.07	24.23
556.412	24.46
556.754	24.71
557.096	24.97
557.438	25.2
557.78	25.41
558.121	25.66
558.463	25.84
558.805	26.09
559.147	26.37
559.488	26.62
559.83	26.85
560.171	27.09
560.513	27.37
560.854	27.57
561.196	27.81
561.537	28.02
561.878	28.23
562.22	28.48
562.561	28.69
562.902	28.94
563.243	29.14
563.584	29.4
563.925	29.62
564.266	29.83
564.607	30.08
564.948	30.29
565.289	30.52
565.63	30.74
565.971	30.99
566.312	31.2
566.653	31.36
566.993	31.55
567.334	31.73
567.675	31.9
568.015	32.09
568.356	32.21
568.696	32.37
569.037	32.51
569.377	32.68
569.718	32.82
570.058	32.97
570.398	33.14
570.739	33.33
571.079	33.51
571.419	33.68
571.759	33.82
572.099	33.97
572.439	34.07
572.779	34.19
573.119	34.31
573.459	34.44
573.799	34.59
574.139	34.69
574.479	34.83
574.819	34.92
575.158	35.04
575.498	35.21
575.838	35.37
576.177	35.51
576.517	35.62
576.856	35.83
577.196	35.97
577.535	36.16
577.875	36.23
578.214	36.33
578.553	36.43
578.893	36.54
579.232	36.65
579.571	36.76
579.91	36.84
580.25	36.99
580.589	37.1
580.928	37.25
581.267	37.36
581.606	37.43
581.945	37.53
582.283	37.66
582.622	37.7
582.961	37.86
583.3	37.98
583.639	38.05
583.977	38.1
584.316	38.21
584.654	38.28
584.993	38.32
585.332	38.41
585.67	38.55
586.008	38.6
586.347	38.75
586.685	38.85
587.024	39.01
587.362	39.07
587.7	39.09
588.038	39.19
588.376	39.28
588.715	39.49
589.053	39.6
589.391	39.62
589.729	39.66
590.067	39.69
590.404	39.76
590.742	39.84
591.08	40
591.418	40.02
591.756	40.09
592.093	40.3
592.431	40.37
592.769	40.39
593.106	40.5
593.444	40.56
593.781	40.72
594.119	40.82
594.456	40.86
594.793	40.96
595.131	40.98
595.468	41.1
595.805	41.08
596.143	41.14
596.48	41.2
596.817	41.3
597.154	41.36
597.491	41.48
597.828	41.53
598.165	41.55
598.502	41.64
598.839	41.68
599.176	41.73
599.512	41.8
599.849	41.91
600.186	42.03
600.523	42.05
600.859	42.03
601.196	42.11
601.532	42.2
601.869	42.3
602.205	42.38
602.542	42.47
602.878	42.59
603.215	42.6
603.551	42.72
603.887	42.79
604.223	42.88
604.56	42.93
604.896	43.09
605.232	43.13
605.568	43.14
605.904	43.18
606.24	43.26
606.576	43.31
606.912	43.33
607.248	43.39
607.583	43.51
607.919	43.59
608.255	43.62
608.591	43.62
608.926	43.63
609.262	43.66
609.597	43.6
609.933	43.55
610.268	43.68
610.604	43.67
610.939	43.68
611.275	43.62
611.61	43.56
611.945	43.39
612.281	43.35
612.616	43.43
612.951	43.51
613.286	43.51
613.621	43.58
613.956	43.66
614.291	43.53
614.626	43.53
614.961	43.65
615.296	43.68
615.631	43.69
615.966	43.77
616.3	43.86
616.635	44.05
616.97	44.08
617.304	44.03
617.639	44.09
617.973	44.12
618.308	44.24
618.642	44.29
618.977	44.48
619.311	44.54
619.646	44.53
619.98	44.49
620.314	44.42
620.648	44.44
620.983	44.46
621.317	44.63
621.651	44.68
621.985	44.58
622.319	44.74
622.653	44.88
622.987	44.82
623.321	44.76
623.655	44.73
623.988	44.76
624.322	44.78
624.656	44.76
624.99	44.75
625.323	44.67
625.657	44.73
625.99	44.76
626.324	44.8
626.657	44.84
626.991	44.89
627.324	44.94
627.658	44.96
627.991	44.95
628.324	44.94
628.657	44.96
628.991	45.03
629.324	44.87
629.657	44.85
629.99	44.91
630.323	44.97
630.656	44.97
630.989	44.95
631.322	45.01
631.655	45.06
631.987	45.08
632.32	45.11
632.653	45.14
632.986	45.13
633.318	45.14
633.651	45.17
633.984	45.22
634.316	45.22
634.649	45.21
634.981	45.28
635.313	45.27
635.646	45.2
635.978	45.25
636.31	45.32
636.643	45.35
636.975	45.36
637.307	45.43
637.639	45.39
637.971	45.45
638.303	45.42
638.635	45.41
638.967	45.59
639.299	45.6
639.631	45.62
639.963	45.58
640.295	45.58
640.626	45.64
640.958	45.64
641.29	45.69
641.621	45.64
641.953	45.61
642.285	45.68
642.616	45.67
642.948	45.67
643.279	45.78
643.61	45.72
643.942	45.87
644.273	45.91
644.604	45.97
644.936	45.99
645.267	46.21
645.598	46.26
645.929	46.16
646.26	46.22
646.591	46.22
646.922	46.34
647.253	46.31
647.584	46.29
647.915	46.36
648.245	46.37
648.576	46.43
648.907	46.56
649.238	46.58
649.568	46.71
649.899	46.74
650.229	46.67
650.56	46.8
650.89	46.72
651.221	46.72
651.551	46.67
651.882	46.61
652.212	46.5
652.542	46.55
652.872	46.64
653.203	46.75
653.533	46.65
653.863	46.62
654.193	46.76
654.523	46.7
654.853	46.71
655.183	46.81
655.513	46.93
655.843	46.87
656.172	46.98
656.502	46.92
656.832	46.87
657.162	46.98
657.491	46.98
657.821	47.12
658.15	47.1
658.48	47.14
658.809	47.28
659.139	47.26
659.468	47.29
659.798	47.29
660.127	47.17
660.456	47.16
660.785	47.12
661.115	47.06
661.444	47.21
661.773	47.23
662.102	47.1
662.431	46.99
662.76	46.89
663.089	46.86
663.418	46.84
663.747	46.77
664.076	46.77
664.404	46.7
664.733	46.52
665.062	46.45
665.39	46.37
665.719	46.45
666.048	46.46
666.376	46.47
666.705	46.38
667.033	46.47
