Data from MVZ_BU28167_Reflection_00015.txt Node
Date: Tue Nov 19 12:17:47 EST 2019
User: vgr7
Spectrometer: USB2G7710
Scans to average: 3
Trigger mode: 4
Integration Time (sec): 2.000000E-2
Electric dark correction enabled: true
Boxcar width: 10
XAxis mode: Wavelengths
Number of Pixels in Spectrum: 2048
>>>>>Begin Spectral Data<<<<<
177.721	381.53
178.105	-1205.56
178.488	208.97
178.871	213.54
179.254	694.44
179.636	383.55
180.019	167.35
180.402	25
180.785	-58.33
181.168	-28.79
181.55	-1.41
181.933	20.03
182.316	10.89
182.698	13.03
183.081	31.26
183.463	27.89
183.846	31.1
184.228	29.46
184.611	14.52
184.993	-15.99
185.376	-3.02
185.758	-2.39
186.14	-3.01
186.522	-27.62
186.904	-38.77
187.287	-13.45
187.669	-24.32
188.051	-5.66
188.433	3.11
188.815	6.82
189.197	9.65
189.579	14.86
189.961	3.11
190.342	-11.53
190.724	40.03
191.106	13.29
191.488	37.79
191.869	151.59
192.251	-51.96
192.633	360.42
193.014	4891.67
193.396	165.1
193.777	3891.67
194.159	995.83
194.54	-235.86
194.922	-385.63
195.303	-286.11
195.684	-1347.92
196.065	-990.28
196.447	-727.38
196.828	-870.24
197.209	-199.6
197.59	-151.89
197.971	-487.96
198.352	197.95
198.733	46.08
199.114	31.33
199.495	27.29
199.876	21.4
200.257	66.5
200.638	174.65
201.018	191.53
201.399	2397.62
201.78	2447.22
202.16	-459.52
202.541	-945.14
202.922	3030.56
203.302	-218.09
203.683	-210.32
204.063	-176.67
204.444	-149.08
204.824	-177.22
205.204	-153.39
205.585	-175.73
205.965	-164.47
206.345	-117.98
206.725	-117.91
207.106	-107.38
207.486	-111.9
207.866	-104.64
208.246	-51.07
208.626	-132.49
209.006	-85.98
209.386	-128.54
209.766	-179.63
210.145	-120.32
210.525	-32.05
210.905	-48.81
211.285	-35.68
211.664	-44.05
212.044	-67.7
212.424	-17.15
212.803	9.97
213.183	-62.82
213.562	-1.28
213.942	8.56
214.321	14.93
214.701	-50.5
215.08	-11.58
215.459	35.45
215.838	-33.65
216.218	-152.19
216.597	6.86
216.976	13.25
217.355	29.98
217.734	1.72
218.113	5.47
218.492	0.1
218.871	27.6
219.25	0.68
219.629	17.71
220.008	52.64
220.387	23.56
220.766	46.82
221.144	32.62
221.523	-1.4
221.902	-15.76
222.28	-2.24
222.659	22.69
223.037	-3.6
223.416	-11.03
223.794	2.38
224.173	4.38
224.551	6.45
224.929	-6.97
225.308	-19.21
225.686	-5.8
226.064	-8.57
226.442	-5.27
226.821	-7.2
227.199	-3.77
227.577	-4.91
227.955	-4.85
228.333	-4.23
228.711	-5.09
229.089	-1.77
229.467	2.92
229.845	2.51
230.222	2.18
230.6	-3.5
230.978	0.86
231.356	0.72
231.733	1.92
232.111	-0.05
232.488	0.39
232.866	3.35
233.243	4.62
233.621	8.25
233.998	8.13
234.376	10.47
234.753	10.7
235.13	10.55
235.508	12.38
235.885	12.14
236.262	10.96
236.639	9.69
237.016	9.45
237.393	7.97
237.77	8.32
238.147	7.01
238.524	6.37
238.901	4.78
239.278	4.63
239.655	3.43
240.032	3.94
240.409	2.63
240.785	1.53
241.162	1.26
241.539	0.84
241.915	1.37
242.292	1.48
242.668	1.15
243.045	1.21
243.421	1.74
243.798	2.18
244.174	2.71
244.551	2.73
244.927	2.19
245.303	2.45
245.679	2.43
246.056	2.48
246.432	2.91
246.808	3.33
247.184	3.35
247.56	3.38
247.936	3.51
248.312	3.84
248.688	3.94
249.064	3.84
249.44	3.63
249.815	3.52
250.191	3.29
250.567	3.29
250.943	3.45
251.318	3.34
251.694	2.86
252.069	2.43
252.445	2.38
252.82	3.13
253.196	3.13
253.571	3.24
253.947	3.42
254.322	3.02
254.697	2.66
255.073	2.45
255.448	2.55
255.823	2.62
256.198	2.78
256.573	3.04
256.948	3.31
257.323	3.59
257.698	3.57
258.073	3.74
258.448	3.92
258.823	3.64
259.198	3.69
259.573	3.78
259.948	3.91
260.322	3.89
260.697	3.63
261.072	3.59
261.446	3.56
261.821	3.45
262.195	3.53
262.57	3.42
262.944	3.59
263.319	3.78
263.693	3.77
264.067	3.75
264.442	3.85
264.816	3.54
265.19	3.49
265.564	3.42
265.938	3.34
266.313	3.27
266.687	3.46
267.061	2.97
267.435	3.16
267.809	3
268.183	3.02
268.556	2.96
268.93	3.01
269.304	2.95
269.678	2.93
270.051	3.03
270.425	3.33
270.799	3.18
271.172	2.88
271.546	2.88
271.919	2.86
272.293	2.74
272.666	2.89
273.04	2.86
273.413	2.85
273.787	2.85
274.16	2.78
274.533	2.86
274.906	3.13
275.279	2.9
275.653	3.13
276.026	3.16
276.399	3.26
276.772	3.2
277.145	3.13
277.518	3.06
277.891	3.05
278.263	2.94
278.636	2.9
279.009	3.09
279.382	2.93
279.755	2.92
280.127	2.98
280.5	3.15
280.872	3.07
281.245	3.16
281.617	3.19
281.99	3.1
282.362	2.96
282.735	2.8
283.107	2.76
283.479	2.66
283.852	2.68
284.224	2.57
284.596	2.6
284.968	2.65
285.34	2.7
285.713	2.73
286.085	2.78
286.457	2.95
286.829	2.8
287.201	2.77
287.572	2.81
287.944	2.71
288.316	2.64
288.688	2.73
289.06	2.81
289.431	2.8
289.803	2.94
290.175	2.93
290.546	3.05
290.918	3.29
291.289	3.17
291.661	3.1
292.032	3.24
292.403	3.18
292.775	3.26
293.146	3.35
293.517	3.31
293.889	3.3
294.26	3.29
294.631	3.51
295.002	3.59
295.373	3.62
295.744	3.72
296.115	3.7
296.486	3.74
296.857	3.73
297.228	3.74
297.599	3.71
297.97	3.85
298.34	3.9
298.711	3.81
299.082	3.88
299.452	3.77
299.823	3.87
300.194	4
300.564	4
300.935	3.99
301.305	4.01
301.676	3.94
302.046	4.03
302.416	4.07
302.787	4.03
303.157	4.01
303.527	3.98
303.897	4.12
304.267	4.09
304.637	4.1
305.008	4.05
305.378	4.01
305.748	3.88
306.117	3.91
306.487	4
306.857	4.15
307.227	4.42
307.597	4.39
307.967	4.38
308.336	4.48
308.706	4.56
309.076	4.54
309.445	4.71
309.815	4.65
310.184	4.56
310.554	4.7
310.923	4.71
311.293	4.8
311.662	4.71
312.031	4.66
312.401	4.65
312.77	4.64
313.139	4.81
313.508	4.9
313.877	4.84
314.246	4.75
314.616	4.78
314.985	4.66
315.353	4.71
315.722	4.7
316.091	4.58
316.46	4.61
316.829	4.74
317.198	4.65
317.567	4.71
317.935	4.81
318.304	4.86
318.672	4.92
319.041	5.01
319.41	5.2
319.778	5.38
320.147	5.44
320.515	5.72
320.883	5.73
321.252	5.84
321.62	5.94
321.988	6.11
322.357	6.04
322.725	6.11
323.093	6.12
323.461	6.25
323.829	6.38
324.197	6.54
324.565	6.5
324.933	6.59
325.301	6.49
325.669	6.44
326.037	6.32
326.405	6.35
326.772	6.34
327.14	6.28
327.508	6.28
327.875	6.27
328.243	6.22
328.61	6.33
328.978	6.24
329.346	6.17
329.713	6.33
330.08	6.46
330.448	6.59
330.815	6.63
331.182	6.5
331.55	6.52
331.917	6.27
332.284	6.35
332.651	6.46
333.018	6.49
333.385	6.78
333.752	7.04
334.119	7.1
334.486	7.14
334.853	7.17
335.22	7.12
335.587	7.22
335.954	7.24
336.32	7.18
336.687	7.34
337.054	7.52
337.42	7.56
337.787	7.58
338.153	7.53
338.52	7.73
338.886	7.95
339.253	7.82
339.619	7.9
339.986	7.91
340.352	7.87
340.718	8.08
341.084	8.03
341.451	7.99
341.817	7.99
342.183	8
342.549	8.1
342.915	8.22
343.281	8.14
343.647	8.11
344.013	8.17
344.379	8.19
344.745	8.2
345.11	8.24
345.476	8.28
345.842	8.34
346.208	8.25
346.573	8.24
346.939	8.35
347.304	8.49
347.67	8.48
348.035	8.48
348.401	8.47
348.766	8.37
349.132	8.4
349.497	8.43
349.862	8.43
350.228	8.49
350.593	8.5
350.958	8.51
351.323	8.58
351.688	8.59
352.053	8.67
352.418	8.67
352.783	8.55
353.148	8.52
353.513	8.52
353.878	8.47
354.243	8.38
354.608	8.34
354.972	8.3
355.337	8.31
355.702	8.29
356.066	8.34
356.431	8.4
356.795	8.29
357.16	8.34
357.524	8.35
357.889	8.26
358.253	8.22
358.618	8.37
358.982	8.35
359.346	8.3
359.71	8.17
360.075	8.17
360.439	8.2
360.803	8.24
361.167	8.25
361.531	8.26
361.895	8.22
362.259	8.22
362.623	8.2
362.987	8.21
363.351	8.26
363.714	8.19
364.078	8.26
364.442	8.28
364.806	8.22
365.169	8.17
365.533	8.14
365.896	8.13
366.26	7.91
366.623	7.86
366.987	7.86
367.35	7.94
367.714	7.94
368.077	7.89
368.44	7.9
368.803	7.83
369.167	7.74
369.53	7.78
369.893	7.87
370.256	7.82
370.619	7.76
370.982	7.62
371.345	7.6
371.708	7.42
372.071	7.38
372.434	7.29
372.797	7.34
373.159	7.36
373.522	7.32
373.885	7.41
374.247	7.36
374.61	7.32
374.973	7.2
375.335	7.12
375.698	7.11
376.06	6.98
376.423	6.92
376.785	6.93
377.147	6.88
377.51	6.8
377.872	6.71
378.234	6.73
378.596	6.78
378.958	6.78
379.321	6.71
379.683	6.65
380.045	6.68
380.407	6.56
380.769	6.48
381.13	6.48
381.492	6.47
381.854	6.46
382.216	6.44
382.578	6.45
382.939	6.41
383.301	6.34
383.663	6.34
384.024	6.34
384.386	6.35
384.747	6.28
385.109	6.16
385.47	6.17
385.832	6.09
386.193	5.96
386.554	5.88
386.916	5.94
387.277	5.94
387.638	5.92
387.999	5.88
388.36	5.83
388.721	5.78
389.082	5.72
389.443	5.68
389.804	5.65
390.165	5.58
390.526	5.55
390.887	5.51
391.248	5.44
391.609	5.39
391.969	5.31
392.33	5.3
392.691	5.3
393.051	5.25
393.412	5.21
393.772	5.27
394.133	5.21
394.493	5.15
394.854	5.07
395.214	5.04
395.574	5.04
395.935	5
396.295	4.97
396.655	4.94
397.015	4.89
397.376	4.81
397.736	4.77
398.096	4.73
398.456	4.68
398.816	4.67
399.176	4.62
399.535	4.59
399.895	4.53
400.255	4.54
400.615	4.56
400.975	4.54
401.334	4.46
401.694	4.42
402.054	4.38
402.413	4.39
402.773	4.37
403.132	4.35
403.492	4.36
403.851	4.33
404.211	4.33
404.57	4.36
404.929	4.31
405.288	4.28
405.648	4.24
406.007	4.24
406.366	4.23
406.725	4.24
407.084	4.21
407.443	4.23
407.802	4.17
408.161	4.12
408.52	4.15
408.879	4.15
409.238	4.2
409.596	4.2
409.955	4.19
410.314	4.15
410.673	4.13
411.031	4.11
411.39	4.11
411.748	4.09
412.107	4.08
412.465	4.1
412.824	4.13
413.182	4.15
413.54	4.14
413.899	4.14
414.257	4.14
414.615	4.11
414.974	4.11
415.332	4.1
415.69	4.07
416.048	4.03
416.406	4.02
416.764	3.97
417.122	3.96
417.48	3.98
417.838	3.97
418.195	3.96
418.553	3.94
418.911	3.91
419.269	3.88
419.626	3.85
419.984	3.83
420.342	3.82
420.699	3.81
421.057	3.79
421.414	3.79
421.772	3.78
422.129	3.77
422.486	3.77
422.844	3.73
423.201	3.75
423.558	3.74
423.915	3.72
424.273	3.72
424.63	3.71
424.987	3.68
425.344	3.66
425.701	3.66
426.058	3.66
426.415	3.66
426.772	3.66
427.128	3.64
427.485	3.65
427.842	3.64
428.199	3.63
428.555	3.62
428.912	3.6
429.269	3.58
429.625	3.58
429.982	3.56
430.338	3.56
430.695	3.53
431.051	3.53
431.407	3.55
431.764	3.53
432.12	3.53
432.476	3.55
432.832	3.56
433.189	3.53
433.545	3.53
433.901	3.53
434.257	3.53
434.613	3.55
434.969	3.55
435.325	3.55
435.681	3.55
436.036	3.55
436.392	3.56
436.748	3.58
437.104	3.58
437.459	3.58
437.815	3.6
438.171	3.63
438.526	3.63
438.882	3.62
439.237	3.63
439.593	3.63
439.948	3.59
440.304	3.59
440.659	3.61
441.014	3.61
441.369	3.6
441.725	3.59
442.08	3.57
442.435	3.57
442.79	3.57
443.145	3.56
443.5	3.57
443.855	3.54
444.21	3.53
444.565	3.53
444.92	3.53
445.275	3.52
445.629	3.48
445.984	3.47
446.339	3.46
446.693	3.45
447.048	3.43
447.403	3.45
447.757	3.43
448.112	3.41
448.466	3.41
448.82	3.4
449.175	3.41
449.529	3.42
449.883	3.4
450.238	3.39
450.592	3.39
450.946	3.36
451.3	3.38
451.654	3.35
452.008	3.34
452.362	3.32
452.716	3.32
453.07	3.31
453.424	3.3
453.778	3.31
454.132	3.3
454.486	3.32
454.839	3.3
455.193	3.32
455.547	3.33
455.9	3.32
456.254	3.31
456.607	3.32
456.961	3.32
457.314	3.32
457.668	3.3
458.021	3.28
458.375	3.3
458.728	3.29
459.081	3.33
459.434	3.33
459.787	3.35
460.141	3.37
460.494	3.4
460.847	3.4
461.2	3.42
461.553	3.45
461.906	3.44
462.259	3.45
462.611	3.46
462.964	3.48
463.317	3.51
463.67	3.52
464.022	3.51
464.375	3.51
464.728	3.51
465.08	3.54
465.433	3.57
465.785	3.59
466.138	3.63
466.49	3.63
466.843	3.67
467.195	3.68
467.547	3.67
467.899	3.67
468.252	3.69
468.604	3.72
468.956	3.72
469.308	3.75
469.66	3.75
470.012	3.75
470.364	3.76
470.716	3.77
471.068	3.8
471.42	3.83
471.772	3.86
472.123	3.89
472.475	3.89
472.827	3.9
473.178	3.92
473.53	3.92
473.882	3.91
474.233	3.9
474.585	3.88
474.936	3.91
475.288	3.93
475.639	3.96
475.99	3.92
476.342	3.9
476.693	3.88
477.044	3.89
477.395	3.91
477.746	3.9
478.097	3.89
478.448	3.88
478.8	3.84
479.15	3.82
479.501	3.8
479.852	3.79
480.203	3.78
480.554	3.76
480.905	3.76
481.255	3.75
481.606	3.75
481.957	3.76
482.307	3.74
482.658	3.74
483.009	3.73
483.359	3.73
483.709	3.73
484.06	3.73
484.41	3.72
484.761	3.72
485.111	3.71
485.461	3.71
485.811	3.71
486.162	3.72
486.512	3.72
486.862	3.72
487.212	3.72
487.562	3.72
487.912	3.72
488.262	3.72
488.612	3.73
488.961	3.73
489.311	3.72
489.661	3.71
490.011	3.72
490.36	3.71
490.71	3.72
491.06	3.73
491.409	3.74
491.759	3.75
492.108	3.76
492.458	3.78
492.807	3.79
493.157	3.79
493.506	3.8
493.855	3.81
494.204	3.84
494.554	3.87
494.903	3.9
495.252	3.92
495.601	3.94
495.95	4
496.299	4.03
496.648	4.08
496.997	4.15
497.346	4.2
497.695	4.26
498.043	4.31
498.392	4.37
498.741	4.42
499.09	4.47
499.438	4.55
499.787	4.62
500.135	4.69
500.484	4.78
500.832	4.85
501.181	4.95
501.529	5.04
501.878	5.13
502.226	5.22
502.574	5.3
502.923	5.41
503.271	5.49
503.619	5.62
503.967	5.72
504.315	5.82
504.663	5.93
505.011	6.04
505.359	6.15
505.707	6.28
506.055	6.41
506.403	6.58
506.751	6.72
507.098	6.9
507.446	7.08
507.794	7.23
508.141	7.41
508.489	7.59
508.837	7.74
509.184	7.9
509.531	8.13
509.879	8.28
510.226	8.45
510.574	8.63
510.921	8.81
511.268	9.01
511.616	9.21
511.963	9.41
512.31	9.63
512.657	9.88
513.004	10.08
513.351	10.33
513.698	10.57
514.045	10.81
514.392	11.03
514.739	11.27
515.086	11.55
515.432	11.8
515.779	12.04
516.126	12.32
516.473	12.57
516.819	12.77
517.166	13.02
517.512	13.25
517.859	13.48
518.205	13.68
518.552	13.89
518.898	14.09
519.245	14.3
519.591	14.51
519.937	14.71
520.283	14.94
520.629	15.16
520.976	15.41
521.322	15.65
521.668	15.89
522.014	16.14
522.36	16.39
522.706	16.66
523.052	16.95
523.398	17.22
523.743	17.52
524.089	17.82
524.435	18.11
524.781	18.36
525.126	18.62
525.472	18.86
525.817	19.09
526.163	19.32
526.509	19.53
526.854	19.69
527.199	19.87
527.545	20.05
527.89	20.22
528.235	20.37
528.581	20.52
528.926	20.68
529.271	20.85
529.616	21
529.961	21.17
530.306	21.35
530.651	21.53
530.996	21.73
531.341	21.94
531.686	22.14
532.031	22.37
532.376	22.59
532.721	22.8
533.065	23.02
533.41	23.24
533.755	23.48
534.099	23.73
534.444	23.97
534.788	24.17
535.133	24.39
535.477	24.66
535.822	24.92
536.166	25.19
536.51	25.5
536.855	25.85
537.199	26.14
537.543	26.46
537.887	26.78
538.231	27.07
538.576	27.36
538.92	27.69
539.264	27.95
539.608	28.2
539.951	28.46
540.295	28.69
540.639	28.95
540.983	29.16
541.327	29.4
541.671	29.6
542.014	29.85
542.358	30.08
542.701	30.28
543.045	30.52
543.389	30.72
543.732	30.9
544.075	31.07
544.419	31.31
544.762	31.53
545.105	31.77
545.449	32.03
545.792	32.26
546.135	32.5
546.478	32.78
546.821	33.08
547.165	33.35
547.508	33.62
547.851	33.87
548.194	34.12
548.536	34.34
548.879	34.63
549.222	34.86
549.565	35.09
549.908	35.37
550.25	35.59
550.593	35.88
550.936	36.14
551.278	36.43
551.621	36.64
551.963	36.83
552.306	37.05
552.648	37.28
552.991	37.49
553.333	37.71
553.675	37.95
554.017	38.16
554.36	38.36
554.702	38.6
555.044	38.85
555.386	39.11
555.728	39.33
556.07	39.57
556.412	39.77
556.754	39.99
557.096	40.19
557.438	40.4
557.78	40.56
558.121	40.81
558.463	40.98
558.805	41.24
559.147	41.48
559.488	41.65
559.83	41.84
560.171	42.08
560.513	42.23
560.854	42.4
561.196	42.52
561.537	42.74
561.878	42.9
562.22	43.03
562.561	43.16
562.902	43.31
563.243	43.37
563.584	43.56
563.925	43.77
564.266	43.93
564.607	44.06
564.948	44.23
565.289	44.37
565.63	44.48
565.971	44.58
566.312	44.69
566.653	44.85
566.993	44.97
567.334	45.09
567.675	45.25
568.015	45.37
568.356	45.52
568.696	45.63
569.037	45.77
569.377	45.86
569.718	45.96
570.058	46.12
570.398	46.29
570.739	46.37
571.079	46.41
571.419	46.56
571.759	46.66
572.099	46.78
572.439	46.87
572.779	46.98
573.119	47.07
573.459	47.17
573.799	47.25
574.139	47.38
574.479	47.49
574.819	47.59
575.158	47.66
575.498	47.72
575.838	47.77
576.177	47.88
576.517	48.07
576.856	48.18
577.196	48.26
577.535	48.33
577.875	48.45
578.214	48.55
578.553	48.54
578.893	48.67
579.232	48.8
579.571	48.93
579.91	48.96
580.25	49.09
580.589	49.14
580.928	49.24
581.267	49.4
581.606	49.54
581.945	49.59
582.283	49.63
582.622	49.77
582.961	49.84
583.3	49.85
583.639	49.84
583.977	50
584.316	50.11
584.654	50.24
584.993	50.3
585.332	50.46
585.67	50.6
586.008	50.64
586.347	50.74
586.685	50.71
587.024	50.89
587.362	50.91
587.7	51.05
588.038	51.15
588.376	51.12
588.715	51.08
589.053	51.22
589.391	51.42
589.729	51.52
590.067	51.61
590.404	51.68
590.742	51.69
591.08	51.7
591.418	51.75
591.756	51.75
592.093	51.82
592.431	51.84
592.769	51.81
593.106	51.94
593.444	51.9
593.781	52.02
594.119	52.03
594.456	52.2
594.793	52.27
595.131	52.27
595.468	52.32
595.805	52.39
596.143	52.41
596.48	52.37
596.817	52.37
597.154	52.41
597.491	52.45
597.828	52.54
598.165	52.63
598.502	52.68
598.839	52.76
599.176	52.78
599.512	52.85
599.849	52.98
600.186	52.87
600.523	52.96
600.859	52.94
601.196	53
601.532	52.97
601.869	53.01
602.205	53.08
602.542	53.09
602.878	53.2
603.215	53.29
603.551	53.41
603.887	53.44
604.223	53.51
604.56	53.49
604.896	53.53
605.232	53.52
605.568	53.51
605.904	53.59
606.24	53.67
606.576	53.72
606.912	53.72
607.248	53.83
607.583	53.9
607.919	54
608.255	54.09
608.591	54.09
608.926	54.1
609.262	54.14
609.597	54.18
609.933	54.08
610.268	54.01
610.604	54
610.939	54.09
611.275	54.07
611.61	54.14
611.945	54.13
612.281	54.17
612.616	54.24
612.951	54.38
613.286	54.43
613.621	54.43
613.956	54.47
614.291	54.51
614.626	54.5
614.961	54.5
615.296	54.49
615.631	54.6
615.966	54.62
616.3	54.59
616.635	54.63
616.97	54.71
617.304	54.66
617.639	54.68
617.973	54.66
618.308	54.74
618.642	54.92
618.977	55.02
619.311	55.02
619.646	54.99
619.98	54.92
620.314	54.93
620.648	55.02
620.983	55.08
621.317	55.1
621.651	55.17
621.985	55.15
622.319	55.21
622.653	55.05
622.987	55.06
623.321	55.1
623.655	55.02
623.988	55.11
624.322	55.2
624.656	55.23
624.99	55.28
625.323	55.25
625.657	55.08
625.99	55.18
626.324	55.18
626.657	55.36
626.991	55.36
627.324	55.33
627.658	55.26
627.991	55.35
628.324	55.39
628.657	55.34
628.991	55.42
629.324	55.34
629.657	55.5
629.99	55.53
630.323	55.59
630.656	55.75
630.989	55.7
631.322	55.78
631.655	55.84
631.987	55.82
632.32	55.86
632.653	56.01
632.986	55.94
633.318	56.03
633.651	55.96
633.984	55.99
634.316	56.18
634.649	56.15
634.981	56.07
635.313	56.13
635.646	56.09
635.978	56.11
636.31	56.25
636.643	56.22
636.975	56.3
637.307	56.32
637.639	56.3
637.971	56.3
638.303	56.35
638.635	56.41
638.967	56.47
639.299	56.56
639.631	56.61
639.963	56.56
640.295	56.55
640.626	56.61
640.958	56.54
641.29	56.43
641.621	56.58
641.953	56.6
642.285	56.6
642.616	56.75
642.948	56.72
643.279	56.71
643.61	56.82
643.942	56.8
644.273	56.88
644.604	56.98
644.936	57.15
645.267	57.12
645.598	56.96
645.929	56.94
646.26	57.05
646.591	57.09
646.922	57.22
647.253	57.15
647.584	57.15
647.915	57.3
648.245	57.25
648.576	57.22
648.907	57.17
649.238	57.06
649.568	57.12
649.899	57.28
650.229	57.31
650.56	57.31
650.89	57.39
651.221	57.23
651.551	57.12
651.882	57.14
652.212	57.19
652.542	57.3
652.872	57.39
653.203	57.29
653.533	57.24
653.863	57.28
654.193	57.37
654.523	57.41
654.853	57.27
655.183	57.35
655.513	57.4
655.843	57.46
656.172	57.63
656.502	57.44
656.832	57.35
657.162	57.41
657.491	57.44
657.821	57.35
658.15	57.44
658.48	57.4
658.809	57.34
659.139	57.24
659.468	57.4
659.798	57.25
660.127	57.23
660.456	57.19
660.785	57.11
661.115	57.22
661.444	57.11
661.773	57.14
662.102	57.11
662.431	57.12
662.76	57.18
663.089	57.25
663.418	57.41
663.747	57.51
664.076	57.45
664.404	57.4
664.733	57.5
665.062	57.53
665.39	57.65
665.719	57.61
666.048	57.63
666.376	57.48
666.705	57.6
667.033	57.69
667.362	57.79
