Data from MVZ_BU62167_Reflection_00004.txt Node
Date: Tue Nov 19 12:14:22 EST 2019
User: vgr7
Spectrometer: USB2G7710
Scans to average: 3
Trigger mode: 4
Integration Time (sec): 2.000000E-2
Electric dark correction enabled: true
Boxcar width: 10
XAxis mode: Wavelengths
Number of Pixels in Spectrum: 2048
>>>>>Begin Spectral Data<<<<<
177.721	38.06
178.105	-102.38
178.488	62.44
178.871	-75.44
179.254	1.96
179.636	-78.69
180.019	-92.84
180.402	175
180.785	486.67
181.168	-193.86
181.55	138.65
181.933	15.71
182.316	129.96
182.698	580.62
183.081	-1751.85
183.463	-422.88
183.846	-702.47
184.228	1139.22
184.611	109.86
184.993	68.36
185.376	87.23
185.758	84.05
186.14	-24.44
186.522	73.18
186.904	-56.86
187.287	26.94
187.669	184.85
188.051	244.65
188.433	4655.56
188.815	550.98
189.197	120.58
189.579	-199.32
189.961	-267.23
190.342	301.26
190.724	274.6
191.106	85.14
191.488	53.11
191.869	78.38
192.251	110.3
192.633	182.89
193.014	177.94
193.396	142.5
193.777	141.52
194.159	171.9
194.54	160.02
194.922	131.27
195.303	118.97
195.684	99.42
196.065	104.61
196.447	110.83
196.828	124.69
197.209	150.51
197.59	111.63
197.971	113.52
198.352	118.68
198.733	104.19
199.114	102.78
199.495	109.92
199.876	108.5
200.257	91.99
200.638	61.69
201.018	55.08
201.399	45.32
201.78	47.57
202.16	25.43
202.541	3.21
202.922	-5.29
203.302	-6.03
203.683	4.49
204.063	-8.64
204.444	15.42
204.824	9.37
205.204	2.95
205.585	6.99
205.965	-3.87
206.345	2.01
206.725	7.61
207.106	7.72
207.486	-3.28
207.866	-7.88
208.246	-2.25
208.626	3.68
209.006	1.96
209.386	7.48
209.766	9.62
210.145	17.86
210.525	34.56
210.905	32.54
211.285	22.03
211.664	30.16
212.044	30.35
212.424	4.88
212.803	-4.09
213.183	-2.46
213.562	-6.9
213.942	-13.38
214.321	-12.73
214.701	-20.66
215.08	-21.08
215.459	-8.32
215.838	-13.73
216.218	-16.36
216.597	-9.89
216.976	-15.54
217.355	-17.56
217.734	-22.07
218.113	-22.93
218.492	-31.23
218.871	-19.52
219.25	-11.11
219.629	-16.47
220.008	-10
220.387	6.02
220.766	2.49
221.144	7.98
221.523	3.55
221.902	10.83
222.28	19.07
222.659	39.39
223.037	40.23
223.416	33.04
223.794	43.88
224.173	37.59
224.551	32.3
224.929	30.07
225.308	30.32
225.686	26.86
226.064	21.8
226.442	18.91
226.821	19.84
227.199	13.67
227.577	12.48
227.955	9.93
228.333	1.48
228.711	4.49
229.089	2.37
229.467	2.27
229.845	2.6
230.222	0.05
230.6	-4.46
230.978	-1.25
231.356	0.66
231.733	-0.55
232.111	2.95
232.488	0.92
232.866	2.6
233.243	0.61
233.621	1.05
233.998	3.85
234.376	4.64
234.753	2.84
235.13	3.87
235.508	3.69
235.885	4.67
236.262	7.13
236.639	5.5
237.016	6.26
237.393	8.09
237.77	8.4
238.147	7.59
238.524	8.21
238.901	6.7
239.278	5.59
239.655	4.97
240.032	4.78
240.409	4.2
240.785	4.37
241.162	5.12
241.539	5.32
241.915	5.03
242.292	5.32
242.668	5.77
243.045	5.79
243.421	5.88
243.798	5.87
244.174	5.8
244.551	6.4
244.927	5.74
245.303	5.48
245.679	5.4
246.056	5.44
246.432	5.58
246.808	5.62
247.184	5.68
247.56	5.66
247.936	5.68
248.312	6.21
248.688	6.42
249.064	6.67
249.44	6.43
249.815	6.6
250.191	6.26
250.567	6
250.943	6.17
251.318	5.92
251.694	5.89
252.069	6.01
252.445	5.82
252.82	6.26
253.196	6.19
253.571	6.39
253.947	6.75
254.322	6.32
254.697	6.29
255.073	6.2
255.448	6.31
255.823	5.86
256.198	5.47
256.573	5.21
256.948	4.72
257.323	4.88
257.698	4.73
258.073	4.91
258.448	5.06
258.823	4.69
259.198	4.92
259.573	4.71
259.948	4.71
260.322	4.6
260.697	4.83
261.072	4.93
261.446	4.75
261.821	4.39
262.195	4.46
262.57	4.58
262.944	4.78
263.319	4.51
263.693	4.67
264.067	4.47
264.442	4.46
264.816	4.55
265.19	4.27
265.564	4.21
265.938	4
266.313	3.85
266.687	4.16
267.061	4.16
267.435	4.4
267.809	4.18
268.183	4.09
268.556	3.73
268.93	3.63
269.304	3.72
269.678	3.96
270.051	3.96
270.425	3.88
270.799	3.78
271.172	4.04
271.546	4
271.919	4.31
272.293	4.13
272.666	4.21
273.04	4.57
273.413	4.58
273.787	4.72
274.16	4.74
274.533	4.69
274.906	4.69
275.279	4.58
275.653	4.73
276.026	4.96
276.399	5.18
276.772	5.27
277.145	5.35
277.518	5.38
277.891	5.34
278.263	5.32
278.636	5.44
279.009	5.39
279.382	5.38
279.755	5.34
280.127	5.58
280.5	5.51
280.872	5.38
281.245	5.25
281.617	5.22
281.99	5.17
282.362	5.09
282.735	4.95
283.107	5.06
283.479	4.98
283.852	5.05
284.224	4.97
284.596	4.85
284.968	4.68
285.34	4.7
285.713	4.84
286.085	4.79
286.457	4.72
286.829	4.78
287.201	4.78
287.572	4.76
287.944	4.84
288.316	4.9
288.688	4.96
289.06	4.97
289.431	5.03
289.803	5.06
290.175	5.03
290.546	5.09
290.918	4.98
291.289	5.08
291.661	5
292.032	4.92
292.403	5.07
292.775	5.14
293.146	5.05
293.517	4.75
293.889	4.74
294.26	4.7
294.631	4.66
295.002	4.58
295.373	4.51
295.744	4.45
296.115	4.4
296.486	4.28
296.857	4.3
297.228	4.19
297.599	4.16
297.97	4.24
298.34	4.12
298.711	4.29
299.082	4.2
299.452	4.09
299.823	4.05
300.194	3.94
300.564	3.95
300.935	3.88
301.305	3.95
301.676	3.86
302.046	3.84
302.416	3.8
302.787	3.78
303.157	3.91
303.527	3.87
303.897	3.91
304.267	4.06
304.637	4.22
305.008	4.22
305.378	4.29
305.748	4.38
306.117	4.36
306.487	4.27
306.857	4.36
307.227	4.55
307.597	4.42
307.967	4.45
308.336	4.49
308.706	4.62
309.076	4.78
309.445	4.94
309.815	4.8
310.184	4.77
310.554	4.87
310.923	4.7
311.293	4.66
311.662	4.54
312.031	4.42
312.401	4.27
312.77	4.12
313.139	4.09
313.508	4.14
313.877	4.28
314.246	4.16
314.616	4.2
314.985	4.1
315.353	4.29
315.722	4.45
316.091	4.36
316.46	4.3
316.829	4.16
317.198	4.12
317.567	4.41
317.935	4.5
318.304	4.56
318.672	4.75
319.041	4.82
319.41	4.8
319.778	4.83
320.147	5.05
320.515	5.27
320.883	5.16
321.252	5.03
321.62	4.82
321.988	4.94
322.357	4.76
322.725	4.77
323.093	4.75
323.461	4.64
323.829	4.62
324.197	4.54
324.565	4.45
324.933	4.32
325.301	4.09
325.669	4.06
326.037	4
326.405	3.92
326.772	3.91
327.14	3.86
327.508	3.8
327.875	3.75
328.243	3.63
328.61	3.7
328.978	3.59
329.346	3.64
329.713	3.7
330.08	3.84
330.448	3.72
330.815	3.65
331.182	3.48
331.55	3.46
331.917	3.53
332.284	3.57
332.651	3.7
333.018	3.79
333.385	3.76
333.752	3.71
334.119	3.75
334.486	3.62
334.853	3.74
335.22	3.68
335.587	3.64
335.954	3.73
336.32	3.81
336.687	3.83
337.054	3.77
337.42	3.63
337.787	3.62
338.153	3.71
338.52	3.79
338.886	3.87
339.253	3.9
339.619	3.83
339.986	3.87
340.352	3.92
340.718	3.9
341.084	3.93
341.451	3.88
341.817	3.87
342.183	3.9
342.549	3.95
342.915	4.12
343.281	4.06
343.647	4.04
344.013	3.99
344.379	3.99
344.745	4.05
345.11	4.03
345.476	3.98
345.842	3.9
346.208	3.93
346.573	3.88
346.939	3.83
347.304	3.86
347.67	3.84
348.035	3.74
348.401	3.71
348.766	3.71
349.132	3.79
349.497	3.77
349.862	3.86
350.228	3.78
350.593	3.66
350.958	3.83
351.323	3.85
351.688	3.84
352.053	3.9
352.418	3.93
352.783	4
353.148	4.02
353.513	4.07
353.878	4.04
354.243	4.11
354.608	4.17
354.972	4.23
355.337	4.26
355.702	4.31
356.066	4.44
356.431	4.38
356.795	4.4
357.16	4.42
357.524	4.38
357.889	4.36
358.253	4.43
358.618	4.31
358.982	4.31
359.346	4.25
359.71	4.21
360.075	4.19
360.439	4.23
360.803	4.22
361.167	4.17
361.531	4.21
361.895	4.15
362.259	4.17
362.623	4.07
362.987	4.08
363.351	4.05
363.714	4
364.078	4
364.442	3.96
364.806	3.98
365.169	3.95
365.533	3.96
365.896	3.94
366.26	3.95
366.623	3.89
366.987	3.98
367.35	4.02
367.714	3.98
368.077	4.03
368.44	4.03
368.803	4.02
369.167	4.05
369.53	4.02
369.893	4
370.256	4.02
370.619	4.03
370.982	4
371.345	4
371.708	4.02
372.071	3.98
372.434	3.88
372.797	3.93
373.159	3.93
373.522	3.93
373.885	3.93
374.247	3.97
374.61	3.91
374.973	3.91
375.335	3.98
375.698	3.86
376.06	3.85
376.423	3.89
376.785	3.82
377.147	3.85
377.51	3.85
377.872	3.88
378.234	3.9
378.596	3.91
378.958	3.91
379.321	3.88
379.683	3.95
380.045	4
380.407	3.99
380.769	3.96
381.13	3.92
381.492	3.92
381.854	3.93
382.216	3.99
382.578	3.96
382.939	3.92
383.301	3.94
383.663	3.96
384.024	3.97
384.386	3.98
384.747	3.96
385.109	4.01
385.47	4.03
385.832	4
386.193	3.99
386.554	3.96
386.916	3.97
387.277	3.9
387.638	3.92
387.999	3.9
388.36	3.93
388.721	3.93
389.082	3.94
389.443	3.92
389.804	3.91
390.165	3.92
390.526	3.94
390.887	3.91
391.248	3.93
391.609	3.92
391.969	3.92
392.33	3.96
392.691	3.93
393.051	3.89
393.412	3.87
393.772	3.89
394.133	3.92
394.493	3.91
394.854	3.95
395.214	3.94
395.574	3.94
395.935	3.94
396.295	3.96
396.655	3.96
397.015	3.99
397.376	3.94
397.736	3.93
398.096	3.97
398.456	3.99
398.816	3.98
399.176	3.95
399.535	3.93
399.895	3.94
400.255	3.96
400.615	4.01
400.975	4.01
401.334	3.99
401.694	3.97
402.054	3.96
402.413	3.95
402.773	3.95
403.132	3.94
403.492	3.95
403.851	3.94
404.211	3.96
404.57	3.91
404.929	3.92
405.288	3.88
405.648	3.85
406.007	3.83
406.366	3.79
406.725	3.82
407.084	3.81
407.443	3.8
407.802	3.76
408.161	3.74
408.52	3.7
408.879	3.72
409.238	3.7
409.596	3.71
409.955	3.69
410.314	3.69
410.673	3.69
411.031	3.67
411.39	3.65
411.748	3.65
412.107	3.69
412.465	3.71
412.824	3.75
413.182	3.77
413.54	3.8
413.899	3.84
414.257	3.83
414.615	3.84
414.974	3.84
415.332	3.83
415.69	3.84
416.048	3.85
416.406	3.84
416.764	3.86
417.122	3.87
417.48	3.9
417.838	3.86
418.195	3.86
418.553	3.85
418.911	3.86
419.269	3.86
419.626	3.85
419.984	3.84
420.342	3.82
420.699	3.81
421.057	3.81
421.414	3.78
421.772	3.8
422.129	3.77
422.486	3.78
422.844	3.78
423.201	3.77
423.558	3.78
423.915	3.8
424.273	3.81
424.63	3.8
424.987	3.79
425.344	3.8
425.701	3.79
426.058	3.81
426.415	3.79
426.772	3.78
427.128	3.79
427.485	3.78
427.842	3.78
428.199	3.8
428.555	3.8
428.912	3.8
429.269	3.8
429.625	3.85
429.982	3.83
430.338	3.84
430.695	3.84
431.051	3.84
431.407	3.82
431.764	3.8
432.12	3.8
432.476	3.8
432.832	3.8
433.189	3.82
433.545	3.82
433.901	3.83
434.257	3.83
434.613	3.82
434.969	3.83
435.325	3.82
435.681	3.79
436.036	3.77
436.392	3.79
436.748	3.75
437.104	3.76
437.459	3.76
437.815	3.75
438.171	3.76
438.526	3.76
438.882	3.77
439.237	3.77
439.593	3.76
439.948	3.78
440.304	3.78
440.659	3.78
441.014	3.78
441.369	3.77
441.725	3.77
442.08	3.77
442.435	3.76
442.79	3.76
443.145	3.78
443.5	3.79
443.855	3.77
444.21	3.8
444.565	3.8
444.92	3.81
445.275	3.82
445.629	3.82
445.984	3.82
446.339	3.81
446.693	3.83
447.048	3.82
447.403	3.8
447.757	3.78
448.112	3.79
448.466	3.78
448.82	3.79
449.175	3.8
449.529	3.79
449.883	3.79
450.238	3.81
450.592	3.82
450.946	3.83
451.3	3.86
451.654	3.85
452.008	3.82
452.362	3.81
452.716	3.82
453.07	3.81
453.424	3.8
453.778	3.78
454.132	3.78
454.486	3.79
454.839	3.8
455.193	3.81
455.547	3.8
455.9	3.83
456.254	3.82
456.607	3.81
456.961	3.82
457.314	3.83
457.668	3.82
458.021	3.81
458.375	3.79
458.728	3.79
459.081	3.78
459.434	3.79
459.787	3.8
460.141	3.81
460.494	3.82
460.847	3.82
461.2	3.83
461.553	3.83
461.906	3.84
462.259	3.82
462.611	3.81
462.964	3.83
463.317	3.8
463.67	3.82
464.022	3.83
464.375	3.82
464.728	3.83
465.08	3.82
465.433	3.85
465.785	3.84
466.138	3.84
466.49	3.86
466.843	3.88
467.195	3.88
467.547	3.84
467.899	3.86
468.252	3.88
468.604	3.88
468.956	3.89
469.308	3.89
469.66	3.91
470.012	3.93
470.364	3.92
470.716	3.93
471.068	3.92
471.42	3.95
471.772	3.94
472.123	3.96
472.475	3.98
472.827	3.97
473.178	3.99
473.53	3.98
473.882	3.99
474.233	3.97
474.585	3.95
474.936	3.97
475.288	3.97
475.639	3.96
475.99	3.95
476.342	3.96
476.693	3.95
477.044	3.95
477.395	3.95
477.746	3.94
478.097	3.96
478.448	3.95
478.8	3.91
479.15	3.92
479.501	3.9
479.852	3.88
480.203	3.88
480.554	3.89
480.905	3.9
481.255	3.9
481.606	3.91
481.957	3.92
482.307	3.92
482.658	3.91
483.009	3.91
483.359	3.91
483.709	3.91
484.06	3.92
484.41	3.92
484.761	3.92
485.111	3.92
485.461	3.92
485.811	3.92
486.162	3.93
486.512	3.93
486.862	3.93
487.212	3.93
487.562	3.93
487.912	3.93
488.262	3.92
488.612	3.93
488.961	3.92
489.311	3.92
489.661	3.93
490.011	3.93
490.36	3.94
490.71	3.93
491.06	3.93
491.409	3.92
491.759	3.92
492.108	3.92
492.458	3.93
492.807	3.94
493.157	3.94
493.506	3.94
493.855	3.95
494.204	3.95
494.554	3.96
494.903	3.99
495.252	4
495.601	4.02
495.95	4.01
496.299	4.03
496.648	4.02
496.997	4.04
497.346	4.07
497.695	4.08
498.043	4.1
498.392	4.11
498.741	4.14
499.09	4.15
499.438	4.16
499.787	4.15
500.135	4.13
500.484	4.15
500.832	4.17
501.181	4.2
501.529	4.2
501.878	4.21
502.226	4.2
502.574	4.2
502.923	4.2
503.271	4.22
503.619	4.21
503.967	4.22
504.315	4.22
504.663	4.2
505.011	4.19
505.359	4.19
505.707	4.24
506.055	4.24
506.403	4.25
506.751	4.26
507.098	4.28
507.446	4.29
507.794	4.28
508.141	4.28
508.489	4.28
508.837	4.3
509.184	4.32
509.531	4.32
509.879	4.32
510.226	4.35
510.574	4.37
510.921	4.39
511.268	4.41
511.616	4.4
511.963	4.41
512.31	4.42
512.657	4.43
513.004	4.41
513.351	4.4
513.698	4.4
514.045	4.39
514.392	4.42
514.739	4.46
515.086	4.48
515.432	4.49
515.779	4.49
516.126	4.5
516.473	4.51
516.819	4.52
517.166	4.52
517.512	4.5
517.859	4.52
518.205	4.48
518.552	4.5
518.898	4.51
519.245	4.55
519.591	4.57
519.937	4.57
520.283	4.57
520.629	4.59
520.976	4.6
521.322	4.62
521.668	4.61
522.014	4.6
522.36	4.59
522.706	4.61
523.052	4.62
523.398	4.61
523.743	4.62
524.089	4.64
524.435	4.64
524.781	4.66
525.126	4.66
525.472	4.68
525.817	4.69
526.163	4.68
526.509	4.66
526.854	4.68
527.199	4.69
527.545	4.7
527.89	4.7
528.235	4.71
528.581	4.7
528.926	4.71
529.271	4.71
529.616	4.7
529.961	4.71
530.306	4.7
530.651	4.71
530.996	4.71
531.341	4.72
531.686	4.73
532.031	4.74
532.376	4.74
532.721	4.73
533.065	4.73
533.41	4.75
533.755	4.77
534.099	4.75
534.444	4.75
534.788	4.74
535.133	4.75
535.477	4.75
535.822	4.75
536.166	4.77
536.51	4.79
536.855	4.82
537.199	4.79
537.543	4.82
537.887	4.82
538.231	4.83
538.576	4.83
538.92	4.83
539.264	4.84
539.608	4.84
539.951	4.85
540.295	4.84
540.639	4.84
540.983	4.85
541.327	4.85
541.671	4.84
542.014	4.85
542.358	4.86
542.701	4.87
543.045	4.87
543.389	4.88
543.732	4.86
544.075	4.88
544.419	4.91
544.762	4.9
545.105	4.92
545.449	4.91
545.792	4.93
546.135	4.94
546.478	4.94
546.821	4.97
547.165	4.98
547.508	4.98
547.851	5.01
548.194	5
548.536	5.01
548.879	5.03
549.222	5.05
549.565	5.04
549.908	5.02
550.25	5.04
550.593	5.01
550.936	5.02
551.278	5.01
551.621	5
551.963	5.03
552.306	5.04
552.648	5.02
552.991	4.99
553.333	5
553.675	4.99
554.017	4.98
554.36	5
554.702	4.99
555.044	4.97
555.386	4.98
555.728	5.01
556.07	4.97
556.412	4.97
556.754	4.96
557.096	4.96
557.438	5
557.78	5.01
558.121	5.04
558.463	5.02
558.805	5.04
559.147	5.01
559.488	4.98
559.83	4.99
560.171	5
560.513	4.98
560.854	4.95
561.196	4.97
561.537	4.97
561.878	5.03
562.22	5.01
562.561	5.05
562.902	5.06
563.243	5.1
563.584	5.13
563.925	5.18
564.266	5.18
564.607	5.15
564.948	5.15
565.289	5.16
565.63	5.17
565.971	5.15
566.312	5.18
566.653	5.2
566.993	5.2
567.334	5.2
567.675	5.23
568.015	5.29
568.356	5.24
568.696	5.26
569.037	5.23
569.377	5.24
569.718	5.2
570.058	5.19
570.398	5.17
570.739	5.16
571.079	5.14
571.419	5.12
571.759	5.13
572.099	5.14
572.439	5.12
572.779	5.14
573.119	5.15
573.459	5.11
573.799	5.11
574.139	5.12
574.479	5.13
574.819	5.12
575.158	5.11
575.498	5.14
575.838	5.11
576.177	5.08
576.517	5.09
576.856	5.1
577.196	5.1
577.535	5.11
577.875	5.12
578.214	5.11
578.553	5.12
578.893	5.14
579.232	5.16
579.571	5.15
579.91	5.1
580.25	5.08
580.589	5.1
580.928	5.11
581.267	5.1
581.606	5.1
581.945	5.08
582.283	5.08
582.622	5.07
582.961	5.06
583.3	5.08
583.639	5.08
583.977	5.07
584.316	5.09
584.654	5.13
584.993	5.11
585.332	5.11
585.67	5.16
586.008	5.12
586.347	5.08
586.685	5.05
587.024	5.1
587.362	5.12
587.7	5.12
588.038	5.14
588.376	5.16
588.715	5.15
589.053	5.18
589.391	5.18
589.729	5.19
590.067	5.22
590.404	5.27
590.742	5.28
591.08	5.27
591.418	5.32
591.756	5.31
592.093	5.31
592.431	5.34
592.769	5.36
593.106	5.37
593.444	5.43
593.781	5.44
594.119	5.48
594.456	5.47
594.793	5.45
595.131	5.46
595.468	5.47
595.805	5.46
596.143	5.45
596.48	5.42
596.817	5.43
597.154	5.45
597.491	5.46
597.828	5.44
598.165	5.46
598.502	5.41
598.839	5.4
599.176	5.37
599.512	5.34
599.849	5.31
600.186	5.28
600.523	5.23
600.859	5.25
601.196	5.22
601.532	5.19
601.869	5.22
602.205	5.23
602.542	5.22
602.878	5.24
603.215	5.26
603.551	5.3
603.887	5.31
604.223	5.31
604.56	5.27
604.896	5.29
605.232	5.31
605.568	5.33
605.904	5.3
606.24	5.31
606.576	5.33
606.912	5.33
607.248	5.36
607.583	5.38
607.919	5.4
608.255	5.39
608.591	5.46
608.926	5.45
609.262	5.41
609.597	5.4
609.933	5.39
610.268	5.37
610.604	5.36
610.939	5.39
611.275	5.38
611.61	5.39
611.945	5.38
612.281	5.36
612.616	5.38
612.951	5.41
613.286	5.42
613.621	5.43
613.956	5.49
614.291	5.45
614.626	5.43
614.961	5.45
615.296	5.47
615.631	5.43
615.966	5.38
616.3	5.5
616.635	5.57
616.97	5.56
617.304	5.56
617.639	5.58
617.973	5.47
618.308	5.5
618.642	5.53
618.977	5.52
619.311	5.52
619.646	5.53
619.98	5.52
620.314	5.56
620.648	5.55
620.983	5.48
621.317	5.52
621.651	5.53
621.985	5.47
622.319	5.45
622.653	5.48
622.987	5.55
623.321	5.45
623.655	5.41
623.988	5.46
624.322	5.41
624.656	5.37
624.99	5.41
625.323	5.41
625.657	5.41
625.99	5.45
626.324	5.48
626.657	5.41
626.991	5.43
627.324	5.39
627.658	5.44
627.991	5.47
628.324	5.48
628.657	5.52
628.991	5.56
629.324	5.58
629.657	5.55
629.99	5.55
630.323	5.54
630.656	5.6
630.989	5.56
631.322	5.67
631.655	5.68
631.987	5.71
632.32	5.75
632.653	5.74
632.986	5.69
633.318	5.66
633.651	5.75
633.984	5.75
634.316	5.74
634.649	5.66
634.981	5.64
635.313	5.69
635.646	5.62
635.978	5.58
636.31	5.62
636.643	5.65
636.975	5.62
637.307	5.69
637.639	5.64
637.971	5.62
638.303	5.55
638.635	5.53
638.967	5.47
639.299	5.39
639.631	5.34
639.963	5.33
640.295	5.38
640.626	5.31
640.958	5.29
641.29	5.37
641.621	5.39
641.953	5.37
642.285	5.34
642.616	5.41
642.948	5.44
643.279	5.36
643.61	5.36
643.942	5.39
644.273	5.41
644.604	5.42
644.936	5.45
645.267	5.51
645.598	5.5
645.929	5.56
646.26	5.59
646.591	5.61
646.922	5.68
647.253	5.61
647.584	5.61
647.915	5.68
648.245	5.65
648.576	5.69
648.907	5.68
649.238	5.65
649.568	5.63
649.899	5.54
650.229	5.61
650.56	5.65
650.89	5.67
651.221	5.62
651.551	5.65
651.882	5.63
652.212	5.56
652.542	5.61
652.872	5.62
653.203	5.62
653.533	5.66
653.863	5.63
654.193	5.64
654.523	5.66
654.853	5.71
655.183	5.67
655.513	5.68
655.843	5.7
656.172	5.71
656.502	5.76
656.832	5.82
657.162	5.82
657.491	5.84
657.821	5.85
658.15	5.83
658.48	5.78
658.809	5.78
659.139	5.83
659.468	5.81
659.798	5.83
660.127	5.84
660.456	5.84
660.785	5.87
661.115	5.92
661.444	5.95
661.773	5.88
662.102	5.92
662.431	5.91
662.76	5.94
663.089	6.05
663.418	6.07
663.747	6.05
664.076	5.94
664.404	5.88
664.733	5.85
665.062	5.89
665.39	5.91
665.719	5.91
666.048	5.86
666.376	5.92
666.705	5.89
667.033	5.92
667.362	5.9
667.69	5.87
668.018	5.87
668.347	5.82
668.675	5.82
669.003	5.8
669.331	5.76
669.659	5.65
669.987	5.51
670.315	5.5
670.643	5.51
670.971	5.67
671.299	5.68
671.627	5.62
671.955	5.66
672.283	5.61
672.61	5.56
672.938	5.67
673.266	5.59
673.593	5.56
673.921	5.58
674.249	5.65
674.576	5.7
674.904	5.74
675.231	5.73
675.558	5.78
675.886	5.82
676.213	5.9
676.54	6.09
676.867	6.14
677.195	6.17
677.522	6.2
677.849	6.18
678.176	6.23
678.503	6.26
678.83	6.24
679.157	6.21
679.484	6.24
679.81	6.19
680.137	6.25
