Data from MVZ_BU26842_Reflection_00006.txt Node
Date: Tue Nov 19 12:18:21 EST 2019
User: vgr7
Spectrometer: USB2G7710
Scans to average: 3
Trigger mode: 4
Integration Time (sec): 2.000000E-2
Electric dark correction enabled: true
Boxcar width: 10
XAxis mode: Wavelengths
Number of Pixels in Spectrum: 2048
>>>>>Begin Spectral Data<<<<<
177.721	-109.15
178.105	-307.41
178.488	1280.56
178.871	39.51
179.254	166.67
179.636	-3511.11
180.019	359.26
180.402	100
180.785	-29.63
181.168	38.03
181.55	106.94
181.933	97.58
182.316	61.15
182.698	103.88
183.081	130.8
183.463	358.77
183.846	-670.11
184.228	-892.06
184.611	-161.9
184.993	-87.96
185.376	-79.97
185.758	-99.68
186.14	-163.1
186.522	-177.04
186.904	-223.61
187.287	-151.81
187.669	-126.67
188.051	-125.27
188.433	-159.45
188.815	-167.01
189.197	-155.38
189.579	-185.26
189.961	-156.26
190.342	-133.57
190.724	-172.41
191.106	-162.79
191.488	-252.64
191.869	-568.78
192.251	-573.16
192.633	-436.23
193.014	-643.39
193.396	-1058.91
193.777	-733.33
194.159	-303.19
194.54	-276.46
194.922	-315.9
195.303	-447.92
195.684	-1046.46
196.065	-487.96
196.447	-310.36
196.828	-286.82
197.209	-230.9
197.59	-131.4
197.971	-115.05
198.352	-100.85
198.733	-80.51
199.114	-109.47
199.495	-84
199.876	-54.01
200.257	-65.31
200.638	-63.18
201.018	-66.23
201.399	-54.79
201.78	-45.4
202.16	-32.38
202.541	-30.33
202.922	-42.18
203.302	-45.83
203.683	-45.83
204.063	-57.49
204.444	-47.91
204.824	-45.02
205.204	-45.32
205.585	-48.48
205.965	-47.56
206.345	-66.08
206.725	-63.75
207.106	-38.08
207.486	-45.1
207.866	-48.38
208.246	-24.89
208.626	-38.34
209.006	-36.55
209.386	-40.64
209.766	-51.11
210.145	-62.6
210.525	-68.82
210.905	-62.41
211.285	-34.12
211.664	-12.94
212.044	-0.66
212.424	10.26
212.803	19.31
213.183	9.7
213.562	25.64
213.942	26.31
214.321	32.78
214.701	20.53
215.08	4.76
215.459	20.52
215.838	11.73
216.218	-13.84
216.597	-2.12
216.976	-17.22
217.355	-18.66
217.734	-21.59
218.113	-20.08
218.492	-4.17
218.871	-21.01
219.25	-27.63
219.629	-70.29
220.008	-76.64
220.387	-99.21
220.766	-60.05
221.144	-72.94
221.523	-88.61
221.902	-79.82
222.28	-39.78
222.659	-7.84
223.037	5.15
223.416	6.19
223.794	24.21
224.173	31.09
224.551	32.16
224.929	25.36
225.308	22.54
225.686	17.01
226.064	11.83
226.442	5.05
226.821	12.14
227.199	5.24
227.577	9.77
227.955	18.09
228.333	14.84
228.711	12.41
229.089	12.28
229.467	12.14
229.845	11.14
230.222	7.55
230.6	3.85
230.978	2.12
231.356	-1.04
231.733	2.37
232.111	0.38
232.488	-1.43
232.866	2.53
233.243	4.55
233.621	4.42
233.998	6.39
234.376	8.03
234.753	9.13
235.13	9.78
235.508	8.45
235.885	6.84
236.262	6.74
236.639	6.36
237.016	6.65
237.393	7.42
237.77	7.81
238.147	6.37
238.524	6.24
238.901	6.84
239.278	6.25
239.655	4.2
240.032	4.88
240.409	5.59
240.785	4.31
241.162	3.69
241.539	3.67
241.915	3.23
242.292	3.15
242.668	2.82
243.045	3.17
243.421	3.63
243.798	3.56
244.174	3.81
244.551	3.78
244.927	3.92
245.303	3.59
245.679	3.56
246.056	3.84
246.432	3.85
246.808	3.75
247.184	4.05
247.56	3.97
247.936	3.77
248.312	3.54
248.688	3.68
249.064	3.69
249.44	3.53
249.815	3.79
250.191	3.64
250.567	3.69
250.943	3.61
251.318	3.17
251.694	3.15
252.069	3.51
252.445	3.57
252.82	3.33
253.196	3.54
253.571	3.49
253.947	3.23
254.322	3.17
254.697	3.15
255.073	2.89
255.448	3.12
255.823	3.15
256.198	3.05
256.573	2.85
256.948	2.71
257.323	2.88
257.698	2.76
258.073	2.71
258.448	2.7
258.823	2.76
259.198	2.9
259.573	2.64
259.948	2.54
260.322	2.37
260.697	2.4
261.072	2.39
261.446	2.27
261.821	2.26
262.195	2.14
262.57	2.28
262.944	2.41
263.319	2.33
263.693	2.34
264.067	2.39
264.442	2.47
264.816	2.51
265.19	2.54
265.564	2.46
265.938	2.61
266.313	2.45
266.687	2.32
267.061	2.21
267.435	2.42
267.809	2.25
268.183	2.36
268.556	2.35
268.93	2.38
269.304	2.42
269.678	2.36
270.051	2.6
270.425	2.45
270.799	2.36
271.172	2.16
271.546	2.25
271.919	2.27
272.293	2.36
272.666	2.35
273.04	2.35
273.413	2.44
273.787	2.52
274.16	2.53
274.533	2.69
274.906	2.68
275.279	2.69
275.653	2.75
276.026	2.76
276.399	2.73
276.772	2.81
277.145	2.97
277.518	3.03
277.891	3.01
278.263	3.18
278.636	3.2
279.009	3.54
279.382	3.41
279.755	3.35
280.127	3.38
280.5	3.39
280.872	3.33
281.245	3.44
281.617	3.27
281.99	3.23
282.362	3.18
282.735	3.38
283.107	3.31
283.479	3.27
283.852	3.31
284.224	3.26
284.596	3.17
284.968	3.22
285.34	3.23
285.713	3.13
286.085	2.88
286.457	2.83
286.829	2.77
287.201	2.79
287.572	2.89
287.944	2.76
288.316	2.84
288.688	2.87
289.06	2.75
289.431	2.96
289.803	3.09
290.175	2.96
290.546	2.75
290.918	2.74
291.289	2.66
291.661	2.64
292.032	2.67
292.403	2.68
292.775	2.59
293.146	2.64
293.517	2.69
293.889	2.94
294.26	2.97
294.631	3.11
295.002	3.13
295.373	2.99
295.744	3.04
296.115	3
296.486	2.87
296.857	2.92
297.228	2.79
297.599	2.74
297.97	2.75
298.34	2.78
298.711	2.77
299.082	2.87
299.452	2.8
299.823	2.73
300.194	2.82
300.564	2.78
300.935	2.85
301.305	2.68
301.676	2.46
302.046	2.39
302.416	2.16
302.787	2.01
303.157	2.08
303.527	2.2
303.897	2.17
304.267	2.43
304.637	2.33
305.008	2.38
305.378	2.38
305.748	2.4
306.117	2.44
306.487	2.63
306.857	2.62
307.227	2.78
307.597	2.85
307.967	2.8
308.336	2.95
308.706	2.76
309.076	2.91
309.445	2.98
309.815	2.99
310.184	3.13
310.554	3.21
310.923	3.23
311.293	3.16
311.662	3.15
312.031	3.1
312.401	3.18
312.77	3.09
313.139	3.21
313.508	3.3
313.877	3.29
314.246	3.13
314.616	3.16
314.985	3.07
315.353	3.03
315.722	2.91
316.091	2.76
316.46	2.8
316.829	2.76
317.198	2.91
317.567	2.97
317.935	2.87
318.304	3.04
318.672	3.03
319.041	3.02
319.41	3.02
319.778	2.95
320.147	2.82
320.515	2.94
320.883	2.7
321.252	2.63
321.62	2.6
321.988	2.67
322.357	2.59
322.725	2.58
323.093	2.61
323.461	2.72
323.829	2.82
324.197	2.95
324.565	3.03
324.933	2.88
325.301	2.75
325.669	2.74
326.037	2.61
326.405	2.65
326.772	2.62
327.14	2.52
327.508	2.57
327.875	2.71
328.243	2.63
328.61	2.78
328.978	2.76
329.346	2.77
329.713	2.82
330.08	2.99
330.448	3.06
330.815	3.21
331.182	3
331.55	2.97
331.917	2.75
332.284	2.82
332.651	2.79
333.018	2.96
333.385	2.91
333.752	2.87
334.119	2.9
334.486	2.92
334.853	3.1
335.22	3.01
335.587	2.94
335.954	2.89
336.32	2.83
336.687	2.99
337.054	2.99
337.42	2.9
337.787	2.67
338.153	2.65
338.52	2.7
338.886	2.85
339.253	2.7
339.619	2.82
339.986	2.67
340.352	2.73
340.718	2.61
341.084	2.65
341.451	2.71
341.817	2.63
342.183	2.7
342.549	2.71
342.915	2.73
343.281	2.77
343.647	2.9
344.013	2.78
344.379	2.67
344.745	2.67
345.11	2.65
345.476	2.78
345.842	2.83
346.208	2.75
346.573	2.69
346.939	2.64
347.304	2.72
347.67	2.78
348.035	2.76
348.401	2.89
348.766	2.88
349.132	2.8
349.497	2.82
349.862	2.8
350.228	2.74
350.593	2.74
350.958	2.79
351.323	2.73
351.688	2.91
352.053	2.91
352.418	2.95
352.783	3.03
353.148	3.07
353.513	2.95
353.878	2.95
354.243	2.89
354.608	3.08
354.972	3.04
355.337	3.04
355.702	3.06
356.066	3.03
356.431	3.11
356.795	3.15
357.16	3.13
357.524	3.08
357.889	3.02
358.253	3.01
358.618	2.97
358.982	2.92
359.346	2.88
359.71	2.93
360.075	2.96
360.439	3.02
360.803	3
361.167	3.05
361.531	3.03
361.895	3.11
362.259	3.13
362.623	3.03
362.987	3.06
363.351	3.09
363.714	3.08
364.078	3.04
364.442	2.99
364.806	3.05
365.169	3.05
365.533	3.11
365.896	3.13
366.26	3.07
366.623	3.1
366.987	3.09
367.35	3.05
367.714	2.97
368.077	2.94
368.44	2.89
368.803	2.83
369.167	2.75
369.53	2.73
369.893	2.67
370.256	2.79
370.619	2.77
370.982	2.68
371.345	2.71
371.708	2.69
372.071	2.74
372.434	2.68
372.797	2.73
373.159	2.66
373.522	2.63
373.885	2.67
374.247	2.75
374.61	2.74
374.973	2.74
375.335	2.76
375.698	2.73
376.06	2.7
376.423	2.78
376.785	2.86
377.147	2.88
377.51	2.88
377.872	2.82
378.234	2.84
378.596	2.9
378.958	2.88
379.321	2.89
379.683	2.89
380.045	2.92
380.407	2.94
380.769	2.99
381.13	2.98
381.492	3.01
381.854	2.95
382.216	2.99
382.578	2.98
382.939	2.98
383.301	2.99
383.663	3.07
384.024	3.03
384.386	3.08
384.747	3.1
385.109	3.06
385.47	3.09
385.832	3.08
386.193	3.03
386.554	3.02
386.916	3.01
387.277	2.98
387.638	3
387.999	2.92
388.36	2.87
388.721	2.89
389.082	2.85
389.443	2.85
389.804	2.87
390.165	2.88
390.526	2.91
390.887	2.9
391.248	2.86
391.609	2.89
391.969	2.86
392.33	2.84
392.691	2.87
393.051	2.85
393.412	2.86
393.772	2.9
394.133	2.88
394.493	2.84
394.854	2.86
395.214	2.84
395.574	2.86
395.935	2.92
396.295	2.92
396.655	2.92
397.015	2.94
397.376	2.89
397.736	2.91
398.096	2.89
398.456	2.92
398.816	2.91
399.176	2.89
399.535	2.86
399.895	2.84
400.255	2.82
400.615	2.83
400.975	2.82
401.334	2.78
401.694	2.78
402.054	2.8
402.413	2.77
402.773	2.79
403.132	2.81
403.492	2.82
403.851	2.84
404.211	2.87
404.57	2.88
404.929	2.9
405.288	2.89
405.648	2.91
406.007	2.88
406.366	2.89
406.725	2.88
407.084	2.92
407.443	2.95
407.802	2.96
408.161	2.99
408.52	2.99
408.879	3.03
409.238	3.07
409.596	3.1
409.955	3.14
410.314	3.13
410.673	3.14
411.031	3.13
411.39	3.11
411.748	3.12
412.107	3.05
412.465	3.05
412.824	3.02
413.182	3
413.54	3.01
413.899	3.02
414.257	3.03
414.615	2.99
414.974	3.01
415.332	3
415.69	2.95
416.048	2.97
416.406	2.96
416.764	2.96
417.122	2.98
417.48	3
417.838	3.01
418.195	2.99
418.553	2.99
418.911	3.01
419.269	3.01
419.626	3.05
419.984	3.07
420.342	3.07
420.699	3.09
421.057	3.1
421.414	3.11
421.772	3.11
422.129	3.12
422.486	3.12
422.844	3.12
423.201	3.15
423.558	3.15
423.915	3.16
424.273	3.16
424.63	3.16
424.987	3.15
425.344	3.16
425.701	3.16
426.058	3.19
426.415	3.18
426.772	3.18
427.128	3.18
427.485	3.18
427.842	3.18
428.199	3.18
428.555	3.16
428.912	3.16
429.269	3.17
429.625	3.16
429.982	3.15
430.338	3.17
430.695	3.16
431.051	3.16
431.407	3.16
431.764	3.16
432.12	3.15
432.476	3.16
432.832	3.16
433.189	3.17
433.545	3.14
433.901	3.14
434.257	3.13
434.613	3.13
434.969	3.14
435.325	3.13
435.681	3.14
436.036	3.16
436.392	3.15
436.748	3.16
437.104	3.18
437.459	3.2
437.815	3.2
438.171	3.22
438.526	3.22
438.882	3.22
439.237	3.22
439.593	3.23
439.948	3.23
440.304	3.21
440.659	3.26
441.014	3.26
441.369	3.28
441.725	3.28
442.08	3.28
442.435	3.27
442.79	3.28
443.145	3.28
443.5	3.27
443.855	3.27
444.21	3.28
444.565	3.27
444.92	3.26
445.275	3.25
445.629	3.23
445.984	3.24
446.339	3.22
446.693	3.21
447.048	3.19
447.403	3.19
447.757	3.19
448.112	3.14
448.466	3.15
448.82	3.15
449.175	3.17
449.529	3.17
449.883	3.17
450.238	3.18
450.592	3.16
450.946	3.16
451.3	3.17
451.654	3.16
452.008	3.15
452.362	3.17
452.716	3.16
453.07	3.17
453.424	3.19
453.778	3.2
454.132	3.2
454.486	3.23
454.839	3.25
455.193	3.26
455.547	3.27
455.9	3.26
456.254	3.26
456.607	3.25
456.961	3.23
457.314	3.22
457.668	3.22
458.021	3.22
458.375	3.21
458.728	3.2
459.081	3.21
459.434	3.19
459.787	3.19
460.141	3.19
460.494	3.19
460.847	3.16
461.2	3.18
461.553	3.18
461.906	3.17
462.259	3.13
462.611	3.15
462.964	3.16
463.317	3.15
463.67	3.14
464.022	3.14
464.375	3.15
464.728	3.17
465.08	3.17
465.433	3.2
465.785	3.22
466.138	3.23
466.49	3.24
466.843	3.28
467.195	3.29
467.547	3.3
467.899	3.31
468.252	3.31
468.604	3.32
468.956	3.33
469.308	3.34
469.66	3.37
470.012	3.36
470.364	3.33
470.716	3.32
471.068	3.34
471.42	3.36
471.772	3.39
472.123	3.4
472.475	3.4
472.827	3.38
473.178	3.38
473.53	3.38
473.882	3.38
474.233	3.34
474.585	3.32
474.936	3.31
475.288	3.29
475.639	3.31
475.99	3.3
476.342	3.31
476.693	3.32
477.044	3.32
477.395	3.33
477.746	3.35
478.097	3.37
478.448	3.36
478.8	3.34
479.15	3.3
479.501	3.29
479.852	3.29
480.203	3.3
480.554	3.31
480.905	3.31
481.255	3.33
481.606	3.34
481.957	3.35
482.307	3.36
482.658	3.38
483.009	3.37
483.359	3.37
483.709	3.37
484.06	3.38
484.41	3.39
484.761	3.39
485.111	3.4
485.461	3.4
485.811	3.41
486.162	3.42
486.512	3.44
486.862	3.44
487.212	3.45
487.562	3.45
487.912	3.45
488.262	3.45
488.612	3.45
488.961	3.45
489.311	3.46
489.661	3.46
490.011	3.44
490.36	3.44
490.71	3.46
491.06	3.45
491.409	3.44
491.759	3.41
492.108	3.41
492.458	3.4
492.807	3.38
493.157	3.39
493.506	3.37
493.855	3.37
494.204	3.37
494.554	3.35
494.903	3.36
495.252	3.37
495.601	3.36
495.95	3.35
496.299	3.37
496.648	3.37
496.997	3.36
497.346	3.4
497.695	3.4
498.043	3.4
498.392	3.41
498.741	3.44
499.09	3.46
499.438	3.49
499.787	3.49
500.135	3.5
500.484	3.49
500.832	3.51
501.181	3.5
501.529	3.51
501.878	3.52
502.226	3.53
502.574	3.53
502.923	3.53
503.271	3.54
503.619	3.56
503.967	3.54
504.315	3.54
504.663	3.54
505.011	3.55
505.359	3.52
505.707	3.51
506.055	3.51
506.403	3.51
506.751	3.5
507.098	3.52
507.446	3.53
507.794	3.53
508.141	3.54
508.489	3.56
508.837	3.56
509.184	3.57
509.531	3.56
509.879	3.56
510.226	3.58
510.574	3.59
510.921	3.56
511.268	3.57
511.616	3.58
511.963	3.56
512.31	3.57
512.657	3.6
513.004	3.58
513.351	3.58
513.698	3.58
514.045	3.58
514.392	3.57
514.739	3.57
515.086	3.58
515.432	3.56
515.779	3.54
516.126	3.54
516.473	3.53
516.819	3.56
517.166	3.57
517.512	3.57
517.859	3.55
518.205	3.55
518.552	3.56
518.898	3.55
519.245	3.57
519.591	3.56
519.937	3.56
520.283	3.57
520.629	3.58
520.976	3.61
521.322	3.61
521.668	3.61
522.014	3.63
522.36	3.63
522.706	3.66
523.052	3.69
523.398	3.69
523.743	3.71
524.089	3.71
524.435	3.69
524.781	3.71
525.126	3.71
525.472	3.72
525.817	3.71
526.163	3.72
526.509	3.72
526.854	3.73
527.199	3.73
527.545	3.74
527.89	3.72
528.235	3.73
528.581	3.72
528.926	3.71
529.271	3.7
529.616	3.71
529.961	3.7
530.306	3.69
530.651	3.69
530.996	3.69
531.341	3.7
531.686	3.7
532.031	3.69
532.376	3.7
532.721	3.71
533.065	3.72
533.41	3.72
533.755	3.72
534.099	3.73
534.444	3.74
534.788	3.74
535.133	3.75
535.477	3.74
535.822	3.75
536.166	3.79
536.51	3.77
536.855	3.76
537.199	3.77
537.543	3.79
537.887	3.79
538.231	3.77
538.576	3.76
538.92	3.77
539.264	3.77
539.608	3.78
539.951	3.77
540.295	3.77
540.639	3.78
540.983	3.78
541.327	3.78
541.671	3.78
542.014	3.8
542.358	3.8
542.701	3.81
543.045	3.81
543.389	3.81
543.732	3.82
544.075	3.84
544.419	3.83
544.762	3.82
545.105	3.83
545.449	3.84
545.792	3.85
546.135	3.85
546.478	3.85
546.821	3.86
547.165	3.87
547.508	3.88
547.851	3.89
548.194	3.89
548.536	3.9
548.879	3.91
549.222	3.9
549.565	3.91
549.908	3.89
550.25	3.91
550.593	3.91
550.936	3.91
551.278	3.89
551.621	3.91
551.963	3.94
552.306	3.92
552.648	3.94
552.991	3.95
553.333	3.94
553.675	3.95
554.017	3.95
554.36	3.96
554.702	3.93
555.044	3.97
555.386	3.96
555.728	3.97
556.07	3.95
556.412	3.92
556.754	3.91
557.096	3.89
557.438	3.86
557.78	3.88
558.121	3.87
558.463	3.88
558.805	3.88
559.147	3.87
559.488	3.88
559.83	3.86
560.171	3.83
560.513	3.84
560.854	3.83
561.196	3.81
561.537	3.8
561.878	3.83
562.22	3.8
562.561	3.82
562.902	3.77
563.243	3.76
563.584	3.8
563.925	3.82
564.266	3.86
564.607	3.89
564.948	3.88
565.289	3.88
565.63	3.87
565.971	3.87
566.312	3.89
566.653	3.91
566.993	3.91
567.334	3.93
567.675	3.94
568.015	3.92
568.356	3.94
568.696	3.96
569.037	3.94
569.377	3.93
569.718	3.92
570.058	3.96
570.398	3.98
570.739	3.96
571.079	3.96
571.419	3.93
571.759	3.92
572.099	3.91
572.439	3.94
572.779	3.93
573.119	3.94
573.459	3.91
573.799	3.87
574.139	3.89
574.479	3.9
574.819	3.9
575.158	3.92
575.498	3.9
575.838	3.88
576.177	3.86
576.517	3.87
576.856	3.87
577.196	3.87
577.535	3.88
577.875	3.88
578.214	3.86
578.553	3.87
578.893	3.89
579.232	3.95
579.571	3.92
579.91	3.96
580.25	3.94
580.589	3.98
580.928	4
581.267	3.99
581.606	4.02
581.945	4.02
582.283	4.02
582.622	4.04
582.961	4.05
583.3	4.06
583.639	4.03
583.977	4.05
584.316	4.01
584.654	3.99
584.993	3.98
585.332	3.97
585.67	3.98
586.008	3.98
586.347	3.93
586.685	3.95
587.024	3.89
587.362	3.92
587.7	3.97
588.038	4
588.376	4.02
588.715	3.96
589.053	3.94
589.391	3.96
589.729	4
590.067	3.99
590.404	4.01
590.742	4.05
591.08	4.01
591.418	4.04
591.756	4.07
592.093	4.11
592.431	4.17
592.769	4.23
593.106	4.23
593.444	4.26
593.781	4.3
594.119	4.34
594.456	4.31
594.793	4.25
595.131	4.26
595.468	4.27
595.805	4.28
596.143	4.31
596.48	4.32
596.817	4.29
597.154	4.32
597.491	4.34
597.828	4.32
598.165	4.33
598.502	4.3
598.839	4.29
599.176	4.29
599.512	4.28
599.849	4.21
600.186	4.19
600.523	4.22
600.859	4.21
601.196	4.2
601.532	4.21
601.869	4.24
602.205	4.2
602.542	4.2
602.878	4.25
603.215	4.23
603.551	4.23
603.887	4.22
604.223	4.22
604.56	4.26
604.896	4.26
605.232	4.29
605.568	4.31
605.904	4.32
606.24	4.31
606.576	4.31
606.912	4.33
607.248	4.32
607.583	4.29
607.919	4.28
608.255	4.28
608.591	4.31
608.926	4.31
609.262	4.32
609.597	4.34
609.933	4.26
610.268	4.29
610.604	4.29
610.939	4.32
611.275	4.32
611.61	4.25
611.945	4.23
612.281	4.19
612.616	4.21
612.951	4.23
613.286	4.22
613.621	4.19
613.956	4.21
614.291	4.25
614.626	4.25
614.961	4.28
615.296	4.32
615.631	4.31
615.966	4.34
616.3	4.36
616.635	4.34
616.97	4.39
617.304	4.42
617.639	4.43
617.973	4.39
618.308	4.38
618.642	4.41
618.977	4.43
619.311	4.47
619.646	4.42
619.98	4.42
620.314	4.45
620.648	4.53
620.983	4.53
621.317	4.58
621.651	4.55
621.985	4.52
622.319	4.48
622.653	4.53
622.987	4.46
623.321	4.49
623.655	4.55
623.988	4.59
624.322	4.53
624.656	4.53
624.99	4.52
625.323	4.54
625.657	4.53
625.99	4.53
626.324	4.5
626.657	4.51
626.991	4.5
627.324	4.42
627.658	4.36
627.991	4.38
628.324	4.32
628.657	4.36
628.991	4.35
629.324	4.38
629.657	4.3
629.99	4.36
630.323	4.34
630.656	4.33
630.989	4.32
631.322	4.34
631.655	4.32
631.987	4.37
632.32	4.38
632.653	4.36
632.986	4.42
633.318	4.46
633.651	4.44
633.984	4.41
634.316	4.53
634.649	4.55
634.981	4.52
635.313	4.54
635.646	4.51
635.978	4.52
636.31	4.54
636.643	4.56
636.975	4.51
637.307	4.5
637.639	4.44
637.971	4.42
638.303	4.48
638.635	4.47
638.967	4.41
639.299	4.38
639.631	4.39
639.963	4.31
640.295	4.39
640.626	4.43
640.958	4.43
641.29	4.39
641.621	4.4
641.953	4.31
642.285	4.35
642.616	4.44
642.948	4.47
643.279	4.44
643.61	4.45
643.942	4.49
644.273	4.52
644.604	4.53
644.936	4.54
645.267	4.52
645.598	4.59
645.929	4.61
646.26	4.55
646.591	4.66
646.922	4.7
647.253	4.65
647.584	4.64
647.915	4.67
648.245	4.69
648.576	4.72
648.907	4.79
649.238	4.68
649.568	4.58
649.899	4.56
650.229	4.6
650.56	4.65
650.89	4.62
651.221	4.66
651.551	4.68
651.882	4.65
652.212	4.66
652.542	4.68
652.872	4.67
653.203	4.74
653.533	4.71
653.863	4.69
654.193	4.6
654.523	4.62
654.853	4.72
655.183	4.72
655.513	4.72
655.843	4.75
656.172	4.92
656.502	4.89
656.832	4.86
657.162	4.8
657.491	4.78
657.821	4.73
658.15	4.69
658.48	4.73
658.809	4.68
659.139	4.7
659.468	4.67
659.798	4.72
660.127	4.79
660.456	4.75
660.785	4.77
661.115	4.88
661.444	4.93
661.773	4.91
662.102	4.88
662.431	4.85
662.76	4.89
663.089	4.83
663.418	4.84
663.747	4.88
664.076	4.86
664.404	4.91
664.733	4.97
665.062	4.95
665.39	4.86
665.719	4.95
666.048	4.95
666.376	4.97
666.705	4.98
667.033	5.04
667.362	5.02
667.69	5.03
668.018	5
668.347	4.93
668.675	4.88
669.003	4.91
669.331	4.98
669.659	4.9
669.987	4.85
670.315	5.06
670.643	5.08
670.971	5.12
671.299	5.04
671.627	5.08
671.955	5.07
672.283	5.11
672.61	5.14
672.938	5.14
673.266	5.14
673.593	5.09
673.921	4.97
674.249	5.02
674.576	5.05
674.904	4.98
675.231	4.98
675.558	4.97
675.886	5
676.213	4.89
676.54	4.98
