Data from MVZ_BU136690_Reflection_00001.txt Node
Date: Tue Nov 19 12:07:48 EST 2019
User: vgr7
Spectrometer: USB2G7710
Scans to average: 3
Trigger mode: 4
Integration Time (sec): 2.000000E-2
Electric dark correction enabled: true
Boxcar width: 10
XAxis mode: Wavelengths
Number of Pixels in Spectrum: 2048
>>>>>Begin Spectral Data<<<<<
177.721	141.96
178.105	34.31
178.488	49.15
178.871	40
179.254	154.55
179.636	67.39
180.019	168.81
180.402	68.18
180.785	400
181.168	219.16
181.55	76.38
181.933	57.35
182.316	94.72
182.698	73.02
183.081	30.23
183.463	-56.72
183.846	-58.26
184.228	-95.65
184.611	197.83
184.993	192.31
185.376	-595.12
185.758	314.29
186.14	65.71
186.522	204.65
186.904	212.5
187.287	-28.05
187.669	-9.76
188.051	-82.93
188.433	-64.63
188.815	151.72
189.197	80.52
189.579	43.4
189.961	41.84
190.342	18.22
190.724	-16.02
191.106	-19.91
191.488	-22.99
191.869	-10.55
192.251	1.9
192.633	-8.02
193.014	-36.36
193.396	-56.79
193.777	-51.65
194.159	-56.9
194.54	-45.61
194.922	-39.89
195.303	-9.7
195.684	-21.99
196.065	-24.26
196.447	-37.18
196.828	-36.01
197.209	-33.89
197.59	-60.14
197.971	-85.91
198.352	-76.2
198.733	-71.29
199.114	-122.1
199.495	-157.26
199.876	-251.56
200.257	-250.41
200.638	-157.62
201.018	-149.32
201.399	-101.49
201.78	-72.76
202.16	-66.3
202.541	-76.7
202.922	-94.95
203.302	-149.08
203.683	-262.07
204.063	-179.31
204.444	-102.25
204.824	-265.22
205.204	-45.43
205.585	9.48
205.965	2.83
206.345	43.13
206.725	83.21
207.106	107.56
207.486	78.18
207.866	114.51
208.246	161.31
208.626	157.92
209.006	241.89
209.386	179.33
209.766	146.15
210.145	60.53
210.525	42.55
210.905	34.07
211.285	85.85
211.664	77.87
212.044	53.34
212.424	38.9
212.803	45.32
213.183	19.85
213.562	6.59
213.942	19.71
214.321	19.27
214.701	28.36
215.08	13.34
215.459	32.41
215.838	2.33
216.218	-7.43
216.597	8.35
216.976	0.13
217.355	-13.21
217.734	15.98
218.113	28.34
218.492	12.52
218.871	13.42
219.25	-9.48
219.629	-22.19
220.008	-11.91
220.387	-17.86
220.766	-12.15
221.144	-28.19
221.523	-51.49
221.902	-45.48
222.28	-36.13
222.659	-30.28
223.037	-24.44
223.416	-30.62
223.794	-35.85
224.173	-34.45
224.551	-23.29
224.929	-16.59
225.308	-12.83
225.686	-22.62
226.064	-31.73
226.442	-18.67
226.821	-17.45
227.199	-15.66
227.577	-13.5
227.955	-14.26
228.333	-15.05
228.711	-13.19
229.089	-9.25
229.467	-6.11
229.845	-9.05
230.222	-8.53
230.6	-6.7
230.978	-7.24
231.356	-6.01
231.733	-1.44
232.111	1.1
232.488	-2.94
232.866	-1.37
233.243	0.02
233.621	0.5
233.998	1.74
234.376	1.86
234.753	2.19
235.13	3.07
235.508	4.63
235.885	5.57
236.262	7.58
236.639	8.39
237.016	8.41
237.393	9.95
237.77	9.75
238.147	10.21
238.524	9.61
238.901	9.56
239.278	8.47
239.655	7.53
240.032	7.38
240.409	8.22
240.785	7.12
241.162	6.68
241.539	7.1
241.915	7.08
242.292	6.76
242.668	6.1
243.045	5.63
243.421	5.37
243.798	5.38
244.174	5
244.551	5.23
244.927	4.94
245.303	4.45
245.679	4.54
246.056	4.27
246.432	4.25
246.808	4.41
247.184	4.55
247.56	4.33
247.936	4.19
248.312	4.27
248.688	4.85
249.064	4.86
249.44	4.56
249.815	4.55
250.191	4.56
250.567	4.52
250.943	4.81
251.318	4.69
251.694	4.43
252.069	4.77
252.445	4.42
252.82	4.59
253.196	4.73
253.571	4.65
253.947	4.7
254.322	4.37
254.697	4.08
255.073	4.1
255.448	4.2
255.823	3.82
256.198	3.58
256.573	3.11
256.948	3.25
257.323	3.59
257.698	3.42
258.073	3.41
258.448	3.81
258.823	3.47
259.198	3.61
259.573	3.51
259.948	3.36
260.322	3.4
260.697	3.57
261.072	3.38
261.446	3.39
261.821	3.17
262.195	3.21
262.57	3.43
262.944	3.33
263.319	3.43
263.693	3.55
264.067	3.74
264.442	3.87
264.816	3.73
265.19	3.47
265.564	3.53
265.938	3.65
266.313	3.42
266.687	3.47
267.061	3.29
267.435	3.58
267.809	3.55
268.183	3.54
268.556	3.22
268.93	3.43
269.304	3.53
269.678	3.89
270.051	4.02
270.425	3.6
270.799	3.28
271.172	3.25
271.546	3.46
271.919	3.25
272.293	3.05
272.666	3.1
273.04	3.19
273.413	3.14
273.787	3.06
274.16	3.12
274.533	3.43
274.906	3.54
275.279	3.42
275.653	3.34
276.026	3.36
276.399	3.31
276.772	3.36
277.145	3.24
277.518	3.06
277.891	2.77
278.263	2.95
278.636	3.26
279.009	3.15
279.382	2.96
279.755	2.93
280.127	3.06
280.5	2.99
280.872	2.96
281.245	2.87
281.617	2.84
281.99	2.76
282.362	2.57
282.735	2.47
283.107	2.43
283.479	2.56
283.852	2.69
284.224	2.9
284.596	2.82
284.968	2.81
285.34	2.83
285.713	3.03
286.085	2.93
286.457	2.96
286.829	3.03
287.201	2.98
287.572	3.01
287.944	2.99
288.316	3.06
288.688	3.18
289.06	3.36
289.431	3.41
289.803	3.48
290.175	3.38
290.546	3.5
290.918	3.51
291.289	3.5
291.661	3.36
292.032	3.2
292.403	3.15
292.775	3.2
293.146	3.34
293.517	3.31
293.889	3.21
294.26	3.2
294.631	3.19
295.002	3.23
295.373	3.3
295.744	3.37
296.115	3.36
296.486	3.36
296.857	3.24
297.228	3.28
297.599	3.16
297.97	3.18
298.34	3.03
298.711	3.11
299.082	3.02
299.452	3
299.823	3.07
300.194	3.21
300.564	3.14
300.935	2.99
301.305	2.96
301.676	3.04
302.046	2.95
302.416	2.92
302.787	2.82
303.157	2.82
303.527	3
303.897	2.94
304.267	2.8
304.637	2.88
305.008	2.63
305.378	2.82
305.748	2.83
306.117	2.83
306.487	2.94
306.857	2.9
307.227	3.07
307.597	3.07
307.967	2.99
308.336	3.19
308.706	3.18
309.076	3.1
309.445	3.23
309.815	3.32
310.184	3.3
310.554	3.4
310.923	3.34
311.293	3.14
311.662	3.29
312.031	3.28
312.401	3.27
312.77	3.27
313.139	3.07
313.508	3.14
313.877	3.24
314.246	3.16
314.616	3.16
314.985	3.08
315.353	3.09
315.722	3.18
316.091	3.1
316.46	3.2
316.829	3.45
317.198	3.42
317.567	3.51
317.935	3.38
318.304	3.35
318.672	3.49
319.041	3.67
319.41	3.51
319.778	3.61
320.147	3.47
320.515	3.54
320.883	3.5
321.252	3.59
321.62	3.58
321.988	3.64
322.357	3.63
322.725	3.5
323.093	3.4
323.461	3.33
323.829	3.27
324.197	3.16
324.565	3.03
324.933	2.98
325.301	2.9
325.669	3.07
326.037	3.11
326.405	3.03
326.772	2.88
327.14	2.97
327.508	3.03
327.875	3.17
328.243	3.22
328.61	3.32
328.978	3.15
329.346	3.16
329.713	3.07
330.08	3.14
330.448	3.17
330.815	3.33
331.182	3.31
331.55	3.29
331.917	3.28
332.284	3.24
332.651	3.27
333.018	3.16
333.385	3.12
333.752	3.19
334.119	3.27
334.486	3.33
334.853	3.19
335.22	2.95
335.587	2.76
335.954	2.75
336.32	2.54
336.687	2.67
337.054	2.59
337.42	2.67
337.787	2.61
338.153	2.62
338.52	2.63
338.886	2.66
339.253	2.61
339.619	2.63
339.986	2.74
340.352	2.7
340.718	2.78
341.084	2.84
341.451	2.78
341.817	2.75
342.183	2.72
342.549	2.84
342.915	2.91
343.281	3.05
343.647	3.22
344.013	3.36
344.379	3.39
344.745	3.5
345.11	3.4
345.476	3.43
345.842	3.39
346.208	3.27
346.573	3.19
346.939	3.27
347.304	3.26
347.67	3.16
348.035	3.06
348.401	3.09
348.766	3.04
349.132	2.95
349.497	2.93
349.862	2.9
350.228	2.86
350.593	2.91
350.958	2.85
351.323	2.7
351.688	2.72
352.053	2.6
352.418	2.57
352.783	2.56
353.148	2.55
353.513	2.6
353.878	2.58
354.243	2.65
354.608	2.52
354.972	2.5
355.337	2.55
355.702	2.55
356.066	2.49
356.431	2.53
356.795	2.58
357.16	2.53
357.524	2.57
357.889	2.52
358.253	2.55
358.618	2.56
358.982	2.52
359.346	2.45
359.71	2.5
360.075	2.57
360.439	2.59
360.803	2.64
361.167	2.6
361.531	2.65
361.895	2.64
362.259	2.74
362.623	2.79
362.987	2.86
363.351	2.88
363.714	2.97
364.078	2.99
364.442	2.98
364.806	3.04
365.169	3.07
365.533	3.13
365.896	3.13
366.26	3.13
366.623	3.14
366.987	3.24
367.35	3.21
367.714	3.16
368.077	3.15
368.44	3.14
368.803	3.12
369.167	3.12
369.53	3.13
369.893	3.13
370.256	3.04
370.619	2.92
370.982	2.93
371.345	2.85
371.708	2.86
372.071	2.83
372.434	2.81
372.797	2.83
373.159	2.73
373.522	2.67
373.885	2.71
374.247	2.72
374.61	2.71
374.973	2.73
375.335	2.7
375.698	2.7
376.06	2.67
376.423	2.72
376.785	2.7
377.147	2.7
377.51	2.62
377.872	2.65
378.234	2.71
378.596	2.72
378.958	2.74
379.321	2.71
379.683	2.72
380.045	2.65
380.407	2.62
380.769	2.67
381.13	2.71
381.492	2.71
381.854	2.78
382.216	2.78
382.578	2.78
382.939	2.81
383.301	2.79
383.663	2.84
384.024	2.8
384.386	2.88
384.747	2.79
385.109	2.86
385.47	2.84
385.832	2.79
386.193	2.81
386.554	2.78
386.916	2.74
387.277	2.76
387.638	2.8
387.999	2.78
388.36	2.81
388.721	2.79
389.082	2.77
389.443	2.78
389.804	2.75
390.165	2.76
390.526	2.8
390.887	2.82
391.248	2.82
391.609	2.91
391.969	2.84
392.33	2.9
392.691	2.89
393.051	2.89
393.412	2.91
393.772	2.96
394.133	2.97
394.493	2.97
394.854	2.95
395.214	2.96
395.574	2.96
395.935	2.94
396.295	2.95
396.655	2.94
397.015	2.93
397.376	2.96
397.736	2.94
398.096	2.92
398.456	2.9
398.816	2.87
399.176	2.82
399.535	2.84
399.895	2.84
400.255	2.82
400.615	2.84
400.975	2.84
401.334	2.79
401.694	2.81
402.054	2.83
402.413	2.86
402.773	2.86
403.132	2.88
403.492	2.87
403.851	2.89
404.211	2.9
404.57	2.92
404.929	2.9
405.288	2.91
405.648	2.9
406.007	2.92
406.366	2.95
406.725	2.91
407.084	2.89
407.443	2.9
407.802	2.9
408.161	2.93
408.52	2.95
408.879	2.98
409.238	2.99
409.596	2.98
409.955	2.97
410.314	2.97
410.673	2.97
411.031	2.99
411.39	2.98
411.748	2.99
412.107	2.96
412.465	2.98
412.824	2.96
413.182	2.95
413.54	2.96
413.899	2.93
414.257	2.98
414.615	2.99
414.974	2.99
415.332	3.01
415.69	3.02
416.048	3.01
416.406	3
416.764	2.97
417.122	3
417.48	3.01
417.838	3.01
418.195	3.01
418.553	2.99
418.911	2.99
419.269	2.98
419.626	2.99
419.984	3
420.342	3.01
420.699	3.02
421.057	3
421.414	3.01
421.772	2.99
422.129	2.97
422.486	2.96
422.844	2.95
423.201	2.93
423.558	2.93
423.915	2.91
424.273	2.93
424.63	2.93
424.987	2.92
425.344	2.91
425.701	2.92
426.058	2.93
426.415	2.92
426.772	2.94
427.128	2.94
427.485	2.93
427.842	2.92
428.199	2.92
428.555	2.94
428.912	2.93
429.269	2.93
429.625	2.97
429.982	2.99
430.338	3.01
430.695	2.99
431.051	2.99
431.407	3.02
431.764	3.01
432.12	3.01
432.476	3.02
432.832	3.03
433.189	3.02
433.545	3.01
433.901	3.02
434.257	2.99
434.613	2.99
434.969	2.98
435.325	3.01
435.681	2.99
436.036	2.99
436.392	2.99
436.748	3
437.104	2.99
437.459	2.97
437.815	2.97
438.171	2.98
438.526	2.99
438.882	3.01
439.237	3.02
439.593	3.01
439.948	3
440.304	3.02
440.659	3.03
441.014	3.05
441.369	3.05
441.725	3.05
442.08	3.02
442.435	3.03
442.79	3.04
443.145	3.04
443.5	3.05
443.855	3.05
444.21	3.05
444.565	3.06
444.92	3.06
445.275	3.06
445.629	3.06
445.984	3.06
446.339	3.05
446.693	3.04
447.048	3.04
447.403	3.04
447.757	3.01
448.112	3
448.466	3
448.82	2.99
449.175	3
449.529	3.03
449.883	3.01
450.238	3.02
450.592	3.03
450.946	3.04
451.3	3.02
451.654	3.01
452.008	3
452.362	3.02
452.716	3
453.07	2.99
453.424	2.97
453.778	2.96
454.132	2.95
454.486	2.95
454.839	2.94
455.193	2.97
455.547	2.99
455.9	3
456.254	3
456.607	3.01
456.961	3.01
457.314	3.02
457.668	3
458.021	2.99
458.375	2.99
458.728	3.01
459.081	3.01
459.434	3.01
459.787	3.02
460.141	3.02
460.494	3.06
460.847	3.07
461.2	3.08
461.553	3.09
461.906	3.11
462.259	3.12
462.611	3.13
462.964	3.11
463.317	3.1
463.67	3.11
464.022	3.09
464.375	3.07
464.728	3.07
465.08	3.07
465.433	3.08
465.785	3.07
466.138	3.07
466.49	3.1
466.843	3.11
467.195	3.12
467.547	3.12
467.899	3.12
468.252	3.13
468.604	3.13
468.956	3.12
469.308	3.1
469.66	3.11
470.012	3.1
470.364	3.11
470.716	3.1
471.068	3.11
471.42	3.13
471.772	3.14
472.123	3.15
472.475	3.16
472.827	3.15
473.178	3.16
473.53	3.17
473.882	3.14
474.233	3.16
474.585	3.17
474.936	3.17
475.288	3.16
475.639	3.16
475.99	3.15
476.342	3.15
476.693	3.18
477.044	3.18
477.395	3.19
477.746	3.18
478.097	3.19
478.448	3.18
478.8	3.2
479.15	3.17
479.501	3.16
479.852	3.17
480.203	3.16
480.554	3.15
480.905	3.14
481.255	3.16
481.606	3.15
481.957	3.15
482.307	3.16
482.658	3.17
483.009	3.16
483.359	3.17
483.709	3.17
484.06	3.17
484.41	3.17
484.761	3.17
485.111	3.18
485.461	3.18
485.811	3.19
486.162	3.19
486.512	3.19
486.862	3.19
487.212	3.19
487.562	3.2
487.912	3.21
488.262	3.2
488.612	3.2
488.961	3.2
489.311	3.19
489.661	3.19
490.011	3.18
490.36	3.18
490.71	3.17
491.06	3.17
491.409	3.16
491.759	3.18
492.108	3.17
492.458	3.17
492.807	3.17
493.157	3.15
493.506	3.15
493.855	3.16
494.204	3.17
494.554	3.18
494.903	3.17
495.252	3.17
495.601	3.19
495.95	3.21
496.299	3.23
496.648	3.23
496.997	3.24
497.346	3.28
497.695	3.29
498.043	3.32
498.392	3.32
498.741	3.31
499.09	3.32
499.438	3.33
499.787	3.33
500.135	3.34
500.484	3.35
500.832	3.35
501.181	3.35
501.529	3.36
501.878	3.35
502.226	3.37
502.574	3.39
502.923	3.38
503.271	3.37
503.619	3.36
503.967	3.35
504.315	3.33
504.663	3.32
505.011	3.32
505.359	3.31
505.707	3.31
506.055	3.32
506.403	3.29
506.751	3.29
507.098	3.29
507.446	3.3
507.794	3.3
508.141	3.31
508.489	3.3
508.837	3.29
509.184	3.29
509.531	3.3
509.879	3.28
510.226	3.3
510.574	3.3
510.921	3.29
511.268	3.32
511.616	3.35
511.963	3.32
512.31	3.31
512.657	3.31
513.004	3.3
513.351	3.3
513.698	3.31
514.045	3.32
514.392	3.32
514.739	3.3
515.086	3.32
515.432	3.33
515.779	3.35
516.126	3.38
516.473	3.39
516.819	3.37
517.166	3.38
517.512	3.36
517.859	3.38
518.205	3.36
518.552	3.36
518.898	3.35
519.245	3.39
519.591	3.41
519.937	3.41
520.283	3.41
520.629	3.4
520.976	3.4
521.322	3.39
521.668	3.39
522.014	3.39
522.36	3.4
522.706	3.4
523.052	3.41
523.398	3.38
523.743	3.38
524.089	3.4
524.435	3.39
524.781	3.41
525.126	3.41
525.472	3.45
525.817	3.45
526.163	3.45
526.509	3.43
526.854	3.43
527.199	3.43
527.545	3.44
527.89	3.45
528.235	3.44
528.581	3.45
528.926	3.46
529.271	3.45
529.616	3.46
529.961	3.46
530.306	3.44
530.651	3.44
530.996	3.45
531.341	3.45
531.686	3.48
532.031	3.47
532.376	3.47
532.721	3.46
533.065	3.47
533.41	3.48
533.755	3.49
534.099	3.49
534.444	3.5
534.788	3.49
535.133	3.5
535.477	3.52
535.822	3.52
536.166	3.52
536.51	3.53
536.855	3.53
537.199	3.52
537.543	3.55
537.887	3.55
538.231	3.54
538.576	3.54
538.92	3.53
539.264	3.53
539.608	3.54
539.951	3.53
540.295	3.52
540.639	3.52
540.983	3.52
541.327	3.52
541.671	3.53
542.014	3.54
542.358	3.55
542.701	3.54
543.045	3.54
543.389	3.54
543.732	3.55
544.075	3.55
544.419	3.56
544.762	3.56
545.105	3.58
545.449	3.58
545.792	3.58
546.135	3.56
546.478	3.57
546.821	3.56
547.165	3.57
547.508	3.58
547.851	3.59
548.194	3.57
548.536	3.57
548.879	3.57
549.222	3.58
549.565	3.54
549.908	3.53
550.25	3.52
550.593	3.49
550.936	3.46
551.278	3.45
551.621	3.46
551.963	3.45
552.306	3.44
552.648	3.45
552.991	3.49
553.333	3.47
553.675	3.45
554.017	3.44
554.36	3.43
554.702	3.42
555.044	3.41
555.386	3.45
555.728	3.44
556.07	3.43
556.412	3.42
556.754	3.46
557.096	3.47
557.438	3.49
557.78	3.52
558.121	3.53
558.463	3.55
558.805	3.56
559.147	3.58
559.488	3.59
559.83	3.59
560.171	3.57
560.513	3.62
560.854	3.62
561.196	3.64
561.537	3.66
561.878	3.66
562.22	3.69
562.561	3.67
562.902	3.68
563.243	3.67
563.584	3.66
563.925	3.66
564.266	3.65
564.607	3.63
564.948	3.65
565.289	3.67
565.63	3.65
565.971	3.65
566.312	3.63
566.653	3.61
566.993	3.62
567.334	3.65
567.675	3.62
568.015	3.62
568.356	3.6
568.696	3.59
569.037	3.6
569.377	3.59
569.718	3.59
570.058	3.59
570.398	3.59
570.739	3.61
571.079	3.6
571.419	3.62
571.759	3.59
572.099	3.58
572.439	3.55
572.779	3.55
573.119	3.51
573.459	3.52
573.799	3.49
574.139	3.48
574.479	3.45
574.819	3.47
575.158	3.47
575.498	3.48
575.838	3.45
576.177	3.44
576.517	3.41
576.856	3.4
577.196	3.42
577.535	3.43
577.875	3.39
578.214	3.38
578.553	3.37
578.893	3.39
579.232	3.37
579.571	3.42
579.91	3.46
580.25	3.5
580.589	3.49
580.928	3.49
581.267	3.5
581.606	3.51
581.945	3.52
582.283	3.54
582.622	3.48
582.961	3.52
583.3	3.51
583.639	3.54
583.977	3.55
584.316	3.54
584.654	3.53
584.993	3.57
585.332	3.61
585.67	3.64
586.008	3.62
586.347	3.69
586.685	3.68
587.024	3.62
587.362	3.6
587.7	3.65
588.038	3.72
588.376	3.74
588.715	3.69
589.053	3.69
589.391	3.68
589.729	3.75
590.067	3.72
590.404	3.74
590.742	3.76
591.08	3.77
591.418	3.73
591.756	3.74
592.093	3.77
592.431	3.79
592.769	3.76
593.106	3.75
593.444	3.73
593.781	3.69
594.119	3.73
594.456	3.71
594.793	3.67
595.131	3.64
595.468	3.64
595.805	3.69
596.143	3.69
596.48	3.71
596.817	3.69
597.154	3.73
597.491	3.71
597.828	3.68
598.165	3.64
598.502	3.63
598.839	3.63
599.176	3.59
599.512	3.55
599.849	3.59
600.186	3.64
600.523	3.65
600.859	3.66
601.196	3.64
601.532	3.66
601.869	3.66
602.205	3.64
602.542	3.62
602.878	3.64
603.215	3.62
603.551	3.61
603.887	3.61
604.223	3.59
604.56	3.61
604.896	3.65
605.232	3.64
605.568	3.68
605.904	3.64
606.24	3.67
606.576	3.69
606.912	3.66
607.248	3.64
607.583	3.65
607.919	3.65
608.255	3.68
608.591	3.7
608.926	3.71
609.262	3.73
609.597	3.75
609.933	3.72
610.268	3.76
610.604	3.76
610.939	3.77
611.275	3.79
611.61	3.77
611.945	3.73
612.281	3.79
612.616	3.78
612.951	3.83
613.286	3.82
613.621	3.81
613.956	3.86
614.291	3.88
614.626	3.83
614.961	3.87
615.296	3.9
615.631	3.87
615.966	3.88
616.3	3.85
616.635	3.86
616.97	3.81
617.304	3.79
617.639	3.82
617.973	3.77
618.308	3.79
618.642	3.8
618.977	3.8
619.311	3.81
619.646	3.83
619.98	3.83
620.314	3.81
620.648	3.81
620.983	3.81
621.317	3.8
621.651	3.79
621.985	3.72
622.319	3.69
622.653	3.74
622.987	3.7
623.321	3.73
623.655	3.77
623.988	3.81
624.322	3.75
624.656	3.72
624.99	3.77
625.323	3.76
625.657	3.77
625.99	3.8
626.324	3.79
626.657	3.79
626.991	3.82
627.324	3.79
627.658	3.79
627.991	3.75
628.324	3.75
628.657	3.75
628.991	3.76
629.324	3.77
629.657	3.74
629.99	3.75
630.323	3.69
630.656	3.64
630.989	3.62
631.322	3.65
631.655	3.64
631.987	3.6
632.32	3.6
632.653	3.6
632.986	3.61
633.318	3.62
633.651	3.59
633.984	3.53
634.316	3.59
634.649	3.53
634.981	3.57
635.313	3.61
635.646	3.6
635.978	3.7
636.31	3.72
636.643	3.72
636.975	3.7
637.307	3.77
637.639	3.75
637.971	3.8
638.303	3.84
638.635	3.87
638.967	3.89
639.299	3.91
639.631	3.9
639.963	3.85
640.295	3.85
640.626	3.88
640.958	3.97
641.29	4
641.621	4.01
641.953	3.95
642.285	3.93
642.616	4.04
642.948	3.99
643.279	3.95
643.61	3.93
643.942	4.07
644.273	4.07
644.604	4.16
644.936	4.1
645.267	4.06
645.598	4.08
645.929	3.98
646.26	3.96
646.591	3.96
646.922	3.98
647.253	3.91
647.584	3.97
647.915	3.92
648.245	3.91
648.576	3.95
648.907	3.99
649.238	3.96
649.568	3.88
649.899	3.9
650.229	3.94
650.56	3.97
650.89	3.9
651.221	3.89
651.551	3.84
651.882	3.86
652.212	3.82
652.542	3.8
652.872	3.89
653.203	3.94
653.533	3.91
653.863	3.96
654.193	3.94
654.523	3.87
654.853	3.91
655.183	3.9
655.513	3.94
655.843	3.9
656.172	3.92
656.502	3.9
656.832	3.78
657.162	3.7
657.491	3.71
657.821	3.74
658.15	3.7
658.48	3.7
658.809	3.69
659.139	3.83
659.468	3.9
659.798	3.89
660.127	3.85
660.456	3.91
660.785	3.9
661.115	3.94
661.444	3.93
661.773	3.9
662.102	3.82
662.431	3.74
662.76	3.81
663.089	3.76
663.418	3.81
663.747	3.84
664.076	3.84
664.404	3.85
664.733	3.86
665.062	3.89
665.39	3.87
665.719	3.89
666.048	3.79
666.376	3.69
666.705	3.75
667.033	3.71
667.362	3.68
667.69	3.75
668.018	3.71
668.347	3.73
668.675	3.76
669.003	3.87
669.331	3.95
669.659	3.91
669.987	3.99
670.315	4.02
670.643	4.17
670.971	4.23
671.299	4.17
671.627	4.14
671.955	4.23
672.283	4.27
672.61	4.29
672.938	4.34
673.266	4.44
673.593	4.46
673.921	4.46
674.249	4.48
674.576	4.52
674.904	4.56
675.231	4.62
675.558	4.66
675.886	4.68
676.213	4.71
676.54	4.8
676.867	4.79
677.195	4.82
677.522	4.7
677.849	4.68
678.176	4.74
678.503	4.72
