Data from MVZ_BU147393_Reflection_00004.txt Node
Date: Tue Nov 19 12:06:54 EST 2019
User: vgr7
Spectrometer: USB2G7710
Scans to average: 3
Trigger mode: 4
Integration Time (sec): 2.000000E-2
Electric dark correction enabled: true
Boxcar width: 10
XAxis mode: Wavelengths
Number of Pixels in Spectrum: 2048
>>>>>Begin Spectral Data<<<<<
177.721	-85.96
178.105	-8650
178.488	-157.87
178.871	-53.13
179.254	-345.45
179.636	-101.2
180.019	-33.09
180.402	-100
180.785	118.18
181.168	204.37
181.55	-503.45
181.933	-43.44
182.316	-85.27
182.698	-200.88
183.081	-111.74
183.463	-71.87
183.846	-253.98
184.228	-130.54
184.611	-185.71
184.993	-330.77
185.376	3725
185.758	29600
186.14	1400
186.522	299.15
186.904	2060
187.287	4100
187.669	315.38
188.051	350
188.433	161.07
188.815	165.02
189.197	115.44
189.579	77.08
189.961	58.17
190.342	20.7
190.724	27.84
191.106	9.9
191.488	21.59
191.869	17.01
192.251	25.64
192.633	21.83
193.014	22.5
193.396	33.61
193.777	37.07
194.159	30.11
194.54	27.19
194.922	11.54
195.303	7.14
195.684	-0.09
196.065	5.99
196.447	7.61
196.828	4.86
197.209	1.13
197.59	-5.82
197.971	3.1
198.352	11.13
198.733	0.82
199.114	-13.76
199.495	-22.82
199.876	-16.24
200.257	-19.26
200.638	-0.43
201.018	6.72
201.399	16.5
201.78	2.68
202.16	1.83
202.541	16.73
202.922	16.73
203.302	16.73
203.683	16.73
204.063	22.54
204.444	21.91
204.824	24.2
205.204	30.79
205.585	38.67
205.965	39.48
206.345	41.48
206.725	40.34
207.106	51.82
207.486	45.33
207.866	39.64
208.246	44.13
208.626	26.5
209.006	20.45
209.386	23.1
209.766	22.69
210.145	22.01
210.525	20.98
210.905	29.84
211.285	34.75
211.664	49.39
212.044	45.63
212.424	41.9
212.803	33.39
213.183	28.77
213.562	24.88
213.942	5.48
214.321	10.54
214.701	-0.4
215.08	-15.07
215.459	0.89
215.838	-22.74
216.218	-74.53
216.597	-5.93
216.976	14.34
217.355	-59.92
217.734	-7.95
218.113	6.17
218.492	9.09
218.871	0.99
219.25	24.9
219.629	-3.86
220.008	-16.52
220.387	-47.3
220.766	-0.76
221.144	4.45
221.523	-16.76
221.902	-14.53
222.28	-23.73
222.659	21.29
223.037	39.88
223.416	25.95
223.794	33.53
224.173	15
224.551	8.76
224.929	-8.79
225.308	-5.36
225.686	-11.14
226.064	-11.4
226.442	-8.01
226.821	-4.05
227.199	-8.65
227.577	-8.46
227.955	-0.79
228.333	1.01
228.711	1.87
229.089	-3.88
229.467	0.21
229.845	2.29
230.222	2.92
230.6	0.7
230.978	1.82
231.356	-0.14
231.733	0.59
232.111	1.96
232.488	1.73
232.866	6.55
233.243	5.46
233.621	7.11
233.998	8.43
234.376	8.63
234.753	8.76
235.13	9.99
235.508	9.79
235.885	6.99
236.262	6.95
236.639	5.8
237.016	7.64
237.393	7.54
237.77	7.87
238.147	7.42
238.524	8.08
238.901	6.26
239.278	6.44
239.655	4.97
240.032	5.89
240.409	6.71
240.785	6.13
241.162	6.27
241.539	5.96
241.915	5.06
242.292	4.53
242.668	4.51
243.045	4.58
243.421	5.13
243.798	5.54
244.174	5.89
244.551	5.57
244.927	5.64
245.303	5.23
245.679	5.05
246.056	4.97
246.432	4.84
246.808	5.04
247.184	5.39
247.56	5.62
247.936	5.52
248.312	5.43
248.688	5.4
249.064	5.6
249.44	5.56
249.815	5.8
250.191	5.88
250.567	5.84
250.943	5.82
251.318	5.84
251.694	5.56
252.069	5.35
252.445	5.68
252.82	5.8
253.196	6.07
253.571	6.25
253.947	6.57
254.322	6.61
254.697	6.94
255.073	6.53
255.448	6.29
255.823	6.09
256.198	5.67
256.573	5.59
256.948	5.55
257.323	5.6
257.698	5.36
258.073	5.16
258.448	5.06
258.823	4.81
259.198	4.69
259.573	4.51
259.948	4.58
260.322	4.39
260.697	4.17
261.072	4.31
261.446	4.4
261.821	4.32
262.195	4.35
262.57	4.13
262.944	4.24
263.319	4.42
263.693	4.48
264.067	4.61
264.442	4.71
264.816	4.6
265.19	4.6
265.564	4.59
265.938	4.81
266.313	4.67
266.687	4.85
267.061	4.92
267.435	5.17
267.809	5.15
268.183	5.25
268.556	5.47
268.93	5.1
269.304	4.88
269.678	4.96
270.051	5.03
270.425	5.02
270.799	4.81
271.172	4.73
271.546	4.76
271.919	4.72
272.293	4.74
272.666	4.73
273.04	4.72
273.413	4.83
273.787	4.73
274.16	4.88
274.533	5.05
274.906	4.86
275.279	4.85
275.653	4.91
276.026	4.96
276.399	4.82
276.772	4.92
277.145	4.76
277.518	4.54
277.891	4.35
278.263	4.47
278.636	4.4
279.009	4.19
279.382	3.99
279.755	3.92
280.127	3.76
280.5	3.63
280.872	3.72
281.245	3.72
281.617	3.68
281.99	3.59
282.362	3.56
282.735	3.75
283.107	3.87
283.479	3.7
283.852	3.64
284.224	3.65
284.596	3.66
284.968	3.73
285.34	3.75
285.713	3.97
286.085	3.99
286.457	4.07
286.829	4.09
287.201	4.25
287.572	4.4
287.944	4.34
288.316	4.43
288.688	4.44
289.06	4.32
289.431	4.28
289.803	4.32
290.175	4.11
290.546	4.15
290.918	4.05
291.289	3.99
291.661	4.11
292.032	4.28
292.403	4.2
292.775	4.33
293.146	4.42
293.517	4.17
293.889	4.14
294.26	4.17
294.631	4.43
295.002	4.43
295.373	4.24
295.744	4.22
296.115	4.27
296.486	4.24
296.857	4.34
297.228	4.45
297.599	4.57
297.97	4.72
298.34	4.66
298.711	4.7
299.082	4.89
299.452	4.74
299.823	4.6
300.194	4.77
300.564	4.69
300.935	4.65
301.305	4.69
301.676	4.74
302.046	4.81
302.416	4.71
302.787	4.62
303.157	4.58
303.527	4.89
303.897	4.74
304.267	4.69
304.637	4.75
305.008	4.64
305.378	4.57
305.748	4.64
306.117	4.44
306.487	4.37
306.857	4.31
307.227	4.45
307.597	4.45
307.967	4.27
308.336	4.31
308.706	4.29
309.076	4.42
309.445	4.47
309.815	4.38
310.184	4.21
310.554	4.29
310.923	4.51
311.293	4.37
311.662	4.42
312.031	4.55
312.401	4.51
312.77	4.56
313.139	4.54
313.508	4.45
313.877	4.59
314.246	4.52
314.616	4.38
314.985	4.24
315.353	4.26
315.722	4.45
316.091	4.36
316.46	4.45
316.829	4.44
317.198	4.44
317.567	4.5
317.935	4.5
318.304	4.5
318.672	4.42
319.041	4.47
319.41	4.36
319.778	4.13
320.147	4.1
320.515	4.15
320.883	3.99
321.252	4.07
321.62	3.94
321.988	4.06
322.357	4.03
322.725	4.08
323.093	4.07
323.461	3.97
323.829	4.08
324.197	4.06
324.565	4.17
324.933	3.91
325.301	3.74
325.669	3.93
326.037	3.99
326.405	3.98
326.772	3.92
327.14	3.89
327.508	3.89
327.875	3.83
328.243	3.76
328.61	3.87
328.978	3.82
329.346	3.97
329.713	3.98
330.08	4.12
330.448	4.15
330.815	4.23
331.182	4.16
331.55	4.03
331.917	3.94
332.284	3.81
332.651	3.82
333.018	3.95
333.385	3.91
333.752	3.82
334.119	3.77
334.486	3.81
334.853	3.83
335.22	3.77
335.587	3.75
335.954	3.69
336.32	3.68
336.687	3.68
337.054	3.69
337.42	3.61
337.787	3.59
338.153	3.76
338.52	3.72
338.886	3.7
339.253	3.71
339.619	3.86
339.986	3.87
340.352	4.02
340.718	3.99
341.084	4.11
341.451	4.09
341.817	4.11
342.183	4.02
342.549	4.14
342.915	4.19
343.281	4.24
343.647	4.29
344.013	4.3
344.379	4.19
344.745	4.17
345.11	4.19
345.476	4.17
345.842	3.96
346.208	3.97
346.573	4.02
346.939	4.11
347.304	4.12
347.67	4.02
348.035	3.99
348.401	4.02
348.766	3.89
349.132	3.92
349.497	4.02
349.862	4.05
350.228	4.01
350.593	4
350.958	3.98
351.323	3.93
351.688	4.02
352.053	4.03
352.418	4.08
352.783	4.07
353.148	4.03
353.513	4.05
353.878	4.01
354.243	3.92
354.608	3.88
354.972	3.82
355.337	3.84
355.702	3.79
356.066	3.73
356.431	3.68
356.795	3.58
357.16	3.44
357.524	3.44
357.889	3.49
358.253	3.51
358.618	3.54
358.982	3.49
359.346	3.39
359.71	3.43
360.075	3.4
360.439	3.46
360.803	3.53
361.167	3.54
361.531	3.48
361.895	3.51
362.259	3.55
362.623	3.55
362.987	3.56
363.351	3.58
363.714	3.62
364.078	3.64
364.442	3.66
364.806	3.78
365.169	3.89
365.533	3.88
365.896	3.91
366.26	3.9
366.623	3.99
366.987	4.03
367.35	4.1
367.714	4.09
368.077	4.1
368.44	4.06
368.803	4.04
369.167	4.17
369.53	4.27
369.893	4.23
370.256	4.25
370.619	4.22
370.982	4.13
371.345	4.18
371.708	4.21
372.071	4.2
372.434	4.12
372.797	4.02
373.159	3.96
373.522	3.95
373.885	3.95
374.247	3.94
374.61	3.94
374.973	3.88
375.335	3.84
375.698	3.78
376.06	3.77
376.423	3.82
376.785	3.76
377.147	3.69
377.51	3.68
377.872	3.69
378.234	3.68
378.596	3.73
378.958	3.7
379.321	3.67
379.683	3.78
380.045	3.71
380.407	3.72
380.769	3.76
381.13	3.72
381.492	3.74
381.854	3.74
382.216	3.7
382.578	3.71
382.939	3.77
383.301	3.76
383.663	3.78
384.024	3.77
384.386	3.77
384.747	3.78
385.109	3.78
385.47	3.76
385.832	3.79
386.193	3.8
386.554	3.72
386.916	3.76
387.277	3.68
387.638	3.76
387.999	3.76
388.36	3.71
388.721	3.74
389.082	3.71
389.443	3.74
389.804	3.72
390.165	3.73
390.526	3.66
390.887	3.68
391.248	3.64
391.609	3.62
391.969	3.63
392.33	3.6
392.691	3.59
393.051	3.57
393.412	3.56
393.772	3.6
394.133	3.67
394.493	3.68
394.854	3.69
395.214	3.72
395.574	3.7
395.935	3.7
396.295	3.67
396.655	3.69
397.015	3.69
397.376	3.7
397.736	3.65
398.096	3.7
398.456	3.69
398.816	3.72
399.176	3.7
399.535	3.71
399.895	3.69
400.255	3.7
400.615	3.7
400.975	3.68
401.334	3.67
401.694	3.62
402.054	3.59
402.413	3.57
402.773	3.54
403.132	3.54
403.492	3.57
403.851	3.6
404.211	3.56
404.57	3.55
404.929	3.57
405.288	3.61
405.648	3.58
406.007	3.61
406.366	3.62
406.725	3.67
407.084	3.64
407.443	3.65
407.802	3.66
408.161	3.67
408.52	3.68
408.879	3.7
409.238	3.73
409.596	3.76
409.955	3.77
410.314	3.79
410.673	3.77
411.031	3.72
411.39	3.73
411.748	3.76
412.107	3.75
412.465	3.72
412.824	3.71
413.182	3.71
413.54	3.72
413.899	3.7
414.257	3.69
414.615	3.66
414.974	3.66
415.332	3.63
415.69	3.6
416.048	3.6
416.406	3.58
416.764	3.56
417.122	3.54
417.48	3.55
417.838	3.51
418.195	3.52
418.553	3.54
418.911	3.53
419.269	3.53
419.626	3.53
419.984	3.55
420.342	3.54
420.699	3.53
421.057	3.52
421.414	3.54
421.772	3.52
422.129	3.53
422.486	3.53
422.844	3.55
423.201	3.56
423.558	3.55
423.915	3.54
424.273	3.56
424.63	3.59
424.987	3.59
425.344	3.61
425.701	3.61
426.058	3.61
426.415	3.61
426.772	3.6
427.128	3.61
427.485	3.6
427.842	3.62
428.199	3.63
428.555	3.64
428.912	3.63
429.269	3.65
429.625	3.65
429.982	3.66
430.338	3.65
430.695	3.66
431.051	3.67
431.407	3.69
431.764	3.67
432.12	3.65
432.476	3.64
432.832	3.62
433.189	3.62
433.545	3.6
433.901	3.6
434.257	3.6
434.613	3.6
434.969	3.59
435.325	3.6
435.681	3.59
436.036	3.58
436.392	3.57
436.748	3.55
437.104	3.57
437.459	3.56
437.815	3.56
438.171	3.55
438.526	3.54
438.882	3.53
439.237	3.53
439.593	3.53
439.948	3.53
440.304	3.54
440.659	3.55
441.014	3.55
441.369	3.56
441.725	3.57
442.08	3.56
442.435	3.55
442.79	3.54
443.145	3.54
443.5	3.55
443.855	3.53
444.21	3.54
444.565	3.52
444.92	3.53
445.275	3.55
445.629	3.55
445.984	3.55
446.339	3.56
446.693	3.57
447.048	3.56
447.403	3.58
447.757	3.58
448.112	3.58
448.466	3.59
448.82	3.59
449.175	3.58
449.529	3.58
449.883	3.58
450.238	3.58
450.592	3.57
450.946	3.55
451.3	3.58
451.654	3.58
452.008	3.58
452.362	3.57
452.716	3.55
453.07	3.55
453.424	3.52
453.778	3.51
454.132	3.49
454.486	3.5
454.839	3.48
455.193	3.47
455.547	3.46
455.9	3.47
456.254	3.47
456.607	3.48
456.961	3.46
457.314	3.47
457.668	3.5
458.021	3.48
458.375	3.49
458.728	3.48
459.081	3.5
459.434	3.51
459.787	3.54
460.141	3.54
460.494	3.55
460.847	3.58
461.2	3.59
461.553	3.6
461.906	3.6
462.259	3.6
462.611	3.62
462.964	3.62
463.317	3.61
463.67	3.63
464.022	3.63
464.375	3.65
464.728	3.66
465.08	3.65
465.433	3.68
465.785	3.69
466.138	3.7
466.49	3.7
466.843	3.7
467.195	3.69
467.547	3.66
467.899	3.65
468.252	3.65
468.604	3.63
468.956	3.63
469.308	3.63
469.66	3.64
470.012	3.61
470.364	3.62
470.716	3.65
471.068	3.64
471.42	3.66
471.772	3.65
472.123	3.64
472.475	3.65
472.827	3.65
473.178	3.63
473.53	3.62
473.882	3.62
474.233	3.61
474.585	3.61
474.936	3.62
475.288	3.62
475.639	3.62
475.99	3.61
476.342	3.61
476.693	3.61
477.044	3.62
477.395	3.62
477.746	3.61
478.097	3.59
478.448	3.57
478.8	3.57
479.15	3.58
479.501	3.58
479.852	3.57
480.203	3.57
480.554	3.59
480.905	3.59
481.255	3.58
481.606	3.59
481.957	3.57
482.307	3.57
482.658	3.58
483.009	3.58
483.359	3.59
483.709	3.59
484.06	3.59
484.41	3.59
484.761	3.6
485.111	3.6
485.461	3.59
485.811	3.6
486.162	3.6
486.512	3.61
486.862	3.6
487.212	3.6
487.562	3.6
487.912	3.59
488.262	3.6
488.612	3.6
488.961	3.6
489.311	3.61
489.661	3.61
490.011	3.61
490.36	3.61
490.71	3.62
491.06	3.62
491.409	3.62
491.759	3.63
492.108	3.63
492.458	3.65
492.807	3.66
493.157	3.66
493.506	3.66
493.855	3.67
494.204	3.68
494.554	3.69
494.903	3.69
495.252	3.71
495.601	3.72
495.95	3.72
496.299	3.74
496.648	3.75
496.997	3.77
497.346	3.77
497.695	3.77
498.043	3.77
498.392	3.75
498.741	3.74
499.09	3.74
499.438	3.77
499.787	3.75
500.135	3.75
500.484	3.72
500.832	3.73
501.181	3.71
501.529	3.74
501.878	3.74
502.226	3.75
502.574	3.75
502.923	3.74
503.271	3.75
503.619	3.74
503.967	3.74
504.315	3.74
504.663	3.75
505.011	3.76
505.359	3.75
505.707	3.79
506.055	3.8
506.403	3.8
506.751	3.78
507.098	3.81
507.446	3.84
507.794	3.88
508.141	3.87
508.489	3.9
508.837	3.87
509.184	3.87
509.531	3.88
509.879	3.89
510.226	3.89
510.574	3.89
510.921	3.9
511.268	3.92
511.616	3.94
511.963	3.93
512.31	3.94
512.657	3.97
513.004	3.95
513.351	3.98
513.698	3.98
514.045	4
514.392	3.99
514.739	3.98
515.086	3.97
515.432	3.97
515.779	3.96
516.126	4
516.473	4.01
516.819	3.99
517.166	4
517.512	4.01
517.859	4.03
518.205	4.02
518.552	4.02
518.898	4.02
519.245	4.04
519.591	4.04
519.937	4.04
520.283	4.06
520.629	4.05
520.976	4.07
521.322	4.07
521.668	4.07
522.014	4.08
522.36	4.09
522.706	4.12
523.052	4.13
523.398	4.13
523.743	4.15
524.089	4.15
524.435	4.14
524.781	4.13
525.126	4.1
525.472	4.09
525.817	4.08
526.163	4.07
526.509	4.05
526.854	4.05
527.199	4.06
527.545	4.06
527.89	4.06
528.235	4.05
528.581	4.05
528.926	4.05
529.271	4.03
529.616	4.03
529.961	4.03
530.306	4.02
530.651	4.01
530.996	3.99
531.341	4
531.686	4
532.031	4.01
532.376	4.03
532.721	4.05
533.065	4.05
533.41	4.04
533.755	4.06
534.099	4.06
534.444	4.05
534.788	4.04
535.133	4.05
535.477	4.04
535.822	4.04
536.166	4.03
536.51	4.06
536.855	4.05
537.199	4.04
537.543	4.06
537.887	4.07
538.231	4.07
538.576	4.06
538.92	4.08
539.264	4.07
539.608	4.06
539.951	4.07
540.295	4.09
540.639	4.11
540.983	4.12
541.327	4.12
541.671	4.13
542.014	4.16
542.358	4.16
542.701	4.16
543.045	4.16
543.389	4.17
543.732	4.16
544.075	4.18
544.419	4.18
544.762	4.18
545.105	4.17
545.449	4.19
545.792	4.23
546.135	4.21
546.478	4.23
546.821	4.25
547.165	4.24
547.508	4.24
547.851	4.24
548.194	4.2
548.536	4.2
548.879	4.16
549.222	4.15
549.565	4.13
549.908	4.14
550.25	4.13
550.593	4.14
550.936	4.13
551.278	4.13
551.621	4.14
551.963	4.19
552.306	4.21
552.648	4.18
552.991	4.16
553.333	4.18
553.675	4.17
554.017	4.14
554.36	4.14
554.702	4.12
555.044	4.1
555.386	4.14
555.728	4.15
556.07	4.18
556.412	4.19
556.754	4.2
557.096	4.19
557.438	4.22
557.78	4.19
558.121	4.19
558.463	4.17
558.805	4.19
559.147	4.15
559.488	4.13
559.83	4.15
560.171	4.15
560.513	4.2
560.854	4.19
561.196	4.18
561.537	4.19
561.878	4.24
562.22	4.23
562.561	4.24
562.902	4.24
563.243	4.24
563.584	4.25
563.925	4.28
564.266	4.26
564.607	4.27
564.948	4.32
565.289	4.36
565.63	4.37
565.971	4.39
566.312	4.4
566.653	4.41
566.993	4.37
567.334	4.36
567.675	4.32
568.015	4.31
568.356	4.33
568.696	4.31
569.037	4.28
569.377	4.29
569.718	4.27
570.058	4.27
570.398	4.29
570.739	4.25
571.079	4.24
571.419	4.27
571.759	4.24
572.099	4.21
572.439	4.19
572.779	4.2
573.119	4.16
573.459	4.14
573.799	4.12
574.139	4.15
574.479	4.19
574.819	4.22
575.158	4.24
575.498	4.25
575.838	4.27
576.177	4.26
576.517	4.28
576.856	4.29
577.196	4.32
577.535	4.34
577.875	4.36
578.214	4.34
578.553	4.32
578.893	4.35
579.232	4.35
579.571	4.36
579.91	4.34
580.25	4.36
580.589	4.38
580.928	4.41
581.267	4.39
581.606	4.36
581.945	4.32
582.283	4.32
582.622	4.33
582.961	4.33
583.3	4.38
583.639	4.37
583.977	4.39
584.316	4.38
584.654	4.36
584.993	4.32
585.332	4.35
585.67	4.37
586.008	4.39
586.347	4.43
586.685	4.43
587.024	4.42
587.362	4.4
587.7	4.41
588.038	4.43
588.376	4.5
588.715	4.49
589.053	4.49
589.391	4.45
589.729	4.48
590.067	4.48
590.404	4.42
590.742	4.43
591.08	4.43
591.418	4.49
591.756	4.47
592.093	4.49
592.431	4.52
592.769	4.5
593.106	4.44
593.444	4.39
593.781	4.36
594.119	4.38
594.456	4.4
594.793	4.38
595.131	4.35
595.468	4.32
595.805	4.38
596.143	4.41
596.48	4.42
596.817	4.37
597.154	4.39
597.491	4.42
597.828	4.41
598.165	4.42
598.502	4.35
598.839	4.37
599.176	4.38
599.512	4.34
599.849	4.37
600.186	4.39
600.523	4.46
600.859	4.48
601.196	4.5
601.532	4.5
601.869	4.52
602.205	4.53
602.542	4.52
602.878	4.49
603.215	4.52
603.551	4.53
603.887	4.54
604.223	4.5
604.56	4.52
604.896	4.57
605.232	4.52
605.568	4.5
605.904	4.51
606.24	4.54
606.576	4.57
606.912	4.53
607.248	4.55
607.583	4.54
607.919	4.55
608.255	4.57
608.591	4.58
608.926	4.54
609.262	4.53
609.597	4.53
609.933	4.54
610.268	4.5
610.604	4.5
610.939	4.5
611.275	4.55
611.61	4.52
611.945	4.5
612.281	4.55
612.616	4.61
612.951	4.63
613.286	4.61
613.621	4.61
613.956	4.66
614.291	4.7
614.626	4.7
614.961	4.68
615.296	4.7
615.631	4.74
615.966	4.82
616.3	4.88
616.635	4.95
616.97	4.97
617.304	4.94
617.639	4.97
617.973	4.97
618.308	5
618.642	5.03
618.977	4.97
619.311	4.97
619.646	4.94
619.98	4.93
620.314	4.95
620.648	4.88
620.983	4.88
621.317	4.86
621.651	4.87
621.985	4.9
622.319	4.87
622.653	4.85
622.987	4.82
623.321	4.8
623.655	4.72
623.988	4.71
624.322	4.72
624.656	4.7
624.99	4.68
625.323	4.67
625.657	4.69
625.99	4.71
626.324	4.67
626.657	4.68
626.991	4.67
627.324	4.63
627.658	4.71
627.991	4.72
628.324	4.74
628.657	4.72
628.991	4.67
629.324	4.69
629.657	4.69
629.99	4.63
630.323	4.63
630.656	4.61
630.989	4.58
631.322	4.59
631.655	4.59
631.987	4.65
632.32	4.65
632.653	4.64
632.986	4.62
633.318	4.65
633.651	4.65
633.984	4.67
634.316	4.68
634.649	4.64
634.981	4.63
635.313	4.66
635.646	4.72
635.978	4.84
636.31	4.84
636.643	4.82
636.975	4.88
637.307	4.88
637.639	4.98
637.971	5.02
638.303	5
638.635	4.97
638.967	4.95
639.299	4.94
639.631	4.96
639.963	4.99
640.295	5.02
640.626	5
640.958	4.98
641.29	5.05
641.621	5.05
641.953	5.04
642.285	5.02
642.616	5.04
642.948	4.98
643.279	5.01
643.61	5.06
643.942	5.09
644.273	5.13
644.604	5.03
644.936	5.06
645.267	5.07
645.598	5.18
645.929	5.2
646.26	5.19
646.591	5.21
646.922	5.2
647.253	5.12
647.584	5.13
647.915	5.17
648.245	5.11
648.576	5.1
648.907	5.14
649.238	5.04
649.568	5.04
649.899	5.05
650.229	5.01
650.56	4.92
650.89	4.96
651.221	4.93
651.551	4.96
651.882	4.93
652.212	5
652.542	4.98
652.872	4.92
653.203	4.87
653.533	4.86
653.863	4.88
654.193	4.9
654.523	4.95
654.853	4.98
655.183	5.01
655.513	5.07
655.843	5.09
656.172	5.18
656.502	5.06
656.832	5.05
657.162	5.02
657.491	5.09
657.821	4.98
658.15	5.04
658.48	5.07
658.809	5.06
659.139	5.03
659.468	5.05
659.798	5.1
660.127	5.14
660.456	5.08
660.785	5.15
661.115	5.16
661.444	5.21
661.773	5.24
662.102	5.15
662.431	5.13
662.76	5.08
663.089	5.08
663.418	5.18
663.747	5.19
664.076	5.27
664.404	5.29
664.733	5.41
665.062	5.41
665.39	5.42
665.719	5.4
666.048	5.36
666.376	5.38
666.705	5.36
667.033	5.38
667.362	5.47
667.69	5.43
668.018	5.51
668.347	5.42
668.675	5.33
669.003	5.45
669.331	5.4
669.659	5.38
669.987	5.47
670.315	5.47
670.643	5.41
670.971	5.41
671.299	5.45
671.627	5.45
671.955	5.45
672.283	5.42
672.61	5.45
672.938	5.53
673.266	5.47
673.593	5.46
673.921	5.51
674.249	5.45
674.576	5.5
674.904	5.41
675.231	5.42
675.558	5.52
675.886	5.61
676.213	5.66
676.54	5.76
676.867	5.67
677.195	5.74
677.522	5.76
677.849	5.74
678.176	5.73
678.503	5.66
678.83	5.63
679.157	5.66
679.484	5.68
679.81	5.58
