Data from MVZ_BU165823_Reflection_00012.txt Node
Date: Tue Nov 19 12:10:37 EST 2019
User: vgr7
Spectrometer: USB2G7710
Scans to average: 3
Trigger mode: 4
Integration Time (sec): 2.000000E-2
Electric dark correction enabled: true
Boxcar width: 10
XAxis mode: Wavelengths
Number of Pixels in Spectrum: 2048
>>>>>Begin Spectral Data<<<<<
177.721	17.37
178.105	60.83
178.488	44
178.871	101.65
179.254	82.98
179.636	12.56
180.019	-59.32
180.402	325
180.785	-211.48
181.168	-89.42
181.55	-166.09
181.933	-55.99
182.316	-119.65
182.698	-81.82
183.081	-45.99
183.463	-497.94
183.846	-716.33
184.228	-15.3
184.611	20.9
184.993	19.8
185.376	12.93
185.758	20.53
186.14	25.6
186.522	24.91
186.904	43.08
187.287	31.9
187.669	22.97
188.051	20.54
188.433	20.98
188.815	9.66
189.197	-6.96
189.579	-8.26
189.961	-13.67
190.342	-11.22
190.724	-4.57
191.106	-6
191.488	0.55
191.869	0.43
192.251	-12.6
192.633	1.49
193.014	5.31
193.396	10.26
193.777	0.19
194.159	10.75
194.54	20.03
194.922	-5.21
195.303	-21.29
195.684	-62.52
196.065	-76.02
196.447	1.33
196.828	-13.89
197.209	23.38
197.59	22.43
197.971	40.46
198.352	41.45
198.733	41.47
199.114	27.31
199.495	60.09
199.876	52.97
200.257	98.83
200.638	22.09
201.018	-12.49
201.399	-30.76
201.78	-14.86
202.16	-36.42
202.541	-45.33
202.922	-35.64
203.302	-27.59
203.683	-19.86
204.063	-31.34
204.444	-40.85
204.824	-26.26
205.204	-12.63
205.585	-20.87
205.965	-26.24
206.345	-38.61
206.725	-30.48
207.106	-36.67
207.486	-41.77
207.866	-43.1
208.246	-41.37
208.626	-37.48
209.006	-24.16
209.386	-17.22
209.766	-10.82
210.145	-6.5
210.525	-11.39
210.905	3.63
211.285	3.81
211.664	0.59
212.044	14.26
212.424	2.69
212.803	-7.7
213.183	-23.54
213.562	-31.76
213.942	-27.2
214.321	-23.12
214.701	-32.83
215.08	-29.19
215.459	-13.6
215.838	-14.03
216.218	-1.62
216.597	25.7
216.976	9.94
217.355	11.87
217.734	0.95
218.113	-9.13
218.492	-15.24
218.871	-40.33
219.25	-32.25
219.629	-26.53
220.008	-26.53
220.387	-7.17
220.766	21.16
221.144	34.56
221.523	46.25
221.902	43.04
222.28	40.95
222.659	24.7
223.037	38.82
223.416	28.07
223.794	22.31
224.173	20.86
224.551	17.77
224.929	14.53
225.308	14.13
225.686	8.15
226.064	6.14
226.442	11.62
226.821	13.87
227.199	15.42
227.577	18.24
227.955	18.18
228.333	14.73
228.711	11.25
229.089	10.93
229.467	9.67
229.845	8.66
230.222	10.14
230.6	12.24
230.978	10.08
231.356	6.48
231.733	6.29
232.111	4.64
232.488	3.44
232.866	6.3
233.243	6.51
233.621	8.38
233.998	9.57
234.376	7.08
234.753	5.85
235.13	4.7
235.508	2.27
235.885	2.25
236.262	2.24
236.639	2.09
237.016	2.34
237.393	3.16
237.77	3.5
238.147	3.16
238.524	3
238.901	2.68
239.278	2.6
239.655	2.89
240.032	2.42
240.409	1.68
240.785	2.42
241.162	1.45
241.539	1.09
241.915	1.28
242.292	2.1
242.668	2.57
243.045	2.78
243.421	2.74
243.798	3.02
244.174	3.05
244.551	3.14
244.927	2.83
245.303	2.73
245.679	2.94
246.056	2.87
246.432	2.8
246.808	2.94
247.184	3.12
247.56	3.11
247.936	3.56
248.312	3.8
248.688	3.59
249.064	3.67
249.44	3.88
249.815	3.69
250.191	3.49
250.567	3.55
250.943	3.44
251.318	3.58
251.694	3.49
252.069	3.61
252.445	3.68
252.82	4.07
253.196	4.2
253.571	4.21
253.947	4.26
254.322	4.24
254.697	4.4
255.073	4.23
255.448	3.93
255.823	3.59
256.198	3.65
256.573	3.44
256.948	3.73
257.323	3.59
257.698	3.66
258.073	3.61
258.448	3.43
258.823	3.38
259.198	3.28
259.573	3
259.948	2.99
260.322	2.94
260.697	2.81
261.072	2.78
261.446	2.81
261.821	2.82
262.195	2.89
262.57	2.65
262.944	2.49
263.319	2.75
263.693	2.78
264.067	2.61
264.442	2.71
264.816	2.48
265.19	2.47
265.564	2.52
265.938	2.64
266.313	2.38
266.687	2.3
267.061	2.33
267.435	2.58
267.809	2.58
268.183	2.6
268.556	2.61
268.93	2.51
269.304	2.45
269.678	2.5
270.051	2.66
270.425	2.67
270.799	2.72
271.172	2.73
271.546	2.62
271.919	2.62
272.293	2.67
272.666	2.86
273.04	2.83
273.413	2.84
273.787	2.72
274.16	2.85
274.533	2.97
274.906	3.02
275.279	2.87
275.653	2.94
276.026	3.03
276.399	2.89
276.772	2.84
277.145	2.75
277.518	2.66
277.891	2.52
278.263	2.61
278.636	2.71
279.009	2.48
279.382	2.37
279.755	2.47
280.127	2.42
280.5	2.24
280.872	2.4
281.245	2.46
281.617	2.58
281.99	2.58
282.362	2.33
282.735	2.33
283.107	2.31
283.479	2.35
283.852	2.29
284.224	2.46
284.596	2.58
284.968	2.46
285.34	2.46
285.713	2.58
286.085	2.68
286.457	2.61
286.829	2.55
287.201	2.72
287.572	2.81
287.944	2.84
288.316	2.96
288.688	2.91
289.06	2.94
289.431	3.04
289.803	3.12
290.175	3.32
290.546	3.34
290.918	3.42
291.289	3.29
291.661	3.23
292.032	3.2
292.403	3.28
292.775	3.54
293.146	3.59
293.517	3.63
293.889	3.54
294.26	3.55
294.631	3.68
295.002	3.65
295.373	3.41
295.744	3.38
296.115	3.33
296.486	3.51
296.857	3.34
297.228	3.14
297.599	2.97
297.97	3.18
298.34	3.18
298.711	3.2
299.082	3.35
299.452	3.37
299.823	3.33
300.194	3.36
300.564	3.29
300.935	3.38
301.305	3.21
301.676	3.17
302.046	3.24
302.416	3.4
302.787	3.42
303.157	3.63
303.527	3.79
303.897	3.8
304.267	3.8
304.637	4
305.008	4.14
305.378	4.47
305.748	4.24
306.117	4.17
306.487	4.31
306.857	4.33
307.227	4.49
307.597	4.48
307.967	4.39
308.336	4.38
308.706	4.43
309.076	4.46
309.445	4.63
309.815	4.73
310.184	4.58
310.554	4.35
310.923	4.33
311.293	4.27
311.662	4.4
312.031	4.11
312.401	4.09
312.77	4.17
313.139	4.07
313.508	4.22
313.877	4.32
314.246	4.33
314.616	4.38
314.985	4.32
315.353	4.48
315.722	4.64
316.091	4.81
316.46	4.78
316.829	4.98
317.198	4.9
317.567	5.03
317.935	5.27
318.304	5.69
318.672	5.87
319.041	5.93
319.41	5.89
319.778	6.09
320.147	6.08
320.515	5.98
320.883	6.02
321.252	5.88
321.62	5.82
321.988	5.8
322.357	5.76
322.725	5.85
323.093	5.87
323.461	5.97
323.829	5.93
324.197	6.01
324.565	6.05
324.933	6.19
325.301	6.13
325.669	5.98
326.037	5.88
326.405	5.78
326.772	5.77
327.14	5.77
327.508	5.88
327.875	5.96
328.243	6.07
328.61	6.02
328.978	6.09
329.346	6.21
329.713	6.34
330.08	6.41
330.448	6.41
330.815	6.47
331.182	6.31
331.55	6.43
331.917	6.32
332.284	6.28
332.651	6.22
333.018	6.3
333.385	6.37
333.752	6.47
334.119	6.49
334.486	6.52
334.853	6.52
335.22	6.44
335.587	6.56
335.954	6.64
336.32	6.7
336.687	6.81
337.054	6.78
337.42	6.67
337.787	6.6
338.153	6.67
338.52	6.73
338.886	6.83
339.253	6.71
339.619	6.81
339.986	6.81
340.352	6.89
340.718	6.88
341.084	6.98
341.451	7.11
341.817	7.21
342.183	7.12
342.549	7.25
342.915	7.3
343.281	7.27
343.647	7.25
344.013	7.3
344.379	7.25
344.745	7.26
345.11	7.35
345.476	7.43
345.842	7.37
346.208	7.3
346.573	7.29
346.939	7.26
347.304	7.37
347.67	7.39
348.035	7.47
348.401	7.47
348.766	7.41
349.132	7.32
349.497	7.28
349.862	7.4
350.228	7.27
350.593	7.36
350.958	7.44
351.323	7.31
351.688	7.34
352.053	7.38
352.418	7.35
352.783	7.3
353.148	7.37
353.513	7.36
353.878	7.34
354.243	7.3
354.608	7.34
354.972	7.25
355.337	7.25
355.702	7.07
356.066	7.02
356.431	7.02
356.795	6.98
357.16	6.99
357.524	6.92
357.889	6.88
358.253	6.77
358.618	6.67
358.982	6.63
359.346	6.66
359.71	6.56
360.075	6.55
360.439	6.62
360.803	6.53
361.167	6.57
361.531	6.57
361.895	6.56
362.259	6.56
362.623	6.53
362.987	6.5
363.351	6.54
363.714	6.51
364.078	6.42
364.442	6.38
364.806	6.4
365.169	6.42
365.533	6.47
365.896	6.49
366.26	6.43
366.623	6.48
366.987	6.41
367.35	6.46
367.714	6.47
368.077	6.37
368.44	6.38
368.803	6.31
369.167	6.2
369.53	6.17
369.893	6.14
370.256	6.11
370.619	6.02
370.982	5.93
371.345	5.94
371.708	5.99
372.071	5.99
372.434	5.83
372.797	5.8
373.159	5.73
373.522	5.64
373.885	5.62
374.247	5.53
374.61	5.54
374.973	5.45
375.335	5.41
375.698	5.21
376.06	5.13
376.423	5.12
376.785	5.25
377.147	5.18
377.51	5.09
377.872	5.08
378.234	5.07
378.596	5.07
378.958	5.01
379.321	4.91
379.683	4.84
380.045	4.85
380.407	4.82
380.769	4.78
381.13	4.8
381.492	4.74
381.854	4.77
382.216	4.74
382.578	4.7
382.939	4.67
383.301	4.73
383.663	4.76
384.024	4.69
384.386	4.54
384.747	4.49
385.109	4.47
385.47	4.46
385.832	4.43
386.193	4.41
386.554	4.29
386.916	4.3
387.277	4.29
387.638	4.26
387.999	4.21
388.36	4.18
388.721	4.13
389.082	4.16
389.443	4.09
389.804	4.1
390.165	4.11
390.526	4.08
390.887	4.08
391.248	4.01
391.609	4.01
391.969	4
392.33	4
392.691	3.94
393.051	3.87
393.412	3.9
393.772	3.88
394.133	3.93
394.493	3.85
394.854	3.82
395.214	3.78
395.574	3.77
395.935	3.76
396.295	3.74
396.655	3.7
397.015	3.73
397.376	3.61
397.736	3.52
398.096	3.52
398.456	3.47
398.816	3.46
399.176	3.38
399.535	3.38
399.895	3.34
400.255	3.38
400.615	3.34
400.975	3.26
401.334	3.27
401.694	3.24
402.054	3.27
402.413	3.25
402.773	3.29
403.132	3.27
403.492	3.25
403.851	3.24
404.211	3.24
404.57	3.23
404.929	3.2
405.288	3.21
405.648	3.19
406.007	3.16
406.366	3.15
406.725	3.17
407.084	3.16
407.443	3.15
407.802	3.12
408.161	3.14
408.52	3.14
408.879	3.13
409.238	3.12
409.596	3.12
409.955	3.11
410.314	3.07
410.673	3.06
411.031	3.01
411.39	2.99
411.748	2.96
412.107	2.92
412.465	2.97
412.824	2.97
413.182	2.95
413.54	2.96
413.899	2.95
414.257	2.92
414.615	2.87
414.974	2.9
415.332	2.92
415.69	2.91
416.048	2.9
416.406	2.87
416.764	2.84
417.122	2.83
417.48	2.81
417.838	2.82
418.195	2.76
418.553	2.77
418.911	2.76
419.269	2.76
419.626	2.76
419.984	2.73
420.342	2.73
420.699	2.72
421.057	2.71
421.414	2.69
421.772	2.69
422.129	2.7
422.486	2.67
422.844	2.66
423.201	2.67
423.558	2.67
423.915	2.66
424.273	2.66
424.63	2.67
424.987	2.66
425.344	2.66
425.701	2.68
426.058	2.69
426.415	2.69
426.772	2.68
427.128	2.66
427.485	2.66
427.842	2.64
428.199	2.66
428.555	2.67
428.912	2.69
429.269	2.67
429.625	2.63
429.982	2.62
430.338	2.61
430.695	2.57
431.051	2.56
431.407	2.57
431.764	2.56
432.12	2.52
432.476	2.56
432.832	2.56
433.189	2.54
433.545	2.55
433.901	2.56
434.257	2.56
434.613	2.56
434.969	2.56
435.325	2.56
435.681	2.55
436.036	2.56
436.392	2.54
436.748	2.55
437.104	2.57
437.459	2.59
437.815	2.61
438.171	2.61
438.526	2.62
438.882	2.64
439.237	2.64
439.593	2.66
439.948	2.63
440.304	2.62
440.659	2.63
441.014	2.62
441.369	2.63
441.725	2.64
442.08	2.64
442.435	2.64
442.79	2.64
443.145	2.63
443.5	2.63
443.855	2.63
444.21	2.64
444.565	2.65
444.92	2.65
445.275	2.63
445.629	2.64
445.984	2.61
446.339	2.6
446.693	2.62
447.048	2.59
447.403	2.59
447.757	2.6
448.112	2.61
448.466	2.6
448.82	2.58
449.175	2.57
449.529	2.58
449.883	2.57
450.238	2.58
450.592	2.59
450.946	2.58
451.3	2.57
451.654	2.57
452.008	2.56
452.362	2.56
452.716	2.57
453.07	2.56
453.424	2.58
453.778	2.57
454.132	2.54
454.486	2.55
454.839	2.56
455.193	2.55
455.547	2.56
455.9	2.55
456.254	2.56
456.607	2.58
456.961	2.56
457.314	2.55
457.668	2.54
458.021	2.53
458.375	2.54
458.728	2.54
459.081	2.54
459.434	2.52
459.787	2.51
460.141	2.51
460.494	2.52
460.847	2.53
461.2	2.54
461.553	2.56
461.906	2.58
462.259	2.55
462.611	2.56
462.964	2.55
463.317	2.55
463.67	2.56
464.022	2.55
464.375	2.56
464.728	2.56
465.08	2.58
465.433	2.6
465.785	2.6
466.138	2.62
466.49	2.63
466.843	2.65
467.195	2.68
467.547	2.67
467.899	2.68
468.252	2.67
468.604	2.67
468.956	2.67
469.308	2.64
469.66	2.65
470.012	2.64
470.364	2.65
470.716	2.68
471.068	2.67
471.42	2.7
471.772	2.69
472.123	2.71
472.475	2.72
472.827	2.73
473.178	2.74
473.53	2.73
473.882	2.72
474.233	2.72
474.585	2.7
474.936	2.7
475.288	2.69
475.639	2.69
475.99	2.69
476.342	2.7
476.693	2.71
477.044	2.72
477.395	2.71
477.746	2.69
478.097	2.67
478.448	2.67
478.8	2.66
479.15	2.66
479.501	2.65
479.852	2.63
480.203	2.62
480.554	2.62
480.905	2.62
481.255	2.62
481.606	2.64
481.957	2.64
482.307	2.65
482.658	2.65
483.009	2.65
483.359	2.64
483.709	2.64
484.06	2.65
484.41	2.65
484.761	2.66
485.111	2.68
485.461	2.68
485.811	2.68
486.162	2.68
486.512	2.68
486.862	2.69
487.212	2.69
487.562	2.69
487.912	2.69
488.262	2.69
488.612	2.7
488.961	2.68
489.311	2.68
489.661	2.68
490.011	2.69
490.36	2.69
490.71	2.69
491.06	2.69
491.409	2.67
491.759	2.68
492.108	2.68
492.458	2.66
492.807	2.66
493.157	2.67
493.506	2.66
493.855	2.67
494.204	2.66
494.554	2.68
494.903	2.68
495.252	2.69
495.601	2.71
495.95	2.71
496.299	2.75
496.648	2.78
496.997	2.78
497.346	2.79
497.695	2.81
498.043	2.86
498.392	2.86
498.741	2.89
499.09	2.9
499.438	2.93
499.787	2.96
500.135	3.01
500.484	3.05
500.832	3.06
501.181	3.09
501.529	3.15
501.878	3.19
502.226	3.2
502.574	3.22
502.923	3.25
503.271	3.28
503.619	3.3
503.967	3.31
504.315	3.37
504.663	3.38
505.011	3.39
505.359	3.39
505.707	3.41
506.055	3.45
506.403	3.49
506.751	3.51
507.098	3.56
507.446	3.57
507.794	3.6
508.141	3.63
508.489	3.67
508.837	3.7
509.184	3.72
509.531	3.8
509.879	3.83
510.226	3.88
510.574	3.91
510.921	3.94
511.268	4
511.616	4.05
511.963	4.11
512.31	4.19
512.657	4.27
513.004	4.35
513.351	4.42
513.698	4.48
514.045	4.56
514.392	4.64
514.739	4.74
515.086	4.82
515.432	4.91
515.779	5
516.126	5.09
516.473	5.18
516.819	5.23
517.166	5.33
517.512	5.4
517.859	5.49
518.205	5.55
518.552	5.62
518.898	5.67
519.245	5.74
519.591	5.84
519.937	5.93
520.283	6.02
520.629	6.08
520.976	6.16
521.322	6.23
521.668	6.31
522.014	6.37
522.36	6.46
522.706	6.54
523.052	6.62
523.398	6.74
523.743	6.84
524.089	6.95
524.435	7.03
524.781	7.16
525.126	7.27
525.472	7.38
525.817	7.44
526.163	7.54
526.509	7.63
526.854	7.69
527.199	7.73
527.545	7.78
527.89	7.85
528.235	7.92
528.581	8
528.926	8.07
529.271	8.15
529.616	8.23
529.961	8.32
530.306	8.39
530.651	8.46
530.996	8.55
531.341	8.65
531.686	8.76
532.031	8.84
532.376	8.93
532.721	9.02
533.065	9.14
533.41	9.23
533.755	9.33
534.099	9.44
534.444	9.56
534.788	9.68
535.133	9.78
535.477	9.9
535.822	10.01
536.166	10.13
536.51	10.26
536.855	10.4
537.199	10.55
537.543	10.71
537.887	10.87
538.231	11
538.576	11.15
538.92	11.29
539.264	11.45
539.608	11.56
539.951	11.7
540.295	11.81
540.639	11.93
540.983	12.04
541.327	12.2
541.671	12.34
542.014	12.48
542.358	12.61
542.701	12.73
543.045	12.86
543.389	13.02
543.732	13.16
544.075	13.25
544.419	13.37
544.762	13.51
545.105	13.65
545.449	13.83
545.792	14.01
546.135	14.16
546.478	14.31
546.821	14.52
547.165	14.71
547.508	14.94
547.851	15.17
548.194	15.37
548.536	15.54
548.879	15.7
549.222	15.91
549.565	16.12
549.908	16.32
550.25	16.52
550.593	16.7
550.936	16.92
551.278	17.22
551.621	17.49
551.963	17.74
552.306	18.02
552.648	18.21
552.991	18.36
553.333	18.63
553.675	18.86
554.017	19.05
554.36	19.27
554.702	19.46
555.044	19.7
555.386	19.95
555.728	20.17
556.07	20.42
556.412	20.62
556.754	20.8
557.096	21.08
557.438	21.34
557.78	21.57
558.121	21.81
558.463	22.03
558.805	22.25
559.147	22.5
559.488	22.68
559.83	22.95
560.171	23.21
560.513	23.45
560.854	23.71
561.196	23.97
561.537	24.27
561.878	24.51
562.22	24.73
562.561	24.95
562.902	25.18
563.243	25.42
563.584	25.68
563.925	25.93
564.266	26.17
564.607	26.41
564.948	26.71
565.289	26.96
565.63	27.2
565.971	27.41
566.312	27.57
566.653	27.85
566.993	28.08
567.334	28.29
567.675	28.49
568.015	28.69
568.356	28.94
568.696	29.14
569.037	29.38
569.377	29.64
569.718	29.89
570.058	30.13
570.398	30.39
570.739	30.58
571.079	30.85
571.419	31.01
571.759	31.21
572.099	31.39
572.439	31.53
572.779	31.71
573.119	31.91
573.459	32.11
573.799	32.26
574.139	32.4
574.479	32.58
574.819	32.77
575.158	33.01
575.498	33.22
575.838	33.4
576.177	33.51
576.517	33.64
576.856	33.77
577.196	33.94
577.535	34.02
577.875	34.23
578.214	34.39
578.553	34.58
578.893	34.78
579.232	34.96
579.571	35.21
579.91	35.39
580.25	35.52
580.589	35.71
580.928	35.91
581.267	36.15
581.606	36.31
581.945	36.5
582.283	36.57
582.622	36.68
582.961	36.84
583.3	37.03
583.639	37.19
583.977	37.36
584.316	37.47
584.654	37.77
584.993	37.92
585.332	38.07
585.67	38.27
586.008	38.42
586.347	38.52
586.685	38.59
587.024	38.75
587.362	38.85
587.7	38.97
588.038	39.03
588.376	39.13
588.715	39.27
589.053	39.39
589.391	39.54
589.729	39.64
590.067	39.72
590.404	39.89
590.742	40.06
591.08	40.23
591.418	40.33
591.756	40.44
592.093	40.5
592.431	40.65
592.769	40.76
593.106	40.87
593.444	41.02
593.781	41.19
594.119	41.28
594.456	41.45
594.793	41.55
595.131	41.74
595.468	41.88
595.805	41.95
596.143	42.04
596.48	42.11
596.817	42.25
597.154	42.35
597.491	42.42
597.828	42.44
598.165	42.5
598.502	42.66
598.839	42.74
599.176	42.93
599.512	43.01
599.849	43.15
600.186	43.21
600.523	43.32
600.859	43.37
601.196	43.46
601.532	43.61
601.869	43.73
602.205	43.82
602.542	43.91
602.878	44.07
603.215	44.18
603.551	44.27
603.887	44.39
604.223	44.43
604.56	44.5
604.896	44.61
605.232	44.71
605.568	44.83
605.904	44.85
606.24	44.86
606.576	44.92
606.912	44.94
607.248	44.98
607.583	45.06
607.919	45.14
608.255	45.19
608.591	45.24
608.926	45.3
609.262	45.33
609.597	45.34
609.933	45.39
610.268	45.36
610.604	45.4
610.939	45.36
611.275	45.41
611.61	45.49
611.945	45.53
612.281	45.59
612.616	45.62
612.951	45.75
613.286	45.77
613.621	45.74
613.956	45.75
614.291	45.87
614.626	45.88
614.961	45.93
615.296	46.07
615.631	46.06
615.966	46.01
616.3	46.1
616.635	46.15
616.97	46.1
617.304	46.17
617.639	46.28
617.973	46.29
618.308	46.35
618.642	46.42
618.977	46.4
619.311	46.35
619.646	46.35
619.98	46.39
620.314	46.46
620.648	46.56
620.983	46.65
621.317	46.71
621.651	46.83
621.985	46.88
622.319	46.91
622.653	46.95
622.987	47.1
623.321	47.07
623.655	47.12
623.988	47.25
624.322	47.33
624.656	47.31
624.99	47.31
625.323	47.36
625.657	47.36
625.99	47.54
626.324	47.64
626.657	47.68
626.991	47.71
627.324	47.79
627.658	47.81
627.991	47.93
628.324	47.89
628.657	47.83
628.991	47.89
629.324	47.97
629.657	48.04
629.99	48.1
630.323	48.11
630.656	48.2
630.989	48.3
631.322	48.27
631.655	48.36
631.987	48.46
632.32	48.47
632.653	48.56
632.986	48.46
633.318	48.47
633.651	48.46
633.984	48.48
634.316	48.51
634.649	48.61
634.981	48.5
635.313	48.6
635.646	48.67
635.978	48.65
636.31	48.61
636.643	48.57
636.975	48.56
637.307	48.62
637.639	48.55
637.971	48.46
638.303	48.4
638.635	48.37
638.967	48.34
639.299	48.42
639.631	48.42
639.963	48.49
640.295	48.45
640.626	48.57
640.958	48.58
641.29	48.53
641.621	48.48
641.953	48.52
642.285	48.48
642.616	48.6
642.948	48.74
643.279	48.79
643.61	48.89
643.942	48.86
644.273	48.8
644.604	48.86
644.936	48.96
645.267	49.08
645.598	49.15
645.929	49.34
646.26	49.29
646.591	49.25
646.922	49.36
647.253	49.51
647.584	49.42
647.915	49.42
648.245	49.6
648.576	49.64
648.907	49.74
649.238	49.81
649.568	49.79
649.899	49.72
650.229	49.68
650.56	49.76
650.89	49.93
651.221	50.01
651.551	50.07
651.882	50
652.212	50.05
652.542	50.08
652.872	49.96
653.203	50.09
653.533	50.21
653.863	50.19
654.193	50.12
654.523	50.21
654.853	50.35
655.183	50.3
655.513	50.36
655.843	50.34
656.172	50.38
656.502	50.42
656.832	50.43
657.162	50.5
657.491	50.45
657.821	50.37
658.15	50.42
658.48	50.37
658.809	50.52
659.139	50.59
659.468	50.56
659.798	50.63
660.127	50.58
660.456	50.54
660.785	50.55
661.115	50.63
661.444	50.6
661.773	50.47
662.102	50.43
662.431	50.36
662.76	50.36
663.089	50.34
663.418	50.29
663.747	50.28
664.076	50.14
664.404	50.15
664.733	50.18
665.062	50.2
665.39	50.19
665.719	50.16
666.048	50.15
666.376	50.26
666.705	50.36
667.033	50.42
667.362	50.47
667.69	50.5
668.018	50.6
668.347	50.72
668.675	50.87
669.003	50.89
669.331	50.99
669.659	50.99
