Data from MVZ_BU34099_Reflection_00013.txt Node
Date: Tue Nov 19 12:15:45 EST 2019
User: vgr7
Spectrometer: USB2G7710
Scans to average: 3
Trigger mode: 4
Integration Time (sec): 2.000000E-2
Electric dark correction enabled: true
Boxcar width: 10
XAxis mode: Wavelengths
Number of Pixels in Spectrum: 2048
>>>>>Begin Spectral Data<<<<<
177.721	-90.66
178.105	-12.07
178.488	931.78
178.871	-71.7
179.254	281.82
179.636	-58.42
180.019	29.18
180.402	133.33
180.785	102.88
181.168	204.71
181.55	869.23
181.933	916.33
182.316	1588.37
182.698	304.42
183.081	428.36
183.463	4792.31
183.846	205.96
184.228	793.88
184.611	1792.31
184.993	-185.71
185.376	127.3
185.758	75.33
186.14	41.82
186.522	-97.22
186.904	-21.38
187.287	-1.75
187.669	-7.98
188.051	-1.11
188.433	-29.51
188.815	-41.59
189.197	-40.85
189.579	-15.14
189.961	-8.15
190.342	6.73
190.724	2.62
191.106	-16.78
191.488	-11.63
191.869	-12.84
192.251	-9.59
192.633	-15.65
193.014	-23.28
193.396	-42.59
193.777	-52.35
194.159	-38.95
194.54	-29.81
194.922	-41.21
195.303	-44.02
195.684	-47.17
196.065	-47.7
196.447	-42.96
196.828	-41.27
197.209	-37.42
197.59	-24.87
197.971	-24.03
198.352	-27.6
198.733	-14.18
199.114	-9.76
199.495	-6.45
199.876	-22.49
200.257	-25.46
200.638	-26.69
201.018	-33.86
201.399	-38.14
201.78	-20.93
202.16	-17.73
202.541	-7.26
202.922	-3.48
203.302	-14.9
203.683	-1.88
204.063	4.71
204.444	9.09
204.824	-14.99
205.204	-17.12
205.585	-19.1
205.965	-13.78
206.345	-5.7
206.725	-15.74
207.106	-5.26
207.486	-8.4
207.866	4.41
208.246	7.87
208.626	-8.42
209.006	3.15
209.386	16.06
209.766	7.58
210.145	11.13
210.525	-1.32
210.905	-1.59
211.285	2.26
211.664	-1.82
212.044	1.73
212.424	-2.95
212.803	16.97
213.183	13.95
213.562	13.59
213.942	9.4
214.321	3.25
214.701	-3.82
215.08	-12.23
215.459	-6.99
215.838	-19.48
216.218	-24.82
216.597	-1.9
216.976	-12.42
217.355	-18.67
217.734	-16.11
218.113	-11.03
218.492	-9.67
218.871	-5.26
219.25	1.94
219.629	16
220.008	5.27
220.387	26.32
220.766	17.75
221.144	27.05
221.523	16.85
221.902	8.34
222.28	11.6
222.659	16.31
223.037	18.94
223.416	14.62
223.794	18.39
224.173	17.53
224.551	17.93
224.929	15.99
225.308	19.65
225.686	11.59
226.064	7.02
226.442	9.29
226.821	10.01
227.199	7.22
227.577	5.77
227.955	8.49
228.333	6.1
228.711	3.19
229.089	1.51
229.467	3.1
229.845	6.3
230.222	8.35
230.6	6.9
230.978	6.04
231.356	7.03
231.733	5.24
232.111	5.89
232.488	5.77
232.866	8.04
233.243	5.33
233.621	7.43
233.998	9.03
234.376	8.28
234.753	7.45
235.13	7.21
235.508	7.08
235.885	7.24
236.262	8.22
236.639	7.52
237.016	7.96
237.393	7.52
237.77	6.42
238.147	5.54
238.524	6.06
238.901	6.23
239.278	5.78
239.655	5.39
240.032	4.76
240.409	4.41
240.785	3.8
241.162	4.71
241.539	4.5
241.915	4.2
242.292	4.18
242.668	4.5
243.045	4.84
243.421	4.74
243.798	4.37
244.174	4.46
244.551	4.5
244.927	4.1
245.303	3.94
245.679	4.38
246.056	4.42
246.432	4.41
246.808	4.5
247.184	4.18
247.56	4.04
247.936	4.29
248.312	4.4
248.688	4.36
249.064	4.17
249.44	4.14
249.815	4.28
250.191	4.37
250.567	4.16
250.943	4.14
251.318	4.06
251.694	4.3
252.069	4.23
252.445	4.27
252.82	4.73
253.196	4.68
253.571	4.34
253.947	4.46
254.322	4.23
254.697	4.02
255.073	3.91
255.448	4.33
255.823	4.2
256.198	4.12
256.573	4.29
256.948	4.35
257.323	4.55
257.698	4.52
258.073	4.41
258.448	4.39
258.823	4.11
259.198	4.15
259.573	3.87
259.948	3.83
260.322	3.81
260.697	3.68
261.072	3.8
261.446	3.88
261.821	3.73
262.195	3.75
262.57	3.78
262.944	4.08
263.319	4.08
263.693	4.11
264.067	4.08
264.442	3.93
264.816	3.79
265.19	3.55
265.564	3.48
265.938	3.39
266.313	3.26
266.687	3.36
267.061	3.35
267.435	3.55
267.809	3.35
268.183	3.27
268.556	3.08
268.93	3.27
269.304	3
269.678	3.01
270.051	3.04
270.425	2.85
270.799	2.62
271.172	2.58
271.546	2.51
271.919	2.57
272.293	2.74
272.666	2.77
273.04	2.83
273.413	2.7
273.787	2.82
274.16	2.92
274.533	3.08
274.906	3.04
275.279	2.85
275.653	3.08
276.026	3.28
276.399	3.4
276.772	3.2
277.145	3.38
277.518	3.23
277.891	3.28
278.263	3.36
278.636	3.61
279.009	3.68
279.382	3.69
279.755	3.71
280.127	3.58
280.5	3.56
280.872	3.65
281.245	3.79
281.617	3.7
281.99	3.72
282.362	3.59
282.735	3.65
283.107	3.69
283.479	3.6
283.852	3.48
284.224	3.53
284.596	3.55
284.968	3.62
285.34	3.79
285.713	3.85
286.085	3.89
286.457	3.69
286.829	3.72
287.201	3.75
287.572	3.77
287.944	3.81
288.316	3.92
288.688	3.79
289.06	3.67
289.431	3.73
289.803	3.75
290.175	3.78
290.546	3.71
290.918	3.8
291.289	3.71
291.661	3.8
292.032	3.79
292.403	3.74
292.775	3.76
293.146	3.71
293.517	3.6
293.889	3.5
294.26	3.68
294.631	3.64
295.002	3.75
295.373	3.59
295.744	3.71
296.115	3.72
296.486	3.81
296.857	3.93
297.228	3.87
297.599	3.77
297.97	3.9
298.34	3.97
298.711	4.01
299.082	4.08
299.452	4.11
299.823	4.15
300.194	4.32
300.564	4.28
300.935	4.35
301.305	4.42
301.676	4.44
302.046	4.53
302.416	4.52
302.787	4.41
303.157	4.6
303.527	4.58
303.897	4.53
304.267	4.56
304.637	4.57
305.008	4.72
305.378	4.91
305.748	4.85
306.117	4.87
306.487	5.04
306.857	5.11
307.227	5.3
307.597	5.44
307.967	5.31
308.336	5.22
308.706	5.23
309.076	5.39
309.445	5.6
309.815	5.52
310.184	5.58
310.554	5.74
310.923	5.79
311.293	5.83
311.662	5.85
312.031	5.96
312.401	6.02
312.77	6.04
313.139	5.99
313.508	5.87
313.877	5.92
314.246	5.81
314.616	5.81
314.985	5.58
315.353	5.57
315.722	5.85
316.091	6.04
316.46	6.05
316.829	6.08
317.198	6.08
317.567	6.14
317.935	6.23
318.304	6.3
318.672	6.31
319.041	6.38
319.41	6.44
319.778	6.45
320.147	6.49
320.515	6.47
320.883	6.59
321.252	6.81
321.62	6.98
321.988	6.96
322.357	7.03
322.725	7.15
323.093	7.07
323.461	6.89
323.829	6.92
324.197	6.95
324.565	6.92
324.933	6.95
325.301	7.03
325.669	6.95
326.037	6.82
326.405	6.88
326.772	6.82
327.14	6.79
327.508	6.73
327.875	6.59
328.243	6.59
328.61	6.56
328.978	6.57
329.346	6.45
329.713	6.54
330.08	6.41
330.448	6.41
330.815	6.49
331.182	6.59
331.55	6.56
331.917	6.74
332.284	6.6
332.651	6.66
333.018	6.57
333.385	6.72
333.752	6.72
334.119	6.63
334.486	6.72
334.853	6.74
335.22	6.85
335.587	7.03
335.954	7.03
336.32	7.04
336.687	7.03
337.054	7.17
337.42	7.05
337.787	7.22
338.153	7.21
338.52	7.34
338.886	7.38
339.253	7.43
339.619	7.38
339.986	7.43
340.352	7.4
340.718	7.37
341.084	7.27
341.451	7.33
341.817	7.37
342.183	7.4
342.549	7.43
342.915	7.48
343.281	7.48
343.647	7.45
344.013	7.52
344.379	7.43
344.745	7.47
345.11	7.51
345.476	7.57
345.842	7.58
346.208	7.51
346.573	7.44
346.939	7.38
347.304	7.43
347.67	7.52
348.035	7.42
348.401	7.53
348.766	7.55
349.132	7.57
349.497	7.71
349.862	7.6
350.228	7.68
350.593	7.5
350.958	7.66
351.323	7.68
351.688	7.62
352.053	7.72
352.418	7.64
352.783	7.65
353.148	7.64
353.513	7.67
353.878	7.61
354.243	7.63
354.608	7.71
354.972	7.71
355.337	7.73
355.702	7.78
356.066	7.79
356.431	7.79
356.795	7.9
357.16	7.76
357.524	7.77
357.889	7.64
358.253	7.65
358.618	7.49
358.982	7.46
359.346	7.47
359.71	7.41
360.075	7.39
360.439	7.41
360.803	7.38
361.167	7.36
361.531	7.38
361.895	7.39
362.259	7.31
362.623	7.25
362.987	7.19
363.351	7.19
363.714	7.14
364.078	7.1
364.442	7.01
364.806	7
365.169	6.99
365.533	7.05
365.896	7.05
366.26	6.98
366.623	6.98
366.987	6.94
367.35	6.98
367.714	6.97
368.077	6.96
368.44	6.92
368.803	6.87
369.167	6.81
369.53	6.73
369.893	6.74
370.256	6.7
370.619	6.69
370.982	6.56
371.345	6.55
371.708	6.56
372.071	6.49
372.434	6.43
372.797	6.4
373.159	6.36
373.522	6.35
373.885	6.35
374.247	6.29
374.61	6.23
374.973	6.24
375.335	6.24
375.698	6.11
376.06	6.05
376.423	6.02
376.785	6.04
377.147	6.03
377.51	5.94
377.872	5.9
378.234	5.87
378.596	5.89
378.958	5.83
379.321	5.73
379.683	5.74
380.045	5.76
380.407	5.72
380.769	5.67
381.13	5.61
381.492	5.58
381.854	5.59
382.216	5.68
382.578	5.59
382.939	5.46
383.301	5.46
383.663	5.45
384.024	5.42
384.386	5.35
384.747	5.26
385.109	5.25
385.47	5.21
385.832	5.19
386.193	5.17
386.554	5.17
386.916	5.11
387.277	5.01
387.638	4.96
387.999	4.92
388.36	4.94
388.721	4.92
389.082	4.89
389.443	4.85
389.804	4.79
390.165	4.77
390.526	4.77
390.887	4.79
391.248	4.76
391.609	4.76
391.969	4.72
392.33	4.71
392.691	4.69
393.051	4.69
393.412	4.65
393.772	4.6
394.133	4.57
394.493	4.56
394.854	4.57
395.214	4.55
395.574	4.54
395.935	4.45
396.295	4.44
396.655	4.41
397.015	4.39
397.376	4.32
397.736	4.26
398.096	4.24
398.456	4.19
398.816	4.11
399.176	4.03
399.535	4.02
399.895	3.99
400.255	3.97
400.615	3.93
400.975	3.9
401.334	3.87
401.694	3.85
402.054	3.85
402.413	3.82
402.773	3.78
403.132	3.72
403.492	3.72
403.851	3.68
404.211	3.67
404.57	3.63
404.929	3.61
405.288	3.58
405.648	3.55
406.007	3.52
406.366	3.56
406.725	3.58
407.084	3.57
407.443	3.57
407.802	3.54
408.161	3.52
408.52	3.54
408.879	3.54
409.238	3.53
409.596	3.51
409.955	3.5
410.314	3.5
410.673	3.53
411.031	3.52
411.39	3.52
411.748	3.54
412.107	3.53
412.465	3.52
412.824	3.55
413.182	3.54
413.54	3.57
413.899	3.57
414.257	3.56
414.615	3.55
414.974	3.54
415.332	3.55
415.69	3.53
416.048	3.51
416.406	3.48
416.764	3.46
417.122	3.43
417.48	3.41
417.838	3.39
418.195	3.36
418.553	3.35
418.911	3.32
419.269	3.3
419.626	3.3
419.984	3.28
420.342	3.26
420.699	3.25
421.057	3.23
421.414	3.2
421.772	3.18
422.129	3.16
422.486	3.14
422.844	3.13
423.201	3.12
423.558	3.1
423.915	3.12
424.273	3.1
424.63	3.11
424.987	3.1
425.344	3.1
425.701	3.09
426.058	3.08
426.415	3.07
426.772	3.03
427.128	3.03
427.485	3.02
427.842	3
428.199	3
428.555	2.98
428.912	2.96
429.269	2.95
429.625	2.96
429.982	2.97
430.338	2.96
430.695	2.94
431.051	2.94
431.407	2.91
431.764	2.93
432.12	2.92
432.476	2.9
432.832	2.91
433.189	2.92
433.545	2.92
433.901	2.91
434.257	2.92
434.613	2.93
434.969	2.92
435.325	2.93
435.681	2.93
436.036	2.93
436.392	2.93
436.748	2.94
437.104	2.95
437.459	2.94
437.815	2.94
438.171	2.94
438.526	2.95
438.882	2.94
439.237	2.93
439.593	2.93
439.948	2.96
440.304	2.95
440.659	2.95
441.014	2.94
441.369	2.93
441.725	2.95
442.08	2.92
442.435	2.92
442.79	2.9
443.145	2.88
443.5	2.88
443.855	2.87
444.21	2.86
444.565	2.87
444.92	2.87
445.275	2.88
445.629	2.88
445.984	2.87
446.339	2.87
446.693	2.86
447.048	2.84
447.403	2.83
447.757	2.81
448.112	2.82
448.466	2.82
448.82	2.83
449.175	2.81
449.529	2.8
449.883	2.8
450.238	2.83
450.592	2.83
450.946	2.82
451.3	2.83
451.654	2.83
452.008	2.8
452.362	2.79
452.716	2.77
453.07	2.77
453.424	2.76
453.778	2.77
454.132	2.76
454.486	2.78
454.839	2.78
455.193	2.79
455.547	2.77
455.9	2.77
456.254	2.74
456.607	2.73
456.961	2.75
457.314	2.76
457.668	2.77
458.021	2.77
458.375	2.76
458.728	2.76
459.081	2.76
459.434	2.74
459.787	2.74
460.141	2.75
460.494	2.76
460.847	2.75
461.2	2.74
461.553	2.75
461.906	2.75
462.259	2.74
462.611	2.75
462.964	2.74
463.317	2.75
463.67	2.78
464.022	2.8
464.375	2.81
464.728	2.82
465.08	2.81
465.433	2.83
465.785	2.84
466.138	2.87
466.49	2.89
466.843	2.92
467.195	2.93
467.547	2.92
467.899	2.95
468.252	2.96
468.604	2.99
468.956	3.01
469.308	2.99
469.66	3.01
470.012	3.01
470.364	3.01
470.716	3.01
471.068	3.01
471.42	3.02
471.772	3.03
472.123	3.04
472.475	3.04
472.827	3.04
473.178	3.05
473.53	3.04
473.882	3.02
474.233	3.03
474.585	3.05
474.936	3.09
475.288	3.07
475.639	3.07
475.99	3.03
476.342	3.04
476.693	3.04
477.044	3.03
477.395	3.04
477.746	3.04
478.097	3.03
478.448	3.03
478.8	3.02
479.15	3.02
479.501	3.02
479.852	3.01
480.203	3
480.554	3
480.905	3
481.255	3
481.606	2.99
481.957	2.98
482.307	2.97
482.658	2.96
483.009	2.96
483.359	2.97
483.709	2.96
484.06	2.97
484.41	2.97
484.761	2.96
485.111	2.97
485.461	2.97
485.811	2.96
486.162	2.96
486.512	2.96
486.862	2.96
487.212	2.97
487.562	2.96
487.912	2.96
488.262	2.95
488.612	2.97
488.961	2.96
489.311	2.96
489.661	2.97
490.011	2.98
490.36	2.98
490.71	2.98
491.06	2.98
491.409	2.98
491.759	2.99
492.108	3
492.458	3
492.807	3.01
493.157	3.04
493.506	3.05
493.855	3.06
494.204	3.06
494.554	3.07
494.903	3.09
495.252	3.11
495.601	3.12
495.95	3.14
496.299	3.16
496.648	3.18
496.997	3.2
497.346	3.24
497.695	3.26
498.043	3.29
498.392	3.33
498.741	3.37
499.09	3.38
499.438	3.43
499.787	3.46
500.135	3.48
500.484	3.51
500.832	3.53
501.181	3.58
501.529	3.61
501.878	3.63
502.226	3.69
502.574	3.73
502.923	3.76
503.271	3.79
503.619	3.82
503.967	3.85
504.315	3.86
504.663	3.89
505.011	3.93
505.359	3.97
505.707	4
506.055	4.04
506.403	4.08
506.751	4.11
507.098	4.16
507.446	4.2
507.794	4.25
508.141	4.32
508.489	4.36
508.837	4.41
509.184	4.48
509.531	4.52
509.879	4.58
510.226	4.63
510.574	4.66
510.921	4.72
511.268	4.8
511.616	4.87
511.963	4.91
512.31	4.96
512.657	5.01
513.004	5.08
513.351	5.13
513.698	5.2
514.045	5.27
514.392	5.34
514.739	5.41
515.086	5.45
515.432	5.5
515.779	5.58
516.126	5.64
516.473	5.68
516.819	5.74
517.166	5.79
517.512	5.83
517.859	5.9
518.205	5.93
518.552	5.97
518.898	6.03
519.245	6.09
519.591	6.15
519.937	6.19
520.283	6.25
520.629	6.31
520.976	6.35
521.322	6.4
521.668	6.46
522.014	6.53
522.36	6.59
522.706	6.66
523.052	6.73
523.398	6.81
523.743	6.9
524.089	7
524.435	7.07
524.781	7.17
525.126	7.25
525.472	7.33
525.817	7.38
526.163	7.44
526.509	7.49
526.854	7.53
527.199	7.6
527.545	7.66
527.89	7.71
528.235	7.78
528.581	7.84
528.926	7.9
529.271	7.96
529.616	8.03
529.961	8.09
530.306	8.14
530.651	8.21
530.996	8.28
531.341	8.36
531.686	8.44
532.031	8.52
532.376	8.61
532.721	8.71
533.065	8.79
533.41	8.88
533.755	9
534.099	9.11
534.444	9.22
534.788	9.3
535.133	9.4
535.477	9.53
535.822	9.62
536.166	9.74
536.51	9.86
536.855	10
537.199	10.16
537.543	10.35
537.887	10.51
538.231	10.67
538.576	10.83
538.92	10.97
539.264	11.11
539.608	11.26
539.951	11.38
540.295	11.52
540.639	11.67
540.983	11.79
541.327	11.92
541.671	12.04
542.014	12.18
542.358	12.32
542.701	12.45
543.045	12.61
543.389	12.76
543.732	12.91
544.075	13.08
544.419	13.22
544.762	13.32
545.105	13.49
545.449	13.64
545.792	13.83
546.135	14.05
546.478	14.23
546.821	14.43
547.165	14.68
547.508	14.93
547.851	15.14
548.194	15.36
548.536	15.59
548.879	15.85
549.222	16.1
549.565	16.36
549.908	16.59
550.25	16.85
550.593	17.1
550.936	17.37
551.278	17.61
551.621	17.87
551.963	18.21
552.306	18.44
552.648	18.73
552.991	18.98
553.333	19.22
553.675	19.52
554.017	19.78
554.36	20.03
554.702	20.27
555.044	20.53
555.386	20.77
555.728	21.03
556.07	21.26
556.412	21.51
556.754	21.79
557.096	22.06
557.438	22.33
557.78	22.6
558.121	22.84
558.463	23.08
558.805	23.33
559.147	23.56
559.488	23.84
559.83	24.09
560.171	24.33
560.513	24.57
560.854	24.79
561.196	25.01
561.537	25.3
561.878	25.61
562.22	25.92
562.561	26.2
562.902	26.43
563.243	26.69
563.584	26.93
563.925	27.2
564.266	27.42
564.607	27.63
564.948	27.86
565.289	28.1
565.63	28.36
565.971	28.64
566.312	28.85
566.653	29.04
566.993	29.25
567.334	29.49
567.675	29.74
568.015	29.98
568.356	30.19
568.696	30.37
569.037	30.58
569.377	30.75
569.718	30.92
570.058	31.16
570.398	31.37
570.739	31.58
571.079	31.77
571.419	31.99
571.759	32.23
572.099	32.41
572.439	32.57
572.779	32.73
573.119	32.91
573.459	33.09
573.799	33.29
574.139	33.5
574.479	33.66
574.819	33.81
575.158	34
575.498	34.13
575.838	34.3
576.177	34.43
576.517	34.59
576.856	34.82
577.196	35.02
577.535	35.19
577.875	35.29
578.214	35.42
578.553	35.54
578.893	35.66
579.232	35.89
579.571	36.08
579.91	36.24
580.25	36.4
580.589	36.61
580.928	36.77
581.267	36.83
581.606	36.96
581.945	37.09
582.283	37.2
582.622	37.4
582.961	37.53
583.3	37.69
583.639	37.85
583.977	37.94
584.316	38.05
584.654	38.18
584.993	38.4
585.332	38.59
585.67	38.7
586.008	38.85
586.347	38.94
586.685	39.08
587.024	39.25
587.362	39.33
587.7	39.43
588.038	39.54
588.376	39.78
588.715	39.93
589.053	40.04
589.391	40.18
589.729	40.25
590.067	40.33
590.404	40.39
590.742	40.55
591.08	40.63
591.418	40.7
591.756	40.82
592.093	40.87
592.431	40.94
592.769	41.11
593.106	41.22
593.444	41.28
593.781	41.37
594.119	41.48
594.456	41.57
594.793	41.69
595.131	41.8
595.468	41.81
595.805	41.85
596.143	41.91
596.48	41.88
596.817	41.94
597.154	42.06
597.491	42.17
597.828	42.2
598.165	42.29
598.502	42.33
598.839	42.37
599.176	42.5
599.512	42.52
599.849	42.54
600.186	42.58
600.523	42.64
600.859	42.71
601.196	42.71
601.532	42.85
601.869	42.88
602.205	42.82
602.542	42.82
602.878	42.87
603.215	42.97
603.551	43.09
603.887	43.11
604.223	43.13
604.56	43.09
604.896	43.16
605.232	43.21
605.568	43.33
605.904	43.41
606.24	43.51
606.576	43.56
606.912	43.68
607.248	43.71
607.583	43.78
607.919	43.83
608.255	43.84
608.591	43.84
608.926	43.92
609.262	44.04
609.597	44.13
609.933	44.18
610.268	44.16
610.604	44.25
610.939	44.39
611.275	44.43
611.61	44.59
611.945	44.62
612.281	44.66
612.616	44.62
612.951	44.64
613.286	44.61
613.621	44.73
613.956	44.74
614.291	44.8
614.626	44.83
614.961	44.91
615.296	45.07
615.631	45.12
615.966	45.13
616.3	45.22
616.635	45.28
616.97	45.36
617.304	45.43
617.639	45.45
617.973	45.48
618.308	45.57
618.642	45.6
618.977	45.68
619.311	45.71
619.646	45.84
619.98	45.86
620.314	45.85
620.648	45.95
620.983	45.98
621.317	46.1
621.651	46.13
621.985	46.1
622.319	46.08
622.653	46.11
622.987	46.2
623.321	46.19
623.655	46.23
623.988	46.25
624.322	46.32
624.656	46.33
624.99	46.29
625.323	46.3
625.657	46.25
625.99	46.22
626.324	46.35
626.657	46.29
626.991	46.4
627.324	46.39
627.658	46.38
627.991	46.48
628.324	46.49
628.657	46.54
628.991	46.62
629.324	46.59
629.657	46.67
629.99	46.67
630.323	46.68
630.656	46.74
630.989	46.81
631.322	46.87
631.655	46.93
631.987	47.04
632.32	47.08
632.653	47.16
632.986	47.15
633.318	47.05
633.651	47.1
633.984	47.11
634.316	47.21
634.649	47.19
634.981	47.14
635.313	47.22
635.646	47.21
635.978	47.27
636.31	47.33
636.643	47.24
636.975	47.22
637.307	47.36
637.639	47.38
637.971	47.42
638.303	47.35
638.635	47.39
638.967	47.44
639.299	47.47
639.631	47.49
639.963	47.48
640.295	47.54
640.626	47.58
640.958	47.55
641.29	47.6
641.621	47.56
641.953	47.62
642.285	47.56
642.616	47.58
642.948	47.59
643.279	47.66
643.61	47.69
643.942	47.75
644.273	47.67
644.604	47.72
644.936	47.71
645.267	47.78
645.598	47.67
645.929	47.74
646.26	47.7
646.591	47.77
646.922	47.84
647.253	47.9
647.584	48.06
647.915	48.07
648.245	48.04
648.576	48.2
648.907	48.2
649.238	48.17
649.568	48.13
649.899	48.19
650.229	48.12
650.56	48.21
650.89	48.23
651.221	48.25
651.551	48.21
651.882	48.16
652.212	48.12
652.542	48.22
652.872	48.17
653.203	48.2
653.533	48.23
653.863	48.28
654.193	48.25
654.523	48.12
654.853	48.18
655.183	48.28
655.513	48.22
655.843	48.33
656.172	48.34
656.502	48.38
656.832	48.33
657.162	48.48
657.491	48.44
657.821	48.38
658.15	48.43
658.48	48.46
658.809	48.53
659.139	48.6
659.468	48.56
659.798	48.64
660.127	48.61
660.456	48.55
660.785	48.53
661.115	48.48
661.444	48.56
661.773	48.54
662.102	48.49
662.431	48.58
662.76	48.44
663.089	48.39
663.418	48.44
663.747	48.39
664.076	48.35
664.404	48.34
664.733	48.34
665.062	48.32
665.39	48.24
665.719	48.27
666.048	48.25
666.376	48.33
666.705	48.26
667.033	48.31
667.362	48.45
667.69	48.48
668.018	48.49
668.347	48.42
668.675	48.4
669.003	48.46
669.331	48.53
669.659	48.75
669.987	48.91
