Data from MVZ_BU8942_Reflection_00007.txt Node
Date: Tue Nov 19 12:04:01 EST 2019
User: vgr7
Spectrometer: USB2G7710
Scans to average: 3
Trigger mode: 4
Integration Time (sec): 2.000000E-2
Electric dark correction enabled: true
Boxcar width: 10
XAxis mode: Wavelengths
Number of Pixels in Spectrum: 2048
>>>>>Begin Spectral Data<<<<<
177.721	107.45
178.105	145.45
178.488	46.63
178.871	542.86
179.254	-70
179.636	-60.58
180.019	127.23
180.402	-9.09
180.785	107
181.168	88.37
181.55	725
181.933	-25
182.316	-196.96
182.698	-183.45
183.081	-178.78
183.463	-232.64
183.846	-84.08
184.228	-147.76
184.611	-91.91
184.993	-40.79
185.376	-23.7
185.758	-19.76
186.14	-64.89
186.522	-228.39
186.904	-207.81
187.287	-113.13
187.669	-143.42
188.051	-123.68
188.433	-104.87
188.815	-122.95
189.197	-71.76
189.579	-37.38
189.961	-95.95
190.342	-58.72
190.724	-43.39
191.106	-25
191.488	-8.75
191.869	-8.99
192.251	-3.75
192.633	-13
193.014	-17.83
193.396	-21.2
193.777	-24.65
194.159	-27.28
194.54	-24.67
194.922	-39.97
195.303	-38.92
195.684	-32.42
196.065	-50.41
196.447	-43.93
196.828	-69.31
197.209	-67.49
197.59	-75.03
197.971	-71.34
198.352	-83.35
198.733	-167.19
199.114	-223.63
199.495	-368.15
199.876	-391.7
200.257	-367.93
200.638	-307.44
201.018	-442.94
201.399	-299.11
201.78	-261.24
202.16	-223.98
202.541	-236.65
202.922	-316.06
203.302	-250.37
203.683	-263.13
204.063	-292.86
204.444	-308.81
204.824	-276.35
205.204	-245.34
205.585	-195.32
205.965	-320.38
206.345	-260.8
206.725	-111.9
207.106	-75.03
207.486	-81.14
207.866	-112.7
208.246	-92.7
208.626	-148.86
209.006	-108.89
209.386	-173.63
209.766	-271.95
210.145	-128.89
210.525	-150.68
210.905	-135.02
211.285	-138.12
211.664	-93.53
212.044	-54.64
212.424	-31.71
212.803	-44.36
213.183	-28.8
213.562	-19.68
213.942	-13.25
214.321	-1.15
214.701	-39.81
215.08	-95.5
215.459	-56.38
215.838	-10.09
216.218	-14.51
216.597	-23.31
216.976	-11.9
217.355	1.57
217.734	-0.84
218.113	21.79
218.492	2.53
218.871	13.67
219.25	19.51
219.629	-8.53
220.008	-10.28
220.387	-25
220.766	-18.96
221.144	-24.6
221.523	-46.63
221.902	-41.3
222.28	-27.38
222.659	-16.14
223.037	-9.32
223.416	-6.6
223.794	-5.52
224.173	-16.8
224.551	-3.99
224.929	-3.07
225.308	-3.2
225.686	-4.39
226.064	-15.04
226.442	-7.02
226.821	-3.35
227.199	-0.42
227.577	-0.74
227.955	-0.45
228.333	3.02
228.711	4.45
229.089	4.13
229.467	6.84
229.845	3.64
230.222	3.51
230.6	3.36
230.978	5.8
231.356	5.38
231.733	4.42
232.111	7.7
232.488	4.78
232.866	5.46
233.243	6.58
233.621	5.57
233.998	7.74
234.376	5.61
234.753	3.04
235.13	1.96
235.508	3.09
235.885	0.83
236.262	0.92
236.639	-1.84
237.016	-2.95
237.393	-4.05
237.77	-2.38
238.147	-3.23
238.524	-3.01
238.901	-3.49
239.278	-3.34
239.655	-2.67
240.032	-2.42
240.409	-2.35
240.785	-2.49
241.162	-1.97
241.539	-1.7
241.915	-1.42
242.292	-1.24
242.668	-0.65
243.045	0.12
243.421	0.51
243.798	1
244.174	1.24
244.551	1.6
244.927	1.69
245.303	1.92
245.679	1.96
246.056	2.35
246.432	2.54
246.808	2.6
247.184	2.77
247.56	2.93
247.936	3.03
248.312	3.14
248.688	3.16
249.064	2.97
249.44	3.04
249.815	2.89
250.191	3.18
250.567	3
250.943	2.94
251.318	2.82
251.694	2.92
252.069	2.64
252.445	2.82
252.82	3.06
253.196	3.03
253.571	2.85
253.947	2.61
254.322	2.51
254.697	2.83
255.073	2.69
255.448	2.36
255.823	2.38
256.198	2.37
256.573	2.61
256.948	2.72
257.323	2.76
257.698	2.99
258.073	2.91
258.448	3.13
258.823	2.96
259.198	2.85
259.573	2.8
259.948	3.04
260.322	2.99
260.697	3.05
261.072	2.98
261.446	3.15
261.821	3.19
262.195	3.21
262.57	3.04
262.944	3.19
263.319	3.2
263.693	2.94
264.067	3.1
264.442	3.12
264.816	3.18
265.19	3.02
265.564	2.75
265.938	2.62
266.313	2.63
266.687	2.67
267.061	2.67
267.435	2.76
267.809	2.61
268.183	2.47
268.556	2.43
268.93	2.55
269.304	2.38
269.678	2.28
270.051	2.19
270.425	2.22
270.799	2.01
271.172	2.02
271.546	2.32
271.919	2.22
272.293	2.02
272.666	1.97
273.04	1.95
273.413	2.15
273.787	2.21
274.16	2.01
274.533	2.03
274.906	2.15
275.279	2.1
275.653	2.17
276.026	2.22
276.399	2.16
276.772	1.99
277.145	2.03
277.518	2.11
277.891	2.27
278.263	2.39
278.636	2.58
279.009	2.63
279.382	2.38
279.755	2.27
280.127	2.51
280.5	2.37
280.872	2.52
281.245	2.39
281.617	2.43
281.99	2.54
282.362	2.61
282.735	2.53
283.107	2.65
283.479	2.58
283.852	2.63
284.224	2.6
284.596	2.57
284.968	2.44
285.34	2.4
285.713	2.37
286.085	2.23
286.457	2.12
286.829	2.13
287.201	2.3
287.572	2.41
287.944	2.38
288.316	2.47
288.688	2.47
289.06	2.46
289.431	2.57
289.803	2.63
290.175	2.63
290.546	2.67
290.918	2.5
291.289	2.46
291.661	2.52
292.032	2.6
292.403	2.81
292.775	3.07
293.146	3.13
293.517	3.19
293.889	3.29
294.26	3.39
294.631	3.38
295.002	3.47
295.373	3.5
295.744	3.53
296.115	3.55
296.486	3.59
296.857	3.75
297.228	3.68
297.599	3.64
297.97	3.76
298.34	3.9
298.711	4.11
299.082	4.34
299.452	4.38
299.823	4.47
300.194	4.46
300.564	4.39
300.935	4.61
301.305	4.62
301.676	4.68
302.046	4.71
302.416	4.82
302.787	4.85
303.157	4.86
303.527	4.85
303.897	5.03
304.267	5.13
304.637	5.22
305.008	5.36
305.378	5.42
305.748	5.39
306.117	5.3
306.487	5.27
306.857	5.11
307.227	5.19
307.597	5.19
307.967	5.31
308.336	5.27
308.706	5.2
309.076	5.34
309.445	5.39
309.815	5.37
310.184	5.36
310.554	5.33
310.923	5.4
311.293	5.49
311.662	5.48
312.031	5.5
312.401	5.35
312.77	5.37
313.139	5.49
313.508	5.5
313.877	5.64
314.246	5.67
314.616	5.93
314.985	5.9
315.353	5.95
315.722	5.9
316.091	6.04
316.46	6.14
316.829	6.13
317.198	6.23
317.567	6.52
317.935	6.58
318.304	6.71
318.672	6.85
319.041	6.93
319.41	7.02
319.778	7.17
320.147	7.36
320.515	7.39
320.883	7.39
321.252	7.46
321.62	7.4
321.988	7.47
322.357	7.26
322.725	7.35
323.093	7.45
323.461	7.61
323.829	7.72
324.197	7.75
324.565	7.8
324.933	7.71
325.301	7.67
325.669	7.79
326.037	7.77
326.405	7.77
326.772	7.8
327.14	7.8
327.508	7.64
327.875	7.68
328.243	7.7
328.61	7.76
328.978	7.72
329.346	7.89
329.713	7.98
330.08	8.08
330.448	8.09
330.815	8.21
331.182	8.29
331.55	8.3
331.917	8.31
332.284	8.42
332.651	8.44
333.018	8.38
333.385	8.41
333.752	8.51
334.119	8.47
334.486	8.59
334.853	8.64
335.22	8.73
335.587	8.78
335.954	8.9
336.32	8.94
336.687	9
337.054	8.97
337.42	8.87
337.787	8.82
338.153	8.88
338.52	8.99
338.886	8.91
339.253	8.98
339.619	9.04
339.986	8.94
340.352	9.02
340.718	9.19
341.084	9.27
341.451	9.36
341.817	9.41
342.183	9.36
342.549	9.49
342.915	9.64
343.281	9.74
343.647	9.63
344.013	9.74
344.379	9.76
344.745	9.77
345.11	9.93
345.476	10.17
345.842	10.21
346.208	10.19
346.573	10.3
346.939	10.26
347.304	10.27
347.67	10.29
348.035	10.38
348.401	10.32
348.766	10.23
349.132	10.23
349.497	10.34
349.862	10.41
350.228	10.4
350.593	10.34
350.958	10.24
351.323	10.34
351.688	10.22
352.053	10.22
352.418	10.24
352.783	10.26
353.148	10.08
353.513	10.02
353.878	9.91
354.243	9.81
354.608	9.95
354.972	9.95
355.337	9.99
355.702	9.88
356.066	9.95
356.431	10.07
356.795	10
357.16	9.92
357.524	9.88
357.889	9.83
358.253	9.91
358.618	9.99
358.982	9.99
359.346	10.12
359.71	10.15
360.075	10.15
360.439	10.16
360.803	10.29
361.167	10.23
361.531	10.25
361.895	10.32
362.259	10.36
362.623	10.36
362.987	10.41
363.351	10.44
363.714	10.34
364.078	10.31
364.442	10.34
364.806	10.42
365.169	10.38
365.533	10.39
365.896	10.39
366.26	10.43
366.623	10.36
366.987	10.27
367.35	10.23
367.714	10.28
368.077	10.19
368.44	10.1
368.803	10.21
369.167	10.22
369.53	10.18
369.893	10.12
370.256	10.03
370.619	9.98
370.982	9.93
371.345	10
371.708	9.97
372.071	9.86
372.434	9.78
372.797	9.77
373.159	9.65
373.522	9.56
373.885	9.46
374.247	9.46
374.61	9.41
374.973	9.34
375.335	9.27
375.698	9.2
376.06	9.17
376.423	9.1
376.785	9
377.147	8.96
377.51	8.87
377.872	8.81
378.234	8.81
378.596	8.78
378.958	8.75
379.321	8.71
379.683	8.71
380.045	8.68
380.407	8.61
380.769	8.59
381.13	8.51
381.492	8.41
381.854	8.38
382.216	8.32
382.578	8.31
382.939	8.24
383.301	8.18
383.663	8.12
384.024	8.09
384.386	8.07
384.747	8.01
385.109	7.99
385.47	8.02
385.832	7.91
386.193	7.89
386.554	7.73
386.916	7.67
387.277	7.63
387.638	7.59
387.999	7.59
388.36	7.57
388.721	7.53
389.082	7.55
389.443	7.54
389.804	7.49
390.165	7.43
390.526	7.4
390.887	7.39
391.248	7.35
391.609	7.31
391.969	7.29
392.33	7.26
392.691	7.22
393.051	7.15
393.412	7.14
393.772	7.09
394.133	7.13
394.493	7.07
394.854	7.05
395.214	6.99
395.574	6.94
395.935	6.89
396.295	6.87
396.655	6.84
397.015	6.77
397.376	6.75
397.736	6.69
398.096	6.6
398.456	6.55
398.816	6.48
399.176	6.4
399.535	6.39
399.895	6.35
400.255	6.33
400.615	6.29
400.975	6.2
401.334	6.14
401.694	6.07
402.054	6.03
402.413	5.97
402.773	5.92
403.132	5.88
403.492	5.83
403.851	5.8
404.211	5.76
404.57	5.72
404.929	5.69
405.288	5.68
405.648	5.68
406.007	5.63
406.366	5.61
406.725	5.58
407.084	5.52
407.443	5.5
407.802	5.41
408.161	5.41
408.52	5.44
408.879	5.43
409.238	5.45
409.596	5.46
409.955	5.45
410.314	5.42
410.673	5.44
411.031	5.42
411.39	5.41
411.748	5.4
412.107	5.38
412.465	5.37
412.824	5.35
413.182	5.34
413.54	5.35
413.899	5.34
414.257	5.35
414.615	5.34
414.974	5.3
415.332	5.33
415.69	5.31
416.048	5.26
416.406	5.25
416.764	5.24
417.122	5.2
417.48	5.19
417.838	5.21
418.195	5.15
418.553	5.15
418.911	5.13
419.269	5.1
419.626	5.08
419.984	5.06
420.342	5.04
420.699	5.02
421.057	5
421.414	4.99
421.772	4.96
422.129	4.94
422.486	4.93
422.844	4.89
423.201	4.88
423.558	4.86
423.915	4.86
424.273	4.83
424.63	4.84
424.987	4.81
425.344	4.79
425.701	4.81
426.058	4.78
426.415	4.76
426.772	4.73
427.128	4.71
427.485	4.69
427.842	4.67
428.199	4.65
428.555	4.64
428.912	4.61
429.269	4.59
429.625	4.58
429.982	4.58
430.338	4.58
430.695	4.55
431.051	4.55
431.407	4.5
431.764	4.48
432.12	4.47
432.476	4.48
432.832	4.47
433.189	4.44
433.545	4.45
433.901	4.43
434.257	4.45
434.613	4.46
434.969	4.47
435.325	4.47
435.681	4.47
436.036	4.47
436.392	4.48
436.748	4.49
437.104	4.48
437.459	4.47
437.815	4.47
438.171	4.47
438.526	4.47
438.882	4.48
439.237	4.47
439.593	4.46
439.948	4.45
440.304	4.44
440.659	4.46
441.014	4.45
441.369	4.47
441.725	4.46
442.08	4.44
442.435	4.44
442.79	4.46
443.145	4.46
443.5	4.44
443.855	4.43
444.21	4.42
444.565	4.41
444.92	4.4
445.275	4.41
445.629	4.4
445.984	4.41
446.339	4.4
446.693	4.4
447.048	4.38
447.403	4.38
447.757	4.36
448.112	4.35
448.466	4.34
448.82	4.31
449.175	4.29
449.529	4.29
449.883	4.26
450.238	4.24
450.592	4.21
450.946	4.21
451.3	4.22
451.654	4.23
452.008	4.22
452.362	4.22
452.716	4.21
453.07	4.2
453.424	4.18
453.778	4.15
454.132	4.13
454.486	4.17
454.839	4.16
455.193	4.17
455.547	4.17
455.9	4.17
456.254	4.15
456.607	4.15
456.961	4.15
457.314	4.16
457.668	4.17
458.021	4.17
458.375	4.17
458.728	4.16
459.081	4.15
459.434	4.14
459.787	4.16
460.141	4.16
460.494	4.16
460.847	4.15
461.2	4.18
461.553	4.19
461.906	4.18
462.259	4.16
462.611	4.17
462.964	4.19
463.317	4.2
463.67	4.25
464.022	4.27
464.375	4.27
464.728	4.29
465.08	4.29
465.433	4.32
465.785	4.34
466.138	4.37
466.49	4.4
466.843	4.44
467.195	4.44
467.547	4.44
467.899	4.47
468.252	4.51
468.604	4.52
468.956	4.54
469.308	4.54
469.66	4.6
470.012	4.63
470.364	4.63
470.716	4.64
471.068	4.65
471.42	4.66
471.772	4.72
472.123	4.74
472.475	4.77
472.827	4.78
473.178	4.8
473.53	4.8
473.882	4.79
474.233	4.8
474.585	4.81
474.936	4.86
475.288	4.88
475.639	4.9
475.99	4.92
476.342	4.94
476.693	4.98
477.044	4.97
477.395	4.97
477.746	4.96
478.097	4.97
478.448	4.94
478.8	4.92
479.15	4.86
479.501	4.85
479.852	4.84
480.203	4.84
480.554	4.83
480.905	4.8
481.255	4.81
481.606	4.8
481.957	4.8
482.307	4.78
482.658	4.77
483.009	4.76
483.359	4.76
483.709	4.74
484.06	4.74
484.41	4.73
484.761	4.72
485.111	4.74
485.461	4.73
485.811	4.73
486.162	4.73
486.512	4.74
486.862	4.74
487.212	4.74
487.562	4.73
487.912	4.72
488.262	4.73
488.612	4.73
488.961	4.72
489.311	4.73
489.661	4.73
490.011	4.73
490.36	4.72
490.71	4.72
491.06	4.74
491.409	4.74
491.759	4.76
492.108	4.77
492.458	4.77
492.807	4.77
493.157	4.8
493.506	4.81
493.855	4.85
494.204	4.85
494.554	4.88
494.903	4.91
495.252	4.96
495.601	4.99
495.95	5.04
496.299	5.1
496.648	5.17
496.997	5.21
497.346	5.31
497.695	5.35
498.043	5.39
498.392	5.45
498.741	5.51
499.09	5.56
499.438	5.63
499.787	5.66
500.135	5.73
500.484	5.81
500.832	5.89
501.181	5.98
501.529	6.09
501.878	6.2
502.226	6.29
502.574	6.38
502.923	6.47
503.271	6.57
503.619	6.65
503.967	6.73
504.315	6.83
504.663	6.92
505.011	7.05
505.359	7.19
505.707	7.31
506.055	7.43
506.403	7.53
506.751	7.66
507.098	7.84
507.446	7.99
507.794	8.1
508.141	8.23
508.489	8.37
508.837	8.49
509.184	8.62
509.531	8.77
509.879	8.91
510.226	9.05
510.574	9.19
510.921	9.33
511.268	9.5
511.616	9.66
511.963	9.81
512.31	9.98
512.657	10.14
513.004	10.28
513.351	10.47
513.698	10.69
514.045	10.88
514.392	11.07
514.739	11.26
515.086	11.48
515.432	11.69
515.779	11.86
516.126	12.1
516.473	12.27
516.819	12.43
517.166	12.59
517.512	12.77
517.859	12.94
518.205	13.09
518.552	13.24
518.898	13.37
519.245	13.54
519.591	13.7
519.937	13.86
520.283	14.07
520.629	14.23
520.976	14.43
521.322	14.61
521.668	14.8
522.014	15.01
522.36	15.18
522.706	15.38
523.052	15.61
523.398	15.8
523.743	16.03
524.089	16.29
524.435	16.52
524.781	16.74
525.126	16.95
525.472	17.14
525.817	17.31
526.163	17.49
526.509	17.62
526.854	17.74
527.199	17.87
527.545	17.99
527.89	18.1
528.235	18.23
528.581	18.36
528.926	18.47
529.271	18.59
529.616	18.74
529.961	18.87
530.306	19.03
530.651	19.18
530.996	19.33
531.341	19.49
531.686	19.65
532.031	19.81
532.376	19.96
532.721	20.13
533.065	20.3
533.41	20.49
533.755	20.7
534.099	20.91
534.444	21.08
534.788	21.27
535.133	21.48
535.477	21.67
535.822	21.88
536.166	22.12
536.51	22.34
536.855	22.58
537.199	22.84
537.543	23.07
537.887	23.34
538.231	23.6
538.576	23.84
538.92	24.11
539.264	24.34
539.608	24.57
539.951	24.78
540.295	25
540.639	25.21
540.983	25.4
541.327	25.57
541.671	25.8
542.014	26.02
542.358	26.19
542.701	26.36
543.045	26.55
543.389	26.73
543.732	26.95
544.075	27.14
544.419	27.35
544.762	27.55
545.105	27.76
545.449	27.98
545.792	28.2
546.135	28.42
546.478	28.67
546.821	28.97
547.165	29.21
547.508	29.48
547.851	29.74
548.194	30.01
548.536	30.35
548.879	30.64
549.222	30.87
549.565	31.12
549.908	31.43
550.25	31.64
550.593	31.97
550.936	32.24
551.278	32.45
551.621	32.71
551.963	33.01
552.306	33.31
552.648	33.56
552.991	33.81
553.333	34.14
553.675	34.38
554.017	34.64
554.36	34.94
554.702	35.17
555.044	35.46
555.386	35.69
555.728	35.92
556.07	36.11
556.412	36.42
556.754	36.73
557.096	36.97
557.438	37.26
557.78	37.51
558.121	37.8
558.463	38.13
558.805	38.44
559.147	38.67
559.488	38.82
559.83	39.08
560.171	39.32
560.513	39.55
560.854	39.87
561.196	40.11
561.537	40.36
561.878	40.58
562.22	40.74
562.561	40.99
562.902	41.17
563.243	41.37
563.584	41.55
563.925	41.77
564.266	41.97
564.607	42.17
564.948	42.37
565.289	42.57
565.63	42.72
565.971	42.9
566.312	43.12
566.653	43.37
566.993	43.56
567.334	43.73
567.675	43.85
568.015	44.01
568.356	44.2
568.696	44.39
569.037	44.57
569.377	44.74
569.718	44.88
570.058	45.02
570.398	45.22
570.739	45.38
571.079	45.53
571.419	45.75
571.759	45.93
572.099	46.01
572.439	46.1
572.779	46.23
573.119	46.36
573.459	46.45
573.799	46.56
574.139	46.72
574.479	46.87
574.819	46.98
575.158	47.06
575.498	47.17
575.838	47.26
576.177	47.39
576.517	47.57
576.856	47.7
577.196	47.88
577.535	47.95
577.875	48.11
578.214	48.19
578.553	48.27
578.893	48.38
579.232	48.58
579.571	48.71
579.91	48.85
580.25	49
580.589	49.01
580.928	49.2
581.267	49.25
581.606	49.36
581.945	49.52
582.283	49.66
582.622	49.71
582.961	49.81
583.3	49.93
583.639	50.02
583.977	50.14
584.316	50.23
584.654	50.33
584.993	50.41
585.332	50.62
585.67	50.69
586.008	50.78
586.347	50.87
586.685	50.99
587.024	51.01
587.362	51.07
587.7	51.29
588.038	51.32
588.376	51.32
588.715	51.44
589.053	51.46
589.391	51.49
589.729	51.56
590.067	51.68
590.404	51.74
590.742	51.76
591.08	51.87
591.418	51.86
591.756	51.9
592.093	51.93
592.431	52
592.769	52.08
593.106	52.11
593.444	52.18
593.781	52.21
594.119	52.35
594.456	52.41
594.793	52.41
595.131	52.4
595.468	52.55
595.805	52.65
596.143	52.73
596.48	52.84
596.817	52.95
597.154	52.94
597.491	52.89
597.828	52.93
598.165	52.93
598.502	53.05
598.839	53.18
599.176	53.33
599.512	53.37
599.849	53.36
600.186	53.44
600.523	53.49
600.859	53.64
601.196	53.64
601.532	53.65
601.869	53.74
602.205	53.87
602.542	53.87
602.878	53.9
603.215	53.95
603.551	54.03
603.887	54
604.223	54.11
604.56	54.19
604.896	54.22
605.232	54.27
605.568	54.36
605.904	54.34
606.24	54.33
606.576	54.32
606.912	54.46
607.248	54.5
607.583	54.52
607.919	54.47
608.255	54.49
608.591	54.59
608.926	54.66
609.262	54.7
609.597	54.74
609.933	54.79
610.268	54.76
610.604	54.71
610.939	54.81
611.275	54.8
611.61	54.88
611.945	54.93
612.281	54.99
612.616	54.98
612.951	55.05
613.286	55.09
613.621	55.12
613.956	55.08
614.291	55.14
614.626	55.03
614.961	55.13
615.296	55.23
615.631	55.19
615.966	55.21
616.3	55.25
616.635	55.27
616.97	55.27
617.304	55.43
617.639	55.47
617.973	55.43
618.308	55.41
618.642	55.48
618.977	55.48
619.311	55.59
619.646	55.57
619.98	55.68
620.314	55.69
620.648	55.6
620.983	55.67
621.317	55.78
621.651	55.97
621.985	55.99
622.319	56
622.653	55.99
622.987	55.96
623.321	56.02
623.655	56
623.988	56.09
624.322	56.12
624.656	56.04
624.99	56.05
625.323	56.05
625.657	56.02
625.99	56.07
626.324	55.96
626.657	56.12
626.991	56.07
627.324	56.07
627.658	56.18
627.991	56.17
628.324	56.14
628.657	56.05
628.991	56.04
629.324	56.04
629.657	56.16
629.99	56.2
630.323	56.1
630.656	56.15
630.989	56.08
631.322	56.02
631.655	56.1
631.987	56.13
632.32	56.21
632.653	56.26
632.986	56.26
633.318	56.26
633.651	56.27
633.984	56.22
634.316	56.23
634.649	56.15
634.981	56.19
635.313	56.17
635.646	56.22
635.978	56.26
636.31	56.21
636.643	56.19
636.975	56.28
637.307	56.32
637.639	56.27
637.971	56.27
638.303	56.28
638.635	56.31
638.967	56.36
639.299	56.35
639.631	56.3
639.963	56.33
640.295	56.3
640.626	56.19
640.958	56.22
641.29	56.17
641.621	56.29
641.953	56.2
642.285	56.2
642.616	56.28
642.948	56.33
643.279	56.51
643.61	56.61
643.942	56.59
644.273	56.65
644.604	56.74
644.936	56.8
645.267	56.76
645.598	56.82
645.929	56.84
646.26	56.96
646.591	56.94
646.922	56.93
647.253	57.02
647.584	56.99
647.915	56.99
648.245	57.15
648.576	57.13
648.907	57.21
649.238	57.11
649.568	56.99
649.899	56.95
650.229	56.99
650.56	56.95
650.89	56.81
651.221	56.76
651.551	56.86
651.882	56.85
652.212	56.9
652.542	56.85
652.872	56.78
653.203	56.69
653.533	56.84
653.863	56.99
654.193	57.02
654.523	56.99
654.853	57.07
655.183	57.01
655.513	57.13
655.843	57.11
656.172	57.18
656.502	57.27
656.832	57.38
657.162	57.27
657.491	57.32
657.821	57.43
658.15	57.54
658.48	57.55
658.809	57.48
659.139	57.55
659.468	57.53
659.798	57.61
660.127	57.57
660.456	57.5
660.785	57.45
661.115	57.52
661.444	57.55
661.773	57.64
662.102	57.73
662.431	57.6
662.76	57.68
663.089	57.82
663.418	57.82
663.747	57.75
664.076	57.79
664.404	57.76
664.733	57.66
665.062	57.58
