Data from MVZ_BU57658_Reflection_00001.txt Node
Date: Tue Nov 19 12:13:14 EST 2019
User: vgr7
Spectrometer: USB2G7710
Scans to average: 3
Trigger mode: 4
Integration Time (sec): 2.000000E-2
Electric dark correction enabled: true
Boxcar width: 10
XAxis mode: Wavelengths
Number of Pixels in Spectrum: 2048
>>>>>Begin Spectral Data<<<<<
177.721	249.72
178.105	64.91
178.488	-11.48
178.871	-3.33
179.254	293.33
179.636	1207.84
180.019	-284.35
180.402	-12.5
180.785	8.13
181.168	3.51
181.55	50.9
181.933	62.66
182.316	67.4
182.698	60.58
183.081	45.13
183.463	64.4
183.846	68.9
184.228	74.98
184.611	84.94
184.993	131.85
185.376	150.84
185.758	179.53
186.14	212.4
186.522	377.78
186.904	2186.67
187.287	627.49
187.669	509.33
188.051	418.36
188.433	1915.32
188.815	-878.93
189.197	-912.82
189.579	-212.85
189.961	-249.3
190.342	-115.67
190.724	-101.64
191.106	-88.64
191.488	-79.72
191.869	-68.15
192.251	-61.77
192.633	-48.46
193.014	-54.95
193.396	-58.76
193.777	-52.4
194.159	-63.19
194.54	-72.85
194.922	-85.02
195.303	-84.98
195.684	-66.67
196.065	-70.09
196.447	-107.71
196.828	-126.74
197.209	-88.24
197.59	-178.2
197.971	-304.24
198.352	6896.3
198.733	-1265.25
199.114	1003.76
199.495	-7006.06
199.876	-4066.67
200.257	-75066.67
200.638	3441.27
201.018	2050.45
201.399	776.03
201.78	881.39
202.16	2786.67
202.541	3992.16
202.922	-5758.97
203.302	-373.2
203.683	-217.78
204.063	-176.14
204.444	-140.53
204.824	-145.17
205.204	-129.28
205.585	-141.91
205.965	-144.17
206.345	-133.46
206.725	-141.44
207.106	-109.71
207.486	-84.64
207.866	-81.13
208.246	-85.22
208.626	-124.25
209.006	-162.73
209.386	-271.4
209.766	-404.94
210.145	-372.45
210.525	-662.22
210.905	-269.98
211.285	-211.59
211.664	-219.61
212.044	-395.02
212.424	4409.52
212.803	496.17
213.183	1247.62
213.562	-264.2
213.942	-188.97
214.321	-126.73
214.701	-96.82
215.08	-68.87
215.459	-113.6
215.838	-214.26
216.218	-187
216.597	-127.59
216.976	-114.84
217.355	-97.26
217.734	-101.08
218.113	-96.49
218.492	-101.13
218.871	-101.75
219.25	-109.66
219.629	-139.43
220.008	-111.95
220.387	-123.42
220.766	-104.75
221.144	-88.49
221.523	-111.53
221.902	-97.05
222.28	-88.63
222.659	-79.06
223.037	-98.1
223.416	-91.51
223.794	-55.61
224.173	-61.33
224.551	-55.47
224.929	-57.9
225.308	-55.39
225.686	-50.61
226.064	-43.76
226.442	-33.44
226.821	-31.29
227.199	-27.08
227.577	-21.91
227.955	-26.07
228.333	-24.58
228.711	-21.01
229.089	-21.85
229.467	-19.9
229.845	-21.6
230.222	-19.1
230.6	-20.59
230.978	-17.1
231.356	-17.28
231.733	-19.24
232.111	-17.34
232.488	-17.9
232.866	-15.01
233.243	-14.15
233.621	-12.22
233.998	-14.35
234.376	-14.03
234.753	-11.77
235.13	-10.99
235.508	-10.67
235.885	-10.83
236.262	-10.32
236.639	-11.64
237.016	-11.01
237.393	-9.42
237.77	-7.85
238.147	-7.76
238.524	-6.66
238.901	-5.96
239.278	-4.61
239.655	-4.3
240.032	-3
240.409	-2.68
240.785	-2.26
241.162	-1.3
241.539	-0.71
241.915	-0.35
242.292	0.81
242.668	1.13
243.045	1.39
243.421	1.4
243.798	2.13
244.174	2.39
244.551	2.82
244.927	2.68
245.303	1.95
245.679	2.05
246.056	2.37
246.432	2.34
246.808	2.33
247.184	2.49
247.56	2.4
247.936	2.29
248.312	2.52
248.688	2.52
249.064	2.31
249.44	2.12
249.815	2.56
250.191	2.43
250.567	2.22
250.943	2.21
251.318	2.12
251.694	1.73
252.069	1.61
252.445	1.66
252.82	1.93
253.196	2.63
253.571	2.8
253.947	2.84
254.322	2.72
254.697	2.52
255.073	2.48
255.448	2.66
255.823	2.52
256.198	2.79
256.573	2.82
256.948	2.9
257.323	3.04
257.698	2.58
258.073	2.39
258.448	2.47
258.823	2.3
259.198	2.42
259.573	2.52
259.948	2.59
260.322	2.41
260.697	2.55
261.072	2.55
261.446	2.44
261.821	2.23
262.195	2.43
262.57	2.5
262.944	2.42
263.319	2.33
263.693	2.23
264.067	1.98
264.442	2.04
264.816	2.07
265.19	1.96
265.564	2.01
265.938	2
266.313	1.78
266.687	1.88
267.061	1.85
267.435	1.96
267.809	1.85
268.183	2.22
268.556	2.07
268.93	2.15
269.304	2.16
269.678	2.51
270.051	2.4
270.425	2.57
270.799	2.56
271.172	2.85
271.546	2.95
271.919	2.93
272.293	2.85
272.666	2.87
273.04	2.92
273.413	3.18
273.787	3.18
274.16	3.14
274.533	3.1
274.906	3.07
275.279	3
275.653	3.07
276.026	3.05
276.399	3.04
276.772	2.92
277.145	2.9
277.518	2.66
277.891	2.79
278.263	2.74
278.636	2.87
279.009	2.75
279.382	2.67
279.755	2.82
280.127	2.89
280.5	2.74
280.872	2.65
281.245	2.53
281.617	2.72
281.99	2.95
282.362	3.11
282.735	3.14
283.107	3.14
283.479	3.19
283.852	3.07
284.224	3.2
284.596	3.38
284.968	3.34
285.34	3.38
285.713	3.44
286.085	3.22
286.457	3.12
286.829	3.05
287.201	3.15
287.572	3.06
287.944	3.1
288.316	3.14
288.688	3.27
289.06	3.24
289.431	3.17
289.803	3.11
290.175	2.97
290.546	2.88
290.918	2.85
291.289	2.82
291.661	2.82
292.032	2.54
292.403	2.54
292.775	2.7
293.146	2.79
293.517	2.77
293.889	2.86
294.26	2.87
294.631	2.99
295.002	3.09
295.373	3.16
295.744	3.16
296.115	3.3
296.486	3.29
296.857	3.24
297.228	3.29
297.599	3.21
297.97	3.28
298.34	3.34
298.711	3.44
299.082	3.49
299.452	3.5
299.823	3.57
300.194	3.47
300.564	3.25
300.935	3.26
301.305	3.08
301.676	3.08
302.046	3.08
302.416	3.06
302.787	3.01
303.157	2.97
303.527	2.98
303.897	2.79
304.267	2.68
304.637	2.67
305.008	2.6
305.378	2.56
305.748	2.49
306.117	2.55
306.487	2.47
306.857	2.47
307.227	2.58
307.597	2.69
307.967	2.7
308.336	2.9
308.706	2.83
309.076	2.96
309.445	3.14
309.815	3.2
310.184	3.14
310.554	3.24
310.923	3.28
311.293	3.27
311.662	3.37
312.031	3.5
312.401	3.42
312.77	3.47
313.139	3.56
313.508	3.57
313.877	3.5
314.246	3.56
314.616	3.61
314.985	3.54
315.353	3.54
315.722	3.63
316.091	3.62
316.46	3.48
316.829	3.43
317.198	3.42
317.567	3.58
317.935	3.68
318.304	3.51
318.672	3.54
319.041	3.57
319.41	3.61
319.778	3.57
320.147	3.78
320.515	3.66
320.883	3.64
321.252	3.63
321.62	3.83
321.988	3.74
322.357	3.63
322.725	3.71
323.093	3.62
323.461	3.65
323.829	3.7
324.197	3.69
324.565	3.78
324.933	3.65
325.301	3.41
325.669	3.33
326.037	3.31
326.405	3.27
326.772	3.25
327.14	3.19
327.508	3.32
327.875	3.1
328.243	3.02
328.61	3.01
328.978	3.09
329.346	3.06
329.713	3.05
330.08	3.19
330.448	2.93
330.815	3.02
331.182	3.1
331.55	3.13
331.917	3.16
332.284	3.17
332.651	3.26
333.018	3.39
333.385	3.43
333.752	3.41
334.119	3.41
334.486	3.28
334.853	3.36
335.22	3.16
335.587	3.32
335.954	3.46
336.32	3.48
336.687	3.46
337.054	3.47
337.42	3.58
337.787	3.4
338.153	3.58
338.52	3.64
338.886	3.52
339.253	3.47
339.619	3.54
339.986	3.58
340.352	3.61
340.718	3.56
341.084	3.57
341.451	3.56
341.817	3.68
342.183	3.69
342.549	3.65
342.915	3.68
343.281	3.7
343.647	3.73
344.013	3.81
344.379	3.76
344.745	3.78
345.11	3.69
345.476	3.88
345.842	3.93
346.208	3.89
346.573	3.9
346.939	3.83
347.304	3.92
347.67	3.83
348.035	3.81
348.401	3.84
348.766	3.75
349.132	3.92
349.497	3.8
349.862	3.93
350.228	3.99
350.593	4.01
350.958	4.09
351.323	4.04
351.688	3.98
352.053	4.04
352.418	3.94
352.783	3.91
353.148	3.85
353.513	3.82
353.878	3.8
354.243	3.73
354.608	3.84
354.972	3.79
355.337	3.88
355.702	3.91
356.066	3.94
356.431	4.06
356.795	3.98
357.16	3.96
357.524	3.94
357.889	3.93
358.253	3.92
358.618	3.91
358.982	3.91
359.346	3.85
359.71	3.85
360.075	3.93
360.439	3.97
360.803	3.97
361.167	3.9
361.531	3.8
361.895	3.85
362.259	3.86
362.623	3.96
362.987	3.96
363.351	3.85
363.714	3.76
364.078	3.71
364.442	3.73
364.806	3.81
365.169	3.81
365.533	3.85
365.896	3.94
366.26	3.92
366.623	3.94
366.987	3.99
367.35	4
367.714	4
368.077	4.02
368.44	4.02
368.803	4.02
369.167	4.13
369.53	4.14
369.893	4.09
370.256	3.95
370.619	3.9
370.982	3.92
371.345	4
371.708	3.99
372.071	4
372.434	3.94
372.797	4.03
373.159	3.94
373.522	3.91
373.885	3.91
374.247	3.85
374.61	3.97
374.973	3.94
375.335	3.92
375.698	3.85
376.06	3.81
376.423	3.87
376.785	3.91
377.147	3.87
377.51	3.85
377.872	3.84
378.234	3.84
378.596	3.86
378.958	3.84
379.321	3.82
379.683	3.81
380.045	3.8
380.407	3.72
380.769	3.72
381.13	3.69
381.492	3.64
381.854	3.69
382.216	3.63
382.578	3.66
382.939	3.67
383.301	3.75
383.663	3.74
384.024	3.77
384.386	3.71
384.747	3.77
385.109	3.8
385.47	3.88
385.832	3.87
386.193	3.87
386.554	3.89
386.916	3.9
387.277	3.92
387.638	3.95
387.999	3.91
388.36	3.89
388.721	3.91
389.082	3.99
389.443	4.02
389.804	4
390.165	3.98
390.526	3.98
390.887	3.98
391.248	4.01
391.609	4.03
391.969	4.04
392.33	3.99
392.691	3.99
393.051	4.01
393.412	4.02
393.772	4.04
394.133	4.08
394.493	4.07
394.854	4.07
395.214	4.09
395.574	4.11
395.935	4.13
396.295	4.17
396.655	4.09
397.015	4.07
397.376	4.08
397.736	4.07
398.096	4.07
398.456	4.06
398.816	4.05
399.176	4.04
399.535	4.06
399.895	4.1
400.255	4.1
400.615	4.07
400.975	4.07
401.334	4.04
401.694	3.99
402.054	3.99
402.413	4
402.773	3.98
403.132	3.99
403.492	4.03
403.851	3.96
404.211	4.01
404.57	4.04
404.929	4.05
405.288	4.05
405.648	4.06
406.007	4.04
406.366	4.05
406.725	4.01
407.084	4.02
407.443	4.01
407.802	3.99
408.161	3.98
408.52	3.99
408.879	4.03
409.238	4.08
409.596	4.06
409.955	3.99
410.314	3.96
410.673	3.98
411.031	3.98
411.39	4.03
411.748	4.05
412.107	4.05
412.465	4.05
412.824	4.04
413.182	4.06
413.54	4.09
413.899	4.07
414.257	4.09
414.615	4.09
414.974	4.11
415.332	4.14
415.69	4.14
416.048	4.13
416.406	4.09
416.764	4.07
417.122	4.09
417.48	4.12
417.838	4.17
418.195	4.13
418.553	4.13
418.911	4.12
419.269	4.13
419.626	4.13
419.984	4.13
420.342	4.14
420.699	4.14
421.057	4.13
421.414	4.13
421.772	4.15
422.129	4.15
422.486	4.15
422.844	4.14
423.201	4.14
423.558	4.14
423.915	4.17
424.273	4.17
424.63	4.17
424.987	4.18
425.344	4.17
425.701	4.19
426.058	4.18
426.415	4.18
426.772	4.16
427.128	4.16
427.485	4.15
427.842	4.15
428.199	4.16
428.555	4.17
428.912	4.16
429.269	4.14
429.625	4.14
429.982	4.11
430.338	4.12
430.695	4.11
431.051	4.12
431.407	4.13
431.764	4.13
432.12	4.15
432.476	4.14
432.832	4.13
433.189	4.12
433.545	4.14
433.901	4.14
434.257	4.12
434.613	4.11
434.969	4.12
435.325	4.11
435.681	4.1
436.036	4.08
436.392	4.1
436.748	4.1
437.104	4.08
437.459	4.09
437.815	4.09
438.171	4.09
438.526	4.1
438.882	4.09
439.237	4.08
439.593	4.09
439.948	4.09
440.304	4.08
440.659	4.09
441.014	4.07
441.369	4.08
441.725	4.1
442.08	4.1
442.435	4.11
442.79	4.09
443.145	4.08
443.5	4.09
443.855	4.06
444.21	4.08
444.565	4.09
444.92	4.1
445.275	4.1
445.629	4.09
445.984	4.09
446.339	4.1
446.693	4.1
447.048	4.07
447.403	4.06
447.757	4.05
448.112	4.05
448.466	4.09
448.82	4.06
449.175	4.06
449.529	4.06
449.883	4.04
450.238	4.07
450.592	4.09
450.946	4.08
451.3	4.1
451.654	4.08
452.008	4.07
452.362	4.07
452.716	4.06
453.07	4.07
453.424	4.05
453.778	4.02
454.132	4.02
454.486	4.05
454.839	4.08
455.193	4.11
455.547	4.1
455.9	4.07
456.254	4.08
456.607	4.08
456.961	4.1
457.314	4.09
457.668	4.08
458.021	4.07
458.375	4.07
458.728	4.08
459.081	4.09
459.434	4.09
459.787	4.1
460.141	4.1
460.494	4.1
460.847	4.1
461.2	4.11
461.553	4.12
461.906	4.1
462.259	4.07
462.611	4.07
462.964	4.07
463.317	4.06
463.67	4.07
464.022	4.06
464.375	4.05
464.728	4.06
465.08	4.06
465.433	4.07
465.785	4.09
466.138	4.09
466.49	4.09
466.843	4.12
467.195	4.12
467.547	4.12
467.899	4.15
468.252	4.17
468.604	4.2
468.956	4.21
469.308	4.22
469.66	4.24
470.012	4.25
470.364	4.27
470.716	4.31
471.068	4.3
471.42	4.32
471.772	4.34
472.123	4.35
472.475	4.33
472.827	4.34
473.178	4.32
473.53	4.34
473.882	4.34
474.233	4.31
474.585	4.3
474.936	4.3
475.288	4.3
475.639	4.32
475.99	4.28
476.342	4.29
476.693	4.29
477.044	4.29
477.395	4.29
477.746	4.28
478.097	4.27
478.448	4.27
478.8	4.27
479.15	4.25
479.501	4.26
479.852	4.28
480.203	4.28
480.554	4.29
480.905	4.27
481.255	4.28
481.606	4.3
481.957	4.33
482.307	4.32
482.658	4.32
483.009	4.31
483.359	4.33
483.709	4.34
484.06	4.35
484.41	4.35
484.761	4.35
485.111	4.36
485.461	4.36
485.811	4.36
486.162	4.36
486.512	4.37
486.862	4.37
487.212	4.36
487.562	4.36
487.912	4.37
488.262	4.37
488.612	4.38
488.961	4.36
489.311	4.36
489.661	4.37
490.011	4.37
490.36	4.38
490.71	4.38
491.06	4.37
491.409	4.37
491.759	4.37
492.108	4.37
492.458	4.36
492.807	4.38
493.157	4.38
493.506	4.39
493.855	4.39
494.204	4.39
494.554	4.41
494.903	4.42
495.252	4.43
495.601	4.46
495.95	4.46
496.299	4.47
496.648	4.48
496.997	4.48
497.346	4.49
497.695	4.48
498.043	4.51
498.392	4.5
498.741	4.53
499.09	4.54
499.438	4.55
499.787	4.57
500.135	4.59
500.484	4.6
500.832	4.58
501.181	4.6
501.529	4.65
501.878	4.64
502.226	4.65
502.574	4.65
502.923	4.64
503.271	4.66
503.619	4.68
503.967	4.66
504.315	4.69
504.663	4.72
505.011	4.75
505.359	4.72
505.707	4.75
506.055	4.74
506.403	4.76
506.751	4.77
507.098	4.8
507.446	4.79
507.794	4.82
508.141	4.85
508.489	4.87
508.837	4.88
509.184	4.91
509.531	4.92
509.879	4.93
510.226	4.92
510.574	4.93
510.921	4.93
511.268	4.97
511.616	4.98
511.963	4.99
512.31	5.01
512.657	5.01
513.004	5
513.351	5.01
513.698	5.03
514.045	5.06
514.392	5.05
514.739	5.05
515.086	5.04
515.432	5.05
515.779	5.06
516.126	5.06
516.473	5.06
516.819	5.07
517.166	5.09
517.512	5.11
517.859	5.11
518.205	5.1
518.552	5.09
518.898	5.07
519.245	5.06
519.591	5.07
519.937	5.08
520.283	5.09
520.629	5.09
520.976	5.09
521.322	5.08
521.668	5.09
522.014	5.1
522.36	5.09
522.706	5.1
523.052	5.12
523.398	5.1
523.743	5.11
524.089	5.14
524.435	5.14
524.781	5.16
525.126	5.18
525.472	5.21
525.817	5.23
526.163	5.24
526.509	5.26
526.854	5.27
527.199	5.28
527.545	5.29
527.89	5.29
528.235	5.3
528.581	5.31
528.926	5.3
529.271	5.31
529.616	5.32
529.961	5.32
530.306	5.31
530.651	5.33
530.996	5.35
531.341	5.35
531.686	5.35
532.031	5.34
532.376	5.33
532.721	5.33
533.065	5.31
533.41	5.31
533.755	5.3
534.099	5.29
534.444	5.29
534.788	5.28
535.133	5.29
535.477	5.3
535.822	5.3
536.166	5.33
536.51	5.3
536.855	5.31
537.199	5.31
537.543	5.31
537.887	5.31
538.231	5.28
538.576	5.27
538.92	5.29
539.264	5.31
539.608	5.34
539.951	5.33
540.295	5.35
540.639	5.37
540.983	5.37
541.327	5.37
541.671	5.37
542.014	5.39
542.358	5.4
542.701	5.39
543.045	5.39
543.389	5.38
543.732	5.39
544.075	5.4
544.419	5.41
544.762	5.42
545.105	5.42
545.449	5.44
545.792	5.46
546.135	5.43
546.478	5.41
546.821	5.4
547.165	5.39
547.508	5.41
547.851	5.41
548.194	5.4
548.536	5.41
548.879	5.4
549.222	5.37
549.565	5.34
549.908	5.32
550.25	5.33
550.593	5.32
550.936	5.36
551.278	5.34
551.621	5.35
551.963	5.38
552.306	5.4
552.648	5.4
552.991	5.4
553.333	5.45
553.675	5.47
554.017	5.47
554.36	5.48
554.702	5.44
555.044	5.42
555.386	5.41
555.728	5.41
556.07	5.39
556.412	5.43
556.754	5.44
557.096	5.47
557.438	5.47
557.78	5.47
558.121	5.44
558.463	5.43
558.805	5.46
559.147	5.47
559.488	5.4
559.83	5.4
560.171	5.37
560.513	5.35
560.854	5.33
561.196	5.35
561.537	5.35
561.878	5.41
562.22	5.41
562.561	5.49
562.902	5.49
563.243	5.52
563.584	5.52
563.925	5.53
564.266	5.49
564.607	5.46
564.948	5.5
565.289	5.51
565.63	5.53
565.971	5.54
566.312	5.5
566.653	5.54
566.993	5.56
567.334	5.58
567.675	5.58
568.015	5.57
568.356	5.57
568.696	5.57
569.037	5.57
569.377	5.58
569.718	5.56
570.058	5.58
570.398	5.62
570.739	5.59
571.079	5.59
571.419	5.65
571.759	5.66
572.099	5.63
572.439	5.61
572.779	5.57
573.119	5.54
573.459	5.57
573.799	5.54
574.139	5.52
574.479	5.52
574.819	5.52
575.158	5.55
575.498	5.56
575.838	5.57
576.177	5.52
576.517	5.53
576.856	5.5
577.196	5.5
577.535	5.47
577.875	5.45
578.214	5.45
578.553	5.44
578.893	5.48
579.232	5.45
579.571	5.48
579.91	5.54
580.25	5.55
580.589	5.53
580.928	5.56
581.267	5.57
581.606	5.6
581.945	5.58
582.283	5.6
582.622	5.55
582.961	5.58
583.3	5.61
583.639	5.59
583.977	5.62
584.316	5.6
584.654	5.66
584.993	5.66
585.332	5.67
585.67	5.7
586.008	5.65
586.347	5.71
586.685	5.65
587.024	5.62
587.362	5.6
587.7	5.62
588.038	5.63
588.376	5.66
588.715	5.62
589.053	5.62
589.391	5.61
589.729	5.64
590.067	5.65
590.404	5.66
590.742	5.65
591.08	5.68
591.418	5.7
591.756	5.64
592.093	5.66
592.431	5.65
592.769	5.63
593.106	5.65
593.444	5.65
593.781	5.72
594.119	5.72
594.456	5.76
594.793	5.77
595.131	5.78
595.468	5.81
595.805	5.82
596.143	5.85
596.48	5.83
596.817	5.86
597.154	5.86
597.491	5.85
597.828	5.85
598.165	5.83
598.502	5.83
598.839	5.86
599.176	5.86
599.512	5.85
599.849	5.88
600.186	5.87
600.523	5.86
600.859	5.83
601.196	5.84
601.532	5.87
601.869	5.87
602.205	5.85
602.542	5.77
602.878	5.81
603.215	5.78
603.551	5.79
603.887	5.71
604.223	5.74
604.56	5.77
604.896	5.77
605.232	5.78
605.568	5.76
605.904	5.71
606.24	5.74
606.576	5.78
606.912	5.72
607.248	5.77
607.583	5.8
607.919	5.79
608.255	5.78
608.591	5.75
608.926	5.75
609.262	5.75
609.597	5.76
609.933	5.8
610.268	5.83
610.604	5.83
610.939	5.91
611.275	5.86
611.61	5.83
611.945	5.83
612.281	5.85
612.616	5.9
612.951	6.01
613.286	5.97
613.621	5.97
613.956	5.97
614.291	5.9
614.626	5.84
614.961	5.9
615.296	5.92
615.631	5.88
615.966	5.86
616.3	5.88
616.635	5.94
616.97	5.84
617.304	5.85
617.639	5.86
617.973	5.8
618.308	5.86
618.642	5.86
618.977	5.87
619.311	5.84
619.646	5.79
619.98	5.76
620.314	5.82
620.648	5.8
620.983	5.81
621.317	5.87
621.651	5.86
621.985	5.79
622.319	5.85
622.653	5.9
622.987	5.94
623.321	5.94
623.655	5.89
623.988	5.9
624.322	5.91
624.656	5.91
624.99	5.91
625.323	5.88
625.657	5.94
625.99	5.97
626.324	6.03
626.657	6.04
626.991	6.02
627.324	5.98
627.658	5.92
627.991	5.97
628.324	5.95
628.657	6.03
628.991	6.05
629.324	5.94
629.657	5.9
629.99	5.89
630.323	5.87
630.656	5.91
630.989	5.9
631.322	5.88
631.655	5.89
631.987	5.98
632.32	5.98
632.653	5.93
632.986	5.94
633.318	5.89
633.651	5.91
633.984	5.86
634.316	5.9
634.649	5.99
634.981	5.97
635.313	6.03
635.646	6.06
635.978	6.09
636.31	6.15
636.643	6.17
636.975	6.2
637.307	6.17
637.639	6.1
637.971	6.12
638.303	6.14
638.635	6.11
638.967	6.05
639.299	6.16
639.631	6.14
639.963	6.16
640.295	6.11
640.626	6.1
640.958	6.13
641.29	6.17
641.621	6.14
641.953	6.12
642.285	6.08
642.616	6.03
642.948	6.02
643.279	6.05
643.61	6.07
643.942	6.04
644.273	6.15
644.604	6.23
644.936	6.22
645.267	6.21
645.598	6.24
645.929	6.19
646.26	6.04
646.591	6.01
646.922	6.05
647.253	6.08
647.584	6.12
647.915	6.17
648.245	6.16
648.576	6.11
648.907	6.16
649.238	6.11
649.568	6.08
649.899	6.13
650.229	6.11
650.56	6.11
650.89	6.11
651.221	6.05
651.551	6.06
651.882	6
652.212	5.98
652.542	6.04
652.872	6.1
653.203	6.18
653.533	6.27
653.863	6.21
654.193	6.25
654.523	6.21
654.853	6.26
655.183	6.24
655.513	6.27
655.843	6.22
656.172	6.23
656.502	6.15
656.832	6.12
657.162	6.15
657.491	6.14
657.821	6.15
658.15	6.22
658.48	6.22
658.809	6.31
659.139	6.34
659.468	6.31
659.798	6.3
660.127	6.31
660.456	6.2
660.785	6.23
661.115	6.22
661.444	6.18
661.773	6.16
662.102	6.15
662.431	6.15
662.76	6.19
663.089	6.28
663.418	6.37
663.747	6.42
664.076	6.44
664.404	6.45
664.733	6.41
665.062	6.38
665.39	6.41
665.719	6.47
666.048	6.41
666.376	6.42
666.705	6.47
667.033	6.38
667.362	6.49
667.69	6.54
668.018	6.59
668.347	6.59
668.675	6.59
669.003	6.55
669.331	6.57
669.659	6.54
669.987	6.51
670.315	6.49
670.643	6.5
670.971	6.56
671.299	6.58
671.627	6.6
671.955	6.51
672.283	6.52
672.61	6.41
672.938	6.49
673.266	6.47
673.593	6.49
673.921	6.55
674.249	6.5
674.576	6.33
674.904	6.25
