Data from MVZ_BU78245_Reflection_00012.txt Node
Date: Tue Nov 19 12:01:21 EST 2019
User: vgr7
Spectrometer: USB2G7710
Scans to average: 3
Trigger mode: 4
Integration Time (sec): 2.000000E-2
Electric dark correction enabled: true
Boxcar width: 10
XAxis mode: Wavelengths
Number of Pixels in Spectrum: 2048
>>>>>Begin Spectral Data<<<<<
177.721	664.39
178.105	525.93
178.488	-230.28
178.871	-2133.33
179.254	110.42
179.636	75.08
180.019	39.22
180.402	-175
180.785	40.1
181.168	28.96
181.55	-411.9
181.933	-561.46
182.316	576.85
182.698	-798.15
183.081	-99.65
183.463	-50.43
183.846	-111.26
184.228	-106.5
184.611	-52.71
184.993	-45.42
185.376	-80.34
185.758	-75.93
186.14	-123.48
186.522	-98.64
186.904	-96.53
187.287	-108.61
187.669	-97.47
188.051	-78.94
188.433	-135.1
188.815	-167.6
189.197	-146.87
189.579	-121.39
189.961	-99.93
190.342	-109.36
190.724	-117.47
191.106	-101.53
191.488	-123.45
191.869	-101.21
192.251	-84.55
192.633	-122.34
193.014	-114.64
193.396	-93.56
193.777	-82.76
194.159	-69.3
194.54	-80.87
194.922	-88.87
195.303	-64.4
195.684	-84.29
196.065	-91.88
196.447	-84.02
196.828	-91.28
197.209	-66.45
197.59	-65.66
197.971	-76.39
198.352	-64.97
198.733	-76.53
199.114	-80.75
199.495	-73.05
199.876	-86.03
200.257	-102.41
200.638	-89.65
201.018	-93.36
201.399	-83.63
201.78	-71.89
202.16	-98.79
202.541	-100.76
202.922	-95.47
203.302	-121.52
203.683	-108.22
204.063	-117.14
204.444	-117.25
204.824	-113.29
205.204	-132.12
205.585	-133.8
205.965	-144.03
206.345	-157.95
206.725	-134.56
207.106	-136.86
207.486	-136.67
207.866	-110.46
208.246	-90.32
208.626	-109.87
209.006	-101.03
209.386	-115.86
209.766	-173.9
210.145	-123.17
210.525	-115.64
210.905	-109.6
211.285	-93.16
211.664	-77.14
212.044	-70.16
212.424	-55.89
212.803	-57.48
213.183	-68.43
213.562	-66.93
213.942	-65.8
214.321	-66.39
214.701	-67.49
215.08	-75.49
215.459	-51.54
215.838	-82.68
216.218	-84.56
216.597	-43.94
216.976	-97.98
217.355	-58.52
217.734	-65.38
218.113	-44.11
218.492	-19.12
218.871	26.11
219.25	19.87
219.629	-7.68
220.008	-9.96
220.387	-29.26
220.766	-17.75
221.144	4.13
221.523	0.63
221.902	1.2
222.28	19.13
222.659	35.08
223.037	34.84
223.416	16.49
223.794	21.34
224.173	9.83
224.551	3.68
224.929	6.92
225.308	-2.52
225.686	-5
226.064	-12.59
226.442	-14.37
226.821	-19.13
227.199	-19.25
227.577	-16.04
227.955	-11
228.333	-9.99
228.711	-11.47
229.089	-15.59
229.467	-11.25
229.845	-13.6
230.222	-16.78
230.6	-19.56
230.978	-15.11
231.356	-14.72
231.733	-16.09
232.111	-12.9
232.488	-12.62
232.866	-9.71
233.243	-5.5
233.621	-1.54
233.998	-0.26
234.376	-0.56
234.753	-0.04
235.13	-1.08
235.508	-1.62
235.885	-2.69
236.262	-1.7
236.639	-1.45
237.016	-0.61
237.393	-0.93
237.77	0.81
238.147	1.86
238.524	1.71
238.901	0.65
239.278	1.1
239.655	2.33
240.032	3.17
240.409	3.6
240.785	3.52
241.162	3.42
241.539	3.02
241.915	3.65
242.292	3.77
242.668	3.76
243.045	4.44
243.421	4.68
243.798	4.57
244.174	4.4
244.551	4.36
244.927	4.06
245.303	3.98
245.679	3.8
246.056	3.75
246.432	3.55
246.808	3.65
247.184	3.87
247.56	3.68
247.936	3.61
248.312	3.68
248.688	3.51
249.064	3.1
249.44	3.14
249.815	2.97
250.191	2.9
250.567	2.98
250.943	2.98
251.318	2.46
251.694	2.41
252.069	2.32
252.445	2.47
252.82	2.82
253.196	3.09
253.571	3.25
253.947	3.25
254.322	3.62
254.697	3.56
255.073	3.29
255.448	3.28
255.823	3.35
256.198	3.52
256.573	3.5
256.948	3.73
257.323	3.86
257.698	3.94
258.073	3.98
258.448	4.01
258.823	3.67
259.198	4.07
259.573	3.82
259.948	4.09
260.322	4.08
260.697	4
261.072	3.8
261.446	3.78
261.821	3.7
262.195	3.55
262.57	3.6
262.944	3.81
263.319	4.16
263.693	3.91
264.067	3.79
264.442	3.87
264.816	3.85
265.19	3.56
265.564	3.53
265.938	3.41
266.313	3.28
266.687	3.46
267.061	3.11
267.435	3.35
267.809	3.12
268.183	2.88
268.556	2.86
268.93	2.79
269.304	2.73
269.678	2.88
270.051	3.06
270.425	2.98
270.799	2.89
271.172	2.38
271.546	2.7
271.919	2.79
272.293	2.8
272.666	2.85
273.04	3.03
273.413	2.94
273.787	2.99
274.16	3.08
274.533	3.17
274.906	3.21
275.279	3.03
275.653	3.04
276.026	3.2
276.399	3.13
276.772	3.33
277.145	3.19
277.518	2.93
277.891	2.88
278.263	2.93
278.636	3.12
279.009	3.19
279.382	3.2
279.755	3.17
280.127	3.24
280.5	3.19
280.872	3.28
281.245	3.37
281.617	3.42
281.99	3.31
282.362	3.18
282.735	3.17
283.107	3.36
283.479	3.32
283.852	3.13
284.224	3.3
284.596	3.2
284.968	3.39
285.34	3.55
285.713	3.58
286.085	3.53
286.457	3.32
286.829	3.42
287.201	3.32
287.572	3.3
287.944	3.23
288.316	3.34
288.688	3.33
289.06	3.27
289.431	3.49
289.803	3.57
290.175	3.5
290.546	3.58
290.918	3.63
291.289	3.6
291.661	3.78
292.032	3.79
292.403	3.83
292.775	3.68
293.146	3.73
293.517	3.6
293.889	3.81
294.26	3.88
294.631	3.97
295.002	4.02
295.373	4.01
295.744	4.13
296.115	4.24
296.486	4.23
296.857	4.34
297.228	4.04
297.599	3.95
297.97	4.05
298.34	4.09
298.711	4.15
299.082	4.13
299.452	4.18
299.823	4.06
300.194	4.06
300.564	4.17
300.935	4.22
301.305	4.43
301.676	4.3
302.046	4.53
302.416	4.58
302.787	4.59
303.157	4.62
303.527	4.62
303.897	4.39
304.267	4.44
304.637	4.52
305.008	4.6
305.378	4.84
305.748	4.93
306.117	5.06
306.487	5.04
306.857	5.27
307.227	5.46
307.597	5.66
307.967	5.82
308.336	5.85
308.706	5.79
309.076	5.91
309.445	5.99
309.815	5.72
310.184	5.84
310.554	5.86
310.923	5.95
311.293	6
311.662	6.16
312.031	6.08
312.401	6.01
312.77	6.14
313.139	6.09
313.508	6.12
313.877	6.18
314.246	6.17
314.616	6.2
314.985	6.16
315.353	6.23
315.722	6.18
316.091	6.28
316.46	6.56
316.829	6.49
317.198	6.7
317.567	7.01
317.935	6.92
318.304	7.07
318.672	7.22
319.041	7.3
319.41	7.27
319.778	7.4
320.147	7.41
320.515	7.33
320.883	7.57
321.252	7.66
321.62	7.72
321.988	7.87
322.357	7.73
322.725	7.71
323.093	7.58
323.461	7.59
323.829	7.55
324.197	7.48
324.565	7.42
324.933	7.39
325.301	7.23
325.669	7.27
326.037	7.29
326.405	7.23
326.772	7.2
327.14	7.17
327.508	7.21
327.875	7.2
328.243	7.34
328.61	7.25
328.978	7.22
329.346	7.09
329.713	7.04
330.08	7.14
330.448	7.1
330.815	7.31
331.182	7.35
331.55	7.33
331.917	7.36
332.284	7.53
332.651	7.5
333.018	7.71
333.385	7.82
333.752	7.82
334.119	7.73
334.486	7.7
334.853	7.86
335.22	7.81
335.587	7.78
335.954	7.8
336.32	7.85
336.687	7.9
337.054	8.05
337.42	8.01
337.787	8.1
338.153	8.34
338.52	8.4
338.886	8.5
339.253	8.58
339.619	8.43
339.986	8.33
340.352	8.35
340.718	8.47
341.084	8.46
341.451	8.46
341.817	8.67
342.183	8.73
342.549	8.76
342.915	8.97
343.281	9.16
343.647	9.25
344.013	9.26
344.379	9.34
344.745	9.48
345.11	9.57
345.476	9.57
345.842	9.52
346.208	9.49
346.573	9.54
346.939	9.58
347.304	9.76
347.67	9.8
348.035	9.84
348.401	9.71
348.766	9.77
349.132	9.93
349.497	9.94
349.862	9.9
350.228	9.8
350.593	9.81
350.958	9.92
351.323	9.83
351.688	9.78
352.053	9.75
352.418	9.62
352.783	9.72
353.148	9.67
353.513	9.59
353.878	9.55
354.243	9.53
354.608	9.53
354.972	9.42
355.337	9.45
355.702	9.37
356.066	9.33
356.431	9.28
356.795	9.23
357.16	9.23
357.524	9.3
357.889	9.47
358.253	9.43
358.618	9.31
358.982	9.34
359.346	9.41
359.71	9.43
360.075	9.48
360.439	9.53
360.803	9.62
361.167	9.66
361.531	9.63
361.895	9.55
362.259	9.54
362.623	9.59
362.987	9.59
363.351	9.58
363.714	9.63
364.078	9.59
364.442	9.52
364.806	9.49
365.169	9.5
365.533	9.4
365.896	9.33
366.26	9.35
366.623	9.29
366.987	9.21
367.35	9.15
367.714	9.07
368.077	8.82
368.44	8.73
368.803	8.72
369.167	8.68
369.53	8.67
369.893	8.67
370.256	8.53
370.619	8.4
370.982	8.35
371.345	8.31
371.708	8.22
372.071	8.13
372.434	8.08
372.797	8
373.159	7.85
373.522	7.81
373.885	7.69
374.247	7.65
374.61	7.61
374.973	7.57
375.335	7.52
375.698	7.56
376.06	7.55
376.423	7.49
376.785	7.49
377.147	7.45
377.51	7.39
377.872	7.39
378.234	7.44
378.596	7.42
378.958	7.36
379.321	7.34
379.683	7.38
380.045	7.33
380.407	7.25
380.769	7.24
381.13	7.21
381.492	7.18
381.854	7.15
382.216	7.15
382.578	7.1
382.939	7.02
383.301	6.96
383.663	6.93
384.024	6.83
384.386	6.76
384.747	6.76
385.109	6.69
385.47	6.67
385.832	6.61
386.193	6.57
386.554	6.57
386.916	6.57
387.277	6.51
387.638	6.46
387.999	6.45
388.36	6.44
388.721	6.38
389.082	6.41
389.443	6.4
389.804	6.37
390.165	6.35
390.526	6.36
390.887	6.37
391.248	6.27
391.609	6.28
391.969	6.25
392.33	6.21
392.691	6.17
393.051	6.14
393.412	6.12
393.772	6.1
394.133	6.01
394.493	5.94
394.854	5.85
395.214	5.82
395.574	5.83
395.935	5.79
396.295	5.76
396.655	5.65
397.015	5.58
397.376	5.53
397.736	5.46
398.096	5.37
398.456	5.29
398.816	5.28
399.176	5.23
399.535	5.18
399.895	5.17
400.255	5.15
400.615	5.13
400.975	5.09
401.334	5.08
401.694	5.07
402.054	5.03
402.413	5.07
402.773	5.04
403.132	5
403.492	4.99
403.851	4.96
404.211	4.98
404.57	4.98
404.929	4.93
405.288	4.93
405.648	4.92
406.007	4.91
406.366	4.9
406.725	4.89
407.084	4.88
407.443	4.87
407.802	4.85
408.161	4.84
408.52	4.83
408.879	4.8
409.238	4.78
409.596	4.8
409.955	4.76
410.314	4.75
410.673	4.74
411.031	4.76
411.39	4.78
411.748	4.79
412.107	4.77
412.465	4.8
412.824	4.74
413.182	4.75
413.54	4.73
413.899	4.74
414.257	4.73
414.615	4.69
414.974	4.64
415.332	4.63
415.69	4.59
416.048	4.54
416.406	4.53
416.764	4.53
417.122	4.51
417.48	4.48
417.838	4.44
418.195	4.41
418.553	4.38
418.911	4.37
419.269	4.32
419.626	4.31
419.984	4.27
420.342	4.27
420.699	4.23
421.057	4.21
421.414	4.21
421.772	4.19
422.129	4.18
422.486	4.18
422.844	4.16
423.201	4.15
423.558	4.15
423.915	4.12
424.273	4.12
424.63	4.12
424.987	4.12
425.344	4.11
425.701	4.12
426.058	4.11
426.415	4.08
426.772	4.07
427.128	4.05
427.485	4.03
427.842	4.01
428.199	4.01
428.555	4
428.912	3.95
429.269	3.91
429.625	3.9
429.982	3.89
430.338	3.86
430.695	3.84
431.051	3.83
431.407	3.85
431.764	3.85
432.12	3.81
432.476	3.83
432.832	3.83
433.189	3.81
433.545	3.77
433.901	3.8
434.257	3.82
434.613	3.8
434.969	3.81
435.325	3.8
435.681	3.8
436.036	3.81
436.392	3.83
436.748	3.84
437.104	3.86
437.459	3.85
437.815	3.88
438.171	3.89
438.526	3.91
438.882	3.89
439.237	3.88
439.593	3.9
439.948	3.88
440.304	3.86
440.659	3.87
441.014	3.89
441.369	3.88
441.725	3.88
442.08	3.9
442.435	3.9
442.79	3.9
443.145	3.91
443.5	3.9
443.855	3.9
444.21	3.89
444.565	3.88
444.92	3.88
445.275	3.88
445.629	3.86
445.984	3.86
446.339	3.87
446.693	3.87
447.048	3.84
447.403	3.83
447.757	3.82
448.112	3.8
448.466	3.79
448.82	3.77
449.175	3.77
449.529	3.76
449.883	3.75
450.238	3.75
450.592	3.76
450.946	3.75
451.3	3.74
451.654	3.72
452.008	3.7
452.362	3.68
452.716	3.65
453.07	3.64
453.424	3.61
453.778	3.58
454.132	3.55
454.486	3.57
454.839	3.57
455.193	3.57
455.547	3.57
455.9	3.58
456.254	3.58
456.607	3.56
456.961	3.58
457.314	3.58
457.668	3.57
458.021	3.55
458.375	3.54
458.728	3.54
459.081	3.56
459.434	3.58
459.787	3.59
460.141	3.59
460.494	3.61
460.847	3.62
461.2	3.63
461.553	3.65
461.906	3.64
462.259	3.66
462.611	3.67
462.964	3.7
463.317	3.7
463.67	3.71
464.022	3.71
464.375	3.72
464.728	3.74
465.08	3.75
465.433	3.76
465.785	3.79
466.138	3.79
466.49	3.81
466.843	3.84
467.195	3.87
467.547	3.88
467.899	3.89
468.252	3.9
468.604	3.93
468.956	3.94
469.308	3.96
469.66	3.99
470.012	4.01
470.364	4.01
470.716	4.02
471.068	4.03
471.42	4.07
471.772	4.07
472.123	4.08
472.475	4.12
472.827	4.15
473.178	4.17
473.53	4.21
473.882	4.2
474.233	4.18
474.585	4.18
474.936	4.19
475.288	4.2
475.639	4.21
475.99	4.21
476.342	4.21
476.693	4.22
477.044	4.21
477.395	4.17
477.746	4.18
478.097	4.19
478.448	4.18
478.8	4.15
479.15	4.12
479.501	4.11
479.852	4.1
480.203	4.1
480.554	4.09
480.905	4.08
481.255	4.07
481.606	4.08
481.957	4.09
482.307	4.09
482.658	4.1
483.009	4.1
483.359	4.09
483.709	4.09
484.06	4.09
484.41	4.08
484.761	4.1
485.111	4.09
485.461	4.07
485.811	4.09
486.162	4.09
486.512	4.09
486.862	4.08
487.212	4.08
487.562	4.06
487.912	4.06
488.262	4.06
488.612	4.06
488.961	4.05
489.311	4.04
489.661	4.03
490.011	4.02
490.36	4.01
490.71	4.01
491.06	4.01
491.409	4.01
491.759	4.02
492.108	4.01
492.458	4.03
492.807	4.05
493.157	4.05
493.506	4.06
493.855	4.08
494.204	4.11
494.554	4.13
494.903	4.16
495.252	4.19
495.601	4.22
495.95	4.27
496.299	4.3
496.648	4.35
496.997	4.37
497.346	4.42
497.695	4.48
498.043	4.52
498.392	4.55
498.741	4.6
499.09	4.68
499.438	4.76
499.787	4.82
500.135	4.86
500.484	4.91
500.832	4.99
501.181	5.07
501.529	5.14
501.878	5.2
502.226	5.3
502.574	5.38
502.923	5.46
503.271	5.55
503.619	5.63
503.967	5.7
504.315	5.81
504.663	5.92
505.011	6.02
505.359	6.11
505.707	6.19
506.055	6.31
506.403	6.37
506.751	6.45
507.098	6.57
507.446	6.67
507.794	6.76
508.141	6.86
508.489	7.01
508.837	7.12
509.184	7.22
509.531	7.32
509.879	7.43
510.226	7.52
510.574	7.62
510.921	7.75
511.268	7.88
511.616	8.01
511.963	8.14
512.31	8.27
512.657	8.43
513.004	8.57
513.351	8.71
513.698	8.86
514.045	9.01
514.392	9.17
514.739	9.37
515.086	9.51
515.432	9.69
515.779	9.8
516.126	9.95
516.473	10.09
516.819	10.21
517.166	10.35
517.512	10.5
517.859	10.62
518.205	10.73
518.552	10.85
518.898	10.95
519.245	11.06
519.591	11.18
519.937	11.28
520.283	11.41
520.629	11.54
520.976	11.7
521.322	11.83
521.668	11.94
522.014	12.09
522.36	12.26
522.706	12.44
523.052	12.63
523.398	12.79
523.743	13.01
524.089	13.23
524.435	13.4
524.781	13.59
525.126	13.75
525.472	13.91
525.817	14.06
526.163	14.2
526.509	14.31
526.854	14.42
527.199	14.55
527.545	14.67
527.89	14.77
528.235	14.88
528.581	15.02
528.926	15.14
529.271	15.26
529.616	15.38
529.961	15.49
530.306	15.6
530.651	15.74
530.996	15.86
531.341	16
531.686	16.15
532.031	16.3
532.376	16.46
532.721	16.63
533.065	16.79
533.41	16.96
533.755	17.16
534.099	17.36
534.444	17.53
534.788	17.7
535.133	17.88
535.477	18.04
535.822	18.22
536.166	18.42
536.51	18.64
536.855	18.87
537.199	19.08
537.543	19.32
537.887	19.57
538.231	19.83
538.576	20.04
538.92	20.28
539.264	20.5
539.608	20.71
539.951	20.9
540.295	21.11
540.639	21.31
540.983	21.5
541.327	21.69
541.671	21.91
542.014	22.11
542.358	22.29
542.701	22.49
543.045	22.67
543.389	22.86
543.732	23.04
544.075	23.21
544.419	23.41
544.762	23.63
545.105	23.86
545.449	24.05
545.792	24.28
546.135	24.5
546.478	24.73
546.821	25
547.165	25.28
547.508	25.53
547.851	25.82
548.194	26.05
548.536	26.26
548.879	26.49
549.222	26.74
549.565	27.04
549.908	27.28
550.25	27.55
550.593	27.78
550.936	28.02
551.278	28.28
551.621	28.57
551.963	28.85
552.306	29.06
552.648	29.34
552.991	29.62
553.333	29.89
553.675	30.12
554.017	30.33
554.36	30.5
554.702	30.68
555.044	30.87
555.386	31.09
555.728	31.31
556.07	31.52
556.412	31.74
556.754	31.9
557.096	32.14
557.438	32.38
557.78	32.61
558.121	32.86
558.463	33.1
558.805	33.31
559.147	33.43
559.488	33.59
559.83	33.81
560.171	34.07
560.513	34.22
560.854	34.42
561.196	34.64
561.537	34.88
561.878	35.13
562.22	35.29
562.561	35.48
562.902	35.63
563.243	35.79
563.584	35.95
563.925	36.19
564.266	36.36
564.607	36.51
564.948	36.67
565.289	36.79
565.63	36.94
565.971	37.13
566.312	37.3
566.653	37.51
566.993	37.62
567.334	37.7
567.675	37.9
568.015	37.99
568.356	38.17
568.696	38.31
569.037	38.43
569.377	38.53
569.718	38.65
570.058	38.85
570.398	38.99
570.739	39.15
571.079	39.21
571.419	39.3
571.759	39.4
572.099	39.51
572.439	39.66
572.779	39.74
573.119	39.8
573.459	39.9
573.799	39.94
574.139	40.05
574.479	40.16
574.819	40.25
575.158	40.38
575.498	40.44
575.838	40.47
576.177	40.54
576.517	40.69
576.856	40.76
577.196	40.82
577.535	40.91
577.875	40.97
578.214	41.04
578.553	41.12
578.893	41.27
579.232	41.38
579.571	41.44
579.91	41.56
580.25	41.6
580.589	41.68
580.928	41.79
581.267	41.85
581.606	41.84
581.945	41.86
582.283	41.95
582.622	42.01
582.961	42.02
583.3	42.07
583.639	42.14
583.977	42.22
584.316	42.22
584.654	42.3
584.993	42.33
585.332	42.39
585.67	42.47
586.008	42.46
586.347	42.5
586.685	42.58
587.024	42.57
587.362	42.67
587.7	42.81
588.038	42.85
588.376	42.92
588.715	43.06
589.053	43.08
589.391	43.1
589.729	43.07
590.067	43.18
590.404	43.29
590.742	43.33
591.08	43.39
591.418	43.49
591.756	43.54
592.093	43.61
592.431	43.67
592.769	43.71
593.106	43.77
593.444	43.76
593.781	43.88
594.119	44.02
594.456	44.08
594.793	44.1
595.131	44.09
595.468	44.14
595.805	44.21
596.143	44.27
596.48	44.35
596.817	44.45
597.154	44.55
597.491	44.55
597.828	44.65
598.165	44.65
598.502	44.7
598.839	44.69
599.176	44.66
599.512	44.72
599.849	44.81
600.186	44.91
600.523	45.03
600.859	45.01
601.196	44.97
601.532	44.95
601.869	44.95
602.205	45.05
602.542	45.1
602.878	45.15
603.215	45.18
603.551	45.2
603.887	45.3
604.223	45.29
604.56	45.37
604.896	45.36
605.232	45.39
605.568	45.41
605.904	45.42
606.24	45.51
606.576	45.52
606.912	45.48
607.248	45.52
607.583	45.51
607.919	45.55
608.255	45.59
608.591	45.69
608.926	45.66
609.262	45.73
609.597	45.74
609.933	45.71
610.268	45.72
610.604	45.72
610.939	45.71
611.275	45.73
611.61	45.7
611.945	45.69
612.281	45.76
612.616	45.77
612.951	45.85
613.286	45.83
613.621	45.89
613.956	45.99
614.291	45.93
614.626	45.93
614.961	45.96
615.296	46.01
615.631	45.97
615.966	46.17
616.3	46.14
616.635	46.11
616.97	46.13
617.304	46.2
617.639	46.28
617.973	46.18
618.308	46.19
618.642	46.21
618.977	46.19
619.311	46.23
619.646	46.3
619.98	46.29
620.314	46.42
620.648	46.39
620.983	46.32
621.317	46.46
621.651	46.49
621.985	46.47
622.319	46.49
622.653	46.57
622.987	46.51
623.321	46.44
623.655	46.55
623.988	46.66
624.322	46.65
624.656	46.68
624.99	46.74
625.323	46.72
625.657	46.7
625.99	46.72
626.324	46.69
626.657	46.75
626.991	46.79
627.324	46.72
627.658	46.82
627.991	46.82
628.324	46.72
628.657	46.69
628.991	46.71
629.324	46.72
629.657	46.62
629.99	46.56
630.323	46.62
630.656	46.57
630.989	46.49
631.322	46.55
631.655	46.48
631.987	46.54
632.32	46.61
632.653	46.66
632.986	46.71
633.318	46.66
633.651	46.63
633.984	46.58
634.316	46.64
634.649	46.58
634.981	46.71
635.313	46.78
635.646	46.84
635.978	46.89
636.31	46.93
636.643	46.97
636.975	47.06
637.307	47.07
637.639	47.07
637.971	47.01
638.303	47.09
638.635	47.14
638.967	47.16
639.299	47.12
639.631	47.08
639.963	47.13
640.295	47.19
640.626	47.23
640.958	47.27
641.29	47.18
641.621	47.17
641.953	47.09
642.285	47.01
642.616	46.97
642.948	46.95
643.279	46.86
643.61	47
643.942	47.04
644.273	47.05
644.604	47.13
644.936	47.18
645.267	47.06
645.598	47.05
645.929	46.94
646.26	46.94
646.591	47.04
646.922	47.06
647.253	47.12
647.584	47.09
647.915	47.16
648.245	47.32
648.576	47.39
648.907	47.43
649.238	47.57
649.568	47.64
649.899	47.66
650.229	47.85
650.56	47.79
650.89	47.78
651.221	47.83
651.551	47.82
651.882	47.92
652.212	47.85
652.542	47.93
652.872	48
653.203	48.13
653.533	48.1
653.863	48.06
654.193	48.13
654.523	48.13
654.853	48.14
655.183	48.1
655.513	48.16
655.843	48.28
656.172	48.22
656.502	48.17
656.832	48.07
657.162	47.96
657.491	48
657.821	47.94
658.15	48
658.48	48.09
658.809	48.09
659.139	48.23
659.468	48.17
659.798	48.31
660.127	48.25
660.456	48.36
660.785	48.4
661.115	48.29
661.444	48.3
661.773	48.27
662.102	48.32
662.431	48.26
662.76	48.12
663.089	48.1
663.418	48.12
663.747	48.23
664.076	48.3
664.404	48.26
664.733	48.31
665.062	48.18
665.39	48.15
665.719	48.06
666.048	47.96
