Data from UWBM91361_Reflection_00006.txt Node
Date: Sun May 02 12:21:24 EDT 2021
User: vgr7
Spectrometer: USB2G7710
Scans to average: 10
Trigger mode: 4
Integration Time (sec): 1.000000E-1
Electric dark correction enabled: true
Boxcar width: 10
XAxis mode: Wavelengths
Number of Pixels in Spectrum: 2048
>>>>>Begin Spectral Data<<<<<
177.721	493.15
178.105	-405.88
178.488	-56.73
178.871	-35.57
179.254	-268.97
179.636	-163.64
180.019	0
180.402	175
180.785	90.28
181.168	47.87
181.55	49.54
181.933	9.92
182.316	-14.2
182.698	-41.74
183.081	-49.41
183.463	-15.65
183.846	-4.07
184.228	-13.9
184.611	8.32
184.993	22.38
185.376	40.64
185.758	31.02
186.14	32.54
186.522	30.9
186.904	29.33
187.287	26.03
187.669	17.98
188.051	17.04
188.433	18.14
188.815	22.28
189.197	25.74
189.579	25.71
189.961	23.21
190.342	20.89
190.724	20.66
191.106	19.9
191.488	22.26
191.869	19.33
192.251	19.05
192.633	16.55
193.014	11.92
193.396	6.39
193.777	10.14
194.159	8.44
194.54	2.22
194.922	-1.81
195.303	-3.52
195.684	0.83
196.065	-4.04
196.447	-6.8
196.828	-10
197.209	-12.5
197.59	-14.28
197.971	-13.45
198.352	-10.9
198.733	-6.89
199.114	-9.81
199.495	-13.91
199.876	-12.12
200.257	-10.63
200.638	-9.35
201.018	-9.45
201.399	-2.59
201.78	-6.36
202.16	-4.08
202.541	-3.3
202.922	-0.21
203.302	-1.34
203.683	-4.78
204.063	-1.79
204.444	0
204.824	3.04
205.204	5.87
205.585	5.19
205.965	-1.38
206.345	1.76
206.725	-5.04
207.106	-2.6
207.486	-2.93
207.866	-0.19
208.246	1.4
208.626	6.79
209.006	6.97
209.386	3.8
209.766	6.43
210.145	4.39
210.525	7.56
210.905	6.69
211.285	10.39
211.664	10.52
212.044	9.38
212.424	11.21
212.803	8.6
213.183	8.62
213.562	8.26
213.942	12.24
214.321	8.2
214.701	7.7
215.08	9.96
215.459	9.42
215.838	4.38
216.218	3.63
216.597	-1.99
216.976	-4.21
217.355	-0.18
217.734	0.53
218.113	1.55
218.492	0.82
218.871	1.11
219.25	-1.87
219.629	-0.9
220.008	-2.04
220.387	-6.74
220.766	-9.89
221.144	-12.62
221.523	-6.63
221.902	-4.84
222.28	-4.16
222.659	0.28
223.037	1.08
223.416	1.55
223.794	2.71
224.173	1.41
224.551	2.33
224.929	1.24
225.308	1.34
225.686	0.27
226.064	0.34
226.442	1.44
226.821	1.34
227.199	2.23
227.577	1.78
227.955	2.24
228.333	2.71
228.711	2.06
229.089	3.29
229.467	1.88
229.845	2.93
230.222	3.66
230.6	3.71
230.978	3.88
231.356	3.75
231.733	3.37
232.111	4.04
232.488	3.62
232.866	3.98
233.243	3.17
233.621	4.18
233.998	4.08
234.376	3.79
234.753	4.67
235.13	4.54
235.508	5.64
235.885	5.92
236.262	6.3
236.639	6.87
237.016	6.86
237.393	6.58
237.77	5.97
238.147	5.35
238.524	5.39
238.901	5.36
239.278	5.05
239.655	5.16
240.032	5
240.409	5.04
240.785	5.2
241.162	5.22
241.539	5.07
241.915	5.09
242.292	5.14
242.668	4.96
243.045	4.94
243.421	4.69
243.798	4.69
244.174	4.6
244.551	4.49
244.927	4.29
245.303	4.31
245.679	4.32
246.056	4.25
246.432	4.33
246.808	4.29
247.184	4.41
247.56	4.4
247.936	4.48
248.312	4.49
248.688	4.48
249.064	4.48
249.44	4.44
249.815	4.47
250.191	4.38
250.567	4.38
250.943	4.39
251.318	4.49
251.694	4.41
252.069	4.4
252.445	4.5
252.82	4.55
253.196	4.55
253.571	4.56
253.947	4.76
254.322	4.64
254.697	4.57
255.073	4.48
255.448	4.51
255.823	4.44
256.198	4.34
256.573	4.24
256.948	4.17
257.323	4.21
257.698	4.16
258.073	4.21
258.448	4.23
258.823	4.22
259.198	4.18
259.573	4.19
259.948	4.24
260.322	4.17
260.697	4.15
261.072	4.16
261.446	4.13
261.821	4.1
262.195	4.06
262.57	4.08
262.944	4.09
263.319	4.03
263.693	4
264.067	4.04
264.442	4.04
264.816	4.06
265.19	4.02
265.564	4.05
265.938	3.95
266.313	3.9
266.687	3.82
267.061	3.81
267.435	3.74
267.809	3.71
268.183	3.78
268.556	3.78
268.93	3.82
269.304	3.85
269.678	3.8
270.051	3.78
270.425	3.8
270.799	3.77
271.172	3.82
271.546	3.85
271.919	3.85
272.293	3.83
272.666	3.81
273.04	3.83
273.413	3.75
273.787	3.74
274.16	3.74
274.533	3.77
274.906	3.73
275.279	3.77
275.653	3.77
276.026	3.68
276.399	3.68
276.772	3.66
277.145	3.7
277.518	3.73
277.891	3.78
278.263	3.76
278.636	3.79
279.009	3.82
279.382	3.76
279.755	3.75
280.127	3.78
280.5	3.8
280.872	3.75
281.245	3.82
281.617	3.84
281.99	3.86
282.362	3.85
282.735	3.85
283.107	3.84
283.479	3.84
283.852	3.86
284.224	3.87
284.596	3.84
284.968	3.8
285.34	3.75
285.713	3.77
286.085	3.76
286.457	3.75
286.829	3.74
287.201	3.72
287.572	3.72
287.944	3.73
288.316	3.72
288.688	3.75
289.06	3.74
289.431	3.75
289.803	3.72
290.175	3.73
290.546	3.75
290.918	3.76
291.289	3.76
291.661	3.76
292.032	3.75
292.403	3.74
292.775	3.77
293.146	3.76
293.517	3.77
293.889	3.75
294.26	3.71
294.631	3.73
295.002	3.76
295.373	3.79
295.744	3.76
296.115	3.76
296.486	3.76
296.857	3.74
297.228	3.75
297.599	3.76
297.97	3.76
298.34	3.79
298.711	3.8
299.082	3.8
299.452	3.82
299.823	3.83
300.194	3.84
300.564	3.83
300.935	3.88
301.305	3.86
301.676	3.83
302.046	3.84
302.416	3.8
302.787	3.83
303.157	3.86
303.527	3.89
303.897	3.9
304.267	3.89
304.637	3.9
305.008	3.95
305.378	3.95
305.748	3.95
306.117	3.94
306.487	3.9
306.857	3.9
307.227	3.87
307.597	3.84
307.967	3.83
308.336	3.84
308.706	3.82
309.076	3.8
309.445	3.84
309.815	3.87
310.184	3.87
310.554	3.85
310.923	3.78
311.293	3.8
311.662	3.79
312.031	3.8
312.401	3.81
312.77	3.79
313.139	3.83
313.508	3.82
313.877	3.86
314.246	3.87
314.616	3.86
314.985	3.88
315.353	3.93
315.722	3.93
316.091	3.92
316.46	3.93
316.829	3.96
317.198	3.98
317.567	3.98
317.935	3.95
318.304	3.95
318.672	4
319.041	3.99
319.41	3.99
319.778	4.02
320.147	4
320.515	3.98
320.883	3.97
321.252	3.96
321.62	3.87
321.988	3.85
322.357	3.87
322.725	3.85
323.093	3.85
323.461	3.84
323.829	3.84
324.197	3.8
324.565	3.81
324.933	3.81
325.301	3.81
325.669	3.84
326.037	3.83
326.405	3.8
326.772	3.79
327.14	3.8
327.508	3.77
327.875	3.78
328.243	3.78
328.61	3.77
328.978	3.82
329.346	3.83
329.713	3.81
330.08	3.82
330.448	3.84
330.815	3.84
331.182	3.83
331.55	3.81
331.917	3.86
332.284	3.82
332.651	3.83
333.018	3.84
333.385	3.84
333.752	3.86
334.119	3.86
334.486	3.86
334.853	3.86
335.22	3.86
335.587	3.84
335.954	3.83
336.32	3.81
336.687	3.78
337.054	3.76
337.42	3.78
337.787	3.77
338.153	3.76
338.52	3.74
338.886	3.78
339.253	3.77
339.619	3.76
339.986	3.76
340.352	3.76
340.718	3.79
341.084	3.78
341.451	3.76
341.817	3.76
342.183	3.81
342.549	3.8
342.915	3.82
343.281	3.86
343.647	3.88
344.013	3.89
344.379	3.91
344.745	3.93
345.11	3.95
345.476	3.94
345.842	3.95
346.208	3.95
346.573	3.93
346.939	3.97
347.304	3.96
347.67	3.95
348.035	3.96
348.401	3.94
348.766	3.93
349.132	3.96
349.497	3.96
349.862	3.9
350.228	3.91
350.593	3.89
350.958	3.87
351.323	3.85
351.688	3.87
352.053	3.85
352.418	3.88
352.783	3.86
353.148	3.86
353.513	3.87
353.878	3.87
354.243	3.88
354.608	3.86
354.972	3.86
355.337	3.85
355.702	3.8
356.066	3.81
356.431	3.81
356.795	3.8
357.16	3.8
357.524	3.8
357.889	3.79
358.253	3.81
358.618	3.8
358.982	3.82
359.346	3.82
359.71	3.81
360.075	3.79
360.439	3.81
360.803	3.8
361.167	3.77
361.531	3.78
361.895	3.77
362.259	3.76
362.623	3.77
362.987	3.78
363.351	3.8
363.714	3.81
364.078	3.8
364.442	3.79
364.806	3.79
365.169	3.8
365.533	3.78
365.896	3.77
366.26	3.78
366.623	3.75
366.987	3.74
367.35	3.77
367.714	3.76
368.077	3.76
368.44	3.75
368.803	3.77
369.167	3.77
369.53	3.78
369.893	3.79
370.256	3.8
370.619	3.8
370.982	3.8
371.345	3.77
371.708	3.8
372.071	3.79
372.434	3.81
372.797	3.81
373.159	3.84
373.522	3.84
373.885	3.84
374.247	3.86
374.61	3.87
374.973	3.84
375.335	3.84
375.698	3.83
376.06	3.83
376.423	3.82
376.785	3.82
377.147	3.82
377.51	3.82
377.872	3.81
378.234	3.81
378.596	3.81
378.958	3.83
379.321	3.83
379.683	3.82
380.045	3.8
380.407	3.8
380.769	3.8
381.13	3.79
381.492	3.78
381.854	3.77
382.216	3.78
382.578	3.79
382.939	3.81
383.301	3.82
383.663	3.83
384.024	3.84
384.386	3.85
384.747	3.85
385.109	3.85
385.47	3.85
385.832	3.86
386.193	3.85
386.554	3.85
386.916	3.85
387.277	3.85
387.638	3.87
387.999	3.87
388.36	3.87
388.721	3.88
389.082	3.88
389.443	3.88
389.804	3.87
390.165	3.86
390.526	3.86
390.887	3.85
391.248	3.86
391.609	3.86
391.969	3.87
392.33	3.88
392.691	3.87
393.051	3.87
393.412	3.86
393.772	3.86
394.133	3.86
394.493	3.86
394.854	3.86
395.214	3.85
395.574	3.86
395.935	3.85
396.295	3.85
396.655	3.85
397.015	3.85
397.376	3.85
397.736	3.85
398.096	3.85
398.456	3.86
398.816	3.86
399.176	3.84
399.535	3.83
399.895	3.83
400.255	3.82
400.615	3.83
400.975	3.83
401.334	3.83
401.694	3.83
402.054	3.83
402.413	3.83
402.773	3.84
403.132	3.84
403.492	3.84
403.851	3.85
404.211	3.85
404.57	3.86
404.929	3.86
405.288	3.87
405.648	3.87
406.007	3.87
406.366	3.87
406.725	3.88
407.084	3.87
407.443	3.88
407.802	3.87
408.161	3.87
408.52	3.87
408.879	3.87
409.238	3.88
409.596	3.87
409.955	3.87
410.314	3.86
410.673	3.86
411.031	3.87
411.39	3.87
411.748	3.87
412.107	3.86
412.465	3.86
412.824	3.86
413.182	3.87
413.54	3.87
413.899	3.87
414.257	3.87
414.615	3.88
414.974	3.88
415.332	3.91
415.69	3.91
416.048	3.91
416.406	3.92
416.764	3.93
417.122	3.93
417.48	3.94
417.838	3.95
418.195	3.96
418.553	3.96
418.911	3.98
419.269	3.98
419.626	3.99
419.984	4.01
420.342	4.01
420.699	4.02
421.057	4.02
421.414	4.02
421.772	4.03
422.129	4.04
422.486	4.04
422.844	4.04
423.201	4.05
423.558	4.05
423.915	4.05
424.273	4.05
424.63	4.05
424.987	4.05
425.344	4.05
425.701	4.05
426.058	4.04
426.415	4.03
426.772	4.02
427.128	4.02
427.485	4.01
427.842	4
428.199	3.99
428.555	3.99
428.912	3.99
429.269	3.98
429.625	3.97
429.982	3.97
430.338	3.96
430.695	3.96
431.051	3.96
431.407	3.96
431.764	3.96
432.12	3.96
432.476	3.96
432.832	3.96
433.189	3.96
433.545	3.97
433.901	3.98
434.257	3.98
434.613	3.98
434.969	3.98
435.325	3.99
435.681	4
436.036	4
436.392	4
436.748	4.01
437.104	4.01
437.459	4.02
437.815	4.02
438.171	4.02
438.526	4.02
438.882	4.03
439.237	4.03
439.593	4.04
439.948	4.05
440.304	4.05
440.659	4.05
441.014	4.05
441.369	4.05
441.725	4.06
442.08	4.07
442.435	4.07
442.79	4.07
443.145	4.07
443.5	4.08
443.855	4.08
444.21	4.08
444.565	4.08
444.92	4.09
445.275	4.09
445.629	4.1
445.984	4.11
446.339	4.11
446.693	4.11
447.048	4.11
447.403	4.11
447.757	4.11
448.112	4.11
448.466	4.11
448.82	4.11
449.175	4.11
449.529	4.11
449.883	4.11
450.238	4.1
450.592	4.09
450.946	4.09
451.3	4.08
451.654	4.08
452.008	4.08
452.362	4.06
452.716	4.06
453.07	4.06
453.424	4.05
453.778	4.05
454.132	4.05
454.486	4.04
454.839	4.04
455.193	4.04
455.547	4.04
455.9	4.04
456.254	4.04
456.607	4.05
456.961	4.06
457.314	4.06
457.668	4.07
458.021	4.08
458.375	4.08
458.728	4.09
459.081	4.09
459.434	4.09
459.787	4.09
460.141	4.09
460.494	4.09
460.847	4.09
461.2	4.08
461.553	4.08
461.906	4.09
462.259	4.08
462.611	4.09
462.964	4.09
463.317	4.09
463.67	4.08
464.022	4.07
464.375	4.06
464.728	4.06
465.08	4.05
465.433	4.04
465.785	4.04
466.138	4.04
466.49	4.02
466.843	4.02
467.195	4.03
467.547	4.03
467.899	4.04
468.252	4.03
468.604	4.04
468.956	4.04
469.308	4.04
469.66	4.04
470.012	4.03
470.364	4.03
470.716	4.03
471.068	4.03
471.42	4.03
471.772	4.04
472.123	4.04
472.475	4.04
472.827	4.05
473.178	4.05
473.53	4.04
473.882	4.05
474.233	4.06
474.585	4.06
474.936	4.06
475.288	4.06
475.639	4.06
475.99	4.06
476.342	4.07
476.693	4.07
477.044	4.07
477.395	4.08
477.746	4.09
478.097	4.09
478.448	4.12
478.8	4.19
479.15	4.3
479.501	4.44
479.852	4.6
480.203	4.76
480.554	4.94
480.905	5.11
481.255	5.28
481.606	5.45
481.957	5.62
482.307	5.77
482.658	5.92
483.009	6.05
483.359	6.16
483.709	6.25
484.06	6.35
484.41	6.43
484.761	6.51
485.111	6.59
485.461	6.67
485.811	6.74
486.162	6.77
486.512	6.76
486.862	6.73
487.212	6.67
487.562	6.6
487.912	6.5
488.262	6.4
488.612	6.29
488.961	6.16
489.311	6.03
489.661	5.9
490.011	5.77
490.36	5.63
490.71	5.48
491.06	5.34
491.409	5.19
491.759	5.07
492.108	4.97
492.458	4.88
492.807	4.8
493.157	4.72
493.506	4.64
493.855	4.56
494.204	4.49
494.554	4.42
494.903	4.36
495.252	4.3
495.601	4.25
495.95	4.2
496.299	4.16
496.648	4.11
496.997	4.07
497.346	4.05
497.695	4.04
498.043	4.06
498.392	4.09
498.741	4.14
499.09	4.16
499.438	4.17
499.787	4.17
500.135	4.18
500.484	4.18
500.832	4.19
501.181	4.19
501.529	4.19
501.878	4.19
502.226	4.18
502.574	4.18
502.923	4.18
503.271	4.18
503.619	4.19
503.967	4.19
504.315	4.2
504.663	4.2
505.011	4.21
505.359	4.21
505.707	4.21
506.055	4.22
506.403	4.23
506.751	4.23
507.098	4.24
507.446	4.24
507.794	4.24
508.141	4.25
508.489	4.25
508.837	4.26
509.184	4.27
509.531	4.28
509.879	4.29
510.226	4.29
510.574	4.3
510.921	4.3
511.268	4.3
511.616	4.3
511.963	4.31
512.31	4.31
512.657	4.32
513.004	4.32
513.351	4.33
513.698	4.33
514.045	4.34
514.392	4.35
514.739	4.36
515.086	4.36
515.432	4.37
515.779	4.38
516.126	4.38
516.473	4.38
516.819	4.39
517.166	4.39
517.512	4.4
517.859	4.4
518.205	4.41
518.552	4.4
518.898	4.41
519.245	4.41
519.591	4.4
519.937	4.4
520.283	4.41
520.629	4.41
520.976	4.41
521.322	4.41
521.668	4.42
522.014	4.42
522.36	4.42
522.706	4.43
523.052	4.44
523.398	4.48
523.743	4.55
524.089	4.64
524.435	4.74
524.781	4.84
525.126	4.95
525.472	5.06
525.817	5.17
526.163	5.27
526.509	5.37
526.854	5.45
527.199	5.51
527.545	5.55
527.89	5.57
528.235	5.59
528.581	5.62
528.926	5.63
529.271	5.64
529.616	5.66
529.961	5.68
530.306	5.68
530.651	5.67
530.996	5.63
531.341	5.57
531.686	5.5
532.031	5.41
532.376	5.3
532.721	5.19
533.065	5.07
533.41	4.96
533.755	4.86
534.099	4.78
534.444	4.71
534.788	4.67
535.133	4.64
535.477	4.61
535.822	4.58
536.166	4.56
536.51	4.54
536.855	4.53
537.199	4.52
537.543	4.51
537.887	4.51
538.231	4.52
538.576	4.54
538.92	4.56
539.264	4.58
539.608	4.61
539.951	4.63
540.295	4.67
540.639	4.68
540.983	4.69
541.327	4.68
541.671	4.68
542.014	4.68
542.358	4.68
542.701	4.68
543.045	4.68
543.389	4.68
543.732	4.67
544.075	4.67
544.419	4.67
544.762	4.65
545.105	4.64
545.449	4.62
545.792	4.59
546.135	4.57
546.478	4.55
546.821	4.52
547.165	4.51
547.508	4.5
547.851	4.49
548.194	4.5
548.536	4.51
548.879	4.52
549.222	4.51
549.565	4.51
549.908	4.5
550.25	4.5
550.593	4.49
550.936	4.49
551.278	4.48
551.621	4.47
551.963	4.48
552.306	4.48
552.648	4.47
552.991	4.45
553.333	4.44
553.675	4.43
554.017	4.43
554.36	4.44
554.702	4.44
555.044	4.43
555.386	4.44
555.728	4.43
556.07	4.43
556.412	4.42
556.754	4.42
557.096	4.42
557.438	4.41
557.78	4.41
558.121	4.4
558.463	4.4
558.805	4.41
559.147	4.41
559.488	4.41
559.83	4.41
560.171	4.42
560.513	4.43
560.854	4.44
561.196	4.44
561.537	4.45
561.878	4.44
562.22	4.45
562.561	4.45
562.902	4.46
563.243	4.46
563.584	4.47
563.925	4.48
564.266	4.48
564.607	4.49
564.948	4.49
565.289	4.5
565.63	4.5
565.971	4.5
566.312	4.51
566.653	4.51
566.993	4.51
567.334	4.51
567.675	4.51
568.015	4.51
568.356	4.52
568.696	4.52
569.037	4.53
569.377	4.54
569.718	4.54
570.058	4.54
570.398	4.55
570.739	4.55
571.079	4.55
571.419	4.56
571.759	4.56
572.099	4.56
572.439	4.56
572.779	4.57
573.119	4.58
573.459	4.57
573.799	4.57
574.139	4.58
574.479	4.59
574.819	4.59
575.158	4.59
575.498	4.58
575.838	4.58
576.177	4.57
576.517	4.57
576.856	4.56
577.196	4.55
577.535	4.55
577.875	4.55
578.214	4.55
578.553	4.54
578.893	4.52
579.232	4.53
579.571	4.52
579.91	4.51
580.25	4.5
580.589	4.49
580.928	4.48
581.267	4.47
581.606	4.47
581.945	4.46
582.283	4.47
582.622	4.47
582.961	4.47
583.3	4.49
583.639	4.49
583.977	4.5
584.316	4.52
584.654	4.52
584.993	4.52
585.332	4.52
585.67	4.53
586.008	4.55
586.347	4.56
586.685	4.57
587.024	4.57
587.362	4.59
587.7	4.6
588.038	4.61
588.376	4.61
588.715	4.6
589.053	4.6
589.391	4.6
589.729	4.6
590.067	4.6
590.404	4.59
590.742	4.59
591.08	4.6
591.418	4.59
591.756	4.59
592.093	4.61
592.431	4.61
592.769	4.62
593.106	4.61
593.444	4.62
593.781	4.62
594.119	4.63
594.456	4.62
594.793	4.61
595.131	4.63
595.468	4.63
595.805	4.64
596.143	4.64
596.48	4.64
596.817	4.65
597.154	4.66
597.491	4.66
597.828	4.67
598.165	4.66
598.502	4.66
598.839	4.67
599.176	4.66
599.512	4.66
599.849	4.65
600.186	4.65
600.523	4.65
600.859	4.65
601.196	4.65
601.532	4.67
601.869	4.68
602.205	4.68
602.542	4.68
602.878	4.68
603.215	4.69
603.551	4.7
603.887	4.7
604.223	4.7
604.56	4.7
604.896	4.7
605.232	4.71
605.568	4.72
605.904	4.71
606.24	4.72
606.576	4.72
606.912	4.74
607.248	4.73
607.583	4.74
607.919	4.73
608.255	4.72
608.591	4.72
608.926	4.71
609.262	4.72
609.597	4.72
609.933	4.72
610.268	4.73
610.604	4.72
610.939	4.72
611.275	4.72
611.61	4.72
611.945	4.73
612.281	4.73
612.616	4.72
612.951	4.72
613.286	4.73
613.621	4.72
613.956	4.72
614.291	4.73
614.626	4.73
614.961	4.74
615.296	4.74
615.631	4.74
615.966	4.74
616.3	4.75
616.635	4.74
616.97	4.74
617.304	4.74
617.639	4.74
617.973	4.75
618.308	4.75
618.642	4.74
618.977	4.74
619.311	4.74
619.646	4.74
619.98	4.73
620.314	4.72
620.648	4.74
620.983	4.73
621.317	4.71
621.651	4.72
621.985	4.71
622.319	4.71
622.653	4.7
622.987	4.71
623.321	4.71
623.655	4.71
623.988	4.71
624.322	4.71
624.656	4.72
624.99	4.72
625.323	4.73
625.657	4.72
625.99	4.73
626.324	4.74
626.657	4.75
626.991	4.76
627.324	4.77
627.658	4.76
627.991	4.76
628.324	4.78
628.657	4.78
628.991	4.8
629.324	4.8
629.657	4.81
629.99	4.81
630.323	4.81
630.656	4.82
630.989	4.83
631.322	4.83
631.655	4.82
631.987	4.81
632.32	4.82
632.653	4.84
632.986	4.84
633.318	4.83
633.651	4.83
633.984	4.83
634.316	4.83
634.649	4.83
634.981	4.83
635.313	4.82
635.646	4.84
635.978	4.83
636.31	4.83
636.643	4.83
636.975	4.84
637.307	4.84
637.639	4.84
637.971	4.83
638.303	4.82
638.635	4.83
638.967	4.84
639.299	4.81
639.631	4.81
639.963	4.81
640.295	4.81
640.626	4.83
640.958	4.84
641.29	4.83
641.621	4.83
641.953	4.85
642.285	4.88
642.616	4.87
642.948	4.87
643.279	4.87
643.61	4.87
643.942	4.86
644.273	4.86
644.604	4.87
644.936	4.88
645.267	4.89
645.598	4.88
645.929	4.9
646.26	4.91
646.591	4.91
646.922	4.91
647.253	4.92
647.584	4.91
647.915	4.91
648.245	4.93
648.576	4.95
648.907	4.93
649.238	4.93
649.568	4.92
649.899	4.93
650.229	4.93
650.56	4.93
650.89	4.95
651.221	4.96
651.551	4.96
651.882	4.97
652.212	4.97
652.542	4.98
652.872	4.98
653.203	4.99
653.533	5.01
653.863	5.01
654.193	5.01
654.523	5
654.853	4.99
655.183	5
655.513	4.99
655.843	4.99
656.172	5
656.502	5.02
656.832	5.02
657.162	5.04
657.491	5.04
657.821	5.03
658.15	5.03
658.48	5.05
658.809	5.04
659.139	5.04
659.468	5.06
659.798	5.07
660.127	5.09
660.456	5.08
660.785	5.11
661.115	5.13
661.444	5.13
661.773	5.15
662.102	5.14
662.431	5.17
662.76	5.17
663.089	5.17
663.418	5.17
663.747	5.17
664.076	5.18
664.404	5.17
664.733	5.17
665.062	5.18
665.39	5.17
665.719	5.16
666.048	5.19
666.376	5.18
666.705	5.17
667.033	5.15
667.362	5.15
667.69	5.15
668.018	5.13
668.347	5.14
668.675	5.12
669.003	5.13
669.331	5.12
669.659	5.11
669.987	5.12
670.315	5.11
670.643	5.13
670.971	5.13
671.299	5.14
671.627	5.17
671.955	5.17
672.283	5.17
672.61	5.16
672.938	5.14
673.266	5.14
673.593	5.14
673.921	5.14
674.249	5.15
674.576	5.14
674.904	5.17
675.231	5.17
675.558	5.21
675.886	5.22
676.213	5.22
676.54	5.27
676.867	5.27
677.195	5.28
677.522	5.29
677.849	5.3
678.176	5.31
678.503	5.3
678.83	5.32
679.157	5.32
679.484	5.32
679.81	5.32
680.137	5.34
680.464	5.34
680.791	5.35
681.117	5.37
