Data from UWBM48344_Reflection_00001.txt Node
Date: Sun May 02 13:59:56 EDT 2021
User: vgr7
Spectrometer: USB2G7710
Scans to average: 10
Trigger mode: 4
Integration Time (sec): 1.000000E-1
Electric dark correction enabled: true
Boxcar width: 20
XAxis mode: Wavelengths
Number of Pixels in Spectrum: 2048
>>>>>Begin Spectral Data<<<<<
177.721	768.52
178.105	2240.74
178.488	947.53
178.871	557.41
179.254	260.51
179.636	177.95
180.019	134.9
180.402	123.39
180.785	101.2
181.168	85.16
181.55	69.49
181.933	67.16
182.316	57.48
182.698	51.47
183.081	41.97
183.463	38.28
183.846	33.35
184.228	31.64
184.611	29.66
184.993	28.31
185.376	27.25
185.758	30.1
186.14	29.67
186.522	28.29
186.904	25.36
187.287	21.84
187.669	27.36
188.051	26.86
188.433	23.45
188.815	20.61
189.197	21
189.579	20.27
189.961	19.64
190.342	17.88
190.724	18.88
191.106	18.05
191.488	17.85
191.869	13.83
192.251	11.47
192.633	9.93
193.014	8.61
193.396	3.06
193.777	3.81
194.159	2.91
194.54	0.94
194.922	-0.23
195.303	-1.22
195.684	-1.63
196.065	-2.49
196.447	-1.81
196.828	-1.32
197.209	-2.58
197.59	-5.84
197.971	-6.26
198.352	-4.41
198.733	-1.71
199.114	-1.09
199.495	0.24
199.876	-1.59
200.257	-1.65
200.638	-2.91
201.018	-1.35
201.399	-1.41
201.78	-1.82
202.16	-0.4
202.541	-0.19
202.922	-0.26
203.302	-0.69
203.683	-0.4
204.063	0.58
204.444	1.38
204.824	1.52
205.204	0.38
205.585	2.13
205.965	3.67
206.345	3.63
206.725	3.64
207.106	3.74
207.486	4.18
207.866	4.02
208.246	2.9
208.626	2.92
209.006	4.46
209.386	3.54
209.766	3.23
210.145	4.02
210.525	4.37
210.905	5.06
211.285	3.26
211.664	4.62
212.044	5.21
212.424	4.65
212.803	5.93
213.183	7.68
213.562	9.85
213.942	8.8
214.321	7.52
214.701	6.15
215.08	5.48
215.459	6.59
215.838	6.92
216.218	6.55
216.597	5.47
216.976	5.38
217.355	6.82
217.734	6.93
218.113	6.82
218.492	6.72
218.871	6.67
219.25	6.48
219.629	5.33
220.008	5.08
220.387	3.41
220.766	5.26
221.144	3.26
221.523	3.77
221.902	4.2
222.28	4.23
222.659	5.37
223.037	5.78
223.416	6.28
223.794	6.87
224.173	6.54
224.551	5.89
224.929	6.79
225.308	6.86
225.686	6.57
226.064	6.3
226.442	5.79
226.821	6.34
227.199	6.57
227.577	6.14
227.955	6.35
228.333	6.59
228.711	5.94
229.089	5.21
229.467	5.08
229.845	4.88
230.222	5.1
230.6	5.36
230.978	5.46
231.356	5.62
231.733	5.98
232.111	5.72
232.488	5.6
232.866	5.04
233.243	4.83
233.621	4.84
233.998	4.91
234.376	4.82
234.753	4.7
235.13	4.74
235.508	5.01
235.885	5.03
236.262	4.91
236.639	4.83
237.016	4.76
237.393	4.85
237.77	4.91
238.147	4.87
238.524	4.82
238.901	4.73
239.278	4.72
239.655	4.78
240.032	4.81
240.409	4.78
240.785	4.81
241.162	4.8
241.539	4.78
241.915	4.84
242.292	4.87
242.668	4.83
243.045	4.79
243.421	4.76
243.798	4.76
244.174	4.82
244.551	4.84
244.927	4.84
245.303	4.88
245.679	4.88
246.056	4.81
246.432	4.82
246.808	4.78
247.184	4.77
247.56	4.79
247.936	4.76
248.312	4.79
248.688	4.77
249.064	4.77
249.44	4.75
249.815	4.73
250.191	4.7
250.567	4.73
250.943	4.66
251.318	4.64
251.694	4.64
252.069	4.65
252.445	4.64
252.82	4.62
253.196	4.59
253.571	4.55
253.947	4.55
254.322	4.55
254.697	4.54
255.073	4.53
255.448	4.54
255.823	4.53
256.198	4.52
256.573	4.51
256.948	4.53
257.323	4.49
257.698	4.42
258.073	4.41
258.448	4.4
258.823	4.4
259.198	4.39
259.573	4.37
259.948	4.35
260.322	4.34
260.697	4.31
261.072	4.3
261.446	4.3
261.821	4.27
262.195	4.26
262.57	4.23
262.944	4.22
263.319	4.25
263.693	4.23
264.067	4.23
264.442	4.21
264.816	4.19
265.19	4.2
265.564	4.2
265.938	4.19
266.313	4.2
266.687	4.19
267.061	4.18
267.435	4.18
267.809	4.18
268.183	4.16
268.556	4.15
268.93	4.17
269.304	4.16
269.678	4.14
270.051	4.13
270.425	4.11
270.799	4.09
271.172	4.08
271.546	4.07
271.919	4.07
272.293	4.07
272.666	4.07
273.04	4.1
273.413	4.12
273.787	4.14
274.16	4.14
274.533	4.12
274.906	4.14
275.279	4.15
275.653	4.17
276.026	4.19
276.399	4.2
276.772	4.23
277.145	4.22
277.518	4.23
277.891	4.25
278.263	4.24
278.636	4.22
279.009	4.21
279.382	4.21
279.755	4.22
280.127	4.26
280.5	4.27
280.872	4.3
281.245	4.3
281.617	4.31
281.99	4.32
282.362	4.33
282.735	4.34
283.107	4.34
283.479	4.35
283.852	4.35
284.224	4.34
284.596	4.33
284.968	4.35
285.34	4.36
285.713	4.35
286.085	4.36
286.457	4.37
286.829	4.36
287.201	4.36
287.572	4.36
287.944	4.36
288.316	4.34
288.688	4.33
289.06	4.32
289.431	4.33
289.803	4.34
290.175	4.33
290.546	4.32
290.918	4.32
291.289	4.32
291.661	4.33
292.032	4.31
292.403	4.31
292.775	4.32
293.146	4.32
293.517	4.33
293.889	4.34
294.26	4.36
294.631	4.37
295.002	4.39
295.373	4.38
295.744	4.38
296.115	4.36
296.486	4.38
296.857	4.38
297.228	4.38
297.599	4.39
297.97	4.39
298.34	4.41
298.711	4.41
299.082	4.41
299.452	4.43
299.823	4.43
300.194	4.43
300.564	4.44
300.935	4.45
301.305	4.45
301.676	4.45
302.046	4.45
302.416	4.46
302.787	4.46
303.157	4.45
303.527	4.47
303.897	4.47
304.267	4.48
304.637	4.47
305.008	4.46
305.378	4.47
305.748	4.46
306.117	4.46
306.487	4.46
306.857	4.45
307.227	4.46
307.597	4.49
307.967	4.48
308.336	4.49
308.706	4.48
309.076	4.48
309.445	4.49
309.815	4.48
310.184	4.48
310.554	4.47
310.923	4.49
311.293	4.48
311.662	4.47
312.031	4.47
312.401	4.46
312.77	4.46
313.139	4.46
313.508	4.45
313.877	4.44
314.246	4.44
314.616	4.43
314.985	4.44
315.353	4.45
315.722	4.43
316.091	4.43
316.46	4.42
316.829	4.43
317.198	4.43
317.567	4.42
317.935	4.41
318.304	4.41
318.672	4.41
319.041	4.42
319.41	4.4
319.778	4.41
320.147	4.41
320.515	4.4
320.883	4.39
321.252	4.37
321.62	4.37
321.988	4.37
322.357	4.37
322.725	4.36
323.093	4.36
323.461	4.35
323.829	4.37
324.197	4.37
324.565	4.34
324.933	4.35
325.301	4.31
325.669	4.32
326.037	4.3
326.405	4.32
326.772	4.3
327.14	4.28
327.508	4.29
327.875	4.28
328.243	4.26
328.61	4.26
328.978	4.26
329.346	4.27
329.713	4.27
330.08	4.27
330.448	4.25
330.815	4.26
331.182	4.25
331.55	4.25
331.917	4.25
332.284	4.23
332.651	4.25
333.018	4.25
333.385	4.24
333.752	4.24
334.119	4.23
334.486	4.24
334.853	4.23
335.22	4.23
335.587	4.22
335.954	4.24
336.32	4.25
336.687	4.23
337.054	4.23
337.42	4.23
337.787	4.24
338.153	4.24
338.52	4.22
338.886	4.21
339.253	4.2
339.619	4.22
339.986	4.22
340.352	4.23
340.718	4.23
341.084	4.22
341.451	4.22
341.817	4.23
342.183	4.24
342.549	4.24
342.915	4.24
343.281	4.25
343.647	4.23
344.013	4.22
344.379	4.22
344.745	4.22
345.11	4.22
345.476	4.24
345.842	4.24
346.208	4.24
346.573	4.23
346.939	4.23
347.304	4.24
347.67	4.23
348.035	4.23
348.401	4.24
348.766	4.25
349.132	4.25
349.497	4.25
349.862	4.25
350.228	4.26
350.593	4.26
350.958	4.27
351.323	4.26
351.688	4.27
352.053	4.28
352.418	4.28
352.783	4.27
353.148	4.27
353.513	4.29
353.878	4.3
354.243	4.3
354.608	4.29
354.972	4.31
355.337	4.31
355.702	4.32
356.066	4.32
356.431	4.31
356.795	4.3
357.16	4.29
357.524	4.3
357.889	4.3
358.253	4.29
358.618	4.29
358.982	4.3
359.346	4.3
359.71	4.3
360.075	4.3
360.439	4.28
360.803	4.28
361.167	4.29
361.531	4.29
361.895	4.29
362.259	4.28
362.623	4.29
362.987	4.29
363.351	4.28
363.714	4.28
364.078	4.28
364.442	4.28
364.806	4.28
365.169	4.28
365.533	4.27
365.896	4.27
366.26	4.27
366.623	4.27
366.987	4.26
367.35	4.25
367.714	4.26
368.077	4.26
368.44	4.25
368.803	4.25
369.167	4.24
369.53	4.25
369.893	4.24
370.256	4.23
370.619	4.23
370.982	4.23
371.345	4.24
371.708	4.24
372.071	4.25
372.434	4.25
372.797	4.25
373.159	4.26
373.522	4.26
373.885	4.26
374.247	4.26
374.61	4.26
374.973	4.25
375.335	4.26
375.698	4.26
376.06	4.25
376.423	4.24
376.785	4.25
377.147	4.25
377.51	4.25
377.872	4.25
378.234	4.25
378.596	4.25
378.958	4.25
379.321	4.25
379.683	4.26
380.045	4.25
380.407	4.26
380.769	4.25
381.13	4.25
381.492	4.26
381.854	4.26
382.216	4.26
382.578	4.26
382.939	4.25
383.301	4.25
383.663	4.25
384.024	4.25
384.386	4.24
384.747	4.24
385.109	4.24
385.47	4.24
385.832	4.23
386.193	4.23
386.554	4.23
386.916	4.23
387.277	4.22
387.638	4.22
387.999	4.22
388.36	4.22
388.721	4.22
389.082	4.21
389.443	4.21
389.804	4.21
390.165	4.21
390.526	4.22
390.887	4.22
391.248	4.22
391.609	4.22
391.969	4.22
392.33	4.22
392.691	4.23
393.051	4.23
393.412	4.23
393.772	4.23
394.133	4.22
394.493	4.21
394.854	4.22
395.214	4.21
395.574	4.22
395.935	4.21
396.295	4.21
396.655	4.21
397.015	4.21
397.376	4.21
397.736	4.22
398.096	4.22
398.456	4.22
398.816	4.22
399.176	4.22
399.535	4.23
399.895	4.23
400.255	4.23
400.615	4.23
400.975	4.23
401.334	4.23
401.694	4.23
402.054	4.24
402.413	4.24
402.773	4.23
403.132	4.24
403.492	4.24
403.851	4.25
404.211	4.25
404.57	4.25
404.929	4.25
405.288	4.25
405.648	4.25
406.007	4.25
406.366	4.25
406.725	4.25
407.084	4.24
407.443	4.24
407.802	4.24
408.161	4.25
408.52	4.24
408.879	4.25
409.238	4.26
409.596	4.26
409.955	4.27
410.314	4.27
410.673	4.27
411.031	4.28
411.39	4.28
411.748	4.29
412.107	4.3
412.465	4.32
412.824	4.34
413.182	4.37
413.54	4.4
413.899	4.43
414.257	4.46
414.615	4.51
414.974	4.55
415.332	4.59
415.69	4.64
416.048	4.67
416.406	4.72
416.764	4.75
417.122	4.78
417.48	4.82
417.838	4.85
418.195	4.88
418.553	4.91
418.911	4.92
419.269	4.93
419.626	4.93
419.984	4.92
420.342	4.91
420.699	4.89
421.057	4.87
421.414	4.86
421.772	4.85
422.129	4.84
422.486	4.83
422.844	4.83
423.201	4.83
423.558	4.83
423.915	4.83
424.273	4.83
424.63	4.83
424.987	4.83
425.344	4.83
425.701	4.83
426.058	4.83
426.415	4.83
426.772	4.83
427.128	4.83
427.485	4.82
427.842	4.8
428.199	4.79
428.555	4.77
428.912	4.75
429.269	4.71
429.625	4.69
429.982	4.66
430.338	4.62
430.695	4.6
431.051	4.56
431.407	4.54
431.764	4.52
432.12	4.5
432.476	4.49
432.832	4.48
433.189	4.48
433.545	4.49
433.901	4.5
434.257	4.53
434.613	4.56
434.969	4.59
435.325	4.62
435.681	4.67
436.036	4.69
436.392	4.72
436.748	4.73
437.104	4.75
437.459	4.77
437.815	4.79
438.171	4.81
438.526	4.84
438.882	4.88
439.237	4.92
439.593	4.96
439.948	4.99
440.304	5.04
440.659	5.06
441.014	5.09
441.369	5.12
441.725	5.14
442.08	5.16
442.435	5.17
442.79	5.18
443.145	5.19
443.5	5.19
443.855	5.19
444.21	5.19
444.565	5.19
444.92	5.18
445.275	5.17
445.629	5.17
445.984	5.15
446.339	5.14
446.693	5.13
447.048	5.11
447.403	5.1
447.757	5.07
448.112	5.05
448.466	5.02
448.82	5
449.175	4.97
449.529	4.95
449.883	4.93
450.238	4.9
450.592	4.9
450.946	4.88
451.3	4.88
451.654	4.89
452.008	4.89
452.362	4.9
452.716	4.91
453.07	4.91
453.424	4.9
453.778	4.89
454.132	4.88
454.486	4.87
454.839	4.84
455.193	4.82
455.547	4.81
455.9	4.78
456.254	4.76
456.607	4.73
456.961	4.7
457.314	4.68
457.668	4.66
458.021	4.66
458.375	4.65
458.728	4.65
459.081	4.65
459.434	4.66
459.787	4.67
460.141	4.68
460.494	4.69
460.847	4.7
461.2	4.71
461.553	4.71
461.906	4.72
462.259	4.72
462.611	4.72
462.964	4.73
463.317	4.73
463.67	4.74
464.022	4.75
464.375	4.75
464.728	4.76
465.08	4.76
465.433	4.76
465.785	4.76
466.138	4.74
466.49	4.72
466.843	4.7
467.195	4.67
467.547	4.65
467.899	4.62
468.252	4.59
468.604	4.56
468.956	4.54
469.308	4.52
469.66	4.52
470.012	4.51
470.364	4.51
470.716	4.51
471.068	4.53
471.42	4.55
471.772	4.57
472.123	4.58
472.475	4.6
472.827	4.61
473.178	4.62
473.53	4.63
473.882	4.64
474.233	4.67
474.585	4.71
474.936	4.78
475.288	4.88
475.639	5.01
475.99	5.16
476.342	5.32
476.693	5.51
477.044	5.69
477.395	5.88
477.746	6.08
478.097	6.28
478.448	6.48
478.8	6.67
479.15	6.85
479.501	7.01
479.852	7.17
480.203	7.31
480.554	7.46
480.905	7.59
481.255	7.71
481.606	7.84
481.957	7.95
482.307	8.06
482.658	8.16
483.009	8.27
483.359	8.36
483.709	8.46
484.06	8.54
484.41	8.63
484.761	8.72
485.111	8.8
485.461	8.88
485.811	8.95
486.162	9.02
486.512	9.07
486.862	9.12
487.212	9.15
487.562	9.17
487.912	9.18
488.262	9.19
488.612	9.18
488.961	9.16
489.311	9.11
489.661	9.03
490.011	8.93
490.36	8.81
490.71	8.67
491.06	8.52
491.409	8.36
491.759	8.19
492.108	8.01
492.458	7.83
492.807	7.65
493.157	7.46
493.506	7.28
493.855	7.11
494.204	6.95
494.554	6.8
494.903	6.65
495.252	6.52
495.601	6.38
495.95	6.25
496.299	6.13
496.648	6.02
496.997	5.91
497.346	5.8
497.695	5.7
498.043	5.61
498.392	5.51
498.741	5.42
499.09	5.34
499.438	5.25
499.787	5.18
500.135	5.1
500.484	5.03
500.832	4.98
501.181	4.93
501.529	4.91
501.878	4.89
502.226	4.88
502.574	4.87
502.923	4.87
503.271	4.87
503.619	4.86
503.967	4.86
504.315	4.86
504.663	4.86
505.011	4.85
505.359	4.85
505.707	4.84
506.055	4.84
506.403	4.84
506.751	4.84
507.098	4.84
507.446	4.85
507.794	4.86
508.141	4.87
508.489	4.88
508.837	4.9
509.184	4.91
509.531	4.92
509.879	4.93
510.226	4.95
510.574	4.97
510.921	5
511.268	5.02
511.616	5.04
511.963	5.06
512.31	5.09
512.657	5.11
513.004	5.13
513.351	5.15
513.698	5.16
514.045	5.17
514.392	5.18
514.739	5.18
515.086	5.18
515.432	5.17
515.779	5.17
516.126	5.16
516.473	5.16
516.819	5.16
517.166	5.17
517.512	5.18
517.859	5.2
518.205	5.22
518.552	5.24
518.898	5.28
519.245	5.32
519.591	5.38
519.937	5.47
520.283	5.57
520.629	5.68
520.976	5.81
521.322	5.94
521.668	6.08
522.014	6.22
522.36	6.36
522.706	6.5
523.052	6.63
523.398	6.75
523.743	6.86
524.089	6.95
524.435	7.03
524.781	7.1
525.126	7.16
525.472	7.23
525.817	7.29
526.163	7.34
526.509	7.39
526.854	7.44
527.199	7.49
527.545	7.55
527.89	7.6
528.235	7.66
528.581	7.71
528.926	7.76
529.271	7.8
529.616	7.84
529.961	7.88
530.306	7.91
530.651	7.94
530.996	7.96
531.341	7.98
531.686	7.99
532.031	7.99
532.376	7.99
532.721	8
533.065	8.01
533.41	8.01
533.755	8.01
534.099	7.99
534.444	7.97
534.788	7.93
535.133	7.88
535.477	7.83
535.822	7.77
536.166	7.7
536.51	7.63
536.855	7.54
537.199	7.45
537.543	7.36
537.887	7.28
538.231	7.21
538.576	7.15
538.92	7.09
539.264	7.02
539.608	6.95
539.951	6.88
540.295	6.81
540.639	6.75
540.983	6.67
541.327	6.6
541.671	6.52
542.014	6.45
542.358	6.38
542.701	6.33
543.045	6.3
543.389	6.27
543.732	6.24
544.075	6.22
544.419	6.2
544.762	6.19
545.105	6.17
545.449	6.16
545.792	6.15
546.135	6.14
546.478	6.12
546.821	6.09
547.165	6.05
547.508	6.01
547.851	5.95
548.194	5.89
548.536	5.82
548.879	5.75
549.222	5.67
549.565	5.58
549.908	5.5
550.25	5.42
550.593	5.35
550.936	5.3
551.278	5.25
551.621	5.22
551.963	5.18
552.306	5.15
552.648	5.13
552.991	5.11
553.333	5.09
553.675	5.08
554.017	5.08
554.36	5.08
554.702	5.08
555.044	5.1
555.386	5.11
555.728	5.13
556.07	5.15
556.412	5.16
556.754	5.17
557.096	5.17
557.438	5.17
557.78	5.17
558.121	5.17
558.463	5.17
558.805	5.18
559.147	5.18
559.488	5.18
559.83	5.19
560.171	5.19
560.513	5.2
560.854	5.2
561.196	5.2
561.537	5.2
561.878	5.2
562.22	5.2
562.561	5.2
562.902	5.21
563.243	5.21
563.584	5.21
563.925	5.22
564.266	5.22
564.607	5.23
564.948	5.24
565.289	5.24
565.63	5.24
565.971	5.25
566.312	5.26
566.653	5.26
566.993	5.27
567.334	5.27
567.675	5.27
568.015	5.28
568.356	5.28
568.696	5.27
569.037	5.28
569.377	5.28
569.718	5.28
570.058	5.28
570.398	5.29
570.739	5.29
571.079	5.29
571.419	5.29
571.759	5.3
572.099	5.3
572.439	5.3
572.779	5.3
573.119	5.29
573.459	5.3
573.799	5.3
574.139	5.3
574.479	5.3
574.819	5.3
575.158	5.3
575.498	5.3
575.838	5.3
576.177	5.3
576.517	5.3
576.856	5.3
577.196	5.3
577.535	5.3
577.875	5.3
578.214	5.29
578.553	5.29
578.893	5.29
579.232	5.28
579.571	5.28
579.91	5.29
580.25	5.28
580.589	5.28
580.928	5.28
581.267	5.27
581.606	5.27
581.945	5.27
582.283	5.27
582.622	5.28
582.961	5.28
583.3	5.28
583.639	5.28
583.977	5.28
584.316	5.28
584.654	5.28
584.993	5.29
585.332	5.29
585.67	5.29
586.008	5.29
586.347	5.3
586.685	5.3
587.024	5.3
587.362	5.31
587.7	5.31
588.038	5.31
588.376	5.31
588.715	5.31
589.053	5.31
589.391	5.32
589.729	5.33
590.067	5.33
590.404	5.34
590.742	5.34
591.08	5.34
591.418	5.35
591.756	5.36
592.093	5.36
592.431	5.36
592.769	5.37
593.106	5.37
593.444	5.38
593.781	5.37
594.119	5.38
594.456	5.38
594.793	5.38
595.131	5.39
595.468	5.38
595.805	5.39
596.143	5.39
596.48	5.4
596.817	5.4
597.154	5.4
597.491	5.41
597.828	5.41
598.165	5.41
598.502	5.42
598.839	5.42
599.176	5.43
599.512	5.43
599.849	5.43
600.186	5.43
600.523	5.44
600.859	5.45
601.196	5.45
601.532	5.45
601.869	5.45
602.205	5.45
602.542	5.46
602.878	5.46
603.215	5.46
603.551	5.47
603.887	5.47
604.223	5.47
604.56	5.47
604.896	5.47
605.232	5.47
605.568	5.47
605.904	5.47
606.24	5.48
606.576	5.47
606.912	5.47
607.248	5.48
607.583	5.48
607.919	5.48
608.255	5.48
608.591	5.48
608.926	5.48
609.262	5.49
609.597	5.49
609.933	5.49
610.268	5.48
610.604	5.49
610.939	5.49
611.275	5.48
611.61	5.48
611.945	5.48
612.281	5.48
612.616	5.48
612.951	5.48
613.286	5.47
613.621	5.47
613.956	5.47
614.291	5.47
614.626	5.47
614.961	5.47
615.296	5.47
615.631	5.47
615.966	5.47
616.3	5.47
616.635	5.47
616.97	5.47
617.304	5.47
617.639	5.47
617.973	5.47
618.308	5.47
618.642	5.47
618.977	5.47
619.311	5.47
619.646	5.48
619.98	5.49
620.314	5.49
620.648	5.49
620.983	5.49
621.317	5.5
621.651	5.51
621.985	5.52
622.319	5.52
622.653	5.53
622.987	5.53
623.321	5.53
623.655	5.54
623.988	5.54
624.322	5.55
624.656	5.55
624.99	5.56
625.323	5.56
625.657	5.56
625.99	5.56
626.324	5.55
626.657	5.55
626.991	5.56
627.324	5.56
627.658	5.57
627.991	5.57
628.324	5.56
628.657	5.57
628.991	5.58
629.324	5.58
629.657	5.58
629.99	5.59
630.323	5.6
630.656	5.6
630.989	5.6
631.322	5.6
631.655	5.61
631.987	5.61
632.32	5.62
632.653	5.62
632.986	5.62
633.318	5.62
633.651	5.62
633.984	5.63
634.316	5.63
634.649	5.62
634.981	5.62
635.313	5.62
635.646	5.62
635.978	5.62
636.31	5.63
636.643	5.64
636.975	5.64
637.307	5.64
637.639	5.64
637.971	5.64
638.303	5.64
638.635	5.64
638.967	5.65
639.299	5.65
639.631	5.66
639.963	5.67
640.295	5.68
640.626	5.69
640.958	5.7
641.29	5.7
641.621	5.71
641.953	5.72
642.285	5.71
642.616	5.72
642.948	5.73
643.279	5.73
643.61	5.74
643.942	5.74
644.273	5.74
644.604	5.75
644.936	5.75
645.267	5.75
645.598	5.75
645.929	5.75
646.26	5.75
646.591	5.75
646.922	5.75
647.253	5.76
647.584	5.76
647.915	5.77
648.245	5.78
648.576	5.78
648.907	5.79
649.238	5.79
649.568	5.79
649.899	5.79
650.229	5.79
650.56	5.79
650.89	5.8
651.221	5.79
651.551	5.8
651.882	5.8
652.212	5.81
652.542	5.82
652.872	5.82
653.203	5.83
653.533	5.83
653.863	5.82
654.193	5.83
654.523	5.83
654.853	5.83
655.183	5.83
655.513	5.82
655.843	5.83
656.172	5.83
656.502	5.83
656.832	5.83
657.162	5.83
657.491	5.83
657.821	5.84
658.15	5.85
658.48	5.86
658.809	5.86
659.139	5.87
659.468	5.87
659.798	5.88
660.127	5.89
660.456	5.9
660.785	5.89
661.115	5.9
661.444	5.9
661.773	5.9
662.102	5.9
662.431	5.9
662.76	5.91
663.089	5.92
663.418	5.93
663.747	5.93
664.076	5.94
664.404	5.94
664.733	5.95
665.062	5.95
665.39	5.96
665.719	5.96
666.048	5.97
666.376	5.97
666.705	5.98
667.033	5.98
667.362	5.98
667.69	5.98
668.018	5.99
668.347	6
668.675	6.01
669.003	6.03
669.331	6.04
669.659	6.04
669.987	6.04
670.315	6.04
670.643	6.05
670.971	6.05
671.299	6.05
671.627	6.05
671.955	6.05
672.283	6.07
672.61	6.06
672.938	6.07
673.266	6.07
673.593	6.07
673.921	6.07
674.249	6.08
674.576	6.08
674.904	6.08
675.231	6.09
675.558	6.09
675.886	6.1
676.213	6.1
676.54	6.1
676.867	6.09
677.195	6.09
677.522	6.1
677.849	6.1
678.176	6.1
678.503	6.1
678.83	6.11
679.157	6.11
679.484	6.11
679.81	6.12
680.137	6.12
680.464	6.13
680.791	6.13
681.117	6.14
681.444	6.15
