Data from UWBM55954_Reflection_00005.txt Node
Date: Sun May 02 13:50:52 EDT 2021
User: vgr7
Spectrometer: USB2G7710
Scans to average: 10
Trigger mode: 4
Integration Time (sec): 1.000000E-1
Electric dark correction enabled: true
Boxcar width: 20
XAxis mode: Wavelengths
Number of Pixels in Spectrum: 2048
>>>>>Begin Spectral Data<<<<<
177.721	187.37
178.105	215.71
178.488	116.62
178.871	156.15
179.254	119.06
179.636	67.86
180.019	59.02
180.402	43.44
180.785	32.3
181.168	23.19
181.55	20.86
181.933	22.82
182.316	23.04
182.698	23.14
183.081	17.69
183.463	13.53
183.846	8.3
184.228	14.14
184.611	13.5
184.993	13.1
185.376	14.91
185.758	18.9
186.14	17.73
186.522	16.63
186.904	16.63
187.287	16.56
187.669	15.45
188.051	15.57
188.433	14.91
188.815	14.04
189.197	12.96
189.579	11.45
189.961	11.79
190.342	12.01
190.724	13.53
191.106	13.02
191.488	16.16
191.869	13.5
192.251	10.83
192.633	10.58
193.014	8.86
193.396	3.81
193.777	6.35
194.159	7.17
194.54	5.35
194.922	3.44
195.303	3.73
195.684	3.27
196.065	4.78
196.447	5.99
196.828	6.13
197.209	4.98
197.59	2.73
197.971	0.95
198.352	1.25
198.733	3.79
199.114	4.96
199.495	7.09
199.876	5.24
200.257	4.86
200.638	3.63
201.018	3.69
201.399	2.25
201.78	2.17
202.16	2.67
202.541	2.06
202.922	1.31
203.302	2.14
203.683	2.17
204.063	1.99
204.444	0.09
204.824	0.23
205.204	-1.28
205.585	-1.94
205.965	-2.27
206.345	-3.79
206.725	-3.34
207.106	-5.71
207.486	-5.37
207.866	-2.6
208.246	-4.49
208.626	-4.56
209.006	-2.98
209.386	-4.31
209.766	-4.81
210.145	-5.05
210.525	-3.75
210.905	-2.1
211.285	-4.32
211.664	-5.08
212.044	-5.71
212.424	-6.9
212.803	-6.16
213.183	-5.34
213.562	-2.82
213.942	-2.61
214.321	-4.8
214.701	-5.88
215.08	-5.75
215.459	-6.12
215.838	-7.16
216.218	-7.75
216.597	-8.13
216.976	-7.47
217.355	-6.07
217.734	-6.59
218.113	-7.23
218.492	-7.28
218.871	-7.74
219.25	-7.43
219.629	-7.17
220.008	-6.06
220.387	-5.59
220.766	-2.33
221.144	-2.7
221.523	-2.59
221.902	-1.38
222.28	-1.51
222.659	-0.99
223.037	-1.22
223.416	-1.61
223.794	-0.6
224.173	-0.53
224.551	-0.48
224.929	0.75
225.308	0.45
225.686	0.64
226.064	0.86
226.442	0.64
226.821	1.39
227.199	1.68
227.577	2.15
227.955	3.11
228.333	3.41
228.711	3.33
229.089	3.15
229.467	3.08
229.845	3.53
230.222	4.01
230.6	3.96
230.978	4
231.356	4.62
231.733	4.76
232.111	4.85
232.488	4.7
232.866	4.49
233.243	4.37
233.621	4.56
233.998	4.56
234.376	4.71
234.753	4.67
235.13	4.64
235.508	4.86
235.885	4.77
236.262	4.68
236.639	4.69
237.016	4.75
237.393	4.74
237.77	4.81
238.147	4.86
238.524	4.91
238.901	4.81
239.278	4.78
239.655	4.83
240.032	4.89
240.409	4.92
240.785	5
241.162	5.04
241.539	4.99
241.915	5.01
242.292	4.99
242.668	5.02
243.045	4.98
243.421	4.91
243.798	4.87
244.174	4.9
244.551	4.85
244.927	4.87
245.303	4.89
245.679	4.87
246.056	4.82
246.432	4.84
246.808	4.79
247.184	4.81
247.56	4.79
247.936	4.8
248.312	4.8
248.688	4.79
249.064	4.78
249.44	4.78
249.815	4.75
250.191	4.71
250.567	4.72
250.943	4.66
251.318	4.65
251.694	4.64
252.069	4.62
252.445	4.61
252.82	4.6
253.196	4.59
253.571	4.56
253.947	4.54
254.322	4.54
254.697	4.54
255.073	4.52
255.448	4.53
255.823	4.47
256.198	4.45
256.573	4.42
256.948	4.43
257.323	4.41
257.698	4.37
258.073	4.33
258.448	4.31
258.823	4.31
259.198	4.3
259.573	4.26
259.948	4.24
260.322	4.22
260.697	4.19
261.072	4.17
261.446	4.17
261.821	4.14
262.195	4.14
262.57	4.12
262.944	4.12
263.319	4.15
263.693	4.14
264.067	4.16
264.442	4.15
264.816	4.12
265.19	4.13
265.564	4.15
265.938	4.14
266.313	4.17
266.687	4.17
267.061	4.17
267.435	4.16
267.809	4.14
268.183	4.13
268.556	4.12
268.93	4.12
269.304	4.11
269.678	4.13
270.051	4.11
270.425	4.09
270.799	4.07
271.172	4.09
271.546	4.09
271.919	4.07
272.293	4.07
272.666	4.06
273.04	4.09
273.413	4.12
273.787	4.11
274.16	4.11
274.533	4.11
274.906	4.13
275.279	4.13
275.653	4.13
276.026	4.14
276.399	4.16
276.772	4.17
277.145	4.17
277.518	4.18
277.891	4.2
278.263	4.18
278.636	4.16
279.009	4.15
279.382	4.14
279.755	4.17
280.127	4.19
280.5	4.18
280.872	4.18
281.245	4.18
281.617	4.16
281.99	4.15
282.362	4.12
282.735	4.13
283.107	4.14
283.479	4.12
283.852	4.13
284.224	4.12
284.596	4.11
284.968	4.1
285.34	4.1
285.713	4.1
286.085	4.09
286.457	4.09
286.829	4.07
287.201	4.07
287.572	4.06
287.944	4.05
288.316	4.04
288.688	4.03
289.06	4.04
289.431	4.03
289.803	4.05
290.175	4.04
290.546	4.05
290.918	4.06
291.289	4.06
291.661	4.05
292.032	4.04
292.403	4.05
292.775	4.04
293.146	4.04
293.517	4.05
293.889	4.05
294.26	4.08
294.631	4.08
295.002	4.07
295.373	4.09
295.744	4.09
296.115	4.08
296.486	4.1
296.857	4.11
297.228	4.1
297.599	4.13
297.97	4.13
298.34	4.12
298.711	4.14
299.082	4.13
299.452	4.15
299.823	4.15
300.194	4.15
300.564	4.16
300.935	4.15
301.305	4.15
301.676	4.14
302.046	4.15
302.416	4.16
302.787	4.16
303.157	4.15
303.527	4.16
303.897	4.16
304.267	4.16
304.637	4.17
305.008	4.15
305.378	4.14
305.748	4.13
306.117	4.12
306.487	4.13
306.857	4.13
307.227	4.13
307.597	4.12
307.967	4.11
308.336	4.11
308.706	4.09
309.076	4.07
309.445	4.06
309.815	4.04
310.184	4.03
310.554	4.01
310.923	4.01
311.293	3.99
311.662	3.97
312.031	3.97
312.401	3.97
312.77	3.96
313.139	3.96
313.508	3.97
313.877	3.98
314.246	3.98
314.616	3.96
314.985	3.96
315.353	3.95
315.722	3.94
316.091	3.96
316.46	3.94
316.829	3.94
317.198	3.93
317.567	3.93
317.935	3.92
318.304	3.92
318.672	3.9
319.041	3.9
319.41	3.89
319.778	3.88
320.147	3.88
320.515	3.87
320.883	3.84
321.252	3.84
321.62	3.83
321.988	3.82
322.357	3.81
322.725	3.82
323.093	3.81
323.461	3.8
323.829	3.82
324.197	3.82
324.565	3.81
324.933	3.82
325.301	3.81
325.669	3.81
326.037	3.8
326.405	3.82
326.772	3.8
327.14	3.8
327.508	3.79
327.875	3.79
328.243	3.79
328.61	3.77
328.978	3.75
329.346	3.75
329.713	3.75
330.08	3.75
330.448	3.74
330.815	3.72
331.182	3.71
331.55	3.72
331.917	3.72
332.284	3.69
332.651	3.69
333.018	3.69
333.385	3.69
333.752	3.7
334.119	3.68
334.486	3.69
334.853	3.69
335.22	3.7
335.587	3.71
335.954	3.72
336.32	3.72
336.687	3.71
337.054	3.69
337.42	3.7
337.787	3.7
338.153	3.71
338.52	3.7
338.886	3.69
339.253	3.69
339.619	3.7
339.986	3.69
340.352	3.69
340.718	3.68
341.084	3.68
341.451	3.68
341.817	3.69
342.183	3.69
342.549	3.69
342.915	3.67
343.281	3.67
343.647	3.67
344.013	3.67
344.379	3.67
344.745	3.67
345.11	3.67
345.476	3.68
345.842	3.69
346.208	3.68
346.573	3.67
346.939	3.67
347.304	3.7
347.67	3.71
348.035	3.71
348.401	3.71
348.766	3.72
349.132	3.72
349.497	3.72
349.862	3.72
350.228	3.72
350.593	3.71
350.958	3.71
351.323	3.71
351.688	3.71
352.053	3.73
352.418	3.73
352.783	3.72
353.148	3.72
353.513	3.72
353.878	3.72
354.243	3.73
354.608	3.73
354.972	3.75
355.337	3.75
355.702	3.75
356.066	3.74
356.431	3.74
356.795	3.73
357.16	3.73
357.524	3.74
357.889	3.75
358.253	3.75
358.618	3.74
358.982	3.74
359.346	3.74
359.71	3.73
360.075	3.74
360.439	3.74
360.803	3.75
361.167	3.75
361.531	3.75
361.895	3.75
362.259	3.74
362.623	3.73
362.987	3.73
363.351	3.73
363.714	3.73
364.078	3.73
364.442	3.73
364.806	3.73
365.169	3.73
365.533	3.73
365.896	3.73
366.26	3.74
366.623	3.74
366.987	3.73
367.35	3.73
367.714	3.73
368.077	3.73
368.44	3.73
368.803	3.73
369.167	3.73
369.53	3.73
369.893	3.72
370.256	3.72
370.619	3.72
370.982	3.73
371.345	3.74
371.708	3.74
372.071	3.74
372.434	3.74
372.797	3.74
373.159	3.74
373.522	3.75
373.885	3.75
374.247	3.76
374.61	3.76
374.973	3.75
375.335	3.75
375.698	3.74
376.06	3.73
376.423	3.74
376.785	3.74
377.147	3.74
377.51	3.75
377.872	3.75
378.234	3.75
378.596	3.74
378.958	3.74
379.321	3.74
379.683	3.74
380.045	3.74
380.407	3.75
380.769	3.75
381.13	3.74
381.492	3.74
381.854	3.75
382.216	3.75
382.578	3.75
382.939	3.75
383.301	3.75
383.663	3.75
384.024	3.74
384.386	3.75
384.747	3.75
385.109	3.75
385.47	3.76
385.832	3.75
386.193	3.75
386.554	3.75
386.916	3.75
387.277	3.75
387.638	3.74
387.999	3.75
388.36	3.75
388.721	3.75
389.082	3.75
389.443	3.75
389.804	3.75
390.165	3.75
390.526	3.75
390.887	3.76
391.248	3.76
391.609	3.76
391.969	3.76
392.33	3.76
392.691	3.76
393.051	3.77
393.412	3.77
393.772	3.77
394.133	3.78
394.493	3.78
394.854	3.77
395.214	3.77
395.574	3.76
395.935	3.77
396.295	3.77
396.655	3.76
397.015	3.76
397.376	3.76
397.736	3.77
398.096	3.77
398.456	3.77
398.816	3.78
399.176	3.78
399.535	3.78
399.895	3.78
400.255	3.78
400.615	3.79
400.975	3.79
401.334	3.79
401.694	3.79
402.054	3.8
402.413	3.8
402.773	3.8
403.132	3.8
403.492	3.8
403.851	3.8
404.211	3.8
404.57	3.8
404.929	3.8
405.288	3.8
405.648	3.8
406.007	3.81
406.366	3.81
406.725	3.81
407.084	3.81
407.443	3.81
407.802	3.81
408.161	3.81
408.52	3.81
408.879	3.81
409.238	3.81
409.596	3.82
409.955	3.83
410.314	3.83
410.673	3.84
411.031	3.84
411.39	3.85
411.748	3.86
412.107	3.87
412.465	3.88
412.824	3.9
413.182	3.92
413.54	3.95
413.899	3.98
414.257	4.01
414.615	4.05
414.974	4.07
415.332	4.11
415.69	4.15
416.048	4.18
416.406	4.23
416.764	4.26
417.122	4.29
417.48	4.32
417.838	4.36
418.195	4.38
418.553	4.41
418.911	4.43
419.269	4.44
419.626	4.44
419.984	4.43
420.342	4.43
420.699	4.41
421.057	4.4
421.414	4.38
421.772	4.37
422.129	4.36
422.486	4.36
422.844	4.36
423.201	4.36
423.558	4.36
423.915	4.36
424.273	4.36
424.63	4.36
424.987	4.36
425.344	4.37
425.701	4.37
426.058	4.37
426.415	4.37
426.772	4.37
427.128	4.37
427.485	4.36
427.842	4.35
428.199	4.33
428.555	4.32
428.912	4.3
429.269	4.27
429.625	4.25
429.982	4.22
430.338	4.19
430.695	4.17
431.051	4.14
431.407	4.12
431.764	4.1
432.12	4.08
432.476	4.07
432.832	4.06
433.189	4.06
433.545	4.07
433.901	4.08
434.257	4.1
434.613	4.13
434.969	4.15
435.325	4.18
435.681	4.22
436.036	4.24
436.392	4.26
436.748	4.28
437.104	4.29
437.459	4.31
437.815	4.33
438.171	4.35
438.526	4.38
438.882	4.41
439.237	4.45
439.593	4.48
439.948	4.51
440.304	4.55
440.659	4.58
441.014	4.6
441.369	4.62
441.725	4.64
442.08	4.66
442.435	4.68
442.79	4.69
443.145	4.69
443.5	4.69
443.855	4.7
444.21	4.7
444.565	4.7
444.92	4.69
445.275	4.68
445.629	4.68
445.984	4.67
446.339	4.66
446.693	4.65
447.048	4.64
447.403	4.62
447.757	4.6
448.112	4.58
448.466	4.56
448.82	4.53
449.175	4.51
449.529	4.49
449.883	4.47
450.238	4.45
450.592	4.45
450.946	4.43
451.3	4.43
451.654	4.44
452.008	4.44
452.362	4.45
452.716	4.45
453.07	4.45
453.424	4.45
453.778	4.44
454.132	4.43
454.486	4.42
454.839	4.4
455.193	4.38
455.547	4.37
455.9	4.34
456.254	4.32
456.607	4.29
456.961	4.26
457.314	4.24
457.668	4.24
458.021	4.23
458.375	4.22
458.728	4.22
459.081	4.22
459.434	4.23
459.787	4.24
460.141	4.25
460.494	4.25
460.847	4.26
461.2	4.26
461.553	4.27
461.906	4.27
462.259	4.28
462.611	4.28
462.964	4.28
463.317	4.29
463.67	4.29
464.022	4.3
464.375	4.3
464.728	4.31
465.08	4.31
465.433	4.31
465.785	4.31
466.138	4.29
466.49	4.27
466.843	4.26
467.195	4.23
467.547	4.21
467.899	4.18
468.252	4.15
468.604	4.13
468.956	4.11
469.308	4.09
469.66	4.09
470.012	4.08
470.364	4.08
470.716	4.09
471.068	4.1
471.42	4.12
471.772	4.14
472.123	4.15
472.475	4.16
472.827	4.17
473.178	4.17
473.53	4.18
473.882	4.2
474.233	4.22
474.585	4.25
474.936	4.31
475.288	4.4
475.639	4.52
475.99	4.65
476.342	4.81
476.693	4.97
477.044	5.13
477.395	5.31
477.746	5.48
478.097	5.66
478.448	5.84
478.8	6.01
479.15	6.18
479.501	6.33
479.852	6.46
480.203	6.6
480.554	6.72
480.905	6.84
481.255	6.95
481.606	7.06
481.957	7.17
482.307	7.26
482.658	7.36
483.009	7.45
483.359	7.53
483.709	7.62
484.06	7.7
484.41	7.78
484.761	7.85
485.111	7.93
485.461	8
485.811	8.06
486.162	8.12
486.512	8.17
486.862	8.21
487.212	8.24
487.562	8.26
487.912	8.27
488.262	8.28
488.612	8.27
488.961	8.25
489.311	8.21
489.661	8.13
490.011	8.04
490.36	7.93
490.71	7.8
491.06	7.67
491.409	7.53
491.759	7.38
492.108	7.22
492.458	7.05
492.807	6.88
493.157	6.71
493.506	6.55
493.855	6.4
494.204	6.25
494.554	6.11
494.903	5.99
495.252	5.86
495.601	5.74
495.95	5.62
496.299	5.51
496.648	5.41
496.997	5.31
497.346	5.22
497.695	5.13
498.043	5.04
498.392	4.95
498.741	4.87
499.09	4.78
499.438	4.7
499.787	4.63
500.135	4.56
500.484	4.5
500.832	4.45
501.181	4.41
501.529	4.38
501.878	4.36
502.226	4.35
502.574	4.35
502.923	4.34
503.271	4.34
503.619	4.34
503.967	4.33
504.315	4.33
504.663	4.32
505.011	4.32
505.359	4.31
505.707	4.3
506.055	4.3
506.403	4.3
506.751	4.3
507.098	4.3
507.446	4.3
507.794	4.31
508.141	4.32
508.489	4.33
508.837	4.34
509.184	4.35
509.531	4.36
509.879	4.37
510.226	4.39
510.574	4.4
510.921	4.41
511.268	4.43
511.616	4.45
511.963	4.47
512.31	4.49
512.657	4.51
513.004	4.53
513.351	4.54
513.698	4.55
514.045	4.56
514.392	4.56
514.739	4.56
515.086	4.56
515.432	4.56
515.779	4.55
516.126	4.54
516.473	4.54
516.819	4.54
517.166	4.55
517.512	4.56
517.859	4.57
518.205	4.59
518.552	4.62
518.898	4.65
519.245	4.69
519.591	4.74
519.937	4.81
520.283	4.9
520.629	5
520.976	5.11
521.322	5.22
521.668	5.34
522.014	5.46
522.36	5.59
522.706	5.7
523.052	5.81
523.398	5.92
523.743	6.01
524.089	6.09
524.435	6.16
524.781	6.22
525.126	6.28
525.472	6.34
525.817	6.39
526.163	6.44
526.509	6.48
526.854	6.53
527.199	6.57
527.545	6.62
527.89	6.67
528.235	6.71
528.581	6.76
528.926	6.8
529.271	6.84
529.616	6.88
529.961	6.91
530.306	6.94
530.651	6.96
530.996	6.98
531.341	6.99
531.686	6.99
532.031	6.99
532.376	6.99
532.721	6.99
533.065	7
533.41	7
533.755	7
534.099	6.98
534.444	6.96
534.788	6.93
535.133	6.89
535.477	6.84
535.822	6.79
536.166	6.73
536.51	6.66
536.855	6.59
537.199	6.51
537.543	6.43
537.887	6.36
538.231	6.3
538.576	6.24
538.92	6.18
539.264	6.13
539.608	6.07
539.951	6
540.295	5.94
540.639	5.88
540.983	5.82
541.327	5.75
541.671	5.69
542.014	5.62
542.358	5.56
542.701	5.52
543.045	5.49
543.389	5.46
543.732	5.44
544.075	5.42
544.419	5.4
544.762	5.39
545.105	5.37
545.449	5.36
545.792	5.35
546.135	5.34
546.478	5.33
546.821	5.3
547.165	5.27
547.508	5.23
547.851	5.18
548.194	5.13
548.536	5.06
548.879	5
549.222	4.92
549.565	4.85
549.908	4.78
550.25	4.71
550.593	4.65
550.936	4.61
551.278	4.57
551.621	4.53
551.963	4.5
552.306	4.47
552.648	4.45
552.991	4.44
553.333	4.42
553.675	4.41
554.017	4.41
554.36	4.4
554.702	4.4
555.044	4.41
555.386	4.42
555.728	4.44
556.07	4.45
556.412	4.46
556.754	4.46
557.096	4.47
557.438	4.46
557.78	4.47
558.121	4.47
558.463	4.46
558.805	4.46
559.147	4.47
559.488	4.47
559.83	4.47
560.171	4.47
560.513	4.47
560.854	4.47
561.196	4.48
561.537	4.48
561.878	4.48
562.22	4.48
562.561	4.48
562.902	4.48
563.243	4.48
563.584	4.48
563.925	4.49
564.266	4.49
564.607	4.49
564.948	4.49
565.289	4.5
565.63	4.5
565.971	4.51
566.312	4.51
566.653	4.51
566.993	4.52
567.334	4.52
567.675	4.52
568.015	4.53
568.356	4.53
568.696	4.52
569.037	4.53
569.377	4.53
569.718	4.53
570.058	4.53
570.398	4.53
570.739	4.53
571.079	4.53
571.419	4.52
571.759	4.52
572.099	4.52
572.439	4.52
572.779	4.52
573.119	4.52
573.459	4.52
573.799	4.52
574.139	4.52
574.479	4.52
574.819	4.52
575.158	4.52
575.498	4.51
575.838	4.51
576.177	4.51
576.517	4.51
576.856	4.51
577.196	4.51
577.535	4.5
577.875	4.5
578.214	4.5
578.553	4.5
578.893	4.49
579.232	4.49
579.571	4.49
579.91	4.48
580.25	4.48
580.589	4.48
580.928	4.47
581.267	4.47
581.606	4.47
581.945	4.47
582.283	4.47
582.622	4.47
582.961	4.47
583.3	4.47
583.639	4.47
583.977	4.47
584.316	4.47
584.654	4.47
584.993	4.47
585.332	4.47
585.67	4.47
586.008	4.47
586.347	4.47
586.685	4.47
587.024	4.47
587.362	4.47
587.7	4.47
588.038	4.48
588.376	4.48
588.715	4.47
589.053	4.47
589.391	4.48
589.729	4.48
590.067	4.47
590.404	4.48
590.742	4.48
591.08	4.48
591.418	4.49
591.756	4.49
592.093	4.5
592.431	4.5
592.769	4.5
593.106	4.51
593.444	4.51
593.781	4.51
594.119	4.51
594.456	4.51
594.793	4.51
595.131	4.51
595.468	4.51
595.805	4.51
596.143	4.51
596.48	4.51
596.817	4.51
597.154	4.52
597.491	4.52
597.828	4.52
598.165	4.53
598.502	4.54
598.839	4.54
599.176	4.54
599.512	4.54
599.849	4.55
600.186	4.55
600.523	4.55
600.859	4.55
601.196	4.55
601.532	4.55
601.869	4.56
602.205	4.56
602.542	4.56
602.878	4.56
603.215	4.56
603.551	4.56
603.887	4.57
604.223	4.57
604.56	4.57
604.896	4.58
605.232	4.58
605.568	4.58
605.904	4.57
606.24	4.58
606.576	4.58
606.912	4.57
607.248	4.57
607.583	4.57
607.919	4.57
608.255	4.57
608.591	4.57
608.926	4.57
609.262	4.57
609.597	4.57
609.933	4.57
610.268	4.57
610.604	4.57
610.939	4.57
611.275	4.57
611.61	4.57
611.945	4.57
612.281	4.56
612.616	4.56
612.951	4.55
613.286	4.55
613.621	4.55
613.956	4.55
614.291	4.55
614.626	4.55
614.961	4.55
615.296	4.55
615.631	4.55
615.966	4.55
616.3	4.55
616.635	4.55
616.97	4.55
617.304	4.54
617.639	4.54
617.973	4.54
618.308	4.54
618.642	4.53
618.977	4.53
619.311	4.53
619.646	4.54
619.98	4.54
620.314	4.54
620.648	4.54
620.983	4.54
621.317	4.55
621.651	4.55
621.985	4.55
622.319	4.56
622.653	4.56
622.987	4.56
623.321	4.56
623.655	4.57
623.988	4.57
624.322	4.57
624.656	4.57
624.99	4.58
625.323	4.59
625.657	4.58
625.99	4.58
626.324	4.58
626.657	4.58
626.991	4.58
627.324	4.58
627.658	4.58
627.991	4.57
628.324	4.58
628.657	4.58
628.991	4.59
629.324	4.59
629.657	4.59
629.99	4.59
630.323	4.6
630.656	4.6
630.989	4.6
631.322	4.6
631.655	4.61
631.987	4.61
632.32	4.61
632.653	4.62
632.986	4.62
633.318	4.62
633.651	4.62
633.984	4.62
634.316	4.62
634.649	4.62
634.981	4.62
635.313	4.62
635.646	4.62
635.978	4.62
636.31	4.62
636.643	4.63
636.975	4.63
637.307	4.63
637.639	4.64
637.971	4.64
638.303	4.64
638.635	4.64
638.967	4.63
639.299	4.64
639.631	4.64
639.963	4.65
640.295	4.66
640.626	4.66
640.958	4.67
641.29	4.67
641.621	4.68
641.953	4.68
642.285	4.68
642.616	4.68
642.948	4.68
643.279	4.69
643.61	4.69
643.942	4.7
644.273	4.7
644.604	4.71
644.936	4.71
645.267	4.71
645.598	4.71
645.929	4.71
646.26	4.71
646.591	4.71
646.922	4.71
647.253	4.72
647.584	4.73
647.915	4.73
648.245	4.73
648.576	4.73
648.907	4.73
649.238	4.74
649.568	4.74
649.899	4.73
650.229	4.73
650.56	4.73
650.89	4.73
651.221	4.72
651.551	4.73
651.882	4.73
652.212	4.74
652.542	4.74
652.872	4.74
653.203	4.75
653.533	4.75
653.863	4.75
654.193	4.76
654.523	4.77
654.853	4.76
655.183	4.76
655.513	4.76
655.843	4.77
656.172	4.76
656.502	4.77
656.832	4.77
657.162	4.77
657.491	4.77
657.821	4.77
658.15	4.77
658.48	4.77
658.809	4.77
659.139	4.77
659.468	4.77
659.798	4.78
660.127	4.78
660.456	4.79
660.785	4.79
661.115	4.79
661.444	4.8
661.773	4.81
662.102	4.81
662.431	4.81
662.76	4.81
663.089	4.81
663.418	4.82
663.747	4.83
664.076	4.83
664.404	4.84
664.733	4.85
665.062	4.85
665.39	4.86
665.719	4.86
666.048	4.86
666.376	4.86
666.705	4.86
667.033	4.86
667.362	4.86
667.69	4.86
668.018	4.86
668.347	4.87
668.675	4.88
669.003	4.88
669.331	4.88
669.659	4.88
669.987	4.88
670.315	4.88
670.643	4.89
670.971	4.9
671.299	4.9
671.627	4.9
671.955	4.9
672.283	4.91
672.61	4.91
672.938	4.92
673.266	4.92
673.593	4.92
673.921	4.93
674.249	4.94
674.576	4.94
674.904	4.93
675.231	4.93
675.558	4.93
675.886	4.94
676.213	4.94
676.54	4.94
676.867	4.94
677.195	4.94
677.522	4.93
677.849	4.93
678.176	4.93
678.503	4.93
678.83	4.93
679.157	4.94
679.484	4.94
679.81	4.94
680.137	4.94
680.464	4.95
680.791	4.96
