Data from UWBM122617_Reflection_00001.txt Node
Date: Sun May 02 12:16:26 EDT 2021
User: vgr7
Spectrometer: USB2G7710
Scans to average: 10
Trigger mode: 4
Integration Time (sec): 1.000000E-1
Electric dark correction enabled: true
Boxcar width: 10
XAxis mode: Wavelengths
Number of Pixels in Spectrum: 2048
>>>>>Begin Spectral Data<<<<<
177.721	105
178.105	0
178.488	72.49
178.871	303.8
179.254	-98.08
179.636	27.27
180.019	73.66
180.402	90
180.785	61.09
181.168	43
181.55	41.42
181.933	48.42
182.316	79.93
182.698	107.75
183.081	72.54
183.463	41.79
183.846	12.97
184.228	-6.72
184.611	15.4
184.993	22.02
185.376	19.55
185.758	18.05
186.14	11.26
186.522	9.6
186.904	2.01
187.287	8.72
187.669	7.96
188.051	8.01
188.433	14.52
188.815	13.67
189.197	17.33
189.579	17.37
189.961	14.01
190.342	11.11
190.724	17.41
191.106	13.5
191.488	16.68
191.869	16.25
192.251	18.95
192.633	14.63
193.014	15.78
193.396	15.35
193.777	16.73
194.159	20.27
194.54	17.7
194.922	16.52
195.303	16.05
195.684	18.86
196.065	19.92
196.447	18.39
196.828	17.9
197.209	12.38
197.59	12.88
197.971	10.79
198.352	11.25
198.733	15.22
199.114	16.43
199.495	16.95
199.876	16.8
200.257	17.24
200.638	19.66
201.018	20.4
201.399	18.62
201.78	19.22
202.16	17.29
202.541	16.32
202.922	22.35
203.302	21.43
203.683	20.11
204.063	17.25
204.444	13.42
204.824	13.64
205.204	15.29
205.585	15.24
205.965	14.23
206.345	14.46
206.725	3.5
207.106	3.44
207.486	2.64
207.866	3.38
208.246	1.64
208.626	2.85
209.006	2.99
209.386	3.84
209.766	1.64
210.145	3.34
210.525	2.66
210.905	-2.64
211.285	-0.93
211.664	-1.08
212.044	1.86
212.424	6.7
212.803	4.06
213.183	4.92
213.562	3.47
213.942	4.99
214.321	3.13
214.701	3.68
215.08	4.29
215.459	3.82
215.838	2.17
216.218	0.87
216.597	2
216.976	2.18
217.355	3.87
217.734	7.7
218.113	3.25
218.492	5.3
218.871	9.15
219.25	9.99
219.629	10.16
220.008	8.08
220.387	4.82
220.766	4.02
221.144	4.43
221.523	8.29
221.902	7.32
222.28	8.6
222.659	9.65
223.037	8.78
223.416	10.66
223.794	11.48
224.173	13.02
224.551	12.79
224.929	8.8
225.308	8.92
225.686	6.37
226.064	7.85
226.442	7.96
226.821	7.58
227.199	6.1
227.577	5.58
227.955	6.57
228.333	6.56
228.711	7.16
229.089	7.93
229.467	6.02
229.845	7.02
230.222	7.04
230.6	7.4
230.978	7.81
231.356	6.83
231.733	6.46
232.111	5.93
232.488	5.73
232.866	6.89
233.243	6.06
233.621	6.25
233.998	6.5
234.376	6.91
234.753	6.78
235.13	7.06
235.508	7.75
235.885	6.9
236.262	6.74
236.639	6.79
237.016	6.41
237.393	6.23
237.77	5.94
238.147	5.84
238.524	5.93
238.901	6.1
239.278	5.98
239.655	5.88
240.032	5.85
240.409	5.64
240.785	5.45
241.162	5.58
241.539	5.75
241.915	5.56
242.292	5.56
242.668	5.52
243.045	5.4
243.421	5.29
243.798	5.31
244.174	5.23
244.551	5.17
244.927	5.09
245.303	5.03
245.679	5.07
246.056	4.94
246.432	4.92
246.808	4.75
247.184	4.74
247.56	4.72
247.936	4.72
248.312	4.73
248.688	4.73
249.064	4.66
249.44	4.55
249.815	4.52
250.191	4.41
250.567	4.34
250.943	4.37
251.318	4.33
251.694	4.24
252.069	4.13
252.445	4.14
252.82	4.08
253.196	4.09
253.571	3.98
253.947	4.21
254.322	4.18
254.697	4.22
255.073	4.25
255.448	4.25
255.823	4.22
256.198	4.08
256.573	4.07
256.948	4.08
257.323	4.14
257.698	4.11
258.073	4.1
258.448	4.12
258.823	4.13
259.198	4.08
259.573	4.12
259.948	4.15
260.322	4.12
260.697	4.14
261.072	4.15
261.446	4.15
261.821	4.1
262.195	4.05
262.57	4.05
262.944	4.06
263.319	4.02
263.693	4.03
264.067	4.05
264.442	4.04
264.816	4.03
265.19	4.01
265.564	4.01
265.938	3.97
266.313	3.95
266.687	3.88
267.061	3.96
267.435	3.92
267.809	3.96
268.183	3.98
268.556	4
268.93	4.02
269.304	3.98
269.678	3.96
270.051	3.95
270.425	3.92
270.799	3.9
271.172	3.92
271.546	3.91
271.919	3.93
272.293	3.92
272.666	3.88
273.04	3.91
273.413	3.85
273.787	3.91
274.16	3.9
274.533	3.9
274.906	3.87
275.279	3.89
275.653	3.86
276.026	3.78
276.399	3.72
276.772	3.71
277.145	3.76
277.518	3.76
277.891	3.81
278.263	3.85
278.636	3.86
279.009	3.87
279.382	3.87
279.755	3.83
280.127	3.85
280.5	3.89
280.872	3.82
281.245	3.93
281.617	3.9
281.99	3.89
282.362	3.9
282.735	3.86
283.107	3.82
283.479	3.83
283.852	3.85
284.224	3.89
284.596	3.88
284.968	3.85
285.34	3.81
285.713	3.82
286.085	3.76
286.457	3.76
286.829	3.74
287.201	3.75
287.572	3.78
287.944	3.78
288.316	3.82
288.688	3.86
289.06	3.83
289.431	3.86
289.803	3.85
290.175	3.86
290.546	3.88
290.918	3.93
291.289	3.92
291.661	3.93
292.032	3.93
292.403	3.94
292.775	3.96
293.146	3.99
293.517	3.99
293.889	4.07
294.26	4.05
294.631	4.1
295.002	4.1
295.373	4.14
295.744	4.13
296.115	4.12
296.486	4.09
296.857	4.09
297.228	4.08
297.599	4.09
297.97	4.1
298.34	4.13
298.711	4.12
299.082	4.11
299.452	4.13
299.823	4.14
300.194	4.14
300.564	4.08
300.935	4.1
301.305	4.1
301.676	4.08
302.046	4.07
302.416	4.05
302.787	4.02
303.157	3.98
303.527	3.98
303.897	3.97
304.267	3.99
304.637	3.95
305.008	3.99
305.378	3.98
305.748	4
306.117	3.96
306.487	3.98
306.857	4.03
307.227	4.02
307.597	3.95
307.967	3.95
308.336	3.99
308.706	3.99
309.076	3.97
309.445	3.96
309.815	3.94
310.184	3.95
310.554	3.96
310.923	3.93
311.293	3.92
311.662	3.92
312.031	3.92
312.401	3.94
312.77	3.9
313.139	3.93
313.508	3.9
313.877	3.91
314.246	3.88
314.616	3.86
314.985	3.85
315.353	3.87
315.722	3.88
316.091	3.88
316.46	3.9
316.829	3.93
317.198	3.94
317.567	3.97
317.935	3.96
318.304	3.97
318.672	4.02
319.041	4.08
319.41	4.05
319.778	4.05
320.147	4.1
320.515	4.09
320.883	4.07
321.252	4.05
321.62	4.02
321.988	4.02
322.357	4.02
322.725	4.03
323.093	4.07
323.461	4.05
323.829	4.03
324.197	4.01
324.565	4
324.933	3.95
325.301	3.97
325.669	3.96
326.037	3.95
326.405	3.92
326.772	3.85
327.14	3.86
327.508	3.85
327.875	3.83
328.243	3.85
328.61	3.82
328.978	3.87
329.346	3.86
329.713	3.84
330.08	3.85
330.448	3.82
330.815	3.79
331.182	3.76
331.55	3.76
331.917	3.77
332.284	3.75
332.651	3.77
333.018	3.73
333.385	3.74
333.752	3.74
334.119	3.75
334.486	3.78
334.853	3.79
335.22	3.77
335.587	3.75
335.954	3.74
336.32	3.73
336.687	3.7
337.054	3.7
337.42	3.73
337.787	3.73
338.153	3.75
338.52	3.76
338.886	3.79
339.253	3.79
339.619	3.77
339.986	3.77
340.352	3.81
340.718	3.85
341.084	3.86
341.451	3.84
341.817	3.81
342.183	3.83
342.549	3.84
342.915	3.84
343.281	3.85
343.647	3.87
344.013	3.88
344.379	3.88
344.745	3.89
345.11	3.88
345.476	3.88
345.842	3.89
346.208	3.88
346.573	3.88
346.939	3.87
347.304	3.86
347.67	3.85
348.035	3.83
348.401	3.8
348.766	3.81
349.132	3.84
349.497	3.87
349.862	3.86
350.228	3.86
350.593	3.86
350.958	3.86
351.323	3.85
351.688	3.88
352.053	3.9
352.418	3.9
352.783	3.88
353.148	3.88
353.513	3.84
353.878	3.87
354.243	3.86
354.608	3.87
354.972	3.89
355.337	3.87
355.702	3.86
356.066	3.85
356.431	3.82
356.795	3.79
357.16	3.76
357.524	3.76
357.889	3.76
358.253	3.76
358.618	3.77
358.982	3.78
359.346	3.75
359.71	3.75
360.075	3.75
360.439	3.76
360.803	3.74
361.167	3.75
361.531	3.75
361.895	3.75
362.259	3.74
362.623	3.75
362.987	3.76
363.351	3.77
363.714	3.78
364.078	3.78
364.442	3.79
364.806	3.82
365.169	3.82
365.533	3.8
365.896	3.81
366.26	3.79
366.623	3.79
366.987	3.79
367.35	3.8
367.714	3.8
368.077	3.8
368.44	3.82
368.803	3.81
369.167	3.8
369.53	3.81
369.893	3.83
370.256	3.83
370.619	3.82
370.982	3.8
371.345	3.78
371.708	3.8
372.071	3.81
372.434	3.8
372.797	3.79
373.159	3.82
373.522	3.82
373.885	3.84
374.247	3.83
374.61	3.83
374.973	3.82
375.335	3.8
375.698	3.8
376.06	3.8
376.423	3.81
376.785	3.82
377.147	3.81
377.51	3.82
377.872	3.82
378.234	3.82
378.596	3.83
378.958	3.85
379.321	3.84
379.683	3.84
380.045	3.84
380.407	3.84
380.769	3.82
381.13	3.81
381.492	3.8
381.854	3.79
382.216	3.8
382.578	3.8
382.939	3.83
383.301	3.83
383.663	3.83
384.024	3.82
384.386	3.83
384.747	3.82
385.109	3.8
385.47	3.8
385.832	3.8
386.193	3.81
386.554	3.8
386.916	3.82
387.277	3.82
387.638	3.84
387.999	3.84
388.36	3.87
388.721	3.88
389.082	3.89
389.443	3.9
389.804	3.89
390.165	3.9
390.526	3.89
390.887	3.89
391.248	3.9
391.609	3.91
391.969	3.92
392.33	3.93
392.691	3.93
393.051	3.94
393.412	3.94
393.772	3.94
394.133	3.94
394.493	3.94
394.854	3.94
395.214	3.93
395.574	3.93
395.935	3.92
396.295	3.92
396.655	3.92
397.015	3.92
397.376	3.93
397.736	3.94
398.096	3.93
398.456	3.94
398.816	3.93
399.176	3.92
399.535	3.93
399.895	3.93
400.255	3.92
400.615	3.92
400.975	3.93
401.334	3.93
401.694	3.92
402.054	3.93
402.413	3.92
402.773	3.92
403.132	3.93
403.492	3.92
403.851	3.92
404.211	3.92
404.57	3.92
404.929	3.93
405.288	3.92
405.648	3.92
406.007	3.92
406.366	3.94
406.725	3.94
407.084	3.94
407.443	3.93
407.802	3.94
408.161	3.95
408.52	3.96
408.879	3.94
409.238	3.95
409.596	3.95
409.955	3.96
410.314	3.95
410.673	3.94
411.031	3.96
411.39	3.96
411.748	3.96
412.107	3.96
412.465	3.95
412.824	3.96
413.182	3.97
413.54	3.97
413.899	3.96
414.257	3.96
414.615	3.97
414.974	3.97
415.332	3.97
415.69	3.97
416.048	3.97
416.406	3.99
416.764	4
417.122	4.01
417.48	4.01
417.838	4.03
418.195	4.04
418.553	4.05
418.911	4.06
419.269	4.07
419.626	4.08
419.984	4.09
420.342	4.09
420.699	4.1
421.057	4.1
421.414	4.11
421.772	4.12
422.129	4.13
422.486	4.13
422.844	4.14
423.201	4.14
423.558	4.14
423.915	4.14
424.273	4.14
424.63	4.14
424.987	4.15
425.344	4.15
425.701	4.14
426.058	4.14
426.415	4.13
426.772	4.13
427.128	4.12
427.485	4.11
427.842	4.11
428.199	4.1
428.555	4.1
428.912	4.1
429.269	4.09
429.625	4.09
429.982	4.08
430.338	4.08
430.695	4.08
431.051	4.09
431.407	4.08
431.764	4.09
432.12	4.08
432.476	4.09
432.832	4.09
433.189	4.09
433.545	4.09
433.901	4.09
434.257	4.09
434.613	4.1
434.969	4.11
435.325	4.11
435.681	4.12
436.036	4.12
436.392	4.13
436.748	4.13
437.104	4.13
437.459	4.13
437.815	4.14
438.171	4.15
438.526	4.15
438.882	4.15
439.237	4.15
439.593	4.16
439.948	4.16
440.304	4.16
440.659	4.16
441.014	4.17
441.369	4.17
441.725	4.18
442.08	4.18
442.435	4.18
442.79	4.19
443.145	4.19
443.5	4.2
443.855	4.2
444.21	4.2
444.565	4.2
444.92	4.21
445.275	4.2
445.629	4.2
445.984	4.21
446.339	4.21
446.693	4.21
447.048	4.2
447.403	4.21
447.757	4.21
448.112	4.2
448.466	4.2
448.82	4.21
449.175	4.21
449.529	4.2
449.883	4.2
450.238	4.19
450.592	4.18
450.946	4.19
451.3	4.19
451.654	4.19
452.008	4.18
452.362	4.18
452.716	4.17
453.07	4.17
453.424	4.16
453.778	4.16
454.132	4.16
454.486	4.16
454.839	4.16
455.193	4.17
455.547	4.17
455.9	4.17
456.254	4.17
456.607	4.17
456.961	4.18
457.314	4.19
457.668	4.2
458.021	4.2
458.375	4.21
458.728	4.21
459.081	4.22
459.434	4.22
459.787	4.23
460.141	4.22
460.494	4.22
460.847	4.23
461.2	4.23
461.553	4.23
461.906	4.22
462.259	4.23
462.611	4.22
462.964	4.22
463.317	4.22
463.67	4.22
464.022	4.21
464.375	4.21
464.728	4.21
465.08	4.21
465.433	4.2
465.785	4.19
466.138	4.19
466.49	4.17
466.843	4.18
467.195	4.18
467.547	4.18
467.899	4.18
468.252	4.18
468.604	4.18
468.956	4.19
469.308	4.2
469.66	4.19
470.012	4.2
470.364	4.21
470.716	4.21
471.068	4.22
471.42	4.22
471.772	4.21
472.123	4.21
472.475	4.22
472.827	4.22
473.178	4.22
473.53	4.22
473.882	4.23
474.233	4.23
474.585	4.23
474.936	4.23
475.288	4.23
475.639	4.24
475.99	4.24
476.342	4.24
476.693	4.24
477.044	4.24
477.395	4.25
477.746	4.25
478.097	4.25
478.448	4.27
478.8	4.35
479.15	4.47
479.501	4.61
479.852	4.77
480.203	4.94
480.554	5.12
480.905	5.3
481.255	5.48
481.606	5.66
481.957	5.84
482.307	6.01
482.658	6.16
483.009	6.29
483.359	6.41
483.709	6.51
484.06	6.61
484.41	6.7
484.761	6.78
485.111	6.87
485.461	6.95
485.811	7.03
486.162	7.06
486.512	7.06
486.862	7.03
487.212	6.98
487.562	6.9
487.912	6.8
488.262	6.7
488.612	6.58
488.961	6.46
489.311	6.32
489.661	6.18
490.011	6.03
490.36	5.89
490.71	5.74
491.06	5.59
491.409	5.43
491.759	5.3
492.108	5.19
492.458	5.1
492.807	5.01
493.157	4.93
493.506	4.84
493.855	4.77
494.204	4.69
494.554	4.62
494.903	4.55
495.252	4.49
495.601	4.43
495.95	4.38
496.299	4.33
496.648	4.28
496.997	4.23
497.346	4.22
497.695	4.21
498.043	4.23
498.392	4.26
498.741	4.32
499.09	4.34
499.438	4.36
499.787	4.35
500.135	4.35
500.484	4.36
500.832	4.36
501.181	4.37
501.529	4.37
501.878	4.36
502.226	4.36
502.574	4.37
502.923	4.37
503.271	4.37
503.619	4.38
503.967	4.38
504.315	4.39
504.663	4.39
505.011	4.4
505.359	4.4
505.707	4.41
506.055	4.41
506.403	4.41
506.751	4.41
507.098	4.41
507.446	4.41
507.794	4.41
508.141	4.41
508.489	4.41
508.837	4.42
509.184	4.42
509.531	4.43
509.879	4.43
510.226	4.43
510.574	4.44
510.921	4.44
511.268	4.45
511.616	4.45
511.963	4.45
512.31	4.45
512.657	4.45
513.004	4.46
513.351	4.46
513.698	4.47
514.045	4.48
514.392	4.49
514.739	4.5
515.086	4.5
515.432	4.52
515.779	4.52
516.126	4.53
516.473	4.53
516.819	4.54
517.166	4.55
517.512	4.56
517.859	4.56
518.205	4.55
518.552	4.55
518.898	4.56
519.245	4.56
519.591	4.56
519.937	4.56
520.283	4.57
520.629	4.57
520.976	4.57
521.322	4.57
521.668	4.58
522.014	4.58
522.36	4.58
522.706	4.58
523.052	4.6
523.398	4.64
523.743	4.71
524.089	4.8
524.435	4.9
524.781	5.01
525.126	5.11
525.472	5.23
525.817	5.34
526.163	5.44
526.509	5.53
526.854	5.61
527.199	5.67
527.545	5.72
527.89	5.75
528.235	5.76
528.581	5.79
528.926	5.81
529.271	5.82
529.616	5.84
529.961	5.86
530.306	5.87
530.651	5.85
530.996	5.81
531.341	5.75
531.686	5.68
532.031	5.58
532.376	5.48
532.721	5.35
533.065	5.23
533.41	5.12
533.755	5.01
534.099	4.93
534.444	4.86
534.788	4.81
535.133	4.78
535.477	4.75
535.822	4.72
536.166	4.69
536.51	4.67
536.855	4.64
537.199	4.63
537.543	4.62
537.887	4.62
538.231	4.63
538.576	4.64
538.92	4.66
539.264	4.69
539.608	4.72
539.951	4.75
540.295	4.78
540.639	4.8
540.983	4.81
541.327	4.8
541.671	4.79
542.014	4.79
542.358	4.79
542.701	4.8
543.045	4.8
543.389	4.8
543.732	4.81
544.075	4.81
544.419	4.81
544.762	4.8
545.105	4.79
545.449	4.78
545.792	4.75
546.135	4.73
546.478	4.7
546.821	4.68
547.165	4.66
547.508	4.67
547.851	4.67
548.194	4.68
548.536	4.69
548.879	4.71
549.222	4.71
549.565	4.7
549.908	4.69
550.25	4.69
550.593	4.68
550.936	4.67
551.278	4.66
551.621	4.66
551.963	4.66
552.306	4.67
552.648	4.66
552.991	4.64
553.333	4.63
553.675	4.63
554.017	4.63
554.36	4.65
554.702	4.64
555.044	4.62
555.386	4.62
555.728	4.62
556.07	4.62
556.412	4.62
556.754	4.62
557.096	4.62
557.438	4.62
557.78	4.62
558.121	4.63
558.463	4.63
558.805	4.63
559.147	4.63
559.488	4.63
559.83	4.65
560.171	4.66
560.513	4.67
560.854	4.68
561.196	4.67
561.537	4.68
561.878	4.68
562.22	4.69
562.561	4.7
562.902	4.71
563.243	4.73
563.584	4.71
563.925	4.73
564.266	4.73
564.607	4.73
564.948	4.74
565.289	4.75
565.63	4.75
565.971	4.74
566.312	4.75
566.653	4.75
566.993	4.74
567.334	4.72
567.675	4.73
568.015	4.74
568.356	4.75
568.696	4.75
569.037	4.76
569.377	4.77
569.718	4.77
570.058	4.77
570.398	4.77
570.739	4.78
571.079	4.78
571.419	4.79
571.759	4.8
572.099	4.8
572.439	4.79
572.779	4.81
573.119	4.82
573.459	4.82
573.799	4.82
574.139	4.83
574.479	4.85
574.819	4.84
575.158	4.84
575.498	4.84
575.838	4.83
576.177	4.83
576.517	4.82
576.856	4.82
577.196	4.82
577.535	4.82
577.875	4.82
578.214	4.82
578.553	4.82
578.893	4.81
579.232	4.82
579.571	4.81
579.91	4.81
580.25	4.81
580.589	4.81
580.928	4.8
581.267	4.8
581.606	4.79
581.945	4.78
582.283	4.8
582.622	4.79
582.961	4.8
583.3	4.82
583.639	4.83
583.977	4.83
584.316	4.83
584.654	4.84
584.993	4.84
585.332	4.85
585.67	4.84
586.008	4.85
586.347	4.86
586.685	4.86
587.024	4.84
587.362	4.85
587.7	4.85
588.038	4.85
588.376	4.85
588.715	4.85
589.053	4.86
589.391	4.85
589.729	4.86
590.067	4.84
590.404	4.83
590.742	4.84
591.08	4.84
591.418	4.84
591.756	4.84
592.093	4.85
592.431	4.85
592.769	4.86
593.106	4.86
593.444	4.86
593.781	4.86
594.119	4.88
594.456	4.88
594.793	4.89
595.131	4.89
595.468	4.9
595.805	4.91
596.143	4.91
596.48	4.92
596.817	4.93
597.154	4.94
597.491	4.94
597.828	4.93
598.165	4.93
598.502	4.93
598.839	4.93
599.176	4.92
599.512	4.92
599.849	4.91
600.186	4.92
600.523	4.91
600.859	4.91
601.196	4.91
601.532	4.91
601.869	4.91
602.205	4.91
602.542	4.91
602.878	4.91
603.215	4.92
603.551	4.92
603.887	4.92
604.223	4.94
604.56	4.94
604.896	4.95
605.232	4.96
605.568	4.96
605.904	4.96
606.24	4.97
606.576	4.98
606.912	5
607.248	5
607.583	5.02
607.919	5.02
608.255	5.02
608.591	5.01
608.926	5.01
609.262	5.01
609.597	5.01
609.933	5.01
610.268	5.01
610.604	5.02
610.939	5.01
611.275	5
611.61	5
611.945	5
612.281	5.01
612.616	5.01
612.951	5
613.286	5.01
613.621	5
613.956	5
614.291	5
614.626	5
614.961	5.02
615.296	5.02
615.631	5.03
615.966	5.03
616.3	5.03
616.635	5.03
616.97	5.03
617.304	5.04
617.639	5.05
617.973	5.06
618.308	5.06
618.642	5.04
618.977	5.03
619.311	5.03
619.646	5.02
619.98	5.05
620.314	5.04
620.648	5.04
620.983	5.04
621.317	5.03
621.651	5.02
621.985	5.02
622.319	5.01
622.653	5.02
622.987	5.03
623.321	5.04
623.655	5.06
623.988	5.05
624.322	5.04
624.656	5.04
624.99	5.03
625.323	5.04
625.657	5.06
625.99	5.07
626.324	5.09
626.657	5.09
626.991	5.09
627.324	5.08
627.658	5.09
627.991	5.09
628.324	5.11
628.657	5.11
628.991	5.13
629.324	5.14
629.657	5.14
629.99	5.14
630.323	5.14
630.656	5.14
630.989	5.14
631.322	5.16
631.655	5.16
631.987	5.16
632.32	5.16
632.653	5.17
632.986	5.17
633.318	5.16
633.651	5.17
633.984	5.17
634.316	5.18
634.649	5.17
634.981	5.18
635.313	5.17
635.646	5.19
635.978	5.19
636.31	5.2
636.643	5.2
636.975	5.21
637.307	5.21
637.639	5.21
637.971	5.21
638.303	5.22
638.635	5.21
638.967	5.22
639.299	5.21
639.631	5.22
639.963	5.21
640.295	5.22
640.626	5.23
640.958	5.23
641.29	5.23
641.621	5.26
641.953	5.26
642.285	5.27
642.616	5.25
642.948	5.25
643.279	5.24
643.61	5.23
643.942	5.22
644.273	5.24
644.604	5.24
644.936	5.25
645.267	5.26
645.598	5.26
645.929	5.26
646.26	5.28
646.591	5.27
646.922	5.29
647.253	5.28
647.584	5.27
647.915	5.27
648.245	5.27
648.576	5.27
648.907	5.28
649.238	5.28
649.568	5.29
649.899	5.3
650.229	5.29
650.56	5.31
650.89	5.32
651.221	5.33
651.551	5.34
651.882	5.35
652.212	5.34
652.542	5.33
652.872	5.34
653.203	5.35
653.533	5.37
653.863	5.34
654.193	5.34
654.523	5.34
654.853	5.34
655.183	5.36
655.513	5.36
655.843	5.36
656.172	5.36
656.502	5.37
656.832	5.37
657.162	5.38
657.491	5.38
657.821	5.37
658.15	5.35
658.48	5.35
658.809	5.36
659.139	5.36
659.468	5.4
659.798	5.4
660.127	5.41
660.456	5.41
660.785	5.43
661.115	5.45
661.444	5.46
661.773	5.47
662.102	5.46
662.431	5.47
662.76	5.46
663.089	5.46
663.418	5.45
663.747	5.44
664.076	5.45
664.404	5.44
664.733	5.45
665.062	5.48
665.39	5.47
665.719	5.44
666.048	5.47
666.376	5.47
666.705	5.45
667.033	5.44
667.362	5.45
667.69	5.47
668.018	5.46
668.347	5.45
668.675	5.45
669.003	5.45
669.331	5.45
669.659	5.45
669.987	5.46
670.315	5.47
670.643	5.49
670.971	5.49
671.299	5.51
671.627	5.52
671.955	5.48
672.283	5.49
672.61	5.51
672.938	5.49
673.266	5.5
673.593	5.5
673.921	5.5
674.249	5.51
674.576	5.51
674.904	5.52
675.231	5.54
675.558	5.55
675.886	5.58
676.213	5.59
676.54	5.61
676.867	5.62
677.195	5.63
677.522	5.65
677.849	5.67
678.176	5.67
678.503	5.68
678.83	5.72
679.157	5.73
679.484	5.72
679.81	5.72
680.137	5.71
680.464	5.73
680.791	5.74
681.117	5.74
681.444	5.72
681.771	5.73
682.097	5.74
