Data from UWBM37214_Reflection_00007.txt Node
Date: Sun May 02 14:04:12 EDT 2021
User: vgr7
Spectrometer: USB2G7710
Scans to average: 10
Trigger mode: 4
Integration Time (sec): 1.000000E-1
Electric dark correction enabled: true
Boxcar width: 20
XAxis mode: Wavelengths
Number of Pixels in Spectrum: 2048
>>>>>Begin Spectral Data<<<<<
177.721	401.32
178.105	616.95
178.488	-8650
178.871	1343.75
179.254	417.63
179.636	208.3
180.019	107.53
180.402	71.33
180.785	62.94
181.168	59.5
181.55	51.78
181.933	62.2
182.316	60.43
182.698	50.06
183.081	44.34
183.463	40.11
183.846	38.93
184.228	40.92
184.611	40.36
184.993	36.21
185.376	34.71
185.758	35.39
186.14	40.35
186.522	42.65
186.904	40.41
187.287	37.78
187.669	35.99
188.051	33.24
188.433	33.32
188.815	29.99
189.197	29.37
189.579	27.29
189.961	27.65
190.342	27.15
190.724	28.31
191.106	27.79
191.488	28.89
191.869	30.02
192.251	29.1
192.633	28.57
193.014	26.99
193.396	25.02
193.777	26.65
194.159	26.52
194.54	23.26
194.922	22.03
195.303	22.41
195.684	22.27
196.065	23.69
196.447	24.74
196.828	23.28
197.209	21.91
197.59	18.46
197.971	17.75
198.352	19.5
198.733	20.89
199.114	20.71
199.495	21.27
199.876	20.65
200.257	20.73
200.638	21.56
201.018	21.6
201.399	22.48
201.78	20.34
202.16	19.31
202.541	18.89
202.922	18.63
203.302	19.64
203.683	21.37
204.063	21.16
204.444	21.28
204.824	21.58
205.204	20.3
205.585	20.59
205.965	20.24
206.345	19.6
206.725	20.99
207.106	19.43
207.486	19.77
207.866	19.83
208.246	18.16
208.626	16.83
209.006	17.37
209.386	16.02
209.766	15.2
210.145	15.68
210.525	16.41
210.905	18.41
211.285	17.32
211.664	16.97
212.044	15.6
212.424	15.14
212.803	15.61
213.183	15.46
213.562	16.12
213.942	16.04
214.321	14.62
214.701	14.27
215.08	15.02
215.459	14.03
215.838	12.37
216.218	12.57
216.597	12.26
216.976	12.3
217.355	12.47
217.734	12.48
218.113	13.83
218.492	12.94
218.871	12.85
219.25	12.8
219.629	12.49
220.008	12.74
220.387	11.7
220.766	12.58
221.144	11.78
221.523	11.77
221.902	11.62
222.28	10.07
222.659	10.17
223.037	9.57
223.416	10.09
223.794	10.8
224.173	10.84
224.551	10.18
224.929	10.75
225.308	10.34
225.686	10.77
226.064	10.16
226.442	9.68
226.821	10.28
227.199	10.36
227.577	9.92
227.955	10.06
228.333	10.16
228.711	9.71
229.089	8.7
229.467	8.05
229.845	8.17
230.222	8.17
230.6	7.93
230.978	7.91
231.356	8.02
231.733	7.71
232.111	7.5
232.488	6.95
232.866	6.8
233.243	6.39
233.621	5.84
233.998	5.92
234.376	5.88
234.753	5.63
235.13	5.52
235.508	5.39
235.885	5.33
236.262	5.2
236.639	5.04
237.016	4.96
237.393	4.89
237.77	4.93
238.147	4.85
238.524	4.76
238.901	4.58
239.278	4.62
239.655	4.63
240.032	4.59
240.409	4.55
240.785	4.6
241.162	4.54
241.539	4.5
241.915	4.51
242.292	4.45
242.668	4.42
243.045	4.43
243.421	4.4
243.798	4.41
244.174	4.45
244.551	4.5
244.927	4.51
245.303	4.51
245.679	4.51
246.056	4.45
246.432	4.46
246.808	4.45
247.184	4.45
247.56	4.47
247.936	4.47
248.312	4.46
248.688	4.47
249.064	4.49
249.44	4.47
249.815	4.41
250.191	4.37
250.567	4.41
250.943	4.41
251.318	4.4
251.694	4.4
252.069	4.38
252.445	4.36
252.82	4.34
253.196	4.33
253.571	4.32
253.947	4.3
254.322	4.3
254.697	4.26
255.073	4.24
255.448	4.25
255.823	4.22
256.198	4.2
256.573	4.19
256.948	4.2
257.323	4.17
257.698	4.14
258.073	4.11
258.448	4.09
258.823	4.09
259.198	4.06
259.573	4.02
259.948	4.03
260.322	4.03
260.697	4.02
261.072	4
261.446	4
261.821	3.97
262.195	3.96
262.57	3.95
262.944	3.93
263.319	3.93
263.693	3.93
264.067	3.93
264.442	3.93
264.816	3.91
265.19	3.92
265.564	3.92
265.938	3.88
266.313	3.86
266.687	3.86
267.061	3.87
267.435	3.86
267.809	3.85
268.183	3.84
268.556	3.83
268.93	3.82
269.304	3.83
269.678	3.81
270.051	3.81
270.425	3.8
270.799	3.78
271.172	3.79
271.546	3.79
271.919	3.79
272.293	3.79
272.666	3.79
273.04	3.82
273.413	3.85
273.787	3.86
274.16	3.87
274.533	3.87
274.906	3.89
275.279	3.87
275.653	3.87
276.026	3.89
276.399	3.9
276.772	3.91
277.145	3.92
277.518	3.94
277.891	3.95
278.263	3.96
278.636	3.97
279.009	3.95
279.382	3.96
279.755	3.97
280.127	3.98
280.5	3.98
280.872	4.01
281.245	4.03
281.617	4.06
281.99	4.06
282.362	4.05
282.735	4.06
283.107	4.09
283.479	4.1
283.852	4.13
284.224	4.14
284.596	4.15
284.968	4.18
285.34	4.19
285.713	4.21
286.085	4.24
286.457	4.25
286.829	4.25
287.201	4.27
287.572	4.29
287.944	4.32
288.316	4.33
288.688	4.34
289.06	4.37
289.431	4.4
289.803	4.43
290.175	4.45
290.546	4.5
290.918	4.54
291.289	4.57
291.661	4.6
292.032	4.62
292.403	4.65
292.775	4.69
293.146	4.73
293.517	4.77
293.889	4.81
294.26	4.87
294.631	4.92
295.002	4.97
295.373	5.02
295.744	5.07
296.115	5.12
296.486	5.17
296.857	5.22
297.228	5.27
297.599	5.34
297.97	5.39
298.34	5.43
298.711	5.5
299.082	5.54
299.452	5.6
299.823	5.65
300.194	5.7
300.564	5.76
300.935	5.81
301.305	5.86
301.676	5.91
302.046	5.98
302.416	6.03
302.787	6.1
303.157	6.15
303.527	6.21
303.897	6.27
304.267	6.35
304.637	6.42
305.008	6.5
305.378	6.59
305.748	6.64
306.117	6.71
306.487	6.79
306.857	6.89
307.227	6.97
307.597	7.05
307.967	7.11
308.336	7.16
308.706	7.22
309.076	7.28
309.445	7.35
309.815	7.39
310.184	7.44
310.554	7.49
310.923	7.55
311.293	7.6
311.662	7.66
312.031	7.71
312.401	7.77
312.77	7.82
313.139	7.88
313.508	7.94
313.877	7.99
314.246	8.04
314.616	8.09
314.985	8.15
315.353	8.22
315.722	8.28
316.091	8.33
316.46	8.38
316.829	8.44
317.198	8.52
317.567	8.58
317.935	8.63
318.304	8.69
318.672	8.75
319.041	8.82
319.41	8.87
319.778	8.92
320.147	8.98
320.515	9.03
320.883	9.07
321.252	9.12
321.62	9.17
321.988	9.2
322.357	9.24
322.725	9.28
323.093	9.32
323.461	9.36
323.829	9.41
324.197	9.45
324.565	9.46
324.933	9.5
325.301	9.54
325.669	9.58
326.037	9.61
326.405	9.64
326.772	9.67
327.14	9.7
327.508	9.71
327.875	9.72
328.243	9.74
328.61	9.75
328.978	9.77
329.346	9.77
329.713	9.8
330.08	9.81
330.448	9.81
330.815	9.82
331.182	9.84
331.55	9.87
331.917	9.88
332.284	9.88
332.651	9.9
333.018	9.92
333.385	9.95
333.752	9.97
334.119	9.99
334.486	10.02
334.853	10.03
335.22	10.06
335.587	10.08
335.954	10.11
336.32	10.13
336.687	10.14
337.054	10.15
337.42	10.18
337.787	10.2
338.153	10.22
338.52	10.23
338.886	10.24
339.253	10.25
339.619	10.27
339.986	10.29
340.352	10.3
340.718	10.3
341.084	10.29
341.451	10.31
341.817	10.33
342.183	10.34
342.549	10.37
342.915	10.38
343.281	10.4
343.647	10.42
344.013	10.43
344.379	10.44
344.745	10.46
345.11	10.47
345.476	10.48
345.842	10.5
346.208	10.51
346.573	10.5
346.939	10.51
347.304	10.52
347.67	10.52
348.035	10.52
348.401	10.53
348.766	10.53
349.132	10.54
349.497	10.54
349.862	10.54
350.228	10.53
350.593	10.52
350.958	10.52
351.323	10.51
351.688	10.51
352.053	10.49
352.418	10.48
352.783	10.46
353.148	10.45
353.513	10.44
353.878	10.42
354.243	10.4
354.608	10.38
354.972	10.37
355.337	10.34
355.702	10.33
356.066	10.31
356.431	10.28
356.795	10.25
357.16	10.22
357.524	10.19
357.889	10.18
358.253	10.14
358.618	10.12
358.982	10.1
359.346	10.07
359.71	10.04
360.075	10.02
360.439	9.99
360.803	9.95
361.167	9.92
361.531	9.9
361.895	9.87
362.259	9.83
362.623	9.81
362.987	9.77
363.351	9.73
363.714	9.69
364.078	9.65
364.442	9.6
364.806	9.57
365.169	9.52
365.533	9.48
365.896	9.44
366.26	9.39
366.623	9.35
366.987	9.3
367.35	9.26
367.714	9.21
368.077	9.16
368.44	9.1
368.803	9.05
369.167	8.99
369.53	8.94
369.893	8.87
370.256	8.82
370.619	8.75
370.982	8.69
371.345	8.63
371.708	8.57
372.071	8.51
372.434	8.45
372.797	8.39
373.159	8.33
373.522	8.27
373.885	8.22
374.247	8.15
374.61	8.08
374.973	8.01
375.335	7.95
375.698	7.89
376.06	7.83
376.423	7.77
376.785	7.71
377.147	7.65
377.51	7.59
377.872	7.53
378.234	7.47
378.596	7.41
378.958	7.35
379.321	7.3
379.683	7.24
380.045	7.19
380.407	7.14
380.769	7.08
381.13	7.03
381.492	6.98
381.854	6.93
382.216	6.88
382.578	6.82
382.939	6.77
383.301	6.72
383.663	6.68
384.024	6.63
384.386	6.58
384.747	6.53
385.109	6.48
385.47	6.43
385.832	6.38
386.193	6.34
386.554	6.29
386.916	6.24
387.277	6.2
387.638	6.16
387.999	6.13
388.36	6.09
388.721	6.05
389.082	6.02
389.443	5.99
389.804	5.95
390.165	5.92
390.526	5.88
390.887	5.84
391.248	5.8
391.609	5.77
391.969	5.73
392.33	5.7
392.691	5.66
393.051	5.63
393.412	5.59
393.772	5.56
394.133	5.52
394.493	5.48
394.854	5.45
395.214	5.41
395.574	5.37
395.935	5.34
396.295	5.3
396.655	5.27
397.015	5.24
397.376	5.21
397.736	5.17
398.096	5.14
398.456	5.11
398.816	5.08
399.176	5.05
399.535	5.02
399.895	5
400.255	4.97
400.615	4.94
400.975	4.91
401.334	4.88
401.694	4.85
402.054	4.83
402.413	4.8
402.773	4.77
403.132	4.74
403.492	4.71
403.851	4.69
404.211	4.67
404.57	4.65
404.929	4.63
405.288	4.61
405.648	4.59
406.007	4.58
406.366	4.56
406.725	4.55
407.084	4.54
407.443	4.52
407.802	4.51
408.161	4.5
408.52	4.48
408.879	4.47
409.238	4.45
409.596	4.44
409.955	4.43
410.314	4.41
410.673	4.4
411.031	4.39
411.39	4.38
411.748	4.36
412.107	4.35
412.465	4.35
412.824	4.35
413.182	4.36
413.54	4.36
413.899	4.38
414.257	4.39
414.615	4.41
414.974	4.43
415.332	4.46
415.69	4.48
416.048	4.5
416.406	4.53
416.764	4.54
417.122	4.56
417.48	4.58
417.838	4.59
418.195	4.6
418.553	4.61
418.911	4.62
419.269	4.61
419.626	4.6
419.984	4.58
420.342	4.56
420.699	4.54
421.057	4.51
421.414	4.48
421.772	4.45
422.129	4.43
422.486	4.42
422.844	4.41
423.201	4.4
423.558	4.39
423.915	4.38
424.273	4.37
424.63	4.36
424.987	4.35
425.344	4.34
425.701	4.33
426.058	4.33
426.415	4.32
426.772	4.31
427.128	4.3
427.485	4.28
427.842	4.26
428.199	4.24
428.555	4.21
428.912	4.19
429.269	4.15
429.625	4.12
429.982	4.09
430.338	4.05
430.695	4.03
431.051	3.99
431.407	3.96
431.764	3.94
432.12	3.92
432.476	3.91
432.832	3.9
433.189	3.9
433.545	3.9
433.901	3.91
434.257	3.92
434.613	3.95
434.969	3.97
435.325	3.99
435.681	4.03
436.036	4.05
436.392	4.07
436.748	4.08
437.104	4.09
437.459	4.11
437.815	4.12
438.171	4.14
438.526	4.16
438.882	4.19
439.237	4.22
439.593	4.25
439.948	4.28
440.304	4.31
440.659	4.33
441.014	4.35
441.369	4.37
441.725	4.38
442.08	4.4
442.435	4.41
442.79	4.41
443.145	4.41
443.5	4.41
443.855	4.4
444.21	4.4
444.565	4.39
444.92	4.38
445.275	4.37
445.629	4.36
445.984	4.34
446.339	4.33
446.693	4.31
447.048	4.28
447.403	4.26
447.757	4.23
448.112	4.21
448.466	4.18
448.82	4.16
449.175	4.13
449.529	4.1
449.883	4.08
450.238	4.05
450.592	4.04
450.946	4.02
451.3	4.02
451.654	4.02
452.008	4.02
452.362	4.02
452.716	4.02
453.07	4.01
453.424	4
453.778	4
454.132	3.99
454.486	3.98
454.839	3.96
455.193	3.94
455.547	3.93
455.9	3.9
456.254	3.88
456.607	3.86
456.961	3.83
457.314	3.82
457.668	3.81
458.021	3.8
458.375	3.8
458.728	3.8
459.081	3.81
459.434	3.82
459.787	3.83
460.141	3.84
460.494	3.85
460.847	3.86
461.2	3.88
461.553	3.89
461.906	3.9
462.259	3.91
462.611	3.91
462.964	3.92
463.317	3.94
463.67	3.95
464.022	3.97
464.375	3.98
464.728	3.99
465.08	4
465.433	4.01
465.785	4.01
466.138	4.01
466.49	4
466.843	4
467.195	3.98
467.547	3.97
467.899	3.96
468.252	3.94
468.604	3.92
468.956	3.91
469.308	3.9
469.66	3.91
470.012	3.9
470.364	3.91
470.716	3.92
471.068	3.94
471.42	3.96
471.772	3.98
472.123	4
472.475	4.01
472.827	4.03
473.178	4.04
473.53	4.05
473.882	4.07
474.233	4.09
474.585	4.12
474.936	4.18
475.288	4.26
475.639	4.36
475.99	4.48
476.342	4.62
476.693	4.77
477.044	4.92
477.395	5.07
477.746	5.23
478.097	5.39
478.448	5.55
478.8	5.71
479.15	5.85
479.501	5.99
479.852	6.12
480.203	6.24
480.554	6.35
480.905	6.46
481.255	6.56
481.606	6.66
481.957	6.75
482.307	6.84
482.658	6.92
483.009	7
483.359	7.09
483.709	7.16
484.06	7.24
484.41	7.31
484.761	7.38
485.111	7.46
485.461	7.52
485.811	7.58
486.162	7.64
486.512	7.69
486.862	7.74
487.212	7.77
487.562	7.79
487.912	7.8
488.262	7.81
488.612	7.81
488.961	7.8
489.311	7.77
489.661	7.71
490.011	7.64
490.36	7.55
490.71	7.45
491.06	7.34
491.409	7.22
491.759	7.1
492.108	6.97
492.458	6.83
492.807	6.7
493.157	6.56
493.506	6.43
493.855	6.31
494.204	6.19
494.554	6.08
494.903	5.99
495.252	5.89
495.601	5.81
495.95	5.73
496.299	5.66
496.648	5.59
496.997	5.54
497.346	5.48
497.695	5.43
498.043	5.39
498.392	5.35
498.741	5.31
499.09	5.28
499.438	5.26
499.787	5.25
500.135	5.24
500.484	5.23
500.832	5.25
501.181	5.27
501.529	5.31
501.878	5.37
502.226	5.43
502.574	5.51
502.923	5.59
503.271	5.67
503.619	5.76
503.967	5.85
504.315	5.95
504.663	6.04
505.011	6.14
505.359	6.23
505.707	6.33
506.055	6.44
506.403	6.55
506.751	6.66
507.098	6.78
507.446	6.9
507.794	7.03
508.141	7.17
508.489	7.3
508.837	7.45
509.184	7.59
509.531	7.75
509.879	7.91
510.226	8.09
510.574	8.28
510.921	8.47
511.268	8.67
511.616	8.88
511.963	9.09
512.31	9.31
512.657	9.52
513.004	9.73
513.351	9.94
513.698	10.14
514.045	10.33
514.392	10.51
514.739	10.68
515.086	10.84
515.432	11.01
515.779	11.18
516.126	11.35
516.473	11.53
516.819	11.72
517.166	11.94
517.512	12.17
517.859	12.42
518.205	12.68
518.552	12.97
518.898	13.28
519.245	13.64
519.591	14.06
519.937	14.56
520.283	15.13
520.629	15.75
520.976	16.4
521.322	17.08
521.668	17.78
522.014	18.49
522.36	19.2
522.706	19.91
523.052	20.6
523.398	21.25
523.743	21.85
524.089	22.4
524.435	22.91
524.781	23.41
525.126	23.9
525.472	24.39
525.817	24.87
526.163	25.34
526.509	25.8
526.854	26.26
527.199	26.71
527.545	27.17
527.89	27.64
528.235	28.1
528.581	28.55
528.926	28.97
529.271	29.36
529.616	29.74
529.961	30.12
530.306	30.47
530.651	30.81
530.996	31.13
531.341	31.41
531.686	31.67
532.031	31.92
532.376	32.2
532.721	32.49
533.065	32.83
533.41	33.18
533.755	33.49
534.099	33.78
534.444	34.02
534.788	34.24
535.133	34.44
535.477	34.61
535.822	34.75
536.166	34.86
536.51	34.91
536.855	34.9
537.199	34.87
537.543	34.83
537.887	34.82
538.231	34.84
538.576	34.87
538.92	34.89
539.264	34.89
539.608	34.87
539.951	34.84
540.295	34.79
540.639	34.73
540.983	34.66
541.327	34.55
541.671	34.43
542.014	34.33
542.358	34.26
542.701	34.24
543.045	34.31
543.389	34.41
543.732	34.53
544.075	34.66
544.419	34.82
544.762	34.98
545.105	35.15
545.449	35.35
545.792	35.54
546.135	35.73
546.478	35.89
546.821	36
547.165	36.04
547.508	36.02
547.851	35.96
548.194	35.85
548.536	35.7
548.879	35.51
549.222	35.3
549.565	35.09
549.908	34.88
550.25	34.69
550.593	34.56
550.936	34.51
551.278	34.5
551.621	34.55
551.963	34.61
552.306	34.68
552.648	34.8
552.991	34.94
553.333	35.1
553.675	35.29
554.017	35.51
554.36	35.77
554.702	36.05
555.044	36.37
555.386	36.73
555.728	37.14
556.07	37.51
556.412	37.88
556.754	38.18
557.096	38.42
557.438	38.66
557.78	38.89
558.121	39.12
558.463	39.35
558.805	39.58
559.147	39.82
559.488	40.04
559.83	40.27
560.171	40.5
560.513	40.73
560.854	40.94
561.196	41.16
561.537	41.38
561.878	41.59
562.22	41.79
562.561	41.99
562.902	42.18
563.243	42.39
563.584	42.58
563.925	42.78
564.266	42.99
564.607	43.17
564.948	43.36
565.289	43.55
565.63	43.73
565.971	43.92
566.312	44.1
566.653	44.27
566.993	44.45
567.334	44.62
567.675	44.79
568.015	44.95
568.356	45.1
568.696	45.25
569.037	45.39
569.377	45.53
569.718	45.68
570.058	45.82
570.398	45.94
570.739	46.06
571.079	46.18
571.419	46.3
571.759	46.41
572.099	46.53
572.439	46.65
572.779	46.75
573.119	46.85
573.459	46.96
573.799	47.07
574.139	47.18
574.479	47.27
574.819	47.37
575.158	47.46
575.498	47.55
575.838	47.64
576.177	47.74
576.517	47.83
576.856	47.92
577.196	48
577.535	48.09
577.875	48.18
578.214	48.26
578.553	48.35
578.893	48.42
579.232	48.51
579.571	48.59
579.91	48.68
580.25	48.75
580.589	48.85
580.928	48.93
581.267	49.02
581.606	49.1
581.945	49.2
582.283	49.28
582.622	49.36
582.961	49.45
583.3	49.54
583.639	49.62
583.977	49.7
584.316	49.8
584.654	49.88
584.993	49.97
585.332	50.05
585.67	50.13
586.008	50.23
586.347	50.31
586.685	50.4
587.024	50.48
587.362	50.56
587.7	50.63
588.038	50.71
588.376	50.8
588.715	50.88
589.053	50.98
589.391	51.08
589.729	51.18
590.067	51.28
590.404	51.37
590.742	51.46
591.08	51.54
591.418	51.61
591.756	51.7
592.093	51.77
592.431	51.84
592.769	51.91
593.106	51.98
593.444	52.03
593.781	52.08
594.119	52.15
594.456	52.19
594.793	52.24
595.131	52.29
595.468	52.35
595.805	52.4
596.143	52.45
596.48	52.52
596.817	52.59
597.154	52.67
597.491	52.73
597.828	52.79
598.165	52.86
598.502	52.92
598.839	52.99
599.176	53.06
599.512	53.11
599.849	53.16
600.186	53.2
600.523	53.25
600.859	53.3
601.196	53.35
601.532	53.4
601.869	53.44
602.205	53.49
602.542	53.54
602.878	53.58
603.215	53.61
603.551	53.64
603.887	53.68
604.223	53.71
604.56	53.74
604.896	53.77
605.232	53.81
605.568	53.84
605.904	53.88
606.24	53.91
606.576	53.94
606.912	53.96
607.248	53.99
607.583	54.02
607.919	54.04
608.255	54.08
608.591	54.1
608.926	54.13
609.262	54.16
609.597	54.17
609.933	54.2
610.268	54.23
610.604	54.25
610.939	54.27
611.275	54.27
611.61	54.3
611.945	54.32
612.281	54.32
612.616	54.33
612.951	54.34
613.286	54.37
613.621	54.39
613.956	54.42
614.291	54.43
614.626	54.45
614.961	54.47
615.296	54.49
615.631	54.52
615.966	54.52
616.3	54.54
616.635	54.56
616.97	54.57
617.304	54.59
617.639	54.61
617.973	54.63
618.308	54.65
618.642	54.69
618.977	54.71
619.311	54.73
619.646	54.75
619.98	54.78
620.314	54.8
620.648	54.83
620.983	54.87
621.317	54.91
621.651	54.94
621.985	54.98
622.319	55.01
622.653	55.04
622.987	55.07
623.321	55.1
623.655	55.11
623.988	55.12
624.322	55.14
624.656	55.16
624.99	55.19
625.323	55.21
625.657	55.22
625.99	55.25
626.324	55.27
626.657	55.29
626.991	55.3
627.324	55.31
627.658	55.32
627.991	55.34
628.324	55.36
628.657	55.39
628.991	55.41
629.324	55.43
629.657	55.45
629.99	55.47
630.323	55.49
630.656	55.52
630.989	55.54
631.322	55.54
631.655	55.55
631.987	55.57
632.32	55.57
632.653	55.57
632.986	55.59
633.318	55.6
633.651	55.62
633.984	55.62
634.316	55.64
634.649	55.65
634.981	55.65
635.313	55.65
635.646	55.66
635.978	55.68
636.31	55.69
636.643	55.69
636.975	55.71
637.307	55.74
637.639	55.75
637.971	55.77
638.303	55.77
638.635	55.77
638.967	55.79
639.299	55.79
639.631	55.8
639.963	55.82
640.295	55.84
640.626	55.86
640.958	55.88
641.29	55.9
641.621	55.91
641.953	55.91
642.285	55.93
642.616	55.93
642.948	55.94
643.279	55.96
643.61	55.97
643.942	55.98
644.273	56
644.604	56.01
644.936	56.04
645.267	56.07
645.598	56.09
645.929	56.13
646.26	56.16
646.591	56.19
646.922	56.21
647.253	56.23
647.584	56.25
647.915	56.28
648.245	56.29
648.576	56.31
648.907	56.34
649.238	56.35
649.568	56.36
649.899	56.37
650.229	56.39
650.56	56.39
650.89	56.41
651.221	56.44
651.551	56.47
651.882	56.5
652.212	56.52
652.542	56.55
652.872	56.57
653.203	56.59
653.533	56.6
653.863	56.6
654.193	56.62
654.523	56.63
654.853	56.65
655.183	56.67
655.513	56.68
655.843	56.7
656.172	56.74
656.502	56.74
656.832	56.76
657.162	56.79
657.491	56.81
657.821	56.83
658.15	56.84
658.48	56.83
658.809	56.85
659.139	56.86
659.468	56.87
659.798	56.88
660.127	56.88
660.456	56.9
660.785	56.9
661.115	56.91
661.444	56.93
661.773	56.94
662.102	56.94
662.431	56.95
662.76	56.97
663.089	56.99
663.418	57
663.747	57
664.076	57.02
664.404	57.04
664.733	57.05
665.062	57.05
665.39	57.06
665.719	57.07
666.048	57.09
666.376	57.1
666.705	57.11
667.033	57.12
667.362	57.14
667.69	57.17
668.018	57.17
668.347	57.18
