Data from UWBM88853_Reflection_00008.txt Node
Date: Sun May 02 13:41:27 EDT 2021
User: vgr7
Spectrometer: USB2G7710
Scans to average: 10
Trigger mode: 4
Integration Time (sec): 1.000000E-1
Electric dark correction enabled: true
Boxcar width: 20
XAxis mode: Wavelengths
Number of Pixels in Spectrum: 2048
>>>>>Begin Spectral Data<<<<<
177.721	113.73
178.105	63.2
178.488	66.23
178.871	122.81
179.254	106.41
179.636	41.63
180.019	34.26
180.402	25.11
180.785	29.26
181.168	26.1
181.55	23.23
181.933	19.78
182.316	12.73
182.698	10.78
183.081	5.04
183.463	6.47
183.846	2.23
184.228	4.87
184.611	7.8
184.993	9.34
185.376	10.68
185.758	15
186.14	15.46
186.522	16.62
186.904	14.6
187.287	15.14
187.669	18.14
188.051	18.62
188.433	18.64
188.815	16.83
189.197	15.26
189.579	13.24
189.961	13.43
190.342	10.95
190.724	11.45
191.106	14.71
191.488	13.02
191.869	11.74
192.251	11.23
192.633	9.8
193.014	8.03
193.396	6.21
193.777	9.87
194.159	10.57
194.54	9.36
194.922	7.31
195.303	7.82
195.684	7.26
196.065	8.22
196.447	9
196.828	9.8
197.209	9.53
197.59	7.95
197.971	8.7
198.352	9.29
198.733	11.46
199.114	11.02
199.495	12.63
199.876	13.54
200.257	11.95
200.638	10.46
201.018	12.12
201.399	11.7
201.78	12.21
202.16	12.08
202.541	11.74
202.922	12.52
203.302	14.36
203.683	13.98
204.063	14.48
204.444	13.56
204.824	13.93
205.204	13.33
205.585	14.75
205.965	16.77
206.345	16.98
206.725	16.43
207.106	17.75
207.486	17.57
207.866	17.45
208.246	17.08
208.626	17.44
209.006	17.43
209.386	16.27
209.766	14.75
210.145	15.78
210.525	16.19
210.905	17.9
211.285	17.32
211.664	17.39
212.044	15.35
212.424	14.35
212.803	14.81
213.183	16.02
213.562	17.98
213.942	17.59
214.321	15.78
214.701	15.28
215.08	16.73
215.459	15.44
215.838	15.19
216.218	16.05
216.597	14.86
216.976	15.62
217.355	16.02
217.734	15.22
218.113	15.81
218.492	14.01
218.871	11.18
219.25	12.15
219.629	12.05
220.008	12.34
220.387	11.96
220.766	12.83
221.144	10.02
221.523	9.48
221.902	9.07
222.28	8.57
222.659	8.86
223.037	8.37
223.416	8.74
223.794	8.31
224.173	8.23
224.551	7.85
224.929	8.56
225.308	8.68
225.686	8.31
226.064	8.71
226.442	8.24
226.821	8.35
227.199	8.4
227.577	8.79
227.955	9.02
228.333	9.05
228.711	8.9
229.089	7.72
229.467	7.62
229.845	7.91
230.222	7.64
230.6	7.04
230.978	6.95
231.356	7.08
231.733	6.76
232.111	6.59
232.488	6.24
232.866	5.91
233.243	5.82
233.621	5.64
233.998	5.72
234.376	5.83
234.753	5.53
235.13	5.5
235.508	5.52
235.885	5.35
236.262	5.29
236.639	5.32
237.016	5.17
237.393	5.03
237.77	5.01
238.147	4.85
238.524	4.82
238.901	4.71
239.278	4.75
239.655	4.76
240.032	4.8
240.409	4.71
240.785	4.75
241.162	4.69
241.539	4.65
241.915	4.63
242.292	4.65
242.668	4.63
243.045	4.62
243.421	4.58
243.798	4.49
244.174	4.53
244.551	4.54
244.927	4.54
245.303	4.53
245.679	4.56
246.056	4.52
246.432	4.51
246.808	4.48
247.184	4.49
247.56	4.48
247.936	4.44
248.312	4.44
248.688	4.45
249.064	4.47
249.44	4.46
249.815	4.42
250.191	4.39
250.567	4.39
250.943	4.36
251.318	4.33
251.694	4.32
252.069	4.31
252.445	4.31
252.82	4.29
253.196	4.25
253.571	4.23
253.947	4.21
254.322	4.2
254.697	4.17
255.073	4.12
255.448	4.11
255.823	4.07
256.198	4.06
256.573	4.06
256.948	4.03
257.323	4.02
257.698	3.97
258.073	3.94
258.448	3.92
258.823	3.9
259.198	3.92
259.573	3.88
259.948	3.88
260.322	3.86
260.697	3.84
261.072	3.82
261.446	3.81
261.821	3.81
262.195	3.81
262.57	3.79
262.944	3.79
263.319	3.81
263.693	3.79
264.067	3.77
264.442	3.75
264.816	3.73
265.19	3.74
265.564	3.73
265.938	3.72
266.313	3.73
266.687	3.73
267.061	3.71
267.435	3.7
267.809	3.67
268.183	3.67
268.556	3.68
268.93	3.68
269.304	3.69
269.678	3.68
270.051	3.67
270.425	3.66
270.799	3.63
271.172	3.65
271.546	3.64
271.919	3.64
272.293	3.64
272.666	3.62
273.04	3.65
273.413	3.67
273.787	3.69
274.16	3.71
274.533	3.71
274.906	3.72
275.279	3.7
275.653	3.71
276.026	3.72
276.399	3.71
276.772	3.73
277.145	3.72
277.518	3.71
277.891	3.73
278.263	3.72
278.636	3.71
279.009	3.7
279.382	3.72
279.755	3.73
280.127	3.75
280.5	3.75
280.872	3.77
281.245	3.78
281.617	3.77
281.99	3.78
282.362	3.77
282.735	3.78
283.107	3.8
283.479	3.8
283.852	3.81
284.224	3.82
284.596	3.82
284.968	3.82
285.34	3.82
285.713	3.84
286.085	3.86
286.457	3.87
286.829	3.87
287.201	3.87
287.572	3.88
287.944	3.89
288.316	3.88
288.688	3.88
289.06	3.87
289.431	3.87
289.803	3.89
290.175	3.9
290.546	3.94
290.918	3.96
291.289	3.98
291.661	4
292.032	3.99
292.403	4.01
292.775	4.03
293.146	4.05
293.517	4.07
293.889	4.09
294.26	4.13
294.631	4.15
295.002	4.16
295.373	4.19
295.744	4.21
296.115	4.23
296.486	4.25
296.857	4.29
297.228	4.31
297.599	4.36
297.97	4.39
298.34	4.41
298.711	4.44
299.082	4.46
299.452	4.49
299.823	4.52
300.194	4.55
300.564	4.59
300.935	4.61
301.305	4.64
301.676	4.66
302.046	4.71
302.416	4.74
302.787	4.76
303.157	4.81
303.527	4.86
303.897	4.88
304.267	4.95
304.637	5
305.008	5.03
305.378	5.08
305.748	5.11
306.117	5.14
306.487	5.19
306.857	5.24
307.227	5.3
307.597	5.35
307.967	5.38
308.336	5.42
308.706	5.45
309.076	5.48
309.445	5.51
309.815	5.54
310.184	5.57
310.554	5.59
310.923	5.64
311.293	5.66
311.662	5.7
312.031	5.73
312.401	5.78
312.77	5.8
313.139	5.84
313.508	5.88
313.877	5.92
314.246	5.96
314.616	5.99
314.985	6.02
315.353	6.07
315.722	6.11
316.091	6.16
316.46	6.2
316.829	6.24
317.198	6.28
317.567	6.31
317.935	6.37
318.304	6.4
318.672	6.44
319.041	6.51
319.41	6.53
319.778	6.58
320.147	6.62
320.515	6.64
320.883	6.67
321.252	6.7
321.62	6.73
321.988	6.77
322.357	6.8
322.725	6.84
323.093	6.89
323.461	6.91
323.829	6.95
324.197	6.99
324.565	7.02
324.933	7.06
325.301	7.09
325.669	7.13
326.037	7.15
326.405	7.18
326.772	7.21
327.14	7.23
327.508	7.24
327.875	7.26
328.243	7.28
328.61	7.3
328.978	7.32
329.346	7.33
329.713	7.37
330.08	7.39
330.448	7.4
330.815	7.41
331.182	7.43
331.55	7.46
331.917	7.48
332.284	7.49
332.651	7.52
333.018	7.54
333.385	7.56
333.752	7.59
334.119	7.6
334.486	7.64
334.853	7.65
335.22	7.68
335.587	7.71
335.954	7.75
336.32	7.78
336.687	7.81
337.054	7.83
337.42	7.85
337.787	7.88
338.153	7.9
338.52	7.91
338.886	7.92
339.253	7.94
339.619	7.97
339.986	7.99
340.352	8.02
340.718	8.03
341.084	8.05
341.451	8.07
341.817	8.09
342.183	8.11
342.549	8.13
342.915	8.15
343.281	8.18
343.647	8.19
344.013	8.2
344.379	8.22
344.745	8.23
345.11	8.24
345.476	8.27
345.842	8.3
346.208	8.31
346.573	8.32
346.939	8.33
347.304	8.36
347.67	8.37
348.035	8.38
348.401	8.39
348.766	8.4
349.132	8.41
349.497	8.41
349.862	8.41
350.228	8.41
350.593	8.42
350.958	8.42
351.323	8.41
351.688	8.42
352.053	8.42
352.418	8.42
352.783	8.41
353.148	8.39
353.513	8.4
353.878	8.4
354.243	8.39
354.608	8.38
354.972	8.37
355.337	8.35
355.702	8.35
356.066	8.33
356.431	8.32
356.795	8.3
357.16	8.29
357.524	8.28
357.889	8.27
358.253	8.25
358.618	8.23
358.982	8.22
359.346	8.2
359.71	8.18
360.075	8.16
360.439	8.14
360.803	8.11
361.167	8.1
361.531	8.07
361.895	8.05
362.259	8.01
362.623	7.99
362.987	7.96
363.351	7.94
363.714	7.91
364.078	7.87
364.442	7.84
364.806	7.82
365.169	7.79
365.533	7.76
365.896	7.72
366.26	7.69
366.623	7.65
366.987	7.61
367.35	7.57
367.714	7.53
368.077	7.49
368.44	7.45
368.803	7.4
369.167	7.35
369.53	7.29
369.893	7.24
370.256	7.19
370.619	7.13
370.982	7.08
371.345	7.03
371.708	6.98
372.071	6.93
372.434	6.88
372.797	6.82
373.159	6.77
373.522	6.72
373.885	6.67
374.247	6.62
374.61	6.57
374.973	6.51
375.335	6.46
375.698	6.41
376.06	6.35
376.423	6.3
376.785	6.25
377.147	6.2
377.51	6.16
377.872	6.11
378.234	6.05
378.596	6.01
378.958	5.97
379.321	5.92
379.683	5.88
380.045	5.83
380.407	5.8
380.769	5.75
381.13	5.71
381.492	5.68
381.854	5.64
382.216	5.6
382.578	5.56
382.939	5.53
383.301	5.49
383.663	5.46
384.024	5.42
384.386	5.39
384.747	5.35
385.109	5.32
385.47	5.29
385.832	5.24
386.193	5.21
386.554	5.17
386.916	5.13
387.277	5.09
387.638	5.07
387.999	5.04
388.36	5.01
388.721	4.98
389.082	4.96
389.443	4.93
389.804	4.9
390.165	4.87
390.526	4.85
390.887	4.82
391.248	4.8
391.609	4.77
391.969	4.75
392.33	4.73
392.691	4.7
393.051	4.68
393.412	4.65
393.772	4.62
394.133	4.6
394.493	4.57
394.854	4.54
395.214	4.51
395.574	4.49
395.935	4.46
396.295	4.44
396.655	4.41
397.015	4.39
397.376	4.37
397.736	4.34
398.096	4.32
398.456	4.3
398.816	4.28
399.176	4.26
399.535	4.24
399.895	4.22
400.255	4.2
400.615	4.18
400.975	4.16
401.334	4.15
401.694	4.13
402.054	4.12
402.413	4.1
402.773	4.08
403.132	4.06
403.492	4.05
403.851	4.04
404.211	4.03
404.57	4.01
404.929	4
405.288	3.98
405.648	3.97
406.007	3.97
406.366	3.96
406.725	3.95
407.084	3.94
407.443	3.93
407.802	3.92
408.161	3.92
408.52	3.91
408.879	3.9
409.238	3.89
409.596	3.89
409.955	3.88
410.314	3.87
410.673	3.86
411.031	3.86
411.39	3.85
411.748	3.85
412.107	3.84
412.465	3.84
412.824	3.85
413.182	3.86
413.54	3.87
413.899	3.89
414.257	3.91
414.615	3.93
414.974	3.95
415.332	3.98
415.69	4
416.048	4.02
416.406	4.05
416.764	4.07
417.122	4.09
417.48	4.11
417.838	4.13
418.195	4.14
418.553	4.15
418.911	4.16
419.269	4.16
419.626	4.15
419.984	4.14
420.342	4.12
420.699	4.1
421.057	4.08
421.414	4.06
421.772	4.04
422.129	4.03
422.486	4.02
422.844	4.01
423.201	4.01
423.558	4
423.915	4
424.273	3.99
424.63	3.99
424.987	3.98
425.344	3.98
425.701	3.97
426.058	3.97
426.415	3.96
426.772	3.96
427.128	3.95
427.485	3.93
427.842	3.92
428.199	3.91
428.555	3.88
428.912	3.86
429.269	3.83
429.625	3.81
429.982	3.78
430.338	3.75
430.695	3.73
431.051	3.7
431.407	3.68
431.764	3.66
432.12	3.64
432.476	3.63
432.832	3.62
433.189	3.62
433.545	3.62
433.901	3.63
434.257	3.65
434.613	3.68
434.969	3.7
435.325	3.72
435.681	3.75
436.036	3.77
436.392	3.79
436.748	3.8
437.104	3.81
437.459	3.83
437.815	3.84
438.171	3.86
438.526	3.88
438.882	3.9
439.237	3.93
439.593	3.96
439.948	3.99
440.304	4.02
440.659	4.04
441.014	4.06
441.369	4.08
441.725	4.1
442.08	4.11
442.435	4.12
442.79	4.13
443.145	4.13
443.5	4.13
443.855	4.12
444.21	4.12
444.565	4.12
444.92	4.11
445.275	4.09
445.629	4.09
445.984	4.07
446.339	4.06
446.693	4.05
447.048	4.03
447.403	4.02
447.757	4
448.112	3.98
448.466	3.95
448.82	3.93
449.175	3.9
449.529	3.88
449.883	3.87
450.238	3.84
450.592	3.84
450.946	3.82
451.3	3.82
451.654	3.82
452.008	3.82
452.362	3.83
452.716	3.83
453.07	3.83
453.424	3.82
453.778	3.81
454.132	3.8
454.486	3.79
454.839	3.77
455.193	3.75
455.547	3.74
455.9	3.72
456.254	3.7
456.607	3.68
456.961	3.65
457.314	3.64
457.668	3.63
458.021	3.63
458.375	3.62
458.728	3.62
459.081	3.63
459.434	3.64
459.787	3.65
460.141	3.66
460.494	3.67
460.847	3.68
461.2	3.68
461.553	3.69
461.906	3.7
462.259	3.7
462.611	3.71
462.964	3.72
463.317	3.73
463.67	3.73
464.022	3.75
464.375	3.75
464.728	3.76
465.08	3.77
465.433	3.77
465.785	3.78
466.138	3.77
466.49	3.76
466.843	3.75
467.195	3.74
467.547	3.72
467.899	3.71
468.252	3.69
468.604	3.67
468.956	3.66
469.308	3.65
469.66	3.66
470.012	3.65
470.364	3.66
470.716	3.67
471.068	3.68
471.42	3.7
471.772	3.72
472.123	3.74
472.475	3.75
472.827	3.76
473.178	3.77
473.53	3.77
473.882	3.79
474.233	3.81
474.585	3.84
474.936	3.89
475.288	3.97
475.639	4.07
475.99	4.18
476.342	4.31
476.693	4.44
477.044	4.59
477.395	4.73
477.746	4.89
478.097	5.04
478.448	5.19
478.8	5.34
479.15	5.48
479.501	5.6
479.852	5.72
480.203	5.83
480.554	5.94
480.905	6.04
481.255	6.13
481.606	6.22
481.957	6.31
482.307	6.39
482.658	6.47
483.009	6.54
483.359	6.61
483.709	6.68
484.06	6.75
484.41	6.82
484.761	6.88
485.111	6.95
485.461	7.01
485.811	7.06
486.162	7.11
486.512	7.16
486.862	7.19
487.212	7.22
487.562	7.23
487.912	7.25
488.262	7.26
488.612	7.25
488.961	7.24
489.311	7.21
489.661	7.15
490.011	7.08
490.36	6.99
490.71	6.89
491.06	6.78
491.409	6.67
491.759	6.54
492.108	6.41
492.458	6.28
492.807	6.15
493.157	6.01
493.506	5.88
493.855	5.76
494.204	5.65
494.554	5.54
494.903	5.45
495.252	5.36
495.601	5.27
495.95	5.19
496.299	5.12
496.648	5.05
496.997	5
497.346	4.94
497.695	4.89
498.043	4.84
498.392	4.8
498.741	4.76
499.09	4.73
499.438	4.7
499.787	4.68
500.135	4.67
500.484	4.66
500.832	4.67
501.181	4.69
501.529	4.73
501.878	4.78
502.226	4.84
502.574	4.91
502.923	4.98
503.271	5.06
503.619	5.14
503.967	5.23
504.315	5.32
504.663	5.42
505.011	5.51
505.359	5.61
505.707	5.72
506.055	5.83
506.403	5.95
506.751	6.07
507.098	6.2
507.446	6.34
507.794	6.48
508.141	6.64
508.489	6.8
508.837	6.97
509.184	7.14
509.531	7.33
509.879	7.52
510.226	7.74
510.574	7.96
510.921	8.2
511.268	8.44
511.616	8.7
511.963	8.96
512.31	9.24
512.657	9.51
513.004	9.79
513.351	10.06
513.698	10.32
514.045	10.56
514.392	10.81
514.739	11.05
515.086	11.29
515.432	11.52
515.779	11.76
516.126	12.01
516.473	12.29
516.819	12.58
517.166	12.89
517.512	13.23
517.859	13.59
518.205	13.97
518.552	14.38
518.898	14.82
519.245	15.32
519.591	15.89
519.937	16.56
520.283	17.33
520.629	18.15
520.976	19.02
521.322	19.91
521.668	20.83
522.014	21.75
522.36	22.67
522.706	23.58
523.052	24.47
523.398	25.32
523.743	26.11
524.089	26.85
524.435	27.54
524.781	28.22
525.126	28.89
525.472	29.56
525.817	30.21
526.163	30.85
526.509	31.48
526.854	32.1
527.199	32.72
527.545	33.33
527.89	33.97
528.235	34.59
528.581	35.18
528.926	35.74
529.271	36.27
529.616	36.78
529.961	37.27
530.306	37.72
530.651	38.15
530.996	38.54
531.341	38.91
531.686	39.25
532.031	39.57
532.376	39.92
532.721	40.3
533.065	40.71
533.41	41.13
533.755	41.51
534.099	41.85
534.444	42.13
534.788	42.38
535.133	42.61
535.477	42.8
535.822	42.96
536.166	43.07
536.51	43.1
536.855	43.06
537.199	42.97
537.543	42.89
537.887	42.83
538.231	42.82
538.576	42.81
538.92	42.78
539.264	42.73
539.608	42.64
539.951	42.54
540.295	42.42
540.639	42.3
540.983	42.14
541.327	41.96
541.671	41.76
542.014	41.6
542.358	41.45
542.701	41.41
543.045	41.43
543.389	41.49
543.732	41.58
544.075	41.68
544.419	41.8
544.762	41.93
545.105	42.07
545.449	42.23
545.792	42.4
546.135	42.56
546.478	42.67
546.821	42.72
547.165	42.69
547.508	42.6
547.851	42.44
548.194	42.23
548.536	41.96
548.879	41.66
549.222	41.32
549.565	40.98
549.908	40.63
550.25	40.31
550.593	40.07
550.936	39.91
551.278	39.82
551.621	39.77
551.963	39.75
552.306	39.75
552.648	39.78
552.991	39.85
553.333	39.94
553.675	40.07
554.017	40.23
554.36	40.42
554.702	40.63
555.044	40.9
555.386	41.22
555.728	41.57
556.07	41.86
556.412	42.16
556.754	42.36
557.096	42.52
557.438	42.68
557.78	42.84
558.121	43.01
558.463	43.17
558.805	43.32
559.147	43.48
559.488	43.62
559.83	43.77
560.171	43.91
560.513	44.05
560.854	44.19
561.196	44.33
561.537	44.47
561.878	44.61
562.22	44.74
562.561	44.87
562.902	45
563.243	45.13
563.584	45.26
563.925	45.38
564.266	45.52
564.607	45.65
564.948	45.77
565.289	45.89
565.63	46.01
565.971	46.14
566.312	46.25
566.653	46.37
566.993	46.49
567.334	46.6
567.675	46.72
568.015	46.83
568.356	46.93
568.696	47.03
569.037	47.13
569.377	47.23
569.718	47.32
570.058	47.41
570.398	47.5
570.739	47.58
571.079	47.65
571.419	47.71
571.759	47.78
572.099	47.85
572.439	47.91
572.779	47.98
573.119	48.04
573.459	48.11
573.799	48.17
574.139	48.24
574.479	48.31
574.819	48.38
575.158	48.44
575.498	48.5
575.838	48.55
576.177	48.61
576.517	48.68
576.856	48.73
577.196	48.78
577.535	48.85
577.875	48.91
578.214	48.96
578.553	49.01
578.893	49.06
579.232	49.11
579.571	49.15
579.91	49.2
580.25	49.26
580.589	49.31
580.928	49.36
581.267	49.42
581.606	49.46
581.945	49.51
582.283	49.56
582.622	49.63
582.961	49.69
583.3	49.74
583.639	49.8
583.977	49.85
584.316	49.91
584.654	49.98
584.993	50.05
585.332	50.12
585.67	50.17
586.008	50.23
586.347	50.28
586.685	50.35
587.024	50.41
587.362	50.48
587.7	50.54
588.038	50.6
588.376	50.65
588.715	50.72
589.053	50.79
589.391	50.86
589.729	50.94
590.067	51
590.404	51.07
590.742	51.14
591.08	51.21
591.418	51.26
591.756	51.31
592.093	51.36
592.431	51.42
592.769	51.46
593.106	51.52
593.444	51.56
593.781	51.6
594.119	51.64
594.456	51.68
594.793	51.73
595.131	51.76
595.468	51.81
595.805	51.86
596.143	51.91
596.48	51.96
596.817	52
597.154	52.06
597.491	52.12
597.828	52.17
598.165	52.23
598.502	52.28
598.839	52.33
599.176	52.38
599.512	52.43
599.849	52.47
600.186	52.5
600.523	52.54
600.859	52.57
601.196	52.62
601.532	52.65
601.869	52.69
602.205	52.73
602.542	52.77
602.878	52.8
603.215	52.83
603.551	52.86
603.887	52.89
604.223	52.92
604.56	52.94
604.896	52.97
605.232	53
605.568	53.03
605.904	53.06
606.24	53.08
606.576	53.11
606.912	53.13
607.248	53.15
607.583	53.17
607.919	53.2
608.255	53.23
608.591	53.24
608.926	53.28
609.262	53.3
609.597	53.31
609.933	53.33
610.268	53.34
610.604	53.37
610.939	53.38
611.275	53.38
611.61	53.4
611.945	53.4
612.281	53.41
612.616	53.42
612.951	53.44
613.286	53.45
613.621	53.47
613.956	53.49
614.291	53.51
614.626	53.52
614.961	53.52
615.296	53.53
615.631	53.55
615.966	53.56
616.3	53.58
616.635	53.6
616.97	53.62
617.304	53.62
617.639	53.64
617.973	53.66
618.308	53.68
618.642	53.7
618.977	53.71
619.311	53.73
619.646	53.75
619.98	53.76
620.314	53.8
620.648	53.83
620.983	53.86
621.317	53.88
621.651	53.9
621.985	53.92
622.319	53.94
622.653	53.96
622.987	53.99
623.321	54
623.655	54.02
623.988	54.04
624.322	54.05
624.656	54.06
624.99	54.09
625.323	54.12
625.657	54.14
625.99	54.14
626.324	54.16
626.657	54.17
626.991	54.19
627.324	54.22
627.658	54.24
627.991	54.25
628.324	54.27
628.657	54.29
628.991	54.31
629.324	54.32
629.657	54.34
629.99	54.35
630.323	54.37
630.656	54.38
630.989	54.4
631.322	54.4
631.655	54.43
631.987	54.43
632.32	54.46
632.653	54.48
632.986	54.51
633.318	54.52
633.651	54.54
633.984	54.53
634.316	54.54
634.649	54.54
634.981	54.56
635.313	54.57
635.646	54.58
635.978	54.59
636.31	54.6
636.643	54.62
636.975	54.65
637.307	54.66
637.639	54.67
637.971	54.69
638.303	54.7
638.635	54.71
638.967	54.71
639.299	54.73
639.631	54.76
639.963	54.76
640.295	54.79
640.626	54.81
640.958	54.81
641.29	54.84
641.621	54.86
641.953	54.88
642.285	54.9
642.616	54.93
642.948	54.95
643.279	54.97
643.61	54.98
643.942	54.99
644.273	54.99
644.604	55.02
644.936	55.04
645.267	55.06
645.598	55.08
645.929	55.07
646.26	55.07
646.591	55.08
646.922	55.11
647.253	55.12
647.584	55.15
647.915	55.16
648.245	55.19
648.576	55.2
648.907	55.21
649.238	55.22
649.568	55.23
649.899	55.22
650.229	55.22
650.56	55.24
650.89	55.26
651.221	55.27
651.551	55.29
651.882	55.31
652.212	55.33
652.542	55.33
652.872	55.34
653.203	55.35
653.533	55.37
653.863	55.38
654.193	55.38
654.523	55.38
654.853	55.41
655.183	55.41
655.513	55.44
655.843	55.44
656.172	55.46
656.502	55.47
656.832	55.49
657.162	55.52
657.491	55.54
657.821	55.55
658.15	55.56
658.48	55.58
658.809	55.59
659.139	55.61
659.468	55.63
659.798	55.66
660.127	55.67
660.456	55.69
660.785	55.68
661.115	55.69
661.444	55.71
661.773	55.73
662.102	55.75
662.431	55.75
662.76	55.77
663.089	55.79
663.418	55.81
663.747	55.83
664.076	55.84
664.404	55.85
664.733	55.88
665.062	55.89
665.39	55.91
665.719	55.92
666.048	55.95
666.376	55.95
666.705	55.97
667.033	55.96
667.362	55.96
667.69	55.98
668.018	56.01
668.347	56
668.675	56
669.003	56
669.331	56.02
669.659	56.02
669.987	56.02
670.315	56.01
