Data from UWBM91361_Reflection_00002.txt Node
Date: Sun May 02 12:20:52 EDT 2021
User: vgr7
Spectrometer: USB2G7710
Scans to average: 10
Trigger mode: 4
Integration Time (sec): 1.000000E-1
Electric dark correction enabled: true
Boxcar width: 10
XAxis mode: Wavelengths
Number of Pixels in Spectrum: 2048
>>>>>Begin Spectral Data<<<<<
177.721	-150.68
178.105	452.94
178.488	119.77
178.871	73.91
179.254	-200
179.636	-118.18
180.019	-10.89
180.402	108.33
180.785	59.56
181.168	29.79
181.55	75.23
181.933	-31.4
182.316	-22.49
182.698	-59.13
183.081	-291.76
183.463	-246.96
183.846	-25.08
184.228	-58.69
184.611	-24.16
184.993	-15.78
185.376	2.53
185.758	1.03
186.14	-9.9
186.522	4.98
186.904	2.32
187.287	7
187.669	4.04
188.051	2.19
188.433	7.81
188.815	8.17
189.197	11.87
189.579	8.28
189.961	14.93
190.342	13.93
190.724	17.73
191.106	16.25
191.488	20.3
191.869	13.7
192.251	15.13
192.633	13.3
193.014	11.18
193.396	5.65
193.777	6.69
194.159	7.28
194.54	1.03
194.922	2.42
195.303	8.07
195.684	9.64
196.065	9.93
196.447	3.87
196.828	-0.52
197.209	-3.42
197.59	-5.35
197.971	-9.94
198.352	-8.48
198.733	-2.16
199.114	0.35
199.495	-4.42
199.876	-0.72
200.257	-0.07
200.638	1.8
201.018	0.59
201.399	4.25
201.78	4.31
202.16	4.44
202.541	4.76
202.922	3.77
203.302	2.82
203.683	5.39
204.063	4.83
204.444	2.5
204.824	9.87
205.204	11.48
205.585	13.5
205.965	13.32
206.345	11.48
206.725	1.9
207.106	1.01
207.486	3.28
207.866	3.62
208.246	3.53
208.626	4.98
209.006	7.09
209.386	5.83
209.766	3.91
210.145	3.37
210.525	2.26
210.905	3.87
211.285	2.77
211.664	-1.04
212.044	-0.06
212.424	4.64
212.803	2.55
213.183	5.32
213.562	4.93
213.942	4.77
214.321	1.51
214.701	2.39
215.08	3.85
215.459	4.83
215.838	3.74
216.218	2.66
216.597	2.29
216.976	-0.06
217.355	1.7
217.734	1
218.113	-0.92
218.492	-0.88
218.871	-1.01
219.25	0.57
219.629	1.3
220.008	0.73
220.387	-0.05
220.766	-5.07
221.144	-8.63
221.523	-7.48
221.902	-5.36
222.28	-4.06
222.659	-5.26
223.037	-5.42
223.416	-5.6
223.794	-5.21
224.173	-4.96
224.551	-5.03
224.929	-4.08
225.308	-4.06
225.686	-2.58
226.064	-1.06
226.442	0.61
226.821	0.65
227.199	0.33
227.577	1.23
227.955	1.04
228.333	1.22
228.711	1.76
229.089	1.78
229.467	2.12
229.845	2.92
230.222	5.12
230.6	6.22
230.978	6.48
231.356	6.55
231.733	6.8
232.111	7.25
232.488	7.09
232.866	6.63
233.243	6.59
233.621	7.17
233.998	6.83
234.376	6.94
234.753	7.4
235.13	7.27
235.508	7.7
235.885	7.89
236.262	7.57
236.639	8.27
237.016	8.69
237.393	8.22
237.77	7.66
238.147	7.26
238.524	7.24
238.901	7.29
239.278	7.07
239.655	6.91
240.032	6.68
240.409	6.88
240.785	6.91
241.162	6.79
241.539	6.39
241.915	6.44
242.292	6.43
242.668	6.31
243.045	6.35
243.421	6.16
243.798	6.19
244.174	6.23
244.551	6
244.927	5.81
245.303	5.84
245.679	5.92
246.056	5.81
246.432	5.85
246.808	5.79
247.184	5.75
247.56	5.67
247.936	5.69
248.312	5.6
248.688	5.57
249.064	5.58
249.44	5.65
249.815	5.65
250.191	5.62
250.567	5.59
250.943	5.55
251.318	5.56
251.694	5.47
252.069	5.41
252.445	5.53
252.82	5.54
253.196	5.54
253.571	5.48
253.947	5.57
254.322	5.48
254.697	5.58
255.073	5.55
255.448	5.6
255.823	5.54
256.198	5.46
256.573	5.42
256.948	5.43
257.323	5.44
257.698	5.37
258.073	5.38
258.448	5.41
258.823	5.44
259.198	5.37
259.573	5.39
259.948	5.41
260.322	5.34
260.697	5.31
261.072	5.3
261.446	5.25
261.821	5.27
262.195	5.19
262.57	5.15
262.944	5.12
263.319	5.13
263.693	5.16
264.067	5.19
264.442	5.2
264.816	5.18
265.19	5.12
265.564	5.16
265.938	5.09
266.313	5.04
266.687	4.95
267.061	5.02
267.435	4.97
267.809	4.94
268.183	4.93
268.556	5.02
268.93	5.04
269.304	5.06
269.678	4.95
270.051	4.97
270.425	4.94
270.799	5.02
271.172	5
271.546	5.03
271.919	5.02
272.293	4.99
272.666	4.99
273.04	5.02
273.413	4.97
273.787	4.93
274.16	4.92
274.533	4.94
274.906	4.91
275.279	4.92
275.653	4.91
276.026	4.87
276.399	4.8
276.772	4.79
277.145	4.82
277.518	4.92
277.891	4.92
278.263	4.95
278.636	4.94
279.009	4.94
279.382	4.86
279.755	4.85
280.127	4.9
280.5	4.87
280.872	4.85
281.245	4.88
281.617	4.91
281.99	4.95
282.362	4.92
282.735	4.92
283.107	4.95
283.479	5
283.852	5.01
284.224	5.04
284.596	5
284.968	4.99
285.34	4.95
285.713	5.02
286.085	5.03
286.457	5.04
286.829	5.02
287.201	5.04
287.572	5.06
287.944	5.05
288.316	5.08
288.688	5.13
289.06	5.11
289.431	5.12
289.803	5.12
290.175	5.17
290.546	5.2
290.918	5.22
291.289	5.23
291.661	5.25
292.032	5.25
292.403	5.29
292.775	5.32
293.146	5.31
293.517	5.3
293.889	5.34
294.26	5.33
294.631	5.37
295.002	5.41
295.373	5.47
295.744	5.51
296.115	5.54
296.486	5.52
296.857	5.54
297.228	5.58
297.599	5.58
297.97	5.57
298.34	5.59
298.711	5.59
299.082	5.55
299.452	5.57
299.823	5.62
300.194	5.66
300.564	5.62
300.935	5.65
301.305	5.64
301.676	5.6
302.046	5.61
302.416	5.64
302.787	5.65
303.157	5.6
303.527	5.59
303.897	5.58
304.267	5.64
304.637	5.68
305.008	5.72
305.378	5.76
305.748	5.77
306.117	5.77
306.487	5.76
306.857	5.81
307.227	5.82
307.597	5.83
307.967	5.83
308.336	5.88
308.706	5.91
309.076	5.91
309.445	5.89
309.815	5.91
310.184	5.87
310.554	5.87
310.923	5.86
311.293	5.88
311.662	5.9
312.031	5.84
312.401	5.85
312.77	5.83
313.139	5.84
313.508	5.84
313.877	5.84
314.246	5.83
314.616	5.84
314.985	5.83
315.353	5.81
315.722	5.81
316.091	5.77
316.46	5.78
316.829	5.83
317.198	5.87
317.567	5.85
317.935	5.88
318.304	5.89
318.672	5.93
319.041	5.89
319.41	5.9
319.778	5.98
320.147	5.98
320.515	5.96
320.883	5.96
321.252	5.98
321.62	6
321.988	6.04
322.357	6.05
322.725	6.07
323.093	6.06
323.461	6.04
323.829	6.08
324.197	6.04
324.565	6.04
324.933	6.06
325.301	6.12
325.669	6.13
326.037	6.14
326.405	6.11
326.772	6.15
327.14	6.12
327.508	6.08
327.875	6.07
328.243	6.1
328.61	6.11
328.978	6.11
329.346	6.1
329.713	6.07
330.08	6.07
330.448	6.06
330.815	6.09
331.182	6.06
331.55	6.02
331.917	6.05
332.284	6.01
332.651	6.01
333.018	5.97
333.385	5.96
333.752	5.94
334.119	5.98
334.486	5.99
334.853	6.01
335.22	6.02
335.587	6
335.954	6.02
336.32	5.99
336.687	5.98
337.054	5.98
337.42	5.99
337.787	5.97
338.153	6
338.52	5.99
338.886	6.02
339.253	6.01
339.619	6
339.986	6.02
340.352	6.03
340.718	6.05
341.084	6.04
341.451	6.04
341.817	6.01
342.183	6.03
342.549	6.04
342.915	6.04
343.281	6.06
343.647	6.04
344.013	6.05
344.379	6.07
344.745	6.04
345.11	6.04
345.476	6.06
345.842	6.06
346.208	6.04
346.573	6.05
346.939	6.07
347.304	6.07
347.67	6.06
348.035	6.06
348.401	6.04
348.766	6.04
349.132	6.04
349.497	6.01
349.862	5.95
350.228	5.94
350.593	5.94
350.958	5.93
351.323	5.93
351.688	5.95
352.053	5.94
352.418	5.99
352.783	5.99
353.148	6.01
353.513	5.98
353.878	6.01
354.243	6
354.608	5.99
354.972	5.99
355.337	5.97
355.702	5.93
356.066	5.92
356.431	5.91
356.795	5.91
357.16	5.94
357.524	5.94
357.889	5.94
358.253	5.95
358.618	5.95
358.982	5.95
359.346	5.94
359.71	5.91
360.075	5.88
360.439	5.89
360.803	5.87
361.167	5.86
361.531	5.86
361.895	5.85
362.259	5.86
362.623	5.85
362.987	5.87
363.351	5.88
363.714	5.9
364.078	5.9
364.442	5.9
364.806	5.89
365.169	5.91
365.533	5.9
365.896	5.88
366.26	5.89
366.623	5.87
366.987	5.85
367.35	5.85
367.714	5.87
368.077	5.86
368.44	5.85
368.803	5.85
369.167	5.85
369.53	5.88
369.893	5.89
370.256	5.89
370.619	5.88
370.982	5.87
371.345	5.87
371.708	5.88
372.071	5.89
372.434	5.91
372.797	5.88
373.159	5.91
373.522	5.91
373.885	5.93
374.247	5.94
374.61	5.95
374.973	5.95
375.335	5.93
375.698	5.94
376.06	5.95
376.423	5.96
376.785	5.96
377.147	5.93
377.51	5.94
377.872	5.95
378.234	5.95
378.596	5.97
378.958	5.98
379.321	5.98
379.683	5.97
380.045	5.94
380.407	5.95
380.769	5.93
381.13	5.95
381.492	5.94
381.854	5.94
382.216	5.96
382.578	5.97
382.939	5.97
383.301	5.96
383.663	5.97
384.024	5.97
384.386	5.97
384.747	5.98
385.109	5.99
385.47	5.97
385.832	5.97
386.193	5.97
386.554	5.95
386.916	5.96
387.277	5.96
387.638	5.98
387.999	5.98
388.36	5.99
388.721	5.99
389.082	5.97
389.443	5.98
389.804	5.97
390.165	5.97
390.526	5.97
390.887	5.97
391.248	5.98
391.609	5.99
391.969	5.98
392.33	5.98
392.691	5.98
393.051	5.99
393.412	5.99
393.772	5.99
394.133	6
394.493	6
394.854	6
395.214	6
395.574	6
395.935	6
396.295	5.99
396.655	6
397.015	6
397.376	6.01
397.736	6.02
398.096	6.01
398.456	6.01
398.816	6.01
399.176	6
399.535	6.01
399.895	6
400.255	6.01
400.615	6.01
400.975	6.01
401.334	6.01
401.694	6.01
402.054	6.02
402.413	6.02
402.773	6.02
403.132	6.02
403.492	6.01
403.851	6.02
404.211	6.03
404.57	6.03
404.929	6.03
405.288	6.03
405.648	6.04
406.007	6.04
406.366	6.04
406.725	6.04
407.084	6.04
407.443	6.05
407.802	6.03
408.161	6.03
408.52	6.03
408.879	6.03
409.238	6.03
409.596	6.02
409.955	6.01
410.314	6.01
410.673	6.01
411.031	6.02
411.39	6.02
411.748	6.03
412.107	6.03
412.465	6.03
412.824	6.03
413.182	6.03
413.54	6.02
413.899	6.02
414.257	6.03
414.615	6.04
414.974	6.04
415.332	6.05
415.69	6.05
416.048	6.07
416.406	6.08
416.764	6.09
417.122	6.1
417.48	6.11
417.838	6.12
418.195	6.14
418.553	6.14
418.911	6.15
419.269	6.15
419.626	6.16
419.984	6.18
420.342	6.18
420.699	6.2
421.057	6.22
421.414	6.22
421.772	6.23
422.129	6.24
422.486	6.25
422.844	6.25
423.201	6.26
423.558	6.26
423.915	6.26
424.273	6.26
424.63	6.26
424.987	6.26
425.344	6.26
425.701	6.25
426.058	6.25
426.415	6.24
426.772	6.23
427.128	6.23
427.485	6.22
427.842	6.21
428.199	6.19
428.555	6.18
428.912	6.18
429.269	6.17
429.625	6.16
429.982	6.15
430.338	6.14
430.695	6.14
431.051	6.14
431.407	6.14
431.764	6.14
432.12	6.13
432.476	6.13
432.832	6.13
433.189	6.13
433.545	6.13
433.901	6.13
434.257	6.14
434.613	6.13
434.969	6.14
435.325	6.14
435.681	6.15
436.036	6.15
436.392	6.16
436.748	6.17
437.104	6.17
437.459	6.18
437.815	6.19
438.171	6.19
438.526	6.2
438.882	6.2
439.237	6.21
439.593	6.22
439.948	6.22
440.304	6.22
440.659	6.23
441.014	6.23
441.369	6.23
441.725	6.25
442.08	6.25
442.435	6.25
442.79	6.26
443.145	6.26
443.5	6.27
443.855	6.27
444.21	6.26
444.565	6.27
444.92	6.27
445.275	6.26
445.629	6.27
445.984	6.27
446.339	6.27
446.693	6.27
447.048	6.27
447.403	6.27
447.757	6.27
448.112	6.27
448.466	6.27
448.82	6.27
449.175	6.26
449.529	6.25
449.883	6.25
450.238	6.24
450.592	6.22
450.946	6.22
451.3	6.22
451.654	6.22
452.008	6.21
452.362	6.2
452.716	6.21
453.07	6.2
453.424	6.19
453.778	6.19
454.132	6.18
454.486	6.18
454.839	6.18
455.193	6.17
455.547	6.18
455.9	6.18
456.254	6.19
456.607	6.21
456.961	6.22
457.314	6.22
457.668	6.23
458.021	6.24
458.375	6.24
458.728	6.25
459.081	6.25
459.434	6.24
459.787	6.25
460.141	6.25
460.494	6.24
460.847	6.24
461.2	6.24
461.553	6.25
461.906	6.25
462.259	6.25
462.611	6.25
462.964	6.25
463.317	6.24
463.67	6.23
464.022	6.22
464.375	6.22
464.728	6.21
465.08	6.21
465.433	6.2
465.785	6.2
466.138	6.2
466.49	6.19
466.843	6.19
467.195	6.19
467.547	6.19
467.899	6.2
468.252	6.2
468.604	6.2
468.956	6.2
469.308	6.21
469.66	6.2
470.012	6.2
470.364	6.2
470.716	6.21
471.068	6.22
471.42	6.22
471.772	6.22
472.123	6.23
472.475	6.24
472.827	6.23
473.178	6.24
473.53	6.23
473.882	6.24
474.233	6.24
474.585	6.24
474.936	6.25
475.288	6.24
475.639	6.25
475.99	6.24
476.342	6.25
476.693	6.26
477.044	6.26
477.395	6.26
477.746	6.27
478.097	6.29
478.448	6.33
478.8	6.45
479.15	6.62
479.501	6.82
479.852	7.05
480.203	7.3
480.554	7.55
480.905	7.82
481.255	8.08
481.606	8.34
481.957	8.6
482.307	8.84
482.658	9.06
483.009	9.24
483.359	9.41
483.709	9.56
484.06	9.69
484.41	9.82
484.761	9.94
485.111	10.06
485.461	10.17
485.811	10.27
486.162	10.31
486.512	10.31
486.862	10.25
487.212	10.17
487.562	10.05
487.912	9.92
488.262	9.76
488.612	9.59
488.961	9.4
489.311	9.2
489.661	8.99
490.011	8.79
490.36	8.58
490.71	8.36
491.06	8.12
491.409	7.9
491.759	7.72
492.108	7.57
492.458	7.43
492.807	7.31
493.157	7.19
493.506	7.07
493.855	6.96
494.204	6.85
494.554	6.74
494.903	6.65
495.252	6.56
495.601	6.47
495.95	6.4
496.299	6.34
496.648	6.27
496.997	6.22
497.346	6.19
497.695	6.19
498.043	6.22
498.392	6.28
498.741	6.35
499.09	6.39
499.438	6.4
499.787	6.4
500.135	6.4
500.484	6.41
500.832	6.41
501.181	6.42
501.529	6.42
501.878	6.43
502.226	6.42
502.574	6.43
502.923	6.43
503.271	6.43
503.619	6.42
503.967	6.42
504.315	6.43
504.663	6.43
505.011	6.43
505.359	6.44
505.707	6.44
506.055	6.46
506.403	6.46
506.751	6.48
507.098	6.49
507.446	6.5
507.794	6.51
508.141	6.51
508.489	6.52
508.837	6.52
509.184	6.53
509.531	6.54
509.879	6.55
510.226	6.55
510.574	6.57
510.921	6.57
511.268	6.58
511.616	6.59
511.963	6.6
512.31	6.6
512.657	6.62
513.004	6.62
513.351	6.63
513.698	6.65
514.045	6.65
514.392	6.66
514.739	6.66
515.086	6.67
515.432	6.69
515.779	6.7
516.126	6.71
516.473	6.72
516.819	6.73
517.166	6.74
517.512	6.75
517.859	6.75
518.205	6.75
518.552	6.75
518.898	6.76
519.245	6.76
519.591	6.76
519.937	6.76
520.283	6.77
520.629	6.77
520.976	6.76
521.322	6.77
521.668	6.77
522.014	6.77
522.36	6.77
522.706	6.78
523.052	6.81
523.398	6.87
523.743	6.98
524.089	7.1
524.435	7.24
524.781	7.39
525.126	7.54
525.472	7.7
525.817	7.86
526.163	8.01
526.509	8.14
526.854	8.25
527.199	8.33
527.545	8.39
527.89	8.43
528.235	8.47
528.581	8.5
528.926	8.53
529.271	8.55
529.616	8.58
529.961	8.6
530.306	8.6
530.651	8.58
530.996	8.51
531.341	8.43
531.686	8.33
532.031	8.2
532.376	8.04
532.721	7.87
533.065	7.69
533.41	7.54
533.755	7.39
534.099	7.27
534.444	7.18
534.788	7.11
535.133	7.06
535.477	7.02
535.822	6.97
536.166	6.94
536.51	6.92
536.855	6.89
537.199	6.87
537.543	6.87
537.887	6.87
538.231	6.88
538.576	6.89
538.92	6.92
539.264	6.95
539.608	7.01
539.951	7.05
540.295	7.1
540.639	7.11
540.983	7.12
541.327	7.1
541.671	7.1
542.014	7.1
542.358	7.1
542.701	7.1
543.045	7.11
543.389	7.11
543.732	7.1
544.075	7.09
544.419	7.09
544.762	7.07
545.105	7.05
545.449	7.02
545.792	6.99
546.135	6.95
546.478	6.92
546.821	6.89
547.165	6.87
547.508	6.86
547.851	6.87
548.194	6.89
548.536	6.92
548.879	6.93
549.222	6.92
549.565	6.91
549.908	6.9
550.25	6.89
550.593	6.88
550.936	6.88
551.278	6.86
551.621	6.86
551.963	6.86
552.306	6.85
552.648	6.85
552.991	6.84
553.333	6.84
553.675	6.84
554.017	6.83
554.36	6.84
554.702	6.84
555.044	6.84
555.386	6.82
555.728	6.82
556.07	6.82
556.412	6.81
556.754	6.81
557.096	6.81
557.438	6.82
557.78	6.81
558.121	6.81
558.463	6.81
558.805	6.81
559.147	6.82
559.488	6.82
559.83	6.83
560.171	6.84
560.513	6.84
560.854	6.84
561.196	6.84
561.537	6.85
561.878	6.85
562.22	6.85
562.561	6.86
562.902	6.88
563.243	6.89
563.584	6.89
563.925	6.89
564.266	6.89
564.607	6.89
564.948	6.9
565.289	6.92
565.63	6.92
565.971	6.91
566.312	6.92
566.653	6.92
566.993	6.92
567.334	6.93
567.675	6.93
568.015	6.94
568.356	6.95
568.696	6.95
569.037	6.96
569.377	6.96
569.718	6.96
570.058	6.97
570.398	6.97
570.739	6.97
571.079	6.98
571.419	6.99
571.759	7
572.099	7.01
572.439	7.01
572.779	7.02
573.119	7.03
573.459	7.03
573.799	7.04
574.139	7.04
574.479	7.04
574.819	7.04
575.158	7.04
575.498	7.04
575.838	7.05
576.177	7.03
576.517	7.04
576.856	7.04
577.196	7.04
577.535	7.03
577.875	7.03
578.214	7.02
578.553	7.01
578.893	6.99
579.232	6.99
579.571	6.97
579.91	6.96
580.25	6.96
580.589	6.95
580.928	6.93
581.267	6.93
581.606	6.92
581.945	6.92
582.283	6.92
582.622	6.92
582.961	6.92
583.3	6.93
583.639	6.92
583.977	6.93
584.316	6.94
584.654	6.94
584.993	6.96
585.332	6.97
585.67	6.97
586.008	6.98
586.347	7
586.685	7.01
587.024	7.02
587.362	7.03
587.7	7.04
588.038	7.05
588.376	7.06
588.715	7.06
589.053	7.06
589.391	7.06
589.729	7.06
590.067	7.06
590.404	7.07
590.742	7.07
591.08	7.08
591.418	7.09
591.756	7.1
592.093	7.1
592.431	7.1
592.769	7.1
593.106	7.1
593.444	7.09
593.781	7.09
594.119	7.11
594.456	7.11
594.793	7.12
595.131	7.13
595.468	7.14
595.805	7.14
596.143	7.16
596.48	7.18
596.817	7.18
597.154	7.19
597.491	7.18
597.828	7.18
598.165	7.18
598.502	7.17
598.839	7.17
599.176	7.16
599.512	7.16
599.849	7.17
600.186	7.17
600.523	7.18
600.859	7.18
601.196	7.18
601.532	7.19
601.869	7.2
602.205	7.21
602.542	7.21
602.878	7.22
603.215	7.22
603.551	7.21
603.887	7.22
604.223	7.22
604.56	7.22
604.896	7.23
605.232	7.24
605.568	7.24
605.904	7.26
606.24	7.28
606.576	7.28
606.912	7.3
607.248	7.31
607.583	7.31
607.919	7.32
608.255	7.31
608.591	7.31
608.926	7.31
609.262	7.3
609.597	7.29
609.933	7.29
610.268	7.3
610.604	7.3
610.939	7.3
611.275	7.3
611.61	7.31
611.945	7.31
612.281	7.32
612.616	7.31
612.951	7.28
613.286	7.28
613.621	7.27
613.956	7.27
614.291	7.26
614.626	7.25
614.961	7.26
615.296	7.27
615.631	7.26
615.966	7.24
616.3	7.25
616.635	7.27
616.97	7.26
617.304	7.26
617.639	7.26
617.973	7.26
618.308	7.25
618.642	7.24
618.977	7.24
619.311	7.24
619.646	7.24
619.98	7.26
620.314	7.27
620.648	7.28
620.983	7.28
621.317	7.28
621.651	7.27
621.985	7.27
622.319	7.27
622.653	7.28
622.987	7.3
623.321	7.31
623.655	7.31
623.988	7.32
624.322	7.33
624.656	7.33
624.99	7.34
625.323	7.35
625.657	7.36
625.99	7.36
626.324	7.39
626.657	7.4
626.991	7.41
627.324	7.4
627.658	7.4
627.991	7.4
628.324	7.41
628.657	7.42
628.991	7.43
629.324	7.44
629.657	7.45
629.99	7.44
630.323	7.46
630.656	7.46
630.989	7.46
631.322	7.47
631.655	7.47
631.987	7.46
632.32	7.46
632.653	7.47
632.986	7.47
633.318	7.45
633.651	7.45
633.984	7.44
634.316	7.46
634.649	7.45
634.981	7.47
635.313	7.47
635.646	7.49
635.978	7.48
636.31	7.47
636.643	7.47
636.975	7.48
637.307	7.48
637.639	7.48
637.971	7.5
638.303	7.5
638.635	7.48
638.967	7.49
639.299	7.47
639.631	7.49
639.963	7.5
640.295	7.51
640.626	7.53
640.958	7.54
641.29	7.53
641.621	7.55
641.953	7.56
642.285	7.56
642.616	7.56
642.948	7.57
643.279	7.59
643.61	7.6
643.942	7.59
644.273	7.6
644.604	7.59
644.936	7.58
645.267	7.58
645.598	7.61
645.929	7.63
646.26	7.65
646.591	7.67
646.922	7.68
647.253	7.68
647.584	7.67
647.915	7.69
648.245	7.71
648.576	7.72
648.907	7.73
649.238	7.74
649.568	7.72
649.899	7.71
650.229	7.71
650.56	7.73
650.89	7.76
651.221	7.78
651.551	7.82
651.882	7.83
652.212	7.83
652.542	7.82
652.872	7.83
653.203	7.83
653.533	7.82
653.863	7.81
654.193	7.8
654.523	7.79
654.853	7.78
655.183	7.77
655.513	7.77
655.843	7.79
656.172	7.78
656.502	7.82
656.832	7.84
657.162	7.85
657.491	7.85
657.821	7.84
658.15	7.82
658.48	7.83
658.809	7.83
659.139	7.83
659.468	7.86
659.798	7.87
660.127	7.88
660.456	7.9
660.785	7.92
661.115	7.96
661.444	7.97
661.773	7.99
662.102	8
662.431	8.01
662.76	7.98
663.089	7.97
663.418	7.97
663.747	7.96
664.076	7.96
664.404	7.93
664.733	7.94
665.062	7.97
665.39	7.94
665.719	7.95
666.048	7.97
666.376	7.96
666.705	7.93
667.033	7.92
667.362	7.91
667.69	7.89
668.018	7.89
668.347	7.91
668.675	7.88
669.003	7.88
669.331	7.86
669.659	7.87
669.987	7.91
670.315	7.9
670.643	7.91
670.971	7.91
671.299	7.92
671.627	7.93
671.955	7.91
672.283	7.9
672.61	7.91
672.938	7.89
673.266	7.88
673.593	7.88
673.921	7.89
674.249	7.9
674.576	7.93
674.904	7.92
675.231	7.93
675.558	7.97
675.886	8
676.213	8.04
676.54	8.07
676.867	8.06
677.195	8.09
677.522	8.13
677.849	8.14
678.176	8.16
678.503	8.17
678.83	8.18
679.157	8.22
679.484	8.24
679.81	8.26
680.137	8.28
680.464	8.31
680.791	8.3
681.117	8.31
681.444	8.3
681.771	8.32
682.097	8.29
