Data from UWBM91361_Reflection_00001.txt Node
Date: Sun May 02 12:20:43 EDT 2021
User: vgr7
Spectrometer: USB2G7710
Scans to average: 10
Trigger mode: 4
Integration Time (sec): 1.000000E-1
Electric dark correction enabled: true
Boxcar width: 10
XAxis mode: Wavelengths
Number of Pixels in Spectrum: 2048
>>>>>Begin Spectral Data<<<<<
177.721	-26.03
178.105	235.29
178.488	101.15
178.871	67.19
179.254	65.52
179.636	-41.56
180.019	117.12
180.402	116.67
180.785	18.5
181.168	-13.83
181.55	10.09
181.933	-65.29
182.316	-85.8
182.698	-141.74
183.081	-234.12
183.463	-246.09
183.846	-81.69
184.228	-95.37
184.611	-66.73
184.993	-39.74
185.376	-24.23
185.758	-31.75
186.14	-41.2
186.522	-27.9
186.904	-32.89
187.287	-19.38
187.669	-20.56
188.051	-22.14
188.433	-10.61
188.815	-10.24
189.197	-5.74
189.579	-5.83
189.961	-6.05
190.342	-7.98
190.724	-3.6
191.106	-4.73
191.488	-0.46
191.869	-1.81
192.251	-2.6
192.633	0.19
193.014	-2.24
193.396	-0.7
193.777	3.77
194.159	4.08
194.54	0.63
194.922	-0.94
195.303	-5.54
195.684	-6.44
196.065	-10.24
196.447	-12.75
196.828	-10.26
197.209	-15.43
197.59	-14.32
197.971	-9.68
198.352	-2.99
198.733	5.18
199.114	7.9
199.495	3.66
199.876	1.91
200.257	2.09
200.638	1.21
201.018	1.06
201.399	-1.55
201.78	-7.49
202.16	-6.49
202.541	-8.6
202.922	-8.77
203.302	-8.5
203.683	-6.19
204.063	-5.39
204.444	-6.67
204.824	-7.33
205.204	-4.92
205.585	-3.43
205.965	-7.71
206.345	-10.4
206.725	-24.81
207.106	-24.92
207.486	-19.94
207.866	-15.34
208.246	-16.03
208.626	-15.95
209.006	-15.09
209.386	-16.38
209.766	-14.77
210.145	-16.44
210.525	-19.02
210.905	-17.55
211.285	-14.77
211.664	-18.16
212.044	-14.47
212.424	-11.06
212.803	-15.54
213.183	-11.16
213.562	-15.51
213.942	-17.27
214.321	-22.19
214.701	-24.89
215.08	-25.29
215.459	-29.55
215.838	-33.74
216.218	-32.14
216.597	-27.51
216.976	-29.51
217.355	-27.13
217.734	-27.76
218.113	-24.94
218.492	-19.73
218.871	-19.26
219.25	-17.75
219.629	-15.21
220.008	-16.01
220.387	-16.48
220.766	-16.82
221.144	-21.22
221.523	-20.24
221.902	-17.68
222.28	-12.35
222.659	-9.61
223.037	-6.88
223.416	-3.51
223.794	-2.24
224.173	-1.89
224.551	-3.13
224.929	-2.4
225.308	-0.4
225.686	-0.74
226.064	-1.3
226.442	-2.17
226.821	-1.58
227.199	-1.82
227.577	-3.18
227.955	-3.31
228.333	-4.25
228.711	-4.25
229.089	-2.92
229.467	-2.3
229.845	-1.45
230.222	-1.77
230.6	-0.85
230.978	-0.77
231.356	-1.09
231.733	-1.32
232.111	-0.86
232.488	-1.3
232.866	-1.08
233.243	-1.29
233.621	-0.62
233.998	-0.44
234.376	-0.1
234.753	0.78
235.13	1.1
235.508	2.49
235.885	2.47
236.262	2.6
236.639	3.48
237.016	3.33
237.393	3.75
237.77	3.93
238.147	3.94
238.524	3.99
238.901	4.23
239.278	4.49
239.655	4.74
240.032	4.89
240.409	5.05
240.785	4.94
241.162	4.89
241.539	5
241.915	4.94
242.292	5.04
242.668	4.95
243.045	4.92
243.421	4.85
243.798	4.88
244.174	5.07
244.551	4.98
244.927	4.98
245.303	4.93
245.679	4.92
246.056	4.91
246.432	4.97
246.808	4.93
247.184	4.88
247.56	4.84
247.936	4.86
248.312	4.87
248.688	5.01
249.064	4.97
249.44	4.91
249.815	4.93
250.191	4.85
250.567	4.86
250.943	4.92
251.318	4.93
251.694	4.92
252.069	4.75
252.445	4.86
252.82	4.81
253.196	4.84
253.571	4.73
253.947	4.86
254.322	4.81
254.697	4.84
255.073	4.9
255.448	4.92
255.823	4.82
256.198	4.76
256.573	4.67
256.948	4.76
257.323	4.83
257.698	4.83
258.073	4.88
258.448	4.89
258.823	4.86
259.198	4.87
259.573	4.87
259.948	4.93
260.322	4.87
260.697	4.91
261.072	4.89
261.446	4.9
261.821	4.84
262.195	4.76
262.57	4.75
262.944	4.7
263.319	4.67
263.693	4.69
264.067	4.76
264.442	4.77
264.816	4.79
265.19	4.76
265.564	4.8
265.938	4.78
266.313	4.74
266.687	4.71
267.061	4.68
267.435	4.68
267.809	4.63
268.183	4.63
268.556	4.64
268.93	4.63
269.304	4.65
269.678	4.59
270.051	4.63
270.425	4.63
270.799	4.66
271.172	4.66
271.546	4.62
271.919	4.59
272.293	4.55
272.666	4.49
273.04	4.5
273.413	4.39
273.787	4.34
274.16	4.34
274.533	4.36
274.906	4.34
275.279	4.37
275.653	4.38
276.026	4.34
276.399	4.29
276.772	4.34
277.145	4.35
277.518	4.43
277.891	4.48
278.263	4.47
278.636	4.52
279.009	4.57
279.382	4.59
279.755	4.54
280.127	4.56
280.5	4.54
280.872	4.47
281.245	4.57
281.617	4.6
281.99	4.58
282.362	4.57
282.735	4.57
283.107	4.55
283.479	4.61
283.852	4.61
284.224	4.65
284.596	4.6
284.968	4.62
285.34	4.6
285.713	4.61
286.085	4.58
286.457	4.55
286.829	4.49
287.201	4.51
287.572	4.57
287.944	4.61
288.316	4.67
288.688	4.75
289.06	4.73
289.431	4.74
289.803	4.75
290.175	4.77
290.546	4.76
290.918	4.77
291.289	4.74
291.661	4.79
292.032	4.78
292.403	4.84
292.775	4.83
293.146	4.81
293.517	4.84
293.889	4.86
294.26	4.88
294.631	4.95
295.002	4.94
295.373	4.94
295.744	4.93
296.115	4.93
296.486	4.91
296.857	4.91
297.228	4.92
297.599	4.95
297.97	4.95
298.34	4.98
298.711	4.99
299.082	4.95
299.452	4.94
299.823	4.98
300.194	4.97
300.564	4.97
300.935	4.99
301.305	5.01
301.676	5
302.046	4.98
302.416	4.99
302.787	5.04
303.157	5.05
303.527	5.08
303.897	5.06
304.267	5.1
304.637	5.1
305.008	5.11
305.378	5.14
305.748	5.17
306.117	5.18
306.487	5.2
306.857	5.27
307.227	5.29
307.597	5.25
307.967	5.24
308.336	5.24
308.706	5.24
309.076	5.23
309.445	5.25
309.815	5.26
310.184	5.24
310.554	5.24
310.923	5.19
311.293	5.2
311.662	5.21
312.031	5.19
312.401	5.23
312.77	5.24
313.139	5.25
313.508	5.22
313.877	5.21
314.246	5.21
314.616	5.19
314.985	5.18
315.353	5.21
315.722	5.23
316.091	5.22
316.46	5.27
316.829	5.3
317.198	5.32
317.567	5.33
317.935	5.32
318.304	5.31
318.672	5.33
319.041	5.36
319.41	5.36
319.778	5.37
320.147	5.35
320.515	5.34
320.883	5.32
321.252	5.33
321.62	5.33
321.988	5.36
322.357	5.37
322.725	5.35
323.093	5.35
323.461	5.35
323.829	5.36
324.197	5.36
324.565	5.33
324.933	5.3
325.301	5.29
325.669	5.33
326.037	5.32
326.405	5.3
326.772	5.27
327.14	5.25
327.508	5.25
327.875	5.23
328.243	5.25
328.61	5.26
328.978	5.28
329.346	5.27
329.713	5.24
330.08	5.23
330.448	5.26
330.815	5.27
331.182	5.24
331.55	5.24
331.917	5.21
332.284	5.22
332.651	5.23
333.018	5.27
333.385	5.26
333.752	5.29
334.119	5.32
334.486	5.32
334.853	5.32
335.22	5.3
335.587	5.3
335.954	5.27
336.32	5.27
336.687	5.27
337.054	5.26
337.42	5.26
337.787	5.25
338.153	5.26
338.52	5.25
338.886	5.27
339.253	5.27
339.619	5.27
339.986	5.25
340.352	5.26
340.718	5.29
341.084	5.29
341.451	5.27
341.817	5.26
342.183	5.28
342.549	5.29
342.915	5.28
343.281	5.32
343.647	5.34
344.013	5.34
344.379	5.33
344.745	5.33
345.11	5.32
345.476	5.35
345.842	5.35
346.208	5.36
346.573	5.34
346.939	5.34
347.304	5.36
347.67	5.35
348.035	5.34
348.401	5.29
348.766	5.28
349.132	5.31
349.497	5.3
349.862	5.27
350.228	5.27
350.593	5.3
350.958	5.26
351.323	5.26
351.688	5.27
352.053	5.27
352.418	5.26
352.783	5.28
353.148	5.26
353.513	5.26
353.878	5.26
354.243	5.27
354.608	5.27
354.972	5.26
355.337	5.26
355.702	5.25
356.066	5.26
356.431	5.25
356.795	5.23
357.16	5.24
357.524	5.23
357.889	5.24
358.253	5.23
358.618	5.24
358.982	5.25
359.346	5.23
359.71	5.21
360.075	5.21
360.439	5.2
360.803	5.19
361.167	5.17
361.531	5.18
361.895	5.17
362.259	5.16
362.623	5.16
362.987	5.18
363.351	5.18
363.714	5.19
364.078	5.18
364.442	5.18
364.806	5.17
365.169	5.18
365.533	5.17
365.896	5.16
366.26	5.17
366.623	5.18
366.987	5.2
367.35	5.19
367.714	5.21
368.077	5.23
368.44	5.24
368.803	5.23
369.167	5.23
369.53	5.24
369.893	5.26
370.256	5.27
370.619	5.26
370.982	5.27
371.345	5.25
371.708	5.28
372.071	5.28
372.434	5.3
372.797	5.28
373.159	5.29
373.522	5.29
373.885	5.3
374.247	5.28
374.61	5.29
374.973	5.32
375.335	5.3
375.698	5.29
376.06	5.3
376.423	5.31
376.785	5.3
377.147	5.28
377.51	5.29
377.872	5.28
378.234	5.27
378.596	5.28
378.958	5.28
379.321	5.26
379.683	5.27
380.045	5.25
380.407	5.27
380.769	5.28
381.13	5.28
381.492	5.27
381.854	5.28
382.216	5.29
382.578	5.28
382.939	5.29
383.301	5.28
383.663	5.28
384.024	5.29
384.386	5.31
384.747	5.32
385.109	5.32
385.47	5.34
385.832	5.35
386.193	5.35
386.554	5.35
386.916	5.37
387.277	5.36
387.638	5.38
387.999	5.39
388.36	5.38
388.721	5.38
389.082	5.39
389.443	5.39
389.804	5.38
390.165	5.38
390.526	5.37
390.887	5.37
391.248	5.36
391.609	5.37
391.969	5.36
392.33	5.37
392.691	5.36
393.051	5.36
393.412	5.36
393.772	5.35
394.133	5.35
394.493	5.35
394.854	5.36
395.214	5.34
395.574	5.33
395.935	5.33
396.295	5.32
396.655	5.31
397.015	5.32
397.376	5.31
397.736	5.32
398.096	5.32
398.456	5.33
398.816	5.33
399.176	5.33
399.535	5.34
399.895	5.34
400.255	5.34
400.615	5.34
400.975	5.35
401.334	5.35
401.694	5.35
402.054	5.35
402.413	5.36
402.773	5.37
403.132	5.38
403.492	5.38
403.851	5.38
404.211	5.39
404.57	5.39
404.929	5.39
405.288	5.38
405.648	5.39
406.007	5.38
406.366	5.39
406.725	5.39
407.084	5.39
407.443	5.39
407.802	5.37
408.161	5.38
408.52	5.36
408.879	5.36
409.238	5.37
409.596	5.37
409.955	5.36
410.314	5.36
410.673	5.34
411.031	5.34
411.39	5.35
411.748	5.37
412.107	5.37
412.465	5.37
412.824	5.38
413.182	5.39
413.54	5.39
413.899	5.38
414.257	5.39
414.615	5.39
414.974	5.41
415.332	5.43
415.69	5.43
416.048	5.45
416.406	5.46
416.764	5.48
417.122	5.49
417.48	5.5
417.838	5.52
418.195	5.54
418.553	5.55
418.911	5.56
419.269	5.57
419.626	5.58
419.984	5.59
420.342	5.59
420.699	5.61
421.057	5.62
421.414	5.63
421.772	5.64
422.129	5.65
422.486	5.66
422.844	5.66
423.201	5.66
423.558	5.66
423.915	5.66
424.273	5.66
424.63	5.66
424.987	5.65
425.344	5.65
425.701	5.65
426.058	5.64
426.415	5.64
426.772	5.62
427.128	5.62
427.485	5.61
427.842	5.61
428.199	5.59
428.555	5.59
428.912	5.58
429.269	5.57
429.625	5.56
429.982	5.56
430.338	5.56
430.695	5.56
431.051	5.55
431.407	5.55
431.764	5.55
432.12	5.55
432.476	5.55
432.832	5.55
433.189	5.55
433.545	5.55
433.901	5.55
434.257	5.55
434.613	5.55
434.969	5.56
435.325	5.56
435.681	5.58
436.036	5.58
436.392	5.59
436.748	5.59
437.104	5.6
437.459	5.6
437.815	5.61
438.171	5.61
438.526	5.61
438.882	5.62
439.237	5.63
439.593	5.64
439.948	5.65
440.304	5.66
440.659	5.66
441.014	5.67
441.369	5.68
441.725	5.69
442.08	5.7
442.435	5.7
442.79	5.71
443.145	5.71
443.5	5.71
443.855	5.72
444.21	5.72
444.565	5.71
444.92	5.71
445.275	5.71
445.629	5.71
445.984	5.71
446.339	5.71
446.693	5.71
447.048	5.71
447.403	5.7
447.757	5.7
448.112	5.7
448.466	5.69
448.82	5.68
449.175	5.68
449.529	5.67
449.883	5.66
450.238	5.65
450.592	5.64
450.946	5.63
451.3	5.63
451.654	5.62
452.008	5.62
452.362	5.62
452.716	5.62
453.07	5.62
453.424	5.61
453.778	5.61
454.132	5.6
454.486	5.6
454.839	5.61
455.193	5.61
455.547	5.62
455.9	5.62
456.254	5.63
456.607	5.65
456.961	5.66
457.314	5.67
457.668	5.68
458.021	5.69
458.375	5.7
458.728	5.7
459.081	5.7
459.434	5.7
459.787	5.7
460.141	5.7
460.494	5.69
460.847	5.69
461.2	5.7
461.553	5.7
461.906	5.69
462.259	5.69
462.611	5.69
462.964	5.68
463.317	5.68
463.67	5.68
464.022	5.66
464.375	5.66
464.728	5.66
465.08	5.65
465.433	5.64
465.785	5.64
466.138	5.63
466.49	5.63
466.843	5.63
467.195	5.63
467.547	5.64
467.899	5.64
468.252	5.65
468.604	5.65
468.956	5.65
469.308	5.66
469.66	5.65
470.012	5.66
470.364	5.66
470.716	5.66
471.068	5.66
471.42	5.66
471.772	5.66
472.123	5.66
472.475	5.67
472.827	5.68
473.178	5.68
473.53	5.68
473.882	5.68
474.233	5.69
474.585	5.7
474.936	5.7
475.288	5.7
475.639	5.7
475.99	5.7
476.342	5.7
476.693	5.71
477.044	5.71
477.395	5.72
477.746	5.73
478.097	5.74
478.448	5.78
478.8	5.89
479.15	6.04
479.501	6.23
479.852	6.45
480.203	6.68
480.554	6.91
480.905	7.16
481.255	7.4
481.606	7.63
481.957	7.87
482.307	8.09
482.658	8.28
483.009	8.45
483.359	8.61
483.709	8.74
484.06	8.87
484.41	8.98
484.761	9.09
485.111	9.2
485.461	9.3
485.811	9.4
486.162	9.43
486.512	9.42
486.862	9.37
487.212	9.29
487.562	9.17
487.912	9.04
488.262	8.9
488.612	8.74
488.961	8.57
489.311	8.38
489.661	8.19
490.011	8.01
490.36	7.81
490.71	7.61
491.06	7.4
491.409	7.19
491.759	7.03
492.108	6.88
492.458	6.76
492.807	6.65
493.157	6.53
493.506	6.42
493.855	6.32
494.204	6.23
494.554	6.13
494.903	6.05
495.252	5.97
495.601	5.89
495.95	5.82
496.299	5.76
496.648	5.71
496.997	5.66
497.346	5.64
497.695	5.63
498.043	5.66
498.392	5.72
498.741	5.78
499.09	5.81
499.438	5.83
499.787	5.84
500.135	5.84
500.484	5.85
500.832	5.86
501.181	5.86
501.529	5.86
501.878	5.87
502.226	5.86
502.574	5.86
502.923	5.87
503.271	5.86
503.619	5.86
503.967	5.86
504.315	5.87
504.663	5.86
505.011	5.87
505.359	5.89
505.707	5.89
506.055	5.9
506.403	5.92
506.751	5.93
507.098	5.93
507.446	5.93
507.794	5.93
508.141	5.94
508.489	5.94
508.837	5.95
509.184	5.96
509.531	5.96
509.879	5.96
510.226	5.97
510.574	5.98
510.921	5.98
511.268	5.99
511.616	5.99
511.963	6
512.31	6
512.657	6
513.004	6.01
513.351	6.01
513.698	6.02
514.045	6.02
514.392	6.03
514.739	6.05
515.086	6.06
515.432	6.07
515.779	6.08
516.126	6.09
516.473	6.09
516.819	6.1
517.166	6.1
517.512	6.12
517.859	6.12
518.205	6.12
518.552	6.12
518.898	6.12
519.245	6.13
519.591	6.13
519.937	6.13
520.283	6.13
520.629	6.14
520.976	6.13
521.322	6.14
521.668	6.14
522.014	6.14
522.36	6.15
522.706	6.16
523.052	6.19
523.398	6.25
523.743	6.34
524.089	6.47
524.435	6.6
524.781	6.74
525.126	6.89
525.472	7.04
525.817	7.19
526.163	7.33
526.509	7.45
526.854	7.56
527.199	7.63
527.545	7.68
527.89	7.71
528.235	7.75
528.581	7.78
528.926	7.8
529.271	7.83
529.616	7.84
529.961	7.86
530.306	7.87
530.651	7.84
530.996	7.79
531.341	7.72
531.686	7.61
532.031	7.49
532.376	7.35
532.721	7.19
533.065	7.02
533.41	6.88
533.755	6.74
534.099	6.63
534.444	6.55
534.788	6.49
535.133	6.44
535.477	6.4
535.822	6.36
536.166	6.33
536.51	6.3
536.855	6.28
537.199	6.26
537.543	6.25
537.887	6.26
538.231	6.28
538.576	6.29
538.92	6.32
539.264	6.35
539.608	6.4
539.951	6.45
540.295	6.48
540.639	6.5
540.983	6.51
541.327	6.5
541.671	6.49
542.014	6.5
542.358	6.5
542.701	6.5
543.045	6.51
543.389	6.51
543.732	6.5
544.075	6.5
544.419	6.5
544.762	6.48
545.105	6.46
545.449	6.42
545.792	6.39
546.135	6.35
546.478	6.31
546.821	6.28
547.165	6.26
547.508	6.25
547.851	6.25
548.194	6.27
548.536	6.29
548.879	6.3
549.222	6.29
549.565	6.27
549.908	6.26
550.25	6.25
550.593	6.25
550.936	6.25
551.278	6.24
551.621	6.24
551.963	6.24
552.306	6.23
552.648	6.23
552.991	6.21
553.333	6.2
553.675	6.2
554.017	6.21
554.36	6.22
554.702	6.21
555.044	6.21
555.386	6.21
555.728	6.21
556.07	6.21
556.412	6.2
556.754	6.21
557.096	6.21
557.438	6.21
557.78	6.21
558.121	6.21
558.463	6.2
558.805	6.2
559.147	6.19
559.488	6.2
559.83	6.2
560.171	6.22
560.513	6.22
560.854	6.22
561.196	6.22
561.537	6.22
561.878	6.24
562.22	6.25
562.561	6.26
562.902	6.27
563.243	6.29
563.584	6.3
563.925	6.31
564.266	6.31
564.607	6.32
564.948	6.31
565.289	6.32
565.63	6.33
565.971	6.33
566.312	6.35
566.653	6.35
566.993	6.35
567.334	6.35
567.675	6.36
568.015	6.37
568.356	6.37
568.696	6.38
569.037	6.38
569.377	6.38
569.718	6.39
570.058	6.39
570.398	6.39
570.739	6.39
571.079	6.39
571.419	6.4
571.759	6.41
572.099	6.42
572.439	6.43
572.779	6.44
573.119	6.44
573.459	6.44
573.799	6.46
574.139	6.46
574.479	6.46
574.819	6.46
575.158	6.45
575.498	6.45
575.838	6.44
576.177	6.44
576.517	6.43
576.856	6.43
577.196	6.43
577.535	6.42
577.875	6.42
578.214	6.42
578.553	6.41
578.893	6.39
579.232	6.39
579.571	6.37
579.91	6.37
580.25	6.36
580.589	6.34
580.928	6.33
581.267	6.33
581.606	6.33
581.945	6.33
582.283	6.34
582.622	6.34
582.961	6.34
583.3	6.35
583.639	6.35
583.977	6.35
584.316	6.35
584.654	6.36
584.993	6.37
585.332	6.37
585.67	6.37
586.008	6.38
586.347	6.4
586.685	6.41
587.024	6.41
587.362	6.42
587.7	6.44
588.038	6.44
588.376	6.43
588.715	6.44
589.053	6.45
589.391	6.46
589.729	6.46
590.067	6.47
590.404	6.48
590.742	6.5
591.08	6.5
591.418	6.5
591.756	6.5
592.093	6.52
592.431	6.52
592.769	6.53
593.106	6.53
593.444	6.52
593.781	6.52
594.119	6.53
594.456	6.54
594.793	6.54
595.131	6.56
595.468	6.57
595.805	6.57
596.143	6.57
596.48	6.56
596.817	6.57
597.154	6.56
597.491	6.55
597.828	6.55
598.165	6.55
598.502	6.56
598.839	6.56
599.176	6.55
599.512	6.57
599.849	6.56
600.186	6.56
600.523	6.56
600.859	6.57
601.196	6.58
601.532	6.59
601.869	6.6
602.205	6.6
602.542	6.6
602.878	6.61
603.215	6.62
603.551	6.62
603.887	6.63
604.223	6.64
604.56	6.65
604.896	6.66
605.232	6.67
605.568	6.67
605.904	6.67
606.24	6.68
606.576	6.69
606.912	6.69
607.248	6.7
607.583	6.71
607.919	6.71
608.255	6.7
608.591	6.69
608.926	6.69
609.262	6.69
609.597	6.69
609.933	6.69
610.268	6.69
610.604	6.7
610.939	6.7
611.275	6.69
611.61	6.7
611.945	6.7
612.281	6.69
612.616	6.69
612.951	6.7
613.286	6.7
613.621	6.68
613.956	6.68
614.291	6.69
614.626	6.68
614.961	6.7
615.296	6.7
615.631	6.69
615.966	6.68
616.3	6.69
616.635	6.7
616.97	6.69
617.304	6.7
617.639	6.7
617.973	6.7
618.308	6.71
618.642	6.7
618.977	6.68
619.311	6.68
619.646	6.69
619.98	6.69
620.314	6.69
620.648	6.71
620.983	6.71
621.317	6.69
621.651	6.7
621.985	6.68
622.319	6.69
622.653	6.7
622.987	6.72
623.321	6.71
623.655	6.73
623.988	6.74
624.322	6.73
624.656	6.74
624.99	6.76
625.323	6.76
625.657	6.77
625.99	6.79
626.324	6.81
626.657	6.82
626.991	6.82
627.324	6.81
627.658	6.81
627.991	6.82
628.324	6.82
628.657	6.83
628.991	6.85
629.324	6.85
629.657	6.87
629.99	6.86
630.323	6.87
630.656	6.86
630.989	6.86
631.322	6.87
631.655	6.88
631.987	6.86
632.32	6.86
632.653	6.86
632.986	6.87
633.318	6.87
633.651	6.86
633.984	6.86
634.316	6.87
634.649	6.87
634.981	6.87
635.313	6.89
635.646	6.9
635.978	6.9
636.31	6.89
636.643	6.89
636.975	6.91
637.307	6.9
637.639	6.91
637.971	6.92
638.303	6.92
638.635	6.91
638.967	6.9
639.299	6.9
639.631	6.92
639.963	6.94
640.295	6.93
640.626	6.95
640.958	6.96
641.29	6.95
641.621	6.95
641.953	6.98
642.285	6.99
642.616	7
642.948	7
643.279	7.02
643.61	7.01
643.942	6.99
644.273	7
644.604	6.99
644.936	6.99
645.267	7.01
645.598	7.02
645.929	7.03
646.26	7.04
646.591	7.05
646.922	7.03
647.253	7.06
647.584	7.06
647.915	7.05
648.245	7.08
648.576	7.08
648.907	7.07
649.238	7.06
649.568	7.06
649.899	7.06
650.229	7.05
650.56	7.08
650.89	7.12
651.221	7.14
651.551	7.14
651.882	7.14
652.212	7.12
652.542	7.11
652.872	7.13
653.203	7.16
653.533	7.17
653.863	7.15
654.193	7.14
654.523	7.14
654.853	7.15
655.183	7.14
655.513	7.14
655.843	7.13
656.172	7.14
656.502	7.15
656.832	7.16
657.162	7.17
657.491	7.17
657.821	7.15
658.15	7.12
658.48	7.14
658.809	7.13
659.139	7.17
659.468	7.21
659.798	7.21
660.127	7.2
660.456	7.2
660.785	7.23
661.115	7.26
661.444	7.25
661.773	7.27
662.102	7.28
662.431	7.29
662.76	7.31
663.089	7.32
663.418	7.33
663.747	7.32
664.076	7.33
664.404	7.32
664.733	7.33
665.062	7.37
665.39	7.38
665.719	7.4
666.048	7.39
666.376	7.38
666.705	7.39
667.033	7.39
667.362	7.39
667.69	7.4
668.018	7.39
668.347	7.41
668.675	7.41
669.003	7.42
669.331	7.41
669.659	7.39
669.987	7.4
670.315	7.38
670.643	7.39
670.971	7.41
671.299	7.4
671.627	7.42
671.955	7.41
672.283	7.4
672.61	7.41
672.938	7.41
673.266	7.41
673.593	7.4
673.921	7.41
674.249	7.4
674.576	7.41
674.904	7.42
675.231	7.41
675.558	7.45
675.886	7.46
676.213	7.48
676.54	7.51
676.867	7.52
677.195	7.57
677.522	7.6
677.849	7.61
678.176	7.65
678.503	7.65
678.83	7.66
