Data from UWBM59333_Reflection_00011.txt Node
Date: Sun May 02 13:48:52 EDT 2021
User: vgr7
Spectrometer: USB2G7710
Scans to average: 10
Trigger mode: 4
Integration Time (sec): 1.000000E-1
Electric dark correction enabled: true
Boxcar width: 20
XAxis mode: Wavelengths
Number of Pixels in Spectrum: 2048
>>>>>Begin Spectral Data<<<<<
177.721	141.67
178.105	128.29
178.488	84.79
178.871	78.65
179.254	69.99
179.636	46.31
180.019	36.58
180.402	28.16
180.785	30.91
181.168	29.33
181.55	22.15
181.933	28.35
182.316	23.35
182.698	21.56
183.081	14.57
183.463	13.4
183.846	7.76
184.228	12.37
184.611	9.56
184.993	9.28
185.376	9.15
185.758	14.45
186.14	17.34
186.522	17.45
186.904	16.6
187.287	15.73
187.669	13.06
188.051	11.34
188.433	9.75
188.815	7.53
189.197	9.41
189.579	9.05
189.961	10.12
190.342	10.92
190.724	14.74
191.106	15.35
191.488	16.01
191.869	14.91
192.251	13.53
192.633	13.56
193.014	13
193.396	8.56
193.777	10.74
194.159	12.29
194.54	11.96
194.922	10.62
195.303	11.47
195.684	12.11
196.065	12
196.447	12.17
196.828	11.99
197.209	13.51
197.59	10.59
197.971	10.9
198.352	11.76
198.733	13.72
199.114	12.91
199.495	15.27
199.876	14.45
200.257	15.66
200.638	14.47
201.018	15.8
201.399	15.42
201.78	13.76
202.16	12.81
202.541	12.34
202.922	11.65
203.302	11.91
203.683	15.43
204.063	16.71
204.444	17
204.824	16.23
205.204	15.97
205.585	16.26
205.965	16.74
206.345	14.38
206.725	14.16
207.106	13.23
207.486	13.25
207.866	13.23
208.246	11.53
208.626	10.36
209.006	10.35
209.386	8.85
209.766	7.52
210.145	7.9
210.525	9.52
210.905	9.73
211.285	8.01
211.664	9.06
212.044	7.67
212.424	6.24
212.803	4.28
213.183	5.75
213.562	7.23
213.942	7.97
214.321	8.12
214.701	9.05
215.08	9.08
215.459	8.86
215.838	8.33
216.218	8.87
216.597	8.27
216.976	8.33
217.355	8.61
217.734	8.87
218.113	9.29
218.492	8.23
218.871	7.71
219.25	6.38
219.629	5.63
220.008	5.44
220.387	4.29
220.766	4.8
221.144	4.67
221.523	4.17
221.902	4.59
222.28	4.76
222.659	4.64
223.037	4.7
223.416	5.45
223.794	5.94
224.173	6.64
224.551	6.7
224.929	7.64
225.308	7.37
225.686	7.09
226.064	6.44
226.442	6.68
226.821	7.46
227.199	7.65
227.577	7.57
227.955	7.88
228.333	8.67
228.711	7.86
229.089	7.19
229.467	7.1
229.845	6.92
230.222	6.37
230.6	6.29
230.978	6.08
231.356	6.34
231.733	6.3
232.111	6.12
232.488	5.74
232.866	5.49
233.243	5.07
233.621	4.91
233.998	5
234.376	4.94
234.753	4.77
235.13	4.63
235.508	4.72
235.885	4.99
236.262	4.93
236.639	4.81
237.016	4.7
237.393	4.61
237.77	4.6
238.147	4.62
238.524	4.57
238.901	4.42
239.278	4.38
239.655	4.31
240.032	4.29
240.409	4.26
240.785	4.29
241.162	4.25
241.539	4.22
241.915	4.21
242.292	4.16
242.668	4.14
243.045	4.15
243.421	4.15
243.798	4.1
244.174	4.14
244.551	4.13
244.927	4.1
245.303	4.07
245.679	4.09
246.056	4.04
246.432	4.03
246.808	3.98
247.184	4
247.56	3.98
247.936	3.99
248.312	4
248.688	4
249.064	4.01
249.44	4.01
249.815	3.98
250.191	3.96
250.567	3.99
250.943	3.94
251.318	3.88
251.694	3.89
252.069	3.88
252.445	3.89
252.82	3.87
253.196	3.82
253.571	3.8
253.947	3.8
254.322	3.78
254.697	3.78
255.073	3.76
255.448	3.76
255.823	3.72
256.198	3.7
256.573	3.7
256.948	3.71
257.323	3.7
257.698	3.67
258.073	3.65
258.448	3.62
258.823	3.59
259.198	3.58
259.573	3.57
259.948	3.58
260.322	3.57
260.697	3.57
261.072	3.57
261.446	3.57
261.821	3.57
262.195	3.56
262.57	3.54
262.944	3.52
263.319	3.52
263.693	3.51
264.067	3.5
264.442	3.5
264.816	3.49
265.19	3.5
265.564	3.5
265.938	3.47
266.313	3.49
266.687	3.49
267.061	3.48
267.435	3.47
267.809	3.46
268.183	3.45
268.556	3.45
268.93	3.47
269.304	3.47
269.678	3.47
270.051	3.45
270.425	3.45
270.799	3.43
271.172	3.44
271.546	3.44
271.919	3.44
272.293	3.43
272.666	3.43
273.04	3.45
273.413	3.49
273.787	3.5
274.16	3.51
274.533	3.51
274.906	3.52
275.279	3.5
275.653	3.51
276.026	3.51
276.399	3.52
276.772	3.53
277.145	3.52
277.518	3.53
277.891	3.54
278.263	3.54
278.636	3.54
279.009	3.54
279.382	3.56
279.755	3.56
280.127	3.56
280.5	3.57
280.872	3.58
281.245	3.59
281.617	3.59
281.99	3.58
282.362	3.57
282.735	3.57
283.107	3.57
283.479	3.59
283.852	3.6
284.224	3.6
284.596	3.59
284.968	3.6
285.34	3.61
285.713	3.62
286.085	3.62
286.457	3.63
286.829	3.63
287.201	3.64
287.572	3.64
287.944	3.64
288.316	3.64
288.688	3.62
289.06	3.61
289.431	3.61
289.803	3.62
290.175	3.62
290.546	3.65
290.918	3.65
291.289	3.66
291.661	3.66
292.032	3.66
292.403	3.67
292.775	3.68
293.146	3.7
293.517	3.71
293.889	3.72
294.26	3.74
294.631	3.74
295.002	3.77
295.373	3.78
295.744	3.8
296.115	3.81
296.486	3.83
296.857	3.85
297.228	3.87
297.599	3.89
297.97	3.9
298.34	3.92
298.711	3.95
299.082	3.96
299.452	3.98
299.823	4
300.194	4.02
300.564	4.04
300.935	4.06
301.305	4.09
301.676	4.1
302.046	4.13
302.416	4.15
302.787	4.16
303.157	4.2
303.527	4.22
303.897	4.25
304.267	4.29
304.637	4.32
305.008	4.36
305.378	4.38
305.748	4.42
306.117	4.44
306.487	4.49
306.857	4.53
307.227	4.58
307.597	4.61
307.967	4.66
308.336	4.7
308.706	4.73
309.076	4.78
309.445	4.81
309.815	4.84
310.184	4.87
310.554	4.91
310.923	4.93
311.293	4.97
311.662	5
312.031	5.03
312.401	5.08
312.77	5.12
313.139	5.17
313.508	5.21
313.877	5.24
314.246	5.29
314.616	5.32
314.985	5.37
315.353	5.41
315.722	5.44
316.091	5.47
316.46	5.5
316.829	5.55
317.198	5.6
317.567	5.63
317.935	5.68
318.304	5.72
318.672	5.77
319.041	5.83
319.41	5.87
319.778	5.91
320.147	5.95
320.515	6
320.883	6.02
321.252	6.07
321.62	6.11
321.988	6.16
322.357	6.19
322.725	6.22
323.093	6.23
323.461	6.25
323.829	6.3
324.197	6.32
324.565	6.36
324.933	6.4
325.301	6.41
325.669	6.45
326.037	6.48
326.405	6.52
326.772	6.56
327.14	6.58
327.508	6.59
327.875	6.61
328.243	6.62
328.61	6.64
328.978	6.65
329.346	6.66
329.713	6.69
330.08	6.7
330.448	6.72
330.815	6.73
331.182	6.75
331.55	6.79
331.917	6.81
332.284	6.81
332.651	6.84
333.018	6.86
333.385	6.88
333.752	6.9
334.119	6.92
334.486	6.94
334.853	6.97
335.22	6.99
335.587	7.02
335.954	7.05
336.32	7.07
336.687	7.07
337.054	7.09
337.42	7.11
337.787	7.12
338.153	7.14
338.52	7.15
338.886	7.15
339.253	7.17
339.619	7.19
339.986	7.2
340.352	7.23
340.718	7.24
341.084	7.27
341.451	7.27
341.817	7.27
342.183	7.29
342.549	7.3
342.915	7.32
343.281	7.35
343.647	7.36
344.013	7.36
344.379	7.37
344.745	7.38
345.11	7.41
345.476	7.42
345.842	7.44
346.208	7.44
346.573	7.44
346.939	7.44
347.304	7.46
347.67	7.46
348.035	7.47
348.401	7.48
348.766	7.49
349.132	7.5
349.497	7.51
349.862	7.5
350.228	7.5
350.593	7.5
350.958	7.5
351.323	7.5
351.688	7.51
352.053	7.51
352.418	7.51
352.783	7.51
353.148	7.51
353.513	7.52
353.878	7.52
354.243	7.51
354.608	7.5
354.972	7.5
355.337	7.49
355.702	7.48
356.066	7.47
356.431	7.46
356.795	7.45
357.16	7.43
357.524	7.43
357.889	7.42
358.253	7.41
358.618	7.39
358.982	7.38
359.346	7.38
359.71	7.37
360.075	7.36
360.439	7.34
360.803	7.32
361.167	7.31
361.531	7.29
361.895	7.28
362.259	7.26
362.623	7.24
362.987	7.22
363.351	7.2
363.714	7.18
364.078	7.15
364.442	7.13
364.806	7.11
365.169	7.09
365.533	7.06
365.896	7.04
366.26	7.02
366.623	6.99
366.987	6.96
367.35	6.93
367.714	6.9
368.077	6.87
368.44	6.83
368.803	6.8
369.167	6.77
369.53	6.72
369.893	6.68
370.256	6.64
370.619	6.6
370.982	6.57
371.345	6.53
371.708	6.49
372.071	6.45
372.434	6.42
372.797	6.37
373.159	6.33
373.522	6.29
373.885	6.26
374.247	6.22
374.61	6.17
374.973	6.12
375.335	6.09
375.698	6.05
376.06	6
376.423	5.97
376.785	5.93
377.147	5.89
377.51	5.85
377.872	5.81
378.234	5.77
378.596	5.73
378.958	5.69
379.321	5.66
379.683	5.62
380.045	5.58
380.407	5.55
380.769	5.51
381.13	5.47
381.492	5.44
381.854	5.4
382.216	5.37
382.578	5.34
382.939	5.31
383.301	5.28
383.663	5.25
384.024	5.21
384.386	5.19
384.747	5.16
385.109	5.13
385.47	5.1
385.832	5.06
386.193	5.03
386.554	5
386.916	4.96
387.277	4.94
387.638	4.91
387.999	4.89
388.36	4.86
388.721	4.84
389.082	4.81
389.443	4.79
389.804	4.77
390.165	4.75
390.526	4.73
390.887	4.71
391.248	4.68
391.609	4.67
391.969	4.64
392.33	4.62
392.691	4.6
393.051	4.58
393.412	4.56
393.772	4.54
394.133	4.51
394.493	4.49
394.854	4.47
395.214	4.44
395.574	4.42
395.935	4.39
396.295	4.37
396.655	4.35
397.015	4.33
397.376	4.31
397.736	4.29
398.096	4.27
398.456	4.25
398.816	4.24
399.176	4.21
399.535	4.19
399.895	4.18
400.255	4.16
400.615	4.15
400.975	4.13
401.334	4.11
401.694	4.09
402.054	4.08
402.413	4.06
402.773	4.04
403.132	4.03
403.492	4.02
403.851	4
404.211	3.99
404.57	3.98
404.929	3.96
405.288	3.96
405.648	3.94
406.007	3.94
406.366	3.92
406.725	3.91
407.084	3.91
407.443	3.9
407.802	3.89
408.161	3.89
408.52	3.88
408.879	3.87
409.238	3.87
409.596	3.86
409.955	3.86
410.314	3.86
410.673	3.86
411.031	3.86
411.39	3.86
411.748	3.85
412.107	3.85
412.465	3.85
412.824	3.86
413.182	3.88
413.54	3.89
413.899	3.91
414.257	3.94
414.615	3.96
414.974	3.99
415.332	4.02
415.69	4.05
416.048	4.07
416.406	4.1
416.764	4.12
417.122	4.15
417.48	4.17
417.838	4.19
418.195	4.21
418.553	4.23
418.911	4.23
419.269	4.24
419.626	4.23
419.984	4.22
420.342	4.21
420.699	4.19
421.057	4.17
421.414	4.14
421.772	4.13
422.129	4.11
422.486	4.11
422.844	4.1
423.201	4.1
423.558	4.09
423.915	4.09
424.273	4.08
424.63	4.08
424.987	4.07
425.344	4.06
425.701	4.06
426.058	4.05
426.415	4.05
426.772	4.04
427.128	4.03
427.485	4.02
427.842	4.01
428.199	3.99
428.555	3.97
428.912	3.94
429.269	3.92
429.625	3.89
429.982	3.86
430.338	3.83
430.695	3.81
431.051	3.77
431.407	3.75
431.764	3.73
432.12	3.71
432.476	3.7
432.832	3.69
433.189	3.69
433.545	3.7
433.901	3.71
434.257	3.73
434.613	3.75
434.969	3.77
435.325	3.79
435.681	3.83
436.036	3.85
436.392	3.87
436.748	3.88
437.104	3.89
437.459	3.91
437.815	3.93
438.171	3.95
438.526	3.97
438.882	3.99
439.237	4.03
439.593	4.06
439.948	4.09
440.304	4.12
440.659	4.15
441.014	4.16
441.369	4.19
441.725	4.2
442.08	4.22
442.435	4.23
442.79	4.23
443.145	4.24
443.5	4.24
443.855	4.24
444.21	4.24
444.565	4.23
444.92	4.23
445.275	4.22
445.629	4.21
445.984	4.2
446.339	4.19
446.693	4.17
447.048	4.16
447.403	4.14
447.757	4.11
448.112	4.09
448.466	4.07
448.82	4.05
449.175	4.02
449.529	4
449.883	3.99
450.238	3.96
450.592	3.95
450.946	3.94
451.3	3.94
451.654	3.94
452.008	3.94
452.362	3.94
452.716	3.94
453.07	3.94
453.424	3.94
453.778	3.93
454.132	3.92
454.486	3.91
454.839	3.89
455.193	3.87
455.547	3.86
455.9	3.84
456.254	3.82
456.607	3.8
456.961	3.77
457.314	3.76
457.668	3.75
458.021	3.74
458.375	3.74
458.728	3.74
459.081	3.74
459.434	3.75
459.787	3.76
460.141	3.77
460.494	3.77
460.847	3.78
461.2	3.79
461.553	3.8
461.906	3.8
462.259	3.81
462.611	3.81
462.964	3.82
463.317	3.83
463.67	3.84
464.022	3.85
464.375	3.85
464.728	3.86
465.08	3.87
465.433	3.87
465.785	3.88
466.138	3.87
466.49	3.86
466.843	3.85
467.195	3.83
467.547	3.82
467.899	3.8
468.252	3.78
468.604	3.76
468.956	3.75
469.308	3.73
469.66	3.74
470.012	3.73
470.364	3.74
470.716	3.75
471.068	3.76
471.42	3.78
471.772	3.8
472.123	3.82
472.475	3.83
472.827	3.84
473.178	3.85
473.53	3.87
473.882	3.88
474.233	3.9
474.585	3.94
474.936	3.99
475.288	4.08
475.639	4.18
475.99	4.3
476.342	4.43
476.693	4.58
477.044	4.73
477.395	4.89
477.746	5.04
478.097	5.2
478.448	5.36
478.8	5.51
479.15	5.66
479.501	5.79
479.852	5.91
480.203	6.03
480.554	6.13
480.905	6.24
481.255	6.34
481.606	6.43
481.957	6.52
482.307	6.61
482.658	6.69
483.009	6.77
483.359	6.84
483.709	6.92
484.06	6.99
484.41	7.06
484.761	7.12
485.111	7.19
485.461	7.25
485.811	7.31
486.162	7.36
486.512	7.4
486.862	7.44
487.212	7.46
487.562	7.48
487.912	7.49
488.262	7.49
488.612	7.49
488.961	7.47
489.311	7.44
489.661	7.38
490.011	7.3
490.36	7.21
490.71	7.1
491.06	6.98
491.409	6.86
491.759	6.73
492.108	6.6
492.458	6.46
492.807	6.31
493.157	6.17
493.506	6.03
493.855	5.91
494.204	5.79
494.554	5.67
494.903	5.57
495.252	5.47
495.601	5.38
495.95	5.29
496.299	5.21
496.648	5.13
496.997	5.06
497.346	5
497.695	4.94
498.043	4.88
498.392	4.82
498.741	4.78
499.09	4.73
499.438	4.69
499.787	4.66
500.135	4.63
500.484	4.61
500.832	4.6
501.181	4.61
501.529	4.62
501.878	4.66
502.226	4.7
502.574	4.74
502.923	4.8
503.271	4.85
503.619	4.91
503.967	4.97
504.315	5.03
504.663	5.09
505.011	5.16
505.359	5.22
505.707	5.29
506.055	5.36
506.403	5.44
506.751	5.53
507.098	5.61
507.446	5.7
507.794	5.79
508.141	5.89
508.489	6
508.837	6.11
509.184	6.23
509.531	6.35
509.879	6.47
510.226	6.61
510.574	6.76
510.921	6.91
511.268	7.07
511.616	7.23
511.963	7.4
512.31	7.58
512.657	7.75
513.004	7.92
513.351	8.09
513.698	8.25
514.045	8.41
514.392	8.55
514.739	8.69
515.086	8.83
515.432	8.97
515.779	9.11
516.126	9.26
516.473	9.41
516.819	9.58
517.166	9.76
517.512	9.96
517.859	10.17
518.205	10.4
518.552	10.65
518.898	10.92
519.245	11.22
519.591	11.59
519.937	12.01
520.283	12.5
520.629	13.03
520.976	13.59
521.322	14.16
521.668	14.76
522.014	15.36
522.36	15.97
522.706	16.56
523.052	17.15
523.398	17.7
523.743	18.21
524.089	18.68
524.435	19.12
524.781	19.56
525.126	19.98
525.472	20.41
525.817	20.82
526.163	21.23
526.509	21.62
526.854	22.01
527.199	22.4
527.545	22.79
527.89	23.2
528.235	23.6
528.581	23.99
528.926	24.35
529.271	24.7
529.616	25.03
529.961	25.35
530.306	25.66
530.651	25.95
530.996	26.21
531.341	26.46
531.686	26.69
532.031	26.91
532.376	27.14
532.721	27.4
533.065	27.68
533.41	27.98
533.755	28.24
534.099	28.48
534.444	28.69
534.788	28.88
535.133	29.05
535.477	29.2
535.822	29.33
536.166	29.42
536.51	29.47
536.855	29.47
537.199	29.44
537.543	29.41
537.887	29.41
538.231	29.43
538.576	29.46
538.92	29.47
539.264	29.48
539.608	29.46
539.951	29.43
540.295	29.39
540.639	29.35
540.983	29.29
541.327	29.2
541.671	29.11
542.014	29.03
542.358	28.97
542.701	28.97
543.045	29.03
543.389	29.11
543.732	29.22
544.075	29.33
544.419	29.47
544.762	29.6
545.105	29.76
545.449	29.92
545.792	30.09
546.135	30.26
546.478	30.4
546.821	30.5
547.165	30.54
547.508	30.54
547.851	30.5
548.194	30.42
548.536	30.3
548.879	30.16
549.222	30
549.565	29.83
549.908	29.67
550.25	29.52
550.593	29.43
550.936	29.39
551.278	29.4
551.621	29.46
551.963	29.52
552.306	29.6
552.648	29.71
552.991	29.85
553.333	30.01
553.675	30.2
554.017	30.41
554.36	30.65
554.702	30.92
555.044	31.22
555.386	31.56
555.728	31.93
556.07	32.25
556.412	32.6
556.754	32.87
557.096	33.09
557.438	33.32
557.78	33.55
558.121	33.78
558.463	34
558.805	34.23
559.147	34.46
559.488	34.69
559.83	34.93
560.171	35.15
560.513	35.37
560.854	35.59
561.196	35.81
561.537	36.01
561.878	36.21
562.22	36.41
562.561	36.61
562.902	36.81
563.243	37.01
563.584	37.21
563.925	37.41
564.266	37.61
564.607	37.81
564.948	38.01
565.289	38.19
565.63	38.38
565.971	38.57
566.312	38.76
566.653	38.94
566.993	39.13
567.334	39.29
567.675	39.45
568.015	39.62
568.356	39.79
568.696	39.94
569.037	40.1
569.377	40.25
569.718	40.41
570.058	40.56
570.398	40.7
570.739	40.84
571.079	40.97
571.419	41.1
571.759	41.22
572.099	41.35
572.439	41.48
572.779	41.6
573.119	41.72
573.459	41.83
573.799	41.95
574.139	42.06
574.479	42.17
574.819	42.29
575.158	42.4
575.498	42.52
575.838	42.63
576.177	42.74
576.517	42.86
576.856	42.97
577.196	43.07
577.535	43.17
577.875	43.27
578.214	43.38
578.553	43.49
578.893	43.59
579.232	43.7
579.571	43.8
579.91	43.89
580.25	44
580.589	44.11
580.928	44.22
581.267	44.33
581.606	44.45
581.945	44.55
582.283	44.65
582.622	44.76
582.961	44.87
583.3	44.98
583.639	45.09
583.977	45.18
584.316	45.28
584.654	45.39
584.993	45.5
585.332	45.6
585.67	45.71
586.008	45.81
586.347	45.91
586.685	46.01
587.024	46.11
587.362	46.2
587.7	46.3
588.038	46.42
588.376	46.52
588.715	46.63
589.053	46.74
589.391	46.84
589.729	46.94
590.067	47.05
590.404	47.15
590.742	47.25
591.08	47.35
591.418	47.44
591.756	47.54
592.093	47.63
592.431	47.71
592.769	47.79
593.106	47.87
593.444	47.94
593.781	48.02
594.119	48.09
594.456	48.15
594.793	48.22
595.131	48.29
595.468	48.35
595.805	48.44
596.143	48.52
596.48	48.6
596.817	48.69
597.154	48.77
597.491	48.85
597.828	48.94
598.165	49.02
598.502	49.1
598.839	49.17
599.176	49.24
599.512	49.31
599.849	49.37
600.186	49.44
600.523	49.49
600.859	49.55
601.196	49.61
601.532	49.67
601.869	49.72
602.205	49.77
602.542	49.83
602.878	49.88
603.215	49.94
603.551	49.99
603.887	50.05
604.223	50.1
604.56	50.16
604.896	50.21
605.232	50.24
605.568	50.28
605.904	50.33
606.24	50.38
606.576	50.42
606.912	50.46
607.248	50.49
607.583	50.54
607.919	50.58
608.255	50.61
608.591	50.64
608.926	50.68
609.262	50.72
609.597	50.75
609.933	50.79
610.268	50.82
610.604	50.85
610.939	50.86
611.275	50.9
611.61	50.92
611.945	50.95
612.281	50.98
612.616	51.01
612.951	51.03
613.286	51.06
613.621	51.1
613.956	51.14
614.291	51.18
614.626	51.21
614.961	51.25
615.296	51.27
615.631	51.32
615.966	51.34
616.3	51.37
616.635	51.41
616.97	51.44
617.304	51.47
617.639	51.51
617.973	51.53
618.308	51.55
618.642	51.58
618.977	51.64
619.311	51.67
619.646	51.72
619.98	51.75
620.314	51.76
620.648	51.82
620.983	51.86
621.317	51.91
621.651	51.95
621.985	52
622.319	52.04
622.653	52.09
622.987	52.13
623.321	52.15
623.655	52.19
623.988	52.22
624.322	52.24
624.656	52.28
624.99	52.3
625.323	52.34
625.657	52.37
625.99	52.4
626.324	52.42
626.657	52.46
626.991	52.48
627.324	52.49
627.658	52.51
627.991	52.54
628.324	52.57
628.657	52.58
628.991	52.62
629.324	52.65
629.657	52.7
629.99	52.72
630.323	52.74
630.656	52.76
630.989	52.78
631.322	52.79
631.655	52.82
631.987	52.85
632.32	52.87
632.653	52.9
632.986	52.94
633.318	52.96
633.651	52.99
633.984	53.03
634.316	53.03
634.649	53.05
634.981	53.07
635.313	53.08
635.646	53.11
635.978	53.14
636.31	53.14
636.643	53.16
636.975	53.2
637.307	53.2
637.639	53.23
637.971	53.27
638.303	53.3
638.635	53.33
638.967	53.35
639.299	53.38
639.631	53.4
639.963	53.43
640.295	53.46
640.626	53.49
640.958	53.54
641.29	53.57
641.621	53.61
641.953	53.63
642.285	53.68
642.616	53.72
642.948	53.74
643.279	53.75
643.61	53.8
643.942	53.82
644.273	53.86
644.604	53.89
644.936	53.92
645.267	53.94
645.598	53.97
645.929	54.02
646.26	54.04
646.591	54.06
646.922	54.08
647.253	54.09
647.584	54.13
647.915	54.17
648.245	54.19
648.576	54.2
648.907	54.24
649.238	54.25
649.568	54.29
649.899	54.32
650.229	54.36
650.56	54.38
650.89	54.41
651.221	54.44
651.551	54.45
651.882	54.45
652.212	54.47
652.542	54.48
652.872	54.5
653.203	54.52
653.533	54.56
653.863	54.59
654.193	54.61
654.523	54.64
654.853	54.66
655.183	54.66
655.513	54.68
655.843	54.68
656.172	54.68
656.502	54.7
656.832	54.74
657.162	54.75
657.491	54.76
657.821	54.8
658.15	54.83
658.48	54.85
658.809	54.87
659.139	54.89
659.468	54.89
659.798	54.91
660.127	54.93
660.456	54.95
660.785	54.98
661.115	54.99
661.444	55
661.773	55.03
662.102	55.07
662.431	55.09
662.76	55.12
663.089	55.13
663.418	55.16
663.747	55.18
664.076	55.2
664.404	55.22
664.733	55.24
665.062	55.28
665.39	55.32
665.719	55.35
666.048	55.39
666.376	55.41
666.705	55.44
667.033	55.44
667.362	55.46
667.69	55.49
668.018	55.49
668.347	55.53
668.675	55.56
669.003	55.61
669.331	55.63
669.659	55.65
669.987	55.67
670.315	55.66
670.643	55.68
670.971	55.7
671.299	55.71
671.627	55.72
671.955	55.74
