Data from UWBM37214_Reflection_00002.txt Node
Date: Sun May 02 14:03:26 EDT 2021
User: vgr7
Spectrometer: USB2G7710
Scans to average: 10
Trigger mode: 4
Integration Time (sec): 1.000000E-1
Electric dark correction enabled: true
Boxcar width: 20
XAxis mode: Wavelengths
Number of Pixels in Spectrum: 2048
>>>>>Begin Spectral Data<<<<<
177.721	361.84
178.105	438.98
178.488	-7330
178.871	743.75
179.254	232.08
179.636	126.3
180.019	58.22
180.402	36.58
180.785	31.49
181.168	35.89
181.55	33.54
181.933	42.1
182.316	32.48
182.698	26.28
183.081	24.62
183.463	18.34
183.846	19.77
184.228	22.01
184.611	20.16
184.993	18.32
185.376	17.87
185.758	19.15
186.14	20.54
186.522	23.29
186.904	21.08
187.287	19.06
187.669	17.82
188.051	14.52
188.433	13.46
188.815	10.94
189.197	11.25
189.579	12.74
189.961	10.18
190.342	10.56
190.724	10.98
191.106	11.24
191.488	11.94
191.869	9.44
192.251	10.26
192.633	8.56
193.014	8.22
193.396	4.15
193.777	6.76
194.159	6.53
194.54	5.62
194.922	4.35
195.303	4.8
195.684	4.85
196.065	4.77
196.447	5.4
196.828	3.67
197.209	2.72
197.59	-0.7
197.971	0.06
198.352	2.69
198.733	2.57
199.114	3.05
199.495	3.3
199.876	1.78
200.257	2.71
200.638	1.3
201.018	2.46
201.399	3.67
201.78	2.22
202.16	0.34
202.541	0.34
202.922	-0.73
203.302	0.41
203.683	1.77
204.063	0.82
204.444	1.02
204.824	1.36
205.204	-0.71
205.585	1.19
205.965	1.24
206.345	1.95
206.725	2.25
207.106	2.33
207.486	3.23
207.866	4.26
208.246	4.08
208.626	4.32
209.006	5.77
209.386	3.99
209.766	3.12
210.145	3.96
210.525	4.68
210.905	4.83
211.285	3.05
211.664	4.01
212.044	3.08
212.424	3.01
212.803	3.33
213.183	4.05
213.562	4.79
213.942	2.39
214.321	2.12
214.701	2.19
215.08	2.11
215.459	2.65
215.838	2.12
216.218	2.85
216.597	2.02
216.976	2.03
217.355	3.15
217.734	3.28
218.113	3.47
218.492	3.51
218.871	2.21
219.25	2.08
219.629	3.11
220.008	3.69
220.387	2.84
220.766	4.87
221.144	4.08
221.523	4.04
221.902	4.15
222.28	3.29
222.659	3.1
223.037	2.92
223.416	3.07
223.794	3.55
224.173	3.49
224.551	2.74
224.929	3.96
225.308	4.35
225.686	4.29
226.064	3.83
226.442	3.71
226.821	4.63
227.199	4.58
227.577	4.77
227.955	5.36
228.333	5.32
228.711	5.08
229.089	4.78
229.467	4.86
229.845	4.87
230.222	4.77
230.6	4.59
230.978	4.5
231.356	4.63
231.733	4.72
232.111	4.56
232.488	4.39
232.866	4.07
233.243	4.14
233.621	4
233.998	4.16
234.376	4.38
234.753	4.35
235.13	4.41
235.508	4.49
235.885	4.5
236.262	4.34
236.639	4.42
237.016	4.45
237.393	4.43
237.77	4.49
238.147	4.5
238.524	4.52
238.901	4.42
239.278	4.42
239.655	4.41
240.032	4.45
240.409	4.41
240.785	4.42
241.162	4.47
241.539	4.52
241.915	4.59
242.292	4.59
242.668	4.59
243.045	4.59
243.421	4.53
243.798	4.54
244.174	4.59
244.551	4.61
244.927	4.63
245.303	4.67
245.679	4.68
246.056	4.64
246.432	4.64
246.808	4.58
247.184	4.57
247.56	4.57
247.936	4.56
248.312	4.6
248.688	4.58
249.064	4.57
249.44	4.55
249.815	4.52
250.191	4.47
250.567	4.51
250.943	4.48
251.318	4.45
251.694	4.46
252.069	4.45
252.445	4.44
252.82	4.44
253.196	4.42
253.571	4.41
253.947	4.41
254.322	4.38
254.697	4.38
255.073	4.38
255.448	4.39
255.823	4.37
256.198	4.34
256.573	4.32
256.948	4.32
257.323	4.28
257.698	4.23
258.073	4.2
258.448	4.18
258.823	4.16
259.198	4.15
259.573	4.12
259.948	4.1
260.322	4.09
260.697	4.06
261.072	4.06
261.446	4.06
261.821	4.06
262.195	4.06
262.57	4.05
262.944	4.06
263.319	4.08
263.693	4.06
264.067	4.06
264.442	4.06
264.816	4.07
265.19	4.08
265.564	4.09
265.938	4.05
266.313	4.05
266.687	4.05
267.061	4.05
267.435	4.05
267.809	4.04
268.183	4.03
268.556	4.03
268.93	4.03
269.304	4.02
269.678	4.04
270.051	4.04
270.425	4.02
270.799	4
271.172	4
271.546	4.01
271.919	4
272.293	4.01
272.666	4.01
273.04	4.04
273.413	4.07
273.787	4.09
274.16	4.1
274.533	4.11
274.906	4.12
275.279	4.13
275.653	4.13
276.026	4.13
276.399	4.12
276.772	4.13
277.145	4.12
277.518	4.13
277.891	4.14
278.263	4.13
278.636	4.13
279.009	4.13
279.382	4.13
279.755	4.14
280.127	4.14
280.5	4.14
280.872	4.15
281.245	4.17
281.617	4.18
281.99	4.2
282.362	4.18
282.735	4.17
283.107	4.18
283.479	4.18
283.852	4.19
284.224	4.19
284.596	4.18
284.968	4.19
285.34	4.2
285.713	4.2
286.085	4.22
286.457	4.22
286.829	4.21
287.201	4.21
287.572	4.2
287.944	4.21
288.316	4.2
288.688	4.19
289.06	4.18
289.431	4.18
289.803	4.18
290.175	4.18
290.546	4.19
290.918	4.2
291.289	4.2
291.661	4.2
292.032	4.22
292.403	4.24
292.775	4.25
293.146	4.24
293.517	4.25
293.889	4.25
294.26	4.26
294.631	4.29
295.002	4.3
295.373	4.3
295.744	4.3
296.115	4.29
296.486	4.3
296.857	4.3
297.228	4.3
297.599	4.31
297.97	4.32
298.34	4.3
298.711	4.32
299.082	4.32
299.452	4.32
299.823	4.34
300.194	4.35
300.564	4.35
300.935	4.35
301.305	4.36
301.676	4.36
302.046	4.37
302.416	4.38
302.787	4.37
303.157	4.36
303.527	4.37
303.897	4.36
304.267	4.37
304.637	4.37
305.008	4.37
305.378	4.37
305.748	4.38
306.117	4.36
306.487	4.39
306.857	4.4
307.227	4.39
307.597	4.37
307.967	4.36
308.336	4.37
308.706	4.36
309.076	4.37
309.445	4.36
309.815	4.34
310.184	4.33
310.554	4.32
310.923	4.32
311.293	4.32
311.662	4.3
312.031	4.3
312.401	4.3
312.77	4.3
313.139	4.31
313.508	4.33
313.877	4.31
314.246	4.32
314.616	4.31
314.985	4.31
315.353	4.31
315.722	4.29
316.091	4.3
316.46	4.28
316.829	4.28
317.198	4.28
317.567	4.27
317.935	4.29
318.304	4.3
318.672	4.29
319.041	4.3
319.41	4.3
319.778	4.31
320.147	4.31
320.515	4.3
320.883	4.28
321.252	4.27
321.62	4.24
321.988	4.24
322.357	4.24
322.725	4.24
323.093	4.24
323.461	4.24
323.829	4.25
324.197	4.24
324.565	4.23
324.933	4.24
325.301	4.24
325.669	4.25
326.037	4.24
326.405	4.24
326.772	4.25
327.14	4.24
327.508	4.24
327.875	4.23
328.243	4.21
328.61	4.19
328.978	4.19
329.346	4.19
329.713	4.2
330.08	4.18
330.448	4.17
330.815	4.15
331.182	4.14
331.55	4.13
331.917	4.12
332.284	4.12
332.651	4.12
333.018	4.11
333.385	4.1
333.752	4.09
334.119	4.08
334.486	4.07
334.853	4.06
335.22	4.06
335.587	4.05
335.954	4.05
336.32	4.04
336.687	4.05
337.054	4.03
337.42	4.04
337.787	4.05
338.153	4.06
338.52	4.05
338.886	4.03
339.253	4.03
339.619	4.04
339.986	4.04
340.352	4.03
340.718	4.03
341.084	4.03
341.451	4.02
341.817	4.03
342.183	4.04
342.549	4.03
342.915	4.03
343.281	4.04
343.647	4.04
344.013	4.05
344.379	4.04
344.745	4.03
345.11	4.03
345.476	4.04
345.842	4.04
346.208	4.04
346.573	4.04
346.939	4.05
347.304	4.06
347.67	4.06
348.035	4.06
348.401	4.07
348.766	4.08
349.132	4.08
349.497	4.08
349.862	4.09
350.228	4.1
350.593	4.1
350.958	4.11
351.323	4.11
351.688	4.12
352.053	4.14
352.418	4.13
352.783	4.11
353.148	4.1
353.513	4.12
353.878	4.12
354.243	4.11
354.608	4.11
354.972	4.12
355.337	4.12
355.702	4.12
356.066	4.12
356.431	4.12
356.795	4.12
357.16	4.11
357.524	4.12
357.889	4.12
358.253	4.12
358.618	4.11
358.982	4.11
359.346	4.12
359.71	4.12
360.075	4.12
360.439	4.13
360.803	4.14
361.167	4.14
361.531	4.15
361.895	4.14
362.259	4.13
362.623	4.13
362.987	4.14
363.351	4.13
363.714	4.13
364.078	4.13
364.442	4.13
364.806	4.13
365.169	4.12
365.533	4.12
365.896	4.11
366.26	4.12
366.623	4.12
366.987	4.11
367.35	4.11
367.714	4.11
368.077	4.12
368.44	4.11
368.803	4.11
369.167	4.11
369.53	4.11
369.893	4.1
370.256	4.1
370.619	4.1
370.982	4.1
371.345	4.1
371.708	4.1
372.071	4.11
372.434	4.11
372.797	4.11
373.159	4.11
373.522	4.11
373.885	4.12
374.247	4.11
374.61	4.11
374.973	4.1
375.335	4.1
375.698	4.09
376.06	4.09
376.423	4.09
376.785	4.09
377.147	4.09
377.51	4.1
377.872	4.09
378.234	4.09
378.596	4.09
378.958	4.09
379.321	4.09
379.683	4.09
380.045	4.09
380.407	4.09
380.769	4.08
381.13	4.08
381.492	4.08
381.854	4.08
382.216	4.09
382.578	4.08
382.939	4.09
383.301	4.08
383.663	4.09
384.024	4.09
384.386	4.09
384.747	4.09
385.109	4.1
385.47	4.1
385.832	4.1
386.193	4.09
386.554	4.09
386.916	4.09
387.277	4.09
387.638	4.09
387.999	4.09
388.36	4.09
388.721	4.09
389.082	4.09
389.443	4.09
389.804	4.09
390.165	4.09
390.526	4.09
390.887	4.09
391.248	4.09
391.609	4.09
391.969	4.09
392.33	4.09
392.691	4.09
393.051	4.09
393.412	4.1
393.772	4.1
394.133	4.1
394.493	4.09
394.854	4.09
395.214	4.09
395.574	4.1
395.935	4.1
396.295	4.1
396.655	4.1
397.015	4.1
397.376	4.1
397.736	4.1
398.096	4.1
398.456	4.1
398.816	4.11
399.176	4.11
399.535	4.11
399.895	4.11
400.255	4.11
400.615	4.12
400.975	4.12
401.334	4.12
401.694	4.13
402.054	4.13
402.413	4.13
402.773	4.13
403.132	4.13
403.492	4.14
403.851	4.13
404.211	4.14
404.57	4.14
404.929	4.15
405.288	4.15
405.648	4.15
406.007	4.15
406.366	4.15
406.725	4.15
407.084	4.15
407.443	4.16
407.802	4.16
408.161	4.16
408.52	4.16
408.879	4.17
409.238	4.17
409.596	4.18
409.955	4.19
410.314	4.19
410.673	4.19
411.031	4.2
411.39	4.21
411.748	4.22
412.107	4.23
412.465	4.24
412.824	4.27
413.182	4.3
413.54	4.33
413.899	4.36
414.257	4.4
414.615	4.44
414.974	4.48
415.332	4.52
415.69	4.56
416.048	4.6
416.406	4.65
416.764	4.68
417.122	4.72
417.48	4.76
417.838	4.79
418.195	4.82
418.553	4.85
418.911	4.87
419.269	4.88
419.626	4.88
419.984	4.88
420.342	4.87
420.699	4.86
421.057	4.84
421.414	4.82
421.772	4.81
422.129	4.8
422.486	4.8
422.844	4.8
423.201	4.8
423.558	4.8
423.915	4.8
424.273	4.8
424.63	4.8
424.987	4.8
425.344	4.8
425.701	4.8
426.058	4.8
426.415	4.81
426.772	4.8
427.128	4.8
427.485	4.79
427.842	4.78
428.199	4.76
428.555	4.74
428.912	4.72
429.269	4.69
429.625	4.66
429.982	4.63
430.338	4.6
430.695	4.58
431.051	4.54
431.407	4.52
431.764	4.5
432.12	4.48
432.476	4.47
432.832	4.46
433.189	4.46
433.545	4.46
433.901	4.48
434.257	4.5
434.613	4.53
434.969	4.55
435.325	4.58
435.681	4.63
436.036	4.65
436.392	4.67
436.748	4.69
437.104	4.7
437.459	4.73
437.815	4.75
438.171	4.77
438.526	4.8
438.882	4.84
439.237	4.88
439.593	4.92
439.948	4.95
440.304	4.99
440.659	5.02
441.014	5.04
441.369	5.08
441.725	5.1
442.08	5.12
442.435	5.13
442.79	5.14
443.145	5.15
443.5	5.15
443.855	5.16
444.21	5.16
444.565	5.16
444.92	5.15
445.275	5.15
445.629	5.14
445.984	5.13
446.339	5.11
446.693	5.1
447.048	5.08
447.403	5.07
447.757	5.04
448.112	5.02
448.466	4.99
448.82	4.97
449.175	4.95
449.529	4.92
449.883	4.9
450.238	4.88
450.592	4.88
450.946	4.87
451.3	4.86
451.654	4.88
452.008	4.88
452.362	4.89
452.716	4.89
453.07	4.89
453.424	4.88
453.778	4.88
454.132	4.87
454.486	4.86
454.839	4.84
455.193	4.82
455.547	4.81
455.9	4.78
456.254	4.76
456.607	4.73
456.961	4.7
457.314	4.68
457.668	4.67
458.021	4.66
458.375	4.65
458.728	4.65
459.081	4.65
459.434	4.65
459.787	4.66
460.141	4.67
460.494	4.68
460.847	4.69
461.2	4.7
461.553	4.71
461.906	4.71
462.259	4.71
462.611	4.71
462.964	4.72
463.317	4.72
463.67	4.73
464.022	4.74
464.375	4.74
464.728	4.74
465.08	4.74
465.433	4.74
465.785	4.74
466.138	4.72
466.49	4.7
466.843	4.68
467.195	4.65
467.547	4.62
467.899	4.6
468.252	4.56
468.604	4.54
468.956	4.51
469.308	4.49
469.66	4.49
470.012	4.47
470.364	4.48
470.716	4.48
471.068	4.49
471.42	4.51
471.772	4.53
472.123	4.54
472.475	4.55
472.827	4.56
473.178	4.57
473.53	4.58
473.882	4.6
474.233	4.63
474.585	4.67
474.936	4.74
475.288	4.84
475.639	4.96
475.99	5.11
476.342	5.28
476.693	5.46
477.044	5.64
477.395	5.83
477.746	6.03
478.097	6.22
478.448	6.42
478.8	6.61
479.15	6.79
479.501	6.96
479.852	7.11
480.203	7.26
480.554	7.41
480.905	7.54
481.255	7.66
481.606	7.79
481.957	7.91
482.307	8.02
482.658	8.13
483.009	8.23
483.359	8.33
483.709	8.42
484.06	8.51
484.41	8.61
484.761	8.69
485.111	8.78
485.461	8.86
485.811	8.93
486.162	9
486.512	9.06
486.862	9.11
487.212	9.14
487.562	9.16
487.912	9.18
488.262	9.19
488.612	9.18
488.961	9.16
489.311	9.11
489.661	9.04
490.011	8.94
490.36	8.82
490.71	8.68
491.06	8.53
491.409	8.38
491.759	8.21
492.108	8.03
492.458	7.85
492.807	7.67
493.157	7.49
493.506	7.31
493.855	7.14
494.204	6.98
494.554	6.83
494.903	6.68
495.252	6.54
495.601	6.41
495.95	6.28
496.299	6.16
496.648	6.04
496.997	5.93
497.346	5.82
497.695	5.72
498.043	5.62
498.392	5.53
498.741	5.43
499.09	5.34
499.438	5.26
499.787	5.18
500.135	5.1
500.484	5.03
500.832	4.97
501.181	4.92
501.529	4.89
501.878	4.87
502.226	4.86
502.574	4.85
502.923	4.85
503.271	4.84
503.619	4.84
503.967	4.83
504.315	4.82
504.663	4.82
505.011	4.81
505.359	4.8
505.707	4.8
506.055	4.79
506.403	4.8
506.751	4.8
507.098	4.8
507.446	4.8
507.794	4.8
508.141	4.81
508.489	4.82
508.837	4.83
509.184	4.84
509.531	4.85
509.879	4.86
510.226	4.88
510.574	4.9
510.921	4.92
511.268	4.93
511.616	4.96
511.963	4.98
512.31	5
512.657	5.02
513.004	5.04
513.351	5.06
513.698	5.08
514.045	5.09
514.392	5.09
514.739	5.09
515.086	5.09
515.432	5.09
515.779	5.08
516.126	5.08
516.473	5.08
516.819	5.08
517.166	5.08
517.512	5.09
517.859	5.11
518.205	5.13
518.552	5.15
518.898	5.18
519.245	5.23
519.591	5.29
519.937	5.37
520.283	5.47
520.629	5.57
520.976	5.7
521.322	5.82
521.668	5.96
522.014	6.09
522.36	6.23
522.706	6.37
523.052	6.5
523.398	6.62
523.743	6.72
524.089	6.81
524.435	6.89
524.781	6.97
525.126	7.03
525.472	7.1
525.817	7.16
526.163	7.21
526.509	7.26
526.854	7.31
527.199	7.36
527.545	7.41
527.89	7.47
528.235	7.52
528.581	7.57
528.926	7.62
529.271	7.66
529.616	7.7
529.961	7.74
530.306	7.77
530.651	7.8
530.996	7.82
531.341	7.83
531.686	7.84
532.031	7.84
532.376	7.85
532.721	7.85
533.065	7.86
533.41	7.87
533.755	7.86
534.099	7.85
534.444	7.82
534.788	7.78
535.133	7.74
535.477	7.69
535.822	7.63
536.166	7.57
536.51	7.5
536.855	7.42
537.199	7.33
537.543	7.24
537.887	7.16
538.231	7.09
538.576	7.03
538.92	6.96
539.264	6.9
539.608	6.83
539.951	6.76
540.295	6.69
540.639	6.63
540.983	6.55
541.327	6.48
541.671	6.4
542.014	6.33
542.358	6.26
542.701	6.21
543.045	6.17
543.389	6.14
543.732	6.12
544.075	6.09
544.419	6.08
544.762	6.06
545.105	6.05
545.449	6.03
545.792	6.02
546.135	6.01
546.478	5.99
546.821	5.97
547.165	5.93
547.508	5.88
547.851	5.83
548.194	5.77
548.536	5.7
548.879	5.63
549.222	5.55
549.565	5.47
549.908	5.39
550.25	5.31
550.593	5.24
550.936	5.19
551.278	5.15
551.621	5.11
551.963	5.07
552.306	5.04
552.648	5.02
552.991	5
553.333	4.99
553.675	4.98
554.017	4.97
554.36	4.97
554.702	4.97
555.044	4.98
555.386	4.99
555.728	5.01
556.07	5.03
556.412	5.05
556.754	5.05
557.096	5.05
557.438	5.05
557.78	5.05
558.121	5.05
558.463	5.05
558.805	5.05
559.147	5.06
559.488	5.06
559.83	5.06
560.171	5.06
560.513	5.06
560.854	5.07
561.196	5.07
561.537	5.07
561.878	5.07
562.22	5.07
562.561	5.07
562.902	5.07
563.243	5.08
563.584	5.08
563.925	5.08
564.266	5.08
564.607	5.08
564.948	5.08
565.289	5.08
565.63	5.09
565.971	5.09
566.312	5.1
566.653	5.1
566.993	5.1
567.334	5.11
567.675	5.11
568.015	5.11
568.356	5.12
568.696	5.12
569.037	5.12
569.377	5.12
569.718	5.13
570.058	5.13
570.398	5.13
570.739	5.14
571.079	5.14
571.419	5.14
571.759	5.14
572.099	5.14
572.439	5.15
572.779	5.15
573.119	5.14
573.459	5.15
573.799	5.15
574.139	5.15
574.479	5.15
574.819	5.15
575.158	5.15
575.498	5.15
575.838	5.15
576.177	5.15
576.517	5.15
576.856	5.15
577.196	5.14
577.535	5.15
577.875	5.15
578.214	5.15
578.553	5.15
578.893	5.15
579.232	5.15
579.571	5.15
579.91	5.15
580.25	5.15
580.589	5.14
580.928	5.14
581.267	5.14
581.606	5.14
581.945	5.14
582.283	5.14
582.622	5.14
582.961	5.13
583.3	5.13
583.639	5.13
583.977	5.13
584.316	5.13
584.654	5.13
584.993	5.13
585.332	5.13
585.67	5.13
586.008	5.13
586.347	5.13
586.685	5.14
587.024	5.14
587.362	5.14
587.7	5.14
588.038	5.14
588.376	5.15
588.715	5.14
589.053	5.15
589.391	5.15
589.729	5.16
590.067	5.16
590.404	5.16
590.742	5.17
591.08	5.17
591.418	5.17
591.756	5.17
592.093	5.18
592.431	5.18
592.769	5.19
593.106	5.19
593.444	5.2
593.781	5.19
594.119	5.2
594.456	5.2
594.793	5.2
595.131	5.2
595.468	5.2
595.805	5.21
596.143	5.21
596.48	5.21
596.817	5.22
597.154	5.22
597.491	5.23
597.828	5.23
598.165	5.24
598.502	5.24
598.839	5.24
599.176	5.25
599.512	5.25
599.849	5.25
600.186	5.26
600.523	5.26
600.859	5.26
601.196	5.27
601.532	5.27
601.869	5.27
602.205	5.27
602.542	5.28
602.878	5.28
603.215	5.28
603.551	5.28
603.887	5.29
604.223	5.29
604.56	5.29
604.896	5.3
605.232	5.3
605.568	5.3
605.904	5.3
606.24	5.3
606.576	5.3
606.912	5.3
607.248	5.3
607.583	5.3
607.919	5.3
608.255	5.31
608.591	5.31
608.926	5.32
609.262	5.31
609.597	5.31
609.933	5.31
610.268	5.31
610.604	5.31
610.939	5.32
611.275	5.32
611.61	5.31
611.945	5.31
612.281	5.31
612.616	5.31
612.951	5.3
613.286	5.3
613.621	5.31
613.956	5.3
614.291	5.3
614.626	5.3
614.961	5.3
615.296	5.31
615.631	5.31
615.966	5.32
616.3	5.31
616.635	5.31
616.97	5.32
617.304	5.32
617.639	5.32
617.973	5.31
618.308	5.31
618.642	5.31
618.977	5.31
619.311	5.31
619.646	5.31
619.98	5.31
620.314	5.32
620.648	5.32
620.983	5.33
621.317	5.33
621.651	5.34
621.985	5.34
622.319	5.35
622.653	5.35
622.987	5.36
623.321	5.36
623.655	5.37
623.988	5.37
624.322	5.37
624.656	5.38
624.99	5.38
625.323	5.39
625.657	5.39
625.99	5.39
626.324	5.39
626.657	5.39
626.991	5.4
627.324	5.4
627.658	5.4
627.991	5.4
628.324	5.41
628.657	5.41
628.991	5.41
629.324	5.42
629.657	5.41
629.99	5.42
630.323	5.43
630.656	5.43
630.989	5.43
631.322	5.44
631.655	5.45
631.987	5.45
632.32	5.45
632.653	5.45
632.986	5.46
633.318	5.46
633.651	5.47
633.984	5.46
634.316	5.46
634.649	5.46
634.981	5.46
635.313	5.46
635.646	5.46
635.978	5.46
636.31	5.46
636.643	5.46
636.975	5.46
637.307	5.46
637.639	5.46
637.971	5.46
638.303	5.46
638.635	5.47
638.967	5.46
639.299	5.47
639.631	5.47
639.963	5.47
640.295	5.48
640.626	5.49
640.958	5.49
641.29	5.49
641.621	5.49
641.953	5.49
642.285	5.49
642.616	5.5
642.948	5.5
643.279	5.5
643.61	5.51
643.942	5.51
644.273	5.51
644.604	5.52
644.936	5.53
645.267	5.53
645.598	5.53
645.929	5.53
646.26	5.54
646.591	5.54
646.922	5.54
647.253	5.54
647.584	5.55
647.915	5.56
648.245	5.56
648.576	5.56
648.907	5.56
649.238	5.57
649.568	5.58
649.899	5.58
650.229	5.59
650.56	5.59
650.89	5.6
651.221	5.61
651.551	5.61
651.882	5.61
652.212	5.61
652.542	5.61
652.872	5.62
653.203	5.62
653.533	5.63
653.863	5.62
654.193	5.63
654.523	5.63
654.853	5.63
655.183	5.63
655.513	5.63
655.843	5.63
656.172	5.63
656.502	5.63
656.832	5.64
657.162	5.64
657.491	5.64
657.821	5.63
658.15	5.63
658.48	5.63
658.809	5.64
659.139	5.64
659.468	5.64
659.798	5.65
660.127	5.65
660.456	5.65
660.785	5.66
661.115	5.67
661.444	5.68
661.773	5.68
662.102	5.69
662.431	5.69
662.76	5.7
663.089	5.7
663.418	5.7
663.747	5.71
664.076	5.72
664.404	5.72
664.733	5.72
665.062	5.74
665.39	5.74
665.719	5.75
666.048	5.76
666.376	5.76
666.705	5.77
667.033	5.77
667.362	5.78
667.69	5.78
668.018	5.79
668.347	5.8
668.675	5.81
669.003	5.82
669.331	5.83
669.659	5.83
669.987	5.84
670.315	5.84
670.643	5.86
670.971	5.86
671.299	5.87
671.627	5.87
671.955	5.87
672.283	5.87
672.61	5.88
672.938	5.89
673.266	5.9
673.593	5.9
673.921	5.9
674.249	5.91
674.576	5.91
674.904	5.9
675.231	5.91
675.558	5.91
675.886	5.91
676.213	5.91
676.54	5.91
676.867	5.91
677.195	5.91
677.522	5.91
677.849	5.91
678.176	5.91
678.503	5.91
678.83	5.92
679.157	5.92
679.484	5.93
679.81	5.94
680.137	5.95
680.464	5.95
680.791	5.96
681.117	5.97
681.444	5.98
681.771	5.98
682.097	5.98
682.424	5.98
682.75	5.98
683.077	5.98
