Data from UWBM55954_Reflection_00007.txt Node
Date: Sun May 02 13:51:13 EDT 2021
User: vgr7
Spectrometer: USB2G7710
Scans to average: 10
Trigger mode: 4
Integration Time (sec): 1.000000E-1
Electric dark correction enabled: true
Boxcar width: 20
XAxis mode: Wavelengths
Number of Pixels in Spectrum: 2048
>>>>>Begin Spectral Data<<<<<
177.721	125.79
178.105	182.72
178.488	99.86
178.871	110
179.254	92.74
179.636	58.82
180.019	49.59
180.402	49.38
180.785	45.08
181.168	43.13
181.55	41.61
181.933	42.42
182.316	37.76
182.698	36.44
183.081	38.12
183.463	32.94
183.846	34.43
184.228	34.76
184.611	32.22
184.993	27.29
185.376	27.76
185.758	28.33
186.14	32.11
186.522	31.51
186.904	27.1
187.287	24.46
187.669	27.05
188.051	27.22
188.433	25.47
188.815	22.85
189.197	24.73
189.579	24.25
189.961	21.47
190.342	18.17
190.724	19.41
191.106	21.08
191.488	21.32
191.869	20.19
192.251	18.62
192.633	18.76
193.014	18.01
193.396	14.1
193.777	14.57
194.159	15.89
194.54	14.48
194.922	13.5
195.303	14.23
195.684	13.23
196.065	12.53
196.447	13.4
196.828	13.2
197.209	11.91
197.59	9.13
197.971	10.33
198.352	10.32
198.733	11.14
199.114	12.58
199.495	13.59
199.876	12.65
200.257	13.44
200.638	13.81
201.018	14.67
201.399	15.38
201.78	15.77
202.16	15.32
202.541	15.42
202.922	16.41
203.302	15.8
203.683	15.49
204.063	16.91
204.444	16.25
204.824	16.29
205.204	16.55
205.585	17.4
205.965	18.24
206.345	16.53
206.725	16.6
207.106	15.89
207.486	14.93
207.866	15.52
208.246	15.8
208.626	15.33
209.006	16.27
209.386	15.71
209.766	14.6
210.145	14.31
210.525	14.71
210.905	16.43
211.285	15.95
211.664	16.04
212.044	13.85
212.424	13.75
212.803	14.78
213.183	15.48
213.562	15.28
213.942	15.2
214.321	13.27
214.701	12.55
215.08	12
215.459	12.32
215.838	11.57
216.218	11.39
216.597	10.27
216.976	9.98
217.355	9.26
217.734	8.15
218.113	8.88
218.492	7.9
218.871	7.29
219.25	7.09
219.629	6.73
220.008	7.63
220.387	6.22
220.766	6.82
221.144	6.65
221.523	7.11
221.902	7.05
222.28	7.05
222.659	7.89
223.037	7.83
223.416	8.48
223.794	8.45
224.173	8.26
224.551	7.71
224.929	8.18
225.308	8.02
225.686	8.17
226.064	7.83
226.442	7.33
226.821	7.7
227.199	7.81
227.577	8.25
227.955	8.16
228.333	7.97
228.711	7.51
229.089	6.67
229.467	6.72
229.845	7.07
230.222	7
230.6	6.76
230.978	6.89
231.356	7.09
231.733	7.38
232.111	7.08
232.488	7.12
232.866	6.91
233.243	6.89
233.621	6.5
233.998	6.54
234.376	6.51
234.753	6.32
235.13	6.16
235.508	6.23
235.885	6.22
236.262	6.12
236.639	6.08
237.016	5.98
237.393	6.03
237.77	5.95
238.147	5.87
238.524	5.82
238.901	5.66
239.278	5.55
239.655	5.56
240.032	5.51
240.409	5.44
240.785	5.5
241.162	5.46
241.539	5.45
241.915	5.43
242.292	5.39
242.668	5.33
243.045	5.28
243.421	5.24
243.798	5.2
244.174	5.23
244.551	5.28
244.927	5.26
245.303	5.25
245.679	5.26
246.056	5.21
246.432	5.18
246.808	5.14
247.184	5.1
247.56	5.14
247.936	5.11
248.312	5.1
248.688	5.08
249.064	5.12
249.44	5.1
249.815	5.1
250.191	5.08
250.567	5.09
250.943	5.05
251.318	5.03
251.694	5
252.069	4.98
252.445	4.94
252.82	4.9
253.196	4.85
253.571	4.81
253.947	4.78
254.322	4.78
254.697	4.78
255.073	4.77
255.448	4.76
255.823	4.73
256.198	4.69
256.573	4.69
256.948	4.67
257.323	4.63
257.698	4.6
258.073	4.58
258.448	4.58
258.823	4.56
259.198	4.57
259.573	4.56
259.948	4.55
260.322	4.54
260.697	4.5
261.072	4.48
261.446	4.49
261.821	4.46
262.195	4.46
262.57	4.45
262.944	4.43
263.319	4.45
263.693	4.44
264.067	4.43
264.442	4.39
264.816	4.37
265.19	4.35
265.564	4.34
265.938	4.32
266.313	4.32
266.687	4.3
267.061	4.31
267.435	4.32
267.809	4.31
268.183	4.33
268.556	4.34
268.93	4.34
269.304	4.35
269.678	4.34
270.051	4.33
270.425	4.31
270.799	4.31
271.172	4.31
271.546	4.32
271.919	4.3
272.293	4.3
272.666	4.31
273.04	4.33
273.413	4.35
273.787	4.36
274.16	4.36
274.533	4.36
274.906	4.35
275.279	4.35
275.653	4.36
276.026	4.36
276.399	4.36
276.772	4.36
277.145	4.37
277.518	4.36
277.891	4.38
278.263	4.37
278.636	4.37
279.009	4.36
279.382	4.37
279.755	4.4
280.127	4.43
280.5	4.44
280.872	4.46
281.245	4.47
281.617	4.49
281.99	4.51
282.362	4.51
282.735	4.51
283.107	4.53
283.479	4.52
283.852	4.54
284.224	4.56
284.596	4.56
284.968	4.58
285.34	4.59
285.713	4.61
286.085	4.64
286.457	4.65
286.829	4.67
287.201	4.69
287.572	4.7
287.944	4.72
288.316	4.75
288.688	4.76
289.06	4.8
289.431	4.83
289.803	4.87
290.175	4.9
290.546	4.95
290.918	4.99
291.289	5.04
291.661	5.07
292.032	5.1
292.403	5.14
292.775	5.19
293.146	5.23
293.517	5.28
293.889	5.32
294.26	5.39
294.631	5.44
295.002	5.49
295.373	5.54
295.744	5.6
296.115	5.65
296.486	5.72
296.857	5.77
297.228	5.83
297.599	5.89
297.97	5.94
298.34	6
298.711	6.06
299.082	6.12
299.452	6.18
299.823	6.25
300.194	6.31
300.564	6.39
300.935	6.46
301.305	6.51
301.676	6.58
302.046	6.65
302.416	6.73
302.787	6.8
303.157	6.88
303.527	6.96
303.897	7.04
304.267	7.13
304.637	7.21
305.008	7.3
305.378	7.39
305.748	7.47
306.117	7.56
306.487	7.66
306.857	7.78
307.227	7.89
307.597	7.97
307.967	8.07
308.336	8.16
308.706	8.23
309.076	8.3
309.445	8.37
309.815	8.43
310.184	8.51
310.554	8.57
310.923	8.65
311.293	8.72
311.662	8.79
312.031	8.86
312.401	8.94
312.77	9.01
313.139	9.09
313.508	9.16
313.877	9.26
314.246	9.33
314.616	9.4
314.985	9.47
315.353	9.55
315.722	9.6
316.091	9.68
316.46	9.76
316.829	9.86
317.198	9.94
317.567	10.04
317.935	10.12
318.304	10.22
318.672	10.31
319.041	10.41
319.41	10.48
319.778	10.58
320.147	10.66
320.515	10.73
320.883	10.8
321.252	10.86
321.62	10.93
321.988	10.97
322.357	11.04
322.725	11.11
323.093	11.16
323.461	11.21
323.829	11.28
324.197	11.35
324.565	11.41
324.933	11.48
325.301	11.54
325.669	11.59
326.037	11.65
326.405	11.71
326.772	11.75
327.14	11.8
327.508	11.84
327.875	11.9
328.243	11.95
328.61	11.98
328.978	12.01
329.346	12.05
329.713	12.11
330.08	12.14
330.448	12.15
330.815	12.2
331.182	12.23
331.55	12.27
331.917	12.29
332.284	12.32
332.651	12.36
333.018	12.42
333.385	12.45
333.752	12.49
334.119	12.54
334.486	12.58
334.853	12.63
335.22	12.67
335.587	12.73
335.954	12.77
336.32	12.82
336.687	12.85
337.054	12.89
337.42	12.94
337.787	13
338.153	13.03
338.52	13.07
338.886	13.1
339.253	13.15
339.619	13.19
339.986	13.22
340.352	13.26
340.718	13.28
341.084	13.32
341.451	13.34
341.817	13.39
342.183	13.42
342.549	13.45
342.915	13.47
343.281	13.5
343.647	13.53
344.013	13.57
344.379	13.58
344.745	13.62
345.11	13.66
345.476	13.69
345.842	13.72
346.208	13.75
346.573	13.76
346.939	13.78
347.304	13.81
347.67	13.83
348.035	13.83
348.401	13.85
348.766	13.87
349.132	13.87
349.497	13.89
349.862	13.91
350.228	13.91
350.593	13.91
350.958	13.92
351.323	13.92
351.688	13.93
352.053	13.93
352.418	13.93
352.783	13.91
353.148	13.91
353.513	13.91
353.878	13.9
354.243	13.88
354.608	13.88
354.972	13.88
355.337	13.87
355.702	13.86
356.066	13.84
356.431	13.83
356.795	13.81
357.16	13.78
357.524	13.77
357.889	13.76
358.253	13.74
358.618	13.72
358.982	13.69
359.346	13.68
359.71	13.65
360.075	13.62
360.439	13.6
360.803	13.56
361.167	13.54
361.531	13.52
361.895	13.49
362.259	13.45
362.623	13.42
362.987	13.39
363.351	13.36
363.714	13.33
364.078	13.29
364.442	13.25
364.806	13.2
365.169	13.16
365.533	13.12
365.896	13.07
366.26	13.02
366.623	12.97
366.987	12.92
367.35	12.86
367.714	12.81
368.077	12.75
368.44	12.68
368.803	12.62
369.167	12.55
369.53	12.46
369.893	12.38
370.256	12.3
370.619	12.22
370.982	12.15
371.345	12.07
371.708	12
372.071	11.92
372.434	11.84
372.797	11.75
373.159	11.68
373.522	11.61
373.885	11.52
374.247	11.44
374.61	11.35
374.973	11.27
375.335	11.19
375.698	11.1
376.06	11.02
376.423	10.94
376.785	10.86
377.147	10.79
377.51	10.71
377.872	10.63
378.234	10.54
378.596	10.45
378.958	10.38
379.321	10.29
379.683	10.22
380.045	10.14
380.407	10.07
380.769	9.99
381.13	9.92
381.492	9.85
381.854	9.77
382.216	9.7
382.578	9.63
382.939	9.56
383.301	9.5
383.663	9.43
384.024	9.35
384.386	9.29
384.747	9.23
385.109	9.16
385.47	9.09
385.832	9.02
386.193	8.95
386.554	8.88
386.916	8.82
387.277	8.76
387.638	8.7
387.999	8.63
388.36	8.57
388.721	8.52
389.082	8.46
389.443	8.41
389.804	8.35
390.165	8.3
390.526	8.25
390.887	8.2
391.248	8.14
391.609	8.08
391.969	8.02
392.33	7.97
392.691	7.91
393.051	7.86
393.412	7.8
393.772	7.74
394.133	7.68
394.493	7.62
394.854	7.57
395.214	7.51
395.574	7.45
395.935	7.4
396.295	7.34
396.655	7.29
397.015	7.23
397.376	7.18
397.736	7.12
398.096	7.06
398.456	7
398.816	6.95
399.176	6.89
399.535	6.84
399.895	6.78
400.255	6.73
400.615	6.68
400.975	6.63
401.334	6.58
401.694	6.53
402.054	6.48
402.413	6.44
402.773	6.39
403.132	6.35
403.492	6.31
403.851	6.27
404.211	6.23
404.57	6.19
404.929	6.16
405.288	6.13
405.648	6.09
406.007	6.07
406.366	6.03
406.725	6.01
407.084	5.97
407.443	5.95
407.802	5.92
408.161	5.9
408.52	5.87
408.879	5.85
409.238	5.82
409.596	5.8
409.955	5.78
410.314	5.76
410.673	5.73
411.031	5.71
411.39	5.69
411.748	5.67
412.107	5.65
412.465	5.64
412.824	5.64
413.182	5.64
413.54	5.64
413.899	5.65
414.257	5.67
414.615	5.7
414.974	5.71
415.332	5.74
415.69	5.76
416.048	5.77
416.406	5.8
416.764	5.82
417.122	5.83
417.48	5.85
417.838	5.86
418.195	5.87
418.553	5.88
418.911	5.88
419.269	5.87
419.626	5.84
419.984	5.81
420.342	5.77
420.699	5.74
421.057	5.69
421.414	5.65
421.772	5.62
422.129	5.6
422.486	5.58
422.844	5.56
423.201	5.54
423.558	5.52
423.915	5.5
424.273	5.49
424.63	5.47
424.987	5.45
425.344	5.44
425.701	5.42
426.058	5.41
426.415	5.39
426.772	5.37
427.128	5.35
427.485	5.32
427.842	5.29
428.199	5.26
428.555	5.23
428.912	5.19
429.269	5.14
429.625	5.1
429.982	5.06
430.338	5.01
430.695	4.97
431.051	4.92
431.407	4.89
431.764	4.86
432.12	4.83
432.476	4.8
432.832	4.79
433.189	4.78
433.545	4.78
433.901	4.79
434.257	4.81
434.613	4.83
434.969	4.86
435.325	4.88
435.681	4.93
436.036	4.95
436.392	4.97
436.748	4.99
437.104	5
437.459	5.02
437.815	5.03
438.171	5.06
438.526	5.08
438.882	5.11
439.237	5.15
439.593	5.19
439.948	5.22
440.304	5.25
440.659	5.28
441.014	5.3
441.369	5.33
441.725	5.34
442.08	5.36
442.435	5.37
442.79	5.37
443.145	5.37
443.5	5.36
443.855	5.36
444.21	5.35
444.565	5.34
444.92	5.32
445.275	5.31
445.629	5.29
445.984	5.27
446.339	5.24
446.693	5.22
447.048	5.2
447.403	5.17
447.757	5.13
448.112	5.1
448.466	5.06
448.82	5.03
449.175	5
449.529	4.97
449.883	4.94
450.238	4.9
450.592	4.89
450.946	4.87
451.3	4.85
451.654	4.86
452.008	4.85
452.362	4.84
452.716	4.84
453.07	4.83
453.424	4.81
453.778	4.8
454.132	4.78
454.486	4.76
454.839	4.74
455.193	4.71
455.547	4.69
455.9	4.65
456.254	4.63
456.607	4.6
456.961	4.57
457.314	4.54
457.668	4.53
458.021	4.53
458.375	4.52
458.728	4.52
459.081	4.53
459.434	4.54
459.787	4.55
460.141	4.57
460.494	4.58
460.847	4.6
461.2	4.61
461.553	4.62
461.906	4.63
462.259	4.65
462.611	4.66
462.964	4.67
463.317	4.69
463.67	4.7
464.022	4.72
464.375	4.74
464.728	4.75
465.08	4.77
465.433	4.78
465.785	4.79
466.138	4.78
466.49	4.78
466.843	4.77
467.195	4.76
467.547	4.75
467.899	4.74
468.252	4.72
468.604	4.71
468.956	4.7
469.308	4.7
469.66	4.71
470.012	4.71
470.364	4.73
470.716	4.75
471.068	4.78
471.42	4.81
471.772	4.85
472.123	4.87
472.475	4.89
472.827	4.91
473.178	4.93
473.53	4.94
473.882	4.97
474.233	5
474.585	5.04
474.936	5.12
475.288	5.22
475.639	5.35
475.99	5.5
476.342	5.68
476.693	5.86
477.044	6.05
477.395	6.24
477.746	6.44
478.097	6.63
478.448	6.83
478.8	7.02
479.15	7.2
479.501	7.36
479.852	7.51
480.203	7.66
480.554	7.79
480.905	7.91
481.255	8.03
481.606	8.15
481.957	8.25
482.307	8.35
482.658	8.45
483.009	8.55
483.359	8.64
483.709	8.73
484.06	8.81
484.41	8.89
484.761	8.97
485.111	9.05
485.461	9.12
485.811	9.19
486.162	9.26
486.512	9.31
486.862	9.35
487.212	9.38
487.562	9.4
487.912	9.42
488.262	9.42
488.612	9.42
488.961	9.4
489.311	9.36
489.661	9.29
490.011	9.2
490.36	9.08
490.71	8.96
491.06	8.82
491.409	8.67
491.759	8.52
492.108	8.36
492.458	8.19
492.807	8.02
493.157	7.85
493.506	7.69
493.855	7.55
494.204	7.41
494.554	7.28
494.903	7.17
495.252	7.06
495.601	6.97
495.95	6.87
496.299	6.79
496.648	6.72
496.997	6.66
497.346	6.6
497.695	6.55
498.043	6.5
498.392	6.46
498.741	6.42
499.09	6.39
499.438	6.37
499.787	6.36
500.135	6.36
500.484	6.36
500.832	6.38
501.181	6.42
501.529	6.48
501.878	6.55
502.226	6.63
502.574	6.73
502.923	6.82
503.271	6.93
503.619	7.03
503.967	7.15
504.315	7.26
504.663	7.37
505.011	7.48
505.359	7.6
505.707	7.72
506.055	7.85
506.403	7.97
506.751	8.11
507.098	8.25
507.446	8.39
507.794	8.54
508.141	8.69
508.489	8.85
508.837	9.03
509.184	9.2
509.531	9.37
509.879	9.55
510.226	9.74
510.574	9.94
510.921	10.15
511.268	10.36
511.616	10.58
511.963	10.8
512.31	11.03
512.657	11.26
513.004	11.48
513.351	11.69
513.698	11.89
514.045	12.08
514.392	12.26
514.739	12.43
515.086	12.59
515.432	12.75
515.779	12.91
516.126	13.07
516.473	13.25
516.819	13.45
517.166	13.66
517.512	13.88
517.859	14.12
518.205	14.38
518.552	14.66
518.898	14.97
519.245	15.31
519.591	15.73
519.937	16.22
520.283	16.79
520.629	17.41
520.976	18.07
521.322	18.75
521.668	19.45
522.014	20.16
522.36	20.87
522.706	21.56
523.052	22.23
523.398	22.86
523.743	23.45
524.089	23.99
524.435	24.48
524.781	24.97
525.126	25.44
525.472	25.91
525.817	26.37
526.163	26.81
526.509	27.24
526.854	27.68
527.199	28.11
527.545	28.53
527.89	28.98
528.235	29.42
528.581	29.83
528.926	30.23
529.271	30.6
529.616	30.96
529.961	31.31
530.306	31.63
530.651	31.92
530.996	32.19
531.341	32.44
531.686	32.67
532.031	32.88
532.376	33.11
532.721	33.37
533.065	33.66
533.41	33.96
533.755	34.23
534.099	34.45
534.444	34.65
534.788	34.81
535.133	34.95
535.477	35.06
535.822	35.14
536.166	35.19
536.51	35.18
536.855	35.12
537.199	35.03
537.543	34.94
537.887	34.88
538.231	34.86
538.576	34.84
538.92	34.81
539.264	34.77
539.608	34.71
539.951	34.63
540.295	34.54
540.639	34.45
540.983	34.33
541.327	34.19
541.671	34.05
542.014	33.94
542.358	33.84
542.701	33.82
543.045	33.86
543.389	33.93
543.732	34.03
544.075	34.14
544.419	34.26
544.762	34.41
545.105	34.56
545.449	34.73
545.792	34.9
546.135	35.08
546.478	35.22
546.821	35.3
547.165	35.33
547.508	35.31
547.851	35.23
548.194	35.11
548.536	34.95
548.879	34.75
549.222	34.53
549.565	34.31
549.908	34.1
550.25	33.9
550.593	33.78
550.936	33.72
551.278	33.71
551.621	33.74
551.963	33.79
552.306	33.86
552.648	33.97
552.991	34.1
553.333	34.25
553.675	34.44
554.017	34.66
554.36	34.9
554.702	35.17
555.044	35.49
555.386	35.85
555.728	36.25
556.07	36.59
556.412	36.93
556.754	37.2
557.096	37.42
557.438	37.64
557.78	37.88
558.121	38.1
558.463	38.33
558.805	38.55
559.147	38.78
559.488	39.01
559.83	39.24
560.171	39.46
560.513	39.69
560.854	39.9
561.196	40.11
561.537	40.32
561.878	40.53
562.22	40.73
562.561	40.92
562.902	41.12
563.243	41.32
563.584	41.51
563.925	41.7
564.266	41.89
564.607	42.08
564.948	42.26
565.289	42.45
565.63	42.63
565.971	42.8
566.312	42.98
566.653	43.15
566.993	43.32
567.334	43.48
567.675	43.64
568.015	43.8
568.356	43.96
568.696	44.11
569.037	44.25
569.377	44.39
569.718	44.52
570.058	44.64
570.398	44.77
570.739	44.91
571.079	45.02
571.419	45.13
571.759	45.24
572.099	45.35
572.439	45.45
572.779	45.56
573.119	45.65
573.459	45.75
573.799	45.84
574.139	45.94
574.479	46.02
574.819	46.12
575.158	46.21
575.498	46.3
575.838	46.4
576.177	46.48
576.517	46.57
576.856	46.65
577.196	46.73
577.535	46.81
577.875	46.88
578.214	46.96
578.553	47.02
578.893	47.1
579.232	47.16
579.571	47.23
579.91	47.3
580.25	47.38
580.589	47.45
580.928	47.51
581.267	47.58
581.606	47.65
581.945	47.72
582.283	47.79
582.622	47.86
582.961	47.94
583.3	48
583.639	48.07
583.977	48.14
584.316	48.21
584.654	48.27
584.993	48.34
585.332	48.42
585.67	48.49
586.008	48.55
586.347	48.62
586.685	48.69
587.024	48.75
587.362	48.83
587.7	48.89
588.038	48.96
588.376	49.03
588.715	49.12
589.053	49.19
589.391	49.26
589.729	49.34
590.067	49.41
590.404	49.48
590.742	49.55
591.08	49.63
591.418	49.71
591.756	49.78
592.093	49.84
592.431	49.91
592.769	49.97
593.106	50.02
593.444	50.08
593.781	50.12
594.119	50.18
594.456	50.21
594.793	50.27
595.131	50.31
595.468	50.35
595.805	50.41
596.143	50.46
596.48	50.51
596.817	50.56
597.154	50.62
597.491	50.69
597.828	50.75
598.165	50.82
598.502	50.87
598.839	50.93
599.176	50.99
599.512	51.02
599.849	51.08
600.186	51.12
600.523	51.17
600.859	51.21
601.196	51.24
601.532	51.27
601.869	51.31
602.205	51.35
602.542	51.38
602.878	51.42
603.215	51.46
603.551	51.48
603.887	51.5
604.223	51.53
604.56	51.57
604.896	51.6
605.232	51.61
605.568	51.63
605.904	51.66
606.24	51.68
606.576	51.7
606.912	51.71
607.248	51.73
607.583	51.76
607.919	51.76
608.255	51.8
608.591	51.83
608.926	51.86
609.262	51.87
609.597	51.89
609.933	51.9
610.268	51.91
610.604	51.92
610.939	51.93
611.275	51.94
611.61	51.94
611.945	51.94
612.281	51.93
612.616	51.94
612.951	51.93
613.286	51.94
613.621	51.95
613.956	51.96
614.291	51.97
614.626	51.98
614.961	52.01
615.296	52.03
615.631	52.04
615.966	52.05
616.3	52.06
616.635	52.06
616.97	52.07
617.304	52.08
617.639	52.11
617.973	52.12
618.308	52.12
618.642	52.13
618.977	52.15
619.311	52.17
619.646	52.19
619.98	52.22
620.314	52.24
620.648	52.29
620.983	52.32
621.317	52.35
621.651	52.37
621.985	52.38
622.319	52.41
622.653	52.43
622.987	52.45
623.321	52.46
623.655	52.5
623.988	52.51
624.322	52.53
624.656	52.56
624.99	52.57
625.323	52.59
625.657	52.61
625.99	52.62
626.324	52.63
626.657	52.66
626.991	52.68
627.324	52.69
627.658	52.71
627.991	52.73
628.324	52.75
628.657	52.77
628.991	52.79
629.324	52.81
629.657	52.83
629.99	52.84
630.323	52.86
630.656	52.88
630.989	52.89
631.322	52.91
631.655	52.94
631.987	52.96
632.32	52.97
632.653	53
632.986	53.02
633.318	53.04
633.651	53.05
633.984	53.05
634.316	53.06
634.649	53.07
634.981	53.07
635.313	53.09
635.646	53.11
635.978	53.11
636.31	53.13
636.643	53.15
636.975	53.17
637.307	53.17
637.639	53.18
637.971	53.19
638.303	53.2
638.635	53.22
638.967	53.23
639.299	53.24
639.631	53.26
639.963	53.28
640.295	53.29
640.626	53.31
640.958	53.32
641.29	53.34
641.621	53.36
641.953	53.37
642.285	53.37
642.616	53.38
642.948	53.39
643.279	53.41
643.61	53.42
643.942	53.45
644.273	53.46
644.604	53.47
644.936	53.48
645.267	53.48
645.598	53.5
645.929	53.51
646.26	53.5
646.591	53.5
646.922	53.51
647.253	53.5
647.584	53.52
647.915	53.53
648.245	53.55
648.576	53.57
648.907	53.58
649.238	53.59
649.568	53.61
649.899	53.62
650.229	53.64
650.56	53.65
650.89	53.66
651.221	53.67
651.551	53.69
651.882	53.7
652.212	53.7
652.542	53.71
652.872	53.75
653.203	53.78
653.533	53.8
653.863	53.82
654.193	53.83
654.523	53.85
654.853	53.86
655.183	53.87
655.513	53.89
655.843	53.91
656.172	53.92
656.502	53.93
656.832	53.95
657.162	53.96
657.491	53.97
657.821	53.97
658.15	54
658.48	54
658.809	54.01
659.139	54.03
659.468	54.03
659.798	54.05
660.127	54.05
660.456	54.06
660.785	54.07
661.115	54.08
661.444	54.08
661.773	54.08
662.102	54.08
662.431	54.08
662.76	54.09
663.089	54.07
663.418	54.09
663.747	54.09
664.076	54.09
664.404	54.1
664.733	54.11
665.062	54.13
665.39	54.14
665.719	54.15
666.048	54.15
666.376	54.16
