Data from UWBM109429_Reflection_00007.txt Node
Date: Sun May 02 13:54:19 EDT 2021
User: vgr7
Spectrometer: USB2G7710
Scans to average: 10
Trigger mode: 4
Integration Time (sec): 1.000000E-1
Electric dark correction enabled: true
Boxcar width: 20
XAxis mode: Wavelengths
Number of Pixels in Spectrum: 2048
>>>>>Begin Spectral Data<<<<<
177.721	95.08
178.105	92.31
178.488	94.19
178.871	88.48
179.254	82.99
179.636	59.58
180.019	49.28
180.402	50.46
180.785	46.09
181.168	43.89
181.55	36.71
181.933	35.22
182.316	28.57
182.698	28.28
183.081	22.62
183.463	18.62
183.846	14.99
184.228	14.13
184.611	12.32
184.993	13.2
185.376	12.66
185.758	12.26
186.14	14.54
186.522	15.4
186.904	13.11
187.287	12.98
187.669	14.86
188.051	15.05
188.433	15.76
188.815	14.2
189.197	13.37
189.579	13.19
189.961	12.98
190.342	12.25
190.724	13.56
191.106	15.94
191.488	15.55
191.869	13.7
192.251	12.76
192.633	13.41
193.014	12.79
193.396	9.97
193.777	10.4
194.159	10.62
194.54	10.72
194.922	9.19
195.303	8.72
195.684	8.82
196.065	7.94
196.447	8.13
196.828	6.23
197.209	5.21
197.59	3.15
197.971	4.26
198.352	4.93
198.733	7.85
199.114	9.11
199.495	11.41
199.876	11.88
200.257	12.51
200.638	10.63
201.018	11.94
201.399	14.34
201.78	12.74
202.16	13.63
202.541	14.72
202.922	15.12
203.302	14.07
203.683	12.83
204.063	12.61
204.444	12.36
204.824	14.1
205.204	12.82
205.585	13.2
205.965	15.5
206.345	14.97
206.725	12.59
207.106	12.79
207.486	13.95
207.866	15.65
208.246	14.4
208.626	13.04
209.006	13.37
209.386	13.42
209.766	11.78
210.145	10.85
210.525	12.19
210.905	13.71
211.285	12.24
211.664	11.97
212.044	12.32
212.424	13.92
212.803	14.8
213.183	16.25
213.562	17.41
213.942	17.64
214.321	15.47
214.701	15.78
215.08	15.97
215.459	15.83
215.838	15.77
216.218	16.8
216.597	15.51
216.976	14.49
217.355	15.43
217.734	14.48
218.113	13.95
218.492	12.42
218.871	12.42
219.25	14.03
219.629	14.88
220.008	15.81
220.387	12.88
220.766	13.86
221.144	12.42
221.523	11.79
221.902	11.62
222.28	12.2
222.659	11.85
223.037	10.36
223.416	9.91
223.794	10.49
224.173	11.07
224.551	10.59
224.929	11.27
225.308	11.22
225.686	11.53
226.064	10.73
226.442	10.37
226.821	11.1
227.199	11.02
227.577	11.07
227.955	10.7
228.333	10.58
228.711	9.81
229.089	9.1
229.467	8.58
229.845	8.74
230.222	8.61
230.6	8.17
230.978	8.17
231.356	8.32
231.733	8.33
232.111	8.26
232.488	7.91
232.866	7.57
233.243	7.26
233.621	7.27
233.998	7.3
234.376	7.15
234.753	6.75
235.13	6.5
235.508	6.49
235.885	6.51
236.262	6.35
236.639	6.3
237.016	6.12
237.393	5.99
237.77	5.9
238.147	5.72
238.524	5.72
238.901	5.63
239.278	5.56
239.655	5.51
240.032	5.48
240.409	5.35
240.785	5.34
241.162	5.3
241.539	5.26
241.915	5.27
242.292	5.25
242.668	5.25
243.045	5.17
243.421	5.15
243.798	5.15
244.174	5.17
244.551	5.14
244.927	5.13
245.303	5.17
245.679	5.15
246.056	5.13
246.432	5.13
246.808	5.09
247.184	5.08
247.56	5.08
247.936	5.09
248.312	5.07
248.688	5.07
249.064	5.06
249.44	5.06
249.815	5.04
250.191	5
250.567	5.02
250.943	4.97
251.318	4.95
251.694	4.96
252.069	4.92
252.445	4.91
252.82	4.88
253.196	4.83
253.571	4.82
253.947	4.8
254.322	4.77
254.697	4.75
255.073	4.72
255.448	4.71
255.823	4.67
256.198	4.67
256.573	4.65
256.948	4.67
257.323	4.64
257.698	4.59
258.073	4.55
258.448	4.53
258.823	4.51
259.198	4.5
259.573	4.48
259.948	4.47
260.322	4.46
260.697	4.4
261.072	4.38
261.446	4.37
261.821	4.34
262.195	4.33
262.57	4.32
262.944	4.32
263.319	4.32
263.693	4.33
264.067	4.32
264.442	4.29
264.816	4.27
265.19	4.28
265.564	4.28
265.938	4.26
266.313	4.27
266.687	4.27
267.061	4.25
267.435	4.26
267.809	4.24
268.183	4.25
268.556	4.27
268.93	4.29
269.304	4.29
269.678	4.3
270.051	4.29
270.425	4.29
270.799	4.28
271.172	4.3
271.546	4.28
271.919	4.29
272.293	4.26
272.666	4.26
273.04	4.28
273.413	4.32
273.787	4.33
274.16	4.32
274.533	4.32
274.906	4.33
275.279	4.34
275.653	4.34
276.026	4.37
276.399	4.39
276.772	4.4
277.145	4.39
277.518	4.39
277.891	4.39
278.263	4.38
278.636	4.38
279.009	4.37
279.382	4.37
279.755	4.4
280.127	4.41
280.5	4.42
280.872	4.44
281.245	4.42
281.617	4.42
281.99	4.41
282.362	4.43
282.735	4.43
283.107	4.44
283.479	4.41
283.852	4.42
284.224	4.42
284.596	4.43
284.968	4.42
285.34	4.43
285.713	4.44
286.085	4.45
286.457	4.46
286.829	4.47
287.201	4.47
287.572	4.48
287.944	4.49
288.316	4.48
288.688	4.49
289.06	4.5
289.431	4.52
289.803	4.54
290.175	4.54
290.546	4.57
290.918	4.59
291.289	4.6
291.661	4.6
292.032	4.61
292.403	4.62
292.775	4.63
293.146	4.64
293.517	4.66
293.889	4.68
294.26	4.7
294.631	4.73
295.002	4.76
295.373	4.77
295.744	4.79
296.115	4.82
296.486	4.85
296.857	4.88
297.228	4.91
297.599	4.94
297.97	4.97
298.34	5
298.711	5.04
299.082	5.06
299.452	5.08
299.823	5.12
300.194	5.15
300.564	5.18
300.935	5.21
301.305	5.23
301.676	5.27
302.046	5.3
302.416	5.32
302.787	5.36
303.157	5.39
303.527	5.43
303.897	5.47
304.267	5.51
304.637	5.55
305.008	5.6
305.378	5.64
305.748	5.69
306.117	5.73
306.487	5.78
306.857	5.85
307.227	5.91
307.597	5.97
307.967	6.03
308.336	6.09
308.706	6.13
309.076	6.19
309.445	6.23
309.815	6.26
310.184	6.29
310.554	6.32
310.923	6.36
311.293	6.4
311.662	6.44
312.031	6.48
312.401	6.52
312.77	6.55
313.139	6.59
313.508	6.63
313.877	6.68
314.246	6.71
314.616	6.75
314.985	6.79
315.353	6.85
315.722	6.87
316.091	6.93
316.46	6.97
316.829	7.02
317.198	7.08
317.567	7.13
317.935	7.17
318.304	7.24
318.672	7.29
319.041	7.34
319.41	7.38
319.778	7.43
320.147	7.48
320.515	7.52
320.883	7.55
321.252	7.58
321.62	7.63
321.988	7.65
322.357	7.67
322.725	7.71
323.093	7.72
323.461	7.75
323.829	7.8
324.197	7.81
324.565	7.85
324.933	7.89
325.301	7.91
325.669	7.97
326.037	7.99
326.405	8.03
326.772	8.05
327.14	8.08
327.508	8.1
327.875	8.12
328.243	8.15
328.61	8.15
328.978	8.17
329.346	8.19
329.713	8.24
330.08	8.25
330.448	8.25
330.815	8.29
331.182	8.3
331.55	8.32
331.917	8.33
332.284	8.34
332.651	8.36
333.018	8.39
333.385	8.41
333.752	8.43
334.119	8.47
334.486	8.49
334.853	8.51
335.22	8.53
335.587	8.55
335.954	8.57
336.32	8.59
336.687	8.61
337.054	8.63
337.42	8.66
337.787	8.68
338.153	8.71
338.52	8.71
338.886	8.71
339.253	8.75
339.619	8.75
339.986	8.76
340.352	8.78
340.718	8.79
341.084	8.8
341.451	8.81
341.817	8.83
342.183	8.85
342.549	8.85
342.915	8.87
343.281	8.88
343.647	8.91
344.013	8.91
344.379	8.93
344.745	8.93
345.11	8.94
345.476	8.96
345.842	8.97
346.208	8.99
346.573	9
346.939	9.01
347.304	9.03
347.67	9.04
348.035	9.05
348.401	9.05
348.766	9.07
349.132	9.06
349.497	9.06
349.862	9.07
350.228	9.07
350.593	9.07
350.958	9.09
351.323	9.09
351.688	9.1
352.053	9.11
352.418	9.11
352.783	9.1
353.148	9.09
353.513	9.09
353.878	9.09
354.243	9.08
354.608	9.09
354.972	9.09
355.337	9.09
355.702	9.08
356.066	9.07
356.431	9.07
356.795	9.06
357.16	9.04
357.524	9.04
357.889	9.03
358.253	9.02
358.618	9
358.982	8.98
359.346	8.97
359.71	8.96
360.075	8.95
360.439	8.93
360.803	8.92
361.167	8.89
361.531	8.88
361.895	8.86
362.259	8.84
362.623	8.81
362.987	8.78
363.351	8.76
363.714	8.74
364.078	8.72
364.442	8.69
364.806	8.67
365.169	8.65
365.533	8.62
365.896	8.58
366.26	8.56
366.623	8.53
366.987	8.49
367.35	8.45
367.714	8.43
368.077	8.39
368.44	8.35
368.803	8.32
369.167	8.27
369.53	8.23
369.893	8.18
370.256	8.13
370.619	8.09
370.982	8.04
371.345	8
371.708	7.95
372.071	7.92
372.434	7.88
372.797	7.84
373.159	7.8
373.522	7.76
373.885	7.73
374.247	7.69
374.61	7.64
374.973	7.58
375.335	7.54
375.698	7.49
376.06	7.45
376.423	7.4
376.785	7.36
377.147	7.31
377.51	7.27
377.872	7.23
378.234	7.19
378.596	7.14
378.958	7.1
379.321	7.06
379.683	7.02
380.045	6.98
380.407	6.95
380.769	6.9
381.13	6.86
381.492	6.82
381.854	6.78
382.216	6.74
382.578	6.7
382.939	6.67
383.301	6.63
383.663	6.6
384.024	6.56
384.386	6.53
384.747	6.5
385.109	6.47
385.47	6.43
385.832	6.4
386.193	6.36
386.554	6.32
386.916	6.28
387.277	6.25
387.638	6.21
387.999	6.19
388.36	6.16
388.721	6.13
389.082	6.1
389.443	6.08
389.804	6.05
390.165	6.02
390.526	6
390.887	5.97
391.248	5.94
391.609	5.92
391.969	5.89
392.33	5.87
392.691	5.85
393.051	5.82
393.412	5.8
393.772	5.77
394.133	5.74
394.493	5.71
394.854	5.68
395.214	5.65
395.574	5.63
395.935	5.61
396.295	5.58
396.655	5.56
397.015	5.53
397.376	5.51
397.736	5.48
398.096	5.46
398.456	5.44
398.816	5.42
399.176	5.39
399.535	5.36
399.895	5.34
400.255	5.32
400.615	5.3
400.975	5.27
401.334	5.25
401.694	5.23
402.054	5.22
402.413	5.19
402.773	5.17
403.132	5.16
403.492	5.14
403.851	5.13
404.211	5.11
404.57	5.1
404.929	5.08
405.288	5.07
405.648	5.06
406.007	5.05
406.366	5.04
406.725	5.03
407.084	5.02
407.443	5
407.802	4.99
408.161	4.98
408.52	4.97
408.879	4.97
409.238	4.96
409.596	4.95
409.955	4.95
410.314	4.94
410.673	4.93
411.031	4.93
411.39	4.92
411.748	4.92
412.107	4.92
412.465	4.92
412.824	4.94
413.182	4.96
413.54	4.98
413.899	5
414.257	5.03
414.615	5.07
414.974	5.09
415.332	5.13
415.69	5.17
416.048	5.2
416.406	5.24
416.764	5.27
417.122	5.29
417.48	5.32
417.838	5.34
418.195	5.36
418.553	5.38
418.911	5.39
419.269	5.39
419.626	5.38
419.984	5.37
420.342	5.35
420.699	5.32
421.057	5.29
421.414	5.26
421.772	5.24
422.129	5.23
422.486	5.21
422.844	5.21
423.201	5.2
423.558	5.19
423.915	5.19
424.273	5.18
424.63	5.17
424.987	5.17
425.344	5.16
425.701	5.15
426.058	5.14
426.415	5.14
426.772	5.13
427.128	5.12
427.485	5.1
427.842	5.08
428.199	5.05
428.555	5.03
428.912	5
429.269	4.96
429.625	4.92
429.982	4.89
430.338	4.85
430.695	4.81
431.051	4.77
431.407	4.74
431.764	4.72
432.12	4.69
432.476	4.68
432.832	4.67
433.189	4.66
433.545	4.67
433.901	4.68
434.257	4.7
434.613	4.73
434.969	4.76
435.325	4.79
435.681	4.83
436.036	4.86
436.392	4.88
436.748	4.9
437.104	4.91
437.459	4.93
437.815	4.95
438.171	4.97
438.526	5
438.882	5.04
439.237	5.08
439.593	5.12
439.948	5.16
440.304	5.19
440.659	5.22
441.014	5.25
441.369	5.28
441.725	5.3
442.08	5.31
442.435	5.33
442.79	5.34
443.145	5.34
443.5	5.34
443.855	5.34
444.21	5.34
444.565	5.33
444.92	5.32
445.275	5.31
445.629	5.3
445.984	5.29
446.339	5.27
446.693	5.26
447.048	5.24
447.403	5.22
447.757	5.19
448.112	5.16
448.466	5.13
448.82	5.1
449.175	5.07
449.529	5.04
449.883	5.01
450.238	4.98
450.592	4.97
450.946	4.96
451.3	4.95
451.654	4.96
452.008	4.96
452.362	4.96
452.716	4.96
453.07	4.96
453.424	4.95
453.778	4.94
454.132	4.92
454.486	4.91
454.839	4.89
455.193	4.86
455.547	4.85
455.9	4.81
456.254	4.8
456.607	4.77
456.961	4.74
457.314	4.71
457.668	4.7
458.021	4.7
458.375	4.69
458.728	4.69
459.081	4.7
459.434	4.7
459.787	4.72
460.141	4.73
460.494	4.74
460.847	4.75
461.2	4.76
461.553	4.76
461.906	4.77
462.259	4.78
462.611	4.79
462.964	4.8
463.317	4.81
463.67	4.82
464.022	4.84
464.375	4.85
464.728	4.86
465.08	4.87
465.433	4.87
465.785	4.87
466.138	4.87
466.49	4.85
466.843	4.84
467.195	4.81
467.547	4.8
467.899	4.78
468.252	4.75
468.604	4.73
468.956	4.71
469.308	4.7
469.66	4.7
470.012	4.7
470.364	4.71
470.716	4.72
471.068	4.74
471.42	4.76
471.772	4.79
472.123	4.81
472.475	4.82
472.827	4.84
473.178	4.85
473.53	4.86
473.882	4.89
474.233	4.91
474.585	4.95
474.936	5.03
475.288	5.13
475.639	5.26
475.99	5.41
476.342	5.58
476.693	5.76
477.044	5.95
477.395	6.15
477.746	6.34
478.097	6.54
478.448	6.74
478.8	6.93
479.15	7.11
479.501	7.28
479.852	7.43
480.203	7.58
480.554	7.71
480.905	7.85
481.255	7.97
481.606	8.09
481.957	8.2
482.307	8.3
482.658	8.4
483.009	8.49
483.359	8.59
483.709	8.68
484.06	8.76
484.41	8.85
484.761	8.93
485.111	9.01
485.461	9.09
485.811	9.16
486.162	9.22
486.512	9.28
486.862	9.32
487.212	9.35
487.562	9.37
487.912	9.39
488.262	9.39
488.612	9.38
488.961	9.36
489.311	9.31
489.661	9.24
490.011	9.14
490.36	9.02
490.71	8.88
491.06	8.74
491.409	8.58
491.759	8.42
492.108	8.25
492.458	8.07
492.807	7.88
493.157	7.7
493.506	7.53
493.855	7.37
494.204	7.22
494.554	7.08
494.903	6.95
495.252	6.83
495.601	6.71
495.95	6.6
496.299	6.5
496.648	6.41
496.997	6.32
497.346	6.25
497.695	6.17
498.043	6.1
498.392	6.04
498.741	5.98
499.09	5.93
499.438	5.88
499.787	5.84
500.135	5.8
500.484	5.78
500.832	5.77
501.181	5.78
501.529	5.8
501.878	5.84
502.226	5.89
502.574	5.95
502.923	6.01
503.271	6.08
503.619	6.15
503.967	6.23
504.315	6.3
504.663	6.37
505.011	6.45
505.359	6.53
505.707	6.62
506.055	6.71
506.403	6.8
506.751	6.9
507.098	7
507.446	7.11
507.794	7.22
508.141	7.34
508.489	7.47
508.837	7.61
509.184	7.74
509.531	7.88
509.879	8.03
510.226	8.19
510.574	8.36
510.921	8.54
511.268	8.73
511.616	8.92
511.963	9.11
512.31	9.31
512.657	9.51
513.004	9.7
513.351	9.9
513.698	10.07
514.045	10.24
514.392	10.41
514.739	10.56
515.086	10.71
515.432	10.86
515.779	11.01
516.126	11.17
516.473	11.33
516.819	11.52
517.166	11.72
517.512	11.93
517.859	12.17
518.205	12.42
518.552	12.69
518.898	12.99
519.245	13.32
519.591	13.73
519.937	14.2
520.283	14.74
520.629	15.33
520.976	15.95
521.322	16.6
521.668	17.26
522.014	17.94
522.36	18.62
522.706	19.28
523.052	19.93
523.398	20.54
523.743	21.11
524.089	21.62
524.435	22.1
524.781	22.58
525.126	23.04
525.472	23.5
525.817	23.95
526.163	24.39
526.509	24.82
526.854	25.25
527.199	25.68
527.545	26.1
527.89	26.56
528.235	26.99
528.581	27.41
528.926	27.81
529.271	28.19
529.616	28.56
529.961	28.91
530.306	29.24
530.651	29.56
530.996	29.85
531.341	30.11
531.686	30.35
532.031	30.59
532.376	30.85
532.721	31.12
533.065	31.44
533.41	31.76
533.755	32.06
534.099	32.32
534.444	32.55
534.788	32.75
535.133	32.94
535.477	33.11
535.822	33.25
536.166	33.35
536.51	33.4
536.855	33.39
537.199	33.35
537.543	33.31
537.887	33.31
538.231	33.33
538.576	33.37
538.92	33.39
539.264	33.4
539.608	33.39
539.951	33.36
540.295	33.31
540.639	33.27
540.983	33.2
541.327	33.11
541.671	33
542.014	32.93
542.358	32.87
542.701	32.87
543.045	32.95
543.389	33.05
543.732	33.18
544.075	33.32
544.419	33.48
544.762	33.65
545.105	33.83
545.449	34.03
545.792	34.24
546.135	34.44
546.478	34.61
546.821	34.73
547.165	34.79
547.508	34.8
547.851	34.76
548.194	34.68
548.536	34.56
548.879	34.41
549.222	34.23
549.565	34.05
549.908	33.88
550.25	33.72
550.593	33.62
550.936	33.6
551.278	33.63
551.621	33.7
551.963	33.78
552.306	33.89
552.648	34.03
552.991	34.2
553.333	34.39
553.675	34.61
554.017	34.86
554.36	35.14
554.702	35.45
555.044	35.8
555.386	36.19
555.728	36.62
556.07	36.99
556.412	37.37
556.754	37.69
557.096	37.95
557.438	38.2
557.78	38.45
558.121	38.71
558.463	38.97
558.805	39.24
559.147	39.5
559.488	39.74
559.83	40
560.171	40.25
560.513	40.5
560.854	40.74
561.196	40.98
561.537	41.21
561.878	41.43
562.22	41.65
562.561	41.86
562.902	42.08
563.243	42.3
563.584	42.5
563.925	42.71
564.266	42.93
564.607	43.13
564.948	43.33
565.289	43.53
565.63	43.73
565.971	43.93
566.312	44.13
566.653	44.32
566.993	44.5
567.334	44.69
567.675	44.86
568.015	45.04
568.356	45.21
568.696	45.36
569.037	45.52
569.377	45.68
569.718	45.84
570.058	45.97
570.398	46.11
570.739	46.24
571.079	46.38
571.419	46.51
571.759	46.64
572.099	46.76
572.439	46.87
572.779	46.99
573.119	47.1
573.459	47.22
573.799	47.32
574.139	47.42
574.479	47.53
574.819	47.64
575.158	47.75
575.498	47.86
575.838	47.96
576.177	48.07
576.517	48.17
576.856	48.27
577.196	48.37
577.535	48.47
577.875	48.57
578.214	48.66
578.553	48.75
578.893	48.85
579.232	48.94
579.571	49.03
579.91	49.11
580.25	49.2
580.589	49.28
580.928	49.37
581.267	49.46
581.606	49.55
581.945	49.64
582.283	49.73
582.622	49.83
582.961	49.92
583.3	50.01
583.639	50.1
583.977	50.19
584.316	50.29
584.654	50.38
584.993	50.47
585.332	50.55
585.67	50.63
586.008	50.72
586.347	50.81
586.685	50.9
587.024	50.98
587.362	51.07
587.7	51.18
588.038	51.28
588.376	51.37
588.715	51.46
589.053	51.56
589.391	51.65
589.729	51.75
590.067	51.84
590.404	51.94
590.742	52.04
591.08	52.12
591.418	52.22
591.756	52.29
592.093	52.36
592.431	52.43
592.769	52.49
593.106	52.56
593.444	52.62
593.781	52.69
594.119	52.74
594.456	52.81
594.793	52.87
595.131	52.94
595.468	53.01
595.805	53.08
596.143	53.16
596.48	53.22
596.817	53.29
597.154	53.37
597.491	53.46
597.828	53.54
598.165	53.61
598.502	53.68
598.839	53.74
599.176	53.81
599.512	53.88
599.849	53.93
600.186	53.99
600.523	54.04
600.859	54.1
601.196	54.15
601.532	54.2
601.869	54.25
602.205	54.3
602.542	54.34
602.878	54.38
603.215	54.43
603.551	54.47
603.887	54.51
604.223	54.54
604.56	54.58
604.896	54.62
605.232	54.64
605.568	54.69
605.904	54.73
606.24	54.77
606.576	54.81
606.912	54.84
607.248	54.87
607.583	54.91
607.919	54.95
608.255	54.98
608.591	55
608.926	55.02
609.262	55.05
609.597	55.07
609.933	55.09
610.268	55.12
610.604	55.15
610.939	55.16
611.275	55.16
611.61	55.19
611.945	55.21
612.281	55.23
612.616	55.25
612.951	55.27
613.286	55.29
613.621	55.31
613.956	55.32
614.291	55.35
614.626	55.38
614.961	55.39
615.296	55.43
615.631	55.45
615.966	55.47
616.3	55.5
616.635	55.52
616.97	55.54
617.304	55.55
617.639	55.58
617.973	55.61
618.308	55.64
618.642	55.67
618.977	55.7
619.311	55.73
619.646	55.77
619.98	55.81
620.314	55.85
620.648	55.88
620.983	55.92
621.317	55.95
621.651	55.98
621.985	56.01
622.319	56.05
622.653	56.08
622.987	56.12
623.321	56.15
623.655	56.18
623.988	56.21
624.322	56.23
624.656	56.25
624.99	56.29
625.323	56.31
625.657	56.33
625.99	56.35
626.324	56.37
626.657	56.39
626.991	56.4
627.324	56.43
627.658	56.45
627.991	56.48
628.324	56.5
628.657	56.53
628.991	56.54
629.324	56.56
629.657	56.6
629.99	56.62
630.323	56.64
630.656	56.67
630.989	56.68
631.322	56.7
631.655	56.72
631.987	56.74
632.32	56.76
632.653	56.79
632.986	56.8
633.318	56.81
633.651	56.82
633.984	56.84
634.316	56.87
634.649	56.88
634.981	56.9
635.313	56.92
635.646	56.95
635.978	56.97
636.31	57
636.643	57.01
636.975	57.01
637.307	57.02
637.639	57.04
637.971	57.06
638.303	57.07
638.635	57.09
638.967	57.1
639.299	57.13
639.631	57.15
639.963	57.18
640.295	57.2
640.626	57.25
640.958	57.27
641.29	57.3
641.621	57.31
641.953	57.32
642.285	57.34
642.616	57.35
642.948	57.37
643.279	57.37
643.61	57.4
643.942	57.43
644.273	57.45
644.604	57.49
644.936	57.5
645.267	57.53
645.598	57.53
645.929	57.54
646.26	57.56
646.591	57.59
646.922	57.61
647.253	57.64
647.584	57.66
647.915	57.66
648.245	57.68
648.576	57.67
648.907	57.69
649.238	57.69
649.568	57.72
649.899	57.74
650.229	57.75
650.56	57.78
650.89	57.81
651.221	57.82
651.551	57.84
651.882	57.86
652.212	57.89
652.542	57.91
652.872	57.93
653.203	57.95
653.533	57.97
653.863	58
654.193	58.01
654.523	58.03
654.853	58.03
655.183	58.06
655.513	58.07
655.843	58.1
656.172	58.12
656.502	58.13
656.832	58.14
657.162	58.15
657.491	58.15
657.821	58.16
658.15	58.16
658.48	58.18
658.809	58.2
659.139	58.22
659.468	58.23
659.798	58.24
660.127	58.25
660.456	58.27
660.785	58.28
661.115	58.29
661.444	58.3
661.773	58.33
662.102	58.35
662.431	58.36
662.76	58.38
663.089	58.39
663.418	58.4
663.747	58.42
664.076	58.43
664.404	58.45
664.733	58.46
665.062	58.47
665.39	58.49
665.719	58.5
666.048	58.51
666.376	58.51
666.705	58.53
667.033	58.53
667.362	58.54
667.69	58.55
668.018	58.57
668.347	58.58
668.675	58.6
669.003	58.63
669.331	58.63
669.659	58.65
669.987	58.65
670.315	58.66
