Data from UWBM122617_Reflection_00014.txt Node
Date: Sun May 02 12:18:31 EDT 2021
User: vgr7
Spectrometer: USB2G7710
Scans to average: 10
Trigger mode: 4
Integration Time (sec): 1.000000E-1
Electric dark correction enabled: true
Boxcar width: 10
XAxis mode: Wavelengths
Number of Pixels in Spectrum: 2048
>>>>>Begin Spectral Data<<<<<
177.721	-2615
178.105	-500
178.488	-19.86
178.871	12.66
179.254	-9.62
179.636	285.45
180.019	10.27
180.402	95
180.785	20.77
181.168	-19.22
181.55	-26.49
181.933	-54.75
182.316	-60.95
182.698	-130.28
183.081	-68.44
183.463	-59.64
183.846	-17.86
184.228	-35
184.611	-28.01
184.993	-17.13
185.376	-11.7
185.758	-15.17
186.14	-23.35
186.522	-17.51
186.904	-21.5
187.287	-20.15
187.669	-10.66
188.051	-17.1
188.433	-11.92
188.815	-11.85
189.197	-9.6
189.579	-3.24
189.961	-1.67
190.342	-1
190.724	6.88
191.106	4.37
191.488	6.81
191.869	4.07
192.251	6.14
192.633	2.97
193.014	5.98
193.396	6.42
193.777	9.74
194.159	11.93
194.54	7.44
194.922	7.88
195.303	13.84
195.684	11.54
196.065	14.15
196.447	13.18
196.828	14.47
197.209	10.34
197.59	6.52
197.971	6.91
198.352	6.17
198.733	7.69
199.114	8.2
199.495	6.89
199.876	7.74
200.257	6.74
200.638	7.55
201.018	5.57
201.399	2.63
201.78	2.24
202.16	0.59
202.541	-0.15
202.922	-0.69
203.302	-6.2
203.683	-5.95
204.063	-8.93
204.444	-10.56
204.824	-8.66
205.204	-4.46
205.585	-3.67
205.965	-4.98
206.345	-3.06
206.725	-10.37
207.106	-9.64
207.486	-7.79
207.866	-3.09
208.246	-2.74
208.626	1.24
209.006	-0.14
209.386	2.24
209.766	2.44
210.145	0.88
210.525	2.09
210.905	3.95
211.285	3.25
211.664	2.2
212.044	3.76
212.424	10.34
212.803	8.15
213.183	11.28
213.562	8.21
213.942	8.16
214.321	3.84
214.701	3.31
215.08	5.95
215.459	5.01
215.838	2.6
216.218	2.89
216.597	0.51
216.976	-1.42
217.355	-1.62
217.734	-5.44
218.113	-3.97
218.492	-5.02
218.871	-2.94
219.25	-2.26
219.629	-2.08
220.008	-1.31
220.387	-7.62
220.766	-8.32
221.144	-9.87
221.523	-7.9
221.902	-6.25
222.28	-4.72
222.659	-4.18
223.037	-4.14
223.416	-2.53
223.794	-3.08
224.173	-1.38
224.551	-0.64
224.929	-0.92
225.308	-0.17
225.686	2.39
226.064	3.3
226.442	4.32
226.821	2.91
227.199	2.49
227.577	2.75
227.955	3.19
228.333	4.38
228.711	4.91
229.089	4.86
229.467	5.21
229.845	6.35
230.222	6.49
230.6	7.01
230.978	6.96
231.356	6.1
231.733	6.29
232.111	5.8
232.488	5.31
232.866	5.57
233.243	4.78
233.621	4.76
233.998	3.96
234.376	4.15
234.753	4.92
235.13	5.81
235.508	6.6
235.885	6.53
236.262	6.41
236.639	6.58
237.016	6.69
237.393	6.74
237.77	6.37
238.147	6.38
238.524	6.58
238.901	6.72
239.278	6.49
239.655	6.47
240.032	6.32
240.409	6.43
240.785	6.36
241.162	6.62
241.539	6.62
241.915	6.86
242.292	6.88
242.668	6.65
243.045	6.48
243.421	6.3
243.798	6.2
244.174	6.13
244.551	6.03
244.927	5.91
245.303	5.84
245.679	5.83
246.056	5.73
246.432	5.76
246.808	5.65
247.184	5.67
247.56	5.63
247.936	5.61
248.312	5.65
248.688	5.69
249.064	5.6
249.44	5.5
249.815	5.38
250.191	5.29
250.567	5.24
250.943	5.18
251.318	5.16
251.694	5.12
252.069	4.97
252.445	4.99
252.82	4.96
253.196	4.91
253.571	4.81
253.947	4.91
254.322	4.74
254.697	4.84
255.073	4.88
255.448	4.88
255.823	4.84
256.198	4.73
256.573	4.61
256.948	4.61
257.323	4.66
257.698	4.69
258.073	4.65
258.448	4.73
258.823	4.8
259.198	4.78
259.573	4.78
259.948	4.86
260.322	4.83
260.697	4.85
261.072	4.88
261.446	4.83
261.821	4.84
262.195	4.81
262.57	4.74
262.944	4.68
263.319	4.65
263.693	4.7
264.067	4.72
264.442	4.76
264.816	4.74
265.19	4.71
265.564	4.7
265.938	4.67
266.313	4.65
266.687	4.53
267.061	4.52
267.435	4.5
267.809	4.47
268.183	4.51
268.556	4.48
268.93	4.43
269.304	4.44
269.678	4.38
270.051	4.39
270.425	4.37
270.799	4.43
271.172	4.41
271.546	4.4
271.919	4.41
272.293	4.4
272.666	4.4
273.04	4.41
273.413	4.35
273.787	4.35
274.16	4.34
274.533	4.42
274.906	4.41
275.279	4.43
275.653	4.4
276.026	4.31
276.399	4.28
276.772	4.29
277.145	4.34
277.518	4.37
277.891	4.41
278.263	4.44
278.636	4.45
279.009	4.5
279.382	4.46
279.755	4.43
280.127	4.47
280.5	4.47
280.872	4.42
281.245	4.5
281.617	4.52
281.99	4.52
282.362	4.49
282.735	4.47
283.107	4.46
283.479	4.49
283.852	4.51
284.224	4.57
284.596	4.56
284.968	4.57
285.34	4.55
285.713	4.58
286.085	4.57
286.457	4.59
286.829	4.54
287.201	4.56
287.572	4.56
287.944	4.56
288.316	4.59
288.688	4.67
289.06	4.69
289.431	4.69
289.803	4.68
290.175	4.71
290.546	4.74
290.918	4.75
291.289	4.75
291.661	4.78
292.032	4.72
292.403	4.77
292.775	4.75
293.146	4.79
293.517	4.79
293.889	4.83
294.26	4.84
294.631	4.89
295.002	4.92
295.373	5
295.744	5
296.115	5.01
296.486	5.02
296.857	5.02
297.228	5.05
297.599	5.09
297.97	5.11
298.34	5.15
298.711	5.15
299.082	5.17
299.452	5.21
299.823	5.3
300.194	5.33
300.564	5.35
300.935	5.37
301.305	5.42
301.676	5.43
302.046	5.45
302.416	5.49
302.787	5.51
303.157	5.53
303.527	5.62
303.897	5.65
304.267	5.7
304.637	5.8
305.008	5.88
305.378	5.95
305.748	5.99
306.117	6.04
306.487	6.13
306.857	6.21
307.227	6.25
307.597	6.25
307.967	6.28
308.336	6.32
308.706	6.38
309.076	6.4
309.445	6.44
309.815	6.49
310.184	6.53
310.554	6.61
310.923	6.62
311.293	6.65
311.662	6.72
312.031	6.76
312.401	6.76
312.77	6.77
313.139	6.82
313.508	6.87
313.877	6.92
314.246	6.93
314.616	6.98
314.985	6.99
315.353	7.04
315.722	7.14
316.091	7.23
316.46	7.29
316.829	7.4
317.198	7.48
317.567	7.56
317.935	7.62
318.304	7.64
318.672	7.75
319.041	7.8
319.41	7.83
319.778	7.88
320.147	7.99
320.515	8.04
320.883	8.04
321.252	8.05
321.62	8.07
321.988	8.14
322.357	8.21
322.725	8.3
323.093	8.38
323.461	8.4
323.829	8.44
324.197	8.48
324.565	8.47
324.933	8.49
325.301	8.53
325.669	8.58
326.037	8.59
326.405	8.6
326.772	8.62
327.14	8.69
327.508	8.72
327.875	8.72
328.243	8.76
328.61	8.8
328.978	8.89
329.346	8.94
329.713	8.94
330.08	8.96
330.448	8.98
330.815	9
331.182	8.98
331.55	9.01
331.917	9.04
332.284	9.08
332.651	9.12
333.018	9.12
333.385	9.13
333.752	9.18
334.119	9.18
334.486	9.21
334.853	9.19
335.22	9.2
335.587	9.18
335.954	9.22
336.32	9.23
336.687	9.22
337.054	9.23
337.42	9.29
337.787	9.31
338.153	9.36
338.52	9.37
338.886	9.42
339.253	9.45
339.619	9.49
339.986	9.51
340.352	9.51
340.718	9.56
341.084	9.57
341.451	9.6
341.817	9.63
342.183	9.65
342.549	9.69
342.915	9.71
343.281	9.77
343.647	9.77
344.013	9.78
344.379	9.79
344.745	9.8
345.11	9.81
345.476	9.84
345.842	9.85
346.208	9.84
346.573	9.82
346.939	9.85
347.304	9.82
347.67	9.81
348.035	9.82
348.401	9.79
348.766	9.8
349.132	9.79
349.497	9.81
349.862	9.8
350.228	9.77
350.593	9.76
350.958	9.72
351.323	9.71
351.688	9.71
352.053	9.71
352.418	9.71
352.783	9.67
353.148	9.64
353.513	9.6
353.878	9.6
354.243	9.6
354.608	9.58
354.972	9.56
355.337	9.54
355.702	9.51
356.066	9.49
356.431	9.45
356.795	9.42
357.16	9.36
357.524	9.33
357.889	9.31
358.253	9.28
358.618	9.26
358.982	9.24
359.346	9.2
359.71	9.15
360.075	9.12
360.439	9.09
360.803	9.05
361.167	9
361.531	8.98
361.895	8.95
362.259	8.9
362.623	8.88
362.987	8.88
363.351	8.84
363.714	8.82
364.078	8.79
364.442	8.75
364.806	8.73
365.169	8.72
365.533	8.69
365.896	8.65
366.26	8.61
366.623	8.57
366.987	8.53
367.35	8.5
367.714	8.44
368.077	8.39
368.44	8.37
368.803	8.34
369.167	8.27
369.53	8.25
369.893	8.2
370.256	8.14
370.619	8.08
370.982	8.03
371.345	7.95
371.708	7.92
372.071	7.86
372.434	7.82
372.797	7.75
373.159	7.7
373.522	7.65
373.885	7.6
374.247	7.53
374.61	7.46
374.973	7.41
375.335	7.36
375.698	7.3
376.06	7.24
376.423	7.18
376.785	7.15
377.147	7.09
377.51	7.03
377.872	6.97
378.234	6.91
378.596	6.86
378.958	6.83
379.321	6.79
379.683	6.75
380.045	6.67
380.407	6.62
380.769	6.57
381.13	6.52
381.492	6.47
381.854	6.42
382.216	6.4
382.578	6.35
382.939	6.33
383.301	6.29
383.663	6.24
384.024	6.21
384.386	6.18
384.747	6.14
385.109	6.12
385.47	6.09
385.832	6.07
386.193	6.04
386.554	6
386.916	5.98
387.277	5.93
387.638	5.92
387.999	5.88
388.36	5.85
388.721	5.83
389.082	5.8
389.443	5.78
389.804	5.74
390.165	5.71
390.526	5.67
390.887	5.63
391.248	5.61
391.609	5.58
391.969	5.54
392.33	5.51
392.691	5.48
393.051	5.46
393.412	5.42
393.772	5.39
394.133	5.38
394.493	5.33
394.854	5.31
395.214	5.28
395.574	5.25
395.935	5.23
396.295	5.2
396.655	5.17
397.015	5.12
397.376	5.09
397.736	5.08
398.096	5.04
398.456	5.03
398.816	5
399.176	4.97
399.535	4.96
399.895	4.94
400.255	4.9
400.615	4.88
400.975	4.87
401.334	4.85
401.694	4.82
402.054	4.81
402.413	4.8
402.773	4.78
403.132	4.76
403.492	4.74
403.851	4.73
404.211	4.73
404.57	4.72
404.929	4.71
405.288	4.7
405.648	4.7
406.007	4.69
406.366	4.68
406.725	4.67
407.084	4.64
407.443	4.64
407.802	4.63
408.161	4.62
408.52	4.61
408.879	4.6
409.238	4.6
409.596	4.58
409.955	4.57
410.314	4.56
410.673	4.55
411.031	4.54
411.39	4.54
411.748	4.53
412.107	4.52
412.465	4.51
412.824	4.5
413.182	4.49
413.54	4.48
413.899	4.47
414.257	4.46
414.615	4.47
414.974	4.46
415.332	4.45
415.69	4.45
416.048	4.44
416.406	4.44
416.764	4.44
417.122	4.44
417.48	4.44
417.838	4.44
418.195	4.44
418.553	4.44
418.911	4.43
419.269	4.43
419.626	4.42
419.984	4.42
420.342	4.42
420.699	4.41
421.057	4.41
421.414	4.4
421.772	4.4
422.129	4.4
422.486	4.39
422.844	4.39
423.201	4.38
423.558	4.38
423.915	4.37
424.273	4.36
424.63	4.36
424.987	4.34
425.344	4.33
425.701	4.32
426.058	4.31
426.415	4.3
426.772	4.28
427.128	4.28
427.485	4.27
427.842	4.26
428.199	4.25
428.555	4.24
428.912	4.23
429.269	4.23
429.625	4.22
429.982	4.21
430.338	4.2
430.695	4.2
431.051	4.2
431.407	4.2
431.764	4.2
432.12	4.2
432.476	4.2
432.832	4.2
433.189	4.21
433.545	4.21
433.901	4.21
434.257	4.22
434.613	4.22
434.969	4.23
435.325	4.23
435.681	4.23
436.036	4.24
436.392	4.25
436.748	4.25
437.104	4.25
437.459	4.25
437.815	4.26
438.171	4.26
438.526	4.27
438.882	4.27
439.237	4.28
439.593	4.28
439.948	4.28
440.304	4.28
440.659	4.29
441.014	4.29
441.369	4.28
441.725	4.28
442.08	4.29
442.435	4.28
442.79	4.29
443.145	4.29
443.5	4.29
443.855	4.29
444.21	4.28
444.565	4.28
444.92	4.28
445.275	4.28
445.629	4.27
445.984	4.27
446.339	4.26
446.693	4.25
447.048	4.25
447.403	4.24
447.757	4.25
448.112	4.24
448.466	4.23
448.82	4.23
449.175	4.23
449.529	4.22
449.883	4.22
450.238	4.2
450.592	4.2
450.946	4.19
451.3	4.19
451.654	4.18
452.008	4.17
452.362	4.16
452.716	4.16
453.07	4.16
453.424	4.16
453.778	4.15
454.132	4.15
454.486	4.15
454.839	4.15
455.193	4.14
455.547	4.14
455.9	4.15
456.254	4.15
456.607	4.15
456.961	4.16
457.314	4.17
457.668	4.18
458.021	4.18
458.375	4.18
458.728	4.18
459.081	4.19
459.434	4.19
459.787	4.2
460.141	4.2
460.494	4.2
460.847	4.2
461.2	4.21
461.553	4.21
461.906	4.21
462.259	4.21
462.611	4.22
462.964	4.22
463.317	4.21
463.67	4.21
464.022	4.21
464.375	4.21
464.728	4.21
465.08	4.21
465.433	4.2
465.785	4.21
466.138	4.21
466.49	4.21
466.843	4.22
467.195	4.23
467.547	4.24
467.899	4.24
468.252	4.25
468.604	4.26
468.956	4.27
469.308	4.28
469.66	4.28
470.012	4.29
470.364	4.29
470.716	4.3
471.068	4.32
471.42	4.32
471.772	4.32
472.123	4.32
472.475	4.34
472.827	4.34
473.178	4.34
473.53	4.34
473.882	4.36
474.233	4.36
474.585	4.36
474.936	4.37
475.288	4.36
475.639	4.36
475.99	4.36
476.342	4.37
476.693	4.36
477.044	4.36
477.395	4.36
477.746	4.36
478.097	4.36
478.448	4.37
478.8	4.45
479.15	4.57
479.501	4.71
479.852	4.87
480.203	5.04
480.554	5.22
480.905	5.4
481.255	5.57
481.606	5.74
481.957	5.92
482.307	6.08
482.658	6.23
483.009	6.36
483.359	6.47
483.709	6.57
484.06	6.66
484.41	6.75
484.761	6.83
485.111	6.91
485.461	6.99
485.811	7.08
486.162	7.11
486.512	7.09
486.862	7.06
487.212	6.99
487.562	6.91
487.912	6.81
488.262	6.71
488.612	6.59
488.961	6.47
489.311	6.33
489.661	6.19
490.011	6.05
490.36	5.9
490.71	5.75
491.06	5.6
491.409	5.45
491.759	5.34
492.108	5.24
492.458	5.15
492.807	5.07
493.157	4.99
493.506	4.92
493.855	4.85
494.204	4.79
494.554	4.73
494.903	4.68
495.252	4.64
495.601	4.6
495.95	4.56
496.299	4.52
496.648	4.49
496.997	4.48
497.346	4.48
497.695	4.5
498.043	4.55
498.392	4.61
498.741	4.69
499.09	4.74
499.438	4.78
499.787	4.81
500.135	4.84
500.484	4.87
500.832	4.92
501.181	4.96
501.529	4.99
501.878	5.04
502.226	5.08
502.574	5.12
502.923	5.16
503.271	5.21
503.619	5.26
503.967	5.33
504.315	5.39
504.663	5.46
505.011	5.52
505.359	5.59
505.707	5.66
506.055	5.73
506.403	5.81
506.751	5.89
507.098	5.97
507.446	6.05
507.794	6.13
508.141	6.21
508.489	6.3
508.837	6.38
509.184	6.47
509.531	6.56
509.879	6.65
510.226	6.75
510.574	6.84
510.921	6.94
511.268	7.03
511.616	7.13
511.963	7.24
512.31	7.35
512.657	7.47
513.004	7.59
513.351	7.73
513.698	7.88
514.045	8.02
514.392	8.16
514.739	8.32
515.086	8.47
515.432	8.63
515.779	8.78
516.126	8.94
516.473	9.09
516.819	9.23
517.166	9.37
517.512	9.52
517.859	9.66
518.205	9.79
518.552	9.93
518.898	10.07
519.245	10.2
519.591	10.33
519.937	10.47
520.283	10.62
520.629	10.77
520.976	10.93
521.322	11.09
521.668	11.27
522.014	11.45
522.36	11.64
522.706	11.85
523.052	12.11
523.398	12.46
523.743	12.89
524.089	13.39
524.435	13.9
524.781	14.45
525.126	14.99
525.472	15.52
525.817	16.03
526.163	16.52
526.509	16.97
526.854	17.38
527.199	17.73
527.545	18.01
527.89	18.26
528.235	18.5
528.581	18.75
528.926	18.98
529.271	19.22
529.616	19.45
529.961	19.67
530.306	19.88
530.651	20.01
530.996	20.06
531.341	20.07
531.686	20.02
532.031	19.91
532.376	19.74
532.721	19.53
533.065	19.3
533.41	19.12
533.755	18.97
534.099	18.87
534.444	18.86
534.788	18.92
535.133	19.01
535.477	19.11
535.822	19.24
536.166	19.41
536.51	19.6
536.855	19.81
537.199	20.08
537.543	20.36
537.887	20.68
538.231	21.05
538.576	21.4
538.92	21.79
539.264	22.21
539.608	22.63
539.951	23.04
540.295	23.45
540.639	23.76
540.983	24.04
541.327	24.28
541.671	24.45
542.014	24.69
542.358	24.94
542.701	25.19
543.045	25.43
543.389	25.66
543.732	25.88
544.075	26.11
544.419	26.31
544.762	26.5
545.105	26.68
545.449	26.8
545.792	26.93
546.135	27.06
546.478	27.2
546.821	27.39
547.165	27.67
547.508	27.98
547.851	28.33
548.194	28.73
548.536	29.17
548.879	29.61
549.222	29.95
549.565	30.25
549.908	30.54
550.25	30.85
550.593	31.17
550.936	31.47
551.278	31.78
551.621	32.09
551.963	32.4
552.306	32.69
552.648	33.01
552.991	33.27
553.333	33.55
553.675	33.84
554.017	34.14
554.36	34.41
554.702	34.68
555.044	34.95
555.386	35.23
555.728	35.5
556.07	35.78
556.412	36.04
556.754	36.32
557.096	36.6
557.438	36.87
557.78	37.13
558.121	37.43
558.463	37.69
558.805	37.96
559.147	38.24
559.488	38.51
559.83	38.78
560.171	39.06
560.513	39.35
560.854	39.61
561.196	39.86
561.537	40.12
561.878	40.38
562.22	40.64
562.561	40.9
562.902	41.17
563.243	41.44
563.584	41.68
563.925	41.9
564.266	42.14
564.607	42.36
564.948	42.57
565.289	42.77
565.63	42.99
565.971	43.19
566.312	43.39
566.653	43.61
566.993	43.79
567.334	44
567.675	44.19
568.015	44.4
568.356	44.6
568.696	44.81
569.037	45.01
569.377	45.23
569.718	45.42
570.058	45.59
570.398	45.74
570.739	45.92
571.079	46.09
571.419	46.25
571.759	46.41
572.099	46.58
572.439	46.73
572.779	46.88
573.119	47.03
573.459	47.18
573.799	47.28
574.139	47.42
574.479	47.55
574.819	47.65
575.158	47.75
575.498	47.86
575.838	47.98
576.177	48.08
576.517	48.17
576.856	48.25
577.196	48.35
577.535	48.47
577.875	48.58
578.214	48.68
578.553	48.78
578.893	48.89
579.232	48.98
579.571	49.08
579.91	49.18
580.25	49.27
580.589	49.34
580.928	49.46
581.267	49.58
581.606	49.69
581.945	49.81
582.283	49.91
582.622	50.04
582.961	50.15
583.3	50.29
583.639	50.39
583.977	50.51
584.316	50.61
584.654	50.73
584.993	50.84
585.332	50.95
585.67	51.06
586.008	51.19
586.347	51.28
586.685	51.39
587.024	51.5
587.362	51.63
587.7	51.75
588.038	51.86
588.376	51.95
588.715	52.05
589.053	52.16
589.391	52.27
589.729	52.33
590.067	52.41
590.404	52.47
590.742	52.56
591.08	52.65
591.418	52.74
591.756	52.81
592.093	52.92
592.431	53.03
592.769	53.12
593.106	53.19
593.444	53.29
593.781	53.39
594.119	53.5
594.456	53.58
594.793	53.66
595.131	53.73
595.468	53.81
595.805	53.84
596.143	53.9
596.48	53.93
596.817	54.02
597.154	54.06
597.491	54.12
597.828	54.18
598.165	54.24
598.502	54.32
598.839	54.4
599.176	54.46
599.512	54.52
599.849	54.59
600.186	54.67
600.523	54.72
600.859	54.79
601.196	54.84
601.532	54.9
601.869	54.98
602.205	55.03
602.542	55.1
602.878	55.18
603.215	55.24
603.551	55.3
603.887	55.35
604.223	55.44
604.56	55.49
604.896	55.52
605.232	55.6
605.568	55.64
605.904	55.66
606.24	55.7
606.576	55.74
606.912	55.79
607.248	55.83
607.583	55.89
607.919	55.92
608.255	55.94
608.591	55.97
608.926	56
609.262	56.05
609.597	56.07
609.933	56.12
610.268	56.16
610.604	56.19
610.939	56.21
611.275	56.21
611.61	56.27
611.945	56.32
612.281	56.33
612.616	56.36
612.951	56.42
613.286	56.44
613.621	56.46
613.956	56.48
614.291	56.53
614.626	56.52
614.961	56.56
615.296	56.65
615.631	56.7
615.966	56.74
616.3	56.78
616.635	56.79
616.97	56.8
617.304	56.82
617.639	56.87
617.973	56.93
618.308	56.98
618.642	57.01
618.977	57.03
619.311	57.05
619.646	57.09
619.98	57.12
620.314	57.14
620.648	57.19
620.983	57.21
621.317	57.26
621.651	57.34
621.985	57.36
622.319	57.34
622.653	57.37
622.987	57.39
623.321	57.42
623.655	57.49
623.988	57.54
624.322	57.57
624.656	57.62
624.99	57.61
625.323	57.64
625.657	57.71
625.99	57.77
626.324	57.8
626.657	57.82
626.991	57.85
627.324	57.91
627.658	57.96
627.991	58.01
628.324	58.03
628.657	58.05
628.991	58.08
629.324	58.13
629.657	58.17
629.99	58.21
630.323	58.25
630.656	58.26
630.989	58.27
631.322	58.29
631.655	58.29
631.987	58.33
632.32	58.34
632.653	58.31
632.986	58.31
633.318	58.32
633.651	58.36
633.984	58.36
634.316	58.36
634.649	58.39
634.981	58.38
635.313	58.37
635.646	58.4
635.978	58.42
636.31	58.44
636.643	58.43
636.975	58.44
637.307	58.45
637.639	58.48
637.971	58.5
638.303	58.55
638.635	58.55
638.967	58.56
639.299	58.61
639.631	58.65
639.963	58.68
640.295	58.75
640.626	58.73
640.958	58.79
641.29	58.81
641.621	58.8
641.953	58.83
642.285	58.88
642.616	58.92
642.948	58.96
643.279	58.94
643.61	58.95
643.942	58.98
644.273	58.98
644.604	59.02
644.936	59.03
645.267	59.06
645.598	59.11
645.929	59.16
646.26	59.19
646.591	59.21
646.922	59.24
647.253	59.24
647.584	59.28
647.915	59.32
648.245	59.36
648.576	59.39
648.907	59.45
649.238	59.46
649.568	59.45
649.899	59.47
650.229	59.52
650.56	59.59
650.89	59.63
651.221	59.69
651.551	59.73
651.882	59.75
652.212	59.76
652.542	59.8
652.872	59.82
653.203	59.83
653.533	59.86
653.863	59.85
654.193	59.85
654.523	59.85
654.853	59.85
655.183	59.9
655.513	59.96
655.843	59.94
656.172	59.98
656.502	60
656.832	60.02
657.162	60.02
657.491	60.01
657.821	60
658.15	60.01
658.48	60.02
658.809	60.01
659.139	60.07
659.468	60.09
659.798	60.1
660.127	60.09
660.456	60.07
660.785	60.1
661.115	60.13
661.444	60.16
661.773	60.16
662.102	60.15
662.431	60.13
662.76	60.16
663.089	60.19
663.418	60.2
663.747	60.23
664.076	60.24
664.404	60.25
664.733	60.3
665.062	60.28
665.39	60.29
665.719	60.31
666.048	60.29
666.376	60.26
666.705	60.26
667.033	60.31
667.362	60.33
667.69	60.36
668.018	60.38
668.347	60.41
668.675	60.44
669.003	60.44
669.331	60.45
669.659	60.46
669.987	60.44
670.315	60.44
670.643	60.42
