Data from UWBM55954_Reflection_00010.txt Node
Date: Sun May 02 13:51:40 EDT 2021
User: vgr7
Spectrometer: USB2G7710
Scans to average: 10
Trigger mode: 4
Integration Time (sec): 1.000000E-1
Electric dark correction enabled: true
Boxcar width: 20
XAxis mode: Wavelengths
Number of Pixels in Spectrum: 2048
>>>>>Begin Spectral Data<<<<<
177.721	189.47
178.105	289.01
178.488	166.76
178.871	173.08
179.254	136.42
179.636	102.87
180.019	86.89
180.402	81.26
180.785	69.09
181.168	63.37
181.55	57.74
181.933	57.62
182.316	53.91
182.698	55.5
183.081	52.13
183.463	48.82
183.846	46.22
184.228	45.26
184.611	44.03
184.993	40.97
185.376	40.69
185.758	42.15
186.14	41.29
186.522	42.24
186.904	43.37
187.287	40.25
187.669	39.55
188.051	39.61
188.433	39.01
188.815	37.5
189.197	41.23
189.579	42.4
189.961	39.76
190.342	37.15
190.724	36.91
191.106	38.23
191.488	37.25
191.869	35.91
192.251	33.63
192.633	33.15
193.014	31.54
193.396	26.84
193.777	25.55
194.159	26.53
194.54	25.64
194.922	25.35
195.303	26.25
195.684	25.39
196.065	24.42
196.447	25.18
196.828	24.08
197.209	24.01
197.59	22.01
197.971	22.71
198.352	23.46
198.733	25.18
199.114	26.29
199.495	26.8
199.876	26.32
200.257	26.44
200.638	26.92
201.018	27.71
201.399	28
201.78	28.1
202.16	26.02
202.541	24.88
202.922	24.85
203.302	24.96
203.683	24.91
204.063	25.4
204.444	24.53
204.824	21.96
205.204	21.31
205.585	22.07
205.965	22.87
206.345	22.83
206.725	23.17
207.106	24.11
207.486	22.67
207.866	24.03
208.246	23.6
208.626	22.12
209.006	23.5
209.386	23.18
209.766	22.67
210.145	22.65
210.525	22.16
210.905	22.69
211.285	21.57
211.664	21.51
212.044	20.21
212.424	20.54
212.803	19.38
213.183	20.32
213.562	19.66
213.942	17.64
214.321	15.89
214.701	15.02
215.08	14.52
215.459	14.14
215.838	12.71
216.218	12.35
216.597	11.28
216.976	11.2
217.355	10.87
217.734	11.56
218.113	11.56
218.492	10.92
218.871	9.53
219.25	9.64
219.629	8.44
220.008	8.5
220.387	8.83
220.766	9.57
221.144	8.22
221.523	8.39
221.902	8.66
222.28	7.74
222.659	7.13
223.037	7.51
223.416	7.91
223.794	7.81
224.173	8.02
224.551	7.38
224.929	8.11
225.308	7.87
225.686	7.65
226.064	7.41
226.442	7.03
226.821	7.42
227.199	7.62
227.577	8.04
227.955	7.95
228.333	8.44
228.711	7.82
229.089	7.76
229.467	7.79
229.845	7.25
230.222	7.3
230.6	7.23
230.978	7.02
231.356	7.4
231.733	7.23
232.111	7.12
232.488	6.64
232.866	6.24
233.243	6.02
233.621	6
233.998	6.12
234.376	6.15
234.753	5.88
235.13	5.97
235.508	6.02
235.885	5.98
236.262	5.87
236.639	5.88
237.016	5.72
237.393	5.74
237.77	5.78
238.147	5.78
238.524	5.74
238.901	5.55
239.278	5.56
239.655	5.59
240.032	5.6
240.409	5.53
240.785	5.54
241.162	5.51
241.539	5.55
241.915	5.55
242.292	5.52
242.668	5.47
243.045	5.44
243.421	5.38
243.798	5.35
244.174	5.42
244.551	5.41
244.927	5.41
245.303	5.46
245.679	5.45
246.056	5.41
246.432	5.45
246.808	5.42
247.184	5.42
247.56	5.42
247.936	5.44
248.312	5.46
248.688	5.47
249.064	5.47
249.44	5.47
249.815	5.44
250.191	5.43
250.567	5.43
250.943	5.37
251.318	5.32
251.694	5.32
252.069	5.27
252.445	5.26
252.82	5.23
253.196	5.17
253.571	5.14
253.947	5.1
254.322	5.08
254.697	5.04
255.073	5
255.448	4.99
255.823	4.95
256.198	4.94
256.573	4.93
256.948	4.92
257.323	4.87
257.698	4.83
258.073	4.82
258.448	4.77
258.823	4.76
259.198	4.74
259.573	4.7
259.948	4.69
260.322	4.67
260.697	4.63
261.072	4.62
261.446	4.61
261.821	4.59
262.195	4.56
262.57	4.55
262.944	4.52
263.319	4.53
263.693	4.53
264.067	4.53
264.442	4.49
264.816	4.48
265.19	4.49
265.564	4.49
265.938	4.48
266.313	4.48
266.687	4.47
267.061	4.44
267.435	4.45
267.809	4.44
268.183	4.43
268.556	4.44
268.93	4.44
269.304	4.46
269.678	4.45
270.051	4.45
270.425	4.43
270.799	4.41
271.172	4.43
271.546	4.42
271.919	4.41
272.293	4.41
272.666	4.4
273.04	4.42
273.413	4.44
273.787	4.45
274.16	4.46
274.533	4.46
274.906	4.46
275.279	4.47
275.653	4.47
276.026	4.48
276.399	4.49
276.772	4.51
277.145	4.51
277.518	4.53
277.891	4.54
278.263	4.55
278.636	4.55
279.009	4.55
279.382	4.53
279.755	4.56
280.127	4.56
280.5	4.57
280.872	4.58
281.245	4.57
281.617	4.59
281.99	4.6
282.362	4.61
282.735	4.61
283.107	4.61
283.479	4.6
283.852	4.61
284.224	4.62
284.596	4.62
284.968	4.64
285.34	4.65
285.713	4.67
286.085	4.69
286.457	4.71
286.829	4.69
287.201	4.72
287.572	4.72
287.944	4.76
288.316	4.76
288.688	4.77
289.06	4.79
289.431	4.81
289.803	4.83
290.175	4.86
290.546	4.87
290.918	4.89
291.289	4.92
291.661	4.94
292.032	4.94
292.403	4.96
292.775	4.98
293.146	4.99
293.517	5.01
293.889	5.02
294.26	5.06
294.631	5.09
295.002	5.13
295.373	5.15
295.744	5.18
296.115	5.2
296.486	5.25
296.857	5.28
297.228	5.3
297.599	5.36
297.97	5.4
298.34	5.43
298.711	5.47
299.082	5.5
299.452	5.53
299.823	5.56
300.194	5.59
300.564	5.62
300.935	5.67
301.305	5.7
301.676	5.73
302.046	5.78
302.416	5.82
302.787	5.84
303.157	5.88
303.527	5.94
303.897	5.98
304.267	6.03
304.637	6.08
305.008	6.13
305.378	6.19
305.748	6.24
306.117	6.29
306.487	6.36
306.857	6.42
307.227	6.47
307.597	6.53
307.967	6.57
308.336	6.63
308.706	6.67
309.076	6.71
309.445	6.76
309.815	6.8
310.184	6.84
310.554	6.88
310.923	6.91
311.293	6.97
311.662	6.99
312.031	7.02
312.401	7.07
312.77	7.1
313.139	7.15
313.508	7.2
313.877	7.25
314.246	7.29
314.616	7.33
314.985	7.38
315.353	7.43
315.722	7.46
316.091	7.52
316.46	7.55
316.829	7.59
317.198	7.64
317.567	7.68
317.935	7.75
318.304	7.8
318.672	7.85
319.041	7.9
319.41	7.94
319.778	8
320.147	8.04
320.515	8.08
320.883	8.11
321.252	8.14
321.62	8.17
321.988	8.21
322.357	8.24
322.725	8.28
323.093	8.33
323.461	8.35
323.829	8.38
324.197	8.43
324.565	8.44
324.933	8.48
325.301	8.5
325.669	8.55
326.037	8.59
326.405	8.61
326.772	8.63
327.14	8.67
327.508	8.69
327.875	8.71
328.243	8.73
328.61	8.76
328.978	8.76
329.346	8.79
329.713	8.81
330.08	8.82
330.448	8.84
330.815	8.86
331.182	8.86
331.55	8.88
331.917	8.9
332.284	8.91
332.651	8.94
333.018	8.96
333.385	8.98
333.752	9.01
334.119	9.04
334.486	9.06
334.853	9.06
335.22	9.09
335.587	9.12
335.954	9.14
336.32	9.18
336.687	9.19
337.054	9.2
337.42	9.23
337.787	9.25
338.153	9.26
338.52	9.28
338.886	9.29
339.253	9.31
339.619	9.33
339.986	9.35
340.352	9.38
340.718	9.39
341.084	9.39
341.451	9.4
341.817	9.43
342.183	9.44
342.549	9.45
342.915	9.46
343.281	9.48
343.647	9.49
344.013	9.5
344.379	9.51
344.745	9.51
345.11	9.53
345.476	9.54
345.842	9.56
346.208	9.59
346.573	9.59
346.939	9.59
347.304	9.61
347.67	9.61
348.035	9.61
348.401	9.61
348.766	9.61
349.132	9.6
349.497	9.6
349.862	9.61
350.228	9.59
350.593	9.59
350.958	9.59
351.323	9.57
351.688	9.57
352.053	9.57
352.418	9.57
352.783	9.56
353.148	9.55
353.513	9.53
353.878	9.53
354.243	9.51
354.608	9.5
354.972	9.48
355.337	9.45
355.702	9.44
356.066	9.42
356.431	9.39
356.795	9.37
357.16	9.35
357.524	9.34
357.889	9.32
358.253	9.29
358.618	9.27
358.982	9.25
359.346	9.23
359.71	9.21
360.075	9.19
360.439	9.16
360.803	9.14
361.167	9.11
361.531	9.09
361.895	9.07
362.259	9.04
362.623	9.01
362.987	8.98
363.351	8.95
363.714	8.92
364.078	8.88
364.442	8.85
364.806	8.82
365.169	8.79
365.533	8.75
365.896	8.72
366.26	8.68
366.623	8.64
366.987	8.59
367.35	8.54
367.714	8.5
368.077	8.46
368.44	8.41
368.803	8.36
369.167	8.31
369.53	8.25
369.893	8.19
370.256	8.15
370.619	8.09
370.982	8.04
371.345	7.99
371.708	7.94
372.071	7.88
372.434	7.83
372.797	7.77
373.159	7.72
373.522	7.68
373.885	7.63
374.247	7.58
374.61	7.52
374.973	7.46
375.335	7.42
375.698	7.36
376.06	7.31
376.423	7.25
376.785	7.2
377.147	7.15
377.51	7.1
377.872	7.05
378.234	7
378.596	6.95
378.958	6.9
379.321	6.85
379.683	6.81
380.045	6.76
380.407	6.71
380.769	6.67
381.13	6.63
381.492	6.58
381.854	6.53
382.216	6.49
382.578	6.45
382.939	6.41
383.301	6.37
383.663	6.33
384.024	6.29
384.386	6.25
384.747	6.21
385.109	6.17
385.47	6.13
385.832	6.1
386.193	6.06
386.554	6.02
386.916	5.98
387.277	5.95
387.638	5.92
387.999	5.88
388.36	5.84
388.721	5.81
389.082	5.78
389.443	5.75
389.804	5.72
390.165	5.69
390.526	5.66
390.887	5.63
391.248	5.6
391.609	5.58
391.969	5.56
392.33	5.53
392.691	5.5
393.051	5.47
393.412	5.44
393.772	5.42
394.133	5.39
394.493	5.36
394.854	5.32
395.214	5.29
395.574	5.26
395.935	5.23
396.295	5.21
396.655	5.19
397.015	5.16
397.376	5.14
397.736	5.1
398.096	5.08
398.456	5.06
398.816	5.03
399.176	5.01
399.535	4.98
399.895	4.96
400.255	4.95
400.615	4.92
400.975	4.9
401.334	4.88
401.694	4.86
402.054	4.84
402.413	4.82
402.773	4.8
403.132	4.78
403.492	4.77
403.851	4.75
404.211	4.74
404.57	4.72
404.929	4.71
405.288	4.69
405.648	4.68
406.007	4.68
406.366	4.66
406.725	4.65
407.084	4.64
407.443	4.63
407.802	4.62
408.161	4.61
408.52	4.6
408.879	4.59
409.238	4.58
409.596	4.58
409.955	4.57
410.314	4.57
410.673	4.56
411.031	4.56
411.39	4.55
411.748	4.54
412.107	4.54
412.465	4.54
412.824	4.55
413.182	4.57
413.54	4.59
413.899	4.61
414.257	4.63
414.615	4.66
414.974	4.68
415.332	4.72
415.69	4.75
416.048	4.77
416.406	4.81
416.764	4.83
417.122	4.86
417.48	4.88
417.838	4.91
418.195	4.93
418.553	4.94
418.911	4.95
419.269	4.95
419.626	4.95
419.984	4.93
420.342	4.91
420.699	4.89
421.057	4.87
421.414	4.84
421.772	4.82
422.129	4.81
422.486	4.8
422.844	4.79
423.201	4.79
423.558	4.78
423.915	4.78
424.273	4.77
424.63	4.76
424.987	4.76
425.344	4.76
425.701	4.75
426.058	4.75
426.415	4.75
426.772	4.74
427.128	4.73
427.485	4.72
427.842	4.71
428.199	4.69
428.555	4.67
428.912	4.64
429.269	4.61
429.625	4.58
429.982	4.55
430.338	4.52
430.695	4.49
431.051	4.45
431.407	4.43
431.764	4.41
432.12	4.39
432.476	4.38
432.832	4.37
433.189	4.37
433.545	4.37
433.901	4.39
434.257	4.41
434.613	4.44
434.969	4.46
435.325	4.49
435.681	4.53
436.036	4.55
436.392	4.58
436.748	4.6
437.104	4.61
437.459	4.63
437.815	4.64
438.171	4.67
438.526	4.69
438.882	4.73
439.237	4.76
439.593	4.8
439.948	4.83
440.304	4.87
440.659	4.9
441.014	4.92
441.369	4.95
441.725	4.96
442.08	4.98
442.435	4.99
442.79	4.99
443.145	5
443.5	5
443.855	4.99
444.21	4.99
444.565	4.99
444.92	4.98
445.275	4.97
445.629	4.96
445.984	4.95
446.339	4.93
446.693	4.92
447.048	4.9
447.403	4.88
447.757	4.85
448.112	4.83
448.466	4.8
448.82	4.77
449.175	4.75
449.529	4.73
449.883	4.7
450.238	4.68
450.592	4.67
450.946	4.66
451.3	4.65
451.654	4.66
452.008	4.66
452.362	4.66
452.716	4.66
453.07	4.66
453.424	4.66
453.778	4.65
454.132	4.63
454.486	4.62
454.839	4.6
455.193	4.58
455.547	4.57
455.9	4.54
456.254	4.52
456.607	4.49
456.961	4.46
457.314	4.44
457.668	4.43
458.021	4.43
458.375	4.43
458.728	4.43
459.081	4.43
459.434	4.44
459.787	4.45
460.141	4.47
460.494	4.48
460.847	4.49
461.2	4.5
461.553	4.5
461.906	4.51
462.259	4.52
462.611	4.53
462.964	4.54
463.317	4.55
463.67	4.56
464.022	4.57
464.375	4.58
464.728	4.59
465.08	4.6
465.433	4.61
465.785	4.61
466.138	4.6
466.49	4.58
466.843	4.56
467.195	4.55
467.547	4.53
467.899	4.51
468.252	4.48
468.604	4.46
468.956	4.45
469.308	4.44
469.66	4.44
470.012	4.43
470.364	4.45
470.716	4.46
471.068	4.48
471.42	4.5
471.772	4.52
472.123	4.54
472.475	4.55
472.827	4.57
473.178	4.58
473.53	4.59
473.882	4.61
474.233	4.63
474.585	4.67
474.936	4.74
475.288	4.84
475.639	4.96
475.99	5.11
476.342	5.27
476.693	5.44
477.044	5.62
477.395	5.8
477.746	5.98
478.097	6.17
478.448	6.36
478.8	6.54
479.15	6.71
479.501	6.87
479.852	7.01
480.203	7.15
480.554	7.28
480.905	7.4
481.255	7.52
481.606	7.63
481.957	7.74
482.307	7.84
482.658	7.94
483.009	8.03
483.359	8.12
483.709	8.21
484.06	8.29
484.41	8.38
484.761	8.45
485.111	8.53
485.461	8.6
485.811	8.67
486.162	8.73
486.512	8.79
486.862	8.83
487.212	8.86
487.562	8.88
487.912	8.89
488.262	8.9
488.612	8.89
488.961	8.88
489.311	8.83
489.661	8.76
490.011	8.67
490.36	8.56
490.71	8.43
491.06	8.29
491.409	8.15
491.759	7.99
492.108	7.84
492.458	7.67
492.807	7.5
493.157	7.33
493.506	7.17
493.855	7.02
494.204	6.88
494.554	6.74
494.903	6.62
495.252	6.51
495.601	6.4
495.95	6.3
496.299	6.2
496.648	6.11
496.997	6.03
497.346	5.96
497.695	5.88
498.043	5.82
498.392	5.75
498.741	5.69
499.09	5.64
499.438	5.6
499.787	5.56
500.135	5.53
500.484	5.5
500.832	5.49
501.181	5.5
501.529	5.53
501.878	5.57
502.226	5.61
502.574	5.66
502.923	5.72
503.271	5.78
503.619	5.85
503.967	5.91
504.315	5.98
504.663	6.05
505.011	6.12
505.359	6.2
505.707	6.27
506.055	6.35
506.403	6.44
506.751	6.53
507.098	6.62
507.446	6.72
507.794	6.82
508.141	6.93
508.489	7.05
508.837	7.17
509.184	7.29
509.531	7.42
509.879	7.55
510.226	7.69
510.574	7.84
510.921	8
511.268	8.16
511.616	8.33
511.963	8.5
512.31	8.68
512.657	8.85
513.004	9.02
513.351	9.19
513.698	9.35
514.045	9.5
514.392	9.64
514.739	9.77
515.086	9.9
515.432	10.02
515.779	10.15
516.126	10.28
516.473	10.43
516.819	10.59
517.166	10.77
517.512	10.95
517.859	11.15
518.205	11.37
518.552	11.6
518.898	11.86
519.245	12.15
519.591	12.51
519.937	12.92
520.283	13.4
520.629	13.93
520.976	14.49
521.322	15.06
521.668	15.66
522.014	16.27
522.36	16.86
522.706	17.45
523.052	18.03
523.398	18.58
523.743	19.09
524.089	19.55
524.435	19.99
524.781	20.42
525.126	20.85
525.472	21.27
525.817	21.68
526.163	22.09
526.509	22.48
526.854	22.88
527.199	23.28
527.545	23.68
527.89	24.1
528.235	24.51
528.581	24.9
528.926	25.27
529.271	25.62
529.616	25.96
529.961	26.3
530.306	26.62
530.651	26.91
530.996	27.18
531.341	27.44
531.686	27.68
532.031	27.92
532.376	28.18
532.721	28.47
533.065	28.78
533.41	29.11
533.755	29.42
534.099	29.7
534.444	29.95
534.788	30.18
535.133	30.4
535.477	30.6
535.822	30.77
536.166	30.91
536.51	31
536.855	31.05
537.199	31.06
537.543	31.07
537.887	31.1
538.231	31.18
538.576	31.25
538.92	31.3
539.264	31.35
539.608	31.38
539.951	31.39
540.295	31.39
540.639	31.38
540.983	31.35
541.327	31.3
541.671	31.24
542.014	31.22
542.358	31.19
542.701	31.24
543.045	31.35
543.389	31.48
543.732	31.64
544.075	31.8
544.419	31.99
544.762	32.18
545.105	32.39
545.449	32.62
545.792	32.85
546.135	33.07
546.478	33.26
546.821	33.4
547.165	33.49
547.508	33.53
547.851	33.52
548.194	33.48
548.536	33.4
548.879	33.28
549.222	33.15
549.565	33.01
549.908	32.87
550.25	32.76
550.593	32.7
550.936	32.7
551.278	32.75
551.621	32.85
551.963	32.95
552.306	33.08
552.648	33.23
552.991	33.42
553.333	33.62
553.675	33.86
554.017	34.13
554.36	34.42
554.702	34.74
555.044	35.11
555.386	35.51
555.728	35.95
556.07	36.33
556.412	36.72
556.754	37.04
557.096	37.3
557.438	37.57
557.78	37.83
558.121	38.1
558.463	38.36
558.805	38.62
559.147	38.89
559.488	39.15
559.83	39.41
560.171	39.66
560.513	39.91
560.854	40.16
561.196	40.41
561.537	40.65
561.878	40.89
562.22	41.11
562.561	41.33
562.902	41.55
563.243	41.77
563.584	41.98
563.925	42.2
564.266	42.42
564.607	42.63
564.948	42.85
565.289	43.06
565.63	43.26
565.971	43.46
566.312	43.66
566.653	43.87
566.993	44.05
567.334	44.25
567.675	44.43
568.015	44.61
568.356	44.78
568.696	44.96
569.037	45.12
569.377	45.28
569.718	45.43
570.058	45.57
570.398	45.71
570.739	45.85
571.079	45.99
571.419	46.11
571.759	46.24
572.099	46.36
572.439	46.48
572.779	46.59
573.119	46.71
573.459	46.82
573.799	46.94
574.139	47.06
574.479	47.17
574.819	47.28
575.158	47.38
575.498	47.49
575.838	47.6
576.177	47.71
576.517	47.81
576.856	47.91
577.196	48.02
577.535	48.12
577.875	48.21
578.214	48.31
578.553	48.41
578.893	48.49
579.232	48.57
579.571	48.66
579.91	48.76
580.25	48.85
580.589	48.94
580.928	49.03
581.267	49.12
581.606	49.22
581.945	49.3
582.283	49.41
582.622	49.51
582.961	49.6
583.3	49.69
583.639	49.79
583.977	49.87
584.316	49.97
584.654	50.06
584.993	50.15
585.332	50.25
585.67	50.36
586.008	50.45
586.347	50.55
586.685	50.66
587.024	50.75
587.362	50.85
587.7	50.95
588.038	51.04
588.376	51.14
588.715	51.25
589.053	51.35
589.391	51.46
589.729	51.58
590.067	51.68
590.404	51.78
590.742	51.88
591.08	51.97
591.418	52.07
591.756	52.17
592.093	52.26
592.431	52.35
592.769	52.43
593.106	52.51
593.444	52.58
593.781	52.65
594.119	52.72
594.456	52.78
594.793	52.86
595.131	52.93
595.468	53
595.805	53.08
596.143	53.15
596.48	53.22
596.817	53.32
597.154	53.41
597.491	53.5
597.828	53.59
598.165	53.68
598.502	53.76
598.839	53.85
599.176	53.92
599.512	53.98
599.849	54.06
600.186	54.12
600.523	54.18
600.859	54.24
601.196	54.3
601.532	54.35
601.869	54.42
602.205	54.48
602.542	54.54
602.878	54.6
603.215	54.65
603.551	54.7
603.887	54.75
604.223	54.8
604.56	54.85
604.896	54.9
605.232	54.94
605.568	54.97
605.904	55.01
606.24	55.05
606.576	55.1
606.912	55.14
607.248	55.18
607.583	55.23
607.919	55.26
608.255	55.31
608.591	55.34
608.926	55.38
609.262	55.41
609.597	55.44
609.933	55.46
610.268	55.5
610.604	55.51
610.939	55.54
611.275	55.56
611.61	55.59
611.945	55.6
612.281	55.63
612.616	55.65
612.951	55.67
613.286	55.69
613.621	55.72
613.956	55.74
614.291	55.78
614.626	55.8
614.961	55.84
615.296	55.87
615.631	55.9
615.966	55.92
616.3	55.96
616.635	55.99
616.97	56.01
617.304	56.03
617.639	56.05
617.973	56.08
618.308	56.11
618.642	56.14
618.977	56.18
619.311	56.23
619.646	56.28
619.98	56.32
620.314	56.36
620.648	56.39
620.983	56.44
621.317	56.48
621.651	56.53
621.985	56.56
622.319	56.62
622.653	56.66
622.987	56.7
623.321	56.75
623.655	56.79
623.988	56.81
624.322	56.84
624.656	56.88
624.99	56.9
625.323	56.92
625.657	56.96
625.99	56.99
626.324	57.02
626.657	57.05
626.991	57.09
627.324	57.12
627.658	57.14
627.991	57.18
628.324	57.22
628.657	57.26
628.991	57.28
629.324	57.3
629.657	57.34
629.99	57.36
630.323	57.38
630.656	57.42
630.989	57.45
631.322	57.48
631.655	57.51
631.987	57.53
632.32	57.55
632.653	57.59
632.986	57.61
633.318	57.63
633.651	57.65
633.984	57.66
634.316	57.7
634.649	57.73
634.981	57.75
635.313	57.77
635.646	57.79
635.978	57.79
636.31	57.82
636.643	57.84
636.975	57.86
637.307	57.89
637.639	57.93
637.971	57.96
638.303	57.99
638.635	58.03
638.967	58.05
639.299	58.08
639.631	58.12
639.963	58.15
640.295	58.18
640.626	58.22
640.958	58.24
641.29	58.27
641.621	58.29
641.953	58.31
642.285	58.31
642.616	58.34
642.948	58.39
643.279	58.41
643.61	58.45
643.942	58.49
644.273	58.51
644.604	58.54
644.936	58.56
645.267	58.58
645.598	58.62
645.929	58.65
646.26	58.65
646.591	58.68
646.922	58.71
647.253	58.74
647.584	58.78
647.915	58.8
648.245	58.83
648.576	58.86
648.907	58.89
649.238	58.94
649.568	58.97
649.899	58.99
650.229	59.02
650.56	59.07
650.89	59.09
651.221	59.12
651.551	59.15
651.882	59.17
652.212	59.19
652.542	59.23
652.872	59.26
653.203	59.3
653.533	59.32
653.863	59.36
654.193	59.37
654.523	59.42
654.853	59.44
655.183	59.47
655.513	59.49
655.843	59.52
656.172	59.55
656.502	59.58
656.832	59.6
657.162	59.62
657.491	59.64
657.821	59.65
658.15	59.68
658.48	59.7
658.809	59.72
659.139	59.74
659.468	59.77
659.798	59.8
660.127	59.82
660.456	59.85
660.785	59.86
661.115	59.88
661.444	59.9
661.773	59.92
662.102	59.94
662.431	59.97
662.76	59.99
663.089	60.01
663.418	60.04
663.747	60.05
664.076	60.06
664.404	60.11
664.733	60.14
665.062	60.17
665.39	60.19
665.719	60.23
666.048	60.25
666.376	60.3
666.705	60.32
667.033	60.34
667.362	60.36
667.69	60.39
668.018	60.41
668.347	60.45
668.675	60.47
669.003	60.51
669.331	60.53
669.659	60.56
669.987	60.58
