Data from UWBM122617_Reflection_00015.txt Node
Date: Sun May 02 12:18:41 EDT 2021
User: vgr7
Spectrometer: USB2G7710
Scans to average: 10
Trigger mode: 4
Integration Time (sec): 1.000000E-1
Electric dark correction enabled: true
Boxcar width: 10
XAxis mode: Wavelengths
Number of Pixels in Spectrum: 2048
>>>>>Begin Spectral Data<<<<<
177.721	740
178.105	500
178.488	49.28
178.871	200
179.254	-123.08
179.636	-94.55
180.019	127.68
180.402	20
180.785	-50.4
181.168	-63.84
181.55	-64.18
181.933	-63.92
182.316	-47.45
182.698	-45.07
183.081	-18.85
183.463	-5.71
183.846	9.4
184.228	9.66
184.611	9.97
184.993	11.06
185.376	6.61
185.758	3.73
186.14	-5.36
186.522	6.68
186.904	-2.07
187.287	-1.43
187.669	-1.35
188.051	-4.4
188.433	1.79
188.815	8.87
189.197	12.01
189.579	12.75
189.961	13.54
190.342	8.58
190.724	11.1
191.106	8.75
191.488	9.33
191.869	1.35
192.251	1.5
192.633	-0.98
193.014	-2.64
193.396	-4.02
193.777	-3.93
194.159	-5.46
194.54	-14.21
194.922	-12.36
195.303	-9.62
195.684	-9.33
196.065	-10.84
196.447	-15.95
196.828	-19.51
197.209	-22.32
197.59	-21.17
197.971	-20.37
198.352	-18.72
198.733	-16.89
199.114	-16.1
199.495	-17.91
199.876	-14.99
200.257	-17.27
200.638	-16.49
201.018	-17.48
201.399	-17.36
201.78	-13.37
202.16	-11.22
202.541	-8.95
202.922	-7
203.302	-9.38
203.683	-9.48
204.063	-8.89
204.444	-8.34
204.824	-7.59
205.204	-10.14
205.585	-7.52
205.965	-11.75
206.345	-8.13
206.725	-16.02
207.106	-16.86
207.486	-14.49
207.866	-9.65
208.246	-9.45
208.626	-9.26
209.006	-6.09
209.386	-7.44
209.766	-10.29
210.145	-10.72
210.525	-9.05
210.905	-11.36
211.285	-11.98
211.664	-12.28
212.044	-12.59
212.424	-6.88
212.803	-8.71
213.183	-4.01
213.562	-9.06
213.942	-9.46
214.321	-16.88
214.701	-15.76
215.08	-12.73
215.459	-14.13
215.838	-18.25
216.218	-16.78
216.597	-15.98
216.976	-18.64
217.355	-20.35
217.734	-23.47
218.113	-23.12
218.492	-21.94
218.871	-18.71
219.25	-18.1
219.629	-14.39
220.008	-12.1
220.387	-15.55
220.766	-18.02
221.144	-18.1
221.523	-12.49
221.902	-8.04
222.28	-4.69
222.659	-4.68
223.037	-7.24
223.416	-4.93
223.794	-2.07
224.173	-0.89
224.551	-1.39
224.929	-0.69
225.308	4.23
225.686	5.74
226.064	5.29
226.442	5.33
226.821	4.3
227.199	4.78
227.577	2.29
227.955	1.61
228.333	2.48
228.711	2.93
229.089	3.78
229.467	3.25
229.845	4.53
230.222	5.58
230.6	5.65
230.978	6.53
231.356	6.07
231.733	6.05
232.111	5.92
232.488	5.31
232.866	4.85
233.243	4.11
233.621	4.77
233.998	4.73
234.376	5.32
234.753	5.77
235.13	5.69
235.508	7.17
235.885	7.77
236.262	7.86
236.639	8.35
237.016	7.92
237.393	7.56
237.77	6.81
238.147	6.67
238.524	6.95
238.901	7.03
239.278	7.09
239.655	6.95
240.032	6.77
240.409	6.94
240.785	6.95
241.162	6.83
241.539	6.55
241.915	6.5
242.292	6.29
242.668	6.31
243.045	6.38
243.421	6.13
243.798	5.99
244.174	5.9
244.551	5.79
244.927	5.78
245.303	5.76
245.679	5.82
246.056	5.73
246.432	5.71
246.808	5.54
247.184	5.51
247.56	5.47
247.936	5.46
248.312	5.46
248.688	5.48
249.064	5.44
249.44	5.44
249.815	5.45
250.191	5.44
250.567	5.35
250.943	5.3
251.318	5.3
251.694	5.27
252.069	5.18
252.445	5.19
252.82	5.14
253.196	5.08
253.571	4.98
253.947	5.07
254.322	5
254.697	5.12
255.073	5.13
255.448	5.11
255.823	5.08
256.198	4.97
256.573	4.9
256.948	4.91
257.323	4.91
257.698	4.9
258.073	4.91
258.448	4.99
258.823	4.97
259.198	4.93
259.573	4.95
259.948	4.97
260.322	4.92
260.697	4.89
261.072	4.9
261.446	4.87
261.821	4.84
262.195	4.76
262.57	4.72
262.944	4.68
263.319	4.69
263.693	4.7
264.067	4.75
264.442	4.77
264.816	4.73
265.19	4.76
265.564	4.76
265.938	4.68
266.313	4.58
266.687	4.49
267.061	4.53
267.435	4.49
267.809	4.5
268.183	4.58
268.556	4.63
268.93	4.65
269.304	4.64
269.678	4.59
270.051	4.61
270.425	4.6
270.799	4.61
271.172	4.58
271.546	4.6
271.919	4.59
272.293	4.55
272.666	4.52
273.04	4.51
273.413	4.43
273.787	4.42
274.16	4.45
274.533	4.5
274.906	4.45
275.279	4.45
275.653	4.41
276.026	4.38
276.399	4.33
276.772	4.34
277.145	4.39
277.518	4.43
277.891	4.5
278.263	4.53
278.636	4.51
279.009	4.52
279.382	4.47
279.755	4.46
280.127	4.5
280.5	4.51
280.872	4.45
281.245	4.55
281.617	4.57
281.99	4.57
282.362	4.56
282.735	4.57
283.107	4.57
283.479	4.61
283.852	4.61
284.224	4.63
284.596	4.61
284.968	4.65
285.34	4.6
285.713	4.62
286.085	4.61
286.457	4.6
286.829	4.56
287.201	4.6
287.572	4.64
287.944	4.64
288.316	4.71
288.688	4.76
289.06	4.74
289.431	4.76
289.803	4.76
290.175	4.81
290.546	4.83
290.918	4.85
291.289	4.85
291.661	4.88
292.032	4.88
292.403	4.92
292.775	4.86
293.146	4.92
293.517	4.93
293.889	4.95
294.26	4.99
294.631	5.06
295.002	5.09
295.373	5.1
295.744	5.08
296.115	5.08
296.486	5.06
296.857	5.08
297.228	5.11
297.599	5.15
297.97	5.17
298.34	5.23
298.711	5.24
299.082	5.27
299.452	5.28
299.823	5.32
300.194	5.33
300.564	5.35
300.935	5.37
301.305	5.37
301.676	5.4
302.046	5.41
302.416	5.47
302.787	5.46
303.157	5.46
303.527	5.54
303.897	5.58
304.267	5.66
304.637	5.71
305.008	5.77
305.378	5.81
305.748	5.84
306.117	5.85
306.487	5.92
306.857	5.97
307.227	6
307.597	6.03
307.967	6.08
308.336	6.14
308.706	6.19
309.076	6.22
309.445	6.28
309.815	6.32
310.184	6.34
310.554	6.39
310.923	6.4
311.293	6.43
311.662	6.46
312.031	6.48
312.401	6.53
312.77	6.53
313.139	6.59
313.508	6.64
313.877	6.69
314.246	6.69
314.616	6.74
314.985	6.8
315.353	6.84
315.722	6.89
316.091	6.94
316.46	7
316.829	7.11
317.198	7.2
317.567	7.27
317.935	7.29
318.304	7.31
318.672	7.4
319.041	7.46
319.41	7.53
319.778	7.59
320.147	7.63
320.515	7.69
320.883	7.69
321.252	7.7
321.62	7.7
321.988	7.78
322.357	7.8
322.725	7.85
323.093	7.9
323.461	7.95
323.829	7.97
324.197	7.97
324.565	7.97
324.933	7.91
325.301	7.93
325.669	7.99
326.037	8.02
326.405	8.06
326.772	8.08
327.14	8.09
327.508	8.11
327.875	8.15
328.243	8.19
328.61	8.2
328.978	8.25
329.346	8.3
329.713	8.31
330.08	8.35
330.448	8.38
330.815	8.41
331.182	8.4
331.55	8.41
331.917	8.43
332.284	8.44
332.651	8.51
333.018	8.56
333.385	8.58
333.752	8.61
334.119	8.6
334.486	8.63
334.853	8.65
335.22	8.68
335.587	8.66
335.954	8.67
336.32	8.68
336.687	8.67
337.054	8.69
337.42	8.72
337.787	8.75
338.153	8.76
338.52	8.77
338.886	8.78
339.253	8.79
339.619	8.82
339.986	8.85
340.352	8.87
340.718	8.9
341.084	8.95
341.451	8.97
341.817	8.99
342.183	9.01
342.549	9.03
342.915	9.01
343.281	9.05
343.647	9.07
344.013	9.09
344.379	9.13
344.745	9.12
345.11	9.12
345.476	9.13
345.842	9.15
346.208	9.16
346.573	9.18
346.939	9.2
347.304	9.19
347.67	9.21
348.035	9.22
348.401	9.2
348.766	9.2
349.132	9.2
349.497	9.2
349.862	9.18
350.228	9.19
350.593	9.22
350.958	9.22
351.323	9.22
351.688	9.25
352.053	9.22
352.418	9.23
352.783	9.2
353.148	9.18
353.513	9.13
353.878	9.14
354.243	9.12
354.608	9.11
354.972	9.11
355.337	9.08
355.702	9.04
356.066	9.02
356.431	8.98
356.795	8.97
357.16	8.93
357.524	8.91
357.889	8.86
358.253	8.83
358.618	8.79
358.982	8.77
359.346	8.71
359.71	8.7
360.075	8.67
360.439	8.66
360.803	8.61
361.167	8.59
361.531	8.57
361.895	8.55
362.259	8.52
362.623	8.48
362.987	8.47
363.351	8.45
363.714	8.45
364.078	8.41
364.442	8.39
364.806	8.38
365.169	8.33
365.533	8.29
365.896	8.25
366.26	8.22
366.623	8.18
366.987	8.16
367.35	8.12
367.714	8.11
368.077	8.07
368.44	8.05
368.803	8
369.167	7.97
369.53	7.92
369.893	7.89
370.256	7.82
370.619	7.77
370.982	7.72
371.345	7.65
371.708	7.64
372.071	7.59
372.434	7.53
372.797	7.49
373.159	7.47
373.522	7.43
373.885	7.37
374.247	7.32
374.61	7.26
374.973	7.19
375.335	7.12
375.698	7.07
376.06	7.03
376.423	7
376.785	6.94
377.147	6.9
377.51	6.86
377.872	6.84
378.234	6.78
378.596	6.74
378.958	6.71
379.321	6.66
379.683	6.6
380.045	6.55
380.407	6.51
380.769	6.47
381.13	6.43
381.492	6.4
381.854	6.36
382.216	6.34
382.578	6.31
382.939	6.29
383.301	6.25
383.663	6.23
384.024	6.18
384.386	6.16
384.747	6.12
385.109	6.09
385.47	6.06
385.832	6.03
386.193	6
386.554	5.96
386.916	5.94
387.277	5.92
387.638	5.9
387.999	5.89
388.36	5.86
388.721	5.84
389.082	5.82
389.443	5.78
389.804	5.74
390.165	5.71
390.526	5.67
390.887	5.64
391.248	5.61
391.609	5.59
391.969	5.57
392.33	5.56
392.691	5.52
393.051	5.5
393.412	5.48
393.772	5.45
394.133	5.43
394.493	5.4
394.854	5.38
395.214	5.35
395.574	5.32
395.935	5.29
396.295	5.25
396.655	5.22
397.015	5.2
397.376	5.18
397.736	5.16
398.096	5.14
398.456	5.11
398.816	5.09
399.176	5.05
399.535	5.04
399.895	5.01
400.255	5
400.615	4.96
400.975	4.94
401.334	4.92
401.694	4.9
402.054	4.89
402.413	4.87
402.773	4.85
403.132	4.84
403.492	4.81
403.851	4.81
404.211	4.79
404.57	4.78
404.929	4.77
405.288	4.75
405.648	4.74
406.007	4.74
406.366	4.74
406.725	4.73
407.084	4.72
407.443	4.72
407.802	4.7
408.161	4.7
408.52	4.69
408.879	4.68
409.238	4.67
409.596	4.66
409.955	4.65
410.314	4.64
410.673	4.63
411.031	4.63
411.39	4.62
411.748	4.62
412.107	4.62
412.465	4.61
412.824	4.61
413.182	4.61
413.54	4.6
413.899	4.59
414.257	4.58
414.615	4.57
414.974	4.55
415.332	4.54
415.69	4.54
416.048	4.54
416.406	4.54
416.764	4.53
417.122	4.53
417.48	4.54
417.838	4.53
418.195	4.55
418.553	4.55
418.911	4.55
419.269	4.54
419.626	4.54
419.984	4.54
420.342	4.53
420.699	4.53
421.057	4.52
421.414	4.51
421.772	4.51
422.129	4.51
422.486	4.51
422.844	4.5
423.201	4.5
423.558	4.49
423.915	4.49
424.273	4.48
424.63	4.47
424.987	4.46
425.344	4.45
425.701	4.44
426.058	4.43
426.415	4.41
426.772	4.4
427.128	4.38
427.485	4.37
427.842	4.36
428.199	4.35
428.555	4.35
428.912	4.33
429.269	4.33
429.625	4.32
429.982	4.32
430.338	4.31
430.695	4.32
431.051	4.31
431.407	4.3
431.764	4.3
432.12	4.31
432.476	4.3
432.832	4.3
433.189	4.3
433.545	4.29
433.901	4.3
434.257	4.3
434.613	4.3
434.969	4.31
435.325	4.31
435.681	4.32
436.036	4.32
436.392	4.33
436.748	4.33
437.104	4.33
437.459	4.34
437.815	4.34
438.171	4.34
438.526	4.35
438.882	4.35
439.237	4.36
439.593	4.36
439.948	4.36
440.304	4.37
440.659	4.38
441.014	4.38
441.369	4.39
441.725	4.39
442.08	4.4
442.435	4.39
442.79	4.4
443.145	4.4
443.5	4.39
443.855	4.4
444.21	4.4
444.565	4.4
444.92	4.39
445.275	4.39
445.629	4.39
445.984	4.39
446.339	4.38
446.693	4.38
447.048	4.37
447.403	4.37
447.757	4.36
448.112	4.36
448.466	4.35
448.82	4.35
449.175	4.35
449.529	4.33
449.883	4.33
450.238	4.31
450.592	4.3
450.946	4.3
451.3	4.29
451.654	4.28
452.008	4.28
452.362	4.27
452.716	4.26
453.07	4.26
453.424	4.25
453.778	4.25
454.132	4.24
454.486	4.25
454.839	4.25
455.193	4.25
455.547	4.25
455.9	4.25
456.254	4.25
456.607	4.26
456.961	4.27
457.314	4.28
457.668	4.29
458.021	4.29
458.375	4.3
458.728	4.3
459.081	4.31
459.434	4.31
459.787	4.32
460.141	4.32
460.494	4.31
460.847	4.32
461.2	4.32
461.553	4.32
461.906	4.33
462.259	4.33
462.611	4.33
462.964	4.33
463.317	4.34
463.67	4.33
464.022	4.33
464.375	4.33
464.728	4.32
465.08	4.33
465.433	4.33
465.785	4.33
466.138	4.32
466.49	4.32
466.843	4.33
467.195	4.33
467.547	4.34
467.899	4.36
468.252	4.36
468.604	4.36
468.956	4.38
469.308	4.38
469.66	4.39
470.012	4.4
470.364	4.4
470.716	4.41
471.068	4.42
471.42	4.43
471.772	4.43
472.123	4.44
472.475	4.44
472.827	4.45
473.178	4.45
473.53	4.46
473.882	4.47
474.233	4.47
474.585	4.47
474.936	4.48
475.288	4.48
475.639	4.48
475.99	4.48
476.342	4.48
476.693	4.48
477.044	4.48
477.395	4.48
477.746	4.47
478.097	4.48
478.448	4.5
478.8	4.58
479.15	4.7
479.501	4.85
479.852	5
480.203	5.18
480.554	5.36
480.905	5.54
481.255	5.72
481.606	5.89
481.957	6.07
482.307	6.23
482.658	6.38
483.009	6.51
483.359	6.62
483.709	6.72
484.06	6.81
484.41	6.91
484.761	6.99
485.111	7.08
485.461	7.16
485.811	7.23
486.162	7.26
486.512	7.25
486.862	7.21
487.212	7.15
487.562	7.06
487.912	6.97
488.262	6.86
488.612	6.74
488.961	6.61
489.311	6.48
489.661	6.33
490.011	6.2
490.36	6.05
490.71	5.9
491.06	5.75
491.409	5.59
491.759	5.47
492.108	5.36
492.458	5.27
492.807	5.19
493.157	5.11
493.506	5.04
493.855	4.97
494.204	4.91
494.554	4.85
494.903	4.8
495.252	4.74
495.601	4.7
495.95	4.66
496.299	4.63
496.648	4.6
496.997	4.58
497.346	4.57
497.695	4.58
498.043	4.62
498.392	4.69
498.741	4.77
499.09	4.82
499.438	4.86
499.787	4.89
500.135	4.92
500.484	4.96
500.832	4.99
501.181	5.03
501.529	5.06
501.878	5.1
502.226	5.14
502.574	5.19
502.923	5.23
503.271	5.27
503.619	5.32
503.967	5.38
504.315	5.45
504.663	5.51
505.011	5.58
505.359	5.65
505.707	5.71
506.055	5.78
506.403	5.86
506.751	5.93
507.098	6.01
507.446	6.09
507.794	6.17
508.141	6.25
508.489	6.33
508.837	6.41
509.184	6.5
509.531	6.59
509.879	6.68
510.226	6.77
510.574	6.87
510.921	6.96
511.268	7.06
511.616	7.15
511.963	7.25
512.31	7.36
512.657	7.48
513.004	7.6
513.351	7.73
513.698	7.87
514.045	8.01
514.392	8.15
514.739	8.3
515.086	8.45
515.432	8.59
515.779	8.74
516.126	8.89
516.473	9.03
516.819	9.18
517.166	9.32
517.512	9.46
517.859	9.59
518.205	9.73
518.552	9.86
518.898	9.99
519.245	10.13
519.591	10.25
519.937	10.39
520.283	10.53
520.629	10.67
520.976	10.82
521.322	10.99
521.668	11.15
522.014	11.33
522.36	11.5
522.706	11.69
523.052	11.94
523.398	12.27
523.743	12.69
524.089	13.15
524.435	13.63
524.781	14.14
525.126	14.65
525.472	15.15
525.817	15.65
526.163	16.11
526.509	16.55
526.854	16.93
527.199	17.26
527.545	17.53
527.89	17.76
528.235	17.99
528.581	18.22
528.926	18.44
529.271	18.67
529.616	18.89
529.961	19.11
530.306	19.31
530.651	19.43
530.996	19.48
531.341	19.47
531.686	19.42
532.031	19.31
532.376	19.14
532.721	18.93
533.065	18.69
533.41	18.52
533.755	18.36
534.099	18.27
534.444	18.27
534.788	18.32
535.133	18.4
535.477	18.51
535.822	18.63
536.166	18.77
536.51	18.96
536.855	19.16
537.199	19.39
537.543	19.65
537.887	19.96
538.231	20.29
538.576	20.65
538.92	21.02
539.264	21.42
539.608	21.83
539.951	22.22
540.295	22.6
540.639	22.9
540.983	23.16
541.327	23.38
541.671	23.54
542.014	23.76
542.358	23.99
542.701	24.23
543.045	24.45
543.389	24.67
543.732	24.86
544.075	25.07
544.419	25.27
544.762	25.45
545.105	25.6
545.449	25.72
545.792	25.84
546.135	25.95
546.478	26.08
546.821	26.26
547.165	26.51
547.508	26.8
547.851	27.14
548.194	27.52
548.536	27.93
548.879	28.35
549.222	28.65
549.565	28.93
549.908	29.2
550.25	29.48
550.593	29.77
550.936	30.05
551.278	30.35
551.621	30.63
551.963	30.92
552.306	31.2
552.648	31.5
552.991	31.76
553.333	32.02
553.675	32.3
554.017	32.56
554.36	32.81
554.702	33.07
555.044	33.31
555.386	33.55
555.728	33.81
556.07	34.05
556.412	34.3
556.754	34.55
557.096	34.83
557.438	35.08
557.78	35.33
558.121	35.59
558.463	35.82
558.805	36.07
559.147	36.33
559.488	36.57
559.83	36.83
560.171	37.08
560.513	37.33
560.854	37.55
561.196	37.8
561.537	38.05
561.878	38.29
562.22	38.54
562.561	38.79
562.902	39.02
563.243	39.26
563.584	39.47
563.925	39.68
564.266	39.88
564.607	40.09
564.948	40.28
565.289	40.48
565.63	40.67
565.971	40.87
566.312	41.05
566.653	41.26
566.993	41.44
567.334	41.63
567.675	41.81
568.015	41.99
568.356	42.17
568.696	42.34
569.037	42.51
569.377	42.67
569.718	42.84
570.058	43.01
570.398	43.18
570.739	43.35
571.079	43.52
571.419	43.68
571.759	43.83
572.099	43.99
572.439	44.12
572.779	44.27
573.119	44.4
573.459	44.54
573.799	44.64
574.139	44.75
574.479	44.87
574.819	44.98
575.158	45.08
575.498	45.17
575.838	45.3
576.177	45.4
576.517	45.49
576.856	45.57
577.196	45.68
577.535	45.78
577.875	45.87
578.214	45.94
578.553	46.02
578.893	46.13
579.232	46.21
579.571	46.31
579.91	46.4
580.25	46.49
580.589	46.57
580.928	46.66
581.267	46.75
581.606	46.84
581.945	46.92
582.283	47.02
582.622	47.14
582.961	47.23
583.3	47.34
583.639	47.43
583.977	47.55
584.316	47.65
584.654	47.75
584.993	47.86
585.332	47.97
585.67	48.05
586.008	48.14
586.347	48.23
586.685	48.31
587.024	48.42
587.362	48.5
587.7	48.62
588.038	48.72
588.376	48.82
588.715	48.91
589.053	49.02
589.391	49.12
589.729	49.17
590.067	49.26
590.404	49.35
590.742	49.45
591.08	49.54
591.418	49.61
591.756	49.69
592.093	49.78
592.431	49.88
592.769	49.99
593.106	50.07
593.444	50.18
593.781	50.27
594.119	50.36
594.456	50.44
594.793	50.51
595.131	50.59
595.468	50.66
595.805	50.73
596.143	50.76
596.48	50.82
596.817	50.91
597.154	50.93
597.491	50.97
597.828	51.03
598.165	51.07
598.502	51.11
598.839	51.18
599.176	51.21
599.512	51.26
599.849	51.34
600.186	51.43
600.523	51.46
600.859	51.52
601.196	51.57
601.532	51.66
601.869	51.71
602.205	51.76
602.542	51.81
602.878	51.87
603.215	51.94
603.551	51.97
603.887	52.01
604.223	52.09
604.56	52.12
604.896	52.16
605.232	52.24
605.568	52.3
605.904	52.34
606.24	52.39
606.576	52.43
606.912	52.47
607.248	52.48
607.583	52.54
607.919	52.56
608.255	52.59
608.591	52.6
608.926	52.62
609.262	52.66
609.597	52.68
609.933	52.7
610.268	52.75
610.604	52.78
610.939	52.82
611.275	52.85
611.61	52.9
611.945	52.92
612.281	52.92
612.616	52.94
612.951	52.99
613.286	53.02
613.621	53.06
613.956	53.07
614.291	53.11
614.626	53.11
614.961	53.16
615.296	53.22
615.631	53.27
615.966	53.33
616.3	53.35
616.635	53.39
616.97	53.42
617.304	53.43
617.639	53.47
617.973	53.5
618.308	53.52
618.642	53.54
618.977	53.56
619.311	53.57
619.646	53.6
619.98	53.58
620.314	53.61
620.648	53.62
620.983	53.67
621.317	53.7
621.651	53.75
621.985	53.77
622.319	53.74
622.653	53.76
622.987	53.8
623.321	53.83
623.655	53.86
623.988	53.91
624.322	53.95
624.656	53.98
624.99	54
625.323	54.03
625.657	54.09
625.99	54.14
626.324	54.17
626.657	54.22
626.991	54.27
627.324	54.29
627.658	54.33
627.991	54.33
628.324	54.34
628.657	54.38
628.991	54.43
629.324	54.5
629.657	54.52
629.99	54.51
630.323	54.53
630.656	54.54
630.989	54.55
631.322	54.58
631.655	54.61
631.987	54.62
632.32	54.66
632.653	54.66
632.986	54.67
633.318	54.69
633.651	54.71
633.984	54.72
634.316	54.75
634.649	54.77
634.981	54.81
635.313	54.83
635.646	54.84
635.978	54.88
636.31	54.89
636.643	54.9
636.975	54.94
637.307	54.98
637.639	55.01
637.971	55.03
638.303	55.05
638.635	55.06
638.967	55.11
639.299	55.09
639.631	55.1
639.963	55.14
640.295	55.17
640.626	55.19
640.958	55.22
641.29	55.22
641.621	55.23
641.953	55.25
642.285	55.28
642.616	55.31
642.948	55.3
643.279	55.31
643.61	55.33
643.942	55.33
644.273	55.35
644.604	55.38
644.936	55.39
645.267	55.4
645.598	55.45
645.929	55.49
646.26	55.52
646.591	55.55
646.922	55.56
647.253	55.58
647.584	55.57
647.915	55.63
648.245	55.68
648.576	55.71
648.907	55.72
649.238	55.74
649.568	55.75
649.899	55.76
650.229	55.8
650.56	55.81
650.89	55.85
651.221	55.9
651.551	55.95
651.882	56
652.212	56.04
652.542	56.03
652.872	56.03
653.203	56.06
653.533	56.11
653.863	56.12
654.193	56.16
654.523	56.19
654.853	56.2
655.183	56.19
655.513	56.22
655.843	56.25
656.172	56.29
656.502	56.33
656.832	56.36
657.162	56.36
657.491	56.42
657.821	56.39
658.15	56.41
658.48	56.42
658.809	56.41
659.139	56.42
659.468	56.45
659.798	56.46
660.127	56.47
660.456	56.43
660.785	56.45
661.115	56.49
661.444	56.51
661.773	56.51
662.102	56.56
662.431	56.55
662.76	56.6
663.089	56.6
663.418	56.58
663.747	56.56
664.076	56.56
664.404	56.57
664.733	56.61
665.062	56.6
665.39	56.6
665.719	56.63
666.048	56.62
666.376	56.64
666.705	56.65
667.033	56.66
667.362	56.71
667.69	56.77
668.018	56.73
668.347	56.73
668.675	56.75
669.003	56.74
669.331	56.8
