Data from UWBM59056_Reflection_00006.txt Node
Date: Sun May 02 13:44:33 EDT 2021
User: vgr7
Spectrometer: USB2G7710
Scans to average: 10
Trigger mode: 4
Integration Time (sec): 1.000000E-1
Electric dark correction enabled: true
Boxcar width: 20
XAxis mode: Wavelengths
Number of Pixels in Spectrum: 2048
>>>>>Begin Spectral Data<<<<<
177.721	118.18
178.105	134.22
178.488	159.34
178.871	172.31
179.254	153.4
179.636	79.41
180.019	66.92
180.402	57.88
180.785	52.41
181.168	49.55
181.55	44.34
181.933	45.62
182.316	39.39
182.698	32.94
183.081	30.21
183.463	23.29
183.846	18.18
184.228	21.13
184.611	19.43
184.993	18.62
185.376	21.6
185.758	22.88
186.14	23.02
186.522	16.98
186.904	18.45
187.287	17.88
187.669	20.69
188.051	22.61
188.433	22.18
188.815	20.15
189.197	18.2
189.579	18.02
189.961	16.85
190.342	13.6
190.724	14.76
191.106	15.04
191.488	16.6
191.869	10.9
192.251	8.58
192.633	7.25
193.014	4.45
193.396	0.02
193.777	1.16
194.159	-0.07
194.54	-1.31
194.922	-2.59
195.303	-2.13
195.684	-4.17
196.065	-5.71
196.447	-5.58
196.828	-6.44
197.209	-7.05
197.59	-10.58
197.971	-11.66
198.352	-9.99
198.733	-8.6
199.114	-6.82
199.495	-4.97
199.876	-7.56
200.257	-7
200.638	-8.74
201.018	-10.06
201.399	-10.16
201.78	-10.86
202.16	-8.77
202.541	-9.31
202.922	-10.36
203.302	-10.05
203.683	-9.22
204.063	-8.56
204.444	-7.8
204.824	-7.67
205.204	-10.71
205.585	-9.84
205.965	-7.6
206.345	-9.42
206.725	-9.2
207.106	-10.36
207.486	-9.07
207.866	-7.4
208.246	-8.34
208.626	-8.03
209.006	-6.35
209.386	-7.06
209.766	-7.29
210.145	-7.27
210.525	-5.57
210.905	-4.28
211.285	-5.17
211.664	-2.51
212.044	-3.09
212.424	-3.74
212.803	-4.16
213.183	-4
213.562	-2.93
213.942	-3.34
214.321	-3.96
214.701	-4.6
215.08	-5.24
215.459	-3.83
215.838	-5.5
216.218	-5.23
216.597	-5.99
216.976	-5.23
217.355	-5.84
217.734	-7.23
218.113	-7.1
218.492	-6.62
218.871	-7.18
219.25	-8.21
219.629	-8.35
220.008	-8.73
220.387	-8.93
220.766	-6.13
221.144	-6.89
221.523	-7.08
221.902	-6.09
222.28	-6.39
222.659	-4.9
223.037	-4.22
223.416	-3.23
223.794	-2.49
224.173	-2.11
224.551	-2.27
224.929	-1.21
225.308	-0.83
225.686	-0.35
226.064	-0.76
226.442	-1.13
226.821	0.11
227.199	0.24
227.577	0.2
227.955	0.89
228.333	1.23
228.711	1.14
229.089	0.94
229.467	0.92
229.845	0.82
230.222	1.13
230.6	1.41
230.978	1.29
231.356	2.11
231.733	2.32
232.111	2.55
232.488	2.47
232.866	2.71
233.243	2.67
233.621	2.71
233.998	2.91
234.376	3.02
234.753	3.05
235.13	3.21
235.508	3.43
235.885	3.49
236.262	3.29
236.639	3.38
237.016	3.44
237.393	3.53
237.77	3.59
238.147	3.6
238.524	3.61
238.901	3.53
239.278	3.6
239.655	3.73
240.032	3.81
240.409	3.79
240.785	3.87
241.162	3.91
241.539	3.91
241.915	3.96
242.292	3.96
242.668	3.91
243.045	3.92
243.421	3.89
243.798	3.9
244.174	4.01
244.551	4.04
244.927	4.04
245.303	4.05
245.679	4.05
246.056	3.99
246.432	4.01
246.808	3.94
247.184	3.95
247.56	3.98
247.936	3.99
248.312	3.95
248.688	3.97
249.064	3.99
249.44	3.97
249.815	3.95
250.191	3.92
250.567	3.94
250.943	3.93
251.318	3.91
251.694	3.95
252.069	3.96
252.445	3.95
252.82	3.92
253.196	3.91
253.571	3.9
253.947	3.9
254.322	3.91
254.697	3.91
255.073	3.89
255.448	3.91
255.823	3.88
256.198	3.85
256.573	3.83
256.948	3.84
257.323	3.83
257.698	3.79
258.073	3.77
258.448	3.77
258.823	3.76
259.198	3.73
259.573	3.69
259.948	3.7
260.322	3.7
260.697	3.69
261.072	3.67
261.446	3.7
261.821	3.7
262.195	3.71
262.57	3.7
262.944	3.68
263.319	3.68
263.693	3.68
264.067	3.66
264.442	3.64
264.816	3.62
265.19	3.64
265.564	3.65
265.938	3.63
266.313	3.64
266.687	3.63
267.061	3.65
267.435	3.64
267.809	3.63
268.183	3.64
268.556	3.65
268.93	3.66
269.304	3.66
269.678	3.64
270.051	3.61
270.425	3.57
270.799	3.55
271.172	3.57
271.546	3.59
271.919	3.57
272.293	3.56
272.666	3.56
273.04	3.58
273.413	3.6
273.787	3.61
274.16	3.59
274.533	3.61
274.906	3.62
275.279	3.61
275.653	3.6
276.026	3.61
276.399	3.62
276.772	3.61
277.145	3.58
277.518	3.6
277.891	3.61
278.263	3.61
278.636	3.61
279.009	3.63
279.382	3.63
279.755	3.66
280.127	3.67
280.5	3.67
280.872	3.67
281.245	3.68
281.617	3.67
281.99	3.68
282.362	3.65
282.735	3.65
283.107	3.64
283.479	3.62
283.852	3.62
284.224	3.62
284.596	3.61
284.968	3.62
285.34	3.64
285.713	3.66
286.085	3.66
286.457	3.65
286.829	3.63
287.201	3.64
287.572	3.63
287.944	3.63
288.316	3.6
288.688	3.59
289.06	3.6
289.431	3.6
289.803	3.6
290.175	3.59
290.546	3.61
290.918	3.62
291.289	3.63
291.661	3.63
292.032	3.63
292.403	3.65
292.775	3.63
293.146	3.64
293.517	3.64
293.889	3.65
294.26	3.66
294.631	3.66
295.002	3.67
295.373	3.67
295.744	3.67
296.115	3.68
296.486	3.7
296.857	3.7
297.228	3.71
297.599	3.72
297.97	3.72
298.34	3.72
298.711	3.73
299.082	3.74
299.452	3.74
299.823	3.73
300.194	3.74
300.564	3.74
300.935	3.73
301.305	3.74
301.676	3.73
302.046	3.75
302.416	3.74
302.787	3.74
303.157	3.75
303.527	3.77
303.897	3.76
304.267	3.75
304.637	3.76
305.008	3.78
305.378	3.78
305.748	3.76
306.117	3.76
306.487	3.76
306.857	3.76
307.227	3.76
307.597	3.75
307.967	3.74
308.336	3.73
308.706	3.72
309.076	3.7
309.445	3.68
309.815	3.67
310.184	3.67
310.554	3.64
310.923	3.64
311.293	3.63
311.662	3.6
312.031	3.58
312.401	3.58
312.77	3.57
313.139	3.57
313.508	3.57
313.877	3.57
314.246	3.56
314.616	3.56
314.985	3.56
315.353	3.56
315.722	3.54
316.091	3.55
316.46	3.54
316.829	3.54
317.198	3.53
317.567	3.53
317.935	3.52
318.304	3.52
318.672	3.51
319.041	3.53
319.41	3.52
319.778	3.53
320.147	3.51
320.515	3.51
320.883	3.49
321.252	3.47
321.62	3.46
321.988	3.47
322.357	3.47
322.725	3.47
323.093	3.47
323.461	3.47
323.829	3.49
324.197	3.5
324.565	3.5
324.933	3.5
325.301	3.5
325.669	3.51
326.037	3.5
326.405	3.51
326.772	3.5
327.14	3.51
327.508	3.5
327.875	3.51
328.243	3.5
328.61	3.48
328.978	3.47
329.346	3.48
329.713	3.48
330.08	3.49
330.448	3.47
330.815	3.47
331.182	3.46
331.55	3.46
331.917	3.44
332.284	3.42
332.651	3.42
333.018	3.43
333.385	3.43
333.752	3.43
334.119	3.43
334.486	3.44
334.853	3.42
335.22	3.43
335.587	3.42
335.954	3.43
336.32	3.43
336.687	3.43
337.054	3.42
337.42	3.43
337.787	3.41
338.153	3.42
338.52	3.41
338.886	3.4
339.253	3.4
339.619	3.4
339.986	3.41
340.352	3.42
340.718	3.41
341.084	3.41
341.451	3.41
341.817	3.41
342.183	3.41
342.549	3.41
342.915	3.41
343.281	3.42
343.647	3.42
344.013	3.42
344.379	3.42
344.745	3.42
345.11	3.41
345.476	3.42
345.842	3.43
346.208	3.44
346.573	3.44
346.939	3.45
347.304	3.48
347.67	3.48
348.035	3.48
348.401	3.48
348.766	3.48
349.132	3.47
349.497	3.47
349.862	3.48
350.228	3.47
350.593	3.48
350.958	3.49
351.323	3.5
351.688	3.5
352.053	3.49
352.418	3.49
352.783	3.48
353.148	3.49
353.513	3.49
353.878	3.49
354.243	3.5
354.608	3.5
354.972	3.5
355.337	3.5
355.702	3.5
356.066	3.51
356.431	3.51
356.795	3.51
357.16	3.5
357.524	3.51
357.889	3.51
358.253	3.5
358.618	3.5
358.982	3.5
359.346	3.5
359.71	3.5
360.075	3.51
360.439	3.51
360.803	3.51
361.167	3.51
361.531	3.5
361.895	3.5
362.259	3.5
362.623	3.5
362.987	3.5
363.351	3.5
363.714	3.5
364.078	3.5
364.442	3.49
364.806	3.49
365.169	3.5
365.533	3.5
365.896	3.49
366.26	3.49
366.623	3.5
366.987	3.5
367.35	3.51
367.714	3.52
368.077	3.52
368.44	3.52
368.803	3.52
369.167	3.52
369.53	3.51
369.893	3.51
370.256	3.51
370.619	3.52
370.982	3.52
371.345	3.52
371.708	3.52
372.071	3.52
372.434	3.52
372.797	3.53
373.159	3.54
373.522	3.55
373.885	3.55
374.247	3.55
374.61	3.54
374.973	3.53
375.335	3.54
375.698	3.53
376.06	3.54
376.423	3.54
376.785	3.54
377.147	3.54
377.51	3.55
377.872	3.55
378.234	3.55
378.596	3.55
378.958	3.55
379.321	3.56
379.683	3.56
380.045	3.55
380.407	3.56
380.769	3.56
381.13	3.56
381.492	3.56
381.854	3.56
382.216	3.55
382.578	3.56
382.939	3.56
383.301	3.56
383.663	3.55
384.024	3.56
384.386	3.57
384.747	3.57
385.109	3.57
385.47	3.57
385.832	3.56
386.193	3.56
386.554	3.56
386.916	3.56
387.277	3.56
387.638	3.56
387.999	3.56
388.36	3.55
388.721	3.55
389.082	3.56
389.443	3.56
389.804	3.57
390.165	3.57
390.526	3.57
390.887	3.57
391.248	3.58
391.609	3.58
391.969	3.57
392.33	3.57
392.691	3.57
393.051	3.57
393.412	3.57
393.772	3.57
394.133	3.57
394.493	3.57
394.854	3.57
395.214	3.56
395.574	3.56
395.935	3.57
396.295	3.56
396.655	3.56
397.015	3.57
397.376	3.56
397.736	3.57
398.096	3.57
398.456	3.56
398.816	3.57
399.176	3.56
399.535	3.57
399.895	3.57
400.255	3.57
400.615	3.57
400.975	3.58
401.334	3.58
401.694	3.58
402.054	3.58
402.413	3.59
402.773	3.58
403.132	3.59
403.492	3.59
403.851	3.59
404.211	3.59
404.57	3.59
404.929	3.59
405.288	3.59
405.648	3.59
406.007	3.59
406.366	3.59
406.725	3.59
407.084	3.59
407.443	3.59
407.802	3.6
408.161	3.6
408.52	3.6
408.879	3.6
409.238	3.61
409.596	3.61
409.955	3.62
410.314	3.62
410.673	3.62
411.031	3.62
411.39	3.63
411.748	3.64
412.107	3.65
412.465	3.65
412.824	3.68
413.182	3.7
413.54	3.72
413.899	3.75
414.257	3.78
414.615	3.82
414.974	3.84
415.332	3.88
415.69	3.91
416.048	3.94
416.406	3.98
416.764	4.01
417.122	4.03
417.48	4.06
417.838	4.09
418.195	4.12
418.553	4.14
418.911	4.15
419.269	4.16
419.626	4.16
419.984	4.16
420.342	4.14
420.699	4.13
421.057	4.12
421.414	4.1
421.772	4.09
422.129	4.09
422.486	4.09
422.844	4.09
423.201	4.09
423.558	4.09
423.915	4.09
424.273	4.09
424.63	4.09
424.987	4.1
425.344	4.1
425.701	4.1
426.058	4.1
426.415	4.1
426.772	4.1
427.128	4.1
427.485	4.09
427.842	4.08
428.199	4.07
428.555	4.06
428.912	4.04
429.269	4.01
429.625	4
429.982	3.97
430.338	3.95
430.695	3.93
431.051	3.9
431.407	3.88
431.764	3.86
432.12	3.85
432.476	3.83
432.832	3.82
433.189	3.83
433.545	3.83
433.901	3.84
434.257	3.86
434.613	3.89
434.969	3.91
435.325	3.94
435.681	3.98
436.036	3.99
436.392	4.02
436.748	4.03
437.104	4.03
437.459	4.05
437.815	4.06
438.171	4.08
438.526	4.11
438.882	4.13
439.237	4.17
439.593	4.2
439.948	4.23
440.304	4.26
440.659	4.29
441.014	4.3
441.369	4.33
441.725	4.34
442.08	4.36
442.435	4.37
442.79	4.38
443.145	4.38
443.5	4.38
443.855	4.38
444.21	4.38
444.565	4.38
444.92	4.37
445.275	4.36
445.629	4.36
445.984	4.35
446.339	4.34
446.693	4.33
447.048	4.32
447.403	4.31
447.757	4.28
448.112	4.27
448.466	4.24
448.82	4.22
449.175	4.2
449.529	4.19
449.883	4.17
450.238	4.15
450.592	4.15
450.946	4.14
451.3	4.14
451.654	4.15
452.008	4.15
452.362	4.16
452.716	4.16
453.07	4.16
453.424	4.15
453.778	4.15
454.132	4.14
454.486	4.13
454.839	4.11
455.193	4.09
455.547	4.08
455.9	4.06
456.254	4.04
456.607	4.01
456.961	3.99
457.314	3.97
457.668	3.96
458.021	3.96
458.375	3.95
458.728	3.95
459.081	3.96
459.434	3.97
459.787	3.98
460.141	3.99
460.494	3.99
460.847	4
461.2	4.01
461.553	4.01
461.906	4.02
462.259	4.02
462.611	4.02
462.964	4.03
463.317	4.04
463.67	4.04
464.022	4.04
464.375	4.05
464.728	4.05
465.08	4.05
465.433	4.05
465.785	4.05
466.138	4.04
466.49	4.02
466.843	4
467.195	3.98
467.547	3.96
467.899	3.94
468.252	3.92
468.604	3.9
468.956	3.88
469.308	3.86
469.66	3.86
470.012	3.85
470.364	3.86
470.716	3.86
471.068	3.88
471.42	3.9
471.772	3.92
472.123	3.92
472.475	3.94
472.827	3.94
473.178	3.95
473.53	3.96
473.882	3.97
474.233	3.99
474.585	4.02
474.936	4.08
475.288	4.16
475.639	4.27
475.99	4.39
476.342	4.53
476.693	4.69
477.044	4.85
477.395	5.01
477.746	5.17
478.097	5.34
478.448	5.5
478.8	5.67
479.15	5.82
479.501	5.96
479.852	6.1
480.203	6.22
480.554	6.34
480.905	6.45
481.255	6.56
481.606	6.66
481.957	6.76
482.307	6.85
482.658	6.94
483.009	7.02
483.359	7.1
483.709	7.18
484.06	7.25
484.41	7.33
484.761	7.4
485.111	7.46
485.461	7.53
485.811	7.59
486.162	7.65
486.512	7.69
486.862	7.73
487.212	7.76
487.562	7.77
487.912	7.79
488.262	7.79
488.612	7.79
488.961	7.77
489.311	7.73
489.661	7.67
490.011	7.58
490.36	7.48
490.71	7.37
491.06	7.24
491.409	7.11
491.759	6.96
492.108	6.82
492.458	6.66
492.807	6.51
493.157	6.35
493.506	6.2
493.855	6.06
494.204	5.92
494.554	5.79
494.903	5.67
495.252	5.56
495.601	5.44
495.95	5.33
496.299	5.23
496.648	5.14
496.997	5.05
497.346	4.97
497.695	4.88
498.043	4.8
498.392	4.73
498.741	4.65
499.09	4.58
499.438	4.51
499.787	4.44
500.135	4.38
500.484	4.32
500.832	4.27
501.181	4.24
501.529	4.22
501.878	4.2
502.226	4.19
502.574	4.19
502.923	4.19
503.271	4.19
503.619	4.19
503.967	4.18
504.315	4.18
504.663	4.18
505.011	4.17
505.359	4.16
505.707	4.16
506.055	4.16
506.403	4.16
506.751	4.16
507.098	4.17
507.446	4.17
507.794	4.18
508.141	4.19
508.489	4.21
508.837	4.22
509.184	4.23
509.531	4.24
509.879	4.26
510.226	4.27
510.574	4.28
510.921	4.3
511.268	4.31
511.616	4.33
511.963	4.35
512.31	4.37
512.657	4.39
513.004	4.4
513.351	4.42
513.698	4.43
514.045	4.43
514.392	4.44
514.739	4.44
515.086	4.43
515.432	4.43
515.779	4.42
516.126	4.42
516.473	4.42
516.819	4.42
517.166	4.43
517.512	4.44
517.859	4.45
518.205	4.46
518.552	4.49
518.898	4.52
519.245	4.55
519.591	4.61
519.937	4.68
520.283	4.76
520.629	4.86
520.976	4.97
521.322	5.08
521.668	5.19
522.014	5.31
522.36	5.42
522.706	5.53
523.052	5.64
523.398	5.74
523.743	5.83
524.089	5.91
524.435	5.97
524.781	6.04
525.126	6.09
525.472	6.15
525.817	6.2
526.163	6.24
526.509	6.29
526.854	6.33
527.199	6.37
527.545	6.42
527.89	6.47
528.235	6.51
528.581	6.56
528.926	6.6
529.271	6.64
529.616	6.67
529.961	6.7
530.306	6.73
530.651	6.75
530.996	6.76
531.341	6.77
531.686	6.78
532.031	6.78
532.376	6.79
532.721	6.79
533.065	6.8
533.41	6.8
533.755	6.8
534.099	6.78
534.444	6.76
534.788	6.73
535.133	6.69
535.477	6.64
535.822	6.59
536.166	6.54
536.51	6.47
536.855	6.4
537.199	6.32
537.543	6.25
537.887	6.18
538.231	6.12
538.576	6.07
538.92	6.01
539.264	5.96
539.608	5.9
539.951	5.84
540.295	5.78
540.639	5.72
540.983	5.66
541.327	5.59
541.671	5.53
542.014	5.47
542.358	5.42
542.701	5.38
543.045	5.35
543.389	5.32
543.732	5.3
544.075	5.29
544.419	5.27
544.762	5.26
545.105	5.25
545.449	5.24
545.792	5.23
546.135	5.22
546.478	5.2
546.821	5.18
547.165	5.16
547.508	5.12
547.851	5.07
548.194	5.02
548.536	4.97
548.879	4.9
549.222	4.84
549.565	4.77
549.908	4.7
550.25	4.64
550.593	4.58
550.936	4.54
551.278	4.5
551.621	4.47
551.963	4.44
552.306	4.42
552.648	4.4
552.991	4.38
553.333	4.37
553.675	4.36
554.017	4.36
554.36	4.36
554.702	4.37
555.044	4.38
555.386	4.39
555.728	4.41
556.07	4.42
556.412	4.44
556.754	4.44
557.096	4.44
557.438	4.43
557.78	4.43
558.121	4.43
558.463	4.43
558.805	4.43
559.147	4.44
559.488	4.44
559.83	4.44
560.171	4.44
560.513	4.45
560.854	4.45
561.196	4.45
561.537	4.45
561.878	4.45
562.22	4.45
562.561	4.45
562.902	4.45
563.243	4.44
563.584	4.44
563.925	4.45
564.266	4.45
564.607	4.45
564.948	4.45
565.289	4.46
565.63	4.46
565.971	4.46
566.312	4.47
566.653	4.47
566.993	4.48
567.334	4.48
567.675	4.49
568.015	4.49
568.356	4.49
568.696	4.49
569.037	4.49
569.377	4.49
569.718	4.49
570.058	4.49
570.398	4.5
570.739	4.5
571.079	4.5
571.419	4.5
571.759	4.5
572.099	4.5
572.439	4.5
572.779	4.5
573.119	4.5
573.459	4.5
573.799	4.5
574.139	4.5
574.479	4.5
574.819	4.5
575.158	4.5
575.498	4.5
575.838	4.5
576.177	4.5
576.517	4.51
576.856	4.51
577.196	4.51
577.535	4.51
577.875	4.51
578.214	4.51
578.553	4.51
578.893	4.51
579.232	4.51
579.571	4.51
579.91	4.51
580.25	4.51
580.589	4.51
580.928	4.5
581.267	4.5
581.606	4.5
581.945	4.5
582.283	4.5
582.622	4.51
582.961	4.51
583.3	4.51
583.639	4.51
583.977	4.51
584.316	4.51
584.654	4.51
584.993	4.52
585.332	4.52
585.67	4.53
586.008	4.52
586.347	4.52
586.685	4.53
587.024	4.53
587.362	4.53
587.7	4.53
588.038	4.54
588.376	4.54
588.715	4.54
589.053	4.54
589.391	4.55
589.729	4.55
590.067	4.55
590.404	4.56
590.742	4.56
591.08	4.56
591.418	4.57
591.756	4.57
592.093	4.58
592.431	4.58
592.769	4.58
593.106	4.58
593.444	4.59
593.781	4.58
594.119	4.58
594.456	4.58
594.793	4.58
595.131	4.58
595.468	4.58
595.805	4.59
596.143	4.59
596.48	4.59
596.817	4.59
597.154	4.59
597.491	4.6
597.828	4.6
598.165	4.6
598.502	4.61
598.839	4.61
599.176	4.61
599.512	4.62
599.849	4.62
600.186	4.62
600.523	4.62
600.859	4.62
601.196	4.63
601.532	4.63
601.869	4.63
602.205	4.63
602.542	4.63
602.878	4.64
603.215	4.64
603.551	4.64
603.887	4.64
604.223	4.65
604.56	4.65
604.896	4.65
605.232	4.65
605.568	4.65
605.904	4.66
606.24	4.65
606.576	4.66
606.912	4.66
607.248	4.65
607.583	4.66
607.919	4.66
608.255	4.67
608.591	4.67
608.926	4.67
609.262	4.67
609.597	4.67
609.933	4.67
610.268	4.67
610.604	4.67
610.939	4.67
611.275	4.67
611.61	4.67
611.945	4.67
612.281	4.66
612.616	4.66
612.951	4.66
613.286	4.66
613.621	4.66
613.956	4.66
614.291	4.66
614.626	4.66
614.961	4.67
615.296	4.67
615.631	4.67
615.966	4.67
616.3	4.67
616.635	4.67
616.97	4.67
617.304	4.67
617.639	4.67
617.973	4.66
618.308	4.66
618.642	4.66
618.977	4.66
619.311	4.66
619.646	4.66
619.98	4.66
620.314	4.67
620.648	4.67
620.983	4.68
621.317	4.69
621.651	4.69
621.985	4.69
622.319	4.7
622.653	4.7
622.987	4.71
623.321	4.72
623.655	4.72
623.988	4.73
624.322	4.74
624.656	4.74
624.99	4.74
625.323	4.75
625.657	4.75
625.99	4.75
626.324	4.76
626.657	4.75
626.991	4.76
627.324	4.76
627.658	4.76
627.991	4.76
628.324	4.77
628.657	4.77
628.991	4.78
629.324	4.78
629.657	4.78
629.99	4.79
630.323	4.79
630.656	4.79
630.989	4.8
631.322	4.8
631.655	4.81
631.987	4.82
632.32	4.81
632.653	4.81
632.986	4.82
633.318	4.82
633.651	4.83
633.984	4.83
634.316	4.83
634.649	4.83
634.981	4.83
635.313	4.83
635.646	4.83
635.978	4.83
636.31	4.84
636.643	4.85
636.975	4.85
637.307	4.85
637.639	4.85
637.971	4.86
638.303	4.86
638.635	4.86
638.967	4.86
639.299	4.86
639.631	4.87
639.963	4.87
640.295	4.88
640.626	4.88
640.958	4.89
641.29	4.9
641.621	4.9
641.953	4.9
642.285	4.9
642.616	4.91
642.948	4.92
643.279	4.92
643.61	4.93
643.942	4.94
644.273	4.94
644.604	4.96
644.936	4.95
645.267	4.95
645.598	4.95
645.929	4.95
646.26	4.96
646.591	4.96
646.922	4.97
647.253	4.97
647.584	4.98
647.915	4.98
648.245	4.98
648.576	4.99
648.907	4.99
649.238	4.99
649.568	4.99
649.899	4.99
650.229	4.98
650.56	4.98
650.89	4.99
651.221	4.99
651.551	4.99
651.882	5
652.212	5
652.542	5.01
652.872	5.01
653.203	5.02
653.533	5.02
653.863	5.02
654.193	5.03
654.523	5.03
654.853	5.04
655.183	5.04
655.513	5.05
655.843	5.05
656.172	5.05
656.502	5.06
656.832	5.06
657.162	5.07
657.491	5.07
657.821	5.07
658.15	5.07
658.48	5.08
658.809	5.08
659.139	5.08
659.468	5.09
659.798	5.1
660.127	5.11
660.456	5.11
660.785	5.12
661.115	5.12
661.444	5.13
661.773	5.14
662.102	5.14
662.431	5.14
662.76	5.15
663.089	5.15
663.418	5.17
663.747	5.18
664.076	5.19
664.404	5.19
664.733	5.2
665.062	5.21
665.39	5.22
665.719	5.22
666.048	5.23
666.376	5.24
666.705	5.24
667.033	5.25
667.362	5.26
667.69	5.26
668.018	5.26
668.347	5.26
668.675	5.27
669.003	5.27
669.331	5.27
669.659	5.27
669.987	5.27
670.315	5.28
670.643	5.28
670.971	5.29
671.299	5.29
671.627	5.29
671.955	5.29
672.283	5.3
672.61	5.3
672.938	5.31
673.266	5.31
673.593	5.3
673.921	5.3
674.249	5.31
674.576	5.32
674.904	5.32
675.231	5.32
675.558	5.32
675.886	5.33
676.213	5.33
676.54	5.33
676.867	5.32
677.195	5.32
677.522	5.33
677.849	5.33
678.176	5.33
678.503	5.33
678.83	5.33
679.157	5.33
679.484	5.34
679.81	5.34
680.137	5.34
680.464	5.35
680.791	5.36
