Data from UWBM55954_Reflection_00011.txt Node
Date: Sun May 02 13:51:49 EDT 2021
User: vgr7
Spectrometer: USB2G7710
Scans to average: 10
Trigger mode: 4
Integration Time (sec): 1.000000E-1
Electric dark correction enabled: true
Boxcar width: 20
XAxis mode: Wavelengths
Number of Pixels in Spectrum: 2048
>>>>>Begin Spectral Data<<<<<
177.721	101.05
178.105	125.65
178.488	93.7
178.871	87.69
179.254	80.94
179.636	68.87
180.019	51.64
180.402	47.32
180.785	43.91
181.168	40.77
181.55	38.54
181.933	39.31
182.316	41.35
182.698	42.63
183.081	37.28
183.463	35.59
183.846	33.77
184.228	32.81
184.611	32.03
184.993	29.98
185.376	31.16
185.758	30.77
186.14	30.51
186.522	27.87
186.904	25.33
187.287	24.84
187.669	25.61
188.051	26.48
188.433	21.03
188.815	16.89
189.197	19.13
189.579	20.96
189.961	22.14
190.342	22.76
190.724	22.61
191.106	21.66
191.488	21.18
191.869	19.96
192.251	19.16
192.633	16.67
193.014	17.17
193.396	15.27
193.777	15.76
194.159	15.44
194.54	14.61
194.922	14.22
195.303	12.88
195.684	12.61
196.065	11.92
196.447	11.98
196.828	10.57
197.209	8.94
197.59	6.81
197.971	6.31
198.352	5.36
198.733	7.57
199.114	7.36
199.495	9.4
199.876	7.71
200.257	7.95
200.638	7.18
201.018	7.61
201.399	10.65
201.78	10.74
202.16	9.59
202.541	8.05
202.922	5.96
203.302	5.55
203.683	5.22
204.063	6.77
204.444	7.51
204.824	7.14
205.204	6.37
205.585	6.09
205.965	6.66
206.345	7.5
206.725	7.27
207.106	7.44
207.486	6.69
207.866	7.06
208.246	8.37
208.626	7.49
209.006	9.34
209.386	9.66
209.766	8.29
210.145	8.5
210.525	8.71
210.905	10.32
211.285	9.33
211.664	9.58
212.044	8.48
212.424	8.97
212.803	9.53
213.183	9.78
213.562	10.94
213.942	10.53
214.321	9.71
214.701	9.28
215.08	9.03
215.459	10.23
215.838	9.49
216.218	10.18
216.597	9.18
216.976	8.26
217.355	8.36
217.734	9.11
218.113	10.05
218.492	10.44
218.871	9.91
219.25	10.68
219.629	10.9
220.008	10.65
220.387	10.68
220.766	11.65
221.144	11.91
221.523	11.67
221.902	11.26
222.28	11.02
222.659	11.51
223.037	11.95
223.416	12.45
223.794	12.06
224.173	11.77
224.551	10.27
224.929	10.58
225.308	10.58
225.686	10.77
226.064	10.6
226.442	10.17
226.821	10.52
227.199	10.42
227.577	10.39
227.955	10.27
228.333	10.53
228.711	9.94
229.089	9.23
229.467	9.29
229.845	9.04
230.222	8.89
230.6	8.22
230.978	8.01
231.356	8.16
231.733	8.22
232.111	7.85
232.488	7.2
232.866	6.71
233.243	6.54
233.621	6.55
233.998	6.65
234.376	6.71
234.753	6.37
235.13	6.33
235.508	6.35
235.885	6.13
236.262	6.04
236.639	5.86
237.016	5.78
237.393	5.75
237.77	5.76
238.147	5.58
238.524	5.48
238.901	5.26
239.278	5.24
239.655	5.19
240.032	5.2
240.409	5.11
240.785	5.12
241.162	5.05
241.539	5.01
241.915	5.01
242.292	5
242.668	4.94
243.045	4.95
243.421	4.93
243.798	4.88
244.174	4.93
244.551	4.93
244.927	4.92
245.303	4.94
245.679	4.97
246.056	4.94
246.432	4.95
246.808	4.91
247.184	4.87
247.56	4.91
247.936	4.93
248.312	4.95
248.688	4.95
249.064	4.93
249.44	4.88
249.815	4.84
250.191	4.81
250.567	4.8
250.943	4.76
251.318	4.74
251.694	4.73
252.069	4.72
252.445	4.71
252.82	4.66
253.196	4.63
253.571	4.62
253.947	4.6
254.322	4.59
254.697	4.58
255.073	4.55
255.448	4.54
255.823	4.51
256.198	4.5
256.573	4.48
256.948	4.46
257.323	4.42
257.698	4.37
258.073	4.37
258.448	4.35
258.823	4.33
259.198	4.32
259.573	4.29
259.948	4.28
260.322	4.27
260.697	4.25
261.072	4.23
261.446	4.22
261.821	4.19
262.195	4.18
262.57	4.17
262.944	4.15
263.319	4.16
263.693	4.16
264.067	4.15
264.442	4.14
264.816	4.12
265.19	4.12
265.564	4.13
265.938	4.12
266.313	4.12
266.687	4.11
267.061	4.11
267.435	4.11
267.809	4.09
268.183	4.08
268.556	4.08
268.93	4.07
269.304	4.07
269.678	4.07
270.051	4.06
270.425	4.05
270.799	4.04
271.172	4.04
271.546	4.04
271.919	4.05
272.293	4.04
272.666	4.05
273.04	4.08
273.413	4.12
273.787	4.12
274.16	4.14
274.533	4.14
274.906	4.15
275.279	4.15
275.653	4.15
276.026	4.16
276.399	4.15
276.772	4.17
277.145	4.17
277.518	4.18
277.891	4.19
278.263	4.18
278.636	4.18
279.009	4.16
279.382	4.17
279.755	4.16
280.127	4.19
280.5	4.21
280.872	4.22
281.245	4.22
281.617	4.22
281.99	4.24
282.362	4.23
282.735	4.22
283.107	4.23
283.479	4.24
283.852	4.25
284.224	4.25
284.596	4.24
284.968	4.24
285.34	4.25
285.713	4.25
286.085	4.27
286.457	4.29
286.829	4.29
287.201	4.31
287.572	4.32
287.944	4.33
288.316	4.32
288.688	4.31
289.06	4.34
289.431	4.35
289.803	4.37
290.175	4.39
290.546	4.41
290.918	4.44
291.289	4.46
291.661	4.48
292.032	4.5
292.403	4.51
292.775	4.53
293.146	4.56
293.517	4.57
293.889	4.6
294.26	4.65
294.631	4.69
295.002	4.72
295.373	4.74
295.744	4.75
296.115	4.78
296.486	4.81
296.857	4.84
297.228	4.85
297.599	4.88
297.97	4.91
298.34	4.94
298.711	4.97
299.082	4.99
299.452	5.03
299.823	5.07
300.194	5.11
300.564	5.15
300.935	5.19
301.305	5.23
301.676	5.26
302.046	5.3
302.416	5.33
302.787	5.36
303.157	5.4
303.527	5.45
303.897	5.48
304.267	5.52
304.637	5.56
305.008	5.6
305.378	5.64
305.748	5.68
306.117	5.7
306.487	5.76
306.857	5.81
307.227	5.85
307.597	5.91
307.967	5.96
308.336	5.98
308.706	6.03
309.076	6.04
309.445	6.06
309.815	6.09
310.184	6.12
310.554	6.15
310.923	6.19
311.293	6.22
311.662	6.25
312.031	6.28
312.401	6.34
312.77	6.38
313.139	6.42
313.508	6.46
313.877	6.5
314.246	6.54
314.616	6.57
314.985	6.61
315.353	6.66
315.722	6.69
316.091	6.72
316.46	6.74
316.829	6.78
317.198	6.83
317.567	6.86
317.935	6.92
318.304	6.97
318.672	7.02
319.041	7.09
319.41	7.12
319.778	7.17
320.147	7.19
320.515	7.23
320.883	7.26
321.252	7.31
321.62	7.33
321.988	7.36
322.357	7.4
322.725	7.44
323.093	7.47
323.461	7.5
323.829	7.55
324.197	7.6
324.565	7.63
324.933	7.66
325.301	7.68
325.669	7.72
326.037	7.75
326.405	7.8
326.772	7.82
327.14	7.85
327.508	7.85
327.875	7.88
328.243	7.91
328.61	7.92
328.978	7.93
329.346	7.96
329.713	7.99
330.08	8.02
330.448	8.03
330.815	8.04
331.182	8.06
331.55	8.1
331.917	8.11
332.284	8.11
332.651	8.13
333.018	8.17
333.385	8.18
333.752	8.21
334.119	8.22
334.486	8.25
334.853	8.26
335.22	8.29
335.587	8.31
335.954	8.33
336.32	8.36
336.687	8.38
337.054	8.4
337.42	8.42
337.787	8.44
338.153	8.45
338.52	8.48
338.886	8.49
339.253	8.5
339.619	8.53
339.986	8.54
340.352	8.57
340.718	8.58
341.084	8.59
341.451	8.6
341.817	8.62
342.183	8.64
342.549	8.67
342.915	8.68
343.281	8.69
343.647	8.7
344.013	8.72
344.379	8.73
344.745	8.73
345.11	8.75
345.476	8.76
345.842	8.79
346.208	8.8
346.573	8.79
346.939	8.8
347.304	8.82
347.67	8.82
348.035	8.81
348.401	8.82
348.766	8.82
349.132	8.82
349.497	8.82
349.862	8.83
350.228	8.84
350.593	8.85
350.958	8.85
351.323	8.84
351.688	8.84
352.053	8.84
352.418	8.84
352.783	8.82
353.148	8.81
353.513	8.8
353.878	8.78
354.243	8.77
354.608	8.76
354.972	8.75
355.337	8.73
355.702	8.72
356.066	8.7
356.431	8.68
356.795	8.66
357.16	8.63
357.524	8.61
357.889	8.59
358.253	8.56
358.618	8.55
358.982	8.52
359.346	8.49
359.71	8.47
360.075	8.46
360.439	8.43
360.803	8.4
361.167	8.38
361.531	8.37
361.895	8.34
362.259	8.31
362.623	8.28
362.987	8.25
363.351	8.22
363.714	8.18
364.078	8.15
364.442	8.13
364.806	8.09
365.169	8.05
365.533	8
365.896	7.97
366.26	7.93
366.623	7.9
366.987	7.84
367.35	7.8
367.714	7.76
368.077	7.73
368.44	7.69
368.803	7.65
369.167	7.59
369.53	7.54
369.893	7.49
370.256	7.44
370.619	7.38
370.982	7.33
371.345	7.27
371.708	7.22
372.071	7.17
372.434	7.12
372.797	7.08
373.159	7.03
373.522	6.99
373.885	6.94
374.247	6.9
374.61	6.84
374.973	6.79
375.335	6.74
375.698	6.69
376.06	6.64
376.423	6.59
376.785	6.54
377.147	6.5
377.51	6.45
377.872	6.41
378.234	6.36
378.596	6.31
378.958	6.27
379.321	6.23
379.683	6.19
380.045	6.14
380.407	6.11
380.769	6.07
381.13	6.03
381.492	5.99
381.854	5.96
382.216	5.92
382.578	5.88
382.939	5.84
383.301	5.81
383.663	5.77
384.024	5.74
384.386	5.7
384.747	5.67
385.109	5.64
385.47	5.61
385.832	5.57
386.193	5.54
386.554	5.51
386.916	5.48
387.277	5.45
387.638	5.41
387.999	5.39
388.36	5.36
388.721	5.33
389.082	5.3
389.443	5.28
389.804	5.25
390.165	5.23
390.526	5.2
390.887	5.17
391.248	5.15
391.609	5.13
391.969	5.1
392.33	5.08
392.691	5.06
393.051	5.04
393.412	5.01
393.772	4.98
394.133	4.95
394.493	4.92
394.854	4.9
395.214	4.87
395.574	4.85
395.935	4.83
396.295	4.8
396.655	4.78
397.015	4.75
397.376	4.73
397.736	4.71
398.096	4.69
398.456	4.66
398.816	4.64
399.176	4.62
399.535	4.6
399.895	4.58
400.255	4.56
400.615	4.54
400.975	4.52
401.334	4.5
401.694	4.48
402.054	4.46
402.413	4.44
402.773	4.42
403.132	4.41
403.492	4.39
403.851	4.38
404.211	4.37
404.57	4.36
404.929	4.34
405.288	4.33
405.648	4.32
406.007	4.31
406.366	4.3
406.725	4.29
407.084	4.28
407.443	4.28
407.802	4.27
408.161	4.26
408.52	4.25
408.879	4.25
409.238	4.25
409.596	4.24
409.955	4.23
410.314	4.23
410.673	4.22
411.031	4.22
411.39	4.21
411.748	4.21
412.107	4.21
412.465	4.2
412.824	4.22
413.182	4.23
413.54	4.25
413.899	4.27
414.257	4.29
414.615	4.33
414.974	4.35
415.332	4.38
415.69	4.41
416.048	4.44
416.406	4.47
416.764	4.49
417.122	4.51
417.48	4.54
417.838	4.56
418.195	4.58
418.553	4.59
418.911	4.6
419.269	4.61
419.626	4.6
419.984	4.59
420.342	4.57
420.699	4.55
421.057	4.53
421.414	4.51
421.772	4.49
422.129	4.48
422.486	4.47
422.844	4.46
423.201	4.45
423.558	4.45
423.915	4.44
424.273	4.44
424.63	4.43
424.987	4.43
425.344	4.43
425.701	4.42
426.058	4.42
426.415	4.41
426.772	4.41
427.128	4.4
427.485	4.39
427.842	4.38
428.199	4.36
428.555	4.34
428.912	4.32
429.269	4.29
429.625	4.26
429.982	4.23
430.338	4.21
430.695	4.18
431.051	4.15
431.407	4.13
431.764	4.11
432.12	4.09
432.476	4.08
432.832	4.07
433.189	4.07
433.545	4.08
433.901	4.09
434.257	4.11
434.613	4.14
434.969	4.16
435.325	4.18
435.681	4.22
436.036	4.24
436.392	4.27
436.748	4.28
437.104	4.29
437.459	4.31
437.815	4.33
438.171	4.36
438.526	4.38
438.882	4.41
439.237	4.45
439.593	4.48
439.948	4.51
440.304	4.55
440.659	4.57
441.014	4.59
441.369	4.62
441.725	4.64
442.08	4.65
442.435	4.66
442.79	4.67
443.145	4.67
443.5	4.67
443.855	4.67
444.21	4.67
444.565	4.66
444.92	4.65
445.275	4.64
445.629	4.63
445.984	4.62
446.339	4.61
446.693	4.6
447.048	4.58
447.403	4.57
447.757	4.54
448.112	4.52
448.466	4.5
448.82	4.47
449.175	4.45
449.529	4.43
449.883	4.41
450.238	4.38
450.592	4.38
450.946	4.37
451.3	4.36
451.654	4.37
452.008	4.37
452.362	4.37
452.716	4.37
453.07	4.37
453.424	4.36
453.778	4.36
454.132	4.35
454.486	4.34
454.839	4.32
455.193	4.3
455.547	4.29
455.9	4.26
456.254	4.24
456.607	4.21
456.961	4.18
457.314	4.16
457.668	4.16
458.021	4.15
458.375	4.15
458.728	4.15
459.081	4.16
459.434	4.16
459.787	4.17
460.141	4.18
460.494	4.19
460.847	4.2
461.2	4.21
461.553	4.22
461.906	4.22
462.259	4.23
462.611	4.24
462.964	4.24
463.317	4.25
463.67	4.26
464.022	4.27
464.375	4.28
464.728	4.29
465.08	4.29
465.433	4.3
465.785	4.3
466.138	4.29
466.49	4.28
466.843	4.27
467.195	4.25
467.547	4.23
467.899	4.21
468.252	4.19
468.604	4.16
468.956	4.15
469.308	4.14
469.66	4.14
470.012	4.14
470.364	4.15
470.716	4.15
471.068	4.17
471.42	4.19
471.772	4.22
472.123	4.23
472.475	4.24
472.827	4.25
473.178	4.26
473.53	4.27
473.882	4.29
474.233	4.31
474.585	4.35
474.936	4.42
475.288	4.51
475.639	4.63
475.99	4.76
476.342	4.91
476.693	5.07
477.044	5.24
477.395	5.41
477.746	5.58
478.097	5.75
478.448	5.93
478.8	6.1
479.15	6.27
479.501	6.41
479.852	6.55
480.203	6.68
480.554	6.8
480.905	6.91
481.255	7.02
481.606	7.13
481.957	7.23
482.307	7.32
482.658	7.41
483.009	7.5
483.359	7.59
483.709	7.67
484.06	7.74
484.41	7.82
484.761	7.9
485.111	7.97
485.461	8.04
485.811	8.1
486.162	8.16
486.512	8.21
486.862	8.25
487.212	8.28
487.562	8.3
487.912	8.31
488.262	8.32
488.612	8.31
488.961	8.29
489.311	8.25
489.661	8.18
490.011	8.09
490.36	7.99
490.71	7.87
491.06	7.74
491.409	7.61
491.759	7.46
492.108	7.31
492.458	7.16
492.807	6.99
493.157	6.83
493.506	6.68
493.855	6.54
494.204	6.41
494.554	6.28
494.903	6.17
495.252	6.06
495.601	5.96
495.95	5.86
496.299	5.76
496.648	5.68
496.997	5.6
497.346	5.53
497.695	5.46
498.043	5.4
498.392	5.34
498.741	5.28
499.09	5.23
499.438	5.18
499.787	5.14
500.135	5.11
500.484	5.09
500.832	5.08
501.181	5.08
501.529	5.1
501.878	5.13
502.226	5.17
502.574	5.22
502.923	5.27
503.271	5.33
503.619	5.38
503.967	5.45
504.315	5.51
504.663	5.57
505.011	5.64
505.359	5.7
505.707	5.77
506.055	5.85
506.403	5.92
506.751	6
507.098	6.09
507.446	6.18
507.794	6.27
508.141	6.37
508.489	6.47
508.837	6.58
509.184	6.69
509.531	6.81
509.879	6.93
510.226	7.07
510.574	7.2
510.921	7.35
511.268	7.49
511.616	7.65
511.963	7.8
512.31	7.97
512.657	8.13
513.004	8.29
513.351	8.44
513.698	8.59
514.045	8.73
514.392	8.86
514.739	8.98
515.086	9.1
515.432	9.22
515.779	9.33
516.126	9.46
516.473	9.59
516.819	9.74
517.166	9.91
517.512	10.08
517.859	10.27
518.205	10.47
518.552	10.68
518.898	10.92
519.245	11.19
519.591	11.52
519.937	11.91
520.283	12.36
520.629	12.85
520.976	13.37
521.322	13.91
521.668	14.46
522.014	15.02
522.36	15.59
522.706	16.14
523.052	16.67
523.398	17.18
523.743	17.66
524.089	18.1
524.435	18.51
524.781	18.92
525.126	19.32
525.472	19.71
525.817	20.1
526.163	20.49
526.509	20.86
526.854	21.24
527.199	21.61
527.545	21.99
527.89	22.38
528.235	22.77
528.581	23.14
528.926	23.5
529.271	23.84
529.616	24.17
529.961	24.49
530.306	24.8
530.651	25.08
530.996	25.34
531.341	25.58
531.686	25.83
532.031	26.05
532.376	26.31
532.721	26.59
533.065	26.91
533.41	27.23
533.755	27.53
534.099	27.81
534.444	28.07
534.788	28.3
535.133	28.53
535.477	28.74
535.822	28.92
536.166	29.08
536.51	29.18
536.855	29.24
537.199	29.27
537.543	29.3
537.887	29.36
538.231	29.44
538.576	29.52
538.92	29.59
539.264	29.66
539.608	29.7
539.951	29.73
540.295	29.75
540.639	29.76
540.983	29.74
541.327	29.72
541.671	29.68
542.014	29.67
542.358	29.67
542.701	29.73
543.045	29.84
543.389	29.98
543.732	30.14
544.075	30.31
544.419	30.5
544.762	30.71
545.105	30.92
545.449	31.15
545.792	31.38
546.135	31.61
546.478	31.81
546.821	31.97
547.165	32.07
547.508	32.12
547.851	32.13
548.194	32.1
548.536	32.04
548.879	31.95
549.222	31.83
549.565	31.71
549.908	31.6
550.25	31.51
550.593	31.47
550.936	31.49
551.278	31.56
551.621	31.67
551.963	31.79
552.306	31.93
552.648	32.11
552.991	32.3
553.333	32.51
553.675	32.76
554.017	33.04
554.36	33.33
554.702	33.66
555.044	34.03
555.386	34.43
555.728	34.87
556.07	35.25
556.412	35.64
556.754	35.96
557.096	36.24
557.438	36.51
557.78	36.78
558.121	37.05
558.463	37.32
558.805	37.59
559.147	37.85
559.488	38.12
559.83	38.39
560.171	38.65
560.513	38.91
560.854	39.15
561.196	39.4
561.537	39.65
561.878	39.9
562.22	40.14
562.561	40.36
562.902	40.59
563.243	40.82
563.584	41.05
563.925	41.27
564.266	41.49
564.607	41.7
564.948	41.92
565.289	42.13
565.63	42.34
565.971	42.55
566.312	42.75
566.653	42.94
566.993	43.14
567.334	43.34
567.675	43.52
568.015	43.71
568.356	43.89
568.696	44.07
569.037	44.23
569.377	44.39
569.718	44.55
570.058	44.7
570.398	44.85
570.739	45
571.079	45.14
571.419	45.27
571.759	45.39
572.099	45.52
572.439	45.64
572.779	45.77
573.119	45.89
573.459	46.01
573.799	46.12
574.139	46.24
574.479	46.36
574.819	46.47
575.158	46.58
575.498	46.69
575.838	46.8
576.177	46.91
576.517	47.01
576.856	47.11
577.196	47.22
577.535	47.31
577.875	47.41
578.214	47.52
578.553	47.61
578.893	47.71
579.232	47.8
579.571	47.89
579.91	47.98
580.25	48.08
580.589	48.18
580.928	48.28
581.267	48.38
581.606	48.49
581.945	48.56
582.283	48.67
582.622	48.78
582.961	48.88
583.3	48.99
583.639	49.08
583.977	49.18
584.316	49.28
584.654	49.37
584.993	49.47
585.332	49.57
585.67	49.68
586.008	49.77
586.347	49.88
586.685	49.98
587.024	50.08
587.362	50.19
587.7	50.29
588.038	50.39
588.376	50.5
588.715	50.61
589.053	50.72
589.391	50.83
589.729	50.94
590.067	51.05
590.404	51.15
590.742	51.26
591.08	51.35
591.418	51.45
591.756	51.54
592.093	51.63
592.431	51.7
592.769	51.78
593.106	51.87
593.444	51.95
593.781	52.02
594.119	52.1
594.456	52.17
594.793	52.24
595.131	52.3
595.468	52.37
595.805	52.45
596.143	52.52
596.48	52.59
596.817	52.68
597.154	52.77
597.491	52.85
597.828	52.95
598.165	53.02
598.502	53.11
598.839	53.19
599.176	53.27
599.512	53.34
599.849	53.41
600.186	53.47
600.523	53.53
600.859	53.6
601.196	53.65
601.532	53.71
601.869	53.77
602.205	53.82
602.542	53.87
602.878	53.92
603.215	53.98
603.551	54.01
603.887	54.06
604.223	54.11
604.56	54.15
604.896	54.2
605.232	54.23
605.568	54.28
605.904	54.32
606.24	54.36
606.576	54.4
606.912	54.44
607.248	54.48
607.583	54.51
607.919	54.53
608.255	54.57
608.591	54.61
608.926	54.64
609.262	54.68
609.597	54.71
609.933	54.73
610.268	54.77
610.604	54.78
610.939	54.81
611.275	54.84
611.61	54.85
611.945	54.88
612.281	54.89
612.616	54.91
612.951	54.92
613.286	54.94
613.621	54.97
613.956	55.01
614.291	55.04
614.626	55.05
614.961	55.09
615.296	55.11
615.631	55.14
615.966	55.17
616.3	55.2
616.635	55.22
616.97	55.24
617.304	55.28
617.639	55.31
617.973	55.34
618.308	55.39
618.642	55.42
618.977	55.46
619.311	55.5
619.646	55.54
619.98	55.59
620.314	55.64
620.648	55.69
620.983	55.72
621.317	55.77
621.651	55.81
621.985	55.85
622.319	55.9
622.653	55.94
622.987	55.97
623.321	56
623.655	56.04
623.988	56.07
624.322	56.1
624.656	56.11
624.99	56.14
625.323	56.17
625.657	56.19
625.99	56.22
626.324	56.24
626.657	56.27
626.991	56.31
627.324	56.33
627.658	56.36
627.991	56.38
628.324	56.41
628.657	56.44
628.991	56.47
629.324	56.49
629.657	56.52
629.99	56.56
630.323	56.6
630.656	56.63
630.989	56.67
631.322	56.69
631.655	56.71
631.987	56.72
632.32	56.74
632.653	56.77
632.986	56.78
633.318	56.8
633.651	56.81
633.984	56.82
634.316	56.84
634.649	56.87
634.981	56.87
635.313	56.91
635.646	56.93
635.978	56.94
636.31	56.95
636.643	56.98
636.975	57.03
637.307	57.04
637.639	57.07
637.971	57.09
638.303	57.13
638.635	57.17
638.967	57.19
639.299	57.21
639.631	57.23
639.963	57.26
640.295	57.27
640.626	57.29
640.958	57.32
641.29	57.35
641.621	57.38
641.953	57.39
642.285	57.41
642.616	57.43
642.948	57.46
643.279	57.48
643.61	57.49
643.942	57.51
644.273	57.53
644.604	57.55
644.936	57.56
645.267	57.6
645.598	57.63
645.929	57.66
646.26	57.69
646.591	57.73
646.922	57.76
647.253	57.79
647.584	57.83
647.915	57.86
648.245	57.88
648.576	57.93
648.907	57.95
649.238	57.97
649.568	58.01
649.899	58.05
650.229	58.07
650.56	58.09
650.89	58.13
651.221	58.15
651.551	58.19
651.882	58.22
652.212	58.23
652.542	58.27
652.872	58.32
653.203	58.37
653.533	58.41
653.863	58.45
654.193	58.49
654.523	58.52
654.853	58.55
655.183	58.58
655.513	58.63
655.843	58.66
656.172	58.69
656.502	58.71
656.832	58.74
657.162	58.76
657.491	58.78
657.821	58.81
658.15	58.83
658.48	58.86
658.809	58.88
659.139	58.9
659.468	58.92
659.798	58.95
660.127	58.97
660.456	59
660.785	59.01
661.115	59.03
661.444	59.05
661.773	59.08
662.102	59.07
662.431	59.1
662.76	59.13
663.089	59.14
663.418	59.17
663.747	59.19
664.076	59.21
664.404	59.23
664.733	59.27
665.062	59.29
665.39	59.31
665.719	59.34
666.048	59.36
666.376	59.38
666.705	59.4
667.033	59.41
667.362	59.43
667.69	59.46
668.018	59.46
668.347	59.49
668.675	59.51
669.003	59.53
669.331	59.54
669.659	59.57
669.987	59.6
