Data from UWBM53665_Reflection_00008.txt Node
Date: Sun May 02 13:13:24 EDT 2021
User: vgr7
Spectrometer: USB2G7710
Scans to average: 10
Trigger mode: 4
Integration Time (sec): 1.000000E-1
Electric dark correction enabled: true
Boxcar width: 20
XAxis mode: Wavelengths
Number of Pixels in Spectrum: 2048
>>>>>Begin Spectral Data<<<<<
177.721	101.92
178.105	103.35
178.488	103.14
178.871	102.77
179.254	102.4
179.636	100.57
180.019	99.01
180.402	98.1
180.785	95.68
181.168	92.35
181.55	89.84
181.933	110.45
182.316	112.49
182.698	113.95
183.081	116.41
183.463	118.45
183.846	119.62
184.228	120.01
184.611	121.35
184.993	124.28
185.376	125.58
185.758	-84.16
186.14	-31.61
186.522	0.32
186.904	15.52
187.287	25.68
187.669	26.31
188.051	24.92
188.433	27.97
188.815	24.27
189.197	22.08
189.579	21.96
189.961	23.66
190.342	21.42
190.724	23.95
191.106	23.32
191.488	24.67
191.869	21.72
192.251	22.63
192.633	20.33
193.014	17.29
193.396	15.82
193.777	19.35
194.159	19.45
194.54	17.75
194.922	16.86
195.303	18.75
195.684	19.04
196.065	19.09
196.447	18.31
196.828	18.26
197.209	18.55
197.59	9.72
197.971	10.52
198.352	12.87
198.733	15.41
199.114	15.71
199.495	16.69
199.876	17.79
200.257	16.66
200.638	15.47
201.018	9.94
201.399	10.95
201.78	8.86
202.16	8.96
202.541	9.87
202.922	9.32
203.302	8.47
203.683	9.15
204.063	7.95
204.444	10.96
204.824	13.54
205.204	15.51
205.585	21.94
205.965	22.09
206.345	23.43
206.725	19.52
207.106	19.28
207.486	19.57
207.866	19.49
208.246	19.04
208.626	21.29
209.006	25.87
209.386	23.65
209.766	23.77
210.145	23.14
210.525	22.81
210.905	23.04
211.285	23.63
211.664	23.08
212.044	24.48
212.424	24.8
212.803	20.59
213.183	23.49
213.562	23.28
213.942	22.19
214.321	20.46
214.701	20
215.08	20.37
215.459	20.1
215.838	20.07
216.218	22.29
216.597	21.66
216.976	18.19
217.355	18.83
217.734	17.7
218.113	18.64
218.492	18.96
218.871	19.54
219.25	19.23
219.629	18.67
220.008	17.78
220.387	18.5
220.766	18.4
221.144	17.35
221.523	18.14
221.902	17.33
222.28	18.32
222.659	18.55
223.037	17.55
223.416	17.55
223.794	18.07
224.173	17.18
224.551	16.15
224.929	16.05
225.308	16.67
225.686	16.44
226.064	16.53
226.442	16.04
226.821	15.87
227.199	15.07
227.577	13.84
227.955	13.01
228.333	12.88
228.711	12.52
229.089	12.68
229.467	12.36
229.845	12.88
230.222	12.75
230.6	12.98
230.978	12.39
231.356	11.38
231.733	10.97
232.111	10.76
232.488	10.31
232.866	10.18
233.243	9.77
233.621	9.37
233.998	9
234.376	8.61
234.753	8.33
235.13	8.21
235.508	8.31
235.885	7.92
236.262	7.74
236.639	7.72
237.016	7.59
237.393	7.39
237.77	6.99
238.147	6.77
238.524	6.69
238.901	6.59
239.278	6.54
239.655	6.46
240.032	6.37
240.409	6.29
240.785	6.11
241.162	6.13
241.539	6.05
241.915	6
242.292	5.95
242.668	5.85
243.045	5.81
243.421	5.72
243.798	5.66
244.174	5.64
244.551	5.58
244.927	5.43
245.303	5.35
245.679	5.34
246.056	5.28
246.432	5.27
246.808	5.07
247.184	5.05
247.56	5.03
247.936	5.05
248.312	5.04
248.688	5.08
249.064	5.06
249.44	5.01
249.815	5.02
250.191	4.96
250.567	4.91
250.943	5
251.318	5.02
251.694	4.94
252.069	4.86
252.445	4.84
252.82	4.93
253.196	4.94
253.571	4.9
253.947	4.97
254.322	4.93
254.697	5.04
255.073	5
255.448	4.97
255.823	4.94
256.198	4.89
256.573	4.71
256.948	4.7
257.323	4.71
257.698	4.64
258.073	4.65
258.448	4.53
258.823	4.51
259.198	4.49
259.573	4.5
259.948	4.51
260.322	4.46
260.697	4.44
261.072	4.44
261.446	4.41
261.821	4.38
262.195	4.34
262.57	4.31
262.944	4.29
263.319	4.25
263.693	4.26
264.067	4.27
264.442	4.35
264.816	4.34
265.19	4.32
265.564	4.38
265.938	4.34
266.313	4.38
266.687	4.32
267.061	4.33
267.435	4.32
267.809	4.3
268.183	4.27
268.556	4.29
268.93	4.29
269.304	4.26
269.678	4.21
270.051	4.19
270.425	4.21
270.799	4.21
271.172	4.21
271.546	4.22
271.919	4.22
272.293	4.19
272.666	4.19
273.04	4.2
273.413	4.14
273.787	4.13
274.16	4.14
274.533	4.16
274.906	4.13
275.279	4.15
275.653	4.12
276.026	4.11
276.399	4.06
276.772	4.06
277.145	4.09
277.518	4.12
277.891	4.13
278.263	4.16
278.636	4.16
279.009	4.18
279.382	4.15
279.755	4.1
280.127	4.12
280.5	4.13
280.872	4.1
281.245	4.22
281.617	4.21
281.99	4.25
282.362	4.27
282.735	4.27
283.107	4.27
283.479	4.29
283.852	4.31
284.224	4.35
284.596	4.33
284.968	4.25
285.34	4.25
285.713	4.22
286.085	4.16
286.457	4.17
286.829	4.17
287.201	4.18
287.572	4.25
287.944	4.28
288.316	4.32
288.688	4.36
289.06	4.37
289.431	4.39
289.803	4.41
290.175	4.44
290.546	4.47
290.918	4.5
291.289	4.49
291.661	4.53
292.032	4.5
292.403	4.54
292.775	4.64
293.146	4.66
293.517	4.7
293.889	4.82
294.26	4.83
294.631	4.88
295.002	4.95
295.373	5
295.744	5.03
296.115	5.06
296.486	5.03
296.857	5.08
297.228	5.1
297.599	5.13
297.97	5.16
298.34	5.21
298.711	5.19
299.082	5.22
299.452	5.27
299.823	5.35
300.194	5.39
300.564	5.42
300.935	5.47
301.305	5.5
301.676	5.51
302.046	5.55
302.416	5.59
302.787	5.64
303.157	5.63
303.527	5.68
303.897	5.74
304.267	5.81
304.637	5.88
305.008	5.96
305.378	6.03
305.748	6.07
306.117	6.21
306.487	6.33
306.857	6.44
307.227	6.52
307.597	6.58
307.967	6.64
308.336	6.7
308.706	6.78
309.076	6.82
309.445	6.87
309.815	6.82
310.184	6.87
310.554	6.88
310.923	6.96
311.293	7.03
311.662	7.09
312.031	7.12
312.401	7.18
312.77	7.23
313.139	7.28
313.508	7.36
313.877	7.36
314.246	7.4
314.616	7.42
314.985	7.43
315.353	7.49
315.722	7.55
316.091	7.61
316.46	7.67
316.829	7.77
317.198	7.84
317.567	8.04
317.935	8.11
318.304	8.2
318.672	8.3
319.041	8.37
319.41	8.44
319.778	8.52
320.147	8.6
320.515	8.67
320.883	8.73
321.252	8.72
321.62	8.8
321.988	8.86
322.357	8.9
322.725	9
323.093	9.05
323.461	9.09
323.829	9.15
324.197	9.18
324.565	9.22
324.933	9.27
325.301	9.29
325.669	9.33
326.037	9.35
326.405	9.34
326.772	9.37
327.14	9.4
327.508	9.41
327.875	9.43
328.243	9.45
328.61	9.46
328.978	9.5
329.346	9.53
329.713	9.54
330.08	9.55
330.448	9.57
330.815	9.57
331.182	9.6
331.55	9.61
331.917	9.65
332.284	9.66
332.651	9.69
333.018	9.69
333.385	9.73
333.752	9.76
334.119	9.79
334.486	9.81
334.853	9.82
335.22	9.83
335.587	9.83
335.954	9.85
336.32	9.88
336.687	9.9
337.054	9.9
337.42	9.94
337.787	9.95
338.153	9.97
338.52	10.02
338.886	10.05
339.253	10.05
339.619	10.05
339.986	10.04
340.352	10.05
340.718	10.07
341.084	10.07
341.451	10.08
341.817	10.07
342.183	10.06
342.549	10.1
342.915	10.08
343.281	10.11
343.647	10.11
344.013	10.13
344.379	10.12
344.745	10.13
345.11	10.13
345.476	10.15
345.842	10.15
346.208	10.13
346.573	10.11
346.939	10.11
347.304	10.11
347.67	10.11
348.035	10.11
348.401	10.09
348.766	10.1
349.132	10.09
349.497	10.08
349.862	10.07
350.228	10.07
350.593	10.06
350.958	10.03
351.323	9.99
351.688	9.97
352.053	9.95
352.418	9.92
352.783	9.89
353.148	9.86
353.513	9.81
353.878	9.79
354.243	9.77
354.608	9.72
354.972	9.69
355.337	9.65
355.702	9.61
356.066	9.58
356.431	9.53
356.795	9.5
357.16	9.45
357.524	9.41
357.889	9.38
358.253	9.34
358.618	9.31
358.982	9.29
359.346	9.26
359.71	9.22
360.075	9.19
360.439	9.15
360.803	9.1
361.167	9.06
361.531	9.03
361.895	9
362.259	8.96
362.623	8.93
362.987	8.88
363.351	8.85
363.714	8.81
364.078	8.76
364.442	8.72
364.806	8.68
365.169	8.61
365.533	8.55
365.896	8.49
366.26	8.45
366.623	8.39
366.987	8.33
367.35	8.28
367.714	8.23
368.077	8.17
368.44	8.11
368.803	8.04
369.167	7.98
369.53	7.92
369.893	7.86
370.256	7.79
370.619	7.72
370.982	7.65
371.345	7.58
371.708	7.51
372.071	7.44
372.434	7.37
372.797	7.33
373.159	7.28
373.522	7.21
373.885	7.14
374.247	7.07
374.61	7
374.973	6.94
375.335	6.86
375.698	6.8
376.06	6.74
376.423	6.68
376.785	6.61
377.147	6.54
377.51	6.48
377.872	6.42
378.234	6.36
378.596	6.31
378.958	6.26
379.321	6.2
379.683	6.15
380.045	6.09
380.407	6.04
380.769	5.99
381.13	5.95
381.492	5.9
381.854	5.86
382.216	5.81
382.578	5.76
382.939	5.74
383.301	5.69
383.663	5.65
384.024	5.6
384.386	5.56
384.747	5.51
385.109	5.46
385.47	5.42
385.832	5.38
386.193	5.34
386.554	5.3
386.916	5.27
387.277	5.23
387.638	5.2
387.999	5.17
388.36	5.14
388.721	5.1
389.082	5.07
389.443	5.04
389.804	5.01
390.165	4.99
390.526	4.96
390.887	4.93
391.248	4.89
391.609	4.87
391.969	4.84
392.33	4.82
392.691	4.79
393.051	4.76
393.412	4.72
393.772	4.7
394.133	4.67
394.493	4.64
394.854	4.61
395.214	4.58
395.574	4.55
395.935	4.51
396.295	4.48
396.655	4.46
397.015	4.43
397.376	4.39
397.736	4.37
398.096	4.34
398.456	4.32
398.816	4.3
399.176	4.27
399.535	4.25
399.895	4.23
400.255	4.21
400.615	4.19
400.975	4.17
401.334	4.14
401.694	4.12
402.054	4.11
402.413	4.07
402.773	4.05
403.132	4.05
403.492	4.02
403.851	4.01
404.211	4
404.57	3.99
404.929	3.98
405.288	3.97
405.648	3.96
406.007	3.95
406.366	3.94
406.725	3.94
407.084	3.92
407.443	3.91
407.802	3.89
408.161	3.88
408.52	3.87
408.879	3.86
409.238	3.86
409.596	3.84
409.955	3.85
410.314	3.84
410.673	3.83
411.031	3.82
411.39	3.82
411.748	3.81
412.107	3.81
412.465	3.81
412.824	3.82
413.182	3.82
413.54	3.83
413.899	3.84
414.257	3.86
414.615	3.89
414.974	3.9
415.332	3.93
415.69	3.96
416.048	3.98
416.406	4.01
416.764	4.03
417.122	4.05
417.48	4.07
417.838	4.08
418.195	4.1
418.553	4.11
418.911	4.12
419.269	4.11
419.626	4.11
419.984	4.1
420.342	4.07
420.699	4.06
421.057	4.03
421.414	4.01
421.772	4
422.129	3.98
422.486	3.97
422.844	3.97
423.201	3.96
423.558	3.95
423.915	3.94
424.273	3.94
424.63	3.93
424.987	3.93
425.344	3.92
425.701	3.92
426.058	3.91
426.415	3.91
426.772	3.9
427.128	3.89
427.485	3.87
427.842	3.86
428.199	3.85
428.555	3.83
428.912	3.81
429.269	3.78
429.625	3.76
429.982	3.74
430.338	3.71
430.695	3.69
431.051	3.65
431.407	3.63
431.764	3.61
432.12	3.59
432.476	3.58
432.832	3.57
433.189	3.57
433.545	3.58
433.901	3.59
434.257	3.6
434.613	3.62
434.969	3.64
435.325	3.66
435.681	3.7
436.036	3.71
436.392	3.73
436.748	3.74
437.104	3.75
437.459	3.76
437.815	3.77
438.171	3.79
438.526	3.81
438.882	3.84
439.237	3.86
439.593	3.89
439.948	3.92
440.304	3.95
440.659	3.97
441.014	3.98
441.369	4.01
441.725	4.02
442.08	4.04
442.435	4.04
442.79	4.05
443.145	4.05
443.5	4.05
443.855	4.05
444.21	4.05
444.565	4.04
444.92	4.03
445.275	4.02
445.629	4.01
445.984	4.01
446.339	3.99
446.693	3.99
447.048	3.97
447.403	3.96
447.757	3.94
448.112	3.91
448.466	3.89
448.82	3.87
449.175	3.85
449.529	3.83
449.883	3.82
450.238	3.79
450.592	3.79
450.946	3.78
451.3	3.77
451.654	3.78
452.008	3.77
452.362	3.78
452.716	3.78
453.07	3.78
453.424	3.77
453.778	3.77
454.132	3.75
454.486	3.74
454.839	3.73
455.193	3.71
455.547	3.7
455.9	3.67
456.254	3.65
456.607	3.63
456.961	3.61
457.314	3.59
457.668	3.58
458.021	3.58
458.375	3.57
458.728	3.57
459.081	3.58
459.434	3.58
459.787	3.59
460.141	3.6
460.494	3.6
460.847	3.61
461.2	3.61
461.553	3.62
461.906	3.63
462.259	3.64
462.611	3.64
462.964	3.65
463.317	3.66
463.67	3.67
464.022	3.67
464.375	3.68
464.728	3.68
465.08	3.69
465.433	3.7
465.785	3.7
466.138	3.69
466.49	3.68
466.843	3.67
467.195	3.66
467.547	3.64
467.899	3.63
468.252	3.61
468.604	3.59
468.956	3.58
469.308	3.57
469.66	3.57
470.012	3.56
470.364	3.57
470.716	3.57
471.068	3.59
471.42	3.61
471.772	3.63
472.123	3.64
472.475	3.65
472.827	3.66
473.178	3.67
473.53	3.68
473.882	3.69
474.233	3.71
474.585	3.75
474.936	3.8
475.288	3.87
475.639	3.97
475.99	4.08
476.342	4.21
476.693	4.35
477.044	4.49
477.395	4.63
477.746	4.78
478.097	4.92
478.448	5.07
478.8	5.22
479.15	5.35
479.501	5.47
479.852	5.58
480.203	5.69
480.554	5.79
480.905	5.88
481.255	5.98
481.606	6.06
481.957	6.14
482.307	6.22
482.658	6.29
483.009	6.37
483.359	6.44
483.709	6.5
484.06	6.57
484.41	6.64
484.761	6.7
485.111	6.76
485.461	6.82
485.811	6.87
486.162	6.92
486.512	6.96
486.862	7
487.212	7.02
487.562	7.05
487.912	7.06
488.262	7.06
488.612	7.06
488.961	7.04
489.311	7.02
489.661	6.96
490.011	6.89
490.36	6.8
490.71	6.7
491.06	6.58
491.409	6.47
491.759	6.35
492.108	6.23
492.458	6.1
492.807	5.96
493.157	5.83
493.506	5.7
493.855	5.58
494.204	5.47
494.554	5.36
494.903	5.27
495.252	5.18
495.601	5.1
495.95	5.01
496.299	4.94
496.648	4.87
496.997	4.81
497.346	4.75
497.695	4.7
498.043	4.66
498.392	4.62
498.741	4.58
499.09	4.54
499.438	4.51
499.787	4.48
500.135	4.46
500.484	4.46
500.832	4.46
501.181	4.48
501.529	4.5
501.878	4.54
502.226	4.59
502.574	4.64
502.923	4.71
503.271	4.78
503.619	4.86
503.967	4.93
504.315	5.01
504.663	5.09
505.011	5.17
505.359	5.26
505.707	5.35
506.055	5.44
506.403	5.54
506.751	5.65
507.098	5.76
507.446	5.87
507.794	5.99
508.141	6.12
508.489	6.27
508.837	6.42
509.184	6.57
509.531	6.73
509.879	6.9
510.226	7.08
510.574	7.28
510.921	7.48
511.268	7.7
511.616	7.91
511.963	8.14
512.31	8.38
512.657	8.61
513.004	8.85
513.351	9.08
513.698	9.3
514.045	9.52
514.392	9.74
514.739	9.94
515.086	10.15
515.432	10.36
515.779	10.57
516.126	10.79
516.473	11.02
516.819	11.28
517.166	11.55
517.512	11.85
517.859	12.16
518.205	12.49
518.552	12.86
518.898	13.26
519.245	13.7
519.591	14.22
519.937	14.82
520.283	15.5
520.629	16.25
520.976	17.03
521.322	17.84
521.668	18.67
522.014	19.5
522.36	20.34
522.706	21.17
523.052	21.99
523.398	22.76
523.743	23.48
524.089	24.16
524.435	24.79
524.781	25.42
525.126	26.05
525.472	26.66
525.817	27.27
526.163	27.87
526.509	28.46
526.854	29.04
527.199	29.62
527.545	30.2
527.89	30.8
528.235	31.39
528.581	31.95
528.926	32.48
529.271	32.99
529.616	33.48
529.961	33.96
530.306	34.41
530.651	34.84
530.996	35.23
531.341	35.59
531.686	35.94
532.031	36.27
532.376	36.63
532.721	37.02
533.065	37.44
533.41	37.87
533.755	38.26
534.099	38.62
534.444	38.94
534.788	39.22
535.133	39.5
535.477	39.74
535.822	39.95
536.166	40.11
536.51	40.21
536.855	40.22
537.199	40.21
537.543	40.19
537.887	40.2
538.231	40.25
538.576	40.3
538.92	40.32
539.264	40.34
539.608	40.33
539.951	40.29
540.295	40.24
540.639	40.17
540.983	40.08
541.327	39.98
541.671	39.83
542.014	39.74
542.358	39.64
542.701	39.64
543.045	39.7
543.389	39.81
543.732	39.92
544.075	40.07
544.419	40.24
544.762	40.4
545.105	40.59
545.449	40.79
545.792	41
546.135	41.2
546.478	41.35
546.821	41.44
547.165	41.46
547.508	41.41
547.851	41.32
548.194	41.16
548.536	40.96
548.879	40.72
549.222	40.45
549.565	40.18
549.908	39.9
550.25	39.65
550.593	39.47
550.936	39.37
551.278	39.33
551.621	39.34
551.963	39.37
552.306	39.42
552.648	39.51
552.991	39.63
553.333	39.77
553.675	39.94
554.017	40.15
554.36	40.39
554.702	40.67
555.044	40.98
555.386	41.35
555.728	41.76
556.07	42.1
556.412	42.46
556.754	42.73
557.096	42.95
557.438	43.16
557.78	43.38
558.121	43.59
558.463	43.79
558.805	44
559.147	44.21
559.488	44.41
559.83	44.61
560.171	44.81
560.513	45.01
560.854	45.19
561.196	45.38
561.537	45.56
561.878	45.74
562.22	45.91
562.561	46.08
562.902	46.25
563.243	46.42
563.584	46.59
563.925	46.75
564.266	46.93
564.607	47.1
564.948	47.26
565.289	47.43
565.63	47.59
565.971	47.75
566.312	47.9
566.653	48.05
566.993	48.2
567.334	48.35
567.675	48.49
568.015	48.62
568.356	48.75
568.696	48.88
569.037	48.99
569.377	49.11
569.718	49.24
570.058	49.35
570.398	49.46
570.739	49.57
571.079	49.68
571.419	49.78
571.759	49.87
572.099	49.96
572.439	50.04
572.779	50.12
573.119	50.21
573.459	50.3
573.799	50.39
574.139	50.47
574.479	50.56
574.819	50.64
575.158	50.73
575.498	50.81
575.838	50.89
576.177	50.98
576.517	51.06
576.856	51.14
577.196	51.21
577.535	51.28
577.875	51.37
578.214	51.43
578.553	51.51
578.893	51.57
579.232	51.64
579.571	51.71
579.91	51.77
580.25	51.84
580.589	51.91
580.928	51.99
581.267	52.05
581.606	52.12
581.945	52.2
582.283	52.28
582.622	52.37
582.961	52.45
583.3	52.53
583.639	52.6
583.977	52.68
584.316	52.75
584.654	52.85
584.993	52.91
585.332	52.99
585.67	53.08
586.008	53.16
586.347	53.24
586.685	53.33
587.024	53.41
587.362	53.48
587.7	53.56
588.038	53.64
588.376	53.73
588.715	53.81
589.053	53.9
589.391	53.98
589.729	54.08
590.067	54.16
590.404	54.25
590.742	54.33
591.08	54.41
591.418	54.49
591.756	54.56
592.093	54.64
592.431	54.7
592.769	54.76
593.106	54.82
593.444	54.88
593.781	54.94
594.119	54.99
594.456	55.04
594.793	55.09
595.131	55.15
595.468	55.2
595.805	55.26
596.143	55.32
596.48	55.38
596.817	55.44
597.154	55.51
597.491	55.58
597.828	55.63
598.165	55.7
598.502	55.76
598.839	55.82
599.176	55.88
599.512	55.93
599.849	55.99
600.186	56.04
600.523	56.09
600.859	56.15
601.196	56.2
601.532	56.25
601.869	56.3
602.205	56.35
602.542	56.39
602.878	56.44
603.215	56.48
603.551	56.51
603.887	56.55
604.223	56.59
604.56	56.63
604.896	56.67
605.232	56.7
605.568	56.73
605.904	56.76
606.24	56.8
606.576	56.83
606.912	56.86
607.248	56.89
607.583	56.92
607.919	56.94
608.255	56.97
608.591	56.99
608.926	57.02
609.262	57.06
609.597	57.08
609.933	57.12
610.268	57.16
610.604	57.18
610.939	57.19
611.275	57.21
611.61	57.23
611.945	57.24
612.281	57.26
612.616	57.26
612.951	57.27
613.286	57.28
613.621	57.29
613.956	57.3
614.291	57.33
614.626	57.33
614.961	57.35
615.296	57.36
615.631	57.38
615.966	57.39
616.3	57.41
616.635	57.42
616.97	57.43
617.304	57.44
617.639	57.46
617.973	57.46
618.308	57.49
618.642	57.49
618.977	57.52
619.311	57.54
619.646	57.58
619.98	57.61
620.314	57.65
620.648	57.68
620.983	57.71
621.317	57.75
621.651	57.78
621.985	57.81
622.319	57.84
622.653	57.86
622.987	57.88
623.321	57.9
623.655	57.91
623.988	57.92
624.322	57.95
624.656	57.97
624.99	57.99
625.323	58.02
625.657	58.04
625.99	58.08
626.324	58.11
626.657	58.13
626.991	58.17
627.324	58.19
627.658	58.21
627.991	58.23
628.324	58.24
628.657	58.26
628.991	58.26
629.324	58.29
629.657	58.3
629.99	58.32
630.323	58.34
630.656	58.35
630.989	58.37
631.322	58.39
631.655	58.42
631.987	58.43
632.32	58.44
632.653	58.46
632.986	58.47
633.318	58.47
633.651	58.49
633.984	58.49
634.316	58.51
634.649	58.5
634.981	58.51
635.313	58.52
635.646	58.54
635.978	58.56
636.31	58.57
636.643	58.58
636.975	58.59
637.307	58.63
637.639	58.64
637.971	58.65
638.303	58.67
638.635	58.68
638.967	58.69
639.299	58.69
639.631	58.69
639.963	58.7
640.295	58.72
640.626	58.73
640.958	58.75
641.29	58.75
641.621	58.79
641.953	58.82
642.285	58.85
642.616	58.89
642.948	58.89
643.279	58.91
643.61	58.91
643.942	58.93
644.273	58.95
644.604	58.97
644.936	58.97
645.267	58.99
645.598	59
645.929	59.02
646.26	59.03
646.591	59.04
646.922	59.06
647.253	59.06
647.584	59.09
647.915	59.1
648.245	59.14
648.576	59.16
648.907	59.17
649.238	59.18
649.568	59.18
649.899	59.19
650.229	59.22
650.56	59.24
650.89	59.24
651.221	59.26
651.551	59.28
651.882	59.29
652.212	59.31
652.542	59.33
652.872	59.35
653.203	59.37
653.533	59.39
653.863	59.4
654.193	59.41
654.523	59.42
654.853	59.44
655.183	59.46
655.513	59.46
655.843	59.48
656.172	59.5
656.502	59.52
656.832	59.52
657.162	59.55
657.491	59.57
657.821	59.59
658.15	59.61
658.48	59.62
658.809	59.61
659.139	59.64
659.468	59.65
659.798	59.68
660.127	59.71
660.456	59.72
660.785	59.75
661.115	59.75
661.444	59.78
661.773	59.79
662.102	59.8
662.431	59.81
662.76	59.83
663.089	59.84
663.418	59.84
663.747	59.85
664.076	59.87
664.404	59.87
664.733	59.88
665.062	59.91
665.39	59.93
665.719	59.94
666.048	59.94
666.376	59.95
666.705	59.97
667.033	59.96
667.362	59.95
667.69	59.97
668.018	59.97
668.347	59.98
