Data from UWBM53665_Reflection_00006.txt Node
Date: Sun May 02 13:12:37 EDT 2021
User: vgr7
Spectrometer: USB2G7710
Scans to average: 10
Trigger mode: 4
Integration Time (sec): 1.000000E-1
Electric dark correction enabled: true
Boxcar width: 20
XAxis mode: Wavelengths
Number of Pixels in Spectrum: 2048
>>>>>Begin Spectral Data<<<<<
177.721	99.92
178.105	99.98
178.488	99.73
178.871	99.3
179.254	97.94
179.636	95.77
180.019	93.14
180.402	91.73
180.785	88.28
181.168	85.29
181.55	81.63
181.933	117.34
182.316	118.81
182.698	119.82
183.081	121.92
183.463	123.06
183.846	124.63
184.228	124.25
184.611	126.03
184.993	128.92
185.376	130.45
185.758	-110.84
186.14	-51.74
186.522	-20.23
186.904	-0.95
187.287	8.28
187.669	12.06
188.051	12.25
188.433	14.43
188.815	9.68
189.197	9.84
189.579	9.81
189.961	8.93
190.342	5.05
190.724	9.05
191.106	8.07
191.488	8.13
191.869	3.96
192.251	4.3
192.633	1.94
193.014	0.06
193.396	0.63
193.777	8.19
194.159	7.29
194.54	5.33
194.922	5.93
195.303	7.07
195.684	9.55
196.065	9.44
196.447	7.95
196.828	8.44
197.209	10.43
197.59	1.85
197.971	1.37
198.352	2.54
198.733	4.88
199.114	2.75
199.495	4.37
199.876	4.64
200.257	4.42
200.638	4.87
201.018	-1.23
201.399	-3.16
201.78	-6.14
202.16	-6.28
202.541	-5.89
202.922	-5.17
203.302	-7.73
203.683	-8.2
204.063	-8.16
204.444	-5.8
204.824	-3.03
205.204	-1.44
205.585	7.59
205.965	8.81
206.345	8.48
206.725	2.83
207.106	4.68
207.486	4.48
207.866	5.69
208.246	6.12
208.626	7.97
209.006	12.89
209.386	8.36
209.766	8.63
210.145	7.74
210.525	6.8
210.905	8.97
211.285	9.08
211.664	7.97
212.044	9.08
212.424	7.98
212.803	2.07
213.183	3.26
213.562	2.43
213.942	2.47
214.321	-1.1
214.701	-1.25
215.08	0.01
215.459	-0.39
215.838	-2
216.218	-3.03
216.597	-3.46
216.976	-6.57
217.355	-5.06
217.734	-4.46
218.113	-3.74
218.492	-2.08
218.871	-1.82
219.25	-1.27
219.629	-2.11
220.008	-1.36
220.387	-0.73
220.766	0.01
221.144	-0.05
221.523	1.36
221.902	2.77
222.28	4.71
222.659	4.68
223.037	4.97
223.416	5.82
223.794	6.93
224.173	6.53
224.551	5.95
224.929	6.45
225.308	7.4
225.686	7.58
226.064	7.98
226.442	7.38
226.821	7.08
227.199	6.5
227.577	6.04
227.955	6.05
228.333	6.46
228.711	6.71
229.089	7.35
229.467	6.72
229.845	7.69
230.222	7.84
230.6	8.25
230.978	8.27
231.356	7.86
231.733	7.83
232.111	7.91
232.488	7.88
232.866	7.91
233.243	7.49
233.621	7.29
233.998	6.87
234.376	7.01
234.753	7.26
235.13	7.26
235.508	7.57
235.885	7.32
236.262	7.22
236.639	7.28
237.016	7.15
237.393	7.01
237.77	6.76
238.147	6.73
238.524	6.73
238.901	6.7
239.278	6.63
239.655	6.64
240.032	6.5
240.409	6.48
240.785	6.4
241.162	6.45
241.539	6.36
241.915	6.37
242.292	6.35
242.668	6.31
243.045	6.28
243.421	6.14
243.798	6.05
244.174	6.01
244.551	5.95
244.927	5.8
245.303	5.75
245.679	5.75
246.056	5.64
246.432	5.59
246.808	5.39
247.184	5.36
247.56	5.34
247.936	5.37
248.312	5.34
248.688	5.39
249.064	5.36
249.44	5.33
249.815	5.32
250.191	5.22
250.567	5.18
250.943	5.24
251.318	5.28
251.694	5.2
252.069	5.13
252.445	5.12
252.82	5.22
253.196	5.22
253.571	5.15
253.947	5.21
254.322	5.15
254.697	5.28
255.073	5.23
255.448	5.23
255.823	5.18
256.198	5.14
256.573	4.95
256.948	4.94
257.323	4.94
257.698	4.86
258.073	4.85
258.448	4.73
258.823	4.72
259.198	4.71
259.573	4.71
259.948	4.73
260.322	4.71
260.697	4.69
261.072	4.69
261.446	4.68
261.821	4.66
262.195	4.61
262.57	4.58
262.944	4.57
263.319	4.53
263.693	4.57
264.067	4.59
264.442	4.69
264.816	4.69
265.19	4.65
265.564	4.69
265.938	4.68
266.313	4.73
266.687	4.69
267.061	4.7
267.435	4.69
267.809	4.69
268.183	4.65
268.556	4.67
268.93	4.7
269.304	4.67
269.678	4.64
270.051	4.61
270.425	4.64
270.799	4.65
271.172	4.66
271.546	4.64
271.919	4.64
272.293	4.63
272.666	4.61
273.04	4.63
273.413	4.57
273.787	4.55
274.16	4.55
274.533	4.58
274.906	4.55
275.279	4.57
275.653	4.55
276.026	4.53
276.399	4.49
276.772	4.5
277.145	4.53
277.518	4.55
277.891	4.59
278.263	4.6
278.636	4.59
279.009	4.6
279.382	4.57
279.755	4.52
280.127	4.52
280.5	4.53
280.872	4.52
281.245	4.62
281.617	4.62
281.99	4.62
282.362	4.65
282.735	4.63
283.107	4.6
283.479	4.61
283.852	4.63
284.224	4.64
284.596	4.61
284.968	4.51
285.34	4.49
285.713	4.45
286.085	4.37
286.457	4.36
286.829	4.34
287.201	4.34
287.572	4.37
287.944	4.37
288.316	4.4
288.688	4.44
289.06	4.43
289.431	4.42
289.803	4.4
290.175	4.41
290.546	4.43
290.918	4.44
291.289	4.4
291.661	4.42
292.032	4.36
292.403	4.37
292.775	4.44
293.146	4.43
293.517	4.44
293.889	4.5
294.26	4.48
294.631	4.49
295.002	4.52
295.373	4.54
295.744	4.52
296.115	4.51
296.486	4.44
296.857	4.43
297.228	4.42
297.599	4.41
297.97	4.4
298.34	4.41
298.711	4.35
299.082	4.33
299.452	4.33
299.823	4.36
300.194	4.35
300.564	4.35
300.935	4.35
301.305	4.34
301.676	4.32
302.046	4.33
302.416	4.32
302.787	4.33
303.157	4.26
303.527	4.26
303.897	4.25
304.267	4.25
304.637	4.26
305.008	4.27
305.378	4.27
305.748	4.25
306.117	4.29
306.487	4.35
306.857	4.38
307.227	4.38
307.597	4.36
307.967	4.34
308.336	4.33
308.706	4.34
309.076	4.35
309.445	4.35
309.815	4.22
310.184	4.21
310.554	4.16
310.923	4.18
311.293	4.2
311.662	4.2
312.031	4.19
312.401	4.19
312.77	4.16
313.139	4.15
313.508	4.18
313.877	4.12
314.246	4.1
314.616	4.08
314.985	4.04
315.353	4.04
315.722	4.03
316.091	4.03
316.46	4.01
316.829	4.03
317.198	4.03
317.567	4.17
317.935	4.16
318.304	4.19
318.672	4.21
319.041	4.2
319.41	4.2
319.778	4.23
320.147	4.23
320.515	4.23
320.883	4.22
321.252	4.15
321.62	4.18
321.988	4.19
322.357	4.2
322.725	4.24
323.093	4.26
323.461	4.26
323.829	4.25
324.197	4.22
324.565	4.2
324.933	4.22
325.301	4.19
325.669	4.19
326.037	4.19
326.405	4.13
326.772	4.11
327.14	4.1
327.508	4.06
327.875	4.05
328.243	4.06
328.61	4.01
328.978	4.02
329.346	4.02
329.713	4
330.08	3.99
330.448	3.98
330.815	3.94
331.182	3.94
331.55	3.94
331.917	3.95
332.284	3.94
332.651	3.94
333.018	3.93
333.385	3.94
333.752	3.94
334.119	3.95
334.486	3.96
334.853	3.91
335.22	3.92
335.587	3.9
335.954	3.89
336.32	3.89
336.687	3.89
337.054	3.88
337.42	3.89
337.787	3.89
338.153	3.9
338.52	3.93
338.886	3.95
339.253	3.95
339.619	3.94
339.986	3.91
340.352	3.9
340.718	3.92
341.084	3.91
341.451	3.91
341.817	3.89
342.183	3.87
342.549	3.9
342.915	3.9
343.281	3.91
343.647	3.92
344.013	3.94
344.379	3.95
344.745	3.94
345.11	3.94
345.476	3.94
345.842	3.96
346.208	3.94
346.573	3.93
346.939	3.94
347.304	3.94
347.67	3.94
348.035	3.95
348.401	3.93
348.766	3.95
349.132	3.94
349.497	3.96
349.862	3.96
350.228	3.97
350.593	3.98
350.958	3.97
351.323	3.95
351.688	3.96
352.053	3.94
352.418	3.93
352.783	3.92
353.148	3.91
353.513	3.89
353.878	3.89
354.243	3.9
354.608	3.89
354.972	3.9
355.337	3.9
355.702	3.88
356.066	3.89
356.431	3.88
356.795	3.88
357.16	3.87
357.524	3.86
357.889	3.85
358.253	3.85
358.618	3.84
358.982	3.85
359.346	3.84
359.71	3.84
360.075	3.83
360.439	3.84
360.803	3.84
361.167	3.83
361.531	3.84
361.895	3.84
362.259	3.83
362.623	3.83
362.987	3.82
363.351	3.83
363.714	3.83
364.078	3.82
364.442	3.82
364.806	3.83
365.169	3.82
365.533	3.8
365.896	3.79
366.26	3.8
366.623	3.78
366.987	3.78
367.35	3.79
367.714	3.79
368.077	3.8
368.44	3.79
368.803	3.79
369.167	3.79
369.53	3.79
369.893	3.79
370.256	3.8
370.619	3.8
370.982	3.79
371.345	3.79
371.708	3.79
372.071	3.78
372.434	3.78
372.797	3.8
373.159	3.81
373.522	3.81
373.885	3.81
374.247	3.79
374.61	3.79
374.973	3.78
375.335	3.77
375.698	3.77
376.06	3.77
376.423	3.76
376.785	3.76
377.147	3.76
377.51	3.76
377.872	3.76
378.234	3.76
378.596	3.77
378.958	3.78
379.321	3.78
379.683	3.78
380.045	3.78
380.407	3.78
380.769	3.77
381.13	3.78
381.492	3.78
381.854	3.78
382.216	3.78
382.578	3.77
382.939	3.78
383.301	3.77
383.663	3.77
384.024	3.77
384.386	3.77
384.747	3.77
385.109	3.76
385.47	3.76
385.832	3.76
386.193	3.75
386.554	3.75
386.916	3.75
387.277	3.75
387.638	3.76
387.999	3.76
388.36	3.76
388.721	3.76
389.082	3.76
389.443	3.77
389.804	3.77
390.165	3.77
390.526	3.76
390.887	3.76
391.248	3.76
391.609	3.76
391.969	3.76
392.33	3.77
392.691	3.77
393.051	3.77
393.412	3.76
393.772	3.76
394.133	3.76
394.493	3.75
394.854	3.76
395.214	3.75
395.574	3.74
395.935	3.74
396.295	3.74
396.655	3.74
397.015	3.74
397.376	3.73
397.736	3.73
398.096	3.72
398.456	3.73
398.816	3.74
399.176	3.72
399.535	3.73
399.895	3.73
400.255	3.73
400.615	3.73
400.975	3.73
401.334	3.73
401.694	3.73
402.054	3.73
402.413	3.71
402.773	3.71
403.132	3.72
403.492	3.72
403.851	3.72
404.211	3.72
404.57	3.72
404.929	3.73
405.288	3.73
405.648	3.73
406.007	3.74
406.366	3.74
406.725	3.75
407.084	3.74
407.443	3.75
407.802	3.73
408.161	3.73
408.52	3.73
408.879	3.73
409.238	3.73
409.596	3.73
409.955	3.74
410.314	3.74
410.673	3.74
411.031	3.75
411.39	3.75
411.748	3.76
412.107	3.77
412.465	3.77
412.824	3.8
413.182	3.82
413.54	3.84
413.899	3.86
414.257	3.89
414.615	3.93
414.974	3.95
415.332	3.99
415.69	4.03
416.048	4.06
416.406	4.1
416.764	4.13
417.122	4.16
417.48	4.19
417.838	4.22
418.195	4.24
418.553	4.27
418.911	4.28
419.269	4.29
419.626	4.29
419.984	4.28
420.342	4.27
420.699	4.26
421.057	4.24
421.414	4.22
421.772	4.21
422.129	4.2
422.486	4.2
422.844	4.2
423.201	4.2
423.558	4.2
423.915	4.2
424.273	4.2
424.63	4.2
424.987	4.2
425.344	4.2
425.701	4.2
426.058	4.2
426.415	4.2
426.772	4.2
427.128	4.2
427.485	4.19
427.842	4.18
428.199	4.17
428.555	4.15
428.912	4.13
429.269	4.11
429.625	4.09
429.982	4.07
430.338	4.04
430.695	4.02
431.051	3.99
431.407	3.97
431.764	3.95
432.12	3.93
432.476	3.92
432.832	3.91
433.189	3.91
433.545	3.92
433.901	3.94
434.257	3.95
434.613	3.98
434.969	4
435.325	4.02
435.681	4.06
436.036	4.08
436.392	4.1
436.748	4.11
437.104	4.11
437.459	4.13
437.815	4.14
438.171	4.17
438.526	4.19
438.882	4.22
439.237	4.25
439.593	4.28
439.948	4.31
440.304	4.35
440.659	4.38
441.014	4.39
441.369	4.42
441.725	4.44
442.08	4.46
442.435	4.47
442.79	4.48
443.145	4.48
443.5	4.49
443.855	4.49
444.21	4.49
444.565	4.49
444.92	4.48
445.275	4.48
445.629	4.47
445.984	4.46
446.339	4.45
446.693	4.45
447.048	4.43
447.403	4.42
447.757	4.4
448.112	4.38
448.466	4.36
448.82	4.34
449.175	4.32
449.529	4.3
449.883	4.28
450.238	4.26
450.592	4.26
450.946	4.25
451.3	4.25
451.654	4.26
452.008	4.26
452.362	4.27
452.716	4.27
453.07	4.27
453.424	4.27
453.778	4.26
454.132	4.25
454.486	4.24
454.839	4.22
455.193	4.2
455.547	4.19
455.9	4.16
456.254	4.14
456.607	4.11
456.961	4.09
457.314	4.07
457.668	4.06
458.021	4.06
458.375	4.05
458.728	4.05
459.081	4.05
459.434	4.05
459.787	4.06
460.141	4.06
460.494	4.07
460.847	4.08
461.2	4.08
461.553	4.09
461.906	4.09
462.259	4.1
462.611	4.1
462.964	4.11
463.317	4.11
463.67	4.12
464.022	4.12
464.375	4.13
464.728	4.13
465.08	4.13
465.433	4.13
465.785	4.12
466.138	4.11
466.49	4.09
466.843	4.07
467.195	4.05
467.547	4.03
467.899	4.01
468.252	3.98
468.604	3.96
468.956	3.94
469.308	3.92
469.66	3.91
470.012	3.9
470.364	3.9
470.716	3.91
471.068	3.92
471.42	3.95
471.772	3.96
472.123	3.97
472.475	3.98
472.827	3.99
473.178	4
473.53	4.01
473.882	4.03
474.233	4.05
474.585	4.09
474.936	4.14
475.288	4.23
475.639	4.34
475.99	4.47
476.342	4.61
476.693	4.77
477.044	4.93
477.395	5.1
477.746	5.26
478.097	5.43
478.448	5.6
478.8	5.77
479.15	5.92
479.501	6.06
479.852	6.19
480.203	6.31
480.554	6.43
480.905	6.55
481.255	6.66
481.606	6.76
481.957	6.85
482.307	6.95
482.658	7.04
483.009	7.13
483.359	7.21
483.709	7.29
484.06	7.36
484.41	7.45
484.761	7.52
485.111	7.59
485.461	7.65
485.811	7.71
486.162	7.77
486.512	7.82
486.862	7.86
487.212	7.89
487.562	7.91
487.912	7.92
488.262	7.92
488.612	7.92
488.961	7.9
489.311	7.87
489.661	7.8
490.011	7.71
490.36	7.61
490.71	7.48
491.06	7.35
491.409	7.21
491.759	7.07
492.108	6.92
492.458	6.76
492.807	6.6
493.157	6.44
493.506	6.29
493.855	6.14
494.204	6
494.554	5.87
494.903	5.75
495.252	5.63
495.601	5.51
495.95	5.4
496.299	5.3
496.648	5.19
496.997	5.1
497.346	5.01
497.695	4.92
498.043	4.85
498.392	4.77
498.741	4.69
499.09	4.61
499.438	4.54
499.787	4.47
500.135	4.4
500.484	4.35
500.832	4.3
501.181	4.26
501.529	4.23
501.878	4.21
502.226	4.2
502.574	4.2
502.923	4.19
503.271	4.19
503.619	4.19
503.967	4.19
504.315	4.19
504.663	4.19
505.011	4.18
505.359	4.18
505.707	4.17
506.055	4.17
506.403	4.17
506.751	4.18
507.098	4.18
507.446	4.18
507.794	4.19
508.141	4.2
508.489	4.21
508.837	4.23
509.184	4.24
509.531	4.25
509.879	4.26
510.226	4.28
510.574	4.3
510.921	4.32
511.268	4.34
511.616	4.36
511.963	4.38
512.31	4.4
512.657	4.42
513.004	4.44
513.351	4.46
513.698	4.47
514.045	4.48
514.392	4.49
514.739	4.49
515.086	4.49
515.432	4.5
515.779	4.49
516.126	4.49
516.473	4.5
516.819	4.5
517.166	4.5
517.512	4.52
517.859	4.53
518.205	4.55
518.552	4.57
518.898	4.61
519.245	4.64
519.591	4.7
519.937	4.77
520.283	4.86
520.629	4.96
520.976	5.08
521.322	5.19
521.668	5.31
522.014	5.43
522.36	5.55
522.706	5.66
523.052	5.78
523.398	5.88
523.743	5.97
524.089	6.05
524.435	6.12
524.781	6.18
525.126	6.24
525.472	6.29
525.817	6.35
526.163	6.4
526.509	6.45
526.854	6.49
527.199	6.54
527.545	6.58
527.89	6.63
528.235	6.68
528.581	6.73
528.926	6.77
529.271	6.81
529.616	6.85
529.961	6.88
530.306	6.91
530.651	6.94
530.996	6.96
531.341	6.97
531.686	6.97
532.031	6.97
532.376	6.97
532.721	6.97
533.065	6.97
533.41	6.97
533.755	6.97
534.099	6.93
534.444	6.9
534.788	6.87
535.133	6.83
535.477	6.79
535.822	6.73
536.166	6.67
536.51	6.61
536.855	6.53
537.199	6.45
537.543	6.37
537.887	6.3
538.231	6.24
538.576	6.18
538.92	6.12
539.264	6.07
539.608	6.01
539.951	5.95
540.295	5.89
540.639	5.83
540.983	5.76
541.327	5.72
541.671	5.65
542.014	5.59
542.358	5.53
542.701	5.48
543.045	5.45
543.389	5.42
543.732	5.4
544.075	5.38
544.419	5.37
544.762	5.34
545.105	5.33
545.449	5.32
545.792	5.31
546.135	5.31
546.478	5.29
546.821	5.27
547.165	5.24
547.508	5.19
547.851	5.14
548.194	5.09
548.536	5.02
548.879	4.95
549.222	4.88
549.565	4.81
549.908	4.74
550.25	4.67
550.593	4.61
550.936	4.57
551.278	4.53
551.621	4.5
551.963	4.47
552.306	4.45
552.648	4.43
552.991	4.41
553.333	4.39
553.675	4.38
554.017	4.37
554.36	4.37
554.702	4.38
555.044	4.38
555.386	4.4
555.728	4.41
556.07	4.42
556.412	4.44
556.754	4.44
557.096	4.44
557.438	4.45
557.78	4.45
558.121	4.44
558.463	4.44
558.805	4.44
559.147	4.45
559.488	4.45
559.83	4.45
560.171	4.46
560.513	4.46
560.854	4.45
561.196	4.45
561.537	4.45
561.878	4.45
562.22	4.45
562.561	4.45
562.902	4.46
563.243	4.46
563.584	4.47
563.925	4.47
564.266	4.47
564.607	4.47
564.948	4.47
565.289	4.47
565.63	4.48
565.971	4.48
566.312	4.48
566.653	4.48
566.993	4.48
567.334	4.48
567.675	4.49
568.015	4.5
568.356	4.5
568.696	4.5
569.037	4.5
569.377	4.5
569.718	4.51
570.058	4.51
570.398	4.51
570.739	4.5
571.079	4.5
571.419	4.5
571.759	4.51
572.099	4.5
572.439	4.5
572.779	4.5
573.119	4.5
573.459	4.49
573.799	4.49
574.139	4.49
574.479	4.5
574.819	4.49
575.158	4.49
575.498	4.49
575.838	4.49
576.177	4.49
576.517	4.49
576.856	4.48
577.196	4.48
577.535	4.47
577.875	4.47
578.214	4.47
578.553	4.47
578.893	4.47
579.232	4.46
579.571	4.46
579.91	4.46
580.25	4.45
580.589	4.45
580.928	4.44
581.267	4.44
581.606	4.43
581.945	4.43
582.283	4.42
582.622	4.43
582.961	4.43
583.3	4.43
583.639	4.42
583.977	4.42
584.316	4.43
584.654	4.43
584.993	4.43
585.332	4.42
585.67	4.42
586.008	4.41
586.347	4.41
586.685	4.41
587.024	4.42
587.362	4.42
587.7	4.42
588.038	4.42
588.376	4.42
588.715	4.42
589.053	4.42
589.391	4.42
589.729	4.42
590.067	4.43
590.404	4.43
590.742	4.43
591.08	4.43
591.418	4.43
591.756	4.44
592.093	4.44
592.431	4.45
592.769	4.45
593.106	4.46
593.444	4.46
593.781	4.46
594.119	4.46
594.456	4.45
594.793	4.45
595.131	4.46
595.468	4.46
595.805	4.45
596.143	4.46
596.48	4.46
596.817	4.46
597.154	4.47
597.491	4.47
597.828	4.47
598.165	4.47
598.502	4.47
598.839	4.48
599.176	4.48
599.512	4.48
599.849	4.49
600.186	4.5
600.523	4.49
600.859	4.5
601.196	4.5
601.532	4.5
601.869	4.51
602.205	4.51
602.542	4.51
602.878	4.51
603.215	4.51
603.551	4.5
603.887	4.5
604.223	4.51
604.56	4.51
604.896	4.51
605.232	4.52
605.568	4.51
605.904	4.52
606.24	4.52
606.576	4.52
606.912	4.53
607.248	4.53
607.583	4.53
607.919	4.53
608.255	4.53
608.591	4.53
608.926	4.54
609.262	4.54
609.597	4.54
609.933	4.55
610.268	4.56
610.604	4.56
610.939	4.56
611.275	4.56
611.61	4.56
611.945	4.55
612.281	4.56
612.616	4.55
612.951	4.54
613.286	4.54
613.621	4.53
613.956	4.53
614.291	4.53
614.626	4.53
614.961	4.53
615.296	4.53
615.631	4.53
615.966	4.53
616.3	4.53
616.635	4.53
616.97	4.53
617.304	4.52
617.639	4.52
617.973	4.52
618.308	4.51
618.642	4.51
618.977	4.5
619.311	4.49
619.646	4.5
619.98	4.51
620.314	4.5
620.648	4.51
620.983	4.5
621.317	4.5
621.651	4.5
621.985	4.5
622.319	4.5
622.653	4.5
622.987	4.5
623.321	4.49
623.655	4.5
623.988	4.51
624.322	4.5
624.656	4.51
624.99	4.51
625.323	4.52
625.657	4.52
625.99	4.53
626.324	4.53
626.657	4.54
626.991	4.54
627.324	4.54
627.658	4.54
627.991	4.54
628.324	4.54
628.657	4.54
628.991	4.55
629.324	4.55
629.657	4.57
629.99	4.57
630.323	4.58
630.656	4.57
630.989	4.57
631.322	4.57
631.655	4.57
631.987	4.57
632.32	4.57
632.653	4.57
632.986	4.58
633.318	4.58
633.651	4.57
633.984	4.57
634.316	4.59
634.649	4.59
634.981	4.6
635.313	4.59
635.646	4.59
635.978	4.59
636.31	4.58
636.643	4.57
636.975	4.58
637.307	4.58
637.639	4.58
637.971	4.59
638.303	4.59
638.635	4.59
638.967	4.59
639.299	4.58
639.631	4.58
639.963	4.6
640.295	4.6
640.626	4.61
640.958	4.62
641.29	4.62
641.621	4.62
641.953	4.62
642.285	4.64
642.616	4.64
642.948	4.63
643.279	4.64
643.61	4.64
643.942	4.65
644.273	4.66
644.604	4.65
644.936	4.66
645.267	4.66
645.598	4.67
645.929	4.67
646.26	4.67
646.591	4.67
646.922	4.67
647.253	4.67
647.584	4.67
647.915	4.67
648.245	4.68
648.576	4.68
648.907	4.68
649.238	4.68
649.568	4.67
649.899	4.67
650.229	4.69
650.56	4.7
650.89	4.71
651.221	4.7
651.551	4.71
651.882	4.71
652.212	4.7
652.542	4.71
652.872	4.72
653.203	4.73
653.533	4.72
653.863	4.71
654.193	4.7
654.523	4.7
654.853	4.7
655.183	4.7
655.513	4.71
655.843	4.72
656.172	4.72
656.502	4.73
656.832	4.72
657.162	4.72
657.491	4.72
657.821	4.72
658.15	4.71
658.48	4.71
658.809	4.7
659.139	4.71
659.468	4.72
659.798	4.74
660.127	4.74
660.456	4.77
660.785	4.77
661.115	4.79
661.444	4.79
661.773	4.79
662.102	4.8
662.431	4.8
662.76	4.8
663.089	4.8
663.418	4.81
663.747	4.8
664.076	4.81
664.404	4.81
664.733	4.81
665.062	4.83
665.39	4.84
665.719	4.84
666.048	4.83
666.376	4.82
666.705	4.81
667.033	4.8
667.362	4.8
667.69	4.8
668.018	4.8
668.347	4.8
668.675	4.77
669.003	4.78
669.331	4.77
669.659	4.78
669.987	4.78
670.315	4.78
670.643	4.79
670.971	4.79
671.299	4.79
671.627	4.79
671.955	4.78
672.283	4.78
672.61	4.79
672.938	4.8
673.266	4.8
673.593	4.8
673.921	4.81
674.249	4.82
674.576	4.82
674.904	4.83
675.231	4.84
675.558	4.85
675.886	4.86
676.213	4.86
676.54	4.87
676.867	4.88
677.195	4.88
677.522	4.88
677.849	4.89
678.176	4.91
678.503	4.92
678.83	4.92
679.157	4.93
679.484	4.94
679.81	4.93
680.137	4.94
680.464	4.95
680.791	4.96
681.117	4.95
681.444	4.94
681.771	4.93
682.097	4.94
