Data from UWBM59333_Reflection_00003.txt Node
Date: Sun May 02 13:47:36 EDT 2021
User: vgr7
Spectrometer: USB2G7710
Scans to average: 10
Trigger mode: 4
Integration Time (sec): 1.000000E-1
Electric dark correction enabled: true
Boxcar width: 20
XAxis mode: Wavelengths
Number of Pixels in Spectrum: 2048
>>>>>Begin Spectral Data<<<<<
177.721	31.52
178.105	-19.33
178.488	14.24
178.871	0
179.254	5.45
179.636	-6.96
180.019	-2.35
180.402	-5.17
180.785	3.83
181.168	10.47
181.55	12.72
181.933	11.98
182.316	9.61
182.698	7.85
183.081	6
183.463	3.61
183.846	1.67
184.228	3.27
184.611	1.55
184.993	0.63
185.376	3.04
185.758	6.2
186.14	9.27
186.522	12.03
186.904	10.19
187.287	11.76
187.669	13.38
188.051	12.02
188.433	11
188.815	4.76
189.197	4.35
189.579	4.4
189.961	3.51
190.342	1.79
190.724	2.71
191.106	4.92
191.488	5.4
191.869	1.98
192.251	-1.46
192.633	-0.44
193.014	-0.43
193.396	-2.64
193.777	-0.84
194.159	-0.99
194.54	-1.61
194.922	-2.53
195.303	-2.04
195.684	-3.13
196.065	-2.85
196.447	-4.08
196.828	-6.33
197.209	-7.13
197.59	-7.62
197.971	-7.44
198.352	-5.55
198.733	-3.77
199.114	-3.03
199.495	-1.67
199.876	-3.22
200.257	-2.9
200.638	-4.04
201.018	-3.37
201.399	-2.87
201.78	-4.3
202.16	-4.65
202.541	-4.67
202.922	-5.75
203.302	-4.76
203.683	-4.04
204.063	-2.52
204.444	-0.72
204.824	-1.91
205.204	-3.67
205.585	-3.54
205.965	-0.79
206.345	-2.16
206.725	-1.91
207.106	-1.47
207.486	-0.27
207.866	0.15
208.246	-1.32
208.626	-2.36
209.006	-1.5
209.386	-1.87
209.766	-2.46
210.145	-1.19
210.525	-0.2
210.905	1.37
211.285	0.7
211.664	1.23
212.044	0.42
212.424	0.98
212.803	-0.81
213.183	-1.08
213.562	0.21
213.942	-0.85
214.321	-2.61
214.701	-3.62
215.08	-3.54
215.459	-2.44
215.838	-3.1
216.218	-3.39
216.597	-5.19
216.976	-5.28
217.355	-4.69
217.734	-3.06
218.113	-2.92
218.492	-2.32
218.871	-1.91
219.25	-2.66
219.629	-3.63
220.008	-3.47
220.387	-3.95
220.766	-2.18
221.144	-1.47
221.523	-1.76
221.902	-0.09
222.28	-1.37
222.659	-1.09
223.037	-1.87
223.416	-0.74
223.794	-0.21
224.173	1.09
224.551	0.68
224.929	1.89
225.308	2.04
225.686	1.99
226.064	1.71
226.442	1.6
226.821	2.63
227.199	2.71
227.577	3.06
227.955	3.41
228.333	4.18
228.711	4.03
229.089	3.26
229.467	3.06
229.845	3.24
230.222	3.56
230.6	3.38
230.978	3.61
231.356	4.08
231.733	4.46
232.111	4.72
232.488	4.76
232.866	4.69
233.243	4.12
233.621	4.13
233.998	4.29
234.376	4.32
234.753	4.37
235.13	4.55
235.508	4.61
235.885	4.79
236.262	4.71
236.639	4.71
237.016	4.65
237.393	4.56
237.77	4.74
238.147	4.69
238.524	4.79
238.901	4.74
239.278	4.83
239.655	4.85
240.032	4.89
240.409	4.83
240.785	4.82
241.162	4.82
241.539	4.83
241.915	4.85
242.292	4.85
242.668	4.82
243.045	4.83
243.421	4.8
243.798	4.79
244.174	4.82
244.551	4.85
244.927	4.88
245.303	4.88
245.679	4.87
246.056	4.86
246.432	4.83
246.808	4.79
247.184	4.79
247.56	4.79
247.936	4.74
248.312	4.75
248.688	4.79
249.064	4.79
249.44	4.76
249.815	4.71
250.191	4.66
250.567	4.69
250.943	4.69
251.318	4.67
251.694	4.7
252.069	4.72
252.445	4.71
252.82	4.72
253.196	4.7
253.571	4.69
253.947	4.68
254.322	4.69
254.697	4.67
255.073	4.64
255.448	4.64
255.823	4.61
256.198	4.61
256.573	4.61
256.948	4.61
257.323	4.59
257.698	4.56
258.073	4.55
258.448	4.55
258.823	4.54
259.198	4.52
259.573	4.5
259.948	4.49
260.322	4.47
260.697	4.47
261.072	4.46
261.446	4.45
261.821	4.44
262.195	4.43
262.57	4.43
262.944	4.42
263.319	4.44
263.693	4.44
264.067	4.43
264.442	4.41
264.816	4.4
265.19	4.42
265.564	4.44
265.938	4.42
266.313	4.42
266.687	4.42
267.061	4.39
267.435	4.38
267.809	4.38
268.183	4.36
268.556	4.37
268.93	4.37
269.304	4.36
269.678	4.35
270.051	4.34
270.425	4.33
270.799	4.31
271.172	4.33
271.546	4.32
271.919	4.32
272.293	4.31
272.666	4.3
273.04	4.31
273.413	4.33
273.787	4.33
274.16	4.34
274.533	4.37
274.906	4.38
275.279	4.38
275.653	4.39
276.026	4.4
276.399	4.41
276.772	4.42
277.145	4.42
277.518	4.44
277.891	4.47
278.263	4.45
278.636	4.45
279.009	4.43
279.382	4.43
279.755	4.46
280.127	4.48
280.5	4.49
280.872	4.5
281.245	4.5
281.617	4.49
281.99	4.5
282.362	4.5
282.735	4.49
283.107	4.49
283.479	4.48
283.852	4.49
284.224	4.48
284.596	4.48
284.968	4.49
285.34	4.49
285.713	4.49
286.085	4.5
286.457	4.5
286.829	4.49
287.201	4.49
287.572	4.5
287.944	4.49
288.316	4.48
288.688	4.48
289.06	4.48
289.431	4.47
289.803	4.45
290.175	4.46
290.546	4.47
290.918	4.49
291.289	4.49
291.661	4.48
292.032	4.46
292.403	4.47
292.775	4.48
293.146	4.46
293.517	4.48
293.889	4.48
294.26	4.51
294.631	4.51
295.002	4.52
295.373	4.51
295.744	4.51
296.115	4.5
296.486	4.5
296.857	4.52
297.228	4.51
297.599	4.52
297.97	4.53
298.34	4.52
298.711	4.54
299.082	4.53
299.452	4.53
299.823	4.54
300.194	4.54
300.564	4.55
300.935	4.55
301.305	4.56
301.676	4.57
302.046	4.58
302.416	4.58
302.787	4.57
303.157	4.58
303.527	4.59
303.897	4.6
304.267	4.62
304.637	4.59
305.008	4.6
305.378	4.59
305.748	4.57
306.117	4.56
306.487	4.57
306.857	4.57
307.227	4.58
307.597	4.57
307.967	4.54
308.336	4.56
308.706	4.54
309.076	4.53
309.445	4.51
309.815	4.51
310.184	4.5
310.554	4.5
310.923	4.5
311.293	4.51
311.662	4.5
312.031	4.49
312.401	4.49
312.77	4.5
313.139	4.48
313.508	4.49
313.877	4.47
314.246	4.48
314.616	4.48
314.985	4.48
315.353	4.48
315.722	4.47
316.091	4.47
316.46	4.44
316.829	4.42
317.198	4.42
317.567	4.4
317.935	4.42
318.304	4.4
318.672	4.39
319.041	4.37
319.41	4.36
319.778	4.38
320.147	4.35
320.515	4.35
320.883	4.32
321.252	4.3
321.62	4.29
321.988	4.28
322.357	4.29
322.725	4.3
323.093	4.3
323.461	4.28
323.829	4.3
324.197	4.3
324.565	4.29
324.933	4.29
325.301	4.28
325.669	4.28
326.037	4.26
326.405	4.26
326.772	4.24
327.14	4.24
327.508	4.24
327.875	4.22
328.243	4.22
328.61	4.2
328.978	4.19
329.346	4.17
329.713	4.18
330.08	4.19
330.448	4.16
330.815	4.16
331.182	4.15
331.55	4.14
331.917	4.14
332.284	4.12
332.651	4.12
333.018	4.12
333.385	4.12
333.752	4.12
334.119	4.1
334.486	4.1
334.853	4.09
335.22	4.1
335.587	4.1
335.954	4.13
336.32	4.12
336.687	4.11
337.054	4.11
337.42	4.1
337.787	4.1
338.153	4.11
338.52	4.09
338.886	4.07
339.253	4.08
339.619	4.08
339.986	4.08
340.352	4.08
340.718	4.08
341.084	4.08
341.451	4.06
341.817	4.08
342.183	4.08
342.549	4.08
342.915	4.08
343.281	4.07
343.647	4.08
344.013	4.09
344.379	4.09
344.745	4.09
345.11	4.08
345.476	4.09
345.842	4.1
346.208	4.09
346.573	4.09
346.939	4.09
347.304	4.1
347.67	4.1
348.035	4.1
348.401	4.1
348.766	4.1
349.132	4.11
349.497	4.11
349.862	4.12
350.228	4.12
350.593	4.12
350.958	4.12
351.323	4.13
351.688	4.14
352.053	4.15
352.418	4.15
352.783	4.15
353.148	4.14
353.513	4.16
353.878	4.16
354.243	4.16
354.608	4.15
354.972	4.16
355.337	4.16
355.702	4.16
356.066	4.17
356.431	4.17
356.795	4.18
357.16	4.16
357.524	4.17
357.889	4.18
358.253	4.18
358.618	4.17
358.982	4.17
359.346	4.18
359.71	4.18
360.075	4.19
360.439	4.18
360.803	4.17
361.167	4.18
361.531	4.18
361.895	4.18
362.259	4.17
362.623	4.17
362.987	4.16
363.351	4.16
363.714	4.16
364.078	4.15
364.442	4.15
364.806	4.15
365.169	4.15
365.533	4.15
365.896	4.14
366.26	4.14
366.623	4.14
366.987	4.13
367.35	4.13
367.714	4.13
368.077	4.13
368.44	4.13
368.803	4.13
369.167	4.13
369.53	4.13
369.893	4.12
370.256	4.12
370.619	4.11
370.982	4.11
371.345	4.12
371.708	4.12
372.071	4.12
372.434	4.11
372.797	4.11
373.159	4.12
373.522	4.12
373.885	4.13
374.247	4.12
374.61	4.11
374.973	4.11
375.335	4.11
375.698	4.11
376.06	4.11
376.423	4.12
376.785	4.12
377.147	4.11
377.51	4.11
377.872	4.11
378.234	4.11
378.596	4.11
378.958	4.11
379.321	4.11
379.683	4.11
380.045	4.1
380.407	4.11
380.769	4.1
381.13	4.1
381.492	4.1
381.854	4.1
382.216	4.1
382.578	4.1
382.939	4.09
383.301	4.09
383.663	4.09
384.024	4.08
384.386	4.08
384.747	4.08
385.109	4.08
385.47	4.07
385.832	4.07
386.193	4.06
386.554	4.06
386.916	4.05
387.277	4.05
387.638	4.05
387.999	4.05
388.36	4.05
388.721	4.05
389.082	4.05
389.443	4.06
389.804	4.05
390.165	4.05
390.526	4.05
390.887	4.05
391.248	4.04
391.609	4.05
391.969	4.06
392.33	4.06
392.691	4.06
393.051	4.06
393.412	4.06
393.772	4.07
394.133	4.07
394.493	4.07
394.854	4.07
395.214	4.06
395.574	4.06
395.935	4.07
396.295	4.07
396.655	4.07
397.015	4.07
397.376	4.07
397.736	4.07
398.096	4.07
398.456	4.07
398.816	4.08
399.176	4.09
399.535	4.09
399.895	4.09
400.255	4.1
400.615	4.1
400.975	4.09
401.334	4.09
401.694	4.1
402.054	4.1
402.413	4.1
402.773	4.1
403.132	4.1
403.492	4.1
403.851	4.1
404.211	4.1
404.57	4.1
404.929	4.1
405.288	4.1
405.648	4.11
406.007	4.11
406.366	4.1
406.725	4.1
407.084	4.1
407.443	4.1
407.802	4.1
408.161	4.1
408.52	4.1
408.879	4.1
409.238	4.1
409.596	4.11
409.955	4.12
410.314	4.12
410.673	4.12
411.031	4.13
411.39	4.14
411.748	4.15
412.107	4.16
412.465	4.17
412.824	4.19
413.182	4.22
413.54	4.25
413.899	4.28
414.257	4.31
414.615	4.36
414.974	4.39
415.332	4.43
415.69	4.48
416.048	4.51
416.406	4.56
416.764	4.59
417.122	4.62
417.48	4.66
417.838	4.69
418.195	4.72
418.553	4.75
418.911	4.76
419.269	4.78
419.626	4.77
419.984	4.77
420.342	4.76
420.699	4.74
421.057	4.73
421.414	4.71
421.772	4.7
422.129	4.69
422.486	4.69
422.844	4.69
423.201	4.68
423.558	4.68
423.915	4.68
424.273	4.68
424.63	4.68
424.987	4.68
425.344	4.68
425.701	4.68
426.058	4.68
426.415	4.68
426.772	4.68
427.128	4.68
427.485	4.67
427.842	4.66
428.199	4.64
428.555	4.62
428.912	4.6
429.269	4.57
429.625	4.54
429.982	4.51
430.338	4.48
430.695	4.46
431.051	4.42
431.407	4.4
431.764	4.38
432.12	4.36
432.476	4.35
432.832	4.34
433.189	4.34
433.545	4.35
433.901	4.36
434.257	4.38
434.613	4.42
434.969	4.44
435.325	4.47
435.681	4.51
436.036	4.53
436.392	4.56
436.748	4.57
437.104	4.58
437.459	4.61
437.815	4.63
438.171	4.65
438.526	4.68
438.882	4.71
439.237	4.75
439.593	4.79
439.948	4.83
440.304	4.87
440.659	4.9
441.014	4.92
441.369	4.95
441.725	4.97
442.08	4.99
442.435	5
442.79	5.01
443.145	5.02
443.5	5.02
443.855	5.02
444.21	5.02
444.565	5.02
444.92	5.01
445.275	5.01
445.629	5
445.984	4.99
446.339	4.98
446.693	4.96
447.048	4.95
447.403	4.93
447.757	4.9
448.112	4.88
448.466	4.86
448.82	4.83
449.175	4.8
449.529	4.78
449.883	4.76
450.238	4.74
450.592	4.73
450.946	4.72
451.3	4.72
451.654	4.73
452.008	4.73
452.362	4.74
452.716	4.74
453.07	4.75
453.424	4.74
453.778	4.73
454.132	4.72
454.486	4.71
454.839	4.69
455.193	4.67
455.547	4.66
455.9	4.62
456.254	4.61
456.607	4.58
456.961	4.55
457.314	4.52
457.668	4.51
458.021	4.51
458.375	4.5
458.728	4.5
459.081	4.5
459.434	4.51
459.787	4.52
460.141	4.52
460.494	4.53
460.847	4.54
461.2	4.55
461.553	4.55
461.906	4.56
462.259	4.56
462.611	4.57
462.964	4.57
463.317	4.58
463.67	4.58
464.022	4.59
464.375	4.6
464.728	4.6
465.08	4.6
465.433	4.61
465.785	4.6
466.138	4.59
466.49	4.57
466.843	4.55
467.195	4.52
467.547	4.5
467.899	4.47
468.252	4.44
468.604	4.41
468.956	4.39
469.308	4.37
469.66	4.37
470.012	4.36
470.364	4.36
470.716	4.37
471.068	4.38
471.42	4.4
471.772	4.43
472.123	4.44
472.475	4.44
472.827	4.46
473.178	4.47
473.53	4.48
473.882	4.5
474.233	4.52
474.585	4.56
474.936	4.62
475.288	4.72
475.639	4.84
475.99	4.99
476.342	5.15
476.693	5.32
477.044	5.51
477.395	5.69
477.746	5.88
478.097	6.07
478.448	6.27
478.8	6.46
479.15	6.63
479.501	6.8
479.852	6.95
480.203	7.09
480.554	7.22
480.905	7.35
481.255	7.47
481.606	7.59
481.957	7.71
482.307	7.81
482.658	7.91
483.009	8.01
483.359	8.1
483.709	8.2
484.06	8.28
484.41	8.37
484.761	8.45
485.111	8.53
485.461	8.61
485.811	8.68
486.162	8.74
486.512	8.8
486.862	8.84
487.212	8.87
487.562	8.89
487.912	8.91
488.262	8.91
488.612	8.9
488.961	8.88
489.311	8.84
489.661	8.77
490.011	8.67
490.36	8.55
490.71	8.42
491.06	8.27
491.409	8.11
491.759	7.95
492.108	7.78
492.458	7.6
492.807	7.42
493.157	7.24
493.506	7.06
493.855	6.9
494.204	6.74
494.554	6.59
494.903	6.45
495.252	6.32
495.601	6.19
495.95	6.07
496.299	5.95
496.648	5.84
496.997	5.73
497.346	5.63
497.695	5.53
498.043	5.43
498.392	5.34
498.741	5.25
499.09	5.17
499.438	5.09
499.787	5.01
500.135	4.94
500.484	4.87
500.832	4.82
501.181	4.78
501.529	4.75
501.878	4.73
502.226	4.72
502.574	4.72
502.923	4.72
503.271	4.72
503.619	4.72
503.967	4.72
504.315	4.71
504.663	4.71
505.011	4.71
505.359	4.7
505.707	4.7
506.055	4.7
506.403	4.7
506.751	4.7
507.098	4.7
507.446	4.71
507.794	4.72
508.141	4.73
508.489	4.74
508.837	4.76
509.184	4.77
509.531	4.78
509.879	4.79
510.226	4.81
510.574	4.83
510.921	4.85
511.268	4.87
511.616	4.89
511.963	4.92
512.31	4.94
512.657	4.97
513.004	4.99
513.351	5.01
513.698	5.03
514.045	5.04
514.392	5.04
514.739	5.04
515.086	5.04
515.432	5.04
515.779	5.03
516.126	5.03
516.473	5.03
516.819	5.03
517.166	5.03
517.512	5.04
517.859	5.06
518.205	5.08
518.552	5.1
518.898	5.14
519.245	5.18
519.591	5.24
519.937	5.32
520.283	5.42
520.629	5.54
520.976	5.66
521.322	5.79
521.668	5.92
522.014	6.06
522.36	6.2
522.706	6.33
523.052	6.46
523.398	6.57
523.743	6.68
524.089	6.77
524.435	6.85
524.781	6.92
525.126	6.98
525.472	7.05
525.817	7.11
526.163	7.16
526.509	7.22
526.854	7.27
527.199	7.31
527.545	7.36
527.89	7.42
528.235	7.47
528.581	7.52
528.926	7.57
529.271	7.61
529.616	7.65
529.961	7.69
530.306	7.72
530.651	7.74
530.996	7.76
531.341	7.77
531.686	7.78
532.031	7.78
532.376	7.79
532.721	7.79
533.065	7.8
533.41	7.8
533.755	7.8
534.099	7.78
534.444	7.76
534.788	7.72
535.133	7.67
535.477	7.62
535.822	7.56
536.166	7.5
536.51	7.42
536.855	7.34
537.199	7.26
537.543	7.17
537.887	7.1
538.231	7.03
538.576	6.96
538.92	6.9
539.264	6.84
539.608	6.77
539.951	6.7
540.295	6.63
540.639	6.56
540.983	6.49
541.327	6.42
541.671	6.34
542.014	6.27
542.358	6.2
542.701	6.16
543.045	6.12
543.389	6.09
543.732	6.07
544.075	6.05
544.419	6.03
544.762	6.01
545.105	6
545.449	5.99
545.792	5.98
546.135	5.97
546.478	5.96
546.821	5.93
547.165	5.89
547.508	5.85
547.851	5.8
548.194	5.74
548.536	5.67
548.879	5.59
549.222	5.51
549.565	5.43
549.908	5.36
550.25	5.28
550.593	5.21
550.936	5.16
551.278	5.12
551.621	5.08
551.963	5.04
552.306	5.02
552.648	4.99
552.991	4.98
553.333	4.96
553.675	4.96
554.017	4.95
554.36	4.95
554.702	4.95
555.044	4.97
555.386	4.98
555.728	5
556.07	5.01
556.412	5.04
556.754	5.04
557.096	5.05
557.438	5.05
557.78	5.05
558.121	5.05
558.463	5.05
558.805	5.06
559.147	5.06
559.488	5.06
559.83	5.06
560.171	5.07
560.513	5.07
560.854	5.07
561.196	5.07
561.537	5.08
561.878	5.08
562.22	5.08
562.561	5.08
562.902	5.08
563.243	5.09
563.584	5.09
563.925	5.09
564.266	5.09
564.607	5.1
564.948	5.1
565.289	5.11
565.63	5.11
565.971	5.12
566.312	5.12
566.653	5.13
566.993	5.13
567.334	5.13
567.675	5.13
568.015	5.14
568.356	5.14
568.696	5.15
569.037	5.15
569.377	5.15
569.718	5.15
570.058	5.15
570.398	5.16
570.739	5.15
571.079	5.15
571.419	5.15
571.759	5.15
572.099	5.15
572.439	5.16
572.779	5.16
573.119	5.16
573.459	5.16
573.799	5.16
574.139	5.16
574.479	5.16
574.819	5.16
575.158	5.16
575.498	5.16
575.838	5.16
576.177	5.16
576.517	5.16
576.856	5.17
577.196	5.16
577.535	5.16
577.875	5.16
578.214	5.17
578.553	5.17
578.893	5.16
579.232	5.16
579.571	5.16
579.91	5.16
580.25	5.16
580.589	5.15
580.928	5.15
581.267	5.15
581.606	5.15
581.945	5.14
582.283	5.14
582.622	5.14
582.961	5.15
583.3	5.15
583.639	5.15
583.977	5.15
584.316	5.15
584.654	5.16
584.993	5.16
585.332	5.16
585.67	5.17
586.008	5.17
586.347	5.17
586.685	5.17
587.024	5.18
587.362	5.18
587.7	5.18
588.038	5.19
588.376	5.18
588.715	5.18
589.053	5.18
589.391	5.19
589.729	5.2
590.067	5.2
590.404	5.21
590.742	5.21
591.08	5.22
591.418	5.22
591.756	5.23
592.093	5.22
592.431	5.23
592.769	5.23
593.106	5.24
593.444	5.24
593.781	5.24
594.119	5.24
594.456	5.25
594.793	5.25
595.131	5.25
595.468	5.25
595.805	5.25
596.143	5.26
596.48	5.26
596.817	5.26
597.154	5.26
597.491	5.27
597.828	5.27
598.165	5.27
598.502	5.28
598.839	5.28
599.176	5.28
599.512	5.28
599.849	5.28
600.186	5.29
600.523	5.29
600.859	5.29
601.196	5.29
601.532	5.29
601.869	5.3
602.205	5.3
602.542	5.3
602.878	5.31
603.215	5.31
603.551	5.31
603.887	5.31
604.223	5.31
604.56	5.31
604.896	5.31
605.232	5.31
605.568	5.3
605.904	5.31
606.24	5.31
606.576	5.31
606.912	5.31
607.248	5.3
607.583	5.31
607.919	5.31
608.255	5.31
608.591	5.31
608.926	5.32
609.262	5.32
609.597	5.32
609.933	5.32
610.268	5.32
610.604	5.32
610.939	5.31
611.275	5.31
611.61	5.31
611.945	5.31
612.281	5.3
612.616	5.3
612.951	5.3
613.286	5.29
613.621	5.29
613.956	5.29
614.291	5.29
614.626	5.29
614.961	5.3
615.296	5.3
615.631	5.3
615.966	5.31
616.3	5.31
616.635	5.3
616.97	5.31
617.304	5.31
617.639	5.32
617.973	5.32
618.308	5.32
618.642	5.31
618.977	5.32
619.311	5.32
619.646	5.33
619.98	5.33
620.314	5.33
620.648	5.34
620.983	5.34
621.317	5.34
621.651	5.35
621.985	5.35
622.319	5.35
622.653	5.36
622.987	5.36
623.321	5.36
623.655	5.37
623.988	5.37
624.322	5.38
624.656	5.39
624.99	5.39
625.323	5.39
625.657	5.4
625.99	5.4
626.324	5.4
626.657	5.4
626.991	5.41
627.324	5.41
627.658	5.42
627.991	5.41
628.324	5.42
628.657	5.42
628.991	5.42
629.324	5.42
629.657	5.42
629.99	5.42
630.323	5.43
630.656	5.43
630.989	5.43
631.322	5.44
631.655	5.44
631.987	5.45
632.32	5.45
632.653	5.46
632.986	5.46
633.318	5.46
633.651	5.47
633.984	5.46
634.316	5.47
634.649	5.47
634.981	5.47
635.313	5.47
635.646	5.47
635.978	5.48
636.31	5.48
636.643	5.48
636.975	5.49
637.307	5.49
637.639	5.49
637.971	5.49
638.303	5.49
638.635	5.49
638.967	5.49
639.299	5.49
639.631	5.5
639.963	5.5
640.295	5.51
640.626	5.51
640.958	5.52
641.29	5.52
641.621	5.53
641.953	5.53
642.285	5.53
642.616	5.54
642.948	5.54
643.279	5.55
643.61	5.56
643.942	5.56
644.273	5.57
644.604	5.57
644.936	5.57
645.267	5.57
645.598	5.57
645.929	5.57
646.26	5.57
646.591	5.57
646.922	5.58
647.253	5.58
647.584	5.59
647.915	5.59
648.245	5.6
648.576	5.59
648.907	5.6
649.238	5.6
649.568	5.6
649.899	5.6
650.229	5.61
650.56	5.61
650.89	5.61
651.221	5.61
651.551	5.62
651.882	5.61
652.212	5.62
652.542	5.62
652.872	5.63
653.203	5.63
653.533	5.63
653.863	5.64
654.193	5.65
654.523	5.65
654.853	5.65
655.183	5.65
655.513	5.66
655.843	5.66
656.172	5.66
656.502	5.67
656.832	5.67
657.162	5.67
657.491	5.67
657.821	5.67
658.15	5.68
658.48	5.68
658.809	5.69
659.139	5.69
659.468	5.69
659.798	5.7
660.127	5.7
660.456	5.71
660.785	5.71
661.115	5.71
661.444	5.72
661.773	5.72
662.102	5.73
662.431	5.73
662.76	5.74
663.089	5.74
663.418	5.76
663.747	5.77
664.076	5.77
664.404	5.78
664.733	5.78
665.062	5.79
665.39	5.8
665.719	5.8
666.048	5.82
666.376	5.82
666.705	5.82
667.033	5.83
667.362	5.83
667.69	5.84
668.018	5.84
668.347	5.85
668.675	5.85
669.003	5.86
669.331	5.87
669.659	5.88
669.987	5.87
670.315	5.88
670.643	5.88
670.971	5.89
671.299	5.9
671.627	5.89
671.955	5.89
672.283	5.9
672.61	5.9
672.938	5.9
673.266	5.9
673.593	5.89
673.921	5.88
674.249	5.9
674.576	5.9
674.904	5.91
675.231	5.92
675.558	5.93
675.886	5.93
676.213	5.94
676.54	5.94
676.867	5.93
677.195	5.92
677.522	5.93
677.849	5.93
678.176	5.92
678.503	5.92
678.83	5.93
679.157	5.93
679.484	5.93
679.81	5.94
680.137	5.94
680.464	5.95
680.791	5.95
681.117	5.96
681.444	5.96
681.771	5.96
682.097	5.96
