Data from UWBM122617_Reflection_00013.txt Node
Date: Sun May 02 12:18:21 EDT 2021
User: vgr7
Spectrometer: USB2G7710
Scans to average: 10
Trigger mode: 4
Integration Time (sec): 1.000000E-1
Electric dark correction enabled: true
Boxcar width: 10
XAxis mode: Wavelengths
Number of Pixels in Spectrum: 2048
>>>>>Begin Spectral Data<<<<<
177.721	910
178.105	454.55
178.488	100
178.871	407.59
179.254	-188.46
179.636	1.82
180.019	43.75
180.402	5
180.785	12.9
181.168	-17.26
181.55	17.16
181.933	-0.63
182.316	40.88
182.698	83.1
183.081	70.49
183.463	31.43
183.846	24.44
184.228	15.17
184.611	13.78
184.993	25.96
185.376	29.82
185.758	15.59
186.14	16.39
186.522	24.8
186.904	20.34
187.287	22.24
187.669	19.86
188.051	13.68
188.433	17.98
188.815	19.41
189.197	25.86
189.579	24.4
189.961	24.09
190.342	23.6
190.724	23.72
191.106	17.87
191.488	20.63
191.869	16.46
192.251	16.83
192.633	15.35
193.014	13.82
193.396	12.18
193.777	14.34
194.159	11.33
194.54	5.13
194.922	2.31
195.303	3.71
195.684	5.61
196.065	7.8
196.447	2.8
196.828	-0.46
197.209	-6.21
197.59	-6.95
197.971	-8.47
198.352	-6.01
198.733	-6.08
199.114	-4.24
199.495	-8.96
199.876	-4.28
200.257	-6.77
200.638	-6.65
201.018	-7.63
201.399	-6.18
201.78	-6.13
202.16	-8.75
202.541	-5.65
202.922	-7.3
203.302	-8.75
203.683	-9.04
204.063	-7.5
204.444	-4.81
204.824	1.85
205.204	5.47
205.585	5.05
205.965	6.21
206.345	7.76
206.725	5.8
207.106	4.96
207.486	5.94
207.866	8.09
208.246	11.87
208.626	14.78
209.006	16.85
209.386	16.14
209.766	16.5
210.145	18.24
210.525	15.93
210.905	17.5
211.285	15.88
211.664	18.29
212.044	13.08
212.424	16.11
212.803	13.17
213.183	12.3
213.562	11.22
213.942	12.84
214.321	8.34
214.701	5.58
215.08	7.74
215.459	9.92
215.838	6.05
216.218	7.73
216.597	6.68
216.976	1.72
217.355	1.59
217.734	1.1
218.113	1.95
218.492	3.04
218.871	4.64
219.25	5.29
219.629	2.81
220.008	7.36
220.387	2.4
220.766	-2.02
221.144	-2.45
221.523	0.67
221.902	-2.42
222.28	-3.02
222.659	0.22
223.037	3.21
223.416	4.81
223.794	5.05
224.173	3
224.551	3.59
224.929	5.48
225.308	7.6
225.686	7
226.064	7.78
226.442	6.82
226.821	6.94
227.199	7.08
227.577	6.46
227.955	6.39
228.333	6.81
228.711	7.28
229.089	8.43
229.467	7.72
229.845	8.91
230.222	8.98
230.6	9.1
230.978	8.44
231.356	7.8
231.733	7.19
232.111	7.33
232.488	7.39
232.866	7.11
233.243	6.56
233.621	6.94
233.998	6.57
234.376	6.78
234.753	7.32
235.13	7.67
235.508	8.64
235.885	8.66
236.262	8.63
236.639	8.83
237.016	8.42
237.393	8.28
237.77	7.72
238.147	7.62
238.524	7.79
238.901	7.77
239.278	7.3
239.655	7.27
240.032	7.17
240.409	7.07
240.785	6.87
241.162	6.93
241.539	6.91
241.915	6.9
242.292	6.94
242.668	6.71
243.045	6.6
243.421	6.36
243.798	6.32
244.174	6.26
244.551	6.23
244.927	6.12
245.303	6.01
245.679	6.06
246.056	5.92
246.432	5.75
246.808	5.62
247.184	5.63
247.56	5.62
247.936	5.59
248.312	5.55
248.688	5.57
249.064	5.45
249.44	5.42
249.815	5.34
250.191	5.26
250.567	5.23
250.943	5.26
251.318	5.3
251.694	5.16
252.069	5.12
252.445	5.12
252.82	5.02
253.196	5.05
253.571	4.99
253.947	5.16
254.322	5.14
254.697	5.24
255.073	5.18
255.448	5.13
255.823	5.09
256.198	4.98
256.573	4.91
256.948	4.99
257.323	4.94
257.698	4.93
258.073	4.89
258.448	4.91
258.823	4.85
259.198	4.84
259.573	4.87
259.948	4.89
260.322	4.85
260.697	4.88
261.072	4.88
261.446	4.86
261.821	4.8
262.195	4.79
262.57	4.74
262.944	4.76
263.319	4.74
263.693	4.75
264.067	4.8
264.442	4.8
264.816	4.75
265.19	4.74
265.564	4.77
265.938	4.77
266.313	4.68
266.687	4.63
267.061	4.67
267.435	4.67
267.809	4.63
268.183	4.69
268.556	4.66
268.93	4.65
269.304	4.61
269.678	4.61
270.051	4.64
270.425	4.64
270.799	4.64
271.172	4.68
271.546	4.74
271.919	4.77
272.293	4.74
272.666	4.73
273.04	4.76
273.413	4.7
273.787	4.67
274.16	4.7
274.533	4.71
274.906	4.64
275.279	4.7
275.653	4.7
276.026	4.61
276.399	4.63
276.772	4.62
277.145	4.66
277.518	4.67
277.891	4.69
278.263	4.7
278.636	4.74
279.009	4.72
279.382	4.65
279.755	4.59
280.127	4.62
280.5	4.64
280.872	4.58
281.245	4.62
281.617	4.67
281.99	4.68
282.362	4.67
282.735	4.66
283.107	4.62
283.479	4.62
283.852	4.62
284.224	4.63
284.596	4.61
284.968	4.64
285.34	4.62
285.713	4.62
286.085	4.6
286.457	4.58
286.829	4.58
287.201	4.59
287.572	4.62
287.944	4.68
288.316	4.71
288.688	4.78
289.06	4.78
289.431	4.76
289.803	4.71
290.175	4.77
290.546	4.82
290.918	4.84
291.289	4.85
291.661	4.88
292.032	4.9
292.403	4.91
292.775	4.88
293.146	4.91
293.517	4.91
293.889	4.94
294.26	4.92
294.631	4.95
295.002	4.97
295.373	4.98
295.744	4.94
296.115	4.95
296.486	4.93
296.857	4.98
297.228	5.03
297.599	5.1
297.97	5.11
298.34	5.12
298.711	5.1
299.082	5.11
299.452	5.12
299.823	5.16
300.194	5.2
300.564	5.24
300.935	5.27
301.305	5.3
301.676	5.28
302.046	5.32
302.416	5.35
302.787	5.4
303.157	5.44
303.527	5.55
303.897	5.56
304.267	5.6
304.637	5.64
305.008	5.68
305.378	5.75
305.748	5.8
306.117	5.86
306.487	5.91
306.857	5.98
307.227	6.04
307.597	6.03
307.967	6.06
308.336	6.12
308.706	6.17
309.076	6.21
309.445	6.29
309.815	6.34
310.184	6.38
310.554	6.39
310.923	6.43
311.293	6.44
311.662	6.47
312.031	6.51
312.401	6.56
312.77	6.59
313.139	6.62
313.508	6.64
313.877	6.65
314.246	6.69
314.616	6.74
314.985	6.75
315.353	6.82
315.722	6.92
316.091	6.95
316.46	7
316.829	7.08
317.198	7.12
317.567	7.17
317.935	7.18
318.304	7.24
318.672	7.33
319.041	7.38
319.41	7.48
319.778	7.58
320.147	7.61
320.515	7.64
320.883	7.66
321.252	7.71
321.62	7.72
321.988	7.79
322.357	7.86
322.725	7.98
323.093	8.01
323.461	8.03
323.829	8.07
324.197	8.1
324.565	8.11
324.933	8.15
325.301	8.22
325.669	8.28
326.037	8.31
326.405	8.3
326.772	8.3
327.14	8.3
327.508	8.3
327.875	8.35
328.243	8.42
328.61	8.47
328.978	8.55
329.346	8.61
329.713	8.62
330.08	8.62
330.448	8.62
330.815	8.68
331.182	8.7
331.55	8.73
331.917	8.79
332.284	8.82
332.651	8.83
333.018	8.86
333.385	8.87
333.752	8.88
334.119	8.89
334.486	8.97
334.853	8.99
335.22	9.01
335.587	9
335.954	9.01
336.32	9.01
336.687	8.99
337.054	9
337.42	9.05
337.787	9.08
338.153	9.11
338.52	9.13
338.886	9.18
339.253	9.17
339.619	9.19
339.986	9.21
340.352	9.26
340.718	9.28
341.084	9.32
341.451	9.32
341.817	9.33
342.183	9.35
342.549	9.35
342.915	9.36
343.281	9.4
343.647	9.43
344.013	9.46
344.379	9.48
344.745	9.47
345.11	9.47
345.476	9.51
345.842	9.53
346.208	9.51
346.573	9.49
346.939	9.52
347.304	9.5
347.67	9.52
348.035	9.51
348.401	9.5
348.766	9.53
349.132	9.55
349.497	9.58
349.862	9.55
350.228	9.57
350.593	9.59
350.958	9.58
351.323	9.59
351.688	9.6
352.053	9.59
352.418	9.65
352.783	9.64
353.148	9.61
353.513	9.57
353.878	9.58
354.243	9.58
354.608	9.55
354.972	9.53
355.337	9.51
355.702	9.5
356.066	9.49
356.431	9.44
356.795	9.44
357.16	9.39
357.524	9.37
357.889	9.33
358.253	9.3
358.618	9.27
358.982	9.24
359.346	9.2
359.71	9.17
360.075	9.12
360.439	9.11
360.803	9.07
361.167	9.05
361.531	9.02
361.895	9
362.259	8.98
362.623	8.97
362.987	8.94
363.351	8.91
363.714	8.88
364.078	8.85
364.442	8.82
364.806	8.8
365.169	8.77
365.533	8.74
365.896	8.71
366.26	8.67
366.623	8.63
366.987	8.6
367.35	8.56
367.714	8.54
368.077	8.48
368.44	8.44
368.803	8.37
369.167	8.34
369.53	8.3
369.893	8.25
370.256	8.21
370.619	8.16
370.982	8.12
371.345	8.06
371.708	8.01
372.071	7.95
372.434	7.89
372.797	7.84
373.159	7.79
373.522	7.74
373.885	7.69
374.247	7.63
374.61	7.58
374.973	7.54
375.335	7.45
375.698	7.4
376.06	7.35
376.423	7.33
376.785	7.27
377.147	7.2
377.51	7.17
377.872	7.11
378.234	7.06
378.596	7
378.958	6.97
379.321	6.94
379.683	6.89
380.045	6.85
380.407	6.8
380.769	6.75
381.13	6.72
381.492	6.67
381.854	6.62
382.216	6.59
382.578	6.55
382.939	6.53
383.301	6.49
383.663	6.46
384.024	6.42
384.386	6.39
384.747	6.36
385.109	6.33
385.47	6.29
385.832	6.28
386.193	6.26
386.554	6.22
386.916	6.19
387.277	6.16
387.638	6.15
387.999	6.12
388.36	6.09
388.721	6.07
389.082	6.05
389.443	6.02
389.804	5.97
390.165	5.94
390.526	5.91
390.887	5.88
391.248	5.85
391.609	5.83
391.969	5.79
392.33	5.77
392.691	5.73
393.051	5.71
393.412	5.67
393.772	5.65
394.133	5.61
394.493	5.57
394.854	5.55
395.214	5.51
395.574	5.48
395.935	5.45
396.295	5.41
396.655	5.38
397.015	5.35
397.376	5.33
397.736	5.3
398.096	5.27
398.456	5.24
398.816	5.21
399.176	5.18
399.535	5.15
399.895	5.12
400.255	5.1
400.615	5.08
400.975	5.07
401.334	5.03
401.694	5.01
402.054	4.99
402.413	4.97
402.773	4.97
403.132	4.96
403.492	4.94
403.851	4.93
404.211	4.92
404.57	4.91
404.929	4.89
405.288	4.87
405.648	4.86
406.007	4.85
406.366	4.86
406.725	4.85
407.084	4.84
407.443	4.83
407.802	4.83
408.161	4.82
408.52	4.82
408.879	4.81
409.238	4.8
409.596	4.8
409.955	4.79
410.314	4.77
410.673	4.75
411.031	4.75
411.39	4.73
411.748	4.73
412.107	4.73
412.465	4.72
412.824	4.71
413.182	4.7
413.54	4.7
413.899	4.68
414.257	4.67
414.615	4.66
414.974	4.65
415.332	4.64
415.69	4.63
416.048	4.62
416.406	4.62
416.764	4.62
417.122	4.62
417.48	4.61
417.838	4.61
418.195	4.61
418.553	4.61
418.911	4.61
419.269	4.6
419.626	4.6
419.984	4.6
420.342	4.6
420.699	4.6
421.057	4.59
421.414	4.59
421.772	4.59
422.129	4.59
422.486	4.58
422.844	4.57
423.201	4.56
423.558	4.56
423.915	4.55
424.273	4.54
424.63	4.53
424.987	4.52
425.344	4.52
425.701	4.51
426.058	4.5
426.415	4.49
426.772	4.47
427.128	4.46
427.485	4.44
427.842	4.44
428.199	4.43
428.555	4.42
428.912	4.41
429.269	4.4
429.625	4.4
429.982	4.4
430.338	4.39
430.695	4.4
431.051	4.4
431.407	4.4
431.764	4.39
432.12	4.39
432.476	4.39
432.832	4.39
433.189	4.39
433.545	4.39
433.901	4.39
434.257	4.4
434.613	4.4
434.969	4.4
435.325	4.41
435.681	4.41
436.036	4.41
436.392	4.41
436.748	4.42
437.104	4.41
437.459	4.41
437.815	4.42
438.171	4.42
438.526	4.42
438.882	4.42
439.237	4.42
439.593	4.43
439.948	4.44
440.304	4.44
440.659	4.44
441.014	4.44
441.369	4.45
441.725	4.45
442.08	4.45
442.435	4.45
442.79	4.45
443.145	4.45
443.5	4.45
443.855	4.45
444.21	4.45
444.565	4.45
444.92	4.45
445.275	4.45
445.629	4.45
445.984	4.45
446.339	4.44
446.693	4.44
447.048	4.43
447.403	4.42
447.757	4.42
448.112	4.41
448.466	4.41
448.82	4.4
449.175	4.4
449.529	4.39
449.883	4.38
450.238	4.37
450.592	4.35
450.946	4.35
451.3	4.34
451.654	4.34
452.008	4.33
452.362	4.32
452.716	4.31
453.07	4.31
453.424	4.3
453.778	4.31
454.132	4.3
454.486	4.29
454.839	4.29
455.193	4.29
455.547	4.29
455.9	4.3
456.254	4.31
456.607	4.31
456.961	4.32
457.314	4.34
457.668	4.34
458.021	4.35
458.375	4.35
458.728	4.36
459.081	4.37
459.434	4.37
459.787	4.37
460.141	4.37
460.494	4.37
460.847	4.36
461.2	4.36
461.553	4.37
461.906	4.37
462.259	4.37
462.611	4.38
462.964	4.39
463.317	4.39
463.67	4.38
464.022	4.38
464.375	4.38
464.728	4.39
465.08	4.39
465.433	4.4
465.785	4.4
466.138	4.39
466.49	4.39
466.843	4.4
467.195	4.41
467.547	4.41
467.899	4.43
468.252	4.44
468.604	4.45
468.956	4.46
469.308	4.47
469.66	4.48
470.012	4.49
470.364	4.49
470.716	4.5
471.068	4.51
471.42	4.52
471.772	4.52
472.123	4.53
472.475	4.54
472.827	4.54
473.178	4.54
473.53	4.55
473.882	4.55
474.233	4.56
474.585	4.57
474.936	4.57
475.288	4.57
475.639	4.57
475.99	4.57
476.342	4.57
476.693	4.56
477.044	4.56
477.395	4.56
477.746	4.56
478.097	4.56
478.448	4.58
478.8	4.66
479.15	4.77
479.501	4.92
479.852	5.08
480.203	5.26
480.554	5.44
480.905	5.63
481.255	5.81
481.606	5.99
481.957	6.16
482.307	6.34
482.658	6.48
483.009	6.61
483.359	6.73
483.709	6.83
484.06	6.93
484.41	7.01
484.761	7.1
485.111	7.18
485.461	7.27
485.811	7.34
486.162	7.37
486.512	7.36
486.862	7.32
487.212	7.26
487.562	7.17
487.912	7.07
488.262	6.96
488.612	6.84
488.961	6.71
489.311	6.57
489.661	6.42
490.011	6.28
490.36	6.14
490.71	5.98
491.06	5.83
491.409	5.67
491.759	5.54
492.108	5.44
492.458	5.35
492.807	5.26
493.157	5.18
493.506	5.11
493.855	5.04
494.204	4.97
494.554	4.91
494.903	4.85
495.252	4.8
495.601	4.76
495.95	4.72
496.299	4.68
496.648	4.65
496.997	4.63
497.346	4.63
497.695	4.65
498.043	4.71
498.392	4.77
498.741	4.86
499.09	4.92
499.438	4.96
499.787	4.99
500.135	5.02
500.484	5.07
500.832	5.11
501.181	5.15
501.529	5.19
501.878	5.24
502.226	5.29
502.574	5.34
502.923	5.4
503.271	5.45
503.619	5.51
503.967	5.59
504.315	5.66
504.663	5.73
505.011	5.8
505.359	5.87
505.707	5.95
506.055	6.03
506.403	6.12
506.751	6.21
507.098	6.3
507.446	6.4
507.794	6.49
508.141	6.58
508.489	6.69
508.837	6.79
509.184	6.89
509.531	7
509.879	7.09
510.226	7.2
510.574	7.31
510.921	7.43
511.268	7.54
511.616	7.65
511.963	7.78
512.31	7.91
512.657	8.04
513.004	8.18
513.351	8.33
513.698	8.48
514.045	8.65
514.392	8.81
514.739	8.98
515.086	9.15
515.432	9.33
515.779	9.49
516.126	9.67
516.473	9.83
516.819	9.99
517.166	10.16
517.512	10.32
517.859	10.47
518.205	10.62
518.552	10.76
518.898	10.92
519.245	11.07
519.591	11.22
519.937	11.38
520.283	11.54
520.629	11.72
520.976	11.89
521.322	12.08
521.668	12.26
522.014	12.46
522.36	12.65
522.706	12.87
523.052	13.14
523.398	13.51
523.743	13.96
524.089	14.48
524.435	15.03
524.781	15.59
525.126	16.15
525.472	16.72
525.817	17.26
526.163	17.77
526.509	18.26
526.854	18.68
527.199	19.04
527.545	19.33
527.89	19.58
528.235	19.83
528.581	20.08
528.926	20.33
529.271	20.57
529.616	20.81
529.961	21.04
530.306	21.25
530.651	21.38
530.996	21.42
531.341	21.4
531.686	21.34
532.031	21.21
532.376	21.01
532.721	20.76
533.065	20.5
533.41	20.3
533.755	20.11
534.099	19.99
534.444	19.97
534.788	20.01
535.133	20.09
535.477	20.19
535.822	20.31
536.166	20.46
536.51	20.64
536.855	20.84
537.199	21.08
537.543	21.36
537.887	21.68
538.231	22.04
538.576	22.41
538.92	22.8
539.264	23.21
539.608	23.63
539.951	24.04
540.295	24.45
540.639	24.74
540.983	25.01
541.327	25.25
541.671	25.4
542.014	25.64
542.358	25.88
542.701	26.11
543.045	26.33
543.389	26.56
543.732	26.77
544.075	26.99
544.419	27.18
544.762	27.36
545.105	27.51
545.449	27.63
545.792	27.72
546.135	27.83
546.478	27.97
546.821	28.14
547.165	28.4
547.508	28.69
547.851	29.05
548.194	29.44
548.536	29.86
548.879	30.29
549.222	30.6
549.565	30.88
549.908	31.16
550.25	31.44
550.593	31.73
550.936	32.02
551.278	32.32
551.621	32.61
551.963	32.91
552.306	33.19
552.648	33.5
552.991	33.77
553.333	34.04
553.675	34.32
554.017	34.59
554.36	34.85
554.702	35.11
555.044	35.36
555.386	35.62
555.728	35.88
556.07	36.14
556.412	36.39
556.754	36.66
557.096	36.92
557.438	37.19
557.78	37.46
558.121	37.72
558.463	37.97
558.805	38.22
559.147	38.48
559.488	38.73
559.83	38.99
560.171	39.23
560.513	39.49
560.854	39.75
561.196	40.01
561.537	40.28
561.878	40.52
562.22	40.77
562.561	41.02
562.902	41.27
563.243	41.53
563.584	41.76
563.925	41.97
564.266	42.18
564.607	42.4
564.948	42.62
565.289	42.82
565.63	43.02
565.971	43.23
566.312	43.43
566.653	43.63
566.993	43.8
567.334	44.01
567.675	44.2
568.015	44.37
568.356	44.57
568.696	44.72
569.037	44.9
569.377	45.09
569.718	45.28
570.058	45.44
570.398	45.61
570.739	45.8
571.079	45.96
571.419	46.13
571.759	46.27
572.099	46.42
572.439	46.57
572.779	46.7
573.119	46.84
573.459	46.99
573.799	47.11
574.139	47.24
574.479	47.35
574.819	47.46
575.158	47.55
575.498	47.63
575.838	47.76
576.177	47.86
576.517	47.95
576.856	48.02
577.196	48.11
577.535	48.22
577.875	48.29
578.214	48.39
578.553	48.5
578.893	48.57
579.232	48.66
579.571	48.77
579.91	48.87
580.25	48.95
580.589	49.02
580.928	49.12
581.267	49.21
581.606	49.31
581.945	49.39
582.283	49.51
582.622	49.61
582.961	49.71
583.3	49.84
583.639	49.94
583.977	50.03
584.316	50.14
584.654	50.24
584.993	50.33
585.332	50.43
585.67	50.52
586.008	50.63
586.347	50.74
586.685	50.81
587.024	50.91
587.362	51
587.7	51.08
588.038	51.18
588.376	51.27
588.715	51.38
589.053	51.49
589.391	51.59
589.729	51.67
590.067	51.76
590.404	51.84
590.742	51.92
591.08	52.01
591.418	52.09
591.756	52.16
592.093	52.26
592.431	52.35
592.769	52.43
593.106	52.49
593.444	52.56
593.781	52.65
594.119	52.72
594.456	52.8
594.793	52.88
595.131	52.92
595.468	52.99
595.805	53.03
596.143	53.07
596.48	53.12
596.817	53.2
597.154	53.23
597.491	53.25
597.828	53.32
598.165	53.36
598.502	53.43
598.839	53.49
599.176	53.54
599.512	53.6
599.849	53.65
600.186	53.73
600.523	53.79
600.859	53.85
601.196	53.91
601.532	53.97
601.869	54.07
602.205	54.14
602.542	54.2
602.878	54.27
603.215	54.34
603.551	54.38
603.887	54.41
604.223	54.47
604.56	54.51
604.896	54.53
605.232	54.59
605.568	54.63
605.904	54.65
606.24	54.68
606.576	54.72
606.912	54.78
607.248	54.82
607.583	54.86
607.919	54.87
608.255	54.88
608.591	54.91
608.926	54.91
609.262	54.96
609.597	54.97
609.933	54.99
610.268	55
610.604	55.02
610.939	55.05
611.275	55.04
611.61	55.11
611.945	55.13
612.281	55.16
612.616	55.16
612.951	55.22
613.286	55.26
613.621	55.29
613.956	55.3
614.291	55.34
614.626	55.36
614.961	55.41
615.296	55.5
615.631	55.55
615.966	55.58
616.3	55.59
616.635	55.65
616.97	55.69
617.304	55.74
617.639	55.78
617.973	55.82
618.308	55.86
618.642	55.9
618.977	55.94
619.311	55.96
619.646	56
619.98	56.02
620.314	56.05
620.648	56.06
620.983	56.09
621.317	56.12
621.651	56.16
621.985	56.19
622.319	56.19
622.653	56.2
622.987	56.23
623.321	56.24
623.655	56.28
623.988	56.32
624.322	56.35
624.656	56.37
624.99	56.44
625.323	56.47
625.657	56.51
625.99	56.57
626.324	56.6
626.657	56.64
626.991	56.68
627.324	56.72
627.658	56.74
627.991	56.76
628.324	56.79
628.657	56.78
628.991	56.81
629.324	56.88
629.657	56.91
629.99	56.93
630.323	56.96
630.656	56.95
630.989	56.98
631.322	56.97
631.655	56.99
631.987	56.95
632.32	56.97
632.653	56.96
632.986	56.94
633.318	56.97
633.651	56.99
633.984	57.01
634.316	57
634.649	57.04
634.981	57.06
635.313	57.07
635.646	57.1
635.978	57.15
636.31	57.16
636.643	57.16
636.975	57.19
637.307	57.21
637.639	57.23
637.971	57.23
638.303	57.29
638.635	57.31
638.967	57.35
639.299	57.38
639.631	57.4
639.963	57.44
640.295	57.43
640.626	57.43
640.958	57.44
641.29	57.47
641.621	57.51
641.953	57.57
642.285	57.63
642.616	57.67
642.948	57.66
643.279	57.66
643.61	57.68
643.942	57.71
644.273	57.74
644.604	57.79
644.936	57.8
645.267	57.82
645.598	57.87
645.929	57.86
646.26	57.88
646.591	57.91
646.922	57.94
647.253	57.98
647.584	58.01
647.915	58.08
648.245	58.11
648.576	58.13
648.907	58.15
649.238	58.13
649.568	58.13
649.899	58.18
650.229	58.22
650.56	58.24
650.89	58.26
651.221	58.3
651.551	58.36
651.882	58.43
652.212	58.44
652.542	58.44
652.872	58.48
653.203	58.51
653.533	58.55
653.863	58.58
654.193	58.6
654.523	58.61
654.853	58.58
655.183	58.63
655.513	58.68
655.843	58.64
656.172	58.69
656.502	58.74
656.832	58.74
657.162	58.74
657.491	58.76
657.821	58.74
658.15	58.75
658.48	58.71
658.809	58.7
659.139	58.73
659.468	58.74
659.798	58.78
660.127	58.78
660.456	58.74
660.785	58.73
661.115	58.76
661.444	58.79
661.773	58.78
662.102	58.78
662.431	58.74
662.76	58.78
663.089	58.78
663.418	58.78
663.747	58.77
664.076	58.79
664.404	58.82
664.733	58.86
665.062	58.85
665.39	58.87
665.719	58.89
666.048	58.88
666.376	58.92
666.705	58.91
667.033	58.96
667.362	59.02
667.69	59.07
668.018	59.07
668.347	59.09
668.675	59.12
669.003	59.1
669.331	59.17
669.659	59.21
669.987	59.24
670.315	59.23
670.643	59.25
670.971	59.32
