Data from UWBM53665_Reflection_00007.txt Node
Date: Sun May 02 13:13:15 EDT 2021
User: vgr7
Spectrometer: USB2G7710
Scans to average: 10
Trigger mode: 4
Integration Time (sec): 1.000000E-1
Electric dark correction enabled: true
Boxcar width: 20
XAxis mode: Wavelengths
Number of Pixels in Spectrum: 2048
>>>>>Begin Spectral Data<<<<<
177.721	101.11
178.105	100.82
178.488	100.48
178.871	100.35
179.254	98.06
179.636	96.09
180.019	93.19
180.402	90.53
180.785	86.95
181.168	84.49
181.55	81.05
181.933	118.11
182.316	119.42
182.698	119.14
183.081	121.89
183.463	122.81
183.846	123.83
184.228	124
184.611	126.44
184.993	128.78
185.376	129.59
185.758	-97.87
186.14	-46.29
186.522	-14.61
186.904	3.6
187.287	15.91
187.669	18.1
188.051	16.07
188.433	21.23
188.815	19.66
189.197	20.3
189.579	20.4
189.961	21.4
190.342	18.74
190.724	20.15
191.106	22.61
191.488	21.77
191.869	16.22
192.251	18.21
192.633	17.14
193.014	14.62
193.396	14.03
193.777	21.04
194.159	22.08
194.54	19.4
194.922	20.89
195.303	22.97
195.684	24.92
196.065	24.67
196.447	23.53
196.828	22.89
197.209	24.15
197.59	17.21
197.971	16.56
198.352	17.16
198.733	19.39
199.114	18.53
199.495	18.39
199.876	19.24
200.257	20.59
200.638	18.82
201.018	13.82
201.399	11.66
201.78	10.29
202.16	9.76
202.541	9.46
202.922	7.55
203.302	4.71
203.683	4.69
204.063	5.07
204.444	5.43
204.824	6.94
205.204	9.59
205.585	16.92
205.965	17.96
206.345	19.63
206.725	13.94
207.106	13.27
207.486	12.9
207.866	12.61
208.246	12.89
208.626	15.88
209.006	19.84
209.386	15.2
209.766	14.5
210.145	15.23
210.525	13.94
210.905	14.65
211.285	14.12
211.664	14.45
212.044	16.54
212.424	16
212.803	11.44
213.183	12.34
213.562	12.84
213.942	12.09
214.321	9.92
214.701	8.65
215.08	9.99
215.459	9.53
215.838	8.5
216.218	9.52
216.597	8.02
216.976	5.26
217.355	5.71
217.734	6.49
218.113	6.51
218.492	7.42
218.871	8.31
219.25	8.1
219.629	7.28
220.008	6.55
220.387	6.34
220.766	6.11
221.144	5.01
221.523	5.79
221.902	5.64
222.28	7.08
222.659	8.34
223.037	8.91
223.416	10.1
223.794	10.6
224.173	9.94
224.551	9.46
224.929	10.02
225.308	11.21
225.686	10.95
226.064	11.2
226.442	10.97
226.821	10.59
227.199	10.2
227.577	9.51
227.955	9.16
228.333	8.75
228.711	8.79
229.089	8.86
229.467	8.18
229.845	8.75
230.222	8.79
230.6	8.97
230.978	8.84
231.356	8.26
231.733	7.92
232.111	7.96
232.488	7.88
232.866	7.78
233.243	7.17
233.621	7.23
233.998	6.78
234.376	6.68
234.753	6.68
235.13	6.62
235.508	7.03
235.885	7
236.262	6.85
236.639	6.89
237.016	6.74
237.393	6.62
237.77	6.34
238.147	6.27
238.524	6.25
238.901	6.2
239.278	6.12
239.655	6.03
240.032	5.92
240.409	5.9
240.785	5.76
241.162	5.81
241.539	5.78
241.915	5.75
242.292	5.75
242.668	5.67
243.045	5.64
243.421	5.56
243.798	5.51
244.174	5.49
244.551	5.42
244.927	5.27
245.303	5.21
245.679	5.24
246.056	5.19
246.432	5.18
246.808	4.94
247.184	4.92
247.56	4.88
247.936	4.88
248.312	4.86
248.688	4.96
249.064	4.93
249.44	4.93
249.815	4.92
250.191	4.88
250.567	4.86
250.943	4.93
251.318	4.93
251.694	4.88
252.069	4.81
252.445	4.81
252.82	4.87
253.196	4.86
253.571	4.81
253.947	4.88
254.322	4.83
254.697	4.96
255.073	4.94
255.448	4.92
255.823	4.9
256.198	4.84
256.573	4.66
256.948	4.62
257.323	4.62
257.698	4.54
258.073	4.54
258.448	4.4
258.823	4.36
259.198	4.37
259.573	4.37
259.948	4.41
260.322	4.37
260.697	4.36
261.072	4.34
261.446	4.32
261.821	4.29
262.195	4.26
262.57	4.23
262.944	4.22
263.319	4.2
263.693	4.21
264.067	4.2
264.442	4.3
264.816	4.29
265.19	4.27
265.564	4.29
265.938	4.26
266.313	4.3
266.687	4.27
267.061	4.27
267.435	4.26
267.809	4.24
268.183	4.23
268.556	4.25
268.93	4.25
269.304	4.21
269.678	4.17
270.051	4.14
270.425	4.14
270.799	4.15
271.172	4.15
271.546	4.16
271.919	4.17
272.293	4.16
272.666	4.17
273.04	4.19
273.413	4.13
273.787	4.11
274.16	4.13
274.533	4.14
274.906	4.13
275.279	4.13
275.653	4.11
276.026	4.1
276.399	4.06
276.772	4.06
277.145	4.08
277.518	4.1
277.891	4.13
278.263	4.14
278.636	4.14
279.009	4.15
279.382	4.14
279.755	4.07
280.127	4.08
280.5	4.09
280.872	4.08
281.245	4.21
281.617	4.21
281.99	4.23
282.362	4.26
282.735	4.26
283.107	4.27
283.479	4.29
283.852	4.31
284.224	4.33
284.596	4.33
284.968	4.24
285.34	4.23
285.713	4.22
286.085	4.14
286.457	4.15
286.829	4.13
287.201	4.13
287.572	4.18
287.944	4.19
288.316	4.24
288.688	4.3
289.06	4.31
289.431	4.33
289.803	4.34
290.175	4.37
290.546	4.41
290.918	4.45
291.289	4.45
291.661	4.49
292.032	4.47
292.403	4.53
292.775	4.64
293.146	4.66
293.517	4.71
293.889	4.81
294.26	4.83
294.631	4.87
295.002	4.95
295.373	5
295.744	5.02
296.115	5.04
296.486	5
296.857	5.04
297.228	5.07
297.599	5.09
297.97	5.11
298.34	5.16
298.711	5.12
299.082	5.15
299.452	5.21
299.823	5.29
300.194	5.32
300.564	5.35
300.935	5.41
301.305	5.46
301.676	5.49
302.046	5.55
302.416	5.59
302.787	5.64
303.157	5.63
303.527	5.67
303.897	5.72
304.267	5.79
304.637	5.86
305.008	5.94
305.378	6
305.748	6.04
306.117	6.16
306.487	6.27
306.857	6.37
307.227	6.44
307.597	6.48
307.967	6.53
308.336	6.6
308.706	6.67
309.076	6.73
309.445	6.78
309.815	6.72
310.184	6.77
310.554	6.77
310.923	6.85
311.293	6.94
311.662	7
312.031	7.03
312.401	7.08
312.77	7.12
313.139	7.17
313.508	7.24
313.877	7.26
314.246	7.32
314.616	7.34
314.985	7.33
315.353	7.4
315.722	7.45
316.091	7.5
316.46	7.54
316.829	7.61
317.198	7.69
317.567	7.88
317.935	7.95
318.304	8.06
318.672	8.16
319.041	8.24
319.41	8.31
319.778	8.39
320.147	8.46
320.515	8.54
320.883	8.59
321.252	8.59
321.62	8.69
321.988	8.76
322.357	8.8
322.725	8.9
323.093	8.95
323.461	8.99
323.829	9.04
324.197	9.07
324.565	9.12
324.933	9.16
325.301	9.19
325.669	9.24
326.037	9.28
326.405	9.27
326.772	9.29
327.14	9.34
327.508	9.37
327.875	9.38
328.243	9.42
328.61	9.4
328.978	9.43
329.346	9.45
329.713	9.46
330.08	9.5
330.448	9.51
330.815	9.51
331.182	9.54
331.55	9.55
331.917	9.59
332.284	9.59
332.651	9.62
333.018	9.64
333.385	9.67
333.752	9.69
334.119	9.71
334.486	9.74
334.853	9.73
335.22	9.76
335.587	9.76
335.954	9.77
336.32	9.81
336.687	9.81
337.054	9.81
337.42	9.83
337.787	9.84
338.153	9.88
338.52	9.91
338.886	9.94
339.253	9.94
339.619	9.93
339.986	9.92
340.352	9.92
340.718	9.94
341.084	9.94
341.451	9.94
341.817	9.93
342.183	9.92
342.549	9.94
342.915	9.95
343.281	9.96
343.647	9.98
344.013	10.01
344.379	10.02
344.745	10.02
345.11	10.02
345.476	10.05
345.842	10.05
346.208	10.03
346.573	10.03
346.939	10.04
347.304	10.04
347.67	10.05
348.035	10.05
348.401	10.01
348.766	10.02
349.132	10.01
349.497	10.02
349.862	10.01
350.228	10
350.593	9.99
350.958	9.97
351.323	9.93
351.688	9.93
352.053	9.89
352.418	9.88
352.783	9.84
353.148	9.79
353.513	9.76
353.878	9.74
354.243	9.7
354.608	9.67
354.972	9.64
355.337	9.61
355.702	9.55
356.066	9.53
356.431	9.49
356.795	9.46
357.16	9.41
357.524	9.37
357.889	9.33
358.253	9.3
358.618	9.26
358.982	9.24
359.346	9.2
359.71	9.17
360.075	9.14
360.439	9.09
360.803	9.04
361.167	9
361.531	8.98
361.895	8.94
362.259	8.89
362.623	8.84
362.987	8.8
363.351	8.77
363.714	8.72
364.078	8.67
364.442	8.62
364.806	8.58
365.169	8.51
365.533	8.46
365.896	8.4
366.26	8.35
366.623	8.29
366.987	8.23
367.35	8.18
367.714	8.13
368.077	8.08
368.44	8.03
368.803	7.97
369.167	7.91
369.53	7.85
369.893	7.8
370.256	7.73
370.619	7.67
370.982	7.6
371.345	7.52
371.708	7.45
372.071	7.39
372.434	7.32
372.797	7.27
373.159	7.22
373.522	7.15
373.885	7.08
374.247	7
374.61	6.94
374.973	6.86
375.335	6.79
375.698	6.73
376.06	6.67
376.423	6.6
376.785	6.54
377.147	6.47
377.51	6.43
377.872	6.37
378.234	6.31
378.596	6.26
378.958	6.22
379.321	6.17
379.683	6.12
380.045	6.06
380.407	6.01
380.769	5.96
381.13	5.92
381.492	5.88
381.854	5.84
382.216	5.78
382.578	5.74
382.939	5.71
383.301	5.65
383.663	5.61
384.024	5.57
384.386	5.53
384.747	5.48
385.109	5.42
385.47	5.39
385.832	5.35
386.193	5.32
386.554	5.27
386.916	5.24
387.277	5.21
387.638	5.19
387.999	5.15
388.36	5.13
388.721	5.1
389.082	5.07
389.443	5.04
389.804	5.01
390.165	4.99
390.526	4.96
390.887	4.93
391.248	4.9
391.609	4.88
391.969	4.85
392.33	4.82
392.691	4.79
393.051	4.76
393.412	4.73
393.772	4.71
394.133	4.69
394.493	4.65
394.854	4.63
395.214	4.6
395.574	4.56
395.935	4.53
396.295	4.5
396.655	4.48
397.015	4.45
397.376	4.41
397.736	4.39
398.096	4.36
398.456	4.33
398.816	4.32
399.176	4.29
399.535	4.27
399.895	4.25
400.255	4.23
400.615	4.21
400.975	4.19
401.334	4.17
401.694	4.14
402.054	4.13
402.413	4.09
402.773	4.07
403.132	4.06
403.492	4.04
403.851	4.02
404.211	4.02
404.57	4.01
404.929	4.01
405.288	3.99
405.648	3.98
406.007	3.97
406.366	3.97
406.725	3.96
407.084	3.95
407.443	3.94
407.802	3.92
408.161	3.91
408.52	3.9
408.879	3.89
409.238	3.88
409.596	3.87
409.955	3.87
410.314	3.86
410.673	3.85
411.031	3.85
411.39	3.85
411.748	3.85
412.107	3.84
412.465	3.84
412.824	3.85
413.182	3.86
413.54	3.87
413.899	3.88
414.257	3.9
414.615	3.93
414.974	3.95
415.332	3.97
415.69	4
416.048	4.01
416.406	4.04
416.764	4.06
417.122	4.08
417.48	4.1
417.838	4.12
418.195	4.14
418.553	4.14
418.911	4.15
419.269	4.14
419.626	4.13
419.984	4.12
420.342	4.1
420.699	4.08
421.057	4.06
421.414	4.04
421.772	4.03
422.129	4.01
422.486	4
422.844	3.99
423.201	3.98
423.558	3.98
423.915	3.97
424.273	3.96
424.63	3.96
424.987	3.95
425.344	3.94
425.701	3.94
426.058	3.93
426.415	3.93
426.772	3.92
427.128	3.91
427.485	3.89
427.842	3.88
428.199	3.87
428.555	3.85
428.912	3.83
429.269	3.8
429.625	3.78
429.982	3.76
430.338	3.73
430.695	3.71
431.051	3.67
431.407	3.65
431.764	3.64
432.12	3.61
432.476	3.6
432.832	3.59
433.189	3.6
433.545	3.6
433.901	3.61
434.257	3.63
434.613	3.65
434.969	3.67
435.325	3.69
435.681	3.73
436.036	3.74
436.392	3.76
436.748	3.76
437.104	3.77
437.459	3.78
437.815	3.8
438.171	3.82
438.526	3.84
438.882	3.86
439.237	3.89
439.593	3.92
439.948	3.95
440.304	3.98
440.659	4
441.014	4.01
441.369	4.03
441.725	4.05
442.08	4.07
442.435	4.08
442.79	4.08
443.145	4.08
443.5	4.08
443.855	4.08
444.21	4.08
444.565	4.07
444.92	4.06
445.275	4.05
445.629	4.04
445.984	4.03
446.339	4.02
446.693	4.02
447.048	4
447.403	3.99
447.757	3.96
448.112	3.94
448.466	3.93
448.82	3.91
449.175	3.89
449.529	3.87
449.883	3.85
450.238	3.82
450.592	3.82
450.946	3.81
451.3	3.81
451.654	3.82
452.008	3.82
452.362	3.82
452.716	3.82
453.07	3.82
453.424	3.81
453.778	3.8
454.132	3.79
454.486	3.78
454.839	3.77
455.193	3.75
455.547	3.74
455.9	3.71
456.254	3.69
456.607	3.66
456.961	3.64
457.314	3.63
457.668	3.62
458.021	3.62
458.375	3.61
458.728	3.61
459.081	3.61
459.434	3.62
459.787	3.62
460.141	3.63
460.494	3.64
460.847	3.65
461.2	3.65
461.553	3.66
461.906	3.67
462.259	3.67
462.611	3.68
462.964	3.68
463.317	3.69
463.67	3.7
464.022	3.7
464.375	3.71
464.728	3.71
465.08	3.72
465.433	3.72
465.785	3.72
466.138	3.71
466.49	3.7
466.843	3.69
467.195	3.68
467.547	3.66
467.899	3.65
468.252	3.63
468.604	3.61
468.956	3.6
469.308	3.59
469.66	3.59
470.012	3.58
470.364	3.59
470.716	3.6
471.068	3.62
471.42	3.64
471.772	3.66
472.123	3.67
472.475	3.68
472.827	3.69
473.178	3.7
473.53	3.71
473.882	3.73
474.233	3.75
474.585	3.78
474.936	3.83
475.288	3.91
475.639	4
475.99	4.12
476.342	4.25
476.693	4.4
477.044	4.53
477.395	4.68
477.746	4.83
478.097	4.98
478.448	5.13
478.8	5.27
479.15	5.41
479.501	5.54
479.852	5.65
480.203	5.76
480.554	5.86
480.905	5.96
481.255	6.06
481.606	6.15
481.957	6.23
482.307	6.31
482.658	6.39
483.009	6.46
483.359	6.53
483.709	6.6
484.06	6.67
484.41	6.74
484.761	6.8
485.111	6.86
485.461	6.91
485.811	6.97
486.162	7.02
486.512	7.06
486.862	7.1
487.212	7.12
487.562	7.15
487.912	7.16
488.262	7.16
488.612	7.16
488.961	7.15
489.311	7.12
489.661	7.06
490.011	6.99
490.36	6.9
490.71	6.79
491.06	6.68
491.409	6.56
491.759	6.44
492.108	6.31
492.458	6.18
492.807	6.05
493.157	5.92
493.506	5.79
493.855	5.66
494.204	5.55
494.554	5.44
494.903	5.34
495.252	5.25
495.601	5.16
495.95	5.08
496.299	5
496.648	4.93
496.997	4.86
497.346	4.81
497.695	4.75
498.043	4.71
498.392	4.66
498.741	4.62
499.09	4.58
499.438	4.55
499.787	4.52
500.135	4.5
500.484	4.49
500.832	4.49
501.181	4.51
501.529	4.53
501.878	4.57
502.226	4.61
502.574	4.67
502.923	4.73
503.271	4.8
503.619	4.87
503.967	4.95
504.315	5.03
504.663	5.1
505.011	5.19
505.359	5.27
505.707	5.36
506.055	5.45
506.403	5.56
506.751	5.66
507.098	5.76
507.446	5.87
507.794	5.99
508.141	6.12
508.489	6.26
508.837	6.41
509.184	6.55
509.531	6.71
509.879	6.87
510.226	7.05
510.574	7.24
510.921	7.44
511.268	7.65
511.616	7.86
511.963	8.08
512.31	8.31
512.657	8.54
513.004	8.77
513.351	9
513.698	9.22
514.045	9.43
514.392	9.64
514.739	9.84
515.086	10.04
515.432	10.25
515.779	10.45
516.126	10.65
516.473	10.88
516.819	11.13
517.166	11.4
517.512	11.68
517.859	11.98
518.205	12.31
518.552	12.67
518.898	13.05
519.245	13.48
519.591	13.98
519.937	14.57
520.283	15.24
520.629	15.97
520.976	16.74
521.322	17.53
521.668	18.35
522.014	19.17
522.36	20
522.706	20.81
523.052	21.6
523.398	22.36
523.743	23.07
524.089	23.73
524.435	24.35
524.781	24.97
525.126	25.59
525.472	26.19
525.817	26.79
526.163	27.38
526.509	27.95
526.854	28.53
527.199	29.1
527.545	29.67
527.89	30.26
528.235	30.83
528.581	31.39
528.926	31.91
529.271	32.42
529.616	32.9
529.961	33.36
530.306	33.81
530.651	34.24
530.996	34.63
531.341	34.98
531.686	35.33
532.031	35.65
532.376	36.01
532.721	36.39
533.065	36.8
533.41	37.23
533.755	37.63
534.099	37.98
534.444	38.29
534.788	38.58
535.133	38.85
535.477	39.09
535.822	39.3
536.166	39.46
536.51	39.56
536.855	39.58
537.199	39.58
537.543	39.56
537.887	39.58
538.231	39.62
538.576	39.68
538.92	39.71
539.264	39.72
539.608	39.71
539.951	39.68
540.295	39.63
540.639	39.57
540.983	39.49
541.327	39.4
541.671	39.26
542.014	39.16
542.358	39.07
542.701	39.07
543.045	39.14
543.389	39.25
543.732	39.37
544.075	39.52
544.419	39.68
544.762	39.84
545.105	40.03
545.449	40.23
545.792	40.44
546.135	40.65
546.478	40.8
546.821	40.89
547.165	40.92
547.508	40.88
547.851	40.78
548.194	40.63
548.536	40.43
548.879	40.2
549.222	39.94
549.565	39.66
549.908	39.39
550.25	39.16
550.593	38.97
550.936	38.88
551.278	38.84
551.621	38.85
551.963	38.89
552.306	38.94
552.648	39.04
552.991	39.15
553.333	39.28
553.675	39.46
554.017	39.67
554.36	39.91
554.702	40.19
555.044	40.5
555.386	40.86
555.728	41.28
556.07	41.61
556.412	41.97
556.754	42.24
557.096	42.44
557.438	42.66
557.78	42.87
558.121	43.09
558.463	43.31
558.805	43.51
559.147	43.73
559.488	43.93
559.83	44.13
560.171	44.34
560.513	44.54
560.854	44.73
561.196	44.93
561.537	45.11
561.878	45.3
562.22	45.49
562.561	45.67
562.902	45.84
563.243	46.01
563.584	46.18
563.925	46.36
564.266	46.53
564.607	46.71
564.948	46.87
565.289	47.04
565.63	47.21
565.971	47.36
566.312	47.53
566.653	47.68
566.993	47.83
567.334	47.99
567.675	48.14
568.015	48.29
568.356	48.42
568.696	48.55
569.037	48.67
569.377	48.8
569.718	48.92
570.058	49.04
570.398	49.15
570.739	49.26
571.079	49.37
571.419	49.47
571.759	49.56
572.099	49.64
572.439	49.72
572.779	49.82
573.119	49.9
573.459	49.98
573.799	50.07
574.139	50.15
574.479	50.24
574.819	50.32
575.158	50.41
575.498	50.49
575.838	50.57
576.177	50.65
576.517	50.73
576.856	50.8
577.196	50.88
577.535	50.96
577.875	51.04
578.214	51.12
578.553	51.2
578.893	51.26
579.232	51.33
579.571	51.39
579.91	51.47
580.25	51.53
580.589	51.6
580.928	51.66
581.267	51.74
581.606	51.82
581.945	51.89
582.283	51.96
582.622	52.06
582.961	52.14
583.3	52.21
583.639	52.3
583.977	52.37
584.316	52.44
584.654	52.53
584.993	52.62
585.332	52.71
585.67	52.8
586.008	52.88
586.347	52.98
586.685	53.06
587.024	53.14
587.362	53.22
587.7	53.31
588.038	53.39
588.376	53.49
588.715	53.57
589.053	53.67
589.391	53.75
589.729	53.83
590.067	53.91
590.404	53.99
590.742	54.08
591.08	54.16
591.418	54.23
591.756	54.3
592.093	54.37
592.431	54.44
592.769	54.5
593.106	54.57
593.444	54.63
593.781	54.69
594.119	54.76
594.456	54.82
594.793	54.88
595.131	54.93
595.468	54.98
595.805	55.05
596.143	55.1
596.48	55.16
596.817	55.22
597.154	55.3
597.491	55.36
597.828	55.42
598.165	55.5
598.502	55.56
598.839	55.63
599.176	55.68
599.512	55.73
599.849	55.79
600.186	55.84
600.523	55.89
600.859	55.94
601.196	55.99
601.532	56.04
601.869	56.09
602.205	56.13
602.542	56.19
602.878	56.22
603.215	56.26
603.551	56.31
603.887	56.35
604.223	56.39
604.56	56.44
604.896	56.47
605.232	56.5
605.568	56.53
605.904	56.55
606.24	56.58
606.576	56.61
606.912	56.66
607.248	56.67
607.583	56.71
607.919	56.73
608.255	56.75
608.591	56.77
608.926	56.79
609.262	56.83
609.597	56.85
609.933	56.88
610.268	56.91
610.604	56.94
610.939	56.96
611.275	56.98
611.61	57
611.945	57.01
612.281	57.02
612.616	57.02
612.951	57.03
613.286	57.03
613.621	57.04
613.956	57.06
614.291	57.08
614.626	57.09
614.961	57.12
615.296	57.13
615.631	57.14
615.966	57.15
616.3	57.16
616.635	57.18
616.97	57.2
617.304	57.22
617.639	57.23
617.973	57.24
618.308	57.26
618.642	57.27
618.977	57.3
619.311	57.34
619.646	57.37
619.98	57.4
620.314	57.43
620.648	57.45
620.983	57.47
621.317	57.5
621.651	57.52
621.985	57.55
622.319	57.58
622.653	57.61
622.987	57.64
623.321	57.66
623.655	57.68
623.988	57.69
624.322	57.71
624.656	57.73
624.99	57.74
625.323	57.76
625.657	57.77
625.99	57.8
626.324	57.83
626.657	57.85
626.991	57.88
627.324	57.91
627.658	57.94
627.991	57.96
628.324	57.97
628.657	57.99
628.991	58.01
629.324	58.03
629.657	58.05
629.99	58.07
630.323	58.08
630.656	58.09
630.989	58.1
631.322	58.12
631.655	58.14
631.987	58.16
632.32	58.18
632.653	58.18
632.986	58.19
633.318	58.2
633.651	58.22
633.984	58.24
634.316	58.27
634.649	58.29
634.981	58.31
635.313	58.33
635.646	58.34
635.978	58.35
636.31	58.35
636.643	58.37
636.975	58.39
637.307	58.42
637.639	58.44
637.971	58.45
638.303	58.47
638.635	58.48
638.967	58.5
639.299	58.52
639.631	58.54
639.963	58.56
640.295	58.57
640.626	58.59
640.958	58.61
641.29	58.6
641.621	58.63
641.953	58.65
642.285	58.68
642.616	58.71
642.948	58.72
643.279	58.73
643.61	58.74
643.942	58.78
644.273	58.8
644.604	58.82
644.936	58.83
645.267	58.84
645.598	58.86
645.929	58.88
646.26	58.91
646.591	58.92
646.922	58.95
647.253	58.96
647.584	58.99
647.915	58.99
648.245	59.03
648.576	59.02
648.907	59.04
649.238	59.07
649.568	59.08
649.899	59.09
650.229	59.1
650.56	59.12
650.89	59.13
651.221	59.14
651.551	59.18
651.882	59.19
652.212	59.21
652.542	59.23
652.872	59.23
653.203	59.25
653.533	59.28
653.863	59.3
654.193	59.32
654.523	59.33
654.853	59.37
655.183	59.38
655.513	59.4
655.843	59.42
656.172	59.44
656.502	59.46
656.832	59.47
657.162	59.48
657.491	59.5
657.821	59.51
658.15	59.52
658.48	59.53
658.809	59.54
659.139	59.57
659.468	59.56
659.798	59.59
660.127	59.61
660.456	59.6
660.785	59.62
661.115	59.63
661.444	59.64
661.773	59.64
662.102	59.67
662.431	59.67
662.76	59.68
663.089	59.69
663.418	59.71
663.747	59.72
664.076	59.73
664.404	59.74
664.733	59.73
665.062	59.74
665.39	59.76
665.719	59.79
666.048	59.8
666.376	59.82
666.705	59.82
667.033	59.82
667.362	59.82
667.69	59.84
668.018	59.84
668.347	59.82
668.675	59.83
669.003	59.82
669.331	59.83
669.659	59.83
669.987	59.83
