Data from UWBM59058_Reflection_00013.txt Node
Date: Sun May 02 13:02:43 EDT 2021
User: vgr7
Spectrometer: USB2G7710
Scans to average: 10
Trigger mode: 4
Integration Time (sec): 1.000000E-1
Electric dark correction enabled: true
Boxcar width: 20
XAxis mode: Wavelengths
Number of Pixels in Spectrum: 2048
>>>>>Begin Spectral Data<<<<<
177.721	97.74
178.105	97.22
178.488	96.82
178.871	97.53
179.254	95.92
179.636	93.72
180.019	91.82
180.402	89.08
180.785	86
181.168	82.81
181.55	80.05
181.933	119.55
182.316	119.68
182.698	119.61
183.081	120.75
183.463	123.08
183.846	125.47
184.228	127.56
184.611	132.52
184.993	137.16
185.376	140.57
185.758	-87.2
186.14	-49.41
186.522	-26
186.904	-11.92
187.287	-0.34
187.669	3.16
188.051	2.84
188.433	6.68
188.815	5.06
189.197	4.72
189.579	4.9
189.961	5.07
190.342	2.37
190.724	4.97
191.106	3.81
191.488	3.94
191.869	-1.73
192.251	0.4
192.633	-1.92
193.014	-2.98
193.396	-3.63
193.777	3.68
194.159	5.02
194.54	3.59
194.922	4.08
195.303	7.99
195.684	8.86
196.065	8.92
196.447	8.22
196.828	9.45
197.209	9.79
197.59	0.46
197.971	0.06
198.352	0.36
198.733	2.73
199.114	4.71
199.495	5.47
199.876	5.87
200.257	7.07
200.638	6.67
201.018	1.66
201.399	0.24
201.78	0.23
202.16	0.03
202.541	0.97
202.922	1.02
203.302	-1.13
203.683	-0.21
204.063	-2.86
204.444	-1.25
204.824	1.53
205.204	3.58
205.585	12.35
205.965	13.06
206.345	14.14
206.725	9.97
207.106	11.12
207.486	11.07
207.866	10.38
208.246	11.76
208.626	13.67
209.006	18.07
209.386	15.3
209.766	14.18
210.145	13.64
210.525	13.13
210.905	12.4
211.285	12
211.664	10.87
212.044	11.94
212.424	10.27
212.803	6.77
213.183	10
213.562	8.65
213.942	7.76
214.321	5.65
214.701	4.2
215.08	5.52
215.459	5.7
215.838	5.63
216.218	5.64
216.597	4.04
216.976	1.09
217.355	1.15
217.734	2.01
218.113	2.94
218.492	3.1
218.871	3.79
219.25	4.24
219.629	4.45
220.008	3.26
220.387	3.77
220.766	3.68
221.144	2.34
221.523	3.77
221.902	4.7
222.28	5.42
222.659	5.99
223.037	6.28
223.416	6.84
223.794	7.48
224.173	6.76
224.551	6.49
224.929	6.57
225.308	8.14
225.686	7.69
226.064	7.58
226.442	7.76
226.821	7.47
227.199	6.81
227.577	6.34
227.955	6.06
228.333	5.95
228.711	5.9
229.089	6.53
229.467	6.29
229.845	6.65
230.222	6.84
230.6	7.42
230.978	7.57
231.356	6.94
231.733	6.69
232.111	6.69
232.488	6.54
232.866	6.59
233.243	6.23
233.621	6.29
233.998	6.01
234.376	6
234.753	5.94
235.13	6
235.508	6.61
235.885	6.6
236.262	6.56
236.639	6.63
237.016	6.47
237.393	6.36
237.77	6.04
238.147	5.89
238.524	5.83
238.901	5.8
239.278	5.8
239.655	5.82
240.032	5.68
240.409	5.62
240.785	5.49
241.162	5.54
241.539	5.52
241.915	5.47
242.292	5.46
242.668	5.39
243.045	5.31
243.421	5.19
243.798	5.15
244.174	5.08
244.551	5.06
244.927	4.89
245.303	4.84
245.679	4.84
246.056	4.76
246.432	4.71
246.808	4.49
247.184	4.5
247.56	4.48
247.936	4.52
248.312	4.49
248.688	4.56
249.064	4.49
249.44	4.47
249.815	4.46
250.191	4.42
250.567	4.38
250.943	4.46
251.318	4.45
251.694	4.42
252.069	4.33
252.445	4.35
252.82	4.45
253.196	4.49
253.571	4.46
253.947	4.54
254.322	4.5
254.697	4.62
255.073	4.6
255.448	4.6
255.823	4.58
256.198	4.52
256.573	4.36
256.948	4.33
257.323	4.35
257.698	4.31
258.073	4.33
258.448	4.23
258.823	4.23
259.198	4.22
259.573	4.23
259.948	4.26
260.322	4.22
260.697	4.22
261.072	4.2
261.446	4.18
261.821	4.15
262.195	4.13
262.57	4.11
262.944	4.1
263.319	4.07
263.693	4.11
264.067	4.11
264.442	4.21
264.816	4.19
265.19	4.19
265.564	4.23
265.938	4.2
266.313	4.23
266.687	4.18
267.061	4.16
267.435	4.16
267.809	4.12
268.183	4.08
268.556	4.09
268.93	4.11
269.304	4.08
269.678	4.07
270.051	4.03
270.425	4.02
270.799	4.03
271.172	4.03
271.546	4.03
271.919	4.03
272.293	4
272.666	4.01
273.04	4.01
273.413	3.94
273.787	3.94
274.16	3.94
274.533	3.97
274.906	3.96
275.279	3.95
275.653	3.92
276.026	3.92
276.399	3.89
276.772	3.89
277.145	3.92
277.518	3.94
277.891	3.96
278.263	3.98
278.636	3.98
279.009	3.97
279.382	3.95
279.755	3.9
280.127	3.91
280.5	3.9
280.872	3.9
281.245	4
281.617	4.01
281.99	4.04
282.362	4.09
282.735	4.09
283.107	4.09
283.479	4.12
283.852	4.13
284.224	4.16
284.596	4.14
284.968	4.02
285.34	4.02
285.713	4
286.085	3.94
286.457	3.95
286.829	3.94
287.201	3.95
287.572	4.02
287.944	4.03
288.316	4.07
288.688	4.11
289.06	4.11
289.431	4.13
289.803	4.13
290.175	4.14
290.546	4.17
290.918	4.2
291.289	4.18
291.661	4.2
292.032	4.17
292.403	4.21
292.775	4.29
293.146	4.31
293.517	4.33
293.889	4.42
294.26	4.42
294.631	4.46
295.002	4.51
295.373	4.55
295.744	4.56
296.115	4.58
296.486	4.54
296.857	4.56
297.228	4.56
297.599	4.57
297.97	4.57
298.34	4.61
298.711	4.56
299.082	4.57
299.452	4.61
299.823	4.67
300.194	4.7
300.564	4.71
300.935	4.73
301.305	4.74
301.676	4.74
302.046	4.75
302.416	4.77
302.787	4.8
303.157	4.75
303.527	4.78
303.897	4.8
304.267	4.83
304.637	4.88
305.008	4.92
305.378	4.97
305.748	4.99
306.117	5.08
306.487	5.15
306.857	5.23
307.227	5.26
307.597	5.27
307.967	5.3
308.336	5.34
308.706	5.38
309.076	5.41
309.445	5.44
309.815	5.36
310.184	5.39
310.554	5.36
310.923	5.41
311.293	5.45
311.662	5.48
312.031	5.5
312.401	5.53
312.77	5.53
313.139	5.56
313.508	5.59
313.877	5.57
314.246	5.59
314.616	5.58
314.985	5.56
315.353	5.59
315.722	5.64
316.091	5.67
316.46	5.69
316.829	5.75
317.198	5.81
317.567	5.97
317.935	6
318.304	6.09
318.672	6.15
319.041	6.19
319.41	6.24
319.778	6.28
320.147	6.34
320.515	6.37
320.883	6.39
321.252	6.36
321.62	6.44
321.988	6.48
322.357	6.51
322.725	6.6
323.093	6.64
323.461	6.66
323.829	6.7
324.197	6.71
324.565	6.73
324.933	6.76
325.301	6.75
325.669	6.79
326.037	6.81
326.405	6.8
326.772	6.83
327.14	6.86
327.508	6.86
327.875	6.89
328.243	6.91
328.61	6.91
328.978	6.95
329.346	6.97
329.713	6.98
330.08	7
330.448	7.01
330.815	7.01
331.182	7.05
331.55	7.08
331.917	7.11
332.284	7.12
332.651	7.17
333.018	7.19
333.385	7.21
333.752	7.24
334.119	7.28
334.486	7.32
334.853	7.32
335.22	7.35
335.587	7.35
335.954	7.38
336.32	7.44
336.687	7.45
337.054	7.48
337.42	7.52
337.787	7.52
338.153	7.57
338.52	7.62
338.886	7.65
339.253	7.67
339.619	7.67
339.986	7.67
340.352	7.69
340.718	7.71
341.084	7.73
341.451	7.74
341.817	7.73
342.183	7.73
342.549	7.77
342.915	7.78
343.281	7.81
343.647	7.82
344.013	7.85
344.379	7.88
344.745	7.89
345.11	7.91
345.476	7.94
345.842	7.95
346.208	7.94
346.573	7.94
346.939	7.96
347.304	7.97
347.67	7.96
348.035	7.98
348.401	7.98
348.766	8
349.132	8
349.497	8.01
349.862	8.01
350.228	8.03
350.593	8.03
350.958	8.02
351.323	7.99
351.688	7.99
352.053	7.98
352.418	7.96
352.783	7.95
353.148	7.93
353.513	7.91
353.878	7.9
354.243	7.88
354.608	7.87
354.972	7.87
355.337	7.87
355.702	7.84
356.066	7.83
356.431	7.81
356.795	7.79
357.16	7.76
357.524	7.74
357.889	7.73
358.253	7.72
358.618	7.71
358.982	7.7
359.346	7.69
359.71	7.67
360.075	7.65
360.439	7.63
360.803	7.61
361.167	7.58
361.531	7.58
361.895	7.56
362.259	7.55
362.623	7.53
362.987	7.5
363.351	7.48
363.714	7.46
364.078	7.43
364.442	7.41
364.806	7.4
365.169	7.35
365.533	7.32
365.896	7.3
366.26	7.28
366.623	7.24
366.987	7.21
367.35	7.2
367.714	7.18
368.077	7.15
368.44	7.13
368.803	7.1
369.167	7.07
369.53	7.04
369.893	7.01
370.256	6.97
370.619	6.94
370.982	6.9
371.345	6.86
371.708	6.84
372.071	6.8
372.434	6.77
372.797	6.75
373.159	6.73
373.522	6.7
373.885	6.66
374.247	6.61
374.61	6.57
374.973	6.52
375.335	6.48
375.698	6.45
376.06	6.42
376.423	6.37
376.785	6.33
377.147	6.29
377.51	6.27
377.872	6.23
378.234	6.2
378.596	6.18
378.958	6.16
379.321	6.14
379.683	6.1
380.045	6.06
380.407	6.04
380.769	6
381.13	5.98
381.492	5.96
381.854	5.93
382.216	5.9
382.578	5.87
382.939	5.85
383.301	5.83
383.663	5.8
384.024	5.77
384.386	5.75
384.747	5.73
385.109	5.69
385.47	5.67
385.832	5.65
386.193	5.62
386.554	5.59
386.916	5.57
387.277	5.55
387.638	5.54
387.999	5.52
388.36	5.5
388.721	5.49
389.082	5.47
389.443	5.46
389.804	5.44
390.165	5.44
390.526	5.41
390.887	5.4
391.248	5.38
391.609	5.37
391.969	5.36
392.33	5.34
392.691	5.33
393.051	5.31
393.412	5.28
393.772	5.27
394.133	5.26
394.493	5.24
394.854	5.23
395.214	5.21
395.574	5.19
395.935	5.17
396.295	5.15
396.655	5.14
397.015	5.12
397.376	5.1
397.736	5.09
398.096	5.07
398.456	5.05
398.816	5.06
399.176	5.03
399.535	5.02
399.895	5.01
400.255	5
400.615	4.99
400.975	4.98
401.334	4.96
401.694	4.95
402.054	4.94
402.413	4.91
402.773	4.91
403.132	4.9
403.492	4.89
403.851	4.88
404.211	4.87
404.57	4.87
404.929	4.87
405.288	4.86
405.648	4.85
406.007	4.85
406.366	4.85
406.725	4.85
407.084	4.84
407.443	4.84
407.802	4.83
408.161	4.82
408.52	4.81
408.879	4.81
409.238	4.81
409.596	4.8
409.955	4.8
410.314	4.8
410.673	4.79
411.031	4.79
411.39	4.79
411.748	4.79
412.107	4.8
412.465	4.8
412.824	4.82
413.182	4.83
413.54	4.85
413.899	4.87
414.257	4.89
414.615	4.93
414.974	4.96
415.332	5
415.69	5.04
416.048	5.07
416.406	5.11
416.764	5.14
417.122	5.17
417.48	5.2
417.838	5.23
418.195	5.25
418.553	5.27
418.911	5.28
419.269	5.28
419.626	5.27
419.984	5.26
420.342	5.23
420.699	5.21
421.057	5.19
421.414	5.17
421.772	5.15
422.129	5.14
422.486	5.13
422.844	5.12
423.201	5.12
423.558	5.11
423.915	5.11
424.273	5.1
424.63	5.1
424.987	5.09
425.344	5.09
425.701	5.09
426.058	5.09
426.415	5.08
426.772	5.07
427.128	5.07
427.485	5.05
427.842	5.04
428.199	5.03
428.555	5.01
428.912	4.99
429.269	4.96
429.625	4.93
429.982	4.9
430.338	4.87
430.695	4.85
431.051	4.81
431.407	4.78
431.764	4.76
432.12	4.74
432.476	4.73
432.832	4.72
433.189	4.72
433.545	4.72
433.901	4.74
434.257	4.76
434.613	4.79
434.969	4.82
435.325	4.85
435.681	4.9
436.036	4.91
436.392	4.94
436.748	4.95
437.104	4.96
437.459	4.98
437.815	5
438.171	5.02
438.526	5.05
438.882	5.08
439.237	5.12
439.593	5.16
439.948	5.19
440.304	5.23
440.659	5.26
441.014	5.28
441.369	5.31
441.725	5.33
442.08	5.35
442.435	5.36
442.79	5.36
443.145	5.37
443.5	5.37
443.855	5.37
444.21	5.36
444.565	5.36
444.92	5.34
445.275	5.33
445.629	5.32
445.984	5.31
446.339	5.3
446.693	5.29
447.048	5.26
447.403	5.25
447.757	5.22
448.112	5.19
448.466	5.17
448.82	5.14
449.175	5.12
449.529	5.1
449.883	5.08
450.238	5.05
450.592	5.04
450.946	5.03
451.3	5.03
451.654	5.05
452.008	5.04
452.362	5.05
452.716	5.05
453.07	5.05
453.424	5.04
453.778	5.04
454.132	5.02
454.486	5.01
454.839	4.98
455.193	4.96
455.547	4.94
455.9	4.9
456.254	4.88
456.607	4.85
456.961	4.82
457.314	4.8
457.668	4.78
458.021	4.78
458.375	4.77
458.728	4.78
459.081	4.78
459.434	4.79
459.787	4.8
460.141	4.82
460.494	4.83
460.847	4.83
461.2	4.84
461.553	4.86
461.906	4.86
462.259	4.87
462.611	4.88
462.964	4.89
463.317	4.9
463.67	4.91
464.022	4.92
464.375	4.92
464.728	4.92
465.08	4.92
465.433	4.93
465.785	4.93
466.138	4.91
466.49	4.89
466.843	4.87
467.195	4.85
467.547	4.83
467.899	4.81
468.252	4.78
468.604	4.75
468.956	4.73
469.308	4.72
469.66	4.72
470.012	4.72
470.364	4.73
470.716	4.74
471.068	4.76
471.42	4.79
471.772	4.81
472.123	4.82
472.475	4.84
472.827	4.85
473.178	4.86
473.53	4.87
473.882	4.89
474.233	4.91
474.585	4.96
474.936	5.02
475.288	5.12
475.639	5.25
475.99	5.41
476.342	5.58
476.693	5.76
477.044	5.94
477.395	6.14
477.746	6.33
478.097	6.53
478.448	6.73
478.8	6.92
479.15	7.1
479.501	7.27
479.852	7.42
480.203	7.55
480.554	7.69
480.905	7.82
481.255	7.94
481.606	8.07
481.957	8.17
482.307	8.28
482.658	8.38
483.009	8.47
483.359	8.56
483.709	8.65
484.06	8.74
484.41	8.82
484.761	8.9
485.111	8.98
485.461	9.05
485.811	9.12
486.162	9.18
486.512	9.24
486.862	9.28
487.212	9.31
487.562	9.34
487.912	9.35
488.262	9.35
488.612	9.35
488.961	9.33
489.311	9.29
489.661	9.21
490.011	9.11
490.36	8.99
490.71	8.85
491.06	8.69
491.409	8.54
491.759	8.37
492.108	8.2
492.458	8.02
492.807	7.84
493.157	7.66
493.506	7.48
493.855	7.31
494.204	7.16
494.554	7.02
494.903	6.89
495.252	6.76
495.601	6.64
495.95	6.52
496.299	6.42
496.648	6.32
496.997	6.23
497.346	6.14
497.695	6.06
498.043	5.99
498.392	5.92
498.741	5.85
499.09	5.79
499.438	5.73
499.787	5.67
500.135	5.63
500.484	5.6
500.832	5.58
501.181	5.57
501.529	5.58
501.878	5.6
502.226	5.63
502.574	5.67
502.923	5.72
503.271	5.77
503.619	5.82
503.967	5.88
504.315	5.93
504.663	5.98
505.011	6.04
505.359	6.11
505.707	6.17
506.055	6.24
506.403	6.31
506.751	6.39
507.098	6.47
507.446	6.56
507.794	6.66
508.141	6.76
508.489	6.88
508.837	7
509.184	7.12
509.531	7.24
509.879	7.37
510.226	7.51
510.574	7.66
510.921	7.81
511.268	7.98
511.616	8.15
511.963	8.33
512.31	8.51
512.657	8.7
513.004	8.88
513.351	9.06
513.698	9.22
514.045	9.39
514.392	9.55
514.739	9.7
515.086	9.85
515.432	10
515.779	10.16
516.126	10.33
516.473	10.5
516.819	10.7
517.166	10.9
517.512	11.13
517.859	11.37
518.205	11.63
518.552	11.91
518.898	12.23
519.245	12.57
519.591	12.99
519.937	13.48
520.283	14.04
520.629	14.65
520.976	15.29
521.322	15.96
521.668	16.64
522.014	17.31
522.36	17.98
522.706	18.64
523.052	19.29
523.398	19.91
523.743	20.49
524.089	21.03
524.435	21.53
524.781	22.03
525.126	22.52
525.472	23.01
525.817	23.49
526.163	23.95
526.509	24.41
526.854	24.87
527.199	25.32
527.545	25.77
527.89	26.23
528.235	26.69
528.581	27.13
528.926	27.54
529.271	27.94
529.616	28.32
529.961	28.67
530.306	28.99
530.651	29.3
530.996	29.58
531.341	29.85
531.686	30.1
532.031	30.33
532.376	30.59
532.721	30.88
533.065	31.19
533.41	31.5
533.755	31.79
534.099	32.03
534.444	32.24
534.788	32.43
535.133	32.6
535.477	32.75
535.822	32.86
536.166	32.93
536.51	32.97
536.855	32.94
537.199	32.88
537.543	32.82
537.887	32.79
538.231	32.79
538.576	32.79
538.92	32.77
539.264	32.75
539.608	32.7
539.951	32.63
540.295	32.56
540.639	32.47
540.983	32.36
541.327	32.25
541.671	32.13
542.014	32.03
542.358	31.94
542.701	31.94
543.045	31.98
543.389	32.04
543.732	32.13
544.075	32.23
544.419	32.34
544.762	32.45
545.105	32.59
545.449	32.74
545.792	32.9
546.135	33.06
546.478	33.17
546.821	33.23
547.165	33.23
547.508	33.18
547.851	33.09
548.194	32.95
548.536	32.78
548.879	32.57
549.222	32.35
549.565	32.11
549.908	31.88
550.25	31.69
550.593	31.53
550.936	31.44
551.278	31.41
551.621	31.41
551.963	31.43
552.306	31.46
552.648	31.54
552.991	31.63
553.333	31.73
553.675	31.88
554.017	32.05
554.36	32.24
554.702	32.47
555.044	32.74
555.386	33.04
555.728	33.34
556.07	33.61
556.412	33.88
556.754	34.05
557.096	34.22
557.438	34.38
557.78	34.55
558.121	34.73
558.463	34.91
558.805	35.08
559.147	35.25
559.488	35.41
559.83	35.57
560.171	35.73
560.513	35.89
560.854	36.05
561.196	36.2
561.537	36.36
561.878	36.5
562.22	36.65
562.561	36.79
562.902	36.94
563.243	37.09
563.584	37.23
563.925	37.38
564.266	37.52
564.607	37.66
564.948	37.8
565.289	37.93
565.63	38.07
565.971	38.2
566.312	38.34
566.653	38.47
566.993	38.6
567.334	38.73
567.675	38.85
568.015	38.98
568.356	39.1
568.696	39.21
569.037	39.32
569.377	39.42
569.718	39.53
570.058	39.63
570.398	39.72
570.739	39.82
571.079	39.9
571.419	40
571.759	40.08
572.099	40.16
572.439	40.24
572.779	40.31
573.119	40.4
573.459	40.47
573.799	40.55
574.139	40.63
574.479	40.71
574.819	40.78
575.158	40.85
575.498	40.91
575.838	40.99
576.177	41.05
576.517	41.12
576.856	41.19
577.196	41.25
577.535	41.3
577.875	41.36
578.214	41.43
578.553	41.48
578.893	41.55
579.232	41.62
579.571	41.68
579.91	41.74
580.25	41.8
580.589	41.86
580.928	41.92
581.267	41.98
581.606	42.04
581.945	42.1
582.283	42.16
582.622	42.23
582.961	42.3
583.3	42.37
583.639	42.44
583.977	42.51
584.316	42.59
584.654	42.65
584.993	42.73
585.332	42.79
585.67	42.86
586.008	42.92
586.347	42.99
586.685	43.07
587.024	43.14
587.362	43.22
587.7	43.3
588.038	43.38
588.376	43.45
588.715	43.53
589.053	43.62
589.391	43.71
589.729	43.78
590.067	43.86
590.404	43.95
590.742	44.02
591.08	44.1
591.418	44.17
591.756	44.24
592.093	44.32
592.431	44.4
592.769	44.46
593.106	44.53
593.444	44.58
593.781	44.64
594.119	44.69
594.456	44.74
594.793	44.8
595.131	44.86
595.468	44.92
595.805	44.98
596.143	45.04
596.48	45.11
596.817	45.18
597.154	45.25
597.491	45.31
597.828	45.38
598.165	45.45
598.502	45.53
598.839	45.59
599.176	45.66
599.512	45.71
599.849	45.76
600.186	45.81
600.523	45.86
600.859	45.91
601.196	45.95
601.532	46
601.869	46.04
602.205	46.1
602.542	46.14
602.878	46.17
603.215	46.2
603.551	46.25
603.887	46.29
604.223	46.32
604.56	46.36
604.896	46.39
605.232	46.42
605.568	46.45
605.904	46.48
606.24	46.51
606.576	46.53
606.912	46.56
607.248	46.6
607.583	46.63
607.919	46.67
608.255	46.7
608.591	46.72
608.926	46.75
609.262	46.78
609.597	46.8
609.933	46.82
610.268	46.84
610.604	46.85
610.939	46.87
611.275	46.88
611.61	46.89
611.945	46.9
612.281	46.9
612.616	46.91
612.951	46.92
613.286	46.95
613.621	46.97
613.956	46.98
614.291	47
614.626	47.01
614.961	47.03
615.296	47.05
615.631	47.07
615.966	47.09
616.3	47.11
616.635	47.12
616.97	47.15
617.304	47.15
617.639	47.18
617.973	47.21
618.308	47.25
618.642	47.27
618.977	47.3
619.311	47.34
619.646	47.38
619.98	47.43
620.314	47.46
620.648	47.51
620.983	47.53
621.317	47.54
621.651	47.58
621.985	47.59
622.319	47.62
622.653	47.64
622.987	47.67
623.321	47.7
623.655	47.73
623.988	47.76
624.322	47.79
624.656	47.82
624.99	47.84
625.323	47.87
625.657	47.9
625.99	47.95
626.324	47.97
626.657	47.99
626.991	48
627.324	48.02
627.658	48.06
627.991	48.09
628.324	48.11
628.657	48.15
628.991	48.17
629.324	48.2
629.657	48.22
629.99	48.24
630.323	48.26
630.656	48.28
630.989	48.31
631.322	48.33
631.655	48.35
631.987	48.36
632.32	48.39
632.653	48.41
632.986	48.43
633.318	48.43
633.651	48.45
633.984	48.45
634.316	48.46
634.649	48.47
634.981	48.49
635.313	48.5
635.646	48.52
635.978	48.53
636.31	48.55
636.643	48.56
636.975	48.57
637.307	48.58
637.639	48.6
637.971	48.63
638.303	48.66
638.635	48.67
638.967	48.66
639.299	48.68
639.631	48.68
639.963	48.72
640.295	48.75
640.626	48.78
640.958	48.8
641.29	48.8
641.621	48.82
641.953	48.84
642.285	48.86
642.616	48.89
642.948	48.9
643.279	48.93
643.61	48.95
643.942	48.97
644.273	48.99
644.604	49
644.936	49.02
645.267	49.03
645.598	49.06
645.929	49.07
646.26	49.11
646.591	49.13
646.922	49.14
647.253	49.16
647.584	49.18
647.915	49.2
648.245	49.24
648.576	49.28
648.907	49.3
649.238	49.32
649.568	49.34
649.899	49.35
650.229	49.39
650.56	49.42
650.89	49.45
651.221	49.47
651.551	49.49
651.882	49.5
652.212	49.53
652.542	49.57
652.872	49.6
653.203	49.63
653.533	49.64
653.863	49.64
654.193	49.68
654.523	49.69
654.853	49.71
655.183	49.73
655.513	49.75
655.843	49.77
656.172	49.79
656.502	49.81
656.832	49.83
657.162	49.84
657.491	49.86
657.821	49.87
658.15	49.89
658.48	49.9
658.809	49.92
659.139	49.93
659.468	49.96
659.798	49.97
660.127	49.99
660.456	50.02
660.785	50.04
661.115	50.07
661.444	50.09
661.773	50.11
662.102	50.12
662.431	50.13
662.76	50.15
663.089	50.19
663.418	50.19
663.747	50.2
664.076	50.22
664.404	50.24
664.733	50.24
665.062	50.27
665.39	50.29
665.719	50.29
666.048	50.3
666.376	50.32
666.705	50.33
667.033	50.35
667.362	50.36
667.69	50.37
668.018	50.39
668.347	50.41
668.675	50.41
669.003	50.42
669.331	50.44
669.659	50.44
669.987	50.47
670.315	50.47
670.643	50.49
670.971	50.52
671.299	50.55
671.627	50.56
671.955	50.58
