Data from UWBM41002_Reflection_00002.txt Node
Date: Sun May 02 14:13:23 EDT 2021
User: vgr7
Spectrometer: USB2G7710
Scans to average: 10
Trigger mode: 4
Integration Time (sec): 1.000000E-1
Electric dark correction enabled: true
Boxcar width: 20
XAxis mode: Wavelengths
Number of Pixels in Spectrum: 2048
>>>>>Begin Spectral Data<<<<<
177.721	55.8
178.105	21.47
178.488	55.39
178.871	60.48
179.254	51.14
179.636	30.95
180.019	31.42
180.402	21.28
180.785	23.23
181.168	20.37
181.55	20.33
181.933	22.82
182.316	20.26
182.698	18.37
183.081	13.76
183.463	10.46
183.846	3.1
184.228	8.06
184.611	6.82
184.993	8.48
185.376	9.59
185.758	12.25
186.14	12.33
186.522	11.55
186.904	7.64
187.287	5.37
187.669	4.24
188.051	4.6
188.433	3.09
188.815	-1.73
189.197	-0.17
189.579	0.34
189.961	2.27
190.342	2.51
190.724	2.69
191.106	4.42
191.488	4.61
191.869	5.25
192.251	3.66
192.633	3.84
193.014	3.31
193.396	0.77
193.777	2.81
194.159	2.42
194.54	1.11
194.922	0.18
195.303	-0.51
195.684	-0.59
196.065	0.5
196.447	0.65
196.828	2.57
197.209	2.11
197.59	-0.37
197.971	0.5
198.352	2.66
198.733	3.68
199.114	4.41
199.495	6.78
199.876	5.46
200.257	4.99
200.638	2.01
201.018	2.11
201.399	1.95
201.78	1.33
202.16	1.13
202.541	1.32
202.922	0.8
203.302	1.99
203.683	2.4
204.063	3.38
204.444	4.35
204.824	4.86
205.204	4.73
205.585	5.07
205.965	6.21
206.345	5.69
206.725	5.53
207.106	5.8
207.486	6.04
207.866	7.61
208.246	7.66
208.626	7.34
209.006	8.43
209.386	6.63
209.766	5.74
210.145	5.41
210.525	5.33
210.905	7.31
211.285	5.76
211.664	4.71
212.044	4.12
212.424	2.76
212.803	2.65
213.183	3.19
213.562	2.86
213.942	2.01
214.321	0.92
214.701	0.41
215.08	0.92
215.459	0.63
215.838	0.92
216.218	1.98
216.597	1.83
216.976	1.98
217.355	3.08
217.734	1.7
218.113	2.57
218.492	3.03
218.871	2.8
219.25	3.05
219.629	2.94
220.008	3.59
220.387	2.97
220.766	3.26
221.144	2.08
221.523	1.96
221.902	2.65
222.28	2.76
222.659	2.64
223.037	2.05
223.416	1.64
223.794	1.74
224.173	1.83
224.551	1.73
224.929	3.41
225.308	3.67
225.686	4.14
226.064	4.25
226.442	3.78
226.821	4.44
227.199	4.96
227.577	4.88
227.955	5.11
228.333	5.28
228.711	4.91
229.089	4.48
229.467	4.16
229.845	4.58
230.222	4.52
230.6	4.5
230.978	4.78
231.356	4.97
231.733	5.03
232.111	4.7
232.488	4.55
232.866	4.22
233.243	4.34
233.621	4.45
233.998	4.4
234.376	4.43
234.753	4.34
235.13	4.34
235.508	4.42
235.885	4.31
236.262	4.16
236.639	4.23
237.016	4.2
237.393	4.17
237.77	4.22
238.147	4.18
238.524	4.19
238.901	4.17
239.278	4.2
239.655	4.33
240.032	4.33
240.409	4.31
240.785	4.39
241.162	4.42
241.539	4.44
241.915	4.49
242.292	4.47
242.668	4.46
243.045	4.45
243.421	4.43
243.798	4.41
244.174	4.5
244.551	4.52
244.927	4.52
245.303	4.5
245.679	4.52
246.056	4.47
246.432	4.44
246.808	4.42
247.184	4.42
247.56	4.47
247.936	4.46
248.312	4.48
248.688	4.46
249.064	4.44
249.44	4.45
249.815	4.4
250.191	4.37
250.567	4.38
250.943	4.36
251.318	4.36
251.694	4.41
252.069	4.41
252.445	4.43
252.82	4.46
253.196	4.42
253.571	4.43
253.947	4.42
254.322	4.43
254.697	4.43
255.073	4.38
255.448	4.4
255.823	4.36
256.198	4.34
256.573	4.3
256.948	4.3
257.323	4.28
257.698	4.27
258.073	4.26
258.448	4.24
258.823	4.22
259.198	4.21
259.573	4.18
259.948	4.19
260.322	4.2
260.697	4.2
261.072	4.17
261.446	4.16
261.821	4.16
262.195	4.15
262.57	4.16
262.944	4.13
263.319	4.15
263.693	4.14
264.067	4.15
264.442	4.14
264.816	4.11
265.19	4.13
265.564	4.13
265.938	4.13
266.313	4.14
266.687	4.13
267.061	4.12
267.435	4.12
267.809	4.1
268.183	4.08
268.556	4.09
268.93	4.08
269.304	4.1
269.678	4.08
270.051	4.07
270.425	4.07
270.799	4.04
271.172	4.05
271.546	4.06
271.919	4.07
272.293	4.06
272.666	4.05
273.04	4.05
273.413	4.08
273.787	4.11
274.16	4.13
274.533	4.13
274.906	4.13
275.279	4.12
275.653	4.13
276.026	4.13
276.399	4.15
276.772	4.17
277.145	4.16
277.518	4.18
277.891	4.18
278.263	4.19
278.636	4.18
279.009	4.19
279.382	4.18
279.755	4.19
280.127	4.21
280.5	4.22
280.872	4.24
281.245	4.24
281.617	4.23
281.99	4.24
282.362	4.23
282.735	4.24
283.107	4.25
283.479	4.24
283.852	4.25
284.224	4.25
284.596	4.23
284.968	4.24
285.34	4.25
285.713	4.25
286.085	4.27
286.457	4.27
286.829	4.26
287.201	4.26
287.572	4.27
287.944	4.26
288.316	4.25
288.688	4.24
289.06	4.24
289.431	4.24
289.803	4.25
290.175	4.25
290.546	4.26
290.918	4.27
291.289	4.27
291.661	4.28
292.032	4.28
292.403	4.28
292.775	4.28
293.146	4.28
293.517	4.28
293.889	4.29
294.26	4.3
294.631	4.32
295.002	4.33
295.373	4.33
295.744	4.33
296.115	4.33
296.486	4.35
296.857	4.36
297.228	4.36
297.599	4.38
297.97	4.39
298.34	4.39
298.711	4.42
299.082	4.41
299.452	4.43
299.823	4.43
300.194	4.43
300.564	4.43
300.935	4.45
301.305	4.47
301.676	4.47
302.046	4.46
302.416	4.47
302.787	4.47
303.157	4.49
303.527	4.49
303.897	4.49
304.267	4.49
304.637	4.48
305.008	4.48
305.378	4.49
305.748	4.49
306.117	4.49
306.487	4.49
306.857	4.5
307.227	4.51
307.597	4.53
307.967	4.52
308.336	4.52
308.706	4.52
309.076	4.51
309.445	4.51
309.815	4.5
310.184	4.5
310.554	4.51
310.923	4.51
311.293	4.5
311.662	4.49
312.031	4.48
312.401	4.51
312.77	4.49
313.139	4.49
313.508	4.48
313.877	4.47
314.246	4.47
314.616	4.46
314.985	4.48
315.353	4.48
315.722	4.48
316.091	4.46
316.46	4.44
316.829	4.44
317.198	4.45
317.567	4.44
317.935	4.45
318.304	4.44
318.672	4.43
319.041	4.43
319.41	4.42
319.778	4.42
320.147	4.41
320.515	4.4
320.883	4.37
321.252	4.37
321.62	4.36
321.988	4.34
322.357	4.35
322.725	4.35
323.093	4.34
323.461	4.33
323.829	4.33
324.197	4.34
324.565	4.33
324.933	4.32
325.301	4.31
325.669	4.3
326.037	4.28
326.405	4.28
326.772	4.28
327.14	4.28
327.508	4.25
327.875	4.24
328.243	4.23
328.61	4.22
328.978	4.21
329.346	4.2
329.713	4.21
330.08	4.21
330.448	4.2
330.815	4.19
331.182	4.19
331.55	4.2
331.917	4.19
332.284	4.18
332.651	4.18
333.018	4.18
333.385	4.18
333.752	4.18
334.119	4.19
334.486	4.18
334.853	4.18
335.22	4.19
335.587	4.19
335.954	4.2
336.32	4.19
336.687	4.18
337.054	4.18
337.42	4.18
337.787	4.17
338.153	4.16
338.52	4.16
338.886	4.15
339.253	4.15
339.619	4.15
339.986	4.15
340.352	4.16
340.718	4.15
341.084	4.16
341.451	4.15
341.817	4.16
342.183	4.17
342.549	4.18
342.915	4.18
343.281	4.19
343.647	4.19
344.013	4.18
344.379	4.19
344.745	4.19
345.11	4.18
345.476	4.19
345.842	4.18
346.208	4.18
346.573	4.17
346.939	4.17
347.304	4.18
347.67	4.18
348.035	4.18
348.401	4.18
348.766	4.19
349.132	4.19
349.497	4.19
349.862	4.19
350.228	4.2
350.593	4.19
350.958	4.2
351.323	4.2
351.688	4.21
352.053	4.22
352.418	4.22
352.783	4.22
353.148	4.22
353.513	4.23
353.878	4.24
354.243	4.24
354.608	4.25
354.972	4.26
355.337	4.27
355.702	4.27
356.066	4.27
356.431	4.27
356.795	4.26
357.16	4.25
357.524	4.25
357.889	4.25
358.253	4.25
358.618	4.24
358.982	4.24
359.346	4.24
359.71	4.24
360.075	4.24
360.439	4.24
360.803	4.25
361.167	4.25
361.531	4.25
361.895	4.25
362.259	4.24
362.623	4.24
362.987	4.24
363.351	4.24
363.714	4.23
364.078	4.23
364.442	4.23
364.806	4.23
365.169	4.23
365.533	4.24
365.896	4.24
366.26	4.24
366.623	4.24
366.987	4.23
367.35	4.23
367.714	4.23
368.077	4.23
368.44	4.23
368.803	4.23
369.167	4.22
369.53	4.22
369.893	4.22
370.256	4.21
370.619	4.21
370.982	4.22
371.345	4.22
371.708	4.22
372.071	4.23
372.434	4.23
372.797	4.23
373.159	4.23
373.522	4.23
373.885	4.24
374.247	4.24
374.61	4.23
374.973	4.23
375.335	4.24
375.698	4.23
376.06	4.23
376.423	4.23
376.785	4.23
377.147	4.23
377.51	4.24
377.872	4.24
378.234	4.23
378.596	4.23
378.958	4.23
379.321	4.23
379.683	4.23
380.045	4.23
380.407	4.23
380.769	4.23
381.13	4.23
381.492	4.23
381.854	4.24
382.216	4.24
382.578	4.24
382.939	4.24
383.301	4.24
383.663	4.24
384.024	4.24
384.386	4.24
384.747	4.24
385.109	4.24
385.47	4.24
385.832	4.23
386.193	4.23
386.554	4.23
386.916	4.23
387.277	4.23
387.638	4.23
387.999	4.23
388.36	4.24
388.721	4.24
389.082	4.24
389.443	4.24
389.804	4.24
390.165	4.24
390.526	4.24
390.887	4.24
391.248	4.24
391.609	4.24
391.969	4.24
392.33	4.24
392.691	4.24
393.051	4.24
393.412	4.25
393.772	4.25
394.133	4.25
394.493	4.25
394.854	4.24
395.214	4.24
395.574	4.24
395.935	4.24
396.295	4.24
396.655	4.24
397.015	4.24
397.376	4.24
397.736	4.24
398.096	4.24
398.456	4.24
398.816	4.25
399.176	4.24
399.535	4.25
399.895	4.25
400.255	4.25
400.615	4.26
400.975	4.26
401.334	4.26
401.694	4.26
402.054	4.26
402.413	4.26
402.773	4.26
403.132	4.26
403.492	4.27
403.851	4.27
404.211	4.27
404.57	4.28
404.929	4.28
405.288	4.28
405.648	4.28
406.007	4.29
406.366	4.29
406.725	4.29
407.084	4.3
407.443	4.3
407.802	4.3
408.161	4.3
408.52	4.3
408.879	4.3
409.238	4.3
409.596	4.31
409.955	4.31
410.314	4.32
410.673	4.32
411.031	4.32
411.39	4.33
411.748	4.34
412.107	4.35
412.465	4.36
412.824	4.39
413.182	4.41
413.54	4.44
413.899	4.47
414.257	4.51
414.615	4.56
414.974	4.59
415.332	4.63
415.69	4.68
416.048	4.71
416.406	4.76
416.764	4.8
417.122	4.83
417.48	4.87
417.838	4.91
418.195	4.94
418.553	4.96
418.911	4.98
419.269	4.99
419.626	4.99
419.984	4.99
420.342	4.98
420.699	4.96
421.057	4.94
421.414	4.92
421.772	4.91
422.129	4.9
422.486	4.9
422.844	4.9
423.201	4.89
423.558	4.89
423.915	4.9
424.273	4.9
424.63	4.9
424.987	4.9
425.344	4.9
425.701	4.9
426.058	4.9
426.415	4.91
426.772	4.9
427.128	4.9
427.485	4.89
427.842	4.88
428.199	4.86
428.555	4.84
428.912	4.82
429.269	4.79
429.625	4.76
429.982	4.73
430.338	4.7
430.695	4.68
431.051	4.64
431.407	4.61
431.764	4.59
432.12	4.57
432.476	4.56
432.832	4.55
433.189	4.55
433.545	4.56
433.901	4.57
434.257	4.59
434.613	4.62
434.969	4.65
435.325	4.68
435.681	4.72
436.036	4.74
436.392	4.77
436.748	4.79
437.104	4.8
437.459	4.82
437.815	4.85
438.171	4.87
438.526	4.89
438.882	4.93
439.237	4.98
439.593	5.02
439.948	5.05
440.304	5.09
440.659	5.12
441.014	5.15
441.369	5.18
441.725	5.2
442.08	5.23
442.435	5.24
442.79	5.25
443.145	5.25
443.5	5.26
443.855	5.26
444.21	5.26
444.565	5.26
444.92	5.25
445.275	5.24
445.629	5.23
445.984	5.22
446.339	5.21
446.693	5.2
447.048	5.18
447.403	5.16
447.757	5.14
448.112	5.11
448.466	5.09
448.82	5.06
449.175	5.04
449.529	5.02
449.883	5
450.238	4.97
450.592	4.97
450.946	4.96
451.3	4.96
451.654	4.97
452.008	4.97
452.362	4.98
452.716	4.98
453.07	4.98
453.424	4.97
453.778	4.96
454.132	4.95
454.486	4.94
454.839	4.92
455.193	4.89
455.547	4.88
455.9	4.84
456.254	4.83
456.607	4.79
456.961	4.76
457.314	4.74
457.668	4.73
458.021	4.72
458.375	4.71
458.728	4.71
459.081	4.71
459.434	4.72
459.787	4.73
460.141	4.75
460.494	4.75
460.847	4.76
461.2	4.77
461.553	4.77
461.906	4.78
462.259	4.78
462.611	4.79
462.964	4.79
463.317	4.8
463.67	4.81
464.022	4.81
464.375	4.82
464.728	4.82
465.08	4.83
465.433	4.83
465.785	4.82
466.138	4.81
466.49	4.79
466.843	4.76
467.195	4.74
467.547	4.72
467.899	4.69
468.252	4.66
468.604	4.63
468.956	4.61
469.308	4.59
469.66	4.59
470.012	4.58
470.364	4.58
470.716	4.59
471.068	4.6
471.42	4.62
471.772	4.65
472.123	4.66
472.475	4.67
472.827	4.69
473.178	4.7
473.53	4.71
473.882	4.72
474.233	4.75
474.585	4.79
474.936	4.86
475.288	4.96
475.639	5.1
475.99	5.25
476.342	5.41
476.693	5.6
477.044	5.79
477.395	5.99
477.746	6.19
478.097	6.38
478.448	6.59
478.8	6.78
479.15	6.96
479.501	7.13
479.852	7.28
480.203	7.43
480.554	7.57
480.905	7.71
481.255	7.84
481.606	7.96
481.957	8.08
482.307	8.19
482.658	8.29
483.009	8.39
483.359	8.49
483.709	8.59
484.06	8.67
484.41	8.77
484.761	8.86
485.111	8.94
485.461	9.02
485.811	9.09
486.162	9.16
486.512	9.22
486.862	9.26
487.212	9.3
487.562	9.32
487.912	9.33
488.262	9.33
488.612	9.33
488.961	9.31
489.311	9.26
489.661	9.17
490.011	9.07
490.36	8.95
490.71	8.81
491.06	8.66
491.409	8.49
491.759	8.32
492.108	8.14
492.458	7.96
492.807	7.77
493.157	7.58
493.506	7.4
493.855	7.23
494.204	7.07
494.554	6.91
494.903	6.77
495.252	6.63
495.601	6.5
495.95	6.37
496.299	6.24
496.648	6.13
496.997	6.02
497.346	5.91
497.695	5.81
498.043	5.71
498.392	5.62
498.741	5.53
499.09	5.44
499.438	5.36
499.787	5.27
500.135	5.2
500.484	5.13
500.832	5.07
501.181	5.03
501.529	4.99
501.878	4.98
502.226	4.97
502.574	4.96
502.923	4.96
503.271	4.96
503.619	4.96
503.967	4.96
504.315	4.95
504.663	4.95
505.011	4.94
505.359	4.94
505.707	4.93
506.055	4.93
506.403	4.93
506.751	4.93
507.098	4.94
507.446	4.94
507.794	4.95
508.141	4.96
508.489	4.97
508.837	4.99
509.184	5
509.531	5.02
509.879	5.03
510.226	5.05
510.574	5.07
510.921	5.09
511.268	5.11
511.616	5.13
511.963	5.16
512.31	5.18
512.657	5.21
513.004	5.23
513.351	5.25
513.698	5.26
514.045	5.27
514.392	5.28
514.739	5.28
515.086	5.27
515.432	5.27
515.779	5.27
516.126	5.26
516.473	5.26
516.819	5.26
517.166	5.27
517.512	5.28
517.859	5.3
518.205	5.32
518.552	5.35
518.898	5.38
519.245	5.42
519.591	5.49
519.937	5.58
520.283	5.68
520.629	5.8
520.976	5.92
521.322	6.06
521.668	6.2
522.014	6.34
522.36	6.48
522.706	6.62
523.052	6.75
523.398	6.87
523.743	6.98
524.089	7.07
524.435	7.15
524.781	7.22
525.126	7.29
525.472	7.35
525.817	7.41
526.163	7.47
526.509	7.52
526.854	7.58
527.199	7.62
527.545	7.68
527.89	7.73
528.235	7.78
528.581	7.84
528.926	7.89
529.271	7.93
529.616	7.97
529.961	8.01
530.306	8.04
530.651	8.07
530.996	8.09
531.341	8.11
531.686	8.11
532.031	8.11
532.376	8.11
532.721	8.12
533.065	8.13
533.41	8.13
533.755	8.13
534.099	8.11
534.444	8.08
534.788	8.04
535.133	7.99
535.477	7.94
535.822	7.88
536.166	7.82
536.51	7.74
536.855	7.65
537.199	7.56
537.543	7.46
537.887	7.39
538.231	7.31
538.576	7.25
538.92	7.19
539.264	7.12
539.608	7.05
539.951	6.98
540.295	6.91
540.639	6.84
540.983	6.76
541.327	6.69
541.671	6.61
542.014	6.54
542.358	6.47
542.701	6.42
543.045	6.39
543.389	6.36
543.732	6.33
544.075	6.31
544.419	6.29
544.762	6.27
545.105	6.26
545.449	6.25
545.792	6.24
546.135	6.23
546.478	6.21
546.821	6.18
547.165	6.15
547.508	6.1
547.851	6.05
548.194	5.98
548.536	5.91
548.879	5.83
549.222	5.76
549.565	5.67
549.908	5.59
550.25	5.51
550.593	5.44
550.936	5.39
551.278	5.34
551.621	5.31
551.963	5.27
552.306	5.24
552.648	5.22
552.991	5.2
553.333	5.18
553.675	5.17
554.017	5.16
554.36	5.16
554.702	5.16
555.044	5.17
555.386	5.18
555.728	5.21
556.07	5.22
556.412	5.24
556.754	5.26
557.096	5.26
557.438	5.26
557.78	5.26
558.121	5.27
558.463	5.27
558.805	5.27
559.147	5.27
559.488	5.27
559.83	5.27
560.171	5.27
560.513	5.27
560.854	5.27
561.196	5.27
561.537	5.28
561.878	5.28
562.22	5.28
562.561	5.28
562.902	5.28
563.243	5.28
563.584	5.28
563.925	5.28
564.266	5.29
564.607	5.29
564.948	5.29
565.289	5.29
565.63	5.3
565.971	5.31
566.312	5.32
566.653	5.32
566.993	5.33
567.334	5.33
567.675	5.34
568.015	5.34
568.356	5.35
568.696	5.35
569.037	5.36
569.377	5.36
569.718	5.36
570.058	5.35
570.398	5.36
570.739	5.36
571.079	5.36
571.419	5.36
571.759	5.35
572.099	5.35
572.439	5.35
572.779	5.35
573.119	5.35
573.459	5.36
573.799	5.36
574.139	5.36
574.479	5.36
574.819	5.37
575.158	5.37
575.498	5.37
575.838	5.37
576.177	5.37
576.517	5.37
576.856	5.37
577.196	5.37
577.535	5.38
577.875	5.38
578.214	5.38
578.553	5.38
578.893	5.38
579.232	5.38
579.571	5.38
579.91	5.37
580.25	5.37
580.589	5.37
580.928	5.36
581.267	5.36
581.606	5.36
581.945	5.36
582.283	5.36
582.622	5.36
582.961	5.35
583.3	5.35
583.639	5.36
583.977	5.36
584.316	5.36
584.654	5.36
584.993	5.36
585.332	5.36
585.67	5.36
586.008	5.36
586.347	5.37
586.685	5.37
587.024	5.37
587.362	5.37
587.7	5.37
588.038	5.37
588.376	5.37
588.715	5.37
589.053	5.37
589.391	5.37
589.729	5.37
590.067	5.37
590.404	5.38
590.742	5.38
591.08	5.39
591.418	5.39
591.756	5.39
592.093	5.39
592.431	5.39
592.769	5.39
593.106	5.4
593.444	5.4
593.781	5.4
594.119	5.41
594.456	5.41
594.793	5.41
595.131	5.42
595.468	5.42
595.805	5.42
596.143	5.42
596.48	5.42
596.817	5.43
597.154	5.43
597.491	5.43
597.828	5.44
598.165	5.45
598.502	5.45
598.839	5.45
599.176	5.46
599.512	5.46
599.849	5.46
600.186	5.47
600.523	5.48
600.859	5.48
601.196	5.48
601.532	5.48
601.869	5.49
602.205	5.49
602.542	5.49
602.878	5.49
603.215	5.49
603.551	5.49
603.887	5.49
604.223	5.5
604.56	5.5
604.896	5.5
605.232	5.51
605.568	5.51
605.904	5.51
606.24	5.51
606.576	5.51
606.912	5.51
607.248	5.51
607.583	5.51
607.919	5.51
608.255	5.51
608.591	5.51
608.926	5.51
609.262	5.52
609.597	5.51
609.933	5.51
610.268	5.51
610.604	5.51
610.939	5.51
611.275	5.51
611.61	5.51
611.945	5.51
612.281	5.5
612.616	5.5
612.951	5.5
613.286	5.49
613.621	5.49
613.956	5.49
614.291	5.49
614.626	5.49
614.961	5.49
615.296	5.49
615.631	5.49
615.966	5.49
616.3	5.49
616.635	5.49
616.97	5.5
617.304	5.5
617.639	5.5
617.973	5.49
618.308	5.49
618.642	5.48
618.977	5.48
619.311	5.48
619.646	5.48
619.98	5.48
620.314	5.49
620.648	5.49
620.983	5.5
621.317	5.5
621.651	5.51
621.985	5.51
622.319	5.51
622.653	5.51
622.987	5.51
623.321	5.52
623.655	5.53
623.988	5.53
624.322	5.54
624.656	5.55
624.99	5.56
625.323	5.56
625.657	5.56
625.99	5.56
626.324	5.57
626.657	5.57
626.991	5.58
627.324	5.57
627.658	5.57
627.991	5.58
628.324	5.58
628.657	5.59
628.991	5.59
629.324	5.6
629.657	5.6
629.99	5.61
630.323	5.61
630.656	5.61
630.989	5.61
631.322	5.61
631.655	5.62
631.987	5.63
632.32	5.63
632.653	5.64
632.986	5.65
633.318	5.65
633.651	5.66
633.984	5.65
634.316	5.65
634.649	5.66
634.981	5.66
635.313	5.67
635.646	5.67
635.978	5.67
636.31	5.68
636.643	5.68
636.975	5.68
637.307	5.68
637.639	5.69
637.971	5.69
638.303	5.69
638.635	5.69
638.967	5.68
639.299	5.69
639.631	5.69
639.963	5.7
640.295	5.7
640.626	5.71
640.958	5.72
641.29	5.72
641.621	5.72
641.953	5.73
642.285	5.73
642.616	5.73
642.948	5.73
643.279	5.73
643.61	5.74
643.942	5.75
644.273	5.74
644.604	5.75
644.936	5.75
645.267	5.76
645.598	5.75
645.929	5.76
646.26	5.76
646.591	5.76
646.922	5.76
647.253	5.76
647.584	5.77
647.915	5.77
648.245	5.77
648.576	5.77
648.907	5.77
649.238	5.77
649.568	5.76
649.899	5.76
650.229	5.76
650.56	5.76
650.89	5.77
651.221	5.76
651.551	5.77
651.882	5.78
652.212	5.78
652.542	5.79
652.872	5.79
653.203	5.8
653.533	5.8
653.863	5.81
654.193	5.81
654.523	5.81
654.853	5.81
655.183	5.82
655.513	5.82
655.843	5.82
656.172	5.82
656.502	5.83
656.832	5.84
657.162	5.83
657.491	5.83
657.821	5.84
658.15	5.85
658.48	5.85
658.809	5.85
659.139	5.85
659.468	5.86
659.798	5.86
660.127	5.86
660.456	5.88
660.785	5.89
661.115	5.89
661.444	5.9
661.773	5.91
662.102	5.92
662.431	5.93
662.76	5.94
663.089	5.94
663.418	5.95
663.747	5.97
664.076	5.97
664.404	5.97
664.733	5.98
665.062	6
665.39	6
665.719	6
666.048	6.01
666.376	6.01
666.705	6.02
667.033	6.02
667.362	6.02
667.69	6.02
668.018	6.02
668.347	6.03
668.675	6.03
669.003	6.04
669.331	6.05
669.659	6.05
669.987	6.05
670.315	6.05
670.643	6.07
670.971	6.07
671.299	6.07
671.627	6.08
671.955	6.08
672.283	6.1
672.61	6.11
672.938	6.11
673.266	6.11
673.593	6.11
673.921	6.11
674.249	6.12
674.576	6.11
674.904	6.11
675.231	6.12
675.558	6.12
675.886	6.12
676.213	6.13
676.54	6.13
676.867	6.13
677.195	6.13
677.522	6.13
677.849	6.14
678.176	6.15
678.503	6.15
678.83	6.15
679.157	6.16
679.484	6.15
679.81	6.16
680.137	6.16
680.464	6.17
680.791	6.18
681.117	6.2
681.444	6.21
681.771	6.21
682.097	6.22
