Data from UWBM53665_Reflection_00012.txt Node
Date: Sun May 02 13:14:16 EDT 2021
User: vgr7
Spectrometer: USB2G7710
Scans to average: 10
Trigger mode: 4
Integration Time (sec): 1.000000E-1
Electric dark correction enabled: true
Boxcar width: 20
XAxis mode: Wavelengths
Number of Pixels in Spectrum: 2048
>>>>>Begin Spectral Data<<<<<
177.721	100.89
178.105	101.06
178.488	101.45
178.871	101.55
179.254	101.66
179.636	98.5
180.019	96.22
180.402	93.45
180.785	89.45
181.168	87.5
181.55	84.34
181.933	114.44
182.316	115.75
182.698	116.7
183.081	119.4
183.463	120.47
183.846	121.42
184.228	122.51
184.611	124.38
184.993	127.64
185.376	129.17
185.758	-101.05
186.14	-47.53
186.522	-13.01
186.904	1.19
187.287	11.66
187.669	14.49
188.051	15.13
188.433	19.15
188.815	18.05
189.197	14.75
189.579	17.74
189.961	16.69
190.342	12.24
190.724	14.18
191.106	13.88
191.488	13.2
191.869	9.5
192.251	11.05
192.633	8.07
193.014	5.25
193.396	3.52
193.777	9.77
194.159	9.32
194.54	5.61
194.922	5.74
195.303	8.3
195.684	9.73
196.065	11.2
196.447	11.01
196.828	10.02
197.209	11.2
197.59	0.93
197.971	-1.89
198.352	0.43
198.733	2.66
199.114	2.31
199.495	2.32
199.876	2.76
200.257	2.14
200.638	2
201.018	-1.59
201.399	-3.44
201.78	-4.82
202.16	-5.68
202.541	-4.27
202.922	-5.37
203.302	-9.32
203.683	-8.73
204.063	-8.04
204.444	-7.1
204.824	-2.69
205.204	-1.63
205.585	7.36
205.965	8.84
206.345	10.05
206.725	4.4
207.106	5.75
207.486	5.2
207.866	5.32
208.246	6.09
208.626	8.7
209.006	14.42
209.386	10.51
209.766	10.15
210.145	11.34
210.525	12.2
210.905	12.62
211.285	13.48
211.664	12.41
212.044	13.05
212.424	12.78
212.803	8.24
213.183	10.57
213.562	11.58
213.942	10.27
214.321	8.82
214.701	6.92
215.08	7.42
215.459	8.36
215.838	7.27
216.218	7.99
216.597	6.62
216.976	4.21
217.355	3.71
217.734	3.58
218.113	3.01
218.492	3.55
218.871	5.24
219.25	5.99
219.629	4.38
220.008	4.66
220.387	4.45
220.766	5.56
221.144	5.11
221.523	5.51
221.902	5.55
222.28	7.37
222.659	8.57
223.037	8.66
223.416	8.88
223.794	9.38
224.173	9.27
224.551	8.52
224.929	9.5
225.308	10.6
225.686	9.88
226.064	8.76
226.442	8.18
226.821	7.52
227.199	7.26
227.577	6.82
227.955	6.4
228.333	5.79
228.711	6.05
229.089	6.74
229.467	6.42
229.845	7.04
230.222	7.26
230.6	7.83
230.978	7.76
231.356	7.15
231.733	6.73
232.111	6.46
232.488	6.39
232.866	6.57
233.243	6.24
233.621	6.23
233.998	5.87
234.376	6.03
234.753	5.96
235.13	6.1
235.508	6.45
235.885	6.35
236.262	6.09
236.639	6.18
237.016	6.15
237.393	6.08
237.77	5.89
238.147	5.75
238.524	5.75
238.901	5.77
239.278	5.74
239.655	5.7
240.032	5.58
240.409	5.57
240.785	5.43
241.162	5.51
241.539	5.48
241.915	5.56
242.292	5.57
242.668	5.49
243.045	5.48
243.421	5.35
243.798	5.35
244.174	5.3
244.551	5.21
244.927	5.01
245.303	4.94
245.679	4.97
246.056	4.91
246.432	4.87
246.808	4.66
247.184	4.67
247.56	4.63
247.936	4.63
248.312	4.63
248.688	4.68
249.064	4.65
249.44	4.66
249.815	4.63
250.191	4.59
250.567	4.55
250.943	4.61
251.318	4.63
251.694	4.61
252.069	4.54
252.445	4.53
252.82	4.61
253.196	4.61
253.571	4.57
253.947	4.63
254.322	4.57
254.697	4.71
255.073	4.68
255.448	4.68
255.823	4.64
256.198	4.59
256.573	4.41
256.948	4.39
257.323	4.38
257.698	4.3
258.073	4.31
258.448	4.18
258.823	4.17
259.198	4.14
259.573	4.17
259.948	4.2
260.322	4.19
260.697	4.2
261.072	4.18
261.446	4.14
261.821	4.11
262.195	4.08
262.57	4.06
262.944	4.06
263.319	4.05
263.693	4.05
264.067	4.07
264.442	4.17
264.816	4.15
265.19	4.13
265.564	4.16
265.938	4.13
266.313	4.19
266.687	4.14
267.061	4.13
267.435	4.11
267.809	4.11
268.183	4.09
268.556	4.11
268.93	4.1
269.304	4.1
269.678	4.07
270.051	4.04
270.425	4.04
270.799	4.04
271.172	4.03
271.546	4.05
271.919	4.05
272.293	4.03
272.666	4.02
273.04	4.05
273.413	3.97
273.787	3.98
274.16	3.99
274.533	4.03
274.906	4.01
275.279	4.02
275.653	4
276.026	3.97
276.399	3.94
276.772	3.95
277.145	3.99
277.518	4.02
277.891	4.03
278.263	4.05
278.636	4.05
279.009	4.06
279.382	4.04
279.755	3.99
280.127	4.01
280.5	4.01
280.872	4.01
281.245	4.13
281.617	4.15
281.99	4.17
282.362	4.2
282.735	4.19
283.107	4.19
283.479	4.21
283.852	4.23
284.224	4.25
284.596	4.23
284.968	4.13
285.34	4.13
285.713	4.12
286.085	4.06
286.457	4.08
286.829	4.06
287.201	4.08
287.572	4.14
287.944	4.16
288.316	4.19
288.688	4.25
289.06	4.25
289.431	4.26
289.803	4.27
290.175	4.29
290.546	4.33
290.918	4.35
291.289	4.35
291.661	4.39
292.032	4.37
292.403	4.41
292.775	4.51
293.146	4.55
293.517	4.59
293.889	4.68
294.26	4.7
294.631	4.75
295.002	4.79
295.373	4.85
295.744	4.87
296.115	4.89
296.486	4.85
296.857	4.88
297.228	4.9
297.599	4.93
297.97	4.95
298.34	5
298.711	4.98
299.082	4.99
299.452	5.05
299.823	5.12
300.194	5.17
300.564	5.2
300.935	5.24
301.305	5.26
301.676	5.28
302.046	5.31
302.416	5.36
302.787	5.41
303.157	5.39
303.527	5.44
303.897	5.48
304.267	5.56
304.637	5.63
305.008	5.71
305.378	5.77
305.748	5.82
306.117	5.93
306.487	6.04
306.857	6.15
307.227	6.21
307.597	6.25
307.967	6.32
308.336	6.37
308.706	6.45
309.076	6.5
309.445	6.55
309.815	6.5
310.184	6.57
310.554	6.57
310.923	6.66
311.293	6.74
311.662	6.78
312.031	6.83
312.401	6.89
312.77	6.91
313.139	6.96
313.508	7.03
313.877	7.03
314.246	7.07
314.616	7.1
314.985	7.1
315.353	7.16
315.722	7.21
316.091	7.28
316.46	7.35
316.829	7.43
317.198	7.52
317.567	7.71
317.935	7.77
318.304	7.87
318.672	7.97
319.041	8.04
319.41	8.11
319.778	8.2
320.147	8.28
320.515	8.34
320.883	8.4
321.252	8.4
321.62	8.48
321.988	8.54
322.357	8.6
322.725	8.71
323.093	8.75
323.461	8.8
323.829	8.85
324.197	8.88
324.565	8.91
324.933	8.94
325.301	8.96
325.669	9.01
326.037	9.05
326.405	9.04
326.772	9.08
327.14	9.11
327.508	9.13
327.875	9.17
328.243	9.22
328.61	9.21
328.978	9.25
329.346	9.28
329.713	9.28
330.08	9.3
330.448	9.33
330.815	9.35
331.182	9.37
331.55	9.39
331.917	9.43
332.284	9.44
332.651	9.47
333.018	9.49
333.385	9.53
333.752	9.56
334.119	9.59
334.486	9.64
334.853	9.63
335.22	9.64
335.587	9.64
335.954	9.67
336.32	9.71
336.687	9.74
337.054	9.75
337.42	9.78
337.787	9.78
338.153	9.81
338.52	9.85
338.886	9.89
339.253	9.9
339.619	9.9
339.986	9.9
340.352	9.92
340.718	9.94
341.084	9.96
341.451	9.96
341.817	9.96
342.183	9.94
342.549	9.97
342.915	9.97
343.281	9.98
343.647	10.01
344.013	10.04
344.379	10.06
344.745	10.07
345.11	10.08
345.476	10.1
345.842	10.1
346.208	10.08
346.573	10.07
346.939	10.09
347.304	10.1
347.67	10.11
348.035	10.12
348.401	10.11
348.766	10.12
349.132	10.12
349.497	10.12
349.862	10.13
350.228	10.13
350.593	10.13
350.958	10.11
351.323	10.08
351.688	10.08
352.053	10.05
352.418	10.03
352.783	10.01
353.148	9.98
353.513	9.95
353.878	9.93
354.243	9.91
354.608	9.88
354.972	9.85
355.337	9.82
355.702	9.76
356.066	9.73
356.431	9.69
356.795	9.65
357.16	9.61
357.524	9.58
357.889	9.55
358.253	9.51
358.618	9.48
358.982	9.46
359.346	9.42
359.71	9.39
360.075	9.36
360.439	9.33
360.803	9.29
361.167	9.24
361.531	9.22
361.895	9.18
362.259	9.13
362.623	9.09
362.987	9.03
363.351	9
363.714	8.95
364.078	8.9
364.442	8.85
364.806	8.81
365.169	8.74
365.533	8.68
365.896	8.62
366.26	8.57
366.623	8.51
366.987	8.45
367.35	8.41
367.714	8.36
368.077	8.3
368.44	8.23
368.803	8.17
369.167	8.1
369.53	8.03
369.893	7.98
370.256	7.91
370.619	7.85
370.982	7.78
371.345	7.7
371.708	7.64
372.071	7.57
372.434	7.5
372.797	7.45
373.159	7.4
373.522	7.33
373.885	7.25
374.247	7.18
374.61	7.11
374.973	7.03
375.335	6.96
375.698	6.89
376.06	6.83
376.423	6.76
376.785	6.7
377.147	6.64
377.51	6.58
377.872	6.52
378.234	6.46
378.596	6.42
378.958	6.37
379.321	6.31
379.683	6.25
380.045	6.19
380.407	6.15
380.769	6.09
381.13	6.04
381.492	6
381.854	5.96
382.216	5.91
382.578	5.86
382.939	5.82
383.301	5.77
383.663	5.73
384.024	5.69
384.386	5.64
384.747	5.59
385.109	5.54
385.47	5.5
385.832	5.46
386.193	5.42
386.554	5.38
386.916	5.35
387.277	5.31
387.638	5.28
387.999	5.25
388.36	5.22
388.721	5.19
389.082	5.15
389.443	5.12
389.804	5.1
390.165	5.08
390.526	5.05
390.887	5.02
391.248	4.98
391.609	4.96
391.969	4.93
392.33	4.9
392.691	4.88
393.051	4.85
393.412	4.81
393.772	4.78
394.133	4.76
394.493	4.72
394.854	4.71
395.214	4.67
395.574	4.64
395.935	4.61
396.295	4.57
396.655	4.54
397.015	4.51
397.376	4.48
397.736	4.45
398.096	4.42
398.456	4.4
398.816	4.39
399.176	4.35
399.535	4.34
399.895	4.31
400.255	4.29
400.615	4.27
400.975	4.25
401.334	4.22
401.694	4.2
402.054	4.18
402.413	4.15
402.773	4.13
403.132	4.12
403.492	4.1
403.851	4.09
404.211	4.07
404.57	4.07
404.929	4.05
405.288	4.04
405.648	4.03
406.007	4.02
406.366	4.01
406.725	4.01
407.084	3.99
407.443	3.98
407.802	3.96
408.161	3.95
408.52	3.93
408.879	3.92
409.238	3.91
409.596	3.9
409.955	3.91
410.314	3.9
410.673	3.89
411.031	3.88
411.39	3.88
411.748	3.88
412.107	3.88
412.465	3.88
412.824	3.89
413.182	3.89
413.54	3.9
413.899	3.91
414.257	3.92
414.615	3.95
414.974	3.96
415.332	3.99
415.69	4.02
416.048	4.03
416.406	4.06
416.764	4.08
417.122	4.1
417.48	4.12
417.838	4.14
418.195	4.16
418.553	4.16
418.911	4.17
419.269	4.16
419.626	4.15
419.984	4.14
420.342	4.12
420.699	4.1
421.057	4.07
421.414	4.05
421.772	4.04
422.129	4.02
422.486	4.01
422.844	4.01
423.201	4
423.558	4
423.915	3.98
424.273	3.98
424.63	3.97
424.987	3.97
425.344	3.96
425.701	3.96
426.058	3.95
426.415	3.94
426.772	3.93
427.128	3.92
427.485	3.9
427.842	3.89
428.199	3.87
428.555	3.86
428.912	3.83
429.269	3.81
429.625	3.79
429.982	3.76
430.338	3.73
430.695	3.71
431.051	3.68
431.407	3.66
431.764	3.64
432.12	3.62
432.476	3.61
432.832	3.6
433.189	3.6
433.545	3.61
433.901	3.62
434.257	3.64
434.613	3.66
434.969	3.68
435.325	3.7
435.681	3.73
436.036	3.75
436.392	3.77
436.748	3.77
437.104	3.78
437.459	3.79
437.815	3.8
438.171	3.82
438.526	3.84
438.882	3.87
439.237	3.89
439.593	3.92
439.948	3.95
440.304	3.98
440.659	4
441.014	4.02
441.369	4.04
441.725	4.06
442.08	4.07
442.435	4.08
442.79	4.09
443.145	4.08
443.5	4.08
443.855	4.08
444.21	4.08
444.565	4.07
444.92	4.07
445.275	4.06
445.629	4.05
445.984	4.04
446.339	4.03
446.693	4.02
447.048	4
447.403	3.99
447.757	3.96
448.112	3.94
448.466	3.92
448.82	3.9
449.175	3.88
449.529	3.86
449.883	3.84
450.238	3.82
450.592	3.81
450.946	3.8
451.3	3.8
451.654	3.81
452.008	3.81
452.362	3.81
452.716	3.81
453.07	3.81
453.424	3.8
453.778	3.8
454.132	3.78
454.486	3.77
454.839	3.75
455.193	3.73
455.547	3.72
455.9	3.69
456.254	3.67
456.607	3.65
456.961	3.63
457.314	3.61
457.668	3.6
458.021	3.6
458.375	3.6
458.728	3.6
459.081	3.6
459.434	3.61
459.787	3.61
460.141	3.62
460.494	3.63
460.847	3.64
461.2	3.64
461.553	3.66
461.906	3.66
462.259	3.67
462.611	3.68
462.964	3.68
463.317	3.69
463.67	3.7
464.022	3.71
464.375	3.71
464.728	3.72
465.08	3.72
465.433	3.73
465.785	3.73
466.138	3.72
466.49	3.71
466.843	3.7
467.195	3.69
467.547	3.68
467.899	3.66
468.252	3.64
468.604	3.62
468.956	3.61
469.308	3.6
469.66	3.6
470.012	3.6
470.364	3.6
470.716	3.61
471.068	3.63
471.42	3.65
471.772	3.67
472.123	3.68
472.475	3.7
472.827	3.71
473.178	3.72
473.53	3.73
473.882	3.75
474.233	3.77
474.585	3.8
474.936	3.85
475.288	3.93
475.639	4.03
475.99	4.15
476.342	4.28
476.693	4.42
477.044	4.56
477.395	4.71
477.746	4.86
478.097	5.01
478.448	5.16
478.8	5.31
479.15	5.45
479.501	5.57
479.852	5.68
480.203	5.79
480.554	5.89
480.905	5.99
481.255	6.09
481.606	6.17
481.957	6.25
482.307	6.33
482.658	6.41
483.009	6.48
483.359	6.55
483.709	6.62
484.06	6.69
484.41	6.76
484.761	6.82
485.111	6.88
485.461	6.94
485.811	7
486.162	7.05
486.512	7.09
486.862	7.12
487.212	7.15
487.562	7.17
487.912	7.18
488.262	7.18
488.612	7.18
488.961	7.17
489.311	7.14
489.661	7.08
490.011	7.01
490.36	6.92
490.71	6.81
491.06	6.7
491.409	6.58
491.759	6.46
492.108	6.33
492.458	6.21
492.807	6.07
493.157	5.93
493.506	5.8
493.855	5.68
494.204	5.57
494.554	5.47
494.903	5.37
495.252	5.28
495.601	5.2
495.95	5.12
496.299	5.04
496.648	4.97
496.997	4.91
497.346	4.86
497.695	4.81
498.043	4.77
498.392	4.72
498.741	4.69
499.09	4.65
499.438	4.62
499.787	4.6
500.135	4.59
500.484	4.58
500.832	4.59
501.181	4.61
501.529	4.64
501.878	4.69
502.226	4.75
502.574	4.81
502.923	4.88
503.271	4.96
503.619	5.04
503.967	5.12
504.315	5.21
504.663	5.3
505.011	5.39
505.359	5.49
505.707	5.59
506.055	5.7
506.403	5.81
506.751	5.93
507.098	6.05
507.446	6.17
507.794	6.31
508.141	6.45
508.489	6.6
508.837	6.77
509.184	6.94
509.531	7.11
509.879	7.29
510.226	7.5
510.574	7.72
510.921	7.94
511.268	8.17
511.616	8.41
511.963	8.67
512.31	8.93
512.657	9.19
513.004	9.45
513.351	9.7
513.698	9.95
514.045	10.19
514.392	10.43
514.739	10.66
515.086	10.88
515.432	11.11
515.779	11.34
516.126	11.57
516.473	11.82
516.819	12.1
517.166	12.4
517.512	12.72
517.859	13.06
518.205	13.43
518.552	13.82
518.898	14.25
519.245	14.72
519.591	15.29
519.937	15.93
520.283	16.67
520.629	17.47
520.976	18.3
521.322	19.17
521.668	20.06
522.014	20.95
522.36	21.85
522.706	22.73
523.052	23.6
523.398	24.42
523.743	25.19
524.089	25.9
524.435	26.57
524.781	27.23
525.126	27.89
525.472	28.53
525.817	29.17
526.163	29.79
526.509	30.41
526.854	31.02
527.199	31.63
527.545	32.23
527.89	32.86
528.235	33.46
528.581	34.04
528.926	34.59
529.271	35.12
529.616	35.62
529.961	36.11
530.306	36.57
530.651	37.01
530.996	37.41
531.341	37.78
531.686	38.12
532.031	38.45
532.376	38.81
532.721	39.19
533.065	39.61
533.41	40.04
533.755	40.43
534.099	40.76
534.444	41.06
534.788	41.33
535.133	41.58
535.477	41.79
535.822	41.97
536.166	42.09
536.51	42.15
536.855	42.14
537.199	42.08
537.543	42.03
537.887	42
538.231	42.02
538.576	42.04
538.92	42.03
539.264	42.02
539.608	41.98
539.951	41.91
540.295	41.82
540.639	41.71
540.983	41.58
541.327	41.44
541.671	41.27
542.014	41.13
542.358	41
542.701	40.97
543.045	41.01
543.389	41.09
543.732	41.2
544.075	41.32
544.419	41.47
544.762	41.61
545.105	41.78
545.449	41.95
545.792	42.15
546.135	42.33
546.478	42.47
546.821	42.53
547.165	42.52
547.508	42.45
547.851	42.32
548.194	42.14
548.536	41.9
548.879	41.63
549.222	41.32
549.565	41.01
549.908	40.7
550.25	40.42
550.593	40.21
550.936	40.07
551.278	40.01
551.621	39.99
551.963	39.99
552.306	40.02
552.648	40.08
552.991	40.18
553.333	40.3
553.675	40.45
554.017	40.64
554.36	40.88
554.702	41.13
555.044	41.43
555.386	41.78
555.728	42.18
556.07	42.5
556.412	42.85
556.754	43.11
557.096	43.31
557.438	43.51
557.78	43.71
558.121	43.9
558.463	44.1
558.805	44.28
559.147	44.48
559.488	44.67
559.83	44.86
560.171	45.05
560.513	45.23
560.854	45.41
561.196	45.59
561.537	45.76
561.878	45.93
562.22	46.1
562.561	46.25
562.902	46.42
563.243	46.58
563.584	46.73
563.925	46.89
564.266	47.06
564.607	47.23
564.948	47.39
565.289	47.54
565.63	47.7
565.971	47.85
566.312	48.01
566.653	48.16
566.993	48.29
567.334	48.43
567.675	48.57
568.015	48.7
568.356	48.81
568.696	48.93
569.037	49.04
569.377	49.16
569.718	49.27
570.058	49.38
570.398	49.49
570.739	49.58
571.079	49.68
571.419	49.77
571.759	49.85
572.099	49.94
572.439	50.01
572.779	50.1
573.119	50.17
573.459	50.25
573.799	50.32
574.139	50.4
574.479	50.48
574.819	50.56
575.158	50.63
575.498	50.7
575.838	50.77
576.177	50.83
576.517	50.9
576.856	50.96
577.196	51.03
577.535	51.1
577.875	51.17
578.214	51.23
578.553	51.29
578.893	51.35
579.232	51.4
579.571	51.45
579.91	51.51
580.25	51.57
580.589	51.62
580.928	51.68
581.267	51.74
581.606	51.81
581.945	51.87
582.283	51.94
582.622	52.02
582.961	52.09
583.3	52.15
583.639	52.22
583.977	52.28
584.316	52.35
584.654	52.43
584.993	52.5
585.332	52.57
585.67	52.65
586.008	52.73
586.347	52.81
586.685	52.89
587.024	52.96
587.362	53.02
587.7	53.1
588.038	53.18
588.376	53.27
588.715	53.35
589.053	53.43
589.391	53.51
589.729	53.59
590.067	53.66
590.404	53.75
590.742	53.84
591.08	53.92
591.418	53.99
591.756	54.06
592.093	54.13
592.431	54.18
592.769	54.24
593.106	54.3
593.444	54.36
593.781	54.4
594.119	54.45
594.456	54.51
594.793	54.56
595.131	54.62
595.468	54.67
595.805	54.72
596.143	54.78
596.48	54.84
596.817	54.9
597.154	54.98
597.491	55.05
597.828	55.13
598.165	55.21
598.502	55.27
598.839	55.34
599.176	55.4
599.512	55.45
599.849	55.5
600.186	55.55
600.523	55.59
600.859	55.65
601.196	55.7
601.532	55.74
601.869	55.79
602.205	55.83
602.542	55.87
602.878	55.91
603.215	55.94
603.551	55.99
603.887	56.02
604.223	56.05
604.56	56.09
604.896	56.13
605.232	56.16
605.568	56.2
605.904	56.23
606.24	56.27
606.576	56.29
606.912	56.33
607.248	56.36
607.583	56.39
607.919	56.41
608.255	56.42
608.591	56.45
608.926	56.46
609.262	56.49
609.597	56.53
609.933	56.55
610.268	56.57
610.604	56.59
610.939	56.59
611.275	56.6
611.61	56.6
611.945	56.6
612.281	56.6
612.616	56.6
612.951	56.6
613.286	56.61
613.621	56.62
613.956	56.64
614.291	56.65
614.626	56.65
614.961	56.66
615.296	56.66
615.631	56.67
615.966	56.67
616.3	56.68
616.635	56.7
616.97	56.72
617.304	56.73
617.639	56.76
617.973	56.77
618.308	56.79
618.642	56.8
618.977	56.82
619.311	56.82
619.646	56.85
619.98	56.87
620.314	56.91
620.648	56.94
620.983	56.97
621.317	57.01
621.651	57.04
621.985	57.07
622.319	57.1
622.653	57.13
622.987	57.14
623.321	57.16
623.655	57.18
623.988	57.21
624.322	57.23
624.656	57.26
624.99	57.29
625.323	57.32
625.657	57.34
625.99	57.37
626.324	57.39
626.657	57.4
626.991	57.44
627.324	57.47
627.658	57.49
627.991	57.51
628.324	57.53
628.657	57.55
628.991	57.57
629.324	57.58
629.657	57.62
629.99	57.63
630.323	57.65
630.656	57.68
630.989	57.68
631.322	57.7
631.655	57.72
631.987	57.73
632.32	57.74
632.653	57.74
632.986	57.76
633.318	57.76
633.651	57.78
633.984	57.79
634.316	57.81
634.649	57.81
634.981	57.81
635.313	57.83
635.646	57.85
635.978	57.86
636.31	57.86
636.643	57.86
636.975	57.88
637.307	57.9
637.639	57.91
637.971	57.92
638.303	57.93
638.635	57.92
638.967	57.94
639.299	57.93
639.631	57.94
639.963	57.96
640.295	57.98
640.626	57.98
640.958	57.98
641.29	57.98
641.621	58.01
641.953	58.04
642.285	58.07
642.616	58.1
642.948	58.13
643.279	58.13
643.61	58.15
643.942	58.17
644.273	58.18
644.604	58.21
644.936	58.21
645.267	58.22
645.598	58.24
645.929	58.26
646.26	58.29
646.591	58.31
646.922	58.32
647.253	58.32
647.584	58.35
647.915	58.38
648.245	58.42
648.576	58.44
648.907	58.46
649.238	58.46
649.568	58.47
649.899	58.48
650.229	58.51
650.56	58.53
650.89	58.54
651.221	58.58
651.551	58.62
651.882	58.64
652.212	58.67
652.542	58.69
652.872	58.71
653.203	58.73
653.533	58.77
653.863	58.79
654.193	58.81
654.523	58.83
654.853	58.85
655.183	58.86
655.513	58.87
655.843	58.88
656.172	58.9
656.502	58.91
656.832	58.92
657.162	58.92
657.491	58.93
657.821	58.93
658.15	58.95
658.48	58.96
658.809	58.97
659.139	58.98
659.468	58.98
659.798	58.99
660.127	59.02
660.456	59.04
660.785	59.07
661.115	59.07
661.444	59.08
661.773	59.08
662.102	59.08
662.431	59.09
662.76	59.12
663.089	59.13
663.418	59.15
663.747	59.17
664.076	59.19
664.404	59.19
664.733	59.19
665.062	59.2
665.39	59.21
665.719	59.21
666.048	59.23
666.376	59.25
666.705	59.26
667.033	59.23
667.362	59.22
667.69	59.23
668.018	59.25
668.347	59.24
668.675	59.25
669.003	59.26
669.331	59.26
669.659	59.28
669.987	59.28
670.315	59.29
