Data from UWBM88853_Reflection_00013.txt Node
Date: Sun May 02 13:42:25 EDT 2021
User: vgr7
Spectrometer: USB2G7710
Scans to average: 10
Trigger mode: 4
Integration Time (sec): 1.000000E-1
Electric dark correction enabled: true
Boxcar width: 20
XAxis mode: Wavelengths
Number of Pixels in Spectrum: 2048
>>>>>Begin Spectral Data<<<<<
177.721	224.02
178.105	296.97
178.488	308.99
178.871	475.44
179.254	260.74
179.636	127.97
180.019	93.06
180.402	71.26
180.785	66.25
181.168	59.81
181.55	47.63
181.933	53.8
182.316	48.75
182.698	49.84
183.081	48.95
183.463	48.87
183.846	45.78
184.228	45.91
184.611	48.81
184.993	48.81
185.376	45.71
185.758	46.69
186.14	47.23
186.522	45.49
186.904	43.01
187.287	41.09
187.669	42.73
188.051	39.85
188.433	38.33
188.815	36.65
189.197	35.11
189.579	34.4
189.961	36.2
190.342	36.58
190.724	36.04
191.106	37.94
191.488	36.86
191.869	36.53
192.251	37.5
192.633	34.74
193.014	31.74
193.396	28.71
193.777	30.08
194.159	29.58
194.54	29.03
194.922	29.25
195.303	30.17
195.684	29.31
196.065	29.8
196.447	28.86
196.828	27.89
197.209	27.56
197.59	25.78
197.971	26.35
198.352	26.34
198.733	25.85
199.114	24.73
199.495	23.3
199.876	23.35
200.257	22.48
200.638	20.6
201.018	21.73
201.399	21.43
201.78	22.12
202.16	21.25
202.541	22.51
202.922	22.64
203.302	23.03
203.683	23.22
204.063	23.91
204.444	24.5
204.824	24.94
205.204	23.52
205.585	23.53
205.965	23.04
206.345	22.81
206.725	22.82
207.106	24.98
207.486	23.83
207.866	23.98
208.246	23.96
208.626	23.18
209.006	23.55
209.386	21.88
209.766	21.54
210.145	21.54
210.525	21.68
210.905	21.24
211.285	20.18
211.664	19.93
212.044	19.49
212.424	20.58
212.803	21.15
213.183	21.02
213.562	21.92
213.942	20.92
214.321	21.33
214.701	21.95
215.08	23.17
215.459	22.95
215.838	22.07
216.218	23.04
216.597	21.48
216.976	22.16
217.355	21.89
217.734	22.15
218.113	21.26
218.492	20.59
218.871	19.17
219.25	19.2
219.629	18.2
220.008	17.26
220.387	14.8
220.766	15.85
221.144	14.61
221.523	13.64
221.902	12.78
222.28	12.01
222.659	10.67
223.037	10.84
223.416	10.53
223.794	10.6
224.173	10.93
224.551	10.83
224.929	11.46
225.308	11.15
225.686	10.38
226.064	10.21
226.442	9.88
226.821	10.58
227.199	11.01
227.577	11.18
227.955	11.18
228.333	11.17
228.711	11.03
229.089	10.05
229.467	9.6
229.845	9.37
230.222	9.15
230.6	8.99
230.978	8.63
231.356	8.7
231.733	8.59
232.111	8.54
232.488	7.97
232.866	7.53
233.243	7.36
233.621	7.21
233.998	7.07
234.376	6.74
234.753	6.52
235.13	6.56
235.508	6.68
235.885	6.73
236.262	6.55
236.639	6.36
237.016	6.31
237.393	6.36
237.77	6.26
238.147	6.22
238.524	6.08
238.901	6.02
239.278	5.98
239.655	5.95
240.032	5.89
240.409	5.83
240.785	5.8
241.162	5.8
241.539	5.75
241.915	5.79
242.292	5.77
242.668	5.75
243.045	5.74
243.421	5.69
243.798	5.68
244.174	5.69
244.551	5.68
244.927	5.7
245.303	5.69
245.679	5.7
246.056	5.67
246.432	5.68
246.808	5.68
247.184	5.68
247.56	5.7
247.936	5.7
248.312	5.71
248.688	5.68
249.064	5.69
249.44	5.71
249.815	5.72
250.191	5.7
250.567	5.69
250.943	5.64
251.318	5.61
251.694	5.6
252.069	5.54
252.445	5.52
252.82	5.47
253.196	5.45
253.571	5.4
253.947	5.38
254.322	5.35
254.697	5.33
255.073	5.29
255.448	5.3
255.823	5.26
256.198	5.24
256.573	5.21
256.948	5.21
257.323	5.18
257.698	5.13
258.073	5.09
258.448	5.07
258.823	5.06
259.198	5.03
259.573	4.99
259.948	4.99
260.322	4.97
260.697	4.94
261.072	4.9
261.446	4.88
261.821	4.85
262.195	4.82
262.57	4.79
262.944	4.76
263.319	4.78
263.693	4.76
264.067	4.76
264.442	4.74
264.816	4.72
265.19	4.71
265.564	4.7
265.938	4.69
266.313	4.71
266.687	4.69
267.061	4.68
267.435	4.7
267.809	4.68
268.183	4.69
268.556	4.69
268.93	4.69
269.304	4.68
269.678	4.69
270.051	4.66
270.425	4.63
270.799	4.6
271.172	4.63
271.546	4.64
271.919	4.63
272.293	4.63
272.666	4.61
273.04	4.65
273.413	4.67
273.787	4.69
274.16	4.68
274.533	4.7
274.906	4.71
275.279	4.71
275.653	4.71
276.026	4.72
276.399	4.75
276.772	4.76
277.145	4.76
277.518	4.79
277.891	4.78
278.263	4.78
278.636	4.78
279.009	4.78
279.382	4.78
279.755	4.78
280.127	4.8
280.5	4.82
280.872	4.84
281.245	4.84
281.617	4.83
281.99	4.84
282.362	4.85
282.735	4.85
283.107	4.89
283.479	4.88
283.852	4.91
284.224	4.94
284.596	4.95
284.968	4.97
285.34	5.01
285.713	5.05
286.085	5.09
286.457	5.12
286.829	5.14
287.201	5.18
287.572	5.2
287.944	5.24
288.316	5.26
288.688	5.29
289.06	5.33
289.431	5.37
289.803	5.41
290.175	5.47
290.546	5.52
290.918	5.58
291.289	5.64
291.661	5.69
292.032	5.74
292.403	5.8
292.775	5.85
293.146	5.93
293.517	6
293.889	6.05
294.26	6.12
294.631	6.19
295.002	6.28
295.373	6.34
295.744	6.42
296.115	6.49
296.486	6.59
296.857	6.67
297.228	6.74
297.599	6.84
297.97	6.92
298.34	6.99
298.711	7.09
299.082	7.16
299.452	7.26
299.823	7.34
300.194	7.43
300.564	7.52
300.935	7.62
301.305	7.69
301.676	7.79
302.046	7.88
302.416	7.97
302.787	8.06
303.157	8.17
303.527	8.29
303.897	8.4
304.267	8.5
304.637	8.62
305.008	8.74
305.378	8.85
305.748	8.98
306.117	9.09
306.487	9.22
306.857	9.34
307.227	9.48
307.597	9.61
307.967	9.72
308.336	9.84
308.706	9.95
309.076	10.07
309.445	10.19
309.815	10.29
310.184	10.38
310.554	10.48
310.923	10.58
311.293	10.67
311.662	10.76
312.031	10.85
312.401	10.97
312.77	11.06
313.139	11.16
313.508	11.26
313.877	11.36
314.246	11.46
314.616	11.53
314.985	11.63
315.353	11.73
315.722	11.81
316.091	11.9
316.46	11.99
316.829	12.09
317.198	12.21
317.567	12.32
317.935	12.43
318.304	12.54
318.672	12.63
319.041	12.74
319.41	12.84
319.778	12.96
320.147	13.06
320.515	13.14
320.883	13.21
321.252	13.3
321.62	13.39
321.988	13.45
322.357	13.52
322.725	13.58
323.093	13.64
323.461	13.7
323.829	13.76
324.197	13.82
324.565	13.85
324.933	13.92
325.301	13.97
325.669	14.06
326.037	14.11
326.405	14.18
326.772	14.22
327.14	14.27
327.508	14.31
327.875	14.36
328.243	14.4
328.61	14.44
328.978	14.48
329.346	14.5
329.713	14.55
330.08	14.58
330.448	14.61
330.815	14.65
331.182	14.68
331.55	14.73
331.917	14.77
332.284	14.78
332.651	14.8
333.018	14.85
333.385	14.88
333.752	14.93
334.119	14.97
334.486	15.01
334.853	15.03
335.22	15.08
335.587	15.13
335.954	15.17
336.32	15.19
336.687	15.21
337.054	15.26
337.42	15.3
337.787	15.33
338.153	15.37
338.52	15.4
338.886	15.42
339.253	15.44
339.619	15.48
339.986	15.51
340.352	15.54
340.718	15.54
341.084	15.57
341.451	15.59
341.817	15.61
342.183	15.64
342.549	15.66
342.915	15.69
343.281	15.71
343.647	15.73
344.013	15.74
344.379	15.76
344.745	15.78
345.11	15.81
345.476	15.83
345.842	15.85
346.208	15.87
346.573	15.87
346.939	15.87
347.304	15.89
347.67	15.91
348.035	15.9
348.401	15.92
348.766	15.92
349.132	15.9
349.497	15.9
349.862	15.89
350.228	15.89
350.593	15.87
350.958	15.87
351.323	15.88
351.688	15.88
352.053	15.86
352.418	15.84
352.783	15.81
353.148	15.78
353.513	15.76
353.878	15.72
354.243	15.71
354.608	15.69
354.972	15.65
355.337	15.62
355.702	15.59
356.066	15.55
356.431	15.51
356.795	15.47
357.16	15.42
357.524	15.39
357.889	15.35
358.253	15.32
358.618	15.27
358.982	15.24
359.346	15.2
359.71	15.15
360.075	15.11
360.439	15.06
360.803	15.01
361.167	14.96
361.531	14.91
361.895	14.86
362.259	14.81
362.623	14.75
362.987	14.7
363.351	14.63
363.714	14.58
364.078	14.52
364.442	14.46
364.806	14.4
365.169	14.34
365.533	14.27
365.896	14.19
366.26	14.11
366.623	14.04
366.987	13.96
367.35	13.88
367.714	13.8
368.077	13.71
368.44	13.63
368.803	13.53
369.167	13.43
369.53	13.33
369.893	13.23
370.256	13.12
370.619	13.01
370.982	12.91
371.345	12.81
371.708	12.7
372.071	12.6
372.434	12.49
372.797	12.39
373.159	12.27
373.522	12.17
373.885	12.07
374.247	11.96
374.61	11.86
374.973	11.75
375.335	11.64
375.698	11.54
376.06	11.43
376.423	11.32
376.785	11.22
377.147	11.11
377.51	11.02
377.872	10.92
378.234	10.82
378.596	10.72
378.958	10.62
379.321	10.52
379.683	10.42
380.045	10.32
380.407	10.23
380.769	10.14
381.13	10.05
381.492	9.96
381.854	9.87
382.216	9.78
382.578	9.71
382.939	9.63
383.301	9.54
383.663	9.47
384.024	9.38
384.386	9.3
384.747	9.22
385.109	9.14
385.47	9.06
385.832	8.98
386.193	8.9
386.554	8.82
386.916	8.74
387.277	8.66
387.638	8.59
387.999	8.52
388.36	8.45
388.721	8.39
389.082	8.32
389.443	8.25
389.804	8.19
390.165	8.12
390.526	8.06
390.887	7.99
391.248	7.94
391.609	7.88
391.969	7.81
392.33	7.75
392.691	7.68
393.051	7.62
393.412	7.55
393.772	7.49
394.133	7.42
394.493	7.36
394.854	7.29
395.214	7.22
395.574	7.16
395.935	7.1
396.295	7.03
396.655	6.97
397.015	6.91
397.376	6.84
397.736	6.78
398.096	6.72
398.456	6.66
398.816	6.61
399.176	6.55
399.535	6.49
399.895	6.44
400.255	6.38
400.615	6.33
400.975	6.27
401.334	6.22
401.694	6.17
402.054	6.12
402.413	6.08
402.773	6.03
403.132	5.99
403.492	5.94
403.851	5.9
404.211	5.87
404.57	5.83
404.929	5.8
405.288	5.76
405.648	5.73
406.007	5.71
406.366	5.68
406.725	5.65
407.084	5.62
407.443	5.59
407.802	5.57
408.161	5.54
408.52	5.51
408.879	5.49
409.238	5.47
409.596	5.44
409.955	5.42
410.314	5.39
410.673	5.37
411.031	5.35
411.39	5.33
411.748	5.3
412.107	5.28
412.465	5.27
412.824	5.26
413.182	5.25
413.54	5.25
413.899	5.26
414.257	5.27
414.615	5.29
414.974	5.29
415.332	5.31
415.69	5.33
416.048	5.34
416.406	5.36
416.764	5.37
417.122	5.38
417.48	5.39
417.838	5.4
418.195	5.4
418.553	5.4
418.911	5.4
419.269	5.38
419.626	5.35
419.984	5.33
420.342	5.29
420.699	5.25
421.057	5.21
421.414	5.17
421.772	5.14
422.129	5.11
422.486	5.09
422.844	5.08
423.201	5.06
423.558	5.04
423.915	5.02
424.273	5.01
424.63	4.99
424.987	4.98
425.344	4.96
425.701	4.94
426.058	4.93
426.415	4.91
426.772	4.9
427.128	4.88
427.485	4.85
427.842	4.83
428.199	4.8
428.555	4.76
428.912	4.73
429.269	4.68
429.625	4.65
429.982	4.61
430.338	4.57
430.695	4.53
431.051	4.49
431.407	4.46
431.764	4.44
432.12	4.41
432.476	4.4
432.832	4.38
433.189	4.38
433.545	4.38
433.901	4.39
434.257	4.41
434.613	4.43
434.969	4.46
435.325	4.49
435.681	4.53
436.036	4.55
436.392	4.57
436.748	4.58
437.104	4.59
437.459	4.61
437.815	4.62
438.171	4.64
438.526	4.67
438.882	4.7
439.237	4.73
439.593	4.76
439.948	4.79
440.304	4.82
440.659	4.84
441.014	4.86
441.369	4.88
441.725	4.89
442.08	4.91
442.435	4.91
442.79	4.91
443.145	4.91
443.5	4.91
443.855	4.9
444.21	4.89
444.565	4.88
444.92	4.86
445.275	4.85
445.629	4.83
445.984	4.81
446.339	4.79
446.693	4.77
447.048	4.74
447.403	4.72
447.757	4.68
448.112	4.65
448.466	4.61
448.82	4.58
449.175	4.55
449.529	4.52
449.883	4.49
450.238	4.45
450.592	4.44
450.946	4.42
451.3	4.41
451.654	4.41
452.008	4.41
452.362	4.41
452.716	4.4
453.07	4.39
453.424	4.38
453.778	4.36
454.132	4.35
454.486	4.34
454.839	4.31
455.193	4.29
455.547	4.28
455.9	4.25
456.254	4.23
456.607	4.2
456.961	4.17
457.314	4.15
457.668	4.15
458.021	4.15
458.375	4.15
458.728	4.15
459.081	4.16
459.434	4.18
459.787	4.19
460.141	4.21
460.494	4.23
460.847	4.25
461.2	4.26
461.553	4.28
461.906	4.29
462.259	4.31
462.611	4.32
462.964	4.34
463.317	4.36
463.67	4.38
464.022	4.4
464.375	4.42
464.728	4.44
465.08	4.46
465.433	4.48
465.785	4.49
466.138	4.49
466.49	4.49
466.843	4.49
467.195	4.49
467.547	4.49
467.899	4.48
468.252	4.47
468.604	4.46
468.956	4.46
469.308	4.46
469.66	4.47
470.012	4.48
470.364	4.5
470.716	4.52
471.068	4.54
471.42	4.58
471.772	4.61
472.123	4.62
472.475	4.64
472.827	4.66
473.178	4.67
473.53	4.69
473.882	4.71
474.233	4.73
474.585	4.77
474.936	4.83
475.288	4.93
475.639	5.04
475.99	5.18
476.342	5.34
476.693	5.5
477.044	5.66
477.395	5.84
477.746	6.02
478.097	6.19
478.448	6.37
478.8	6.54
479.15	6.69
479.501	6.83
479.852	6.97
480.203	7.09
480.554	7.21
480.905	7.32
481.255	7.42
481.606	7.52
481.957	7.62
482.307	7.71
482.658	7.8
483.009	7.88
483.359	7.96
483.709	8.04
484.06	8.12
484.41	8.19
484.761	8.26
485.111	8.34
485.461	8.4
485.811	8.47
486.162	8.53
486.512	8.58
486.862	8.62
487.212	8.66
487.562	8.68
487.912	8.69
488.262	8.71
488.612	8.71
488.961	8.7
489.311	8.66
489.661	8.6
490.011	8.53
490.36	8.43
490.71	8.32
491.06	8.2
491.409	8.08
491.759	7.95
492.108	7.81
492.458	7.68
492.807	7.53
493.157	7.39
493.506	7.26
493.855	7.14
494.204	7.03
494.554	6.93
494.903	6.85
495.252	6.77
495.601	6.7
495.95	6.63
496.299	6.58
496.648	6.54
496.997	6.5
497.346	6.48
497.695	6.46
498.043	6.44
498.392	6.44
498.741	6.44
499.09	6.45
499.438	6.47
499.787	6.5
500.135	6.54
500.484	6.59
500.832	6.66
501.181	6.75
501.529	6.86
501.878	6.99
502.226	7.13
502.574	7.28
502.923	7.44
503.271	7.62
503.619	7.79
503.967	7.98
504.315	8.17
504.663	8.36
505.011	8.56
505.359	8.77
505.707	8.98
506.055	9.19
506.403	9.41
506.751	9.65
507.098	9.89
507.446	10.13
507.794	10.38
508.141	10.65
508.489	10.93
508.837	11.23
509.184	11.52
509.531	11.83
509.879	12.15
510.226	12.5
510.574	12.86
510.921	13.23
511.268	13.61
511.616	14
511.963	14.41
512.31	14.82
512.657	15.23
513.004	15.63
513.351	16.03
513.698	16.41
514.045	16.76
514.392	17.1
514.739	17.43
515.086	17.75
515.432	18.07
515.779	18.39
516.126	18.72
516.473	19.09
516.819	19.47
517.166	19.88
517.512	20.31
517.859	20.78
518.205	21.27
518.552	21.79
518.898	22.35
519.245	22.98
519.591	23.72
519.937	24.58
520.283	25.55
520.629	26.6
520.976	27.69
521.322	28.83
521.668	29.99
522.014	31.15
522.36	32.3
522.706	33.43
523.052	34.53
523.398	35.57
523.743	36.53
524.089	37.4
524.435	38.22
524.781	39.02
525.126	39.81
525.472	40.58
525.817	41.32
526.163	42.05
526.509	42.75
526.854	43.46
527.199	44.14
527.545	44.83
527.89	45.53
528.235	46.23
528.581	46.88
528.926	47.5
529.271	48.08
529.616	48.63
529.961	49.16
530.306	49.63
530.651	50.07
530.996	50.46
531.341	50.82
531.686	51.14
532.031	51.43
532.376	51.75
532.721	52.11
533.065	52.48
533.41	52.86
533.755	53.18
534.099	53.43
534.444	53.61
534.788	53.74
535.133	53.83
535.477	53.89
535.822	53.89
536.166	53.83
536.51	53.7
536.855	53.48
537.199	53.2
537.543	52.93
537.887	52.72
538.231	52.57
538.576	52.41
538.92	52.24
539.264	52.05
539.608	51.82
539.951	51.57
540.295	51.31
540.639	51.03
540.983	50.71
541.327	50.37
541.671	50.03
542.014	49.73
542.358	49.44
542.701	49.3
543.045	49.23
543.389	49.21
543.732	49.22
544.075	49.25
544.419	49.3
544.762	49.36
545.105	49.44
545.449	49.54
545.792	49.65
546.135	49.75
546.478	49.8
546.821	49.77
547.165	49.65
547.508	49.45
547.851	49.19
548.194	48.87
548.536	48.48
548.879	48.05
549.222	47.58
549.565	47.1
549.908	46.64
550.25	46.2
550.593	45.85
550.936	45.59
551.278	45.42
551.621	45.28
551.963	45.18
552.306	45.1
552.648	45.08
552.991	45.09
553.333	45.12
553.675	45.21
554.017	45.32
554.36	45.47
554.702	45.67
555.044	45.91
555.386	46.21
555.728	46.55
556.07	46.82
556.412	47.11
556.754	47.27
557.096	47.41
557.438	47.54
557.78	47.66
558.121	47.79
558.463	47.91
558.805	48.04
559.147	48.16
559.488	48.29
559.83	48.41
560.171	48.53
560.513	48.65
560.854	48.77
561.196	48.88
561.537	49
561.878	49.1
562.22	49.21
562.561	49.31
562.902	49.42
563.243	49.53
563.584	49.64
563.925	49.74
564.266	49.84
564.607	49.95
564.948	50.05
565.289	50.16
565.63	50.26
565.971	50.36
566.312	50.46
566.653	50.56
566.993	50.65
567.334	50.75
567.675	50.84
568.015	50.93
568.356	51.01
568.696	51.09
569.037	51.17
569.377	51.25
569.718	51.32
570.058	51.39
570.398	51.46
570.739	51.52
571.079	51.59
571.419	51.65
571.759	51.7
572.099	51.75
572.439	51.8
572.779	51.85
573.119	51.9
573.459	51.95
573.799	52
574.139	52.04
574.479	52.09
574.819	52.14
575.158	52.18
575.498	52.23
575.838	52.27
576.177	52.31
576.517	52.37
576.856	52.41
577.196	52.45
577.535	52.49
577.875	52.53
578.214	52.56
578.553	52.59
578.893	52.64
579.232	52.67
579.571	52.7
579.91	52.73
580.25	52.75
580.589	52.78
580.928	52.82
581.267	52.84
581.606	52.87
581.945	52.92
582.283	52.96
582.622	53
582.961	53.04
583.3	53.08
583.639	53.12
583.977	53.17
584.316	53.22
584.654	53.28
584.993	53.33
585.332	53.37
585.67	53.43
586.008	53.48
586.347	53.53
586.685	53.58
587.024	53.64
587.362	53.69
587.7	53.74
588.038	53.8
588.376	53.86
588.715	53.91
589.053	53.98
589.391	54.04
589.729	54.11
590.067	54.17
590.404	54.24
590.742	54.3
591.08	54.35
591.418	54.4
591.756	54.44
592.093	54.5
592.431	54.55
592.769	54.58
593.106	54.62
593.444	54.66
593.781	54.69
594.119	54.75
594.456	54.79
594.793	54.83
595.131	54.88
595.468	54.93
595.805	54.95
596.143	55
596.48	55.04
596.817	55.09
597.154	55.14
597.491	55.2
597.828	55.24
598.165	55.29
598.502	55.34
598.839	55.39
599.176	55.43
599.512	55.46
599.849	55.51
600.186	55.54
600.523	55.57
600.859	55.6
601.196	55.64
601.532	55.66
601.869	55.69
602.205	55.71
602.542	55.74
602.878	55.77
603.215	55.79
603.551	55.81
603.887	55.83
604.223	55.86
604.56	55.89
604.896	55.92
605.232	55.94
605.568	55.96
605.904	55.98
606.24	56.01
606.576	56.03
606.912	56.04
607.248	56.07
607.583	56.1
607.919	56.12
608.255	56.15
608.591	56.16
608.926	56.19
609.262	56.21
609.597	56.22
609.933	56.23
610.268	56.25
610.604	56.26
610.939	56.26
611.275	56.27
611.61	56.28
611.945	56.27
612.281	56.27
612.616	56.27
612.951	56.27
613.286	56.28
613.621	56.29
613.956	56.31
614.291	56.32
614.626	56.33
614.961	56.34
615.296	56.36
615.631	56.38
615.966	56.4
616.3	56.41
616.635	56.42
616.97	56.45
617.304	56.47
617.639	56.49
617.973	56.5
618.308	56.52
618.642	56.53
618.977	56.54
619.311	56.57
619.646	56.6
619.98	56.61
620.314	56.65
620.648	56.7
620.983	56.72
621.317	56.74
621.651	56.76
621.985	56.78
622.319	56.81
622.653	56.83
622.987	56.87
623.321	56.9
623.655	56.93
623.988	56.95
624.322	56.95
624.656	56.97
624.99	57
625.323	57.02
625.657	57.05
625.99	57.07
626.324	57.1
626.657	57.12
626.991	57.14
627.324	57.17
627.658	57.18
627.991	57.2
628.324	57.21
628.657	57.23
628.991	57.24
629.324	57.26
629.657	57.28
629.99	57.3
630.323	57.32
630.656	57.35
630.989	57.37
631.322	57.38
631.655	57.4
631.987	57.4
632.32	57.43
632.653	57.44
632.986	57.45
633.318	57.46
633.651	57.49
633.984	57.48
634.316	57.49
634.649	57.5
634.981	57.51
635.313	57.53
635.646	57.54
635.978	57.54
636.31	57.55
636.643	57.55
636.975	57.57
637.307	57.59
637.639	57.61
637.971	57.63
638.303	57.65
638.635	57.65
638.967	57.66
639.299	57.68
639.631	57.7
639.963	57.71
640.295	57.74
640.626	57.76
640.958	57.78
641.29	57.81
641.621	57.83
641.953	57.85
642.285	57.88
642.616	57.9
642.948	57.92
643.279	57.93
643.61	57.94
643.942	57.95
644.273	57.94
644.604	57.95
644.936	57.96
645.267	57.97
645.598	58
645.929	58
646.26	58.03
646.591	58.03
646.922	58.06
647.253	58.07
647.584	58.1
647.915	58.11
648.245	58.13
648.576	58.16
648.907	58.16
649.238	58.19
649.568	58.21
649.899	58.22
650.229	58.22
650.56	58.24
650.89	58.25
651.221	58.26
651.551	58.28
651.882	58.3
652.212	58.33
652.542	58.36
652.872	58.37
653.203	58.39
653.533	58.4
653.863	58.42
654.193	58.44
654.523	58.45
654.853	58.46
655.183	58.49
655.513	58.5
655.843	58.5
656.172	58.53
656.502	58.54
656.832	58.58
657.162	58.59
657.491	58.6
657.821	58.63
658.15	58.65
658.48	58.68
658.809	58.72
659.139	58.72
659.468	58.75
659.798	58.77
660.127	58.79
660.456	58.81
660.785	58.82
661.115	58.83
661.444	58.84
661.773	58.85
662.102	58.86
662.431	58.88
662.76	58.89
663.089	58.92
663.418	58.93
663.747	58.94
664.076	58.95
664.404	58.97
