Data from UWBM88853_Reflection_00006.txt Node
Date: Sun May 02 13:40:40 EDT 2021
User: vgr7
Spectrometer: USB2G7710
Scans to average: 10
Trigger mode: 4
Integration Time (sec): 1.000000E-1
Electric dark correction enabled: true
Boxcar width: 20
XAxis mode: Wavelengths
Number of Pixels in Spectrum: 2048
>>>>>Begin Spectral Data<<<<<
177.721	147.55
178.105	126.84
178.488	165.57
178.871	317.54
179.254	227.08
179.636	123.09
180.019	86.57
180.402	69.14
180.785	60.6
181.168	54.1
181.55	46.78
181.933	44.38
182.316	40.49
182.698	33.57
183.081	28.93
183.463	25.57
183.846	27.58
184.228	26.45
184.611	27.63
184.993	25.9
185.376	26.29
185.758	27.02
186.14	31.68
186.522	27.65
186.904	26.33
187.287	25.43
187.669	24.66
188.051	23.38
188.433	21.76
188.815	19.33
189.197	18.37
189.579	18.08
189.961	17.89
190.342	18.21
190.724	19.42
191.106	19.06
191.488	19.92
191.869	18.4
192.251	15.37
192.633	13.61
193.014	13.06
193.396	9.49
193.777	11.18
194.159	11.39
194.54	10.23
194.922	5.72
195.303	3.4
195.684	2.53
196.065	3.24
196.447	4.1
196.828	3.19
197.209	2.7
197.59	-0.25
197.971	-0.81
198.352	1.28
198.733	1.78
199.114	1.58
199.495	0.37
199.876	-1.06
200.257	-2.15
200.638	-2.79
201.018	-2.85
201.399	-2.46
201.78	-5.42
202.16	-5
202.541	-5.59
202.922	-6.99
203.302	-6.59
203.683	-5.77
204.063	-3.32
204.444	-4.05
204.824	-3.53
205.204	-5.15
205.585	-3.76
205.965	-4.38
206.345	-4.68
206.725	-4.79
207.106	-5.68
207.486	-6.17
207.866	-5.74
208.246	-6.4
208.626	-6.55
209.006	-6.28
209.386	-7.96
209.766	-8.69
210.145	-10.2
210.525	-8.67
210.905	-6.01
211.285	-7.6
211.664	-7.02
212.044	-8.48
212.424	-9.96
212.803	-10.79
213.183	-10.13
213.562	-9.37
213.942	-11.2
214.321	-11.8
214.701	-12.14
215.08	-12.06
215.459	-11.63
215.838	-12.23
216.218	-11.64
216.597	-12.45
216.976	-12.47
217.355	-11.44
217.734	-11.69
218.113	-11.45
218.492	-11.74
218.871	-11.26
219.25	-11.26
219.629	-11.89
220.008	-10.49
220.387	-12.04
220.766	-10.13
221.144	-10.3
221.523	-8.84
221.902	-7.41
222.28	-7.3
222.659	-6.38
223.037	-5.65
223.416	-4.51
223.794	-3.01
224.173	-2.94
224.551	-3.03
224.929	-1.46
225.308	-1.48
225.686	-1.18
226.064	-0.9
226.442	-1.24
226.821	-0.22
227.199	0.13
227.577	0.74
227.955	1.61
228.333	2.13
228.711	2.42
229.089	1.94
229.467	1.93
229.845	2
230.222	2.6
230.6	2.64
230.978	2.5
231.356	3.23
231.733	3.38
232.111	3.6
232.488	3.55
232.866	3.57
233.243	3.64
233.621	3.68
233.998	3.81
234.376	3.79
234.753	3.62
235.13	3.72
235.508	4.02
235.885	4.17
236.262	4.07
236.639	4.19
237.016	4.2
237.393	4.18
237.77	4.24
238.147	4.24
238.524	4.34
238.901	4.34
239.278	4.32
239.655	4.41
240.032	4.48
240.409	4.47
240.785	4.54
241.162	4.61
241.539	4.64
241.915	4.7
242.292	4.7
242.668	4.66
243.045	4.66
243.421	4.63
243.798	4.66
244.174	4.68
244.551	4.72
244.927	4.77
245.303	4.79
245.679	4.77
246.056	4.74
246.432	4.75
246.808	4.69
247.184	4.68
247.56	4.7
247.936	4.67
248.312	4.67
248.688	4.67
249.064	4.68
249.44	4.67
249.815	4.67
250.191	4.63
250.567	4.66
250.943	4.62
251.318	4.59
251.694	4.59
252.069	4.57
252.445	4.55
252.82	4.51
253.196	4.49
253.571	4.48
253.947	4.46
254.322	4.44
254.697	4.44
255.073	4.41
255.448	4.41
255.823	4.37
256.198	4.35
256.573	4.34
256.948	4.33
257.323	4.28
257.698	4.24
258.073	4.22
258.448	4.21
258.823	4.21
259.198	4.19
259.573	4.16
259.948	4.14
260.322	4.1
260.697	4.05
261.072	4.04
261.446	4.04
261.821	4.02
262.195	4.02
262.57	4.02
262.944	4
263.319	4.02
263.693	4.01
264.067	4.01
264.442	3.99
264.816	3.98
265.19	3.98
265.564	4
265.938	3.97
266.313	3.97
266.687	3.97
267.061	3.98
267.435	3.98
267.809	3.98
268.183	3.99
268.556	4
268.93	3.99
269.304	3.99
269.678	4
270.051	3.97
270.425	3.96
270.799	3.95
271.172	3.97
271.546	3.97
271.919	3.96
272.293	3.96
272.666	3.97
273.04	3.99
273.413	4.03
273.787	4.04
274.16	4.03
274.533	4.02
274.906	4.03
275.279	4.03
275.653	4.04
276.026	4.06
276.399	4.06
276.772	4.09
277.145	4.1
277.518	4.11
277.891	4.11
278.263	4.1
278.636	4.11
279.009	4.1
279.382	4.08
279.755	4.09
280.127	4.11
280.5	4.12
280.872	4.12
281.245	4.13
281.617	4.12
281.99	4.12
282.362	4.11
282.735	4.1
283.107	4.1
283.479	4.09
283.852	4.1
284.224	4.11
284.596	4.09
284.968	4.08
285.34	4.09
285.713	4.1
286.085	4.11
286.457	4.1
286.829	4.1
287.201	4.11
287.572	4.09
287.944	4.1
288.316	4.09
288.688	4.08
289.06	4.07
289.431	4.07
289.803	4.07
290.175	4.08
290.546	4.1
290.918	4.11
291.289	4.12
291.661	4.12
292.032	4.09
292.403	4.09
292.775	4.09
293.146	4.08
293.517	4.08
293.889	4.09
294.26	4.1
294.631	4.12
295.002	4.14
295.373	4.13
295.744	4.14
296.115	4.13
296.486	4.14
296.857	4.15
297.228	4.15
297.599	4.17
297.97	4.17
298.34	4.17
298.711	4.18
299.082	4.18
299.452	4.19
299.823	4.2
300.194	4.2
300.564	4.21
300.935	4.2
301.305	4.19
301.676	4.2
302.046	4.2
302.416	4.2
302.787	4.21
303.157	4.2
303.527	4.19
303.897	4.19
304.267	4.21
304.637	4.21
305.008	4.22
305.378	4.23
305.748	4.23
306.117	4.22
306.487	4.22
306.857	4.23
307.227	4.24
307.597	4.24
307.967	4.23
308.336	4.24
308.706	4.25
309.076	4.22
309.445	4.22
309.815	4.2
310.184	4.19
310.554	4.18
310.923	4.18
311.293	4.18
311.662	4.18
312.031	4.18
312.401	4.19
312.77	4.19
313.139	4.2
313.508	4.21
313.877	4.19
314.246	4.18
314.616	4.17
314.985	4.18
315.353	4.18
315.722	4.17
316.091	4.18
316.46	4.17
316.829	4.18
317.198	4.18
317.567	4.19
317.935	4.18
318.304	4.17
318.672	4.17
319.041	4.17
319.41	4.14
319.778	4.15
320.147	4.14
320.515	4.12
320.883	4.09
321.252	4.09
321.62	4.1
321.988	4.09
322.357	4.1
322.725	4.1
323.093	4.11
323.461	4.11
323.829	4.12
324.197	4.14
324.565	4.13
324.933	4.13
325.301	4.13
325.669	4.15
326.037	4.13
326.405	4.12
326.772	4.12
327.14	4.11
327.508	4.09
327.875	4.09
328.243	4.07
328.61	4.05
328.978	4.06
329.346	4.05
329.713	4.07
330.08	4.07
330.448	4.06
330.815	4.04
331.182	4.03
331.55	4.03
331.917	4.02
332.284	4.01
332.651	4
333.018	4.01
333.385	4.03
333.752	4.02
334.119	4.01
334.486	4.02
334.853	4.01
335.22	4.02
335.587	4.02
335.954	4.02
336.32	4
336.687	3.99
337.054	3.98
337.42	3.99
337.787	3.98
338.153	3.99
338.52	3.98
338.886	3.97
339.253	3.96
339.619	3.97
339.986	3.97
340.352	3.98
340.718	3.97
341.084	3.97
341.451	3.98
341.817	3.98
342.183	3.97
342.549	3.98
342.915	3.98
343.281	3.98
343.647	3.99
344.013	3.99
344.379	4
344.745	3.99
345.11	4
345.476	4.02
345.842	4.03
346.208	4.03
346.573	4.03
346.939	4.02
347.304	4.03
347.67	4.03
348.035	4.03
348.401	4.02
348.766	4.04
349.132	4.04
349.497	4.05
349.862	4.05
350.228	4.05
350.593	4.04
350.958	4.05
351.323	4.06
351.688	4.08
352.053	4.08
352.418	4.08
352.783	4.07
353.148	4.07
353.513	4.08
353.878	4.07
354.243	4.09
354.608	4.08
354.972	4.09
355.337	4.09
355.702	4.1
356.066	4.09
356.431	4.09
356.795	4.09
357.16	4.1
357.524	4.1
357.889	4.1
358.253	4.09
358.618	4.08
358.982	4.08
359.346	4.08
359.71	4.08
360.075	4.07
360.439	4.06
360.803	4.07
361.167	4.07
361.531	4.07
361.895	4.07
362.259	4.07
362.623	4.06
362.987	4.06
363.351	4.06
363.714	4.06
364.078	4.06
364.442	4.06
364.806	4.06
365.169	4.06
365.533	4.06
365.896	4.06
366.26	4.07
366.623	4.06
366.987	4.06
367.35	4.06
367.714	4.06
368.077	4.06
368.44	4.05
368.803	4.06
369.167	4.05
369.53	4.04
369.893	4.04
370.256	4.04
370.619	4.03
370.982	4.04
371.345	4.04
371.708	4.05
372.071	4.05
372.434	4.04
372.797	4.04
373.159	4.04
373.522	4.05
373.885	4.04
374.247	4.04
374.61	4.04
374.973	4.03
375.335	4.03
375.698	4.02
376.06	4.02
376.423	4.02
376.785	4.02
377.147	4.02
377.51	4.03
377.872	4.02
378.234	4.02
378.596	4.01
378.958	4.01
379.321	4
379.683	4
380.045	4
380.407	4
380.769	4
381.13	3.99
381.492	3.99
381.854	3.98
382.216	3.98
382.578	3.98
382.939	3.97
383.301	3.97
383.663	3.97
384.024	3.96
384.386	3.96
384.747	3.96
385.109	3.95
385.47	3.96
385.832	3.95
386.193	3.95
386.554	3.95
386.916	3.94
387.277	3.94
387.638	3.93
387.999	3.93
388.36	3.94
388.721	3.93
389.082	3.93
389.443	3.93
389.804	3.93
390.165	3.93
390.526	3.93
390.887	3.92
391.248	3.92
391.609	3.92
391.969	3.91
392.33	3.91
392.691	3.91
393.051	3.91
393.412	3.91
393.772	3.91
394.133	3.9
394.493	3.9
394.854	3.89
395.214	3.89
395.574	3.89
395.935	3.89
396.295	3.89
396.655	3.89
397.015	3.88
397.376	3.88
397.736	3.88
398.096	3.89
398.456	3.88
398.816	3.89
399.176	3.89
399.535	3.89
399.895	3.89
400.255	3.88
400.615	3.88
400.975	3.88
401.334	3.88
401.694	3.88
402.054	3.88
402.413	3.88
402.773	3.88
403.132	3.88
403.492	3.88
403.851	3.87
404.211	3.88
404.57	3.88
404.929	3.87
405.288	3.87
405.648	3.88
406.007	3.88
406.366	3.87
406.725	3.88
407.084	3.87
407.443	3.88
407.802	3.88
408.161	3.88
408.52	3.88
408.879	3.89
409.238	3.89
409.596	3.89
409.955	3.9
410.314	3.89
410.673	3.9
411.031	3.91
411.39	3.91
411.748	3.92
412.107	3.92
412.465	3.93
412.824	3.95
413.182	3.97
413.54	4
413.899	4.02
414.257	4.05
414.615	4.09
414.974	4.12
415.332	4.16
415.69	4.2
416.048	4.23
416.406	4.26
416.764	4.29
417.122	4.32
417.48	4.36
417.838	4.39
418.195	4.41
418.553	4.43
418.911	4.45
419.269	4.46
419.626	4.46
419.984	4.45
420.342	4.44
420.699	4.42
421.057	4.41
421.414	4.39
421.772	4.38
422.129	4.37
422.486	4.37
422.844	4.36
423.201	4.36
423.558	4.36
423.915	4.36
424.273	4.36
424.63	4.36
424.987	4.36
425.344	4.36
425.701	4.36
426.058	4.36
426.415	4.36
426.772	4.36
427.128	4.36
427.485	4.35
427.842	4.34
428.199	4.32
428.555	4.31
428.912	4.29
429.269	4.26
429.625	4.24
429.982	4.21
430.338	4.18
430.695	4.16
431.051	4.13
431.407	4.11
431.764	4.09
432.12	4.07
432.476	4.06
432.832	4.05
433.189	4.05
433.545	4.05
433.901	4.06
434.257	4.08
434.613	4.11
434.969	4.14
435.325	4.16
435.681	4.2
436.036	4.22
436.392	4.24
436.748	4.26
437.104	4.27
437.459	4.29
437.815	4.31
438.171	4.33
438.526	4.36
438.882	4.39
439.237	4.43
439.593	4.46
439.948	4.49
440.304	4.53
440.659	4.55
441.014	4.57
441.369	4.6
441.725	4.62
442.08	4.64
442.435	4.65
442.79	4.66
443.145	4.66
443.5	4.66
443.855	4.66
444.21	4.66
444.565	4.66
444.92	4.65
445.275	4.64
445.629	4.63
445.984	4.62
446.339	4.62
446.693	4.6
447.048	4.59
447.403	4.57
447.757	4.55
448.112	4.54
448.466	4.51
448.82	4.49
449.175	4.47
449.529	4.45
449.883	4.43
450.238	4.41
450.592	4.4
450.946	4.39
451.3	4.39
451.654	4.4
452.008	4.4
452.362	4.41
452.716	4.4
453.07	4.4
453.424	4.4
453.778	4.39
454.132	4.38
454.486	4.37
454.839	4.36
455.193	4.34
455.547	4.32
455.9	4.3
456.254	4.28
456.607	4.25
456.961	4.23
457.314	4.2
457.668	4.2
458.021	4.19
458.375	4.19
458.728	4.19
459.081	4.19
459.434	4.2
459.787	4.21
460.141	4.22
460.494	4.23
460.847	4.23
461.2	4.24
461.553	4.25
461.906	4.25
462.259	4.26
462.611	4.26
462.964	4.26
463.317	4.27
463.67	4.28
464.022	4.28
464.375	4.29
464.728	4.29
465.08	4.3
465.433	4.3
465.785	4.3
466.138	4.28
466.49	4.27
466.843	4.25
467.195	4.23
467.547	4.21
467.899	4.19
468.252	4.15
468.604	4.13
468.956	4.11
469.308	4.1
469.66	4.1
470.012	4.09
470.364	4.1
470.716	4.1
471.068	4.11
471.42	4.13
471.772	4.15
472.123	4.16
472.475	4.17
472.827	4.18
473.178	4.19
473.53	4.2
473.882	4.21
474.233	4.24
474.585	4.27
474.936	4.33
475.288	4.42
475.639	4.54
475.99	4.67
476.342	4.82
476.693	4.99
477.044	5.15
477.395	5.32
477.746	5.49
478.097	5.67
478.448	5.85
478.8	6.02
479.15	6.18
479.501	6.33
479.852	6.47
480.203	6.6
480.554	6.72
480.905	6.84
481.255	6.95
481.606	7.06
481.957	7.16
482.307	7.26
482.658	7.35
483.009	7.44
483.359	7.53
483.709	7.61
484.06	7.69
484.41	7.77
484.761	7.84
485.111	7.91
485.461	7.98
485.811	8.04
486.162	8.1
486.512	8.16
486.862	8.2
487.212	8.23
487.562	8.24
487.912	8.26
488.262	8.26
488.612	8.26
488.961	8.24
489.311	8.19
489.661	8.13
490.011	8.03
490.36	7.93
490.71	7.8
491.06	7.67
491.409	7.53
491.759	7.38
492.108	7.23
492.458	7.07
492.807	6.9
493.157	6.74
493.506	6.58
493.855	6.43
494.204	6.29
494.554	6.15
494.903	6.03
495.252	5.91
495.601	5.8
495.95	5.68
496.299	5.58
496.648	5.49
496.997	5.4
497.346	5.31
497.695	5.22
498.043	5.14
498.392	5.06
498.741	4.99
499.09	4.92
499.438	4.85
499.787	4.79
500.135	4.73
500.484	4.67
500.832	4.63
501.181	4.59
501.529	4.58
501.878	4.57
502.226	4.57
502.574	4.57
502.923	4.58
503.271	4.59
503.619	4.6
503.967	4.61
504.315	4.62
504.663	4.63
505.011	4.64
505.359	4.64
505.707	4.65
506.055	4.66
506.403	4.67
506.751	4.68
507.098	4.7
507.446	4.71
507.794	4.73
508.141	4.76
508.489	4.78
508.837	4.81
509.184	4.84
509.531	4.86
509.879	4.88
510.226	4.91
510.574	4.94
510.921	4.97
511.268	5
511.616	5.04
511.963	5.07
512.31	5.11
512.657	5.15
513.004	5.18
513.351	5.21
513.698	5.23
514.045	5.25
514.392	5.27
514.739	5.28
515.086	5.29
515.432	5.3
515.779	5.3
516.126	5.31
516.473	5.32
516.819	5.34
517.166	5.35
517.512	5.37
517.859	5.4
518.205	5.43
518.552	5.47
518.898	5.51
519.245	5.57
519.591	5.65
519.937	5.74
520.283	5.86
520.629	5.99
520.976	6.14
521.322	6.3
521.668	6.45
522.014	6.61
522.36	6.77
522.706	6.92
523.052	7.07
523.398	7.2
523.743	7.32
524.089	7.42
524.435	7.51
524.781	7.59
525.126	7.67
525.472	7.75
525.817	7.82
526.163	7.88
526.509	7.95
526.854	8.01
527.199	8.07
527.545	8.13
527.89	8.19
528.235	8.26
528.581	8.32
528.926	8.37
529.271	8.42
529.616	8.47
529.961	8.51
530.306	8.55
530.651	8.58
530.996	8.6
531.341	8.62
531.686	8.63
532.031	8.63
532.376	8.64
532.721	8.65
533.065	8.66
533.41	8.68
533.755	8.67
534.099	8.66
534.444	8.63
534.788	8.6
535.133	8.55
535.477	8.49
535.822	8.43
536.166	8.36
536.51	8.28
536.855	8.19
537.199	8.09
537.543	8
537.887	7.92
538.231	7.84
538.576	7.78
538.92	7.71
539.264	7.65
539.608	7.58
539.951	7.5
540.295	7.43
540.639	7.36
540.983	7.28
541.327	7.2
541.671	7.12
542.014	7.04
542.358	6.97
542.701	6.92
543.045	6.88
543.389	6.86
543.732	6.84
544.075	6.81
544.419	6.79
544.762	6.78
545.105	6.76
545.449	6.75
545.792	6.74
546.135	6.73
546.478	6.72
546.821	6.69
547.165	6.65
547.508	6.6
547.851	6.55
548.194	6.48
548.536	6.4
548.879	6.32
549.222	6.24
549.565	6.15
549.908	6.06
550.25	5.98
550.593	5.91
550.936	5.85
551.278	5.8
551.621	5.77
551.963	5.73
552.306	5.7
552.648	5.68
552.991	5.67
553.333	5.65
553.675	5.64
554.017	5.64
554.36	5.64
554.702	5.64
555.044	5.66
555.386	5.68
555.728	5.71
556.07	5.72
556.412	5.75
556.754	5.75
557.096	5.75
557.438	5.76
557.78	5.76
558.121	5.76
558.463	5.77
558.805	5.77
559.147	5.77
559.488	5.78
559.83	5.78
560.171	5.78
560.513	5.78
560.854	5.78
561.196	5.79
561.537	5.79
561.878	5.79
562.22	5.79
562.561	5.79
562.902	5.8
563.243	5.8
563.584	5.8
563.925	5.8
564.266	5.8
564.607	5.81
564.948	5.81
565.289	5.81
565.63	5.82
565.971	5.82
566.312	5.82
566.653	5.83
566.993	5.83
567.334	5.84
567.675	5.84
568.015	5.85
568.356	5.85
568.696	5.85
569.037	5.85
569.377	5.85
569.718	5.85
570.058	5.85
570.398	5.85
570.739	5.86
571.079	5.86
571.419	5.86
571.759	5.86
572.099	5.86
572.439	5.86
572.779	5.86
573.119	5.86
573.459	5.86
573.799	5.86
574.139	5.86
574.479	5.86
574.819	5.86
575.158	5.86
575.498	5.86
575.838	5.86
576.177	5.86
576.517	5.87
576.856	5.87
577.196	5.87
577.535	5.87
577.875	5.86
578.214	5.87
578.553	5.87
578.893	5.86
579.232	5.87
579.571	5.87
579.91	5.87
580.25	5.86
580.589	5.86
580.928	5.86
581.267	5.86
581.606	5.86
581.945	5.86
582.283	5.86
582.622	5.87
582.961	5.86
583.3	5.87
583.639	5.87
583.977	5.87
584.316	5.87
584.654	5.87
584.993	5.88
585.332	5.88
585.67	5.88
586.008	5.88
586.347	5.88
586.685	5.89
587.024	5.88
587.362	5.88
587.7	5.89
588.038	5.89
588.376	5.89
588.715	5.89
589.053	5.9
589.391	5.9
589.729	5.9
590.067	5.9
590.404	5.9
590.742	5.91
591.08	5.91
591.418	5.92
591.756	5.92
592.093	5.92
592.431	5.93
592.769	5.93
593.106	5.93
593.444	5.94
593.781	5.94
594.119	5.94
594.456	5.94
594.793	5.94
595.131	5.95
595.468	5.94
595.805	5.94
596.143	5.94
596.48	5.94
596.817	5.95
597.154	5.95
597.491	5.95
597.828	5.96
598.165	5.97
598.502	5.97
598.839	5.97
599.176	5.98
599.512	5.98
599.849	5.98
600.186	5.99
600.523	5.99
600.859	6
601.196	6.01
601.532	6.01
601.869	6
602.205	6.01
602.542	6.02
602.878	6.02
603.215	6.02
603.551	6.02
603.887	6.02
604.223	6.03
604.56	6.03
604.896	6.03
605.232	6.03
605.568	6.04
605.904	6.04
606.24	6.04
606.576	6.04
606.912	6.04
607.248	6.04
607.583	6.04
607.919	6.04
608.255	6.04
608.591	6.04
608.926	6.04
609.262	6.04
609.597	6.04
609.933	6.04
610.268	6.04
610.604	6.04
610.939	6.04
611.275	6.04
611.61	6.04
611.945	6.04
612.281	6.04
612.616	6.04
612.951	6.03
613.286	6.03
613.621	6.04
613.956	6.03
614.291	6.03
614.626	6.02
614.961	6.02
615.296	6.02
615.631	6.03
615.966	6.03
616.3	6.03
616.635	6.03
616.97	6.03
617.304	6.03
617.639	6.04
617.973	6.04
618.308	6.03
618.642	6.03
618.977	6.03
619.311	6.03
619.646	6.03
619.98	6.04
620.314	6.04
620.648	6.05
620.983	6.06
621.317	6.07
621.651	6.07
621.985	6.08
622.319	6.08
622.653	6.09
622.987	6.1
623.321	6.1
623.655	6.11
623.988	6.12
624.322	6.12
624.656	6.13
624.99	6.14
625.323	6.15
625.657	6.14
625.99	6.15
626.324	6.14
626.657	6.15
626.991	6.15
627.324	6.15
627.658	6.14
627.991	6.14
628.324	6.15
628.657	6.16
628.991	6.16
629.324	6.17
629.657	6.16
629.99	6.16
630.323	6.17
630.656	6.18
630.989	6.18
631.322	6.18
631.655	6.19
631.987	6.19
632.32	6.2
632.653	6.2
632.986	6.21
633.318	6.21
633.651	6.22
633.984	6.22
634.316	6.22
634.649	6.21
634.981	6.22
635.313	6.21
635.646	6.21
635.978	6.22
636.31	6.21
636.643	6.22
636.975	6.22
637.307	6.22
637.639	6.22
637.971	6.23
638.303	6.22
638.635	6.22
638.967	6.22
639.299	6.22
639.631	6.22
639.963	6.23
640.295	6.24
640.626	6.25
640.958	6.26
641.29	6.28
641.621	6.28
641.953	6.29
642.285	6.28
642.616	6.29
642.948	6.29
643.279	6.3
643.61	6.31
643.942	6.31
644.273	6.3
644.604	6.31
644.936	6.31
645.267	6.31
645.598	6.32
645.929	6.33
646.26	6.33
646.591	6.33
646.922	6.33
647.253	6.33
647.584	6.34
647.915	6.34
648.245	6.34
648.576	6.35
648.907	6.35
649.238	6.36
649.568	6.36
649.899	6.36
650.229	6.37
650.56	6.37
650.89	6.37
651.221	6.37
651.551	6.38
651.882	6.39
652.212	6.4
652.542	6.41
652.872	6.42
653.203	6.42
653.533	6.42
653.863	6.41
654.193	6.42
654.523	6.42
654.853	6.42
655.183	6.43
655.513	6.43
655.843	6.44
656.172	6.44
656.502	6.44
656.832	6.45
657.162	6.45
657.491	6.45
657.821	6.46
658.15	6.47
658.48	6.47
658.809	6.48
659.139	6.48
659.468	6.49
659.798	6.49
660.127	6.5
660.456	6.51
660.785	6.51
661.115	6.51
661.444	6.53
661.773	6.54
662.102	6.54
662.431	6.54
662.76	6.54
663.089	6.54
663.418	6.55
663.747	6.55
664.076	6.56
664.404	6.56
664.733	6.57
665.062	6.58
665.39	6.59
665.719	6.59
666.048	6.59
666.376	6.59
666.705	6.6
667.033	6.6
667.362	6.62
667.69	6.61
668.018	6.61
668.347	6.62
668.675	6.63
669.003	6.64
669.331	6.65
669.659	6.65
669.987	6.66
670.315	6.66
670.643	6.67
670.971	6.67
671.299	6.67
671.627	6.67
671.955	6.68
672.283	6.68
672.61	6.68
672.938	6.67
673.266	6.68
673.593	6.68
673.921	6.68
674.249	6.69
674.576	6.69
674.904	6.69
675.231	6.69
675.558	6.69
675.886	6.71
676.213	6.71
676.54	6.73
676.867	6.72
677.195	6.73
677.522	6.73
677.849	6.73
678.176	6.73
678.503	6.72
678.83	6.73
679.157	6.73
679.484	6.74
679.81	6.74
680.137	6.74
680.464	6.75
680.791	6.75
