Data from UWBM55942_Reflection_00013.txt Node
Date: Sun May 02 14:12:04 EDT 2021
User: vgr7
Spectrometer: USB2G7710
Scans to average: 10
Trigger mode: 4
Integration Time (sec): 1.000000E-1
Electric dark correction enabled: true
Boxcar width: 20
XAxis mode: Wavelengths
Number of Pixels in Spectrum: 2048
>>>>>Begin Spectral Data<<<<<
177.721	-825
178.105	-97.3
178.488	-406.63
178.871	-917.65
179.254	275.27
179.636	189.03
180.019	98
180.402	74.53
180.785	54.02
181.168	51.68
181.55	52.79
181.933	53.02
182.316	47.89
182.698	45.76
183.081	39.76
183.463	32.44
183.846	28.54
184.228	28.48
184.611	23.89
184.993	22.73
185.376	23.06
185.758	23.48
186.14	24.96
186.522	23.24
186.904	23.7
187.287	22.71
187.669	21.03
188.051	20.8
188.433	20.85
188.815	16.42
189.197	17.52
189.579	17.55
189.961	19.99
190.342	19.68
190.724	19.74
191.106	19.8
191.488	17.62
191.869	15.34
192.251	13.15
192.633	13.3
193.014	14.07
193.396	11.67
193.777	11.61
194.159	11.97
194.54	10.44
194.922	9.34
195.303	8.55
195.684	7.1
196.065	6.03
196.447	7.25
196.828	6.5
197.209	4.75
197.59	1.18
197.971	1.61
198.352	2.23
198.733	4.03
199.114	6.35
199.495	7.02
199.876	7.19
200.257	9.22
200.638	7.67
201.018	8.12
201.399	10.74
201.78	8.24
202.16	7.19
202.541	8.36
202.922	8.53
203.302	9.3
203.683	10.49
204.063	9.93
204.444	10.43
204.824	7.93
205.204	5.5
205.585	6.35
205.965	7.73
206.345	7.02
206.725	6.71
207.106	8.31
207.486	9.14
207.866	10.93
208.246	9.8
208.626	8.23
209.006	9.1
209.386	7.76
209.766	5.77
210.145	5.04
210.525	5.96
210.905	7.59
211.285	6.53
211.664	7.37
212.044	6.79
212.424	6.07
212.803	6.6
213.183	7.89
213.562	8.4
213.942	8.13
214.321	7.61
214.701	6.03
215.08	6.9
215.459	6.86
215.838	5.21
216.218	6.19
216.597	4.6
216.976	2.69
217.355	4.08
217.734	4.8
218.113	4.9
218.492	4.91
218.871	4.18
219.25	4.39
219.629	3.94
220.008	4.6
220.387	4.94
220.766	6.69
221.144	4.82
221.523	4.35
221.902	4.73
222.28	4.39
222.659	4.08
223.037	4.12
223.416	4.74
223.794	5.68
224.173	6.23
224.551	5.81
224.929	6.55
225.308	6.68
225.686	6.75
226.064	6.85
226.442	6.06
226.821	7.19
227.199	7.79
227.577	7.66
227.955	7.4
228.333	7.24
228.711	6.98
229.089	6.25
229.467	6.3
229.845	6.01
230.222	6.29
230.6	6.23
230.978	6.18
231.356	6.56
231.733	6.47
232.111	6.31
232.488	6.21
232.866	5.77
233.243	5.4
233.621	5.42
233.998	5.46
234.376	5.57
234.753	5.17
235.13	5.2
235.508	5.12
235.885	5.05
236.262	4.8
236.639	4.87
237.016	4.85
237.393	4.71
237.77	4.71
238.147	4.65
238.524	4.59
238.901	4.45
239.278	4.37
239.655	4.4
240.032	4.41
240.409	4.49
240.785	4.57
241.162	4.61
241.539	4.55
241.915	4.62
242.292	4.58
242.668	4.53
243.045	4.52
243.421	4.54
243.798	4.55
244.174	4.57
244.551	4.59
244.927	4.57
245.303	4.62
245.679	4.6
246.056	4.53
246.432	4.51
246.808	4.45
247.184	4.47
247.56	4.51
247.936	4.51
248.312	4.52
248.688	4.54
249.064	4.54
249.44	4.52
249.815	4.47
250.191	4.48
250.567	4.49
250.943	4.47
251.318	4.46
251.694	4.5
252.069	4.46
252.445	4.44
252.82	4.45
253.196	4.42
253.571	4.41
253.947	4.42
254.322	4.4
254.697	4.4
255.073	4.39
255.448	4.38
255.823	4.34
256.198	4.32
256.573	4.29
256.948	4.3
257.323	4.26
257.698	4.23
258.073	4.2
258.448	4.19
258.823	4.17
259.198	4.15
259.573	4.14
259.948	4.13
260.322	4.13
260.697	4.09
261.072	4.07
261.446	4.06
261.821	4.05
262.195	4.05
262.57	4.02
262.944	4.01
263.319	4
263.693	4
264.067	4
264.442	3.96
264.816	3.94
265.19	3.96
265.564	3.97
265.938	3.94
266.313	3.95
266.687	3.93
267.061	3.92
267.435	3.94
267.809	3.92
268.183	3.92
268.556	3.92
268.93	3.91
269.304	3.9
269.678	3.89
270.051	3.87
270.425	3.85
270.799	3.84
271.172	3.84
271.546	3.82
271.919	3.83
272.293	3.82
272.666	3.8
273.04	3.83
273.413	3.86
273.787	3.88
274.16	3.89
274.533	3.91
274.906	3.92
275.279	3.91
275.653	3.91
276.026	3.92
276.399	3.95
276.772	3.97
277.145	3.99
277.518	4.01
277.891	4.03
278.263	4.02
278.636	4.04
279.009	4.03
279.382	4.04
279.755	4.06
280.127	4.09
280.5	4.09
280.872	4.1
281.245	4.12
281.617	4.11
281.99	4.13
282.362	4.14
282.735	4.14
283.107	4.18
283.479	4.17
283.852	4.18
284.224	4.21
284.596	4.21
284.968	4.23
285.34	4.26
285.713	4.29
286.085	4.3
286.457	4.31
286.829	4.32
287.201	4.33
287.572	4.36
287.944	4.39
288.316	4.39
288.688	4.39
289.06	4.42
289.431	4.44
289.803	4.46
290.175	4.48
290.546	4.51
290.918	4.54
291.289	4.57
291.661	4.59
292.032	4.61
292.403	4.63
292.775	4.67
293.146	4.69
293.517	4.74
293.889	4.78
294.26	4.82
294.631	4.86
295.002	4.91
295.373	4.95
295.744	4.99
296.115	5.03
296.486	5.08
296.857	5.14
297.228	5.18
297.599	5.23
297.97	5.27
298.34	5.31
298.711	5.36
299.082	5.41
299.452	5.45
299.823	5.52
300.194	5.56
300.564	5.59
300.935	5.64
301.305	5.7
301.676	5.76
302.046	5.82
302.416	5.89
302.787	5.92
303.157	6
303.527	6.06
303.897	6.13
304.267	6.2
304.637	6.27
305.008	6.34
305.378	6.41
305.748	6.47
306.117	6.53
306.487	6.61
306.857	6.68
307.227	6.75
307.597	6.81
307.967	6.87
308.336	6.95
308.706	7
309.076	7.04
309.445	7.11
309.815	7.16
310.184	7.21
310.554	7.26
310.923	7.32
311.293	7.37
311.662	7.42
312.031	7.48
312.401	7.55
312.77	7.61
313.139	7.66
313.508	7.72
313.877	7.78
314.246	7.85
314.616	7.92
314.985	7.97
315.353	8.03
315.722	8.09
316.091	8.14
316.46	8.19
316.829	8.24
317.198	8.3
317.567	8.37
317.935	8.46
318.304	8.51
318.672	8.58
319.041	8.65
319.41	8.71
319.778	8.76
320.147	8.82
320.515	8.88
320.883	8.94
321.252	9
321.62	9.06
321.988	9.12
322.357	9.19
322.725	9.26
323.093	9.32
323.461	9.35
323.829	9.41
324.197	9.46
324.565	9.51
324.933	9.57
325.301	9.61
325.669	9.66
326.037	9.7
326.405	9.75
326.772	9.78
327.14	9.83
327.508	9.85
327.875	9.88
328.243	9.92
328.61	9.96
328.978	10
329.346	10.03
329.713	10.07
330.08	10.11
330.448	10.14
330.815	10.18
331.182	10.21
331.55	10.25
331.917	10.28
332.284	10.32
332.651	10.34
333.018	10.37
333.385	10.43
333.752	10.47
334.119	10.51
334.486	10.56
334.853	10.62
335.22	10.65
335.587	10.69
335.954	10.73
336.32	10.78
336.687	10.81
337.054	10.83
337.42	10.86
337.787	10.89
338.153	10.92
338.52	10.95
338.886	10.98
339.253	11.02
339.619	11.04
339.986	11.06
340.352	11.11
340.718	11.13
341.084	11.15
341.451	11.19
341.817	11.21
342.183	11.24
342.549	11.27
342.915	11.3
343.281	11.34
343.647	11.36
344.013	11.37
344.379	11.39
344.745	11.41
345.11	11.43
345.476	11.47
345.842	11.49
346.208	11.51
346.573	11.52
346.939	11.54
347.304	11.56
347.67	11.57
348.035	11.59
348.401	11.59
348.766	11.62
349.132	11.64
349.497	11.65
349.862	11.66
350.228	11.67
350.593	11.68
350.958	11.68
351.323	11.68
351.688	11.68
352.053	11.69
352.418	11.68
352.783	11.68
353.148	11.67
353.513	11.68
353.878	11.67
354.243	11.66
354.608	11.67
354.972	11.66
355.337	11.65
355.702	11.65
356.066	11.64
356.431	11.62
356.795	11.61
357.16	11.59
357.524	11.58
357.889	11.56
358.253	11.54
358.618	11.52
358.982	11.52
359.346	11.5
359.71	11.48
360.075	11.46
360.439	11.44
360.803	11.41
361.167	11.39
361.531	11.37
361.895	11.35
362.259	11.34
362.623	11.31
362.987	11.29
363.351	11.27
363.714	11.23
364.078	11.19
364.442	11.16
364.806	11.13
365.169	11.1
365.533	11.07
365.896	11.03
366.26	11
366.623	10.96
366.987	10.92
367.35	10.88
367.714	10.84
368.077	10.8
368.44	10.75
368.803	10.7
369.167	10.65
369.53	10.58
369.893	10.53
370.256	10.47
370.619	10.4
370.982	10.34
371.345	10.28
371.708	10.22
372.071	10.16
372.434	10.1
372.797	10.04
373.159	9.99
373.522	9.94
373.885	9.88
374.247	9.82
374.61	9.76
374.973	9.7
375.335	9.64
375.698	9.58
376.06	9.52
376.423	9.46
376.785	9.4
377.147	9.33
377.51	9.27
377.872	9.21
378.234	9.14
378.596	9.08
378.958	9.02
379.321	8.96
379.683	8.9
380.045	8.84
380.407	8.79
380.769	8.73
381.13	8.67
381.492	8.62
381.854	8.57
382.216	8.51
382.578	8.46
382.939	8.41
383.301	8.36
383.663	8.3
384.024	8.25
384.386	8.2
384.747	8.15
385.109	8.1
385.47	8.05
385.832	8
386.193	7.95
386.554	7.9
386.916	7.86
387.277	7.81
387.638	7.76
387.999	7.72
388.36	7.66
388.721	7.62
389.082	7.57
389.443	7.53
389.804	7.49
390.165	7.45
390.526	7.41
390.887	7.36
391.248	7.32
391.609	7.28
391.969	7.24
392.33	7.2
392.691	7.16
393.051	7.13
393.412	7.09
393.772	7.04
394.133	7
394.493	6.95
394.854	6.91
395.214	6.86
395.574	6.83
395.935	6.79
396.295	6.74
396.655	6.69
397.015	6.66
397.376	6.62
397.736	6.57
398.096	6.53
398.456	6.49
398.816	6.46
399.176	6.42
399.535	6.38
399.895	6.34
400.255	6.31
400.615	6.27
400.975	6.24
401.334	6.2
401.694	6.16
402.054	6.13
402.413	6.09
402.773	6.06
403.132	6.04
403.492	6.01
403.851	5.98
404.211	5.95
404.57	5.93
404.929	5.9
405.288	5.88
405.648	5.85
406.007	5.84
406.366	5.81
406.725	5.79
407.084	5.77
407.443	5.75
407.802	5.73
408.161	5.71
408.52	5.7
408.879	5.69
409.238	5.67
409.596	5.66
409.955	5.65
410.314	5.63
410.673	5.61
411.031	5.61
411.39	5.6
411.748	5.58
412.107	5.58
412.465	5.57
412.824	5.57
413.182	5.58
413.54	5.59
413.899	5.6
414.257	5.62
414.615	5.66
414.974	5.68
415.332	5.71
415.69	5.75
416.048	5.76
416.406	5.8
416.764	5.82
417.122	5.84
417.48	5.86
417.838	5.89
418.195	5.9
418.553	5.91
418.911	5.91
419.269	5.9
419.626	5.89
419.984	5.86
420.342	5.83
420.699	5.8
421.057	5.76
421.414	5.73
421.772	5.7
422.129	5.67
422.486	5.65
422.844	5.64
423.201	5.62
423.558	5.61
423.915	5.6
424.273	5.58
424.63	5.56
424.987	5.55
425.344	5.54
425.701	5.52
426.058	5.51
426.415	5.5
426.772	5.48
427.128	5.47
427.485	5.44
427.842	5.41
428.199	5.38
428.555	5.35
428.912	5.32
429.269	5.27
429.625	5.23
429.982	5.19
430.338	5.14
430.695	5.11
431.051	5.06
431.407	5.02
431.764	5
432.12	4.97
432.476	4.94
432.832	4.93
433.189	4.93
433.545	4.93
433.901	4.94
434.257	4.96
434.613	4.99
434.969	5.02
435.325	5.05
435.681	5.09
436.036	5.12
436.392	5.14
436.748	5.16
437.104	5.17
437.459	5.19
437.815	5.21
438.171	5.24
438.526	5.27
438.882	5.3
439.237	5.34
439.593	5.38
439.948	5.41
440.304	5.45
440.659	5.48
441.014	5.5
441.369	5.53
441.725	5.55
442.08	5.56
442.435	5.58
442.79	5.58
443.145	5.58
443.5	5.58
443.855	5.57
444.21	5.57
444.565	5.56
444.92	5.54
445.275	5.53
445.629	5.51
445.984	5.49
446.339	5.47
446.693	5.45
447.048	5.43
447.403	5.4
447.757	5.37
448.112	5.33
448.466	5.3
448.82	5.26
449.175	5.22
449.529	5.19
449.883	5.16
450.238	5.13
450.592	5.12
450.946	5.1
451.3	5.09
451.654	5.09
452.008	5.09
452.362	5.09
452.716	5.08
453.07	5.07
453.424	5.06
453.778	5.05
454.132	5.03
454.486	5.01
454.839	4.99
455.193	4.96
455.547	4.94
455.9	4.9
456.254	4.88
456.607	4.85
456.961	4.81
457.314	4.79
457.668	4.78
458.021	4.77
458.375	4.77
458.728	4.77
459.081	4.77
459.434	4.78
459.787	4.79
460.141	4.81
460.494	4.82
460.847	4.84
461.2	4.85
461.553	4.86
461.906	4.87
462.259	4.88
462.611	4.89
462.964	4.9
463.317	4.92
463.67	4.93
464.022	4.95
464.375	4.96
464.728	4.98
465.08	4.99
465.433	5
465.785	5
466.138	4.99
466.49	4.99
466.843	4.97
467.195	4.96
467.547	4.95
467.899	4.93
468.252	4.91
468.604	4.9
468.956	4.89
469.308	4.88
469.66	4.89
470.012	4.89
470.364	4.91
470.716	4.92
471.068	4.95
471.42	4.98
471.772	5.01
472.123	5.03
472.475	5.05
472.827	5.07
473.178	5.09
473.53	5.11
473.882	5.13
474.233	5.16
474.585	5.21
474.936	5.29
475.288	5.4
475.639	5.54
475.99	5.7
476.342	5.88
476.693	6.07
477.044	6.26
477.395	6.46
477.746	6.67
478.097	6.88
478.448	7.09
478.8	7.29
479.15	7.48
479.501	7.65
479.852	7.81
480.203	7.96
480.554	8.1
480.905	8.23
481.255	8.36
481.606	8.48
481.957	8.59
482.307	8.7
482.658	8.8
483.009	8.9
483.359	9
483.709	9.09
484.06	9.17
484.41	9.26
484.761	9.35
485.111	9.43
485.461	9.51
485.811	9.59
486.162	9.66
486.512	9.72
486.862	9.76
487.212	9.79
487.562	9.81
487.912	9.83
488.262	9.84
488.612	9.83
488.961	9.81
489.311	9.77
489.661	9.69
490.011	9.59
490.36	9.47
490.71	9.34
491.06	9.19
491.409	9.03
491.759	8.87
492.108	8.7
492.458	8.52
492.807	8.34
493.157	8.16
493.506	7.99
493.855	7.83
494.204	7.68
494.554	7.54
494.903	7.42
495.252	7.3
495.601	7.19
495.95	7.08
496.299	6.99
496.648	6.9
496.997	6.83
497.346	6.76
497.695	6.7
498.043	6.64
498.392	6.59
498.741	6.54
499.09	6.5
499.438	6.46
499.787	6.43
500.135	6.41
500.484	6.4
500.832	6.4
501.181	6.42
501.529	6.46
501.878	6.52
502.226	6.58
502.574	6.65
502.923	6.73
503.271	6.82
503.619	6.9
503.967	6.99
504.315	7.07
504.663	7.16
505.011	7.25
505.359	7.34
505.707	7.44
506.055	7.53
506.403	7.63
506.751	7.74
507.098	7.84
507.446	7.95
507.794	8.07
508.141	8.19
508.489	8.32
508.837	8.45
509.184	8.59
509.531	8.72
509.879	8.87
510.226	9.02
510.574	9.18
510.921	9.35
511.268	9.51
511.616	9.69
511.963	9.87
512.31	10.05
512.657	10.23
513.004	10.41
513.351	10.57
513.698	10.73
514.045	10.87
514.392	11.01
514.739	11.14
515.086	11.26
515.432	11.38
515.779	11.5
516.126	11.62
516.473	11.75
516.819	11.9
517.166	12.06
517.512	12.23
517.859	12.42
518.205	12.62
518.552	12.84
518.898	13.08
519.245	13.35
519.591	13.69
519.937	14.1
520.283	14.56
520.629	15.07
520.976	15.61
521.322	16.17
521.668	16.74
522.014	17.32
522.36	17.91
522.706	18.48
523.052	19.03
523.398	19.55
523.743	20.03
524.089	20.46
524.435	20.86
524.781	21.24
525.126	21.62
525.472	21.99
525.817	22.35
526.163	22.69
526.509	23.03
526.854	23.37
527.199	23.71
527.545	24.06
527.89	24.41
528.235	24.76
528.581	25.09
528.926	25.41
529.271	25.71
529.616	26
529.961	26.28
530.306	26.54
530.651	26.78
530.996	27
531.341	27.2
531.686	27.38
532.031	27.55
532.376	27.74
532.721	27.95
533.065	28.19
533.41	28.42
533.755	28.64
534.099	28.81
534.444	28.96
534.788	29.09
535.133	29.2
535.477	29.29
535.822	29.36
536.166	29.4
536.51	29.39
536.855	29.33
537.199	29.24
537.543	29.16
537.887	29.11
538.231	29.09
538.576	29.08
538.92	29.06
539.264	29.04
539.608	28.99
539.951	28.93
540.295	28.86
540.639	28.79
540.983	28.7
541.327	28.59
541.671	28.47
542.014	28.36
542.358	28.28
542.701	28.27
543.045	28.31
543.389	28.37
543.732	28.45
544.075	28.55
544.419	28.66
544.762	28.79
545.105	28.92
545.449	29.07
545.792	29.23
546.135	29.39
546.478	29.51
546.821	29.58
547.165	29.62
547.508	29.6
547.851	29.55
548.194	29.47
548.536	29.34
548.879	29.19
549.222	29.02
549.565	28.84
549.908	28.66
550.25	28.51
550.593	28.41
550.936	28.38
551.278	28.39
551.621	28.43
551.963	28.49
552.306	28.56
552.648	28.66
552.991	28.79
553.333	28.94
553.675	29.11
554.017	29.31
554.36	29.52
554.702	29.77
555.044	30.04
555.386	30.35
555.728	30.7
556.07	31.02
556.412	31.33
556.754	31.58
557.096	31.77
557.438	31.97
557.78	32.17
558.121	32.37
558.463	32.57
558.805	32.77
559.147	32.97
559.488	33.16
559.83	33.36
560.171	33.54
560.513	33.73
560.854	33.91
561.196	34.1
561.537	34.27
561.878	34.43
562.22	34.59
562.561	34.75
562.902	34.92
563.243	35.07
563.584	35.24
563.925	35.4
564.266	35.56
564.607	35.71
564.948	35.87
565.289	36.01
565.63	36.16
565.971	36.3
566.312	36.44
566.653	36.57
566.993	36.7
567.334	36.83
567.675	36.96
568.015	37.09
568.356	37.2
568.696	37.32
569.037	37.43
569.377	37.55
569.718	37.65
570.058	37.75
570.398	37.85
570.739	37.95
571.079	38.04
571.419	38.13
571.759	38.22
572.099	38.31
572.439	38.4
572.779	38.49
573.119	38.58
573.459	38.66
573.799	38.74
574.139	38.82
574.479	38.91
574.819	38.99
575.158	39.07
575.498	39.15
575.838	39.23
576.177	39.31
576.517	39.39
576.856	39.47
577.196	39.55
577.535	39.62
577.875	39.69
578.214	39.77
578.553	39.84
578.893	39.91
579.232	39.99
579.571	40.06
579.91	40.13
580.25	40.2
580.589	40.27
580.928	40.34
581.267	40.4
581.606	40.47
581.945	40.53
582.283	40.6
582.622	40.66
582.961	40.72
583.3	40.78
583.639	40.85
583.977	40.91
584.316	40.98
584.654	41.04
584.993	41.11
585.332	41.17
585.67	41.23
586.008	41.29
586.347	41.34
586.685	41.4
587.024	41.45
587.362	41.5
587.7	41.55
588.038	41.61
588.376	41.66
588.715	41.7
589.053	41.75
589.391	41.79
589.729	41.85
590.067	41.9
590.404	41.95
590.742	41.99
591.08	42.03
591.418	42.07
591.756	42.11
592.093	42.14
592.431	42.19
592.769	42.22
593.106	42.25
593.444	42.29
593.781	42.31
594.119	42.35
594.456	42.37
594.793	42.41
595.131	42.46
595.468	42.48
595.805	42.52
596.143	42.57
596.48	42.62
596.817	42.66
597.154	42.7
597.491	42.75
597.828	42.79
598.165	42.82
598.502	42.86
598.839	42.9
599.176	42.94
599.512	42.98
599.849	43
600.186	43.04
600.523	43.06
600.859	43.09
601.196	43.12
601.532	43.16
601.869	43.18
602.205	43.21
602.542	43.25
602.878	43.29
603.215	43.32
603.551	43.34
603.887	43.38
604.223	43.4
604.56	43.43
604.896	43.45
605.232	43.48
605.568	43.5
605.904	43.52
606.24	43.53
606.576	43.56
606.912	43.58
607.248	43.59
607.583	43.62
607.919	43.64
608.255	43.68
608.591	43.7
608.926	43.72
609.262	43.74
609.597	43.76
609.933	43.78
610.268	43.8
610.604	43.82
610.939	43.85
611.275	43.87
611.61	43.89
611.945	43.92
612.281	43.95
612.616	43.96
612.951	43.97
613.286	43.99
613.621	44.01
613.956	44.03
614.291	44.07
614.626	44.09
614.961	44.12
615.296	44.14
615.631	44.16
615.966	44.19
616.3	44.2
616.635	44.21
616.97	44.23
617.304	44.26
617.639	44.26
617.973	44.27
618.308	44.29
618.642	44.3
618.977	44.32
619.311	44.34
619.646	44.36
619.98	44.39
620.314	44.41
620.648	44.42
620.983	44.43
621.317	44.45
621.651	44.45
621.985	44.45
622.319	44.46
622.653	44.47
622.987	44.48
623.321	44.5
623.655	44.5
623.988	44.51
624.322	44.52
624.656	44.52
624.99	44.51
625.323	44.52
625.657	44.53
625.99	44.53
626.324	44.54
626.657	44.53
626.991	44.55
627.324	44.56
627.658	44.56
627.991	44.56
628.324	44.56
628.657	44.56
628.991	44.58
629.324	44.58
629.657	44.58
629.99	44.58
630.323	44.59
630.656	44.6
630.989	44.62
631.322	44.64
631.655	44.67
631.987	44.68
632.32	44.71
632.653	44.71
632.986	44.72
633.318	44.74
633.651	44.76
633.984	44.77
634.316	44.79
634.649	44.82
634.981	44.84
635.313	44.86
635.646	44.88
635.978	44.9
636.31	44.92
636.643	44.93
636.975	44.94
637.307	44.97
637.639	44.98
637.971	45
638.303	45.02
638.635	45.05
638.967	45.08
639.299	45.09
639.631	45.1
639.963	45.11
640.295	45.14
640.626	45.15
640.958	45.17
641.29	45.19
641.621	45.21
641.953	45.23
642.285	45.24
642.616	45.25
642.948	45.26
643.279	45.27
643.61	45.29
643.942	45.31
644.273	45.31
644.604	45.31
644.936	45.31
645.267	45.32
645.598	45.33
645.929	45.31
646.26	45.31
646.591	45.32
646.922	45.32
647.253	45.32
647.584	45.32
647.915	45.32
648.245	45.32
648.576	45.33
648.907	45.33
649.238	45.35
649.568	45.34
649.899	45.35
650.229	45.37
650.56	45.36
650.89	45.35
651.221	45.36
651.551	45.35
651.882	45.33
652.212	45.31
652.542	45.31
652.872	45.31
653.203	45.33
653.533	45.33
653.863	45.36
654.193	45.34
654.523	45.34
654.853	45.35
655.183	45.35
655.513	45.35
655.843	45.36
656.172	45.36
656.502	45.37
656.832	45.38
657.162	45.39
657.491	45.4
657.821	45.42
658.15	45.43
658.48	45.45
658.809	45.46
659.139	45.48
659.468	45.5
659.798	45.52
660.127	45.54
660.456	45.56
660.785	45.59
661.115	45.6
661.444	45.62
661.773	45.62
662.102	45.64
662.431	45.65
662.76	45.66
663.089	45.65
663.418	45.68
663.747	45.7
664.076	45.73
664.404	45.74
664.733	45.76
665.062	45.79
665.39	45.83
665.719	45.86
666.048	45.89
666.376	45.92
666.705	45.93
667.033	45.94
667.362	45.94
667.69	45.98
668.018	45.99
668.347	46.02
668.675	46.04
669.003	46.06
