Data from UWBM42201_Reflection_00002.txt Node
Date: Sun May 02 12:48:02 EDT 2021
User: vgr7
Spectrometer: USB2G7710
Scans to average: 10
Trigger mode: 4
Integration Time (sec): 1.000000E-1
Electric dark correction enabled: true
Boxcar width: 20
XAxis mode: Wavelengths
Number of Pixels in Spectrum: 2048
>>>>>Begin Spectral Data<<<<<
177.721	99.08
178.105	98.56
178.488	97.52
178.871	96.11
179.254	95.1
179.636	92.42
180.019	90.23
180.402	88.18
180.785	85.61
181.168	81.89
181.55	78.99
181.933	118.59
182.316	119.1
182.698	120.81
183.081	121.97
183.463	123.62
183.846	126.55
184.228	128.39
184.611	129.14
184.993	133.79
185.376	136.62
185.758	-162.12
186.14	-83.73
186.522	-41.45
186.904	-26.6
187.287	-13.16
187.669	-8.51
188.051	-7.02
188.433	-3.51
188.815	-9.15
189.197	-11.32
189.579	-9.49
189.961	-9.05
190.342	-11.52
190.724	-7.77
191.106	-7.99
191.488	-6.14
191.869	-10.95
192.251	-11.33
192.633	-15.25
193.014	-18.45
193.396	-18.64
193.777	-9.83
194.159	-9.67
194.54	-9.97
194.922	-10.21
195.303	-6.86
195.684	-6.11
196.065	-6.03
196.447	-7.35
196.828	-7.24
197.209	-5.11
197.59	-18.71
197.971	-19.75
198.352	-18.59
198.733	-15.97
199.114	-17.75
199.495	-17.88
199.876	-16.52
200.257	-19.36
200.638	-18.47
201.018	-26.25
201.399	-26.28
201.78	-28.69
202.16	-29.45
202.541	-28.5
202.922	-28.57
203.302	-32.82
203.683	-32.12
204.063	-32.05
204.444	-30.68
204.824	-27.79
205.204	-24.93
205.585	-13.42
205.965	-14.02
206.345	-13.36
206.725	-19.66
207.106	-20.06
207.486	-19.78
207.866	-18.56
208.246	-16.61
208.626	-13.72
209.006	-7.2
209.386	-12.24
209.766	-11.66
210.145	-13.1
210.525	-13.97
210.905	-12.75
211.285	-11.13
211.664	-12.34
212.044	-10.72
212.424	-9.61
212.803	-16.4
213.183	-12.73
213.562	-12.34
213.942	-13.57
214.321	-16.81
214.701	-17.02
215.08	-14
215.459	-15.56
215.838	-14.47
216.218	-13.97
216.597	-13.85
216.976	-17.6
217.355	-16.67
217.734	-15.56
218.113	-14.64
218.492	-12.84
218.871	-11.11
219.25	-10.37
219.629	-11.24
220.008	-11.44
220.387	-9.14
220.766	-7.74
221.144	-7.82
221.523	-5.6
221.902	-4.44
222.28	-2.73
222.659	-1.15
223.037	-1.11
223.416	0.09
223.794	1.02
224.173	1.04
224.551	1
224.929	1.6
225.308	3.24
225.686	2.96
226.064	3.48
226.442	3.43
226.821	3.11
227.199	3.1
227.577	2.88
227.955	2.56
228.333	2.65
228.711	2.91
229.089	3.41
229.467	3.27
229.845	4
230.222	3.98
230.6	4.19
230.978	4.7
231.356	4.12
231.733	4.21
232.111	4.13
232.488	4.07
232.866	4.24
233.243	3.87
233.621	4.18
233.998	3.94
234.376	4.06
234.753	4.28
235.13	4.36
235.508	4.99
235.885	4.89
236.262	5.01
236.639	5.15
237.016	5.09
237.393	5.03
237.77	4.89
238.147	4.83
238.524	4.92
238.901	4.96
239.278	4.95
239.655	5
240.032	4.92
240.409	4.92
240.785	4.82
241.162	4.9
241.539	4.89
241.915	4.92
242.292	4.91
242.668	4.88
243.045	4.85
243.421	4.76
243.798	4.71
244.174	4.68
244.551	4.64
244.927	4.5
245.303	4.43
245.679	4.47
246.056	4.43
246.432	4.4
246.808	4.2
247.184	4.2
247.56	4.17
247.936	4.2
248.312	4.19
248.688	4.27
249.064	4.24
249.44	4.22
249.815	4.19
250.191	4.11
250.567	4.1
250.943	4.18
251.318	4.18
251.694	4.11
252.069	4.05
252.445	4.04
252.82	4.11
253.196	4.12
253.571	4.09
253.947	4.17
254.322	4.13
254.697	4.26
255.073	4.22
255.448	4.21
255.823	4.19
256.198	4.13
256.573	3.96
256.948	3.93
257.323	3.93
257.698	3.89
258.073	3.89
258.448	3.77
258.823	3.74
259.198	3.72
259.573	3.75
259.948	3.78
260.322	3.74
260.697	3.75
261.072	3.73
261.446	3.71
261.821	3.69
262.195	3.67
262.57	3.66
262.944	3.67
263.319	3.65
263.693	3.66
264.067	3.66
264.442	3.77
264.816	3.75
265.19	3.74
265.564	3.81
265.938	3.78
266.313	3.8
266.687	3.77
267.061	3.77
267.435	3.75
267.809	3.74
268.183	3.72
268.556	3.73
268.93	3.73
269.304	3.7
269.678	3.65
270.051	3.62
270.425	3.62
270.799	3.62
271.172	3.62
271.546	3.63
271.919	3.63
272.293	3.62
272.666	3.61
273.04	3.6
273.413	3.53
273.787	3.53
274.16	3.53
274.533	3.57
274.906	3.55
275.279	3.56
275.653	3.54
276.026	3.53
276.399	3.5
276.772	3.5
277.145	3.52
277.518	3.54
277.891	3.55
278.263	3.56
278.636	3.55
279.009	3.57
279.382	3.56
279.755	3.49
280.127	3.51
280.5	3.51
280.872	3.49
281.245	3.59
281.617	3.61
281.99	3.63
282.362	3.67
282.735	3.66
283.107	3.65
283.479	3.67
283.852	3.69
284.224	3.7
284.596	3.68
284.968	3.57
285.34	3.57
285.713	3.56
286.085	3.49
286.457	3.48
286.829	3.47
287.201	3.48
287.572	3.51
287.944	3.52
288.316	3.55
288.688	3.59
289.06	3.59
289.431	3.59
289.803	3.6
290.175	3.6
290.546	3.61
290.918	3.63
291.289	3.6
291.661	3.62
292.032	3.57
292.403	3.6
292.775	3.68
293.146	3.68
293.517	3.71
293.889	3.78
294.26	3.77
294.631	3.78
295.002	3.82
295.373	3.84
295.744	3.83
296.115	3.83
296.486	3.76
296.857	3.75
297.228	3.74
297.599	3.72
297.97	3.7
298.34	3.72
298.711	3.67
299.082	3.65
299.452	3.67
299.823	3.71
300.194	3.72
300.564	3.71
300.935	3.71
301.305	3.69
301.676	3.67
302.046	3.67
302.416	3.67
302.787	3.67
303.157	3.61
303.527	3.61
303.897	3.61
304.267	3.6
304.637	3.61
305.008	3.61
305.378	3.62
305.748	3.61
306.117	3.65
306.487	3.7
306.857	3.73
307.227	3.73
307.597	3.71
307.967	3.69
308.336	3.67
308.706	3.68
309.076	3.67
309.445	3.67
309.815	3.56
310.184	3.55
310.554	3.49
310.923	3.52
311.293	3.54
311.662	3.54
312.031	3.52
312.401	3.52
312.77	3.49
313.139	3.49
313.508	3.5
313.877	3.43
314.246	3.42
314.616	3.37
314.985	3.32
315.353	3.32
315.722	3.32
316.091	3.32
316.46	3.34
316.829	3.37
317.198	3.37
317.567	3.49
317.935	3.5
318.304	3.53
318.672	3.54
319.041	3.54
319.41	3.55
319.778	3.59
320.147	3.6
320.515	3.59
320.883	3.57
321.252	3.52
321.62	3.55
321.988	3.56
322.357	3.57
322.725	3.63
323.093	3.63
323.461	3.63
323.829	3.63
324.197	3.62
324.565	3.6
324.933	3.6
325.301	3.6
325.669	3.6
326.037	3.6
326.405	3.54
326.772	3.55
327.14	3.55
327.508	3.52
327.875	3.53
328.243	3.53
328.61	3.5
328.978	3.51
329.346	3.51
329.713	3.49
330.08	3.5
330.448	3.48
330.815	3.46
331.182	3.46
331.55	3.45
331.917	3.45
332.284	3.43
332.651	3.44
333.018	3.43
333.385	3.43
333.752	3.44
334.119	3.44
334.486	3.44
334.853	3.39
335.22	3.39
335.587	3.38
335.954	3.39
336.32	3.41
336.687	3.39
337.054	3.38
337.42	3.4
337.787	3.4
338.153	3.42
338.52	3.46
338.886	3.49
339.253	3.48
339.619	3.47
339.986	3.44
340.352	3.43
340.718	3.44
341.084	3.43
341.451	3.43
341.817	3.41
342.183	3.4
342.549	3.43
342.915	3.43
343.281	3.44
343.647	3.45
344.013	3.48
344.379	3.48
344.745	3.5
345.11	3.5
345.476	3.52
345.842	3.52
346.208	3.5
346.573	3.49
346.939	3.51
347.304	3.51
347.67	3.52
348.035	3.53
348.401	3.52
348.766	3.53
349.132	3.53
349.497	3.55
349.862	3.57
350.228	3.59
350.593	3.6
350.958	3.59
351.323	3.57
351.688	3.58
352.053	3.57
352.418	3.57
352.783	3.56
353.148	3.55
353.513	3.54
353.878	3.54
354.243	3.54
354.608	3.53
354.972	3.55
355.337	3.55
355.702	3.53
356.066	3.54
356.431	3.53
356.795	3.53
357.16	3.51
357.524	3.51
357.889	3.5
358.253	3.5
358.618	3.51
358.982	3.52
359.346	3.52
359.71	3.52
360.075	3.52
360.439	3.52
360.803	3.51
361.167	3.51
361.531	3.53
361.895	3.53
362.259	3.53
362.623	3.52
362.987	3.52
363.351	3.53
363.714	3.54
364.078	3.54
364.442	3.54
364.806	3.54
365.169	3.53
365.533	3.53
365.896	3.52
366.26	3.53
366.623	3.52
366.987	3.52
367.35	3.52
367.714	3.53
368.077	3.53
368.44	3.53
368.803	3.54
369.167	3.53
369.53	3.54
369.893	3.55
370.256	3.55
370.619	3.57
370.982	3.56
371.345	3.56
371.708	3.56
372.071	3.56
372.434	3.56
372.797	3.58
373.159	3.6
373.522	3.6
373.885	3.6
374.247	3.58
374.61	3.58
374.973	3.58
375.335	3.57
375.698	3.57
376.06	3.57
376.423	3.57
376.785	3.57
377.147	3.56
377.51	3.57
377.872	3.57
378.234	3.57
378.596	3.59
378.958	3.61
379.321	3.61
379.683	3.62
380.045	3.61
380.407	3.61
380.769	3.6
381.13	3.61
381.492	3.62
381.854	3.62
382.216	3.62
382.578	3.62
382.939	3.63
383.301	3.62
383.663	3.64
384.024	3.63
384.386	3.64
384.747	3.63
385.109	3.62
385.47	3.62
385.832	3.62
386.193	3.62
386.554	3.63
386.916	3.63
387.277	3.64
387.638	3.65
387.999	3.65
388.36	3.65
388.721	3.65
389.082	3.66
389.443	3.66
389.804	3.67
390.165	3.67
390.526	3.68
390.887	3.68
391.248	3.68
391.609	3.69
391.969	3.69
392.33	3.7
392.691	3.71
393.051	3.71
393.412	3.7
393.772	3.7
394.133	3.71
394.493	3.7
394.854	3.71
395.214	3.7
395.574	3.7
395.935	3.7
396.295	3.7
396.655	3.7
397.015	3.7
397.376	3.7
397.736	3.71
398.096	3.7
398.456	3.7
398.816	3.72
399.176	3.71
399.535	3.72
399.895	3.73
400.255	3.73
400.615	3.74
400.975	3.74
401.334	3.74
401.694	3.74
402.054	3.74
402.413	3.73
402.773	3.73
403.132	3.74
403.492	3.74
403.851	3.74
404.211	3.75
404.57	3.76
404.929	3.77
405.288	3.77
405.648	3.77
406.007	3.77
406.366	3.78
406.725	3.79
407.084	3.78
407.443	3.79
407.802	3.78
408.161	3.78
408.52	3.78
408.879	3.78
409.238	3.78
409.596	3.79
409.955	3.8
410.314	3.81
410.673	3.8
411.031	3.81
411.39	3.82
411.748	3.83
412.107	3.84
412.465	3.86
412.824	3.88
413.182	3.9
413.54	3.92
413.899	3.94
414.257	3.97
414.615	4.01
414.974	4.04
415.332	4.08
415.69	4.12
416.048	4.15
416.406	4.19
416.764	4.22
417.122	4.25
417.48	4.28
417.838	4.31
418.195	4.34
418.553	4.36
418.911	4.38
419.269	4.38
419.626	4.38
419.984	4.37
420.342	4.36
420.699	4.35
421.057	4.33
421.414	4.32
421.772	4.31
422.129	4.31
422.486	4.31
422.844	4.31
423.201	4.31
423.558	4.31
423.915	4.31
424.273	4.31
424.63	4.31
424.987	4.3
425.344	4.31
425.701	4.31
426.058	4.31
426.415	4.31
426.772	4.31
427.128	4.3
427.485	4.29
427.842	4.29
428.199	4.28
428.555	4.27
428.912	4.25
429.269	4.23
429.625	4.22
429.982	4.19
430.338	4.17
430.695	4.15
431.051	4.12
431.407	4.1
431.764	4.08
432.12	4.06
432.476	4.05
432.832	4.04
433.189	4.04
433.545	4.05
433.901	4.06
434.257	4.08
434.613	4.1
434.969	4.13
435.325	4.16
435.681	4.2
436.036	4.21
436.392	4.23
436.748	4.23
437.104	4.23
437.459	4.25
437.815	4.27
438.171	4.29
438.526	4.31
438.882	4.34
439.237	4.38
439.593	4.41
439.948	4.44
440.304	4.48
440.659	4.5
441.014	4.52
441.369	4.54
441.725	4.56
442.08	4.58
442.435	4.59
442.79	4.6
443.145	4.6
443.5	4.6
443.855	4.6
444.21	4.6
444.565	4.59
444.92	4.59
445.275	4.58
445.629	4.57
445.984	4.57
446.339	4.56
446.693	4.56
447.048	4.54
447.403	4.53
447.757	4.51
448.112	4.5
448.466	4.48
448.82	4.47
449.175	4.45
449.529	4.44
449.883	4.43
450.238	4.4
450.592	4.4
450.946	4.4
451.3	4.4
451.654	4.42
452.008	4.42
452.362	4.43
452.716	4.43
453.07	4.43
453.424	4.43
453.778	4.42
454.132	4.41
454.486	4.4
454.839	4.39
455.193	4.37
455.547	4.36
455.9	4.32
456.254	4.3
456.607	4.28
456.961	4.25
457.314	4.23
457.668	4.22
458.021	4.22
458.375	4.21
458.728	4.22
459.081	4.22
459.434	4.23
459.787	4.24
460.141	4.25
460.494	4.26
460.847	4.26
461.2	4.27
461.553	4.28
461.906	4.28
462.259	4.29
462.611	4.29
462.964	4.3
463.317	4.3
463.67	4.3
464.022	4.3
464.375	4.3
464.728	4.3
465.08	4.3
465.433	4.3
465.785	4.29
466.138	4.28
466.49	4.26
466.843	4.24
467.195	4.22
467.547	4.2
467.899	4.18
468.252	4.15
468.604	4.13
468.956	4.1
469.308	4.09
469.66	4.09
470.012	4.08
470.364	4.08
470.716	4.09
471.068	4.11
471.42	4.13
471.772	4.15
472.123	4.16
472.475	4.17
472.827	4.18
473.178	4.18
473.53	4.19
473.882	4.2
474.233	4.22
474.585	4.26
474.936	4.32
475.288	4.41
475.639	4.52
475.99	4.66
476.342	4.81
476.693	4.97
477.044	5.13
477.395	5.31
477.746	5.48
478.097	5.66
478.448	5.84
478.8	6.01
479.15	6.17
479.501	6.31
479.852	6.45
480.203	6.58
480.554	6.7
480.905	6.82
481.255	6.93
481.606	7.04
481.957	7.13
482.307	7.23
482.658	7.32
483.009	7.4
483.359	7.49
483.709	7.56
484.06	7.64
484.41	7.72
484.761	7.8
485.111	7.87
485.461	7.93
485.811	8
486.162	8.05
486.512	8.1
486.862	8.14
487.212	8.17
487.562	8.19
487.912	8.21
488.262	8.21
488.612	8.21
488.961	8.19
489.311	8.15
489.661	8.08
490.011	7.99
490.36	7.88
490.71	7.75
491.06	7.62
491.409	7.48
491.759	7.33
492.108	7.17
492.458	7.02
492.807	6.85
493.157	6.68
493.506	6.52
493.855	6.37
494.204	6.22
494.554	6.09
494.903	5.96
495.252	5.84
495.601	5.73
495.95	5.61
496.299	5.51
496.648	5.41
496.997	5.32
497.346	5.23
497.695	5.14
498.043	5.06
498.392	4.98
498.741	4.9
499.09	4.82
499.438	4.74
499.787	4.67
500.135	4.6
500.484	4.54
500.832	4.5
501.181	4.45
501.529	4.42
501.878	4.41
502.226	4.39
502.574	4.39
502.923	4.39
503.271	4.38
503.619	4.39
503.967	4.39
504.315	4.38
504.663	4.38
505.011	4.37
505.359	4.37
505.707	4.36
506.055	4.36
506.403	4.36
506.751	4.36
507.098	4.37
507.446	4.37
507.794	4.38
508.141	4.39
508.489	4.41
508.837	4.43
509.184	4.44
509.531	4.45
509.879	4.46
510.226	4.47
510.574	4.49
510.921	4.5
511.268	4.51
511.616	4.53
511.963	4.55
512.31	4.56
512.657	4.58
513.004	4.6
513.351	4.61
513.698	4.62
514.045	4.62
514.392	4.63
514.739	4.63
515.086	4.63
515.432	4.63
515.779	4.63
516.126	4.63
516.473	4.64
516.819	4.64
517.166	4.65
517.512	4.66
517.859	4.67
518.205	4.68
518.552	4.71
518.898	4.74
519.245	4.78
519.591	4.83
519.937	4.91
520.283	5
520.629	5.1
520.976	5.21
521.322	5.33
521.668	5.45
522.014	5.56
522.36	5.67
522.706	5.79
523.052	5.9
523.398	6.01
523.743	6.1
524.089	6.18
524.435	6.24
524.781	6.31
525.126	6.37
525.472	6.43
525.817	6.49
526.163	6.54
526.509	6.59
526.854	6.64
527.199	6.69
527.545	6.73
527.89	6.78
528.235	6.83
528.581	6.88
528.926	6.92
529.271	6.97
529.616	7.01
529.961	7.03
530.306	7.05
530.651	7.08
530.996	7.09
531.341	7.1
531.686	7.11
532.031	7.11
532.376	7.11
532.721	7.11
533.065	7.11
533.41	7.12
533.755	7.12
534.099	7.08
534.444	7.05
534.788	7.02
535.133	6.98
535.477	6.93
535.822	6.88
536.166	6.82
536.51	6.75
536.855	6.68
537.199	6.59
537.543	6.52
537.887	6.45
538.231	6.39
538.576	6.33
538.92	6.27
539.264	6.21
539.608	6.16
539.951	6.1
540.295	6.04
540.639	5.97
540.983	5.91
541.327	5.86
541.671	5.8
542.014	5.74
542.358	5.69
542.701	5.65
543.045	5.62
543.389	5.6
543.732	5.58
544.075	5.56
544.419	5.55
544.762	5.53
545.105	5.52
545.449	5.52
545.792	5.51
546.135	5.51
546.478	5.5
546.821	5.48
547.165	5.45
547.508	5.4
547.851	5.36
548.194	5.3
548.536	5.24
548.879	5.18
549.222	5.11
549.565	5.04
549.908	4.97
550.25	4.91
550.593	4.86
550.936	4.82
551.278	4.78
551.621	4.75
551.963	4.72
552.306	4.7
552.648	4.69
552.991	4.67
553.333	4.66
553.675	4.66
554.017	4.66
554.36	4.67
554.702	4.68
555.044	4.69
555.386	4.7
555.728	4.72
556.07	4.73
556.412	4.74
556.754	4.74
557.096	4.74
557.438	4.74
557.78	4.74
558.121	4.74
558.463	4.74
558.805	4.74
559.147	4.74
559.488	4.74
559.83	4.75
560.171	4.76
560.513	4.76
560.854	4.75
561.196	4.75
561.537	4.76
561.878	4.76
562.22	4.76
562.561	4.76
562.902	4.78
563.243	4.78
563.584	4.78
563.925	4.79
564.266	4.79
564.607	4.79
564.948	4.8
565.289	4.8
565.63	4.8
565.971	4.81
566.312	4.82
566.653	4.82
566.993	4.82
567.334	4.82
567.675	4.82
568.015	4.84
568.356	4.84
568.696	4.84
569.037	4.85
569.377	4.85
569.718	4.86
570.058	4.86
570.398	4.86
570.739	4.86
571.079	4.86
571.419	4.86
571.759	4.86
572.099	4.86
572.439	4.86
572.779	4.87
573.119	4.87
573.459	4.86
573.799	4.87
574.139	4.87
574.479	4.88
574.819	4.88
575.158	4.88
575.498	4.88
575.838	4.88
576.177	4.88
576.517	4.89
576.856	4.88
577.196	4.88
577.535	4.88
577.875	4.88
578.214	4.88
578.553	4.89
578.893	4.88
579.232	4.88
579.571	4.88
579.91	4.87
580.25	4.87
580.589	4.87
580.928	4.86
581.267	4.86
581.606	4.86
581.945	4.85
582.283	4.85
582.622	4.86
582.961	4.86
583.3	4.86
583.639	4.86
583.977	4.86
584.316	4.87
584.654	4.88
584.993	4.88
585.332	4.87
585.67	4.87
586.008	4.87
586.347	4.87
586.685	4.88
587.024	4.88
587.362	4.88
587.7	4.89
588.038	4.89
588.376	4.89
588.715	4.89
589.053	4.9
589.391	4.9
589.729	4.9
590.067	4.89
590.404	4.89
590.742	4.89
591.08	4.9
591.418	4.9
591.756	4.91
592.093	4.92
592.431	4.93
592.769	4.94
593.106	4.95
593.444	4.95
593.781	4.95
594.119	4.95
594.456	4.95
594.793	4.95
595.131	4.95
595.468	4.96
595.805	4.95
596.143	4.96
596.48	4.96
596.817	4.97
597.154	4.98
597.491	4.98
597.828	4.99
598.165	4.99
598.502	5
598.839	4.99
599.176	5
599.512	5
599.849	5.01
600.186	5.02
600.523	5.02
600.859	5.02
601.196	5.03
601.532	5.03
601.869	5.04
602.205	5.04
602.542	5.04
602.878	5.05
603.215	5.04
603.551	5.04
603.887	5.04
604.223	5.05
604.56	5.05
604.896	5.06
605.232	5.06
605.568	5.06
605.904	5.06
606.24	5.06
606.576	5.06
606.912	5.07
607.248	5.06
607.583	5.07
607.919	5.07
608.255	5.08
608.591	5.08
608.926	5.08
609.262	5.09
609.597	5.09
609.933	5.09
610.268	5.11
610.604	5.12
610.939	5.12
611.275	5.11
611.61	5.12
611.945	5.11
612.281	5.12
612.616	5.12
612.951	5.11
613.286	5.11
613.621	5.11
613.956	5.11
614.291	5.11
614.626	5.11
614.961	5.12
615.296	5.13
615.631	5.13
615.966	5.12
616.3	5.13
616.635	5.13
616.97	5.13
617.304	5.13
617.639	5.13
617.973	5.14
618.308	5.14
618.642	5.14
618.977	5.13
619.311	5.13
619.646	5.13
619.98	5.15
620.314	5.15
620.648	5.16
620.983	5.16
621.317	5.17
621.651	5.17
621.985	5.17
622.319	5.17
622.653	5.18
622.987	5.18
623.321	5.18
623.655	5.18
623.988	5.19
624.322	5.19
624.656	5.2
624.99	5.2
625.323	5.2
625.657	5.2
625.99	5.21
626.324	5.22
626.657	5.22
626.991	5.22
627.324	5.22
627.658	5.23
627.991	5.22
628.324	5.23
628.657	5.23
628.991	5.24
629.324	5.25
629.657	5.27
629.99	5.27
630.323	5.28
630.656	5.28
630.989	5.27
631.322	5.28
631.655	5.28
631.987	5.28
632.32	5.29
632.653	5.29
632.986	5.3
633.318	5.31
633.651	5.3
633.984	5.3
634.316	5.31
634.649	5.31
634.981	5.32
635.313	5.32
635.646	5.32
635.978	5.31
636.31	5.3
636.643	5.3
636.975	5.3
637.307	5.3
637.639	5.3
637.971	5.31
638.303	5.32
638.635	5.33
638.967	5.34
639.299	5.34
639.631	5.35
639.963	5.36
640.295	5.37
640.626	5.39
640.958	5.4
641.29	5.39
641.621	5.4
641.953	5.41
642.285	5.41
642.616	5.42
642.948	5.41
643.279	5.42
643.61	5.42
643.942	5.42
644.273	5.43
644.604	5.43
644.936	5.44
645.267	5.44
645.598	5.45
645.929	5.45
646.26	5.45
646.591	5.45
646.922	5.45
647.253	5.45
647.584	5.46
647.915	5.47
648.245	5.49
648.576	5.49
648.907	5.49
649.238	5.48
649.568	5.49
649.899	5.5
650.229	5.51
650.56	5.53
650.89	5.55
651.221	5.55
651.551	5.56
651.882	5.56
652.212	5.55
652.542	5.54
652.872	5.55
653.203	5.57
653.533	5.56
653.863	5.56
654.193	5.56
654.523	5.56
654.853	5.56
655.183	5.57
655.513	5.57
655.843	5.59
656.172	5.6
656.502	5.61
656.832	5.59
657.162	5.59
657.491	5.6
657.821	5.6
658.15	5.61
658.48	5.61
658.809	5.61
659.139	5.61
659.468	5.63
659.798	5.65
660.127	5.65
660.456	5.68
660.785	5.69
661.115	5.7
661.444	5.71
661.773	5.72
662.102	5.72
662.431	5.73
662.76	5.74
663.089	5.74
663.418	5.75
663.747	5.75
664.076	5.75
664.404	5.76
664.733	5.77
665.062	5.79
665.39	5.8
665.719	5.8
666.048	5.81
666.376	5.81
666.705	5.8
667.033	5.79
667.362	5.79
667.69	5.8
668.018	5.8
668.347	5.82
668.675	5.8
669.003	5.81
669.331	5.81
669.659	5.8
669.987	5.82
670.315	5.82
670.643	5.85
670.971	5.85
671.299	5.84
671.627	5.84
671.955	5.84
672.283	5.84
672.61	5.86
672.938	5.88
673.266	5.88
673.593	5.89
673.921	5.89
674.249	5.9
674.576	5.91
674.904	5.92
675.231	5.93
675.558	5.95
675.886	5.97
676.213	5.97
676.54	5.97
676.867	5.98
677.195	5.98
677.522	5.99
677.849	6.01
678.176	6.01
678.503	6.02
678.83	6.03
679.157	6.05
679.484	6.04
