Data from UWBM50074_Reflection_00002.txt Node
Date: Sun May 02 12:34:02 EDT 2021
User: vgr7
Spectrometer: USB2G7710
Scans to average: 10
Trigger mode: 4
Integration Time (sec): 1.000000E-1
Electric dark correction enabled: true
Boxcar width: 10
XAxis mode: Wavelengths
Number of Pixels in Spectrum: 2048
>>>>>Begin Spectral Data<<<<<
177.721	106.45
178.105	95.45
178.488	172.13
178.871	396.23
179.254	780
179.636	108.46
180.019	70.99
180.402	-94.74
180.785	120.67
181.168	101.44
181.55	125.2
181.933	-133.85
182.316	-112.8
182.698	-198.88
183.081	-237.6
183.463	375.95
183.846	92.61
184.228	100.55
184.611	102.99
184.993	55.9
185.376	37.62
185.758	21.02
186.14	12.08
186.522	13.83
186.904	24.32
187.287	24.54
187.669	19.12
188.051	9.51
188.433	10.72
188.815	5.61
189.197	10.24
189.579	12.61
189.961	13.62
190.342	8.07
190.724	10.97
191.106	6.27
191.488	10.2
191.869	8.64
192.251	8.72
192.633	6.02
193.014	8.62
193.396	9.19
193.777	12.65
194.159	15.51
194.54	11.08
194.922	9.57
195.303	12.02
195.684	11.59
196.065	12.72
196.447	10.15
196.828	10.06
197.209	6.31
197.59	1.33
197.971	-1.33
198.352	2.09
198.733	5.79
199.114	5.68
199.495	0.97
199.876	-0.96
200.257	0.51
200.638	-0.66
201.018	-0.07
201.399	-1.4
201.78	-1.74
202.16	-3.91
202.541	-4.07
202.922	-2.94
203.302	-3.61
203.683	-3.58
204.063	-4.12
204.444	-1.89
204.824	0.34
205.204	1.4
205.585	2.29
205.965	2.98
206.345	3.39
206.725	-1.78
207.106	0.07
207.486	2.82
207.866	6.6
208.246	3.82
208.626	6.74
209.006	6.69
209.386	7.24
209.766	4.36
210.145	1.76
210.525	0.83
210.905	0.57
211.285	-0.43
211.664	-1.97
212.044	-1.05
212.424	1.29
212.803	0.56
213.183	2.75
213.562	3.97
213.942	4.01
214.321	1.05
214.701	0.9
215.08	1.22
215.459	0.51
215.838	-1.8
216.218	1.83
216.597	1.27
216.976	-1.53
217.355	-0.17
217.734	2.05
218.113	4.14
218.492	6.42
218.871	9.04
219.25	9.35
219.629	9.33
220.008	10.39
220.387	9.58
220.766	6.63
221.144	6.17
221.523	5.99
221.902	5.4
222.28	6.22
222.659	5.11
223.037	6.68
223.416	7.46
223.794	8.08
224.173	7.98
224.551	7.46
224.929	7.88
225.308	8.32
225.686	8.1
226.064	8.44
226.442	8.64
226.821	7.65
227.199	7.84
227.577	6.89
227.955	6.12
228.333	5.94
228.711	6.45
229.089	7.19
229.467	6.97
229.845	7.33
230.222	7.88
230.6	8.41
230.978	7.77
231.356	7.54
231.733	7.39
232.111	7.27
232.488	6.98
232.866	6.92
233.243	6.86
233.621	7.36
233.998	7.03
234.376	6.66
234.753	6.73
235.13	6.65
235.508	7.33
235.885	7.35
236.262	7.18
236.639	7.08
237.016	6.93
237.393	6.88
237.77	6.92
238.147	6.63
238.524	6.68
238.901	6.77
239.278	6.56
239.655	6.48
240.032	6.34
240.409	6.39
240.785	6.26
241.162	6.13
241.539	6.02
241.915	6.06
242.292	6.08
242.668	6.07
243.045	5.96
243.421	5.8
243.798	5.83
244.174	5.8
244.551	5.77
244.927	5.7
245.303	5.61
245.679	5.61
246.056	5.54
246.432	5.51
246.808	5.4
247.184	5.41
247.56	5.38
247.936	5.42
248.312	5.43
248.688	5.45
249.064	5.44
249.44	5.44
249.815	5.46
250.191	5.4
250.567	5.32
250.943	5.36
251.318	5.39
251.694	5.3
252.069	5.27
252.445	5.29
252.82	5.26
253.196	5.29
253.571	5.19
253.947	5.33
254.322	5.29
254.697	5.33
255.073	5.26
255.448	5.26
255.823	5.15
256.198	5.03
256.573	4.96
256.948	4.96
257.323	4.93
257.698	4.87
258.073	4.88
258.448	4.9
258.823	4.88
259.198	4.87
259.573	4.88
259.948	4.9
260.322	4.87
260.697	4.87
261.072	4.87
261.446	4.87
261.821	4.82
262.195	4.82
262.57	4.83
262.944	4.82
263.319	4.8
263.693	4.81
264.067	4.84
264.442	4.86
264.816	4.84
265.19	4.83
265.564	4.83
265.938	4.82
266.313	4.79
266.687	4.75
267.061	4.81
267.435	4.8
267.809	4.79
268.183	4.8
268.556	4.81
268.93	4.81
269.304	4.77
269.678	4.73
270.051	4.71
270.425	4.68
270.799	4.7
271.172	4.69
271.546	4.69
271.919	4.71
272.293	4.71
272.666	4.72
273.04	4.72
273.413	4.67
273.787	4.68
274.16	4.69
274.533	4.72
274.906	4.68
275.279	4.69
275.653	4.67
276.026	4.63
276.399	4.61
276.772	4.6
277.145	4.65
277.518	4.68
277.891	4.73
278.263	4.73
278.636	4.79
279.009	4.79
279.382	4.78
279.755	4.75
280.127	4.75
280.5	4.72
280.872	4.73
281.245	4.79
281.617	4.79
281.99	4.8
282.362	4.77
282.735	4.74
283.107	4.76
283.479	4.8
283.852	4.82
284.224	4.82
284.596	4.82
284.968	4.8
285.34	4.8
285.713	4.82
286.085	4.8
286.457	4.78
286.829	4.79
287.201	4.8
287.572	4.82
287.944	4.83
288.316	4.86
288.688	4.88
289.06	4.87
289.431	4.88
289.803	4.87
290.175	4.89
290.546	4.89
290.918	4.9
291.289	4.88
291.661	4.91
292.032	4.92
292.403	4.94
292.775	4.95
293.146	4.96
293.517	4.94
293.889	4.98
294.26	4.96
294.631	4.97
295.002	4.98
295.373	5
295.744	5
296.115	5.02
296.486	4.99
296.857	4.98
297.228	4.99
297.599	5
297.97	5
298.34	5.01
298.711	5
299.082	4.98
299.452	4.98
299.823	5
300.194	5.01
300.564	5.01
300.935	5.01
301.305	5
301.676	4.99
302.046	4.99
302.416	4.98
302.787	4.98
303.157	4.97
303.527	4.99
303.897	4.98
304.267	5.01
304.637	5.03
305.008	5.05
305.378	5.07
305.748	5.09
306.117	5.09
306.487	5.08
306.857	5.1
307.227	5.11
307.597	5.09
307.967	5.1
308.336	5.11
308.706	5.1
309.076	5.11
309.445	5.14
309.815	5.14
310.184	5.13
310.554	5.15
310.923	5.14
311.293	5.13
311.662	5.12
312.031	5.1
312.401	5.09
312.77	5.06
313.139	5.04
313.508	5.03
313.877	5.06
314.246	5.07
314.616	5.08
314.985	5.08
315.353	5.07
315.722	5.06
316.091	5.04
316.46	5.08
316.829	5.09
317.198	5.08
317.567	5.08
317.935	5.11
318.304	5.08
318.672	5.12
319.041	5.13
319.41	5.13
319.778	5.16
320.147	5.17
320.515	5.17
320.883	5.18
321.252	5.16
321.62	5.12
321.988	5.14
322.357	5.13
322.725	5.13
323.093	5.15
323.461	5.15
323.829	5.14
324.197	5.1
324.565	5.1
324.933	5.08
325.301	5.11
325.669	5.11
326.037	5.12
326.405	5.1
326.772	5.07
327.14	5.06
327.508	5.05
327.875	5.05
328.243	5.06
328.61	5.05
328.978	5.07
329.346	5.09
329.713	5.07
330.08	5.07
330.448	5.07
330.815	5.08
331.182	5.07
331.55	5.11
331.917	5.15
332.284	5.13
332.651	5.14
333.018	5.11
333.385	5.1
333.752	5.11
334.119	5.12
334.486	5.14
334.853	5.15
335.22	5.14
335.587	5.15
335.954	5.15
336.32	5.14
336.687	5.12
337.054	5.11
337.42	5.13
337.787	5.1
338.153	5.1
338.52	5.07
338.886	5.08
339.253	5.05
339.619	5.04
339.986	5.06
340.352	5.06
340.718	5.1
341.084	5.09
341.451	5.07
341.817	5.07
342.183	5.08
342.549	5.07
342.915	5.07
343.281	5.05
343.647	5.06
344.013	5.07
344.379	5.11
344.745	5.11
345.11	5.11
345.476	5.13
345.842	5.13
346.208	5.13
346.573	5.12
346.939	5.14
347.304	5.12
347.67	5.11
348.035	5.12
348.401	5.09
348.766	5.1
349.132	5.1
349.497	5.11
349.862	5.1
350.228	5.1
350.593	5.12
350.958	5.12
351.323	5.11
351.688	5.1
352.053	5.07
352.418	5.07
352.783	5.04
353.148	5.03
353.513	5.03
353.878	5.04
354.243	5.05
354.608	5.05
354.972	5.07
355.337	5.06
355.702	5.05
356.066	5.05
356.431	5.05
356.795	5.05
357.16	5.04
357.524	5.03
357.889	5.03
358.253	5.02
358.618	5.04
358.982	5.04
359.346	5.04
359.71	5.04
360.075	5.03
360.439	5.04
360.803	5.03
361.167	5.03
361.531	5.02
361.895	5.01
362.259	5.01
362.623	5
362.987	5
363.351	5.01
363.714	5.01
364.078	5
364.442	4.99
364.806	4.99
365.169	4.99
365.533	4.98
365.896	4.98
366.26	4.97
366.623	4.97
366.987	4.97
367.35	4.97
367.714	4.99
368.077	4.99
368.44	4.99
368.803	4.98
369.167	4.98
369.53	4.99
369.893	4.99
370.256	4.99
370.619	4.99
370.982	4.97
371.345	4.96
371.708	4.97
372.071	4.97
372.434	4.98
372.797	5
373.159	5.01
373.522	5
373.885	5.01
374.247	5.01
374.61	5.01
374.973	5.01
375.335	5.01
375.698	5.01
376.06	5.02
376.423	5.04
376.785	5.03
377.147	5.02
377.51	5.03
377.872	5.04
378.234	5.03
378.596	5.06
378.958	5.07
379.321	5.09
379.683	5.09
380.045	5.08
380.407	5.07
380.769	5.07
381.13	5.07
381.492	5.06
381.854	5.06
382.216	5.05
382.578	5.05
382.939	5.06
383.301	5.05
383.663	5.05
384.024	5.04
384.386	5.05
384.747	5.05
385.109	5.04
385.47	5.03
385.832	5.03
386.193	5.03
386.554	5.03
386.916	5.03
387.277	5.02
387.638	5.03
387.999	5.02
388.36	5.03
388.721	5.03
389.082	5.03
389.443	5.03
389.804	5.04
390.165	5.04
390.526	5.03
390.887	5.04
391.248	5.04
391.609	5.04
391.969	5.04
392.33	5.05
392.691	5.06
393.051	5.07
393.412	5.06
393.772	5.06
394.133	5.06
394.493	5.05
394.854	5.06
395.214	5.06
395.574	5.07
395.935	5.07
396.295	5.07
396.655	5.08
397.015	5.08
397.376	5.08
397.736	5.09
398.096	5.09
398.456	5.09
398.816	5.09
399.176	5.09
399.535	5.1
399.895	5.1
400.255	5.09
400.615	5.09
400.975	5.1
401.334	5.09
401.694	5.1
402.054	5.11
402.413	5.11
402.773	5.11
403.132	5.11
403.492	5.11
403.851	5.11
404.211	5.11
404.57	5.12
404.929	5.13
405.288	5.12
405.648	5.13
406.007	5.13
406.366	5.14
406.725	5.14
407.084	5.14
407.443	5.13
407.802	5.13
408.161	5.13
408.52	5.14
408.879	5.14
409.238	5.14
409.596	5.14
409.955	5.14
410.314	5.14
410.673	5.14
411.031	5.14
411.39	5.14
411.748	5.14
412.107	5.14
412.465	5.14
412.824	5.15
413.182	5.15
413.54	5.16
413.899	5.16
414.257	5.17
414.615	5.17
414.974	5.18
415.332	5.2
415.69	5.21
416.048	5.23
416.406	5.29
416.764	5.32
417.122	5.38
417.48	5.44
417.838	5.5
418.195	5.59
418.553	5.65
418.911	5.73
419.269	5.8
419.626	5.87
419.984	5.96
420.342	6.01
420.699	6.07
421.057	6.14
421.414	6.2
421.772	6.26
422.129	6.31
422.486	6.36
422.844	6.38
423.201	6.38
423.558	6.36
423.915	6.31
424.273	6.26
424.63	6.19
424.987	6.11
425.344	6.03
425.701	5.95
426.058	5.89
426.415	5.82
426.772	5.75
427.128	5.69
427.485	5.59
427.842	5.53
428.199	5.46
428.555	5.39
428.912	5.32
429.269	5.26
429.625	5.2
429.982	5.15
430.338	5.12
430.695	5.12
431.051	5.13
431.407	5.16
431.764	5.18
432.12	5.22
432.476	5.27
432.832	5.29
433.189	5.31
433.545	5.32
433.901	5.32
434.257	5.33
434.613	5.33
434.969	5.36
435.325	5.39
435.681	5.41
436.036	5.45
436.392	5.49
436.748	5.55
437.104	5.6
437.459	5.66
437.815	5.72
438.171	5.77
438.526	5.8
438.882	5.85
439.237	5.9
439.593	5.92
439.948	5.95
440.304	5.98
440.659	6
441.014	6.05
441.369	6.09
441.725	6.14
442.08	6.2
442.435	6.26
442.79	6.33
443.145	6.4
443.5	6.43
443.855	6.49
444.21	6.5
444.565	6.5
444.92	6.52
445.275	6.51
445.629	6.51
445.984	6.52
446.339	6.49
446.693	6.45
447.048	6.44
447.403	6.41
447.757	6.39
448.112	6.37
448.466	6.31
448.82	6.25
449.175	6.18
449.529	6.1
449.883	6.01
450.238	5.91
450.592	5.82
450.946	5.74
451.3	5.64
451.654	5.58
452.008	5.51
452.362	5.43
452.716	5.38
453.07	5.31
453.424	5.27
453.778	5.25
454.132	5.24
454.486	5.25
454.839	5.26
455.193	5.31
455.547	5.36
455.9	5.43
456.254	5.51
456.607	5.59
456.961	5.67
457.314	5.76
457.668	5.84
458.021	5.9
458.375	5.95
458.728	5.98
459.081	6
459.434	6.01
459.787	6.02
460.141	6
460.494	5.98
460.847	5.94
461.2	5.93
461.553	5.9
461.906	5.89
462.259	5.87
462.611	5.83
462.964	5.78
463.317	5.73
463.67	5.67
464.022	5.61
464.375	5.56
464.728	5.48
465.08	5.42
465.433	5.37
465.785	5.32
466.138	5.31
466.49	5.28
466.843	5.28
467.195	5.29
467.547	5.32
467.899	5.36
468.252	5.4
468.604	5.42
468.956	5.45
469.308	5.46
469.66	5.47
470.012	5.48
470.364	5.48
470.716	5.49
471.068	5.49
471.42	5.5
471.772	5.49
472.123	5.5
472.475	5.5
472.827	5.5
473.178	5.51
473.53	5.51
473.882	5.51
474.233	5.52
474.585	5.53
474.936	5.53
475.288	5.53
475.639	5.55
475.99	5.56
476.342	5.57
476.693	5.58
477.044	5.59
477.395	5.63
477.746	5.68
478.097	5.77
478.448	5.92
478.8	6.15
479.15	6.44
479.501	6.77
479.852	7.13
480.203	7.51
480.554	7.92
480.905	8.35
481.255	8.77
481.606	9.2
481.957	9.63
482.307	10.06
482.658	10.47
483.009	10.84
483.359	11.19
483.709	11.52
484.06	11.85
484.41	12.17
484.761	12.45
485.111	12.71
485.461	12.91
485.811	13.05
486.162	13.1
486.512	13.09
486.862	13.01
487.212	12.91
487.562	12.75
487.912	12.57
488.262	12.37
488.612	12.15
488.961	11.91
489.311	11.65
489.661	11.38
490.011	11.12
490.36	10.85
490.71	10.56
491.06	10.28
491.409	9.99
491.759	9.71
492.108	9.43
492.458	9.16
492.807	8.9
493.157	8.65
493.506	8.42
493.855	8.2
494.204	7.98
494.554	7.76
494.903	7.57
495.252	7.37
495.601	7.17
495.95	6.97
496.299	6.78
496.648	6.6
496.997	6.42
497.346	6.26
497.695	6.13
498.043	6.04
498.392	5.97
498.741	5.91
499.09	5.87
499.438	5.83
499.787	5.79
500.135	5.77
500.484	5.75
500.832	5.73
501.181	5.7
501.529	5.67
501.878	5.65
502.226	5.63
502.574	5.62
502.923	5.6
503.271	5.6
503.619	5.61
503.967	5.63
504.315	5.65
504.663	5.69
505.011	5.72
505.359	5.75
505.707	5.78
506.055	5.81
506.403	5.84
506.751	5.87
507.098	5.9
507.446	5.92
507.794	5.93
508.141	5.94
508.489	5.96
508.837	5.97
509.184	5.98
509.531	5.98
509.879	5.98
510.226	5.98
510.574	5.98
510.921	5.98
511.268	5.98
511.616	5.97
511.963	5.96
512.31	5.96
512.657	5.96
513.004	5.97
513.351	5.98
513.698	5.99
514.045	6.01
514.392	6.03
514.739	6.06
515.086	6.1
515.432	6.14
515.779	6.19
516.126	6.23
516.473	6.27
516.819	6.3
517.166	6.33
517.512	6.36
517.859	6.37
518.205	6.37
518.552	6.37
518.898	6.37
519.245	6.37
519.591	6.36
519.937	6.35
520.283	6.36
520.629	6.36
520.976	6.38
521.322	6.4
521.668	6.42
522.014	6.46
522.36	6.5
522.706	6.55
523.052	6.66
523.398	6.8
523.743	7
524.089	7.24
524.435	7.5
524.781	7.78
525.126	8.08
525.472	8.4
525.817	8.73
526.163	9.06
526.509	9.38
526.854	9.68
527.199	9.94
527.545	10.15
527.89	10.33
528.235	10.49
528.581	10.63
528.926	10.77
529.271	10.88
529.616	10.98
529.961	11.04
530.306	11.05
530.651	11.01
530.996	10.92
531.341	10.81
531.686	10.67
532.031	10.5
532.376	10.29
532.721	10.06
533.065	9.82
533.41	9.58
533.755	9.34
534.099	9.12
534.444	8.92
534.788	8.74
535.133	8.6
535.477	8.45
535.822	8.32
536.166	8.22
536.51	8.14
536.855	8.08
537.199	8.05
537.543	8.04
537.887	8.05
538.231	8.07
538.576	8.09
538.92	8.12
539.264	8.17
539.608	8.23
539.951	8.28
540.295	8.31
540.639	8.33
540.983	8.35
541.327	8.35
541.671	8.36
542.014	8.37
542.358	8.36
542.701	8.35
543.045	8.31
543.389	8.25
543.732	8.16
544.075	8.04
544.419	7.9
544.762	7.73
545.105	7.53
545.449	7.34
545.792	7.16
546.135	6.98
546.478	6.82
546.821	6.67
547.165	6.54
547.508	6.43
547.851	6.34
548.194	6.26
548.536	6.2
548.879	6.14
549.222	6.09
549.565	6.05
549.908	6.02
550.25	6
550.593	5.99
550.936	5.99
551.278	5.99
551.621	6.01
551.963	6.05
552.306	6.1
552.648	6.14
552.991	6.16
553.333	6.17
553.675	6.17
554.017	6.17
554.36	6.17
554.702	6.16
555.044	6.16
555.386	6.16
555.728	6.17
556.07	6.16
556.412	6.16
556.754	6.15
557.096	6.15
557.438	6.14
557.78	6.14
558.121	6.14
558.463	6.13
558.805	6.14
559.147	6.15
559.488	6.15
559.83	6.15
560.171	6.16
560.513	6.16
560.854	6.17
561.196	6.17
561.537	6.18
561.878	6.19
562.22	6.2
562.561	6.21
562.902	6.22
563.243	6.23
563.584	6.23
563.925	6.24
564.266	6.25
564.607	6.25
564.948	6.26
565.289	6.26
565.63	6.27
565.971	6.27
566.312	6.28
566.653	6.28
566.993	6.28
567.334	6.27
567.675	6.29
568.015	6.29
568.356	6.29
568.696	6.29
569.037	6.29
569.377	6.29
569.718	6.3
570.058	6.3
570.398	6.3
570.739	6.31
571.079	6.31
571.419	6.32
571.759	6.32
572.099	6.33
572.439	6.34
572.779	6.34
573.119	6.35
573.459	6.35
573.799	6.35
574.139	6.36
574.479	6.37
574.819	6.37
575.158	6.37
575.498	6.37
575.838	6.37
576.177	6.38
576.517	6.38
576.856	6.37
577.196	6.37
577.535	6.36
577.875	6.37
578.214	6.36
578.553	6.36
578.893	6.35
579.232	6.34
579.571	6.34
579.91	6.34
580.25	6.34
580.589	6.34
580.928	6.33
581.267	6.32
581.606	6.32
581.945	6.32
582.283	6.32
582.622	6.34
582.961	6.34
583.3	6.34
583.639	6.34
583.977	6.34
584.316	6.34
584.654	6.35
584.993	6.35
585.332	6.35
585.67	6.35
586.008	6.37
586.347	6.37
586.685	6.38
587.024	6.37
587.362	6.38
587.7	6.39
588.038	6.39
588.376	6.4
588.715	6.4
589.053	6.4
589.391	6.41
589.729	6.41
590.067	6.41
590.404	6.41
590.742	6.41
591.08	6.42
591.418	6.43
591.756	6.42
592.093	6.44
592.431	6.45
592.769	6.46
593.106	6.45
593.444	6.45
593.781	6.46
594.119	6.46
594.456	6.46
594.793	6.47
595.131	6.48
595.468	6.48
595.805	6.49
596.143	6.49
596.48	6.49
596.817	6.49
597.154	6.5
597.491	6.5
597.828	6.49
598.165	6.49
598.502	6.49
598.839	6.49
599.176	6.49
599.512	6.48
599.849	6.47
600.186	6.49
600.523	6.49
600.859	6.49
601.196	6.5
601.532	6.52
601.869	6.52
602.205	6.52
602.542	6.53
602.878	6.53
603.215	6.54
603.551	6.54
603.887	6.54
604.223	6.55
604.56	6.56
604.896	6.56
605.232	6.57
605.568	6.57
605.904	6.57
606.24	6.58
606.576	6.6
606.912	6.61
607.248	6.61
607.583	6.62
607.919	6.61
608.255	6.62
608.591	6.62
608.926	6.61
609.262	6.61
609.597	6.61
609.933	6.61
610.268	6.61
610.604	6.61
610.939	6.62
611.275	6.62
611.61	6.62
611.945	6.62
612.281	6.63
612.616	6.62
612.951	6.62
613.286	6.63
613.621	6.62
613.956	6.62
614.291	6.63
614.626	6.63
614.961	6.64
615.296	6.64
615.631	6.64
615.966	6.64
616.3	6.65
616.635	6.64
616.97	6.64
617.304	6.64
617.639	6.65
617.973	6.64
618.308	6.63
618.642	6.63
618.977	6.64
619.311	6.64
619.646	6.65
619.98	6.66
620.314	6.65
620.648	6.66
620.983	6.66
621.317	6.65
621.651	6.66
621.985	6.67
622.319	6.67
622.653	6.67
622.987	6.68
623.321	6.68
623.655	6.7
623.988	6.7
624.322	6.71
624.656	6.71
624.99	6.73
625.323	6.74
625.657	6.75
625.99	6.75
626.324	6.76
626.657	6.77
626.991	6.79
627.324	6.78
627.658	6.78
627.991	6.77
628.324	6.78
628.657	6.78
628.991	6.79
629.324	6.8
629.657	6.81
629.99	6.81
630.323	6.81
630.656	6.8
630.989	6.81
631.322	6.81
631.655	6.81
631.987	6.8
632.32	6.79
632.653	6.8
632.986	6.81
633.318	6.8
633.651	6.8
633.984	6.81
634.316	6.83
634.649	6.83
634.981	6.85
635.313	6.84
635.646	6.85
635.978	6.84
636.31	6.84
636.643	6.84
636.975	6.85
637.307	6.85
637.639	6.86
637.971	6.85
638.303	6.86
638.635	6.86
638.967	6.87
639.299	6.88
639.631	6.88
639.963	6.89
640.295	6.9
640.626	6.91
640.958	6.93
641.29	6.91
641.621	6.93
641.953	6.93
642.285	6.95
642.616	6.95
642.948	6.96
643.279	6.97
643.61	6.98
643.942	6.98
644.273	6.99
644.604	6.99
644.936	7
645.267	7.01
645.598	7.04
645.929	7.04
646.26	7.04
646.591	7.05
646.922	7.05
647.253	7.04
647.584	7.04
647.915	7.03
648.245	7.05
648.576	7.05
648.907	7.05
649.238	7.05
649.568	7.04
649.899	7.04
650.229	7.03
650.56	7.03
650.89	7.05
651.221	7.07
651.551	7.08
651.882	7.1
652.212	7.1
652.542	7.09
652.872	7.1
653.203	7.11
653.533	7.14
653.863	7.14
654.193	7.15
654.523	7.15
654.853	7.15
655.183	7.15
655.513	7.15
655.843	7.16
656.172	7.16
656.502	7.18
656.832	7.2
657.162	7.2
657.491	7.21
657.821	7.2
658.15	7.18
658.48	7.19
658.809	7.18
659.139	7.21
659.468	7.22
659.798	7.22
660.127	7.23
660.456	7.22
660.785	7.23
661.115	7.25
661.444	7.26
661.773	7.27
662.102	7.28
662.431	7.29
662.76	7.29
663.089	7.3
663.418	7.3
663.747	7.31
664.076	7.32
664.404	7.32
664.733	7.33
665.062	7.35
665.39	7.34
665.719	7.34
666.048	7.34
666.376	7.34
666.705	7.33
667.033	7.33
667.362	7.32
667.69	7.33
668.018	7.33
668.347	7.34
668.675	7.32
669.003	7.34
669.331	7.33
669.659	7.34
669.987	7.36
670.315	7.37
670.643	7.38
670.971	7.39
671.299	7.41
671.627	7.42
671.955	7.42
672.283	7.42
672.61	7.44
672.938	7.44
673.266	7.46
673.593	7.47
673.921	7.48
674.249	7.5
674.576	7.51
674.904	7.53
675.231	7.53
675.558	7.56
675.886	7.58
676.213	7.57
676.54	7.59
676.867	7.59
677.195	7.6
677.522	7.6
677.849	7.61
678.176	7.62
678.503	7.62
678.83	7.62
679.157	7.64
679.484	7.65
679.81	7.63
680.137	7.63
680.464	7.66
680.791	7.65
681.117	7.65
