Data from UWBM12228_Reflection_00003.txt Node
Date: Sun May 02 12:52:44 EDT 2021
User: vgr7
Spectrometer: USB2G7710
Scans to average: 10
Trigger mode: 4
Integration Time (sec): 1.000000E-1
Electric dark correction enabled: true
Boxcar width: 20
XAxis mode: Wavelengths
Number of Pixels in Spectrum: 2048
>>>>>Begin Spectral Data<<<<<
177.721	98.98
178.105	98.59
178.488	97.2
178.871	95.24
179.254	93.28
179.636	89.27
180.019	86.46
180.402	84.01
180.785	80.77
181.168	76.46
181.55	72.6
181.933	125.17
182.316	125.49
182.698	126.2
183.081	127.54
183.463	128.3
183.846	131.24
184.228	132.71
184.611	134.48
184.993	138.51
185.376	142.37
185.758	-195.13
186.14	-120.24
186.522	-70.7
186.904	-52.79
187.287	-36.02
187.669	-28.06
188.051	-28.91
188.433	-18.96
188.815	-23.93
189.197	-22.66
189.579	-19.7
189.961	-18.36
190.342	-22.63
190.724	-18.54
191.106	-21.91
191.488	-21.46
191.869	-29.75
192.251	-29.19
192.633	-34.61
193.014	-36.28
193.396	-36.06
193.777	-25.36
194.159	-24.27
194.54	-26
194.922	-23.76
195.303	-19.37
195.684	-18.14
196.065	-17.12
196.447	-19.34
196.828	-19.51
197.209	-17.14
197.59	-29.52
197.971	-30.08
198.352	-29.01
198.733	-24.76
199.114	-27.22
199.495	-27.54
199.876	-26.87
200.257	-27.06
200.638	-27.22
201.018	-33.68
201.399	-35.67
201.78	-36.49
202.16	-36.66
202.541	-34.33
202.922	-34.85
203.302	-38.21
203.683	-38.8
204.063	-39.42
204.444	-36.92
204.824	-34.88
205.204	-31.45
205.585	-19.2
205.965	-19.34
206.345	-18.64
206.725	-25.03
207.106	-23.19
207.486	-21.69
207.866	-20.35
208.246	-18.95
208.626	-16.01
209.006	-8.69
209.386	-14.28
209.766	-13.47
210.145	-12.9
210.525	-13.77
210.905	-12.69
211.285	-11.33
211.664	-12.54
212.044	-10.21
212.424	-9.17
212.803	-16.6
213.183	-13.32
213.562	-14.43
213.942	-15.86
214.321	-19.99
214.701	-20.86
215.08	-19.19
215.459	-19.42
215.838	-20.28
216.218	-19.84
216.597	-21.43
216.976	-25.14
217.355	-24.57
217.734	-24.24
218.113	-22.97
218.492	-21.42
218.871	-20.38
219.25	-18.85
219.629	-20.11
220.008	-19.71
220.387	-18.16
220.766	-17.23
221.144	-17.65
221.523	-13.88
221.902	-12.04
222.28	-10.3
222.659	-8.5
223.037	-7.6
223.416	-5.96
223.794	-4.72
224.173	-4.28
224.551	-4.19
224.929	-3.6
225.308	-2.79
225.686	-2.7
226.064	-2.35
226.442	-2.31
226.821	-2.44
227.199	-2.47
227.577	-2.64
227.955	-2.93
228.333	-2.24
228.711	-2.16
229.089	-1.08
229.467	-1.33
229.845	-0.35
230.222	0.18
230.6	0.97
230.978	1.07
231.356	0.65
231.733	0.69
232.111	0.96
232.488	1.31
232.866	1.65
233.243	1.38
233.621	1.48
233.998	1.59
234.376	1.96
234.753	2.3
235.13	2.75
235.508	3.35
235.885	3.55
236.262	3.67
236.639	3.96
237.016	3.93
237.393	3.96
237.77	3.91
238.147	3.92
238.524	3.96
238.901	4
239.278	4.07
239.655	4.14
240.032	4.13
240.409	4.22
240.785	4.23
241.162	4.34
241.539	4.35
241.915	4.42
242.292	4.5
242.668	4.49
243.045	4.48
243.421	4.4
243.798	4.4
244.174	4.4
244.551	4.36
244.927	4.22
245.303	4.17
245.679	4.18
246.056	4.14
246.432	4.13
246.808	3.96
247.184	3.98
247.56	3.96
247.936	3.99
248.312	3.99
248.688	4.08
249.064	4.07
249.44	4.04
249.815	4.04
250.191	3.99
250.567	3.94
250.943	4.03
251.318	4.05
251.694	3.99
252.069	3.94
252.445	3.95
252.82	4.06
253.196	4.06
253.571	4.02
253.947	4.13
254.322	4.09
254.697	4.24
255.073	4.2
255.448	4.19
255.823	4.16
256.198	4.1
256.573	3.93
256.948	3.91
257.323	3.92
257.698	3.84
258.073	3.84
258.448	3.74
258.823	3.74
259.198	3.71
259.573	3.74
259.948	3.78
260.322	3.76
260.697	3.78
261.072	3.77
261.446	3.75
261.821	3.73
262.195	3.71
262.57	3.68
262.944	3.68
263.319	3.64
263.693	3.66
264.067	3.66
264.442	3.77
264.816	3.75
265.19	3.72
265.564	3.77
265.938	3.76
266.313	3.8
266.687	3.77
267.061	3.78
267.435	3.77
267.809	3.75
268.183	3.72
268.556	3.74
268.93	3.75
269.304	3.71
269.678	3.68
270.051	3.65
270.425	3.65
270.799	3.67
271.172	3.68
271.546	3.69
271.919	3.7
272.293	3.69
272.666	3.7
273.04	3.71
273.413	3.64
273.787	3.62
274.16	3.62
274.533	3.65
274.906	3.63
275.279	3.64
275.653	3.62
276.026	3.61
276.399	3.57
276.772	3.58
277.145	3.61
277.518	3.65
277.891	3.68
278.263	3.69
278.636	3.7
279.009	3.71
279.382	3.7
279.755	3.64
280.127	3.66
280.5	3.67
280.872	3.66
281.245	3.76
281.617	3.77
281.99	3.78
282.362	3.8
282.735	3.79
283.107	3.79
283.479	3.8
283.852	3.81
284.224	3.83
284.596	3.81
284.968	3.7
285.34	3.7
285.713	3.69
286.085	3.6
286.457	3.6
286.829	3.58
287.201	3.57
287.572	3.61
287.944	3.61
288.316	3.64
288.688	3.67
289.06	3.66
289.431	3.65
289.803	3.65
290.175	3.65
290.546	3.66
290.918	3.66
291.289	3.63
291.661	3.65
292.032	3.6
292.403	3.61
292.775	3.69
293.146	3.68
293.517	3.7
293.889	3.76
294.26	3.75
294.631	3.76
295.002	3.79
295.373	3.81
295.744	3.79
296.115	3.78
296.486	3.71
296.857	3.72
297.228	3.7
297.599	3.69
297.97	3.67
298.34	3.67
298.711	3.61
299.082	3.59
299.452	3.61
299.823	3.65
300.194	3.66
300.564	3.64
300.935	3.65
301.305	3.65
301.676	3.62
302.046	3.61
302.416	3.62
302.787	3.61
303.157	3.54
303.527	3.53
303.897	3.53
304.267	3.53
304.637	3.54
305.008	3.55
305.378	3.55
305.748	3.53
306.117	3.59
306.487	3.63
306.857	3.66
307.227	3.67
307.597	3.64
307.967	3.63
308.336	3.63
308.706	3.63
309.076	3.64
309.445	3.62
309.815	3.51
310.184	3.5
310.554	3.44
310.923	3.47
311.293	3.49
311.662	3.49
312.031	3.48
312.401	3.47
312.77	3.44
313.139	3.44
313.508	3.46
313.877	3.4
314.246	3.4
314.616	3.38
314.985	3.32
315.353	3.31
315.722	3.31
316.091	3.3
316.46	3.3
316.829	3.34
317.198	3.35
317.567	3.49
317.935	3.49
318.304	3.53
318.672	3.57
319.041	3.56
319.41	3.57
319.778	3.6
320.147	3.61
320.515	3.6
320.883	3.6
321.252	3.53
321.62	3.56
321.988	3.56
322.357	3.56
322.725	3.62
323.093	3.61
323.461	3.61
323.829	3.61
324.197	3.59
324.565	3.59
324.933	3.6
325.301	3.59
325.669	3.61
326.037	3.61
326.405	3.57
326.772	3.55
327.14	3.55
327.508	3.54
327.875	3.53
328.243	3.53
328.61	3.49
328.978	3.51
329.346	3.5
329.713	3.47
330.08	3.46
330.448	3.45
330.815	3.42
331.182	3.43
331.55	3.42
331.917	3.42
332.284	3.41
332.651	3.41
333.018	3.4
333.385	3.41
333.752	3.41
334.119	3.43
334.486	3.43
334.853	3.4
335.22	3.41
335.587	3.4
335.954	3.41
336.32	3.43
336.687	3.44
337.054	3.43
337.42	3.45
337.787	3.46
338.153	3.48
338.52	3.51
338.886	3.54
339.253	3.54
339.619	3.52
339.986	3.5
340.352	3.49
340.718	3.49
341.084	3.49
341.451	3.47
341.817	3.46
342.183	3.44
342.549	3.48
342.915	3.47
343.281	3.49
343.647	3.5
344.013	3.53
344.379	3.54
344.745	3.55
345.11	3.55
345.476	3.57
345.842	3.59
346.208	3.56
346.573	3.55
346.939	3.57
347.304	3.57
347.67	3.57
348.035	3.59
348.401	3.58
348.766	3.59
349.132	3.59
349.497	3.61
349.862	3.61
350.228	3.63
350.593	3.63
350.958	3.61
351.323	3.6
351.688	3.6
352.053	3.58
352.418	3.58
352.783	3.57
353.148	3.55
353.513	3.54
353.878	3.54
354.243	3.53
354.608	3.53
354.972	3.53
355.337	3.53
355.702	3.51
356.066	3.52
356.431	3.52
356.795	3.51
357.16	3.5
357.524	3.49
357.889	3.48
358.253	3.49
358.618	3.49
358.982	3.49
359.346	3.5
359.71	3.5
360.075	3.5
360.439	3.51
360.803	3.49
361.167	3.49
361.531	3.5
361.895	3.5
362.259	3.5
362.623	3.5
362.987	3.49
363.351	3.5
363.714	3.5
364.078	3.5
364.442	3.5
364.806	3.5
365.169	3.48
365.533	3.48
365.896	3.48
366.26	3.48
366.623	3.48
366.987	3.48
367.35	3.49
367.714	3.49
368.077	3.5
368.44	3.5
368.803	3.51
369.167	3.51
369.53	3.52
369.893	3.54
370.256	3.55
370.619	3.56
370.982	3.56
371.345	3.55
371.708	3.56
372.071	3.56
372.434	3.57
372.797	3.59
373.159	3.61
373.522	3.61
373.885	3.6
374.247	3.59
374.61	3.59
374.973	3.58
375.335	3.57
375.698	3.58
376.06	3.58
376.423	3.58
376.785	3.59
377.147	3.58
377.51	3.59
377.872	3.59
378.234	3.59
378.596	3.61
378.958	3.62
379.321	3.62
379.683	3.63
380.045	3.63
380.407	3.63
380.769	3.62
381.13	3.63
381.492	3.64
381.854	3.64
382.216	3.64
382.578	3.64
382.939	3.66
383.301	3.65
383.663	3.66
384.024	3.65
384.386	3.66
384.747	3.65
385.109	3.64
385.47	3.64
385.832	3.65
386.193	3.65
386.554	3.65
386.916	3.66
387.277	3.66
387.638	3.67
387.999	3.67
388.36	3.67
388.721	3.68
389.082	3.68
389.443	3.68
389.804	3.68
390.165	3.69
390.526	3.69
390.887	3.69
391.248	3.69
391.609	3.7
391.969	3.7
392.33	3.71
392.691	3.71
393.051	3.71
393.412	3.71
393.772	3.72
394.133	3.73
394.493	3.72
394.854	3.73
395.214	3.72
395.574	3.72
395.935	3.73
396.295	3.72
396.655	3.73
397.015	3.73
397.376	3.72
397.736	3.73
398.096	3.73
398.456	3.73
398.816	3.75
399.176	3.74
399.535	3.75
399.895	3.76
400.255	3.76
400.615	3.75
400.975	3.76
401.334	3.76
401.694	3.76
402.054	3.77
402.413	3.75
402.773	3.76
403.132	3.77
403.492	3.77
403.851	3.77
404.211	3.78
404.57	3.79
404.929	3.8
405.288	3.8
405.648	3.8
406.007	3.81
406.366	3.81
406.725	3.82
407.084	3.82
407.443	3.82
407.802	3.81
408.161	3.81
408.52	3.81
408.879	3.81
409.238	3.81
409.596	3.81
409.955	3.83
410.314	3.83
410.673	3.82
411.031	3.83
411.39	3.84
411.748	3.85
412.107	3.86
412.465	3.87
412.824	3.89
413.182	3.91
413.54	3.93
413.899	3.95
414.257	3.98
414.615	4.02
414.974	4.05
415.332	4.1
415.69	4.14
416.048	4.16
416.406	4.2
416.764	4.23
417.122	4.26
417.48	4.3
417.838	4.33
418.195	4.36
418.553	4.38
418.911	4.39
419.269	4.39
419.626	4.39
419.984	4.39
420.342	4.37
420.699	4.36
421.057	4.34
421.414	4.33
421.772	4.32
422.129	4.32
422.486	4.32
422.844	4.32
423.201	4.32
423.558	4.32
423.915	4.32
424.273	4.32
424.63	4.32
424.987	4.32
425.344	4.32
425.701	4.33
426.058	4.33
426.415	4.33
426.772	4.33
427.128	4.33
427.485	4.32
427.842	4.32
428.199	4.31
428.555	4.29
428.912	4.28
429.269	4.25
429.625	4.24
429.982	4.21
430.338	4.19
430.695	4.17
431.051	4.14
431.407	4.12
431.764	4.11
432.12	4.08
432.476	4.07
432.832	4.06
433.189	4.07
433.545	4.07
433.901	4.09
434.257	4.11
434.613	4.13
434.969	4.16
435.325	4.19
435.681	4.23
436.036	4.24
436.392	4.26
436.748	4.27
437.104	4.27
437.459	4.29
437.815	4.3
438.171	4.32
438.526	4.34
438.882	4.37
439.237	4.4
439.593	4.43
439.948	4.46
440.304	4.5
440.659	4.52
441.014	4.54
441.369	4.57
441.725	4.58
442.08	4.6
442.435	4.61
442.79	4.62
443.145	4.62
443.5	4.62
443.855	4.62
444.21	4.62
444.565	4.62
444.92	4.6
445.275	4.6
445.629	4.59
445.984	4.59
446.339	4.58
446.693	4.58
447.048	4.56
447.403	4.55
447.757	4.53
448.112	4.51
448.466	4.49
448.82	4.48
449.175	4.46
449.529	4.45
449.883	4.44
450.238	4.41
450.592	4.41
450.946	4.41
451.3	4.41
451.654	4.42
452.008	4.42
452.362	4.43
452.716	4.43
453.07	4.44
453.424	4.44
453.778	4.43
454.132	4.42
454.486	4.41
454.839	4.39
455.193	4.37
455.547	4.36
455.9	4.32
456.254	4.3
456.607	4.28
456.961	4.25
457.314	4.23
457.668	4.23
458.021	4.22
458.375	4.21
458.728	4.22
459.081	4.22
459.434	4.23
459.787	4.24
460.141	4.24
460.494	4.25
460.847	4.25
461.2	4.25
461.553	4.26
461.906	4.27
462.259	4.27
462.611	4.28
462.964	4.28
463.317	4.28
463.67	4.28
464.022	4.28
464.375	4.28
464.728	4.28
465.08	4.28
465.433	4.28
465.785	4.27
466.138	4.26
466.49	4.24
466.843	4.22
467.195	4.21
467.547	4.18
467.899	4.16
468.252	4.13
468.604	4.11
468.956	4.09
469.308	4.07
469.66	4.07
470.012	4.06
470.364	4.07
470.716	4.07
471.068	4.09
471.42	4.11
471.772	4.13
472.123	4.14
472.475	4.15
472.827	4.16
473.178	4.16
473.53	4.17
473.882	4.19
474.233	4.21
474.585	4.25
474.936	4.3
475.288	4.39
475.639	4.51
475.99	4.64
476.342	4.79
476.693	4.95
477.044	5.11
477.395	5.28
477.746	5.46
478.097	5.63
478.448	5.8
478.8	5.98
479.15	6.14
479.501	6.29
479.852	6.42
480.203	6.54
480.554	6.66
480.905	6.78
481.255	6.89
481.606	7
481.957	7.09
482.307	7.19
482.658	7.28
483.009	7.36
483.359	7.45
483.709	7.53
484.06	7.6
484.41	7.68
484.761	7.75
485.111	7.82
485.461	7.89
485.811	7.95
486.162	8.01
486.512	8.06
486.862	8.09
487.212	8.12
487.562	8.15
487.912	8.16
488.262	8.16
488.612	8.16
488.961	8.14
489.311	8.1
489.661	8.04
490.011	7.95
490.36	7.84
490.71	7.71
491.06	7.57
491.409	7.43
491.759	7.28
492.108	7.13
492.458	6.97
492.807	6.81
493.157	6.64
493.506	6.48
493.855	6.32
494.204	6.18
494.554	6.05
494.903	5.92
495.252	5.81
495.601	5.69
495.95	5.57
496.299	5.47
496.648	5.37
496.997	5.28
497.346	5.19
497.695	5.1
498.043	5.02
498.392	4.93
498.741	4.85
499.09	4.77
499.438	4.69
499.787	4.62
500.135	4.55
500.484	4.49
500.832	4.45
501.181	4.4
501.529	4.37
501.878	4.35
502.226	4.34
502.574	4.33
502.923	4.33
503.271	4.33
503.619	4.33
503.967	4.32
504.315	4.32
504.663	4.31
505.011	4.31
505.359	4.3
505.707	4.29
506.055	4.29
506.403	4.29
506.751	4.29
507.098	4.29
507.446	4.3
507.794	4.31
508.141	4.32
508.489	4.34
508.837	4.35
509.184	4.36
509.531	4.37
509.879	4.38
510.226	4.39
510.574	4.4
510.921	4.41
511.268	4.42
511.616	4.43
511.963	4.45
512.31	4.47
512.657	4.48
513.004	4.5
513.351	4.51
513.698	4.52
514.045	4.52
514.392	4.53
514.739	4.52
515.086	4.52
515.432	4.52
515.779	4.52
516.126	4.52
516.473	4.52
516.819	4.52
517.166	4.52
517.512	4.53
517.859	4.54
518.205	4.55
518.552	4.57
518.898	4.61
519.245	4.64
519.591	4.7
519.937	4.76
520.283	4.85
520.629	4.94
520.976	5.05
521.322	5.16
521.668	5.27
522.014	5.38
522.36	5.49
522.706	5.6
523.052	5.71
523.398	5.81
523.743	5.89
524.089	5.97
524.435	6.03
524.781	6.1
525.126	6.15
525.472	6.21
525.817	6.26
526.163	6.31
526.509	6.35
526.854	6.39
527.199	6.44
527.545	6.48
527.89	6.53
528.235	6.57
528.581	6.62
528.926	6.66
529.271	6.7
529.616	6.74
529.961	6.76
530.306	6.78
530.651	6.81
530.996	6.83
531.341	6.83
531.686	6.84
532.031	6.83
532.376	6.84
532.721	6.83
533.065	6.84
533.41	6.84
533.755	6.83
534.099	6.8
534.444	6.77
534.788	6.73
535.133	6.7
535.477	6.65
535.822	6.6
536.166	6.54
536.51	6.47
536.855	6.4
537.199	6.32
537.543	6.25
537.887	6.18
538.231	6.11
538.576	6.06
538.92	6
539.264	5.95
539.608	5.89
539.951	5.83
540.295	5.77
540.639	5.71
540.983	5.65
541.327	5.61
541.671	5.55
542.014	5.49
542.358	5.44
542.701	5.4
543.045	5.37
543.389	5.35
543.732	5.33
544.075	5.31
544.419	5.3
544.762	5.27
545.105	5.26
545.449	5.25
545.792	5.25
546.135	5.25
546.478	5.23
546.821	5.21
547.165	5.18
547.508	5.14
547.851	5.09
548.194	5.04
548.536	4.98
548.879	4.92
549.222	4.85
549.565	4.78
549.908	4.71
550.25	4.65
550.593	4.6
550.936	4.55
551.278	4.51
551.621	4.48
551.963	4.46
552.306	4.44
552.648	4.42
552.991	4.4
553.333	4.38
553.675	4.38
554.017	4.38
554.36	4.38
554.702	4.39
555.044	4.4
555.386	4.41
555.728	4.42
556.07	4.43
556.412	4.44
556.754	4.43
557.096	4.44
557.438	4.44
557.78	4.44
558.121	4.43
558.463	4.43
558.805	4.43
559.147	4.43
559.488	4.43
559.83	4.44
560.171	4.44
560.513	4.44
560.854	4.43
561.196	4.43
561.537	4.44
561.878	4.44
562.22	4.44
562.561	4.44
562.902	4.45
563.243	4.46
563.584	4.46
563.925	4.46
564.266	4.46
564.607	4.47
564.948	4.47
565.289	4.48
565.63	4.48
565.971	4.48
566.312	4.48
566.653	4.48
566.993	4.48
567.334	4.48
567.675	4.49
568.015	4.5
568.356	4.5
568.696	4.51
569.037	4.51
569.377	4.51
569.718	4.51
570.058	4.51
570.398	4.51
570.739	4.51
571.079	4.51
571.419	4.51
571.759	4.51
572.099	4.51
572.439	4.51
572.779	4.51
573.119	4.51
573.459	4.5
573.799	4.5
574.139	4.5
574.479	4.51
574.819	4.5
575.158	4.51
575.498	4.5
575.838	4.5
576.177	4.5
576.517	4.5
576.856	4.49
577.196	4.49
577.535	4.48
577.875	4.48
578.214	4.48
578.553	4.48
578.893	4.47
579.232	4.47
579.571	4.47
579.91	4.47
580.25	4.46
580.589	4.46
580.928	4.45
581.267	4.45
581.606	4.44
581.945	4.44
582.283	4.43
582.622	4.43
582.961	4.43
583.3	4.43
583.639	4.43
583.977	4.43
584.316	4.43
584.654	4.44
584.993	4.44
585.332	4.43
585.67	4.43
586.008	4.43
586.347	4.43
586.685	4.44
587.024	4.44
587.362	4.44
587.7	4.45
588.038	4.45
588.376	4.45
588.715	4.45
589.053	4.44
589.391	4.44
589.729	4.45
590.067	4.45
590.404	4.45
590.742	4.45
591.08	4.45
591.418	4.46
591.756	4.46
592.093	4.47
592.431	4.48
592.769	4.48
593.106	4.49
593.444	4.48
593.781	4.48
594.119	4.48
594.456	4.48
594.793	4.49
595.131	4.49
595.468	4.49
595.805	4.49
596.143	4.5
596.48	4.49
596.817	4.5
597.154	4.51
597.491	4.51
597.828	4.51
598.165	4.52
598.502	4.51
598.839	4.52
599.176	4.51
599.512	4.52
599.849	4.52
600.186	4.53
600.523	4.53
600.859	4.53
601.196	4.53
601.532	4.54
601.869	4.54
602.205	4.54
602.542	4.54
602.878	4.54
603.215	4.54
603.551	4.53
603.887	4.53
604.223	4.53
604.56	4.53
604.896	4.52
605.232	4.52
605.568	4.52
605.904	4.52
606.24	4.53
606.576	4.53
606.912	4.53
607.248	4.54
607.583	4.54
607.919	4.53
608.255	4.52
608.591	4.52
608.926	4.52
609.262	4.52
609.597	4.52
609.933	4.53
610.268	4.54
610.604	4.55
610.939	4.54
611.275	4.54
611.61	4.54
611.945	4.54
612.281	4.54
612.616	4.54
612.951	4.52
613.286	4.52
613.621	4.51
613.956	4.5
614.291	4.5
614.626	4.5
614.961	4.51
615.296	4.51
615.631	4.51
615.966	4.5
616.3	4.5
616.635	4.5
616.97	4.5
617.304	4.5
617.639	4.49
617.973	4.49
618.308	4.5
618.642	4.5
618.977	4.49
619.311	4.49
619.646	4.48
619.98	4.49
620.314	4.49
620.648	4.49
620.983	4.49
621.317	4.49
621.651	4.49
621.985	4.5
622.319	4.5
622.653	4.5
622.987	4.5
623.321	4.49
623.655	4.49
623.988	4.5
624.322	4.5
624.656	4.5
624.99	4.49
625.323	4.49
625.657	4.49
625.99	4.5
626.324	4.51
626.657	4.51
626.991	4.51
627.324	4.51
627.658	4.52
627.991	4.52
628.324	4.52
628.657	4.52
628.991	4.53
629.324	4.53
629.657	4.54
629.99	4.54
630.323	4.55
630.656	4.55
630.989	4.55
631.322	4.56
631.655	4.56
631.987	4.55
632.32	4.56
632.653	4.56
632.986	4.56
633.318	4.56
633.651	4.56
633.984	4.56
634.316	4.57
634.649	4.56
634.981	4.57
635.313	4.57
635.646	4.57
635.978	4.56
636.31	4.56
636.643	4.55
636.975	4.56
637.307	4.56
637.639	4.55
637.971	4.55
638.303	4.55
638.635	4.56
638.967	4.56
639.299	4.56
639.631	4.56
639.963	4.57
640.295	4.57
640.626	4.59
640.958	4.58
641.29	4.58
641.621	4.58
641.953	4.59
642.285	4.59
642.616	4.6
642.948	4.59
643.279	4.6
643.61	4.59
643.942	4.59
644.273	4.59
644.604	4.59
644.936	4.59
645.267	4.6
645.598	4.61
645.929	4.6
646.26	4.6
646.591	4.6
646.922	4.6
647.253	4.6
647.584	4.6
647.915	4.6
648.245	4.61
648.576	4.61
648.907	4.6
649.238	4.59
649.568	4.59
649.899	4.59
650.229	4.6
650.56	4.6
650.89	4.62
651.221	4.62
651.551	4.63
651.882	4.64
652.212	4.63
652.542	4.62
652.872	4.63
653.203	4.64
653.533	4.63
653.863	4.63
654.193	4.62
654.523	4.63
654.853	4.63
655.183	4.63
655.513	4.63
655.843	4.64
656.172	4.64
656.502	4.64
656.832	4.62
657.162	4.63
657.491	4.63
657.821	4.62
658.15	4.62
658.48	4.61
658.809	4.61
659.139	4.61
659.468	4.62
659.798	4.63
660.127	4.62
660.456	4.65
660.785	4.66
661.115	4.67
661.444	4.67
661.773	4.68
662.102	4.68
662.431	4.69
662.76	4.69
663.089	4.69
663.418	4.7
663.747	4.7
664.076	4.7
664.404	4.7
664.733	4.71
665.062	4.72
665.39	4.72
665.719	4.72
666.048	4.72
666.376	4.71
666.705	4.71
667.033	4.69
667.362	4.68
667.69	4.69
668.018	4.68
668.347	4.68
668.675	4.66
669.003	4.67
669.331	4.66
669.659	4.67
669.987	4.68
670.315	4.68
670.643	4.69
670.971	4.69
671.299	4.69
671.627	4.69
671.955	4.68
672.283	4.67
672.61	4.68
672.938	4.69
673.266	4.7
673.593	4.7
673.921	4.7
674.249	4.7
674.576	4.71
674.904	4.72
675.231	4.72
675.558	4.75
675.886	4.76
676.213	4.75
676.54	4.76
676.867	4.76
677.195	4.77
677.522	4.78
677.849	4.79
678.176	4.81
