Data from UWBM109429_Reflection_00012.txt Node
Date: Sun May 02 13:55:08 EDT 2021
User: vgr7
Spectrometer: USB2G7710
Scans to average: 10
Trigger mode: 4
Integration Time (sec): 1.000000E-1
Electric dark correction enabled: true
Boxcar width: 20
XAxis mode: Wavelengths
Number of Pixels in Spectrum: 2048
>>>>>Begin Spectral Data<<<<<
177.721	68.92
178.105	109.13
178.488	103.84
178.871	105.99
179.254	95.17
179.636	79
180.019	66.86
180.402	65.31
180.785	53.67
181.168	45.47
181.55	38.39
181.933	36.87
182.316	31.55
182.698	30.32
183.081	29.39
183.463	27.2
183.846	23.38
184.228	25.32
184.611	21.38
184.993	21.34
185.376	19.19
185.758	21.21
186.14	23.9
186.522	24.36
186.904	22.49
187.287	21.18
187.669	22.22
188.051	22.67
188.433	21.91
188.815	21.07
189.197	22.91
189.579	23.94
189.961	20.09
190.342	19.93
190.724	19.68
191.106	18.96
191.488	19.29
191.869	18.83
192.251	16.39
192.633	15.61
193.014	16.71
193.396	13.19
193.777	11.23
194.159	10.9
194.54	9.96
194.922	6.96
195.303	5.11
195.684	2.21
196.065	1.01
196.447	1.73
196.828	2.1
197.209	2.35
197.59	0.97
197.971	1.67
198.352	2.44
198.733	3.63
199.114	5.34
199.495	7.68
199.876	6.45
200.257	8.53
200.638	7.11
201.018	8.66
201.399	8.9
201.78	6.52
202.16	4.35
202.541	4.71
202.922	5.29
203.302	5.15
203.683	6.7
204.063	7.89
204.444	8.15
204.824	6.75
205.204	4.5
205.585	6.34
205.965	7.6
206.345	5.77
206.725	6.96
207.106	7.74
207.486	8.27
207.866	10.33
208.246	10.1
208.626	8.69
209.006	10.36
209.386	9.42
209.766	8.8
210.145	9.1
210.525	10.69
210.905	12.17
211.285	12.88
211.664	13.08
212.044	12.24
212.424	11.24
212.803	12.04
213.183	12.02
213.562	12.92
213.942	12.12
214.321	10.97
214.701	10.1
215.08	9.71
215.459	8.7
215.838	6
216.218	7.07
216.597	6.03
216.976	6.05
217.355	6.18
217.734	6.21
218.113	5.75
218.492	4.87
218.871	3.82
219.25	2.62
219.629	1.84
220.008	0.66
220.387	-0.07
220.766	2.16
221.144	1.33
221.523	2.14
221.902	3.14
222.28	3.66
222.659	3.07
223.037	3.07
223.416	3.09
223.794	3.83
224.173	4.18
224.551	3.92
224.929	5.71
225.308	5.86
225.686	6.31
226.064	6.51
226.442	6.39
226.821	6.94
227.199	7.05
227.577	7.61
227.955	8.07
228.333	7.88
228.711	7.66
229.089	6.96
229.467	6.98
229.845	7.12
230.222	6.94
230.6	7.03
230.978	7.25
231.356	7.78
231.733	7.6
232.111	7.43
232.488	7.15
232.866	6.89
233.243	6.96
233.621	6.97
233.998	6.89
234.376	6.85
234.753	6.36
235.13	6.19
235.508	6.23
235.885	6.18
236.262	6.02
236.639	5.97
237.016	5.8
237.393	5.81
237.77	5.73
238.147	5.68
238.524	5.59
238.901	5.51
239.278	5.5
239.655	5.5
240.032	5.44
240.409	5.37
240.785	5.36
241.162	5.24
241.539	5.14
241.915	5.19
242.292	5.15
242.668	5.15
243.045	5.09
243.421	5.06
243.798	5.03
244.174	5.04
244.551	5.03
244.927	5.01
245.303	5
245.679	5.02
246.056	4.94
246.432	4.95
246.808	4.92
247.184	4.94
247.56	4.98
247.936	4.97
248.312	4.99
248.688	4.98
249.064	4.96
249.44	4.95
249.815	4.92
250.191	4.93
250.567	4.95
250.943	4.92
251.318	4.9
251.694	4.91
252.069	4.88
252.445	4.86
252.82	4.82
253.196	4.81
253.571	4.81
253.947	4.79
254.322	4.78
254.697	4.77
255.073	4.76
255.448	4.77
255.823	4.7
256.198	4.68
256.573	4.68
256.948	4.71
257.323	4.68
257.698	4.64
258.073	4.61
258.448	4.6
258.823	4.6
259.198	4.58
259.573	4.57
259.948	4.58
260.322	4.58
260.697	4.56
261.072	4.53
261.446	4.54
261.821	4.51
262.195	4.49
262.57	4.48
262.944	4.47
263.319	4.47
263.693	4.46
264.067	4.46
264.442	4.46
264.816	4.44
265.19	4.43
265.564	4.44
265.938	4.43
266.313	4.43
266.687	4.43
267.061	4.43
267.435	4.44
267.809	4.44
268.183	4.45
268.556	4.42
268.93	4.41
269.304	4.42
269.678	4.41
270.051	4.38
270.425	4.36
270.799	4.33
271.172	4.36
271.546	4.36
271.919	4.37
272.293	4.35
272.666	4.33
273.04	4.37
273.413	4.4
273.787	4.41
274.16	4.4
274.533	4.41
274.906	4.42
275.279	4.42
275.653	4.42
276.026	4.43
276.399	4.44
276.772	4.46
277.145	4.45
277.518	4.46
277.891	4.46
278.263	4.46
278.636	4.46
279.009	4.44
279.382	4.43
279.755	4.44
280.127	4.44
280.5	4.46
280.872	4.48
281.245	4.48
281.617	4.48
281.99	4.48
282.362	4.47
282.735	4.47
283.107	4.48
283.479	4.47
283.852	4.5
284.224	4.51
284.596	4.5
284.968	4.51
285.34	4.52
285.713	4.54
286.085	4.56
286.457	4.57
286.829	4.58
287.201	4.59
287.572	4.6
287.944	4.62
288.316	4.61
288.688	4.62
289.06	4.63
289.431	4.65
289.803	4.67
290.175	4.7
290.546	4.72
290.918	4.74
291.289	4.76
291.661	4.78
292.032	4.79
292.403	4.83
292.775	4.87
293.146	4.9
293.517	4.92
293.889	4.95
294.26	5
294.631	5.05
295.002	5.09
295.373	5.12
295.744	5.15
296.115	5.18
296.486	5.23
296.857	5.27
297.228	5.31
297.599	5.35
297.97	5.38
298.34	5.39
298.711	5.45
299.082	5.48
299.452	5.52
299.823	5.57
300.194	5.62
300.564	5.67
300.935	5.7
301.305	5.74
301.676	5.76
302.046	5.82
302.416	5.86
302.787	5.9
303.157	5.94
303.527	5.98
303.897	6.02
304.267	6.08
304.637	6.13
305.008	6.19
305.378	6.23
305.748	6.29
306.117	6.34
306.487	6.42
306.857	6.48
307.227	6.54
307.597	6.59
307.967	6.62
308.336	6.67
308.706	6.7
309.076	6.73
309.445	6.77
309.815	6.81
310.184	6.85
310.554	6.88
310.923	6.94
311.293	6.98
311.662	7.02
312.031	7.07
312.401	7.13
312.77	7.17
313.139	7.24
313.508	7.29
313.877	7.33
314.246	7.37
314.616	7.4
314.985	7.44
315.353	7.49
315.722	7.52
316.091	7.57
316.46	7.61
316.829	7.66
317.198	7.7
317.567	7.75
317.935	7.82
318.304	7.87
318.672	7.93
319.041	8
319.41	8.06
319.778	8.13
320.147	8.16
320.515	8.21
320.883	8.24
321.252	8.27
321.62	8.29
321.988	8.32
322.357	8.35
322.725	8.37
323.093	8.41
323.461	8.44
323.829	8.51
324.197	8.56
324.565	8.59
324.933	8.62
325.301	8.64
325.669	8.69
326.037	8.72
326.405	8.75
326.772	8.77
327.14	8.78
327.508	8.79
327.875	8.82
328.243	8.82
328.61	8.85
328.978	8.87
329.346	8.89
329.713	8.93
330.08	8.96
330.448	8.97
330.815	8.98
331.182	9
331.55	9.02
331.917	9.04
332.284	9.05
332.651	9.06
333.018	9.09
333.385	9.1
333.752	9.14
334.119	9.16
334.486	9.15
334.853	9.17
335.22	9.2
335.587	9.23
335.954	9.26
336.32	9.27
336.687	9.3
337.054	9.33
337.42	9.36
337.787	9.39
338.153	9.42
338.52	9.44
338.886	9.45
339.253	9.46
339.619	9.48
339.986	9.49
340.352	9.51
340.718	9.54
341.084	9.54
341.451	9.56
341.817	9.58
342.183	9.61
342.549	9.62
342.915	9.63
343.281	9.64
343.647	9.65
344.013	9.66
344.379	9.67
344.745	9.67
345.11	9.68
345.476	9.71
345.842	9.73
346.208	9.74
346.573	9.74
346.939	9.74
347.304	9.76
347.67	9.77
348.035	9.77
348.401	9.77
348.766	9.77
349.132	9.77
349.497	9.79
349.862	9.81
350.228	9.81
350.593	9.8
350.958	9.8
351.323	9.81
351.688	9.82
352.053	9.82
352.418	9.82
352.783	9.8
353.148	9.79
353.513	9.79
353.878	9.77
354.243	9.77
354.608	9.76
354.972	9.76
355.337	9.76
355.702	9.74
356.066	9.73
356.431	9.7
356.795	9.68
357.16	9.66
357.524	9.65
357.889	9.64
358.253	9.63
358.618	9.6
358.982	9.59
359.346	9.58
359.71	9.56
360.075	9.56
360.439	9.53
360.803	9.51
361.167	9.5
361.531	9.48
361.895	9.47
362.259	9.44
362.623	9.42
362.987	9.4
363.351	9.38
363.714	9.35
364.078	9.33
364.442	9.3
364.806	9.26
365.169	9.23
365.533	9.2
365.896	9.16
366.26	9.13
366.623	9.1
366.987	9.06
367.35	9.02
367.714	8.99
368.077	8.96
368.44	8.91
368.803	8.87
369.167	8.83
369.53	8.78
369.893	8.73
370.256	8.68
370.619	8.63
370.982	8.58
371.345	8.54
371.708	8.49
372.071	8.44
372.434	8.39
372.797	8.34
373.159	8.29
373.522	8.26
373.885	8.21
374.247	8.16
374.61	8.12
374.973	8.06
375.335	8.01
375.698	7.95
376.06	7.9
376.423	7.85
376.785	7.8
377.147	7.74
377.51	7.69
377.872	7.64
378.234	7.59
378.596	7.55
378.958	7.5
379.321	7.45
379.683	7.41
380.045	7.36
380.407	7.32
380.769	7.27
381.13	7.23
381.492	7.18
381.854	7.14
382.216	7.09
382.578	7.05
382.939	7.01
383.301	6.97
383.663	6.93
384.024	6.89
384.386	6.85
384.747	6.81
385.109	6.77
385.47	6.74
385.832	6.7
386.193	6.66
386.554	6.62
386.916	6.59
387.277	6.56
387.638	6.53
387.999	6.49
388.36	6.45
388.721	6.42
389.082	6.39
389.443	6.36
389.804	6.32
390.165	6.3
390.526	6.27
390.887	6.24
391.248	6.21
391.609	6.19
391.969	6.16
392.33	6.13
392.691	6.11
393.051	6.07
393.412	6.04
393.772	6.01
394.133	5.98
394.493	5.95
394.854	5.92
395.214	5.88
395.574	5.85
395.935	5.82
396.295	5.79
396.655	5.76
397.015	5.73
397.376	5.71
397.736	5.68
398.096	5.65
398.456	5.62
398.816	5.6
399.176	5.56
399.535	5.53
399.895	5.51
400.255	5.49
400.615	5.46
400.975	5.43
401.334	5.41
401.694	5.39
402.054	5.36
402.413	5.34
402.773	5.32
403.132	5.3
403.492	5.28
403.851	5.27
404.211	5.25
404.57	5.23
404.929	5.21
405.288	5.2
405.648	5.18
406.007	5.17
406.366	5.16
406.725	5.15
407.084	5.14
407.443	5.13
407.802	5.11
408.161	5.1
408.52	5.09
408.879	5.09
409.238	5.08
409.596	5.07
409.955	5.07
410.314	5.06
410.673	5.05
411.031	5.04
411.39	5.04
411.748	5.03
412.107	5.03
412.465	5.03
412.824	5.04
413.182	5.05
413.54	5.07
413.899	5.09
414.257	5.12
414.615	5.16
414.974	5.18
415.332	5.21
415.69	5.25
416.048	5.27
416.406	5.31
416.764	5.33
417.122	5.36
417.48	5.39
417.838	5.41
418.195	5.43
418.553	5.45
418.911	5.45
419.269	5.46
419.626	5.44
419.984	5.43
420.342	5.4
420.699	5.37
421.057	5.34
421.414	5.31
421.772	5.29
422.129	5.27
422.486	5.25
422.844	5.24
423.201	5.23
423.558	5.22
423.915	5.21
424.273	5.2
424.63	5.19
424.987	5.18
425.344	5.17
425.701	5.16
426.058	5.16
426.415	5.15
426.772	5.14
427.128	5.13
427.485	5.11
427.842	5.09
428.199	5.07
428.555	5.04
428.912	5.01
429.269	4.97
429.625	4.94
429.982	4.9
430.338	4.86
430.695	4.83
431.051	4.78
431.407	4.76
431.764	4.73
432.12	4.7
432.476	4.68
432.832	4.67
433.189	4.67
433.545	4.67
433.901	4.68
434.257	4.7
434.613	4.73
434.969	4.75
435.325	4.79
435.681	4.83
436.036	4.85
436.392	4.88
436.748	4.9
437.104	4.91
437.459	4.93
437.815	4.95
438.171	4.98
438.526	5.01
438.882	5.04
439.237	5.08
439.593	5.12
439.948	5.16
440.304	5.2
440.659	5.22
441.014	5.25
441.369	5.28
441.725	5.3
442.08	5.31
442.435	5.33
442.79	5.33
443.145	5.33
443.5	5.33
443.855	5.33
444.21	5.33
444.565	5.32
444.92	5.31
445.275	5.3
445.629	5.29
445.984	5.28
446.339	5.26
446.693	5.24
447.048	5.22
447.403	5.2
447.757	5.17
448.112	5.15
448.466	5.11
448.82	5.08
449.175	5.05
449.529	5.02
449.883	5
450.238	4.96
450.592	4.96
450.946	4.94
451.3	4.93
451.654	4.94
452.008	4.93
452.362	4.94
452.716	4.93
453.07	4.93
453.424	4.92
453.778	4.91
454.132	4.89
454.486	4.88
454.839	4.86
455.193	4.83
455.547	4.82
455.9	4.78
456.254	4.76
456.607	4.73
456.961	4.69
457.314	4.67
457.668	4.66
458.021	4.66
458.375	4.65
458.728	4.65
459.081	4.65
459.434	4.66
459.787	4.67
460.141	4.68
460.494	4.69
460.847	4.7
461.2	4.71
461.553	4.72
461.906	4.73
462.259	4.74
462.611	4.74
462.964	4.76
463.317	4.77
463.67	4.78
464.022	4.79
464.375	4.81
464.728	4.82
465.08	4.83
465.433	4.83
465.785	4.84
466.138	4.83
466.49	4.81
466.843	4.8
467.195	4.79
467.547	4.77
467.899	4.75
468.252	4.73
468.604	4.71
468.956	4.69
469.308	4.68
469.66	4.69
470.012	4.69
470.364	4.7
470.716	4.71
471.068	4.73
471.42	4.76
471.772	4.79
472.123	4.8
472.475	4.82
472.827	4.83
473.178	4.85
473.53	4.86
473.882	4.89
474.233	4.92
474.585	4.96
474.936	5.03
475.288	5.14
475.639	5.27
475.99	5.42
476.342	5.59
476.693	5.78
477.044	5.97
477.395	6.15
477.746	6.35
478.097	6.55
478.448	6.75
478.8	6.94
479.15	7.12
479.501	7.28
479.852	7.44
480.203	7.58
480.554	7.71
480.905	7.84
481.255	7.97
481.606	8.08
481.957	8.2
482.307	8.3
482.658	8.4
483.009	8.49
483.359	8.58
483.709	8.67
484.06	8.76
484.41	8.84
484.761	8.92
485.111	9
485.461	9.07
485.811	9.14
486.162	9.21
486.512	9.26
486.862	9.31
487.212	9.34
487.562	9.36
487.912	9.37
488.262	9.37
488.612	9.37
488.961	9.35
489.311	9.3
489.661	9.22
490.011	9.12
490.36	9.01
490.71	8.87
491.06	8.73
491.409	8.57
491.759	8.41
492.108	8.24
492.458	8.06
492.807	7.88
493.157	7.7
493.506	7.54
493.855	7.38
494.204	7.23
494.554	7.09
494.903	6.97
495.252	6.85
495.601	6.74
495.95	6.63
496.299	6.53
496.648	6.44
496.997	6.36
497.346	6.28
497.695	6.21
498.043	6.15
498.392	6.09
498.741	6.04
499.09	5.99
499.438	5.94
499.787	5.91
500.135	5.89
500.484	5.87
500.832	5.86
501.181	5.87
501.529	5.9
501.878	5.95
502.226	6
502.574	6.07
502.923	6.14
503.271	6.21
503.619	6.29
503.967	6.37
504.315	6.44
504.663	6.53
505.011	6.61
505.359	6.7
505.707	6.78
506.055	6.88
506.403	6.98
506.751	7.08
507.098	7.2
507.446	7.31
507.794	7.42
508.141	7.55
508.489	7.68
508.837	7.81
509.184	7.95
509.531	8.09
509.879	8.24
510.226	8.41
510.574	8.58
510.921	8.76
511.268	8.95
511.616	9.14
511.963	9.34
512.31	9.54
512.657	9.74
513.004	9.94
513.351	10.13
513.698	10.32
514.045	10.49
514.392	10.65
514.739	10.81
515.086	10.96
515.432	11.11
515.779	11.26
516.126	11.41
516.473	11.58
516.819	11.77
517.166	11.97
517.512	12.18
517.859	12.41
518.205	12.67
518.552	12.94
518.898	13.24
519.245	13.58
519.591	13.99
519.937	14.46
520.283	15.01
520.629	15.6
520.976	16.23
521.322	16.88
521.668	17.55
522.014	18.23
522.36	18.91
522.706	19.58
523.052	20.24
523.398	20.86
523.743	21.43
524.089	21.95
524.435	22.43
524.781	22.91
525.126	23.38
525.472	23.84
525.817	24.29
526.163	24.74
526.509	25.17
526.854	25.61
527.199	26.04
527.545	26.47
527.89	26.92
528.235	27.36
528.581	27.78
528.926	28.18
529.271	28.56
529.616	28.93
529.961	29.29
530.306	29.63
530.651	29.95
530.996	30.24
531.341	30.51
531.686	30.77
532.031	31.01
532.376	31.28
532.721	31.57
533.065	31.9
533.41	32.23
533.755	32.54
534.099	32.82
534.444	33.06
534.788	33.28
535.133	33.49
535.477	33.67
535.822	33.82
536.166	33.94
536.51	34
536.855	34
537.199	33.97
537.543	33.95
537.887	33.96
538.231	34
538.576	34.06
538.92	34.08
539.264	34.11
539.608	34.11
539.951	34.1
540.295	34.07
540.639	34.04
540.983	33.99
541.327	33.91
541.671	33.82
542.014	33.77
542.358	33.72
542.701	33.75
543.045	33.84
543.389	33.97
543.732	34.12
544.075	34.28
544.419	34.47
544.762	34.66
545.105	34.87
545.449	35.09
545.792	35.32
546.135	35.54
546.478	35.73
546.821	35.88
547.165	35.95
547.508	35.98
547.851	35.96
548.194	35.9
548.536	35.79
548.879	35.65
549.222	35.49
549.565	35.31
549.908	35.16
550.25	35.02
550.593	34.95
550.936	34.96
551.278	35.01
551.621	35.1
551.963	35.21
552.306	35.35
552.648	35.52
552.991	35.72
553.333	35.94
553.675	36.2
554.017	36.48
554.36	36.8
554.702	37.14
555.044	37.53
555.386	37.97
555.728	38.44
556.07	38.86
556.412	39.28
556.754	39.64
557.096	39.94
557.438	40.23
557.78	40.52
558.121	40.81
558.463	41.11
558.805	41.4
559.147	41.7
559.488	41.98
559.83	42.27
560.171	42.55
560.513	42.83
560.854	43.11
561.196	43.38
561.537	43.64
561.878	43.9
562.22	44.16
562.561	44.41
562.902	44.66
563.243	44.91
563.584	45.16
563.925	45.4
564.266	45.65
564.607	45.88
564.948	46.12
565.289	46.34
565.63	46.56
565.971	46.79
566.312	47.01
566.653	47.23
566.993	47.44
567.334	47.65
567.675	47.85
568.015	48.05
568.356	48.24
568.696	48.43
569.037	48.61
569.377	48.78
569.718	48.95
570.058	49.1
570.398	49.26
570.739	49.41
571.079	49.55
571.419	49.7
571.759	49.84
572.099	49.98
572.439	50.11
572.779	50.25
573.119	50.37
573.459	50.5
573.799	50.63
574.139	50.76
574.479	50.88
574.819	51.01
575.158	51.13
575.498	51.25
575.838	51.37
576.177	51.49
576.517	51.61
576.856	51.72
577.196	51.83
577.535	51.94
577.875	52.06
578.214	52.15
578.553	52.27
578.893	52.38
579.232	52.49
579.571	52.59
579.91	52.7
580.25	52.79
580.589	52.89
580.928	53.01
581.267	53.12
581.606	53.23
581.945	53.32
582.283	53.43
582.622	53.54
582.961	53.66
583.3	53.76
583.639	53.87
583.977	53.98
584.316	54.09
584.654	54.19
584.993	54.29
585.332	54.39
585.67	54.48
586.008	54.58
586.347	54.68
586.685	54.78
587.024	54.88
587.362	54.98
587.7	55.08
588.038	55.19
588.376	55.3
588.715	55.4
589.053	55.51
589.391	55.61
589.729	55.72
590.067	55.82
590.404	55.92
590.742	56.03
591.08	56.11
591.418	56.21
591.756	56.28
592.093	56.36
592.431	56.42
592.769	56.5
593.106	56.57
593.444	56.65
593.781	56.71
594.119	56.79
594.456	56.86
594.793	56.92
595.131	56.99
595.468	57.06
595.805	57.13
596.143	57.21
596.48	57.28
596.817	57.36
597.154	57.44
597.491	57.53
597.828	57.61
598.165	57.68
598.502	57.77
598.839	57.84
599.176	57.91
599.512	57.98
599.849	58.03
600.186	58.09
600.523	58.15
600.859	58.22
601.196	58.28
601.532	58.33
601.869	58.38
602.205	58.44
602.542	58.51
602.878	58.56
603.215	58.61
603.551	58.66
603.887	58.71
604.223	58.75
604.56	58.79
604.896	58.84
605.232	58.87
605.568	58.91
605.904	58.97
606.24	59.02
606.576	59.06
606.912	59.09
607.248	59.14
607.583	59.18
607.919	59.21
608.255	59.24
608.591	59.27
608.926	59.3
609.262	59.35
609.597	59.38
609.933	59.4
610.268	59.43
610.604	59.46
610.939	59.49
611.275	59.51
611.61	59.53
611.945	59.55
612.281	59.57
612.616	59.59
612.951	59.63
613.286	59.66
613.621	59.69
613.956	59.72
614.291	59.75
614.626	59.77
614.961	59.79
615.296	59.81
615.631	59.84
615.966	59.86
616.3	59.87
616.635	59.9
616.97	59.93
617.304	59.96
617.639	59.98
617.973	60.01
618.308	60.05
618.642	60.09
618.977	60.12
619.311	60.17
619.646	60.21
619.98	60.25
620.314	60.28
620.648	60.33
620.983	60.37
621.317	60.4
621.651	60.45
621.985	60.5
622.319	60.54
622.653	60.57
622.987	60.6
623.321	60.62
623.655	60.66
623.988	60.69
624.322	60.71
624.656	60.73
624.99	60.77
625.323	60.8
625.657	60.83
625.99	60.85
626.324	60.87
626.657	60.89
626.991	60.92
627.324	60.95
627.658	60.97
627.991	60.99
628.324	61.02
628.657	61.06
628.991	61.09
629.324	61.12
629.657	61.14
629.99	61.16
630.323	61.2
630.656	61.22
630.989	61.24
631.322	61.27
631.655	61.29
631.987	61.31
632.32	61.33
632.653	61.36
632.986	61.38
633.318	61.4
633.651	61.42
633.984	61.45
634.316	61.46
634.649	61.47
634.981	61.5
635.313	61.51
635.646	61.53
635.978	61.55
636.31	61.57
636.643	61.58
636.975	61.61
637.307	61.62
637.639	61.65
637.971	61.67
638.303	61.69
638.635	61.71
638.967	61.71
639.299	61.74
639.631	61.76
639.963	61.79
640.295	61.83
640.626	61.87
640.958	61.89
641.29	61.92
641.621	61.95
641.953	61.97
642.285	61.99
642.616	62.01
642.948	62.01
643.279	62.05
643.61	62.07
643.942	62.09
644.273	62.11
644.604	62.13
644.936	62.17
645.267	62.19
645.598	62.22
645.929	62.24
646.26	62.24
646.591	62.27
646.922	62.3
647.253	62.33
647.584	62.35
647.915	62.38
648.245	62.42
648.576	62.42
648.907	62.44
649.238	62.47
649.568	62.5
649.899	62.53
650.229	62.56
650.56	62.59
650.89	62.61
651.221	62.63
651.551	62.64
651.882	62.67
652.212	62.69
652.542	62.7
652.872	62.73
653.203	62.77
653.533	62.78
653.863	62.8
654.193	62.81
654.523	62.82
654.853	62.83
655.183	62.84
655.513	62.85
655.843	62.89
656.172	62.92
656.502	62.94
656.832	62.95
657.162	62.95
657.491	62.96
657.821	62.97
658.15	62.98
658.48	62.99
658.809	63
659.139	63.01
659.468	63.01
659.798	63.05
660.127	63.06
660.456	63.08
660.785	63.09
661.115	63.11
661.444	63.12
661.773	63.13
662.102	63.14
662.431	63.16
662.76	63.17
663.089	63.18
663.418	63.18
663.747	63.19
664.076	63.21
664.404	63.22
664.733	63.25
665.062	63.26
665.39	63.27
665.719	63.3
666.048	63.33
666.376	63.34
666.705	63.35
667.033	63.38
667.362	63.4
667.69	63.4
668.018	63.43
668.347	63.43
668.675	63.45
669.003	63.47
669.331	63.47
669.659	63.48
669.987	63.5
670.315	63.53
670.643	63.56
670.971	63.59
