Data from UWBM91361_Reflection_00015.txt Node
Date: Sun May 02 12:22:55 EDT 2021
User: vgr7
Spectrometer: USB2G7710
Scans to average: 10
Trigger mode: 4
Integration Time (sec): 1.000000E-1
Electric dark correction enabled: true
Boxcar width: 10
XAxis mode: Wavelengths
Number of Pixels in Spectrum: 2048
>>>>>Begin Spectral Data<<<<<
177.721	-290.41
178.105	152.94
178.488	2.87
178.871	8.7
179.254	-55.17
179.636	-161.04
180.019	49.81
180.402	41.67
180.785	16.3
181.168	-69.15
181.55	-45.87
181.933	-135.54
182.316	-54.44
182.698	-90.43
183.081	-122.35
183.463	-142.61
183.846	-53.56
184.228	-61
184.611	5.54
184.993	25.54
185.376	24.57
185.758	9.1
186.14	15.22
186.522	24.55
186.904	18.23
187.287	19.59
187.669	18.26
188.051	13.82
188.433	18.69
188.815	19.95
189.197	21.75
189.579	22.44
189.961	24.76
190.342	19.22
190.724	20.34
191.106	16.47
191.488	20.93
191.869	22.58
192.251	22.62
192.633	18.06
193.014	12.06
193.396	14.02
193.777	13.24
194.159	10.31
194.54	7.46
194.922	9.9
195.303	6.09
195.684	8.19
196.065	5.67
196.447	0.15
196.828	-1.41
197.209	-6.77
197.59	-7.1
197.971	-7.02
198.352	-2.12
198.733	1.6
199.114	4.52
199.495	2.97
199.876	4.9
200.257	4.82
200.638	3.05
201.018	2.56
201.399	0.36
201.78	2.12
202.16	5.09
202.541	5.2
202.922	0.57
203.302	3.04
203.683	4.71
204.063	5.5
204.444	10.2
204.824	14.33
205.204	15.19
205.585	17.69
205.965	17.05
206.345	14.61
206.725	8.91
207.106	6.2
207.486	7.47
207.866	6.33
208.246	6.13
208.626	12.55
209.006	14.62
209.386	14.19
209.766	14.87
210.145	12.72
210.525	14.66
210.905	18.83
211.285	18.83
211.664	20.79
212.044	19.97
212.424	20.19
212.803	17.88
213.183	22.2
213.562	17.15
213.942	15.63
214.321	11.98
214.701	8
215.08	12.04
215.459	7.73
215.838	4.32
216.218	3.93
216.597	5.36
216.976	2.5
217.355	2.58
217.734	2.24
218.113	0.8
218.492	-0.55
218.871	-0.21
219.25	2.9
219.629	3.26
220.008	6.37
220.387	4.96
220.766	2.14
221.144	0.75
221.523	5.95
221.902	8.23
222.28	11.69
222.659	15.32
223.037	13.66
223.416	17.4
223.794	19.04
224.173	18.48
224.551	15.28
224.929	13.97
225.308	15.98
225.686	15.6
226.064	15.41
226.442	14.84
226.821	14.43
227.199	11.26
227.577	8.5
227.955	5.95
228.333	6.16
228.711	7.17
229.089	7.88
229.467	6.65
229.845	6.47
230.222	6.7
230.6	6.57
230.978	6.61
231.356	6.15
231.733	5.68
232.111	6.77
232.488	6.01
232.866	6.32
233.243	5.45
233.621	5.98
233.998	5.87
234.376	5.83
234.753	5.94
235.13	6.48
235.508	7.62
235.885	8.2
236.262	8.18
236.639	8.41
237.016	8.45
237.393	8.22
237.77	7.96
238.147	7.82
238.524	7.93
238.901	8.24
239.278	8.04
239.655	8.07
240.032	7.67
240.409	7.73
240.785	7.5
241.162	7.59
241.539	7.56
241.915	7.63
242.292	7.68
242.668	7.54
243.045	7.5
243.421	7.27
243.798	7.21
244.174	7.09
244.551	7.01
244.927	6.95
245.303	6.93
245.679	7.03
246.056	6.92
246.432	6.91
246.808	6.79
247.184	6.72
247.56	6.68
247.936	6.75
248.312	6.72
248.688	6.84
249.064	6.81
249.44	6.77
249.815	6.8
250.191	6.79
250.567	6.82
250.943	6.81
251.318	6.89
251.694	6.86
252.069	6.85
252.445	6.86
252.82	6.83
253.196	6.94
253.571	6.85
253.947	6.95
254.322	6.93
254.697	7.05
255.073	7.14
255.448	7.18
255.823	7.1
256.198	7
256.573	6.88
256.948	6.81
257.323	6.8
257.698	6.7
258.073	6.71
258.448	6.72
258.823	6.72
259.198	6.63
259.573	6.63
259.948	6.65
260.322	6.6
260.697	6.59
261.072	6.57
261.446	6.54
261.821	6.53
262.195	6.51
262.57	6.42
262.944	6.4
263.319	6.35
263.693	6.35
264.067	6.39
264.442	6.41
264.816	6.41
265.19	6.37
265.564	6.4
265.938	6.3
266.313	6.21
266.687	6.17
267.061	6.21
267.435	6.19
267.809	6.19
268.183	6.2
268.556	6.2
268.93	6.17
269.304	6.17
269.678	6.13
270.051	6.09
270.425	6.1
270.799	6.12
271.172	6.16
271.546	6.14
271.919	6.15
272.293	6.1
272.666	6.05
273.04	6.03
273.413	5.95
273.787	5.94
274.16	5.97
274.533	5.98
274.906	5.97
275.279	5.99
275.653	5.99
276.026	5.94
276.399	5.88
276.772	5.89
277.145	5.93
277.518	5.92
277.891	6.01
278.263	6.04
278.636	6.04
279.009	6.04
279.382	6.01
279.755	5.96
280.127	5.98
280.5	6.05
280.872	6.01
281.245	6.11
281.617	6.17
281.99	6.17
282.362	6.17
282.735	6.14
283.107	6.13
283.479	6.19
283.852	6.23
284.224	6.29
284.596	6.27
284.968	6.29
285.34	6.3
285.713	6.33
286.085	6.31
286.457	6.36
286.829	6.37
287.201	6.42
287.572	6.5
287.944	6.57
288.316	6.62
288.688	6.72
289.06	6.75
289.431	6.8
289.803	6.84
290.175	6.94
290.546	7.04
290.918	7.15
291.289	7.16
291.661	7.27
292.032	7.35
292.403	7.5
292.775	7.58
293.146	7.71
293.517	7.81
293.889	7.94
294.26	8.04
294.631	8.15
295.002	8.25
295.373	8.34
295.744	8.46
296.115	8.55
296.486	8.63
296.857	8.74
297.228	8.86
297.599	8.97
297.97	9.02
298.34	9.09
298.711	9.16
299.082	9.26
299.452	9.33
299.823	9.44
300.194	9.54
300.564	9.65
300.935	9.76
301.305	9.84
301.676	9.93
302.046	10
302.416	10.13
302.787	10.27
303.157	10.42
303.527	10.55
303.897	10.65
304.267	10.79
304.637	10.92
305.008	11.06
305.378	11.2
305.748	11.34
306.117	11.5
306.487	11.63
306.857	11.81
307.227	12.02
307.597	12.12
307.967	12.28
308.336	12.42
308.706	12.57
309.076	12.74
309.445	12.88
309.815	13.04
310.184	13.14
310.554	13.28
310.923	13.36
311.293	13.47
311.662	13.63
312.031	13.76
312.401	13.91
312.77	14.02
313.139	14.18
313.508	14.3
313.877	14.44
314.246	14.55
314.616	14.67
314.985	14.75
315.353	14.9
315.722	15.03
316.091	15.18
316.46	15.29
316.829	15.46
317.198	15.63
317.567	15.75
317.935	15.88
318.304	16.04
318.672	16.2
319.041	16.31
319.41	16.43
319.778	16.55
320.147	16.64
320.515	16.74
320.883	16.83
321.252	16.98
321.62	17.09
321.988	17.27
322.357	17.44
322.725	17.58
323.093	17.76
323.461	17.88
323.829	17.96
324.197	18.05
324.565	18.1
324.933	18.14
325.301	18.29
325.669	18.43
326.037	18.5
326.405	18.61
326.772	18.76
327.14	18.84
327.508	18.93
327.875	19.06
328.243	19.16
328.61	19.26
328.978	19.4
329.346	19.48
329.713	19.52
330.08	19.59
330.448	19.66
330.815	19.69
331.182	19.79
331.55	19.92
331.917	20.07
332.284	20.17
332.651	20.3
333.018	20.35
333.385	20.39
333.752	20.48
334.119	20.58
334.486	20.61
334.853	20.69
335.22	20.76
335.587	20.79
335.954	20.93
336.32	21
336.687	21.04
337.054	21.12
337.42	21.26
337.787	21.37
338.153	21.48
338.52	21.6
338.886	21.67
339.253	21.75
339.619	21.82
339.986	21.91
340.352	21.99
340.718	22.08
341.084	22.16
341.451	22.19
341.817	22.26
342.183	22.37
342.549	22.46
342.915	22.54
343.281	22.64
343.647	22.7
344.013	22.78
344.379	22.83
344.745	22.9
345.11	22.93
345.476	22.96
345.842	23.01
346.208	23.06
346.573	23.12
346.939	23.16
347.304	23.18
347.67	23.22
348.035	23.28
348.401	23.31
348.766	23.34
349.132	23.42
349.497	23.45
349.862	23.47
350.228	23.48
350.593	23.49
350.958	23.48
351.323	23.49
351.688	23.5
352.053	23.51
352.418	23.54
352.783	23.56
353.148	23.57
353.513	23.59
353.878	23.59
354.243	23.57
354.608	23.59
354.972	23.62
355.337	23.59
355.702	23.55
356.066	23.55
356.431	23.56
356.795	23.51
357.16	23.46
357.524	23.43
357.889	23.41
358.253	23.4
358.618	23.38
358.982	23.36
359.346	23.32
359.71	23.31
360.075	23.25
360.439	23.22
360.803	23.17
361.167	23.11
361.531	23.06
361.895	23.03
362.259	22.96
362.623	22.9
362.987	22.88
363.351	22.82
363.714	22.79
364.078	22.73
364.442	22.69
364.806	22.64
365.169	22.62
365.533	22.55
365.896	22.51
366.26	22.44
366.623	22.36
366.987	22.31
367.35	22.21
367.714	22.16
368.077	22.08
368.44	22
368.803	21.92
369.167	21.86
369.53	21.8
369.893	21.71
370.256	21.61
370.619	21.53
370.982	21.45
371.345	21.33
371.708	21.24
372.071	21.16
372.434	21.06
372.797	20.94
373.159	20.85
373.522	20.75
373.885	20.66
374.247	20.53
374.61	20.42
374.973	20.34
375.335	20.22
375.698	20.1
376.06	20
376.423	19.9
376.785	19.78
377.147	19.66
377.51	19.56
377.872	19.44
378.234	19.33
378.596	19.24
378.958	19.15
379.321	19.06
379.683	18.95
380.045	18.84
380.407	18.76
380.769	18.63
381.13	18.54
381.492	18.45
381.854	18.35
382.216	18.26
382.578	18.15
382.939	18.07
383.301	17.97
383.663	17.88
384.024	17.79
384.386	17.7
384.747	17.62
385.109	17.54
385.47	17.47
385.832	17.39
386.193	17.28
386.554	17.19
386.916	17.1
387.277	17.01
387.638	16.94
387.999	16.81
388.36	16.77
388.721	16.67
389.082	16.58
389.443	16.49
389.804	16.4
390.165	16.32
390.526	16.23
390.887	16.14
391.248	16.06
391.609	15.99
391.969	15.91
392.33	15.83
392.691	15.74
393.051	15.65
393.412	15.54
393.772	15.45
394.133	15.37
394.493	15.27
394.854	15.18
395.214	15.09
395.574	15.01
395.935	14.89
396.295	14.78
396.655	14.68
397.015	14.58
397.376	14.46
397.736	14.35
398.096	14.23
398.456	14.13
398.816	14.04
399.176	13.92
399.535	13.8
399.895	13.7
400.255	13.59
400.615	13.51
400.975	13.42
401.334	13.34
401.694	13.25
402.054	13.17
402.413	13.09
402.773	13.01
403.132	12.94
403.492	12.88
403.851	12.82
404.211	12.76
404.57	12.7
404.929	12.65
405.288	12.58
405.648	12.53
406.007	12.49
406.366	12.44
406.725	12.4
407.084	12.35
407.443	12.3
407.802	12.27
408.161	12.22
408.52	12.18
408.879	12.13
409.238	12.08
409.596	12.04
409.955	11.99
410.314	11.95
410.673	11.89
411.031	11.85
411.39	11.82
411.748	11.78
412.107	11.74
412.465	11.7
412.824	11.66
413.182	11.63
413.54	11.57
413.899	11.52
414.257	11.46
414.615	11.42
414.974	11.37
415.332	11.32
415.69	11.28
416.048	11.23
416.406	11.18
416.764	11.14
417.122	11.1
417.48	11.07
417.838	11.03
418.195	10.99
418.553	10.94
418.911	10.9
419.269	10.86
419.626	10.83
419.984	10.79
420.342	10.75
420.699	10.71
421.057	10.67
421.414	10.64
421.772	10.6
422.129	10.57
422.486	10.53
422.844	10.49
423.201	10.44
423.558	10.4
423.915	10.37
424.273	10.32
424.63	10.27
424.987	10.23
425.344	10.19
425.701	10.14
426.058	10.1
426.415	10.05
426.772	10
427.128	9.94
427.485	9.89
427.842	9.85
428.199	9.8
428.555	9.75
428.912	9.7
429.269	9.66
429.625	9.61
429.982	9.56
430.338	9.53
430.695	9.51
431.051	9.48
431.407	9.45
431.764	9.43
432.12	9.41
432.476	9.39
432.832	9.37
433.189	9.36
433.545	9.35
433.901	9.35
434.257	9.34
434.613	9.34
434.969	9.33
435.325	9.33
435.681	9.33
436.036	9.33
436.392	9.34
436.748	9.34
437.104	9.34
437.459	9.35
437.815	9.35
438.171	9.36
438.526	9.37
438.882	9.37
439.237	9.38
439.593	9.39
439.948	9.4
440.304	9.4
440.659	9.4
441.014	9.39
441.369	9.38
441.725	9.37
442.08	9.37
442.435	9.36
442.79	9.35
443.145	9.34
443.5	9.33
443.855	9.31
444.21	9.29
444.565	9.28
444.92	9.25
445.275	9.23
445.629	9.2
445.984	9.18
446.339	9.15
446.693	9.12
447.048	9.09
447.403	9.06
447.757	9.05
448.112	9.01
448.466	8.99
448.82	8.96
449.175	8.93
449.529	8.89
449.883	8.85
450.238	8.81
450.592	8.76
450.946	8.72
451.3	8.68
451.654	8.64
452.008	8.6
452.362	8.57
452.716	8.54
453.07	8.5
453.424	8.47
453.778	8.44
454.132	8.41
454.486	8.4
454.839	8.38
455.193	8.36
455.547	8.35
455.9	8.35
456.254	8.34
456.607	8.34
456.961	8.35
457.314	8.35
457.668	8.36
458.021	8.37
458.375	8.38
458.728	8.39
459.081	8.4
459.434	8.41
459.787	8.43
460.141	8.44
460.494	8.45
460.847	8.46
461.2	8.47
461.553	8.49
461.906	8.5
462.259	8.52
462.611	8.54
462.964	8.55
463.317	8.58
463.67	8.6
464.022	8.62
464.375	8.64
464.728	8.68
465.08	8.7
465.433	8.73
465.785	8.76
466.138	8.79
466.49	8.82
466.843	8.85
467.195	8.88
467.547	8.91
467.899	8.95
468.252	8.98
468.604	9.02
468.956	9.06
469.308	9.09
469.66	9.12
470.012	9.15
470.364	9.18
470.716	9.21
471.068	9.25
471.42	9.28
471.772	9.31
472.123	9.34
472.475	9.37
472.827	9.4
473.178	9.43
473.53	9.45
473.882	9.46
474.233	9.47
474.585	9.5
474.936	9.51
475.288	9.52
475.639	9.53
475.99	9.53
476.342	9.54
476.693	9.54
477.044	9.53
477.395	9.54
477.746	9.54
478.097	9.54
478.448	9.58
478.8	9.73
479.15	9.95
479.501	10.23
479.852	10.54
480.203	10.89
480.554	11.23
480.905	11.59
481.255	11.94
481.606	12.29
481.957	12.64
482.307	12.97
482.658	13.27
483.009	13.52
483.359	13.73
483.709	13.92
484.06	14.11
484.41	14.28
484.761	14.43
485.111	14.59
485.461	14.73
485.811	14.86
486.162	14.91
486.512	14.88
486.862	14.8
487.212	14.67
487.562	14.49
487.912	14.29
488.262	14.07
488.612	13.83
488.961	13.57
489.311	13.28
489.661	12.99
490.011	12.7
490.36	12.4
490.71	12.09
491.06	11.79
491.409	11.48
491.759	11.25
492.108	11.05
492.458	10.88
492.807	10.75
493.157	10.61
493.506	10.48
493.855	10.37
494.204	10.26
494.554	10.15
494.903	10.07
495.252	9.99
495.601	9.93
495.95	9.87
496.299	9.83
496.648	9.81
496.997	9.8
497.346	9.84
497.695	9.92
498.043	10.07
498.392	10.24
498.741	10.44
499.09	10.59
499.438	10.71
499.787	10.82
500.135	10.91
500.484	11.03
500.832	11.14
501.181	11.25
501.529	11.37
501.878	11.49
502.226	11.63
502.574	11.76
502.923	11.89
503.271	12.04
503.619	12.18
503.967	12.33
504.315	12.5
504.663	12.65
505.011	12.81
505.359	12.97
505.707	13.12
506.055	13.28
506.403	13.45
506.751	13.62
507.098	13.78
507.446	13.94
507.794	14.11
508.141	14.27
508.489	14.43
508.837	14.59
509.184	14.75
509.531	14.91
509.879	15.08
510.226	15.23
510.574	15.38
510.921	15.54
511.268	15.69
511.616	15.84
511.963	16
512.31	16.16
512.657	16.33
513.004	16.5
513.351	16.69
513.698	16.86
514.045	17.05
514.392	17.23
514.739	17.42
515.086	17.6
515.432	17.78
515.779	17.96
516.126	18.13
516.473	18.31
516.819	18.46
517.166	18.63
517.512	18.79
517.859	18.93
518.205	19.07
518.552	19.21
518.898	19.35
519.245	19.47
519.591	19.6
519.937	19.74
520.283	19.88
520.629	20.02
520.976	20.18
521.322	20.34
521.668	20.51
522.014	20.67
522.36	20.86
522.706	21.06
523.052	21.34
523.398	21.76
523.743	22.32
524.089	22.97
524.435	23.64
524.781	24.35
525.126	25.08
525.472	25.79
525.817	26.49
526.163	27.14
526.509	27.76
526.854	28.29
527.199	28.73
527.545	29.06
527.89	29.34
528.235	29.63
528.581	29.89
528.926	30.15
529.271	30.41
529.616	30.65
529.961	30.88
530.306	31.07
530.651	31.15
530.996	31.1
531.341	30.97
531.686	30.75
532.031	30.44
532.376	30.05
532.721	29.59
533.065	29.13
533.41	28.76
533.755	28.4
534.099	28.13
534.444	28.01
534.788	27.97
535.133	27.99
535.477	28.01
535.822	28.08
536.166	28.18
536.51	28.32
536.855	28.5
537.199	28.72
537.543	28.98
537.887	29.29
538.231	29.64
538.576	30.01
538.92	30.43
539.264	30.88
539.608	31.35
539.951	31.82
540.295	32.26
540.639	32.55
540.983	32.81
541.327	33.02
541.671	33.19
542.014	33.43
542.358	33.68
542.701	33.91
543.045	34.13
543.389	34.34
543.732	34.53
544.075	34.74
544.419	34.91
544.762	35.07
545.105	35.19
545.449	35.27
545.792	35.34
546.135	35.4
546.478	35.47
546.821	35.61
547.165	35.81
547.508	36.07
547.851	36.42
548.194	36.84
548.536	37.26
548.879	37.62
549.222	37.88
549.565	38.12
549.908	38.37
550.25	38.63
550.593	38.88
550.936	39.16
551.278	39.41
551.621	39.68
551.963	39.96
552.306	40.24
552.648	40.52
552.991	40.76
553.333	41.03
553.675	41.31
554.017	41.57
554.36	41.85
554.702	42.12
555.044	42.36
555.386	42.64
555.728	42.92
556.07	43.18
556.412	43.45
556.754	43.73
557.096	43.98
557.438	44.26
557.78	44.55
558.121	44.81
558.463	45.08
558.805	45.37
559.147	45.65
559.488	45.91
559.83	46.16
560.171	46.44
560.513	46.71
560.854	46.98
561.196	47.26
561.537	47.54
561.878	47.82
562.22	48.12
562.561	48.36
562.902	48.62
563.243	48.9
563.584	49.15
563.925	49.41
564.266	49.67
564.607	49.92
564.948	50.15
565.289	50.38
565.63	50.62
565.971	50.83
566.312	51.05
566.653	51.29
566.993	51.51
567.334	51.76
567.675	51.97
568.015	52.2
568.356	52.41
568.696	52.61
569.037	52.8
569.377	53.01
569.718	53.21
570.058	53.41
570.398	53.63
570.739	53.81
571.079	54
571.419	54.19
571.759	54.33
572.099	54.48
572.439	54.64
572.779	54.77
573.119	54.93
573.459	55.06
573.799	55.17
574.139	55.29
574.479	55.37
574.819	55.48
575.158	55.55
575.498	55.64
575.838	55.73
576.177	55.8
576.517	55.87
576.856	55.94
577.196	56.01
577.535	56.06
577.875	56.13
578.214	56.16
578.553	56.22
578.893	56.28
579.232	56.34
579.571	56.39
579.91	56.44
580.25	56.49
580.589	56.55
580.928	56.61
581.267	56.7
581.606	56.76
581.945	56.84
582.283	56.94
582.622	57.05
582.961	57.15
583.3	57.26
583.639	57.35
583.977	57.46
584.316	57.56
584.654	57.64
584.993	57.75
585.332	57.88
585.67	57.98
586.008	58.11
586.347	58.27
586.685	58.43
587.024	58.55
587.362	58.67
587.7	58.79
588.038	58.92
588.376	59.03
588.715	59.14
589.053	59.25
589.391	59.34
589.729	59.44
590.067	59.51
590.404	59.6
590.742	59.69
591.08	59.77
591.418	59.87
591.756	59.98
592.093	60.08
592.431	60.18
592.769	60.26
593.106	60.32
593.444	60.38
593.781	60.43
594.119	60.53
594.456	60.59
594.793	60.68
595.131	60.74
595.468	60.79
595.805	60.84
596.143	60.86
596.48	60.91
596.817	60.91
597.154	60.97
597.491	61
597.828	61.04
598.165	61.07
598.502	61.09
598.839	61.12
599.176	61.13
599.512	61.17
599.849	61.22
600.186	61.27
600.523	61.35
600.859	61.43
601.196	61.47
601.532	61.54
601.869	61.59
602.205	61.63
602.542	61.69
602.878	61.78
603.215	61.83
603.551	61.89
603.887	61.98
604.223	62.04
604.56	62.09
604.896	62.11
605.232	62.16
605.568	62.21
605.904	62.22
606.24	62.27
606.576	62.29
606.912	62.31
607.248	62.33
607.583	62.33
607.919	62.32
608.255	62.32
608.591	62.33
608.926	62.34
609.262	62.33
609.597	62.32
609.933	62.31
610.268	62.33
610.604	62.31
610.939	62.28
611.275	62.27
611.61	62.26
611.945	62.29
612.281	62.3
612.616	62.29
612.951	62.31
613.286	62.3
613.621	62.3
613.956	62.29
614.291	62.29
614.626	62.29
614.961	62.3
615.296	62.32
615.631	62.3
615.966	62.28
616.3	62.3
616.635	62.34
616.97	62.33
617.304	62.36
617.639	62.39
617.973	62.41
618.308	62.41
618.642	62.43
618.977	62.44
619.311	62.42
619.646	62.44
619.98	62.48
620.314	62.52
620.648	62.55
620.983	62.58
621.317	62.63
621.651	62.65
621.985	62.66
622.319	62.69
622.653	62.75
622.987	62.82
623.321	62.91
623.655	62.92
623.988	62.99
624.322	63.05
624.656	63.09
624.99	63.17
625.323	63.19
625.657	63.22
625.99	63.3
626.324	63.38
626.657	63.43
626.991	63.45
627.324	63.51
627.658	63.51
627.991	63.54
628.324	63.54
628.657	63.56
628.991	63.6
629.324	63.61
629.657	63.62
629.99	63.61
630.323	63.6
630.656	63.61
630.989	63.6
631.322	63.61
631.655	63.61
631.987	63.57
632.32	63.62
632.653	63.62
632.986	63.59
633.318	63.54
633.651	63.53
633.984	63.51
634.316	63.48
634.649	63.46
634.981	63.47
635.313	63.47
635.646	63.47
635.978	63.44
636.31	63.4
636.643	63.39
636.975	63.35
637.307	63.3
637.639	63.31
637.971	63.28
638.303	63.23
638.635	63.22
638.967	63.23
639.299	63.18
639.631	63.17
639.963	63.19
640.295	63.21
640.626	63.21
640.958	63.26
641.29	63.26
641.621	63.33
641.953	63.32
642.285	63.35
642.616	63.34
642.948	63.35
643.279	63.41
643.61	63.41
643.942	63.47
644.273	63.53
644.604	63.56
644.936	63.65
645.267	63.71
645.598	63.74
645.929	63.77
646.26	63.86
646.591	63.9
646.922	63.91
647.253	63.93
647.584	63.97
647.915	63.99
648.245	64.04
648.576	64.06
648.907	64.09
649.238	64.14
649.568	64.15
649.899	64.22
650.229	64.25
650.56	64.3
650.89	64.3
651.221	64.31
651.551	64.34
651.882	64.34
652.212	64.33
652.542	64.33
652.872	64.36
653.203	64.39
653.533	64.4
653.863	64.46
654.193	64.5
654.523	64.51
654.853	64.56
655.183	64.59
655.513	64.59
655.843	64.66
656.172	64.7
656.502	64.75
656.832	64.74
657.162	64.77
657.491	64.83
657.821	64.89
658.15	64.91
658.48	64.91
658.809	64.91
659.139	64.96
659.468	64.98
659.798	64.99
660.127	64.97
660.456	64.99
