Data from UWBM59056_Reflection_00010.txt Node
Date: Sun May 02 13:45:24 EDT 2021
User: vgr7
Spectrometer: USB2G7710
Scans to average: 10
Trigger mode: 4
Integration Time (sec): 1.000000E-1
Electric dark correction enabled: true
Boxcar width: 20
XAxis mode: Wavelengths
Number of Pixels in Spectrum: 2048
>>>>>Begin Spectral Data<<<<<
177.721	91.26
178.105	91.44
178.488	104.73
178.871	143.08
179.254	140.74
179.636	61.04
180.019	37.97
180.402	32.9
180.785	28.64
181.168	24.04
181.55	18.38
181.933	16.12
182.316	12.89
182.698	13.28
183.081	10.83
183.463	6.03
183.846	4.45
184.228	5.98
184.611	4.29
184.993	3.49
185.376	4.72
185.758	7.05
186.14	10.58
186.522	9.8
186.904	8.53
187.287	8.49
187.669	9.77
188.051	7.1
188.433	6.92
188.815	3.96
189.197	5.54
189.579	6.91
189.961	4.48
190.342	2.66
190.724	4.17
191.106	4.47
191.488	7.24
191.869	6.1
192.251	2.52
192.633	2.51
193.014	2.44
193.396	-0.23
193.777	-0.04
194.159	0.38
194.54	-0.95
194.922	-1.92
195.303	-1.11
195.684	0.38
196.065	0.54
196.447	1.93
196.828	3.1
197.209	2.45
197.59	0.81
197.971	1.05
198.352	0.79
198.733	0.04
199.114	0.12
199.495	1.15
199.876	-0.2
200.257	-0.91
200.638	-2.09
201.018	-0.12
201.399	0.12
201.78	0.43
202.16	0.19
202.541	-0.66
202.922	-1.03
203.302	-1.1
203.683	-1.78
204.063	-0.56
204.444	-0.04
204.824	-0.94
205.204	-2.76
205.585	-0.56
205.965	2.07
206.345	0.62
206.725	-0.11
207.106	-0.76
207.486	-0.32
207.866	1.45
208.246	1.11
208.626	-0.75
209.006	0.31
209.386	1.44
209.766	-0.66
210.145	-1.98
210.525	-1.97
210.905	0.17
211.285	-1.45
211.664	-1.89
212.044	-3.47
212.424	-5.5
212.803	-4.86
213.183	-4.3
213.562	-3.42
213.942	-3.07
214.321	-4.2
214.701	-3.07
215.08	-2.97
215.459	-2.26
215.838	-2.16
216.218	-0.09
216.597	-1.59
216.976	-0.88
217.355	-1.12
217.734	-1.35
218.113	-0.62
218.492	-1.26
218.871	-1.07
219.25	0.54
219.629	0.65
220.008	1.51
220.387	0.98
220.766	3.35
221.144	3.4
221.523	2.69
221.902	3.4
222.28	3.78
222.659	4.07
223.037	4.09
223.416	4.75
223.794	4.97
224.173	5.44
224.551	5.54
224.929	6.32
225.308	6.91
225.686	7.52
226.064	7.57
226.442	7.01
226.821	7.83
227.199	8.23
227.577	8.26
227.955	8.69
228.333	8.25
228.711	8.58
229.089	7.87
229.467	7.51
229.845	7.85
230.222	7.62
230.6	7.62
230.978	7.44
231.356	7.57
231.733	7.1
232.111	6.99
232.488	6.73
232.866	6.43
233.243	6.46
233.621	6.23
233.998	6.09
234.376	6.01
234.753	5.67
235.13	5.54
235.508	5.69
235.885	5.61
236.262	5.32
236.639	5.2
237.016	5.15
237.393	5.03
237.77	4.94
238.147	4.78
238.524	4.76
238.901	4.68
239.278	4.67
239.655	4.7
240.032	4.61
240.409	4.53
240.785	4.59
241.162	4.61
241.539	4.61
241.915	4.65
242.292	4.63
242.668	4.61
243.045	4.64
243.421	4.61
243.798	4.67
244.174	4.68
244.551	4.7
244.927	4.73
245.303	4.75
245.679	4.76
246.056	4.71
246.432	4.72
246.808	4.66
247.184	4.71
247.56	4.69
247.936	4.67
248.312	4.66
248.688	4.63
249.064	4.63
249.44	4.61
249.815	4.58
250.191	4.55
250.567	4.55
250.943	4.51
251.318	4.47
251.694	4.48
252.069	4.47
252.445	4.47
252.82	4.47
253.196	4.45
253.571	4.45
253.947	4.44
254.322	4.41
254.697	4.39
255.073	4.36
255.448	4.37
255.823	4.33
256.198	4.3
256.573	4.28
256.948	4.26
257.323	4.23
257.698	4.19
258.073	4.16
258.448	4.13
258.823	4.11
259.198	4.09
259.573	4.07
259.948	4.07
260.322	4.03
260.697	4
261.072	3.98
261.446	3.99
261.821	3.98
262.195	4.02
262.57	3.99
262.944	3.98
263.319	3.98
263.693	3.98
264.067	3.98
264.442	3.98
264.816	3.96
265.19	3.96
265.564	3.97
265.938	3.95
266.313	3.94
266.687	3.94
267.061	3.93
267.435	3.92
267.809	3.9
268.183	3.91
268.556	3.91
268.93	3.9
269.304	3.89
269.678	3.9
270.051	3.89
270.425	3.88
270.799	3.86
271.172	3.87
271.546	3.88
271.919	3.85
272.293	3.85
272.666	3.86
273.04	3.87
273.413	3.91
273.787	3.91
274.16	3.93
274.533	3.93
274.906	3.92
275.279	3.91
275.653	3.92
276.026	3.93
276.399	3.94
276.772	3.95
277.145	3.95
277.518	3.93
277.891	3.92
278.263	3.92
278.636	3.93
279.009	3.92
279.382	3.92
279.755	3.93
280.127	3.96
280.5	3.96
280.872	3.99
281.245	3.99
281.617	4
281.99	4.02
282.362	4.03
282.735	4.01
283.107	4.02
283.479	4.01
283.852	4.01
284.224	4.01
284.596	4
284.968	4
285.34	4.02
285.713	4.02
286.085	4.03
286.457	4.03
286.829	4.03
287.201	4.05
287.572	4.05
287.944	4.04
288.316	4.03
288.688	4.02
289.06	4.03
289.431	4.02
289.803	4.04
290.175	4.05
290.546	4.07
290.918	4.09
291.289	4.12
291.661	4.14
292.032	4.12
292.403	4.12
292.775	4.14
293.146	4.15
293.517	4.18
293.889	4.19
294.26	4.23
294.631	4.25
295.002	4.27
295.373	4.29
295.744	4.3
296.115	4.31
296.486	4.33
296.857	4.36
297.228	4.37
297.599	4.39
297.97	4.43
298.34	4.43
298.711	4.45
299.082	4.47
299.452	4.5
299.823	4.54
300.194	4.57
300.564	4.59
300.935	4.61
301.305	4.63
301.676	4.65
302.046	4.68
302.416	4.7
302.787	4.72
303.157	4.75
303.527	4.79
303.897	4.83
304.267	4.86
304.637	4.89
305.008	4.92
305.378	4.96
305.748	4.98
306.117	5
306.487	5.03
306.857	5.06
307.227	5.11
307.597	5.16
307.967	5.18
308.336	5.23
308.706	5.24
309.076	5.28
309.445	5.3
309.815	5.32
310.184	5.34
310.554	5.36
310.923	5.4
311.293	5.44
311.662	5.46
312.031	5.49
312.401	5.53
312.77	5.57
313.139	5.58
313.508	5.62
313.877	5.66
314.246	5.69
314.616	5.72
314.985	5.73
315.353	5.76
315.722	5.78
316.091	5.83
316.46	5.86
316.829	5.92
317.198	5.95
317.567	6
317.935	6.06
318.304	6.11
318.672	6.15
319.041	6.19
319.41	6.22
319.778	6.28
320.147	6.32
320.515	6.36
320.883	6.38
321.252	6.41
321.62	6.44
321.988	6.48
322.357	6.52
322.725	6.56
323.093	6.6
323.461	6.62
323.829	6.66
324.197	6.68
324.565	6.71
324.933	6.75
325.301	6.77
325.669	6.8
326.037	6.83
326.405	6.87
326.772	6.9
327.14	6.93
327.508	6.94
327.875	6.97
328.243	7
328.61	7.02
328.978	7.04
329.346	7.06
329.713	7.09
330.08	7.11
330.448	7.12
330.815	7.14
331.182	7.16
331.55	7.18
331.917	7.18
332.284	7.18
332.651	7.19
333.018	7.21
333.385	7.22
333.752	7.24
334.119	7.27
334.486	7.29
334.853	7.31
335.22	7.33
335.587	7.35
335.954	7.38
336.32	7.41
336.687	7.44
337.054	7.44
337.42	7.46
337.787	7.48
338.153	7.5
338.52	7.51
338.886	7.52
339.253	7.55
339.619	7.56
339.986	7.56
340.352	7.6
340.718	7.61
341.084	7.62
341.451	7.63
341.817	7.65
342.183	7.66
342.549	7.67
342.915	7.68
343.281	7.7
343.647	7.71
344.013	7.72
344.379	7.74
344.745	7.75
345.11	7.76
345.476	7.79
345.842	7.8
346.208	7.8
346.573	7.8
346.939	7.8
347.304	7.82
347.67	7.83
348.035	7.84
348.401	7.86
348.766	7.87
349.132	7.88
349.497	7.89
349.862	7.88
350.228	7.89
350.593	7.89
350.958	7.89
351.323	7.88
351.688	7.89
352.053	7.9
352.418	7.89
352.783	7.88
353.148	7.87
353.513	7.87
353.878	7.86
354.243	7.86
354.608	7.85
354.972	7.86
355.337	7.84
355.702	7.84
356.066	7.82
356.431	7.8
356.795	7.78
357.16	7.76
357.524	7.75
357.889	7.74
358.253	7.73
358.618	7.7
358.982	7.69
359.346	7.68
359.71	7.66
360.075	7.66
360.439	7.63
360.803	7.62
361.167	7.61
361.531	7.6
361.895	7.58
362.259	7.57
362.623	7.55
362.987	7.52
363.351	7.5
363.714	7.47
364.078	7.44
364.442	7.42
364.806	7.4
365.169	7.37
365.533	7.35
365.896	7.32
366.26	7.3
366.623	7.26
366.987	7.23
367.35	7.2
367.714	7.17
368.077	7.13
368.44	7.1
368.803	7.08
369.167	7.04
369.53	6.99
369.893	6.95
370.256	6.9
370.619	6.86
370.982	6.82
371.345	6.78
371.708	6.74
372.071	6.7
372.434	6.67
372.797	6.63
373.159	6.58
373.522	6.55
373.885	6.52
374.247	6.48
374.61	6.44
374.973	6.39
375.335	6.35
375.698	6.3
376.06	6.26
376.423	6.21
376.785	6.17
377.147	6.13
377.51	6.09
377.872	6.05
378.234	6.01
378.596	5.96
378.958	5.92
379.321	5.88
379.683	5.85
380.045	5.81
380.407	5.78
380.769	5.75
381.13	5.71
381.492	5.68
381.854	5.64
382.216	5.62
382.578	5.58
382.939	5.55
383.301	5.52
383.663	5.49
384.024	5.45
384.386	5.43
384.747	5.4
385.109	5.37
385.47	5.34
385.832	5.32
386.193	5.28
386.554	5.26
386.916	5.23
387.277	5.2
387.638	5.17
387.999	5.15
388.36	5.12
388.721	5.09
389.082	5.07
389.443	5.05
389.804	5.02
390.165	5
390.526	4.98
390.887	4.96
391.248	4.94
391.609	4.93
391.969	4.91
392.33	4.89
392.691	4.87
393.051	4.85
393.412	4.83
393.772	4.81
394.133	4.79
394.493	4.77
394.854	4.75
395.214	4.72
395.574	4.7
395.935	4.69
396.295	4.67
396.655	4.64
397.015	4.62
397.376	4.61
397.736	4.58
398.096	4.57
398.456	4.54
398.816	4.53
399.176	4.51
399.535	4.49
399.895	4.48
400.255	4.46
400.615	4.44
400.975	4.43
401.334	4.41
401.694	4.4
402.054	4.39
402.413	4.37
402.773	4.36
403.132	4.35
403.492	4.34
403.851	4.32
404.211	4.32
404.57	4.31
404.929	4.3
405.288	4.29
405.648	4.28
406.007	4.28
406.366	4.27
406.725	4.25
407.084	4.25
407.443	4.24
407.802	4.23
408.161	4.23
408.52	4.22
408.879	4.22
409.238	4.22
409.596	4.21
409.955	4.21
410.314	4.21
410.673	4.2
411.031	4.19
411.39	4.19
411.748	4.19
412.107	4.19
412.465	4.19
412.824	4.2
413.182	4.21
413.54	4.23
413.899	4.25
414.257	4.27
414.615	4.3
414.974	4.32
415.332	4.35
415.69	4.39
416.048	4.41
416.406	4.44
416.764	4.46
417.122	4.49
417.48	4.51
417.838	4.54
418.195	4.56
418.553	4.57
418.911	4.58
419.269	4.58
419.626	4.57
419.984	4.55
420.342	4.54
420.699	4.52
421.057	4.49
421.414	4.47
421.772	4.46
422.129	4.44
422.486	4.44
422.844	4.43
423.201	4.42
423.558	4.42
423.915	4.41
424.273	4.41
424.63	4.4
424.987	4.4
425.344	4.39
425.701	4.39
426.058	4.39
426.415	4.38
426.772	4.38
427.128	4.37
427.485	4.36
427.842	4.35
428.199	4.33
428.555	4.31
428.912	4.29
429.269	4.26
429.625	4.24
429.982	4.21
430.338	4.17
430.695	4.15
431.051	4.12
431.407	4.1
431.764	4.07
432.12	4.05
432.476	4.04
432.832	4.03
433.189	4.03
433.545	4.03
433.901	4.04
434.257	4.06
434.613	4.08
434.969	4.1
435.325	4.13
435.681	4.17
436.036	4.19
436.392	4.21
436.748	4.22
437.104	4.23
437.459	4.24
437.815	4.26
438.171	4.28
438.526	4.3
438.882	4.33
439.237	4.37
439.593	4.4
439.948	4.43
440.304	4.46
440.659	4.49
441.014	4.5
441.369	4.53
441.725	4.54
442.08	4.56
442.435	4.57
442.79	4.57
443.145	4.58
443.5	4.58
443.855	4.57
444.21	4.57
444.565	4.57
444.92	4.55
445.275	4.54
445.629	4.53
445.984	4.52
446.339	4.51
446.693	4.5
447.048	4.48
447.403	4.47
447.757	4.44
448.112	4.43
448.466	4.4
448.82	4.38
449.175	4.36
449.529	4.34
449.883	4.32
450.238	4.3
450.592	4.29
450.946	4.28
451.3	4.28
451.654	4.28
452.008	4.28
452.362	4.29
452.716	4.29
453.07	4.28
453.424	4.28
453.778	4.27
454.132	4.26
454.486	4.25
454.839	4.23
455.193	4.21
455.547	4.2
455.9	4.17
456.254	4.16
456.607	4.13
456.961	4.1
457.314	4.08
457.668	4.07
458.021	4.07
458.375	4.07
458.728	4.07
459.081	4.08
459.434	4.09
459.787	4.1
460.141	4.11
460.494	4.12
460.847	4.13
461.2	4.13
461.553	4.14
461.906	4.15
462.259	4.16
462.611	4.16
462.964	4.17
463.317	4.18
463.67	4.19
464.022	4.19
464.375	4.2
464.728	4.21
465.08	4.21
465.433	4.22
465.785	4.22
466.138	4.22
466.49	4.21
466.843	4.19
467.195	4.18
467.547	4.16
467.899	4.14
468.252	4.12
468.604	4.1
468.956	4.09
469.308	4.08
469.66	4.08
470.012	4.08
470.364	4.09
470.716	4.09
471.068	4.11
471.42	4.13
471.772	4.16
472.123	4.17
472.475	4.19
472.827	4.2
473.178	4.21
473.53	4.21
473.882	4.23
474.233	4.25
474.585	4.28
474.936	4.34
475.288	4.43
475.639	4.54
475.99	4.67
476.342	4.82
476.693	4.98
477.044	5.13
477.395	5.3
477.746	5.47
478.097	5.63
478.448	5.8
478.8	5.97
479.15	6.12
479.501	6.26
479.852	6.39
480.203	6.51
480.554	6.63
480.905	6.74
481.255	6.84
481.606	6.94
481.957	7.04
482.307	7.13
482.658	7.21
483.009	7.29
483.359	7.37
483.709	7.45
484.06	7.52
484.41	7.59
484.761	7.66
485.111	7.73
485.461	7.79
485.811	7.85
486.162	7.9
486.512	7.95
486.862	7.99
487.212	8.01
487.562	8.03
487.912	8.04
488.262	8.05
488.612	8.04
488.961	8.02
489.311	7.98
489.661	7.92
490.011	7.83
490.36	7.73
490.71	7.61
491.06	7.48
491.409	7.35
491.759	7.21
492.108	7.07
492.458	6.92
492.807	6.76
493.157	6.61
493.506	6.47
493.855	6.33
494.204	6.2
494.554	6.08
494.903	5.97
495.252	5.86
495.601	5.77
495.95	5.67
496.299	5.59
496.648	5.52
496.997	5.45
497.346	5.38
497.695	5.31
498.043	5.26
498.392	5.2
498.741	5.15
499.09	5.11
499.438	5.07
499.787	5.04
500.135	5.01
500.484	5
500.832	4.99
501.181	5
501.529	5.03
501.878	5.08
502.226	5.13
502.574	5.19
502.923	5.25
503.271	5.32
503.619	5.39
503.967	5.47
504.315	5.55
504.663	5.64
505.011	5.72
505.359	5.81
505.707	5.91
506.055	6
506.403	6.1
506.751	6.21
507.098	6.33
507.446	6.45
507.794	6.58
508.141	6.73
508.489	6.88
508.837	7.04
509.184	7.2
509.531	7.37
509.879	7.54
510.226	7.74
510.574	7.93
510.921	8.14
511.268	8.35
511.616	8.58
511.963	8.81
512.31	9.05
512.657	9.29
513.004	9.53
513.351	9.77
513.698	9.99
514.045	10.21
514.392	10.42
514.739	10.62
515.086	10.82
515.432	11.02
515.779	11.23
516.126	11.45
516.473	11.68
516.819	11.93
517.166	12.19
517.512	12.48
517.859	12.78
518.205	13.1
518.552	13.45
518.898	13.82
519.245	14.24
519.591	14.74
519.937	15.32
520.283	15.98
520.629	16.69
520.976	17.44
521.322	18.21
521.668	19
522.014	19.78
522.36	20.56
522.706	21.33
523.052	22.09
523.398	22.81
523.743	23.48
524.089	24.1
524.435	24.68
524.781	25.26
525.126	25.83
525.472	26.38
525.817	26.93
526.163	27.47
526.509	27.99
526.854	28.51
527.199	29.02
527.545	29.53
527.89	30.06
528.235	30.58
528.581	31.07
528.926	31.54
529.271	31.98
529.616	32.4
529.961	32.8
530.306	33.16
530.651	33.51
530.996	33.83
531.341	34.13
531.686	34.4
532.031	34.67
532.376	34.96
532.721	35.27
533.065	35.61
533.41	35.97
533.755	36.28
534.099	36.55
534.444	36.78
534.788	36.98
535.133	37.16
535.477	37.31
535.822	37.42
536.166	37.49
536.51	37.5
536.855	37.45
537.199	37.36
537.543	37.27
537.887	37.21
538.231	37.19
538.576	37.17
538.92	37.14
539.264	37.09
539.608	37.01
539.951	36.92
540.295	36.82
540.639	36.7
540.983	36.57
541.327	36.41
541.671	36.25
542.014	36.12
542.358	36
542.701	35.99
543.045	36.02
543.389	36.08
543.732	36.15
544.075	36.25
544.419	36.36
544.762	36.48
545.105	36.61
545.449	36.76
545.792	36.91
546.135	37.07
546.478	37.17
546.821	37.22
547.165	37.2
547.508	37.12
547.851	37
548.194	36.83
548.536	36.61
548.879	36.35
549.222	36.06
549.565	35.76
549.908	35.48
550.25	35.22
550.593	35.02
550.936	34.9
551.278	34.84
551.621	34.81
551.963	34.81
552.306	34.82
552.648	34.87
552.991	34.95
553.333	35.04
553.675	35.18
554.017	35.34
554.36	35.52
554.702	35.74
555.044	35.99
555.386	36.29
555.728	36.6
556.07	36.86
556.412	37.13
556.754	37.29
557.096	37.45
557.438	37.6
557.78	37.76
558.121	37.91
558.463	38.06
558.805	38.21
559.147	38.36
559.488	38.51
559.83	38.66
560.171	38.8
560.513	38.94
560.854	39.09
561.196	39.22
561.537	39.36
561.878	39.48
562.22	39.61
562.561	39.73
562.902	39.87
563.243	40
563.584	40.14
563.925	40.26
564.266	40.38
564.607	40.51
564.948	40.63
565.289	40.75
565.63	40.87
565.971	40.98
566.312	41.1
566.653	41.21
566.993	41.32
567.334	41.43
567.675	41.54
568.015	41.64
568.356	41.73
568.696	41.82
569.037	41.91
569.377	42
569.718	42.09
570.058	42.17
570.398	42.25
570.739	42.33
571.079	42.4
571.419	42.48
571.759	42.54
572.099	42.62
572.439	42.69
572.779	42.75
573.119	42.81
573.459	42.87
573.799	42.94
574.139	43.01
574.479	43.07
574.819	43.13
575.158	43.19
575.498	43.25
575.838	43.31
576.177	43.37
576.517	43.43
576.856	43.48
577.196	43.54
577.535	43.59
577.875	43.64
578.214	43.71
578.553	43.76
578.893	43.82
579.232	43.87
579.571	43.92
579.91	43.97
580.25	44.02
580.589	44.07
580.928	44.13
581.267	44.17
581.606	44.22
581.945	44.28
582.283	44.34
582.622	44.4
582.961	44.47
583.3	44.54
583.639	44.6
583.977	44.67
584.316	44.74
584.654	44.81
584.993	44.88
585.332	44.95
585.67	45.02
586.008	45.09
586.347	45.14
586.685	45.22
587.024	45.3
587.362	45.37
587.7	45.43
588.038	45.49
588.376	45.56
588.715	45.64
589.053	45.72
589.391	45.79
589.729	45.87
590.067	45.94
590.404	46.01
590.742	46.09
591.08	46.15
591.418	46.22
591.756	46.28
592.093	46.35
592.431	46.4
592.769	46.45
593.106	46.5
593.444	46.55
593.781	46.6
594.119	46.65
594.456	46.71
594.793	46.76
595.131	46.82
595.468	46.87
595.805	46.92
596.143	46.98
596.48	47.04
596.817	47.09
597.154	47.14
597.491	47.2
597.828	47.25
598.165	47.3
598.502	47.36
598.839	47.41
599.176	47.45
599.512	47.5
599.849	47.54
600.186	47.58
600.523	47.62
600.859	47.65
601.196	47.68
601.532	47.73
601.869	47.77
602.205	47.81
602.542	47.85
602.878	47.89
603.215	47.93
603.551	47.96
603.887	48
604.223	48.05
604.56	48.08
604.896	48.11
605.232	48.15
605.568	48.18
605.904	48.2
606.24	48.23
606.576	48.26
606.912	48.28
607.248	48.3
607.583	48.33
607.919	48.36
608.255	48.38
608.591	48.4
608.926	48.43
609.262	48.46
609.597	48.48
609.933	48.49
610.268	48.51
610.604	48.53
610.939	48.54
611.275	48.55
611.61	48.58
611.945	48.6
612.281	48.62
612.616	48.64
612.951	48.66
613.286	48.68
613.621	48.69
613.956	48.73
614.291	48.74
614.626	48.76
614.961	48.79
615.296	48.8
615.631	48.82
615.966	48.84
616.3	48.85
616.635	48.86
616.97	48.88
617.304	48.9
617.639	48.93
617.973	48.93
618.308	48.95
618.642	48.97
618.977	48.98
619.311	49.01
619.646	49.03
619.98	49.06
620.314	49.09
620.648	49.13
620.983	49.16
621.317	49.19
621.651	49.22
621.985	49.24
622.319	49.27
622.653	49.3
622.987	49.32
623.321	49.35
623.655	49.38
623.988	49.41
624.322	49.44
624.656	49.48
624.99	49.5
625.323	49.51
625.657	49.53
625.99	49.54
626.324	49.56
626.657	49.56
626.991	49.58
627.324	49.6
627.658	49.61
627.991	49.63
628.324	49.65
628.657	49.67
628.991	49.68
629.324	49.71
629.657	49.73
629.99	49.77
630.323	49.78
630.656	49.79
630.989	49.81
631.322	49.83
631.655	49.85
631.987	49.86
632.32	49.88
632.653	49.89
632.986	49.93
633.318	49.95
633.651	49.95
633.984	49.97
634.316	49.99
634.649	50
634.981	50.02
635.313	50.02
635.646	50.05
635.978	50.07
636.31	50.08
636.643	50.09
636.975	50.1
637.307	50.11
637.639	50.11
637.971	50.14
638.303	50.15
638.635	50.19
638.967	50.22
639.299	50.25
639.631	50.27
639.963	50.29
640.295	50.32
640.626	50.35
640.958	50.38
641.29	50.41
641.621	50.44
641.953	50.47
642.285	50.5
642.616	50.53
642.948	50.54
643.279	50.55
643.61	50.56
643.942	50.6
644.273	50.62
644.604	50.64
644.936	50.66
645.267	50.67
645.598	50.68
645.929	50.7
646.26	50.73
646.591	50.73
646.922	50.75
647.253	50.77
647.584	50.78
647.915	50.81
648.245	50.85
648.576	50.85
648.907	50.88
649.238	50.87
649.568	50.87
649.899	50.89
650.229	50.91
650.56	50.92
650.89	50.96
651.221	50.98
651.551	50.99
651.882	51
652.212	51
652.542	51.01
652.872	51.03
653.203	51.05
653.533	51.06
653.863	51.08
654.193	51.1
654.523	51.1
654.853	51.12
655.183	51.15
655.513	51.16
655.843	51.18
656.172	51.19
656.502	51.19
656.832	51.21
657.162	51.22
657.491	51.23
657.821	51.25
658.15	51.28
658.48	51.29
658.809	51.3
659.139	51.31
659.468	51.33
659.798	51.34
660.127	51.36
660.456	51.36
660.785	51.38
661.115	51.39
661.444	51.39
661.773	51.41
662.102	51.42
662.431	51.45
662.76	51.5
663.089	51.53
663.418	51.55
663.747	51.54
664.076	51.56
664.404	51.57
664.733	51.6
665.062	51.62
665.39	51.65
665.719	51.67
666.048	51.68
666.376	51.68
666.705	51.69
667.033	51.71
667.362	51.72
667.69	51.73
668.018	51.74
668.347	51.75
668.675	51.74
669.003	51.75
669.331	51.74
669.659	51.76
669.987	51.78
670.315	51.79
670.643	51.8
670.971	51.82
671.299	51.83
671.627	51.83
