Data from UWBM48344_Reflection_00006.txt Node
Date: Sun May 02 14:00:43 EDT 2021
User: vgr7
Spectrometer: USB2G7710
Scans to average: 10
Trigger mode: 4
Integration Time (sec): 1.000000E-1
Electric dark correction enabled: true
Boxcar width: 20
XAxis mode: Wavelengths
Number of Pixels in Spectrum: 2048
>>>>>Begin Spectral Data<<<<<
177.721	362.96
178.105	1440.74
178.488	664.2
178.871	429.63
179.254	229.43
179.636	112.79
180.019	77.08
180.402	58.62
180.785	47.84
181.168	43.09
181.55	31.01
181.933	38.47
182.316	28.3
182.698	25.34
183.081	25.07
183.463	26.55
183.846	21.42
184.228	20.72
184.611	18.66
184.993	15.56
185.376	14.33
185.758	17.81
186.14	21.88
186.522	18.13
186.904	17.89
187.287	19.6
187.669	21.51
188.051	18.92
188.433	18.37
188.815	14.59
189.197	14.88
189.579	14.92
189.961	12.18
190.342	12.66
190.724	10.78
191.106	12.17
191.488	10.28
191.869	6.26
192.251	4.06
192.633	4.64
193.014	4.46
193.396	2.74
193.777	2.01
194.159	2.36
194.54	0.82
194.922	-1.43
195.303	-0.6
195.684	-0.18
196.065	-0.83
196.447	0.86
196.828	1.25
197.209	0.77
197.59	-3.9
197.971	-2
198.352	-1.26
198.733	-0.02
199.114	-0.09
199.495	1.66
199.876	2.48
200.257	2.96
200.638	2.69
201.018	3.51
201.399	4.62
201.78	4.24
202.16	4.51
202.541	4.22
202.922	3.28
203.302	2.04
203.683	2.22
204.063	2.3
204.444	3.57
204.824	4.06
205.204	1.98
205.585	2.87
205.965	2.09
206.345	1.47
206.725	0.54
207.106	1.53
207.486	2.69
207.866	3.78
208.246	1.84
208.626	0.81
209.006	0.8
209.386	0.12
209.766	-0.5
210.145	-2.22
210.525	-0.15
210.905	1.6
211.285	0.46
211.664	2.29
212.044	1.01
212.424	-0.5
212.803	-0.08
213.183	1.43
213.562	1.67
213.942	1.47
214.321	-0.9
214.701	-2.88
215.08	-3.43
215.459	-4.64
215.838	-6.18
216.218	-5.54
216.597	-5.81
216.976	-6.11
217.355	-5.96
217.734	-6.01
218.113	-6.09
218.492	-6.59
218.871	-6.27
219.25	-4.69
219.629	-3.2
220.008	-3.09
220.387	-5.2
220.766	-3.38
221.144	-4.46
221.523	-2.83
221.902	-1.19
222.28	-0.67
222.659	-0.68
223.037	-0.73
223.416	0.11
223.794	0.75
224.173	1.81
224.551	2.01
224.929	3.81
225.308	3.23
225.686	3.96
226.064	3.23
226.442	2.94
226.821	3.55
227.199	3.39
227.577	3.48
227.955	3.71
228.333	3.95
228.711	3.82
229.089	3.21
229.467	3.04
229.845	3.32
230.222	3.9
230.6	3.87
230.978	4
231.356	4.55
231.733	4.29
232.111	4.17
232.488	3.95
232.866	3.81
233.243	3.68
233.621	3.73
233.998	3.65
234.376	3.73
234.753	3.44
235.13	3.36
235.508	3.55
235.885	3.69
236.262	3.69
236.639	3.85
237.016	3.76
237.393	3.77
237.77	3.84
238.147	3.83
238.524	3.98
238.901	3.99
239.278	4.04
239.655	4.1
240.032	4.08
240.409	4.02
240.785	4.09
241.162	4.11
241.539	4.16
241.915	4.23
242.292	4.26
242.668	4.32
243.045	4.32
243.421	4.35
243.798	4.38
244.174	4.41
244.551	4.44
244.927	4.47
245.303	4.47
245.679	4.48
246.056	4.43
246.432	4.42
246.808	4.38
247.184	4.41
247.56	4.43
247.936	4.43
248.312	4.42
248.688	4.45
249.064	4.44
249.44	4.46
249.815	4.44
250.191	4.44
250.567	4.46
250.943	4.44
251.318	4.43
251.694	4.46
252.069	4.44
252.445	4.45
252.82	4.44
253.196	4.43
253.571	4.42
253.947	4.38
254.322	4.36
254.697	4.37
255.073	4.33
255.448	4.34
255.823	4.32
256.198	4.31
256.573	4.3
256.948	4.31
257.323	4.26
257.698	4.21
258.073	4.18
258.448	4.17
258.823	4.13
259.198	4.12
259.573	4.1
259.948	4.1
260.322	4.08
260.697	4.05
261.072	4.02
261.446	4.01
261.821	3.99
262.195	4
262.57	3.99
262.944	3.99
263.319	4
263.693	4.01
264.067	3.98
264.442	3.98
264.816	3.97
265.19	3.97
265.564	3.99
265.938	3.97
266.313	3.98
266.687	3.97
267.061	3.96
267.435	3.95
267.809	3.94
268.183	3.94
268.556	3.92
268.93	3.93
269.304	3.92
269.678	3.92
270.051	3.89
270.425	3.88
270.799	3.86
271.172	3.86
271.546	3.88
271.919	3.88
272.293	3.88
272.666	3.89
273.04	3.9
273.413	3.93
273.787	3.94
274.16	3.94
274.533	3.94
274.906	3.94
275.279	3.94
275.653	3.95
276.026	3.97
276.399	3.98
276.772	4
277.145	3.99
277.518	3.99
277.891	4.01
278.263	3.99
278.636	3.99
279.009	3.97
279.382	3.98
279.755	3.98
280.127	3.98
280.5	3.99
280.872	4
281.245	3.99
281.617	3.98
281.99	3.99
282.362	3.97
282.735	3.98
283.107	3.99
283.479	3.97
283.852	3.98
284.224	3.98
284.596	3.97
284.968	3.96
285.34	3.98
285.713	3.99
286.085	4
286.457	4
286.829	3.99
287.201	3.99
287.572	3.98
287.944	3.97
288.316	3.95
288.688	3.94
289.06	3.93
289.431	3.95
289.803	3.96
290.175	3.97
290.546	3.97
290.918	3.99
291.289	3.99
291.661	4
292.032	4
292.403	4.02
292.775	4.03
293.146	4.02
293.517	4.03
293.889	4.03
294.26	4.05
294.631	4.05
295.002	4.06
295.373	4.07
295.744	4.07
296.115	4.07
296.486	4.1
296.857	4.09
297.228	4.12
297.599	4.14
297.97	4.14
298.34	4.14
298.711	4.17
299.082	4.17
299.452	4.18
299.823	4.2
300.194	4.21
300.564	4.2
300.935	4.2
301.305	4.21
301.676	4.22
302.046	4.22
302.416	4.23
302.787	4.23
303.157	4.24
303.527	4.25
303.897	4.27
304.267	4.28
304.637	4.26
305.008	4.27
305.378	4.28
305.748	4.28
306.117	4.26
306.487	4.28
306.857	4.27
307.227	4.28
307.597	4.27
307.967	4.26
308.336	4.27
308.706	4.27
309.076	4.26
309.445	4.26
309.815	4.25
310.184	4.25
310.554	4.24
310.923	4.24
311.293	4.23
311.662	4.23
312.031	4.23
312.401	4.22
312.77	4.21
313.139	4.21
313.508	4.21
313.877	4.2
314.246	4.2
314.616	4.2
314.985	4.19
315.353	4.2
315.722	4.21
316.091	4.21
316.46	4.2
316.829	4.19
317.198	4.2
317.567	4.21
317.935	4.22
318.304	4.21
318.672	4.2
319.041	4.18
319.41	4.16
319.778	4.16
320.147	4.14
320.515	4.12
320.883	4.13
321.252	4.14
321.62	4.13
321.988	4.13
322.357	4.13
322.725	4.14
323.093	4.14
323.461	4.13
323.829	4.13
324.197	4.13
324.565	4.13
324.933	4.14
325.301	4.13
325.669	4.14
326.037	4.14
326.405	4.14
326.772	4.13
327.14	4.13
327.508	4.11
327.875	4.11
328.243	4.1
328.61	4.09
328.978	4.08
329.346	4.08
329.713	4.08
330.08	4.07
330.448	4.06
330.815	4.05
331.182	4.04
331.55	4.06
331.917	4.05
332.284	4.03
332.651	4.02
333.018	4.03
333.385	4.05
333.752	4.06
334.119	4.06
334.486	4.07
334.853	4.07
335.22	4.07
335.587	4.07
335.954	4.07
336.32	4.06
336.687	4.05
337.054	4.04
337.42	4.05
337.787	4.04
338.153	4.04
338.52	4.03
338.886	4.03
339.253	4.02
339.619	4.03
339.986	4.03
340.352	4.04
340.718	4.04
341.084	4.04
341.451	4.04
341.817	4.05
342.183	4.05
342.549	4.07
342.915	4.07
343.281	4.09
343.647	4.1
344.013	4.11
344.379	4.11
344.745	4.1
345.11	4.12
345.476	4.12
345.842	4.13
346.208	4.14
346.573	4.12
346.939	4.11
347.304	4.12
347.67	4.11
348.035	4.11
348.401	4.11
348.766	4.1
349.132	4.1
349.497	4.1
349.862	4.1
350.228	4.11
350.593	4.1
350.958	4.1
351.323	4.11
351.688	4.11
352.053	4.12
352.418	4.12
352.783	4.12
353.148	4.13
353.513	4.13
353.878	4.13
354.243	4.13
354.608	4.13
354.972	4.13
355.337	4.13
355.702	4.13
356.066	4.13
356.431	4.13
356.795	4.13
357.16	4.12
357.524	4.12
357.889	4.11
358.253	4.1
358.618	4.1
358.982	4.09
359.346	4.1
359.71	4.1
360.075	4.09
360.439	4.09
360.803	4.09
361.167	4.08
361.531	4.09
361.895	4.09
362.259	4.09
362.623	4.09
362.987	4.09
363.351	4.09
363.714	4.09
364.078	4.09
364.442	4.09
364.806	4.09
365.169	4.09
365.533	4.1
365.896	4.1
366.26	4.1
366.623	4.1
366.987	4.09
367.35	4.09
367.714	4.09
368.077	4.08
368.44	4.08
368.803	4.08
369.167	4.08
369.53	4.08
369.893	4.07
370.256	4.07
370.619	4.07
370.982	4.07
371.345	4.07
371.708	4.07
372.071	4.07
372.434	4.07
372.797	4.07
373.159	4.07
373.522	4.08
373.885	4.08
374.247	4.08
374.61	4.08
374.973	4.08
375.335	4.08
375.698	4.07
376.06	4.07
376.423	4.06
376.785	4.06
377.147	4.06
377.51	4.06
377.872	4.06
378.234	4.05
378.596	4.05
378.958	4.04
379.321	4.03
379.683	4.03
380.045	4.03
380.407	4.03
380.769	4.02
381.13	4.02
381.492	4.02
381.854	4.01
382.216	4.01
382.578	4.01
382.939	4.01
383.301	4.01
383.663	4.01
384.024	4
384.386	4
384.747	4
385.109	4
385.47	3.99
385.832	3.99
386.193	3.98
386.554	3.97
386.916	3.97
387.277	3.97
387.638	3.97
387.999	3.97
388.36	3.97
388.721	3.96
389.082	3.96
389.443	3.96
389.804	3.96
390.165	3.96
390.526	3.96
390.887	3.96
391.248	3.96
391.609	3.96
391.969	3.95
392.33	3.95
392.691	3.95
393.051	3.95
393.412	3.95
393.772	3.95
394.133	3.95
394.493	3.94
394.854	3.94
395.214	3.94
395.574	3.94
395.935	3.94
396.295	3.93
396.655	3.93
397.015	3.93
397.376	3.93
397.736	3.93
398.096	3.92
398.456	3.92
398.816	3.93
399.176	3.93
399.535	3.93
399.895	3.93
400.255	3.93
400.615	3.93
400.975	3.93
401.334	3.93
401.694	3.93
402.054	3.93
402.413	3.93
402.773	3.93
403.132	3.93
403.492	3.93
403.851	3.93
404.211	3.93
404.57	3.93
404.929	3.93
405.288	3.94
405.648	3.94
406.007	3.94
406.366	3.94
406.725	3.94
407.084	3.95
407.443	3.95
407.802	3.95
408.161	3.95
408.52	3.96
408.879	3.96
409.238	3.96
409.596	3.96
409.955	3.97
410.314	3.97
410.673	3.97
411.031	3.98
411.39	3.99
411.748	4
412.107	4
412.465	4.01
412.824	4.04
413.182	4.06
413.54	4.09
413.899	4.12
414.257	4.15
414.615	4.2
414.974	4.23
415.332	4.27
415.69	4.31
416.048	4.34
416.406	4.39
416.764	4.42
417.122	4.45
417.48	4.48
417.838	4.51
418.195	4.54
418.553	4.56
418.911	4.58
419.269	4.59
419.626	4.6
419.984	4.59
420.342	4.57
420.699	4.56
421.057	4.54
421.414	4.52
421.772	4.51
422.129	4.5
422.486	4.5
422.844	4.5
423.201	4.5
423.558	4.5
423.915	4.5
424.273	4.5
424.63	4.49
424.987	4.5
425.344	4.5
425.701	4.5
426.058	4.5
426.415	4.5
426.772	4.5
427.128	4.5
427.485	4.49
427.842	4.47
428.199	4.46
428.555	4.44
428.912	4.42
429.269	4.39
429.625	4.37
429.982	4.34
430.338	4.31
430.695	4.29
431.051	4.25
431.407	4.23
431.764	4.22
432.12	4.2
432.476	4.19
432.832	4.18
433.189	4.18
433.545	4.18
433.901	4.2
434.257	4.22
434.613	4.24
434.969	4.27
435.325	4.3
435.681	4.34
436.036	4.36
436.392	4.39
436.748	4.4
437.104	4.41
437.459	4.43
437.815	4.45
438.171	4.48
438.526	4.5
438.882	4.54
439.237	4.58
439.593	4.61
439.948	4.65
440.304	4.69
440.659	4.72
441.014	4.74
441.369	4.77
441.725	4.79
442.08	4.8
442.435	4.82
442.79	4.83
443.145	4.83
443.5	4.83
443.855	4.83
444.21	4.84
444.565	4.83
444.92	4.83
445.275	4.82
445.629	4.81
445.984	4.8
446.339	4.79
446.693	4.78
447.048	4.76
447.403	4.75
447.757	4.72
448.112	4.7
448.466	4.68
448.82	4.65
449.175	4.63
449.529	4.61
449.883	4.59
450.238	4.57
450.592	4.56
450.946	4.55
451.3	4.55
451.654	4.56
452.008	4.56
452.362	4.57
452.716	4.57
453.07	4.57
453.424	4.56
453.778	4.56
454.132	4.55
454.486	4.54
454.839	4.52
455.193	4.5
455.547	4.49
455.9	4.46
456.254	4.44
456.607	4.41
456.961	4.39
457.314	4.36
457.668	4.35
458.021	4.35
458.375	4.34
458.728	4.34
459.081	4.34
459.434	4.35
459.787	4.36
460.141	4.37
460.494	4.38
460.847	4.39
461.2	4.4
461.553	4.4
461.906	4.41
462.259	4.41
462.611	4.41
462.964	4.42
463.317	4.43
463.67	4.43
464.022	4.44
464.375	4.44
464.728	4.44
465.08	4.45
465.433	4.45
465.785	4.44
466.138	4.43
466.49	4.41
466.843	4.39
467.195	4.37
467.547	4.35
467.899	4.32
468.252	4.29
468.604	4.26
468.956	4.24
469.308	4.22
469.66	4.22
470.012	4.21
470.364	4.21
470.716	4.22
471.068	4.23
471.42	4.25
471.772	4.27
472.123	4.28
472.475	4.29
472.827	4.3
473.178	4.31
473.53	4.32
473.882	4.34
474.233	4.36
474.585	4.4
474.936	4.46
475.288	4.56
475.639	4.68
475.99	4.82
476.342	4.98
476.693	5.14
477.044	5.32
477.395	5.5
477.746	5.68
478.097	5.86
478.448	6.05
478.8	6.24
479.15	6.41
479.501	6.56
479.852	6.7
480.203	6.84
480.554	6.97
480.905	7.1
481.255	7.21
481.606	7.33
481.957	7.44
482.307	7.54
482.658	7.64
483.009	7.73
483.359	7.82
483.709	7.91
484.06	7.99
484.41	8.08
484.761	8.16
485.111	8.24
485.461	8.31
485.811	8.38
486.162	8.44
486.512	8.49
486.862	8.53
487.212	8.56
487.562	8.58
487.912	8.59
488.262	8.6
488.612	8.59
488.961	8.57
489.311	8.52
489.661	8.45
490.011	8.36
490.36	8.25
490.71	8.12
491.06	7.98
491.409	7.83
491.759	7.67
492.108	7.5
492.458	7.34
492.807	7.16
493.157	6.99
493.506	6.82
493.855	6.66
494.204	6.52
494.554	6.37
494.903	6.24
495.252	6.11
495.601	5.99
495.95	5.87
496.299	5.75
496.648	5.65
496.997	5.55
497.346	5.46
497.695	5.36
498.043	5.27
498.392	5.19
498.741	5.1
499.09	5.02
499.438	4.94
499.787	4.87
500.135	4.8
500.484	4.74
500.832	4.69
501.181	4.66
501.529	4.63
501.878	4.62
502.226	4.61
502.574	4.61
502.923	4.61
503.271	4.62
503.619	4.62
503.967	4.62
504.315	4.61
504.663	4.62
505.011	4.62
505.359	4.62
505.707	4.62
506.055	4.62
506.403	4.62
506.751	4.63
507.098	4.64
507.446	4.65
507.794	4.66
508.141	4.67
508.489	4.69
508.837	4.71
509.184	4.73
509.531	4.74
509.879	4.76
510.226	4.78
510.574	4.8
510.921	4.83
511.268	4.85
511.616	4.87
511.963	4.9
512.31	4.93
512.657	4.96
513.004	4.98
513.351	5.01
513.698	5.02
514.045	5.04
514.392	5.05
514.739	5.05
515.086	5.05
515.432	5.05
515.779	5.05
516.126	5.05
516.473	5.05
516.819	5.06
517.166	5.07
517.512	5.09
517.859	5.11
518.205	5.13
518.552	5.16
518.898	5.2
519.245	5.25
519.591	5.32
519.937	5.4
520.283	5.51
520.629	5.63
520.976	5.76
521.322	5.9
521.668	6.04
522.014	6.18
522.36	6.33
522.706	6.47
523.052	6.6
523.398	6.72
523.743	6.83
524.089	6.92
524.435	7
524.781	7.08
525.126	7.15
525.472	7.22
525.817	7.28
526.163	7.34
526.509	7.4
526.854	7.45
527.199	7.51
527.545	7.56
527.89	7.62
528.235	7.68
528.581	7.73
528.926	7.79
529.271	7.83
529.616	7.87
529.961	7.92
530.306	7.95
530.651	7.98
530.996	8
531.341	8.02
531.686	8.02
532.031	8.03
532.376	8.04
532.721	8.04
533.065	8.05
533.41	8.06
533.755	8.05
534.099	8.04
534.444	8.02
534.788	7.98
535.133	7.94
535.477	7.89
535.822	7.83
536.166	7.77
536.51	7.7
536.855	7.61
537.199	7.53
537.543	7.44
537.887	7.37
538.231	7.3
538.576	7.24
538.92	7.18
539.264	7.11
539.608	7.05
539.951	6.98
540.295	6.91
540.639	6.84
540.983	6.77
541.327	6.7
541.671	6.62
542.014	6.55
542.358	6.48
542.701	6.43
543.045	6.4
543.389	6.37
543.732	6.35
544.075	6.32
544.419	6.31
544.762	6.29
545.105	6.28
545.449	6.27
545.792	6.26
546.135	6.26
546.478	6.24
546.821	6.22
547.165	6.18
547.508	6.14
547.851	6.09
548.194	6.02
548.536	5.95
548.879	5.88
549.222	5.79
549.565	5.71
549.908	5.63
550.25	5.56
550.593	5.48
550.936	5.43
551.278	5.39
551.621	5.35
551.963	5.32
552.306	5.29
552.648	5.27
552.991	5.25
553.333	5.24
553.675	5.23
554.017	5.22
554.36	5.22
554.702	5.23
555.044	5.24
555.386	5.26
555.728	5.28
556.07	5.3
556.412	5.32
556.754	5.33
557.096	5.34
557.438	5.34
557.78	5.34
558.121	5.34
558.463	5.35
558.805	5.35
559.147	5.35
559.488	5.35
559.83	5.36
560.171	5.36
560.513	5.37
560.854	5.37
561.196	5.37
561.537	5.37
561.878	5.38
562.22	5.38
562.561	5.38
562.902	5.38
563.243	5.38
563.584	5.39
563.925	5.39
564.266	5.39
564.607	5.4
564.948	5.4
565.289	5.4
565.63	5.4
565.971	5.41
566.312	5.41
566.653	5.42
566.993	5.42
567.334	5.42
567.675	5.43
568.015	5.43
568.356	5.44
568.696	5.44
569.037	5.45
569.377	5.44
569.718	5.45
570.058	5.45
570.398	5.45
570.739	5.45
571.079	5.45
571.419	5.45
571.759	5.45
572.099	5.46
572.439	5.46
572.779	5.46
573.119	5.46
573.459	5.46
573.799	5.46
574.139	5.45
574.479	5.45
574.819	5.45
575.158	5.45
575.498	5.45
575.838	5.45
576.177	5.45
576.517	5.46
576.856	5.46
577.196	5.46
577.535	5.46
577.875	5.46
578.214	5.46
578.553	5.46
578.893	5.46
579.232	5.46
579.571	5.46
579.91	5.46
580.25	5.46
580.589	5.45
580.928	5.45
581.267	5.45
581.606	5.45
581.945	5.45
582.283	5.46
582.622	5.46
582.961	5.45
583.3	5.46
583.639	5.46
583.977	5.46
584.316	5.47
584.654	5.47
584.993	5.47
585.332	5.47
585.67	5.47
586.008	5.47
586.347	5.48
586.685	5.48
587.024	5.48
587.362	5.49
587.7	5.49
588.038	5.5
588.376	5.5
588.715	5.5
589.053	5.5
589.391	5.51
589.729	5.52
590.067	5.52
590.404	5.52
590.742	5.53
591.08	5.53
591.418	5.53
591.756	5.53
592.093	5.53
592.431	5.53
592.769	5.53
593.106	5.54
593.444	5.54
593.781	5.54
594.119	5.55
594.456	5.55
594.793	5.55
595.131	5.55
595.468	5.54
595.805	5.54
596.143	5.54
596.48	5.54
596.817	5.54
597.154	5.55
597.491	5.55
597.828	5.55
598.165	5.55
598.502	5.56
598.839	5.56
599.176	5.56
599.512	5.56
599.849	5.56
600.186	5.57
600.523	5.57
600.859	5.57
601.196	5.57
601.532	5.57
601.869	5.57
602.205	5.58
602.542	5.57
602.878	5.57
603.215	5.57
603.551	5.57
603.887	5.57
604.223	5.57
604.56	5.57
604.896	5.58
605.232	5.58
605.568	5.58
605.904	5.59
606.24	5.59
606.576	5.59
606.912	5.59
607.248	5.59
607.583	5.59
607.919	5.59
608.255	5.59
608.591	5.6
608.926	5.61
609.262	5.61
609.597	5.61
609.933	5.61
610.268	5.61
610.604	5.62
610.939	5.61
611.275	5.61
611.61	5.61
611.945	5.61
612.281	5.61
612.616	5.61
612.951	5.61
613.286	5.61
613.621	5.61
613.956	5.61
614.291	5.62
614.626	5.61
614.961	5.62
615.296	5.62
615.631	5.62
615.966	5.62
616.3	5.63
616.635	5.62
616.97	5.62
617.304	5.63
617.639	5.62
617.973	5.62
618.308	5.62
618.642	5.62
618.977	5.62
619.311	5.62
619.646	5.63
619.98	5.63
620.314	5.63
620.648	5.63
620.983	5.64
621.317	5.64
621.651	5.64
621.985	5.64
622.319	5.64
622.653	5.64
622.987	5.65
623.321	5.65
623.655	5.66
623.988	5.66
624.322	5.66
624.656	5.67
624.99	5.67
625.323	5.68
625.657	5.68
625.99	5.68
626.324	5.69
626.657	5.69
626.991	5.69
627.324	5.69
627.658	5.69
627.991	5.69
628.324	5.69
628.657	5.69
628.991	5.7
629.324	5.7
629.657	5.71
629.99	5.71
630.323	5.71
630.656	5.72
630.989	5.72
631.322	5.73
631.655	5.74
631.987	5.74
632.32	5.74
632.653	5.74
632.986	5.75
633.318	5.75
633.651	5.76
633.984	5.76
634.316	5.76
634.649	5.76
634.981	5.77
635.313	5.77
635.646	5.77
635.978	5.78
636.31	5.78
636.643	5.79
636.975	5.79
637.307	5.79
637.639	5.79
637.971	5.79
638.303	5.79
638.635	5.79
638.967	5.79
639.299	5.79
639.631	5.79
639.963	5.8
640.295	5.81
640.626	5.81
640.958	5.82
641.29	5.83
641.621	5.83
641.953	5.83
642.285	5.83
642.616	5.84
642.948	5.84
643.279	5.84
643.61	5.85
643.942	5.86
644.273	5.86
644.604	5.86
644.936	5.86
645.267	5.86
645.598	5.86
645.929	5.87
646.26	5.88
646.591	5.88
646.922	5.88
647.253	5.88
647.584	5.88
647.915	5.88
648.245	5.88
648.576	5.88
648.907	5.88
649.238	5.88
649.568	5.88
649.899	5.88
650.229	5.88
650.56	5.89
650.89	5.9
651.221	5.9
651.551	5.91
651.882	5.91
652.212	5.92
652.542	5.93
652.872	5.94
653.203	5.95
653.533	5.94
653.863	5.94
654.193	5.95
654.523	5.95
654.853	5.95
655.183	5.95
655.513	5.96
655.843	5.96
656.172	5.96
656.502	5.97
656.832	5.97
657.162	5.97
657.491	5.97
657.821	5.97
658.15	5.97
658.48	5.98
658.809	5.98
659.139	5.98
659.468	5.98
659.798	5.99
660.127	5.99
660.456	6
660.785	6.01
661.115	6.02
661.444	6.03
661.773	6.03
662.102	6.03
662.431	6.04
662.76	6.05
663.089	6.05
663.418	6.06
663.747	6.06
664.076	6.07
664.404	6.06
664.733	6.06
665.062	6.07
665.39	6.07
665.719	6.08
666.048	6.09
666.376	6.09
666.705	6.09
667.033	6.09
667.362	6.1
667.69	6.1
668.018	6.11
668.347	6.11
668.675	6.12
669.003	6.13
669.331	6.12
669.659	6.13
669.987	6.13
670.315	6.13
670.643	6.15
670.971	6.16
671.299	6.17
671.627	6.16
671.955	6.17
672.283	6.18
672.61	6.18
672.938	6.18
673.266	6.19
673.593	6.19
673.921	6.18
674.249	6.18
674.576	6.18
674.904	6.19
675.231	6.21
675.558	6.2
675.886	6.2
676.213	6.21
676.54	6.22
676.867	6.22
677.195	6.22
677.522	6.22
677.849	6.23
678.176	6.23
678.503	6.24
678.83	6.24
679.157	6.24
679.484	6.24
679.81	6.25
680.137	6.25
680.464	6.26
680.791	6.27
681.117	6.28
681.444	6.28
681.771	6.28
682.097	6.29
