Data from UWBM104549_Reflection_00013.txt Node
Date: Sun May 02 12:25:59 EDT 2021
User: vgr7
Spectrometer: USB2G7710
Scans to average: 10
Trigger mode: 4
Integration Time (sec): 1.000000E-1
Electric dark correction enabled: true
Boxcar width: 10
XAxis mode: Wavelengths
Number of Pixels in Spectrum: 2048
>>>>>Begin Spectral Data<<<<<
177.721	-1540
178.105	-202.86
178.488	-131.86
178.871	-155.1
179.254	161.29
179.636	188.2
180.019	-10
180.402	77.78
180.785	17.69
181.168	43.3
181.55	-10.37
181.933	-83.7
182.316	-81.05
182.698	-82.56
183.081	-26.74
183.463	11.29
183.846	38.93
184.228	30.71
184.611	8.38
184.993	25.36
185.376	19.09
185.758	25.78
186.14	9.98
186.522	7.5
186.904	2.15
187.287	8.45
187.669	5.83
188.051	-15.65
188.433	-12.4
188.815	-8.14
189.197	-9.39
189.579	0.45
189.961	5.24
190.342	3.63
190.724	9.48
191.106	4.15
191.488	5.87
191.869	-1.89
192.251	0.57
192.633	0.83
193.014	-1.26
193.396	-5.13
193.777	0.62
194.159	-0.72
194.54	0.09
194.922	-1.04
195.303	4.57
195.684	5.08
196.065	9.71
196.447	5.47
196.828	0.97
197.209	-3.4
197.59	-4.06
197.971	-3.41
198.352	2.34
198.733	4.74
199.114	3.83
199.495	4.59
199.876	9.51
200.257	10.57
200.638	10.47
201.018	13.2
201.399	12.62
201.78	3.44
202.16	3.31
202.541	1.37
202.922	2.6
203.302	-1.83
203.683	-3.81
204.063	-6.22
204.444	-1.35
204.824	1.38
205.204	4.94
205.585	0.06
205.965	0.43
206.345	0.06
206.725	-2.49
207.106	-2.65
207.486	-3.91
207.866	-0.47
208.246	-3.31
208.626	-1.18
209.006	-2.25
209.386	-0.87
209.766	0.78
210.145	4
210.525	3.93
210.905	4.49
211.285	4.54
211.664	8.39
212.044	9.83
212.424	11.38
212.803	8.8
213.183	6.1
213.562	9.87
213.942	7
214.321	0.71
214.701	-5.31
215.08	-4.84
215.459	-6.28
215.838	-10.04
216.218	-10.2
216.597	-9.24
216.976	-10.95
217.355	-14.58
217.734	-10.52
218.113	-15.33
218.492	-14.5
218.871	-13.78
219.25	-7.42
219.629	-8.08
220.008	-6.52
220.387	-8.71
220.766	-10.86
221.144	-12.2
221.523	-9.4
221.902	-7.27
222.28	-3.58
222.659	0.21
223.037	3.67
223.416	5.01
223.794	5.37
224.173	6.43
224.551	6.37
224.929	4.74
225.308	7.79
225.686	7.55
226.064	8.05
226.442	8.8
226.821	8.65
227.199	6.01
227.577	6.78
227.955	5.75
228.333	6.64
228.711	6.86
229.089	8.14
229.467	8.5
229.845	9.26
230.222	9.42
230.6	9.29
230.978	9.3
231.356	8.57
231.733	7.78
232.111	7.9
232.488	7.61
232.866	7.58
233.243	6.72
233.621	7.06
233.998	7.44
234.376	7.29
234.753	6.86
235.13	6.92
235.508	7.45
235.885	7.63
236.262	7.11
236.639	7.5
237.016	7.16
237.393	7
237.77	6.61
238.147	6.41
238.524	6.66
238.901	6.73
239.278	6.67
239.655	6.71
240.032	6.5
240.409	6.47
240.785	6.54
241.162	6.68
241.539	6.35
241.915	6.15
242.292	6.11
242.668	5.98
243.045	6.03
243.421	5.69
243.798	5.66
244.174	5.72
244.551	5.64
244.927	5.59
245.303	5.49
245.679	5.46
246.056	5.35
246.432	5.26
246.808	5.1
247.184	5.14
247.56	5.1
247.936	5.06
248.312	5.01
248.688	5.06
249.064	5.01
249.44	5.02
249.815	5.09
250.191	5.01
250.567	5.02
250.943	5.03
251.318	5.12
251.694	5.08
252.069	4.95
252.445	4.99
252.82	4.91
253.196	4.95
253.571	4.91
253.947	5.07
254.322	5.12
254.697	5.18
255.073	5.1
255.448	5.04
255.823	5.02
256.198	4.97
256.573	4.8
256.948	4.74
257.323	4.78
257.698	4.7
258.073	4.71
258.448	4.74
258.823	4.69
259.198	4.7
259.573	4.68
259.948	4.7
260.322	4.67
260.697	4.69
261.072	4.67
261.446	4.64
261.821	4.63
262.195	4.55
262.57	4.53
262.944	4.5
263.319	4.5
263.693	4.54
264.067	4.51
264.442	4.54
264.816	4.53
265.19	4.53
265.564	4.6
265.938	4.57
266.313	4.5
266.687	4.43
267.061	4.39
267.435	4.38
267.809	4.37
268.183	4.35
268.556	4.36
268.93	4.35
269.304	4.33
269.678	4.24
270.051	4.23
270.425	4.28
270.799	4.31
271.172	4.33
271.546	4.32
271.919	4.36
272.293	4.34
272.666	4.36
273.04	4.34
273.413	4.25
273.787	4.26
274.16	4.29
274.533	4.33
274.906	4.31
275.279	4.33
275.653	4.32
276.026	4.29
276.399	4.26
276.772	4.29
277.145	4.34
277.518	4.39
277.891	4.42
278.263	4.38
278.636	4.41
279.009	4.39
279.382	4.39
279.755	4.36
280.127	4.4
280.5	4.38
280.872	4.35
281.245	4.38
281.617	4.43
281.99	4.42
282.362	4.43
282.735	4.41
283.107	4.43
283.479	4.44
283.852	4.45
284.224	4.45
284.596	4.4
284.968	4.38
285.34	4.35
285.713	4.4
286.085	4.4
286.457	4.39
286.829	4.36
287.201	4.34
287.572	4.34
287.944	4.35
288.316	4.44
288.688	4.49
289.06	4.54
289.431	4.5
289.803	4.47
290.175	4.47
290.546	4.48
290.918	4.5
291.289	4.52
291.661	4.54
292.032	4.56
292.403	4.6
292.775	4.63
293.146	4.68
293.517	4.68
293.889	4.7
294.26	4.73
294.631	4.78
295.002	4.82
295.373	4.9
295.744	4.87
296.115	4.85
296.486	4.82
296.857	4.83
297.228	4.87
297.599	4.93
297.97	4.95
298.34	4.99
298.711	5
299.082	5.02
299.452	5.07
299.823	5.13
300.194	5.14
300.564	5.17
300.935	5.22
301.305	5.24
301.676	5.25
302.046	5.25
302.416	5.31
302.787	5.37
303.157	5.38
303.527	5.49
303.897	5.51
304.267	5.58
304.637	5.61
305.008	5.69
305.378	5.76
305.748	5.78
306.117	5.82
306.487	5.84
306.857	5.9
307.227	5.9
307.597	5.93
307.967	5.99
308.336	6.03
308.706	6.03
309.076	6.04
309.445	6.05
309.815	6.05
310.184	6.07
310.554	6.05
310.923	6.05
311.293	6.07
311.662	6.1
312.031	6.12
312.401	6.16
312.77	6.14
313.139	6.17
313.508	6.23
313.877	6.28
314.246	6.3
314.616	6.34
314.985	6.37
315.353	6.35
315.722	6.37
316.091	6.38
316.46	6.47
316.829	6.56
317.198	6.64
317.567	6.71
317.935	6.76
318.304	6.81
318.672	6.89
319.041	6.93
319.41	6.98
319.778	7.08
320.147	7.12
320.515	7.16
320.883	7.2
321.252	7.21
321.62	7.21
321.988	7.27
322.357	7.3
322.725	7.37
323.093	7.44
323.461	7.5
323.829	7.53
324.197	7.56
324.565	7.59
324.933	7.61
325.301	7.68
325.669	7.74
326.037	7.79
326.405	7.8
326.772	7.83
327.14	7.84
327.508	7.82
327.875	7.85
328.243	7.91
328.61	7.93
328.978	7.98
329.346	8.02
329.713	8.06
330.08	8.13
330.448	8.15
330.815	8.2
331.182	8.23
331.55	8.27
331.917	8.31
332.284	8.35
332.651	8.41
333.018	8.46
333.385	8.46
333.752	8.5
334.119	8.55
334.486	8.59
334.853	8.63
335.22	8.72
335.587	8.77
335.954	8.82
336.32	8.85
336.687	8.88
337.054	8.93
337.42	8.97
337.787	8.98
338.153	9.03
338.52	9.04
338.886	9.08
339.253	9.1
339.619	9.13
339.986	9.16
340.352	9.18
340.718	9.22
341.084	9.28
341.451	9.29
341.817	9.34
342.183	9.38
342.549	9.42
342.915	9.42
343.281	9.44
343.647	9.47
344.013	9.47
344.379	9.53
344.745	9.55
345.11	9.57
345.476	9.61
345.842	9.66
346.208	9.71
346.573	9.74
346.939	9.8
347.304	9.81
347.67	9.81
348.035	9.87
348.401	9.85
348.766	9.87
349.132	9.9
349.497	9.93
349.862	9.96
350.228	10
350.593	10.03
350.958	10.05
351.323	10.09
351.688	10.13
352.053	10.12
352.418	10.15
352.783	10.18
353.148	10.19
353.513	10.19
353.878	10.21
354.243	10.24
354.608	10.25
354.972	10.28
355.337	10.3
355.702	10.26
356.066	10.29
356.431	10.28
356.795	10.31
357.16	10.3
357.524	10.28
357.889	10.27
358.253	10.3
358.618	10.3
358.982	10.29
359.346	10.29
359.71	10.3
360.075	10.3
360.439	10.28
360.803	10.27
361.167	10.25
361.531	10.24
361.895	10.22
362.259	10.23
362.623	10.22
362.987	10.23
363.351	10.25
363.714	10.24
364.078	10.24
364.442	10.21
364.806	10.2
365.169	10.2
365.533	10.17
365.896	10.13
366.26	10.12
366.623	10.1
366.987	10.08
367.35	10.05
367.714	10.05
368.077	10.05
368.44	10.02
368.803	10.01
369.167	9.98
369.53	9.96
369.893	9.93
370.256	9.89
370.619	9.85
370.982	9.82
371.345	9.77
371.708	9.75
372.071	9.71
372.434	9.68
372.797	9.65
373.159	9.65
373.522	9.61
373.885	9.57
374.247	9.52
374.61	9.48
374.973	9.43
375.335	9.35
375.698	9.29
376.06	9.26
376.423	9.19
376.785	9.18
377.147	9.14
377.51	9.1
377.872	9.06
378.234	8.99
378.596	8.93
378.958	8.9
379.321	8.84
379.683	8.81
380.045	8.76
380.407	8.71
380.769	8.64
381.13	8.6
381.492	8.54
381.854	8.49
382.216	8.47
382.578	8.43
382.939	8.41
383.301	8.35
383.663	8.31
384.024	8.3
384.386	8.26
384.747	8.22
385.109	8.19
385.47	8.14
385.832	8.13
386.193	8.11
386.554	8.08
386.916	8.05
387.277	8.01
387.638	7.99
387.999	7.96
388.36	7.94
388.721	7.91
389.082	7.89
389.443	7.87
389.804	7.81
390.165	7.78
390.526	7.74
390.887	7.71
391.248	7.69
391.609	7.65
391.969	7.6
392.33	7.58
392.691	7.52
393.051	7.51
393.412	7.46
393.772	7.42
394.133	7.38
394.493	7.34
394.854	7.3
395.214	7.26
395.574	7.22
395.935	7.18
396.295	7.13
396.655	7.07
397.015	7.02
397.376	6.98
397.736	6.94
398.096	6.89
398.456	6.85
398.816	6.79
399.176	6.74
399.535	6.71
399.895	6.65
400.255	6.61
400.615	6.56
400.975	6.53
401.334	6.49
401.694	6.47
402.054	6.44
402.413	6.4
402.773	6.37
403.132	6.34
403.492	6.31
403.851	6.29
404.211	6.27
404.57	6.26
404.929	6.24
405.288	6.21
405.648	6.21
406.007	6.19
406.366	6.18
406.725	6.17
407.084	6.14
407.443	6.13
407.802	6.12
408.161	6.12
408.52	6.1
408.879	6.09
409.238	6.07
409.596	6.05
409.955	6.05
410.314	6.03
410.673	6.01
411.031	6
411.39	5.99
411.748	5.98
412.107	5.97
412.465	5.95
412.824	5.95
413.182	5.94
413.54	5.92
413.899	5.91
414.257	5.9
414.615	5.89
414.974	5.87
415.332	5.87
415.69	5.86
416.048	5.85
416.406	5.84
416.764	5.83
417.122	5.82
417.48	5.81
417.838	5.8
418.195	5.8
418.553	5.79
418.911	5.78
419.269	5.77
419.626	5.76
419.984	5.76
420.342	5.74
420.699	5.73
421.057	5.71
421.414	5.7
421.772	5.69
422.129	5.68
422.486	5.66
422.844	5.65
423.201	5.63
423.558	5.61
423.915	5.6
424.273	5.58
424.63	5.56
424.987	5.54
425.344	5.52
425.701	5.5
426.058	5.48
426.415	5.46
426.772	5.43
427.128	5.41
427.485	5.38
427.842	5.37
428.199	5.35
428.555	5.34
428.912	5.31
429.269	5.29
429.625	5.28
429.982	5.27
430.338	5.26
430.695	5.25
431.051	5.24
431.407	5.24
431.764	5.24
432.12	5.24
432.476	5.24
432.832	5.25
433.189	5.25
433.545	5.26
433.901	5.26
434.257	5.27
434.613	5.27
434.969	5.28
435.325	5.29
435.681	5.3
436.036	5.3
436.392	5.32
436.748	5.33
437.104	5.33
437.459	5.33
437.815	5.34
438.171	5.34
438.526	5.35
438.882	5.35
439.237	5.35
439.593	5.36
439.948	5.36
440.304	5.37
440.659	5.37
441.014	5.37
441.369	5.37
441.725	5.38
442.08	5.38
442.435	5.37
442.79	5.38
443.145	5.38
443.5	5.38
443.855	5.38
444.21	5.37
444.565	5.37
444.92	5.36
445.275	5.36
445.629	5.35
445.984	5.35
446.339	5.34
446.693	5.34
447.048	5.33
447.403	5.31
447.757	5.31
448.112	5.29
448.466	5.28
448.82	5.27
449.175	5.26
449.529	5.24
449.883	5.23
450.238	5.21
450.592	5.19
450.946	5.18
451.3	5.16
451.654	5.14
452.008	5.13
452.362	5.11
452.716	5.09
453.07	5.08
453.424	5.06
453.778	5.05
454.132	5.04
454.486	5.04
454.839	5.04
455.193	5.03
455.547	5.03
455.9	5.03
456.254	5.03
456.607	5.04
456.961	5.05
457.314	5.06
457.668	5.07
458.021	5.08
458.375	5.08
458.728	5.09
459.081	5.09
459.434	5.1
459.787	5.11
460.141	5.12
460.494	5.12
460.847	5.13
461.2	5.13
461.553	5.14
461.906	5.14
462.259	5.15
462.611	5.16
462.964	5.17
463.317	5.18
463.67	5.18
464.022	5.19
464.375	5.2
464.728	5.2
465.08	5.21
465.433	5.22
465.785	5.23
466.138	5.24
466.49	5.26
466.843	5.27
467.195	5.28
467.547	5.3
467.899	5.32
468.252	5.33
468.604	5.35
468.956	5.37
469.308	5.39
469.66	5.4
470.012	5.42
470.364	5.43
470.716	5.45
471.068	5.47
471.42	5.48
471.772	5.48
472.123	5.5
472.475	5.52
472.827	5.54
473.178	5.56
473.53	5.57
473.882	5.58
474.233	5.59
474.585	5.6
474.936	5.61
475.288	5.62
475.639	5.63
475.99	5.64
476.342	5.65
476.693	5.65
477.044	5.65
477.395	5.66
477.746	5.66
478.097	5.66
478.448	5.7
478.8	5.79
479.15	5.92
479.501	6.1
479.852	6.29
480.203	6.49
480.554	6.7
480.905	6.92
481.255	7.14
481.606	7.34
481.957	7.55
482.307	7.75
482.658	7.92
483.009	8.06
483.359	8.18
483.709	8.29
484.06	8.39
484.41	8.48
484.761	8.57
485.111	8.66
485.461	8.74
485.811	8.81
486.162	8.84
486.512	8.83
486.862	8.76
487.212	8.68
487.562	8.57
487.912	8.44
488.262	8.29
488.612	8.14
488.961	7.98
489.311	7.8
489.661	7.62
490.011	7.45
490.36	7.27
490.71	7.09
491.06	6.9
491.409	6.72
491.759	6.58
492.108	6.46
492.458	6.36
492.807	6.27
493.157	6.18
493.506	6.1
493.855	6.02
494.204	5.96
494.554	5.9
494.903	5.84
495.252	5.8
495.601	5.76
495.95	5.72
496.299	5.7
496.648	5.69
496.997	5.68
497.346	5.7
497.695	5.74
498.043	5.82
498.392	5.93
498.741	6.05
499.09	6.14
499.438	6.2
499.787	6.27
500.135	6.33
500.484	6.4
500.832	6.47
501.181	6.54
501.529	6.62
501.878	6.7
502.226	6.78
502.574	6.87
502.923	6.96
503.271	7.06
503.619	7.17
503.967	7.28
504.315	7.39
504.663	7.51
505.011	7.63
505.359	7.75
505.707	7.88
506.055	8.01
506.403	8.15
506.751	8.29
507.098	8.42
507.446	8.55
507.794	8.69
508.141	8.83
508.489	8.98
508.837	9.12
509.184	9.27
509.531	9.42
509.879	9.56
510.226	9.71
510.574	9.86
510.921	10
511.268	10.16
511.616	10.3
511.963	10.45
512.31	10.61
512.657	10.77
513.004	10.95
513.351	11.13
513.698	11.32
514.045	11.5
514.392	11.71
514.739	11.91
515.086	12.1
515.432	12.31
515.779	12.5
516.126	12.7
516.473	12.88
516.819	13.06
517.166	13.24
517.512	13.41
517.859	13.58
518.205	13.74
518.552	13.89
518.898	14.05
519.245	14.21
519.591	14.37
519.937	14.53
520.283	14.7
520.629	14.88
520.976	15.07
521.322	15.25
521.668	15.45
522.014	15.65
522.36	15.86
522.706	16.09
523.052	16.39
523.398	16.78
523.743	17.31
524.089	17.89
524.435	18.49
524.781	19.13
525.126	19.77
525.472	20.4
525.817	21
526.163	21.58
526.509	22.12
526.854	22.58
527.199	22.96
527.545	23.27
527.89	23.54
528.235	23.78
528.581	24.03
528.926	24.28
529.271	24.52
529.616	24.76
529.961	24.98
530.306	25.17
530.651	25.28
530.996	25.28
531.341	25.23
531.686	25.1
532.031	24.9
532.376	24.62
532.721	24.29
533.065	23.96
533.41	23.69
533.755	23.44
534.099	23.28
534.444	23.22
534.788	23.23
535.133	23.28
535.477	23.36
535.822	23.46
536.166	23.58
536.51	23.73
536.855	23.92
537.199	24.15
537.543	24.4
537.887	24.7
538.231	25.03
538.576	25.37
538.92	25.75
539.264	26.16
539.608	26.59
539.951	27.01
540.295	27.4
540.639	27.67
540.983	27.92
541.327	28.09
541.671	28.26
542.014	28.49
542.358	28.71
542.701	28.92
543.045	29.12
543.389	29.32
543.732	29.5
544.075	29.67
544.419	29.84
544.762	29.98
545.105	30.1
545.449	30.18
545.792	30.24
546.135	30.31
546.478	30.39
546.821	30.52
547.165	30.7
547.508	30.95
547.851	31.26
548.194	31.6
548.536	32
548.879	32.29
549.222	32.52
549.565	32.74
549.908	32.96
550.25	33.21
550.593	33.45
550.936	33.7
551.278	33.94
551.621	34.17
551.963	34.4
552.306	34.64
552.648	34.88
552.991	35.12
553.333	35.35
553.675	35.58
554.017	35.81
554.36	36.04
554.702	36.24
555.044	36.45
555.386	36.67
555.728	36.88
556.07	37.1
556.412	37.3
556.754	37.5
557.096	37.7
557.438	37.9
557.78	38.11
558.121	38.31
558.463	38.51
558.805	38.71
559.147	38.92
559.488	39.11
559.83	39.31
560.171	39.5
560.513	39.69
560.854	39.89
561.196	40.1
561.537	40.29
561.878	40.48
562.22	40.68
562.561	40.88
562.902	41.09
563.243	41.28
563.584	41.46
563.925	41.67
564.266	41.82
564.607	41.97
564.948	42.13
565.289	42.29
565.63	42.47
565.971	42.62
566.312	42.78
566.653	42.96
566.993	43.1
567.334	43.25
567.675	43.39
568.015	43.52
568.356	43.65
568.696	43.8
569.037	43.97
569.377	44.11
569.718	44.24
570.058	44.37
570.398	44.49
570.739	44.61
571.079	44.72
571.419	44.87
571.759	45.01
572.099	45.12
572.439	45.23
572.779	45.33
573.119	45.43
573.459	45.53
573.799	45.62
574.139	45.72
574.479	45.8
574.819	45.88
575.158	45.98
575.498	46.07
575.838	46.13
576.177	46.17
576.517	46.24
576.856	46.31
577.196	46.37
577.535	46.45
577.875	46.53
578.214	46.6
578.553	46.66
578.893	46.71
579.232	46.78
579.571	46.85
579.91	46.93
580.25	47
580.589	47.06
580.928	47.12
581.267	47.2
581.606	47.29
581.945	47.38
582.283	47.45
582.622	47.53
582.961	47.61
583.3	47.71
583.639	47.8
583.977	47.87
584.316	47.98
584.654	48.06
584.993	48.14
585.332	48.22
585.67	48.28
586.008	48.39
586.347	48.46
586.685	48.52
587.024	48.61
587.362	48.66
587.7	48.74
588.038	48.82
588.376	48.88
588.715	48.94
589.053	49.02
589.391	49.07
589.729	49.11
590.067	49.18
590.404	49.24
590.742	49.31
591.08	49.38
591.418	49.41
591.756	49.48
592.093	49.53
592.431	49.58
592.769	49.66
593.106	49.73
593.444	49.8
593.781	49.89
594.119	49.93
594.456	50.02
594.793	50.07
595.131	50.11
595.468	50.15
595.805	50.19
596.143	50.25
596.48	50.3
596.817	50.36
597.154	50.39
597.491	50.42
597.828	50.44
598.165	50.44
598.502	50.5
598.839	50.53
599.176	50.59
599.512	50.63
599.849	50.69
600.186	50.74
600.523	50.76
600.859	50.81
601.196	50.88
601.532	50.92
601.869	50.97
602.205	51.03
602.542	51.07
602.878	51.13
603.215	51.15
603.551	51.2
603.887	51.23
604.223	51.27
604.56	51.33
604.896	51.37
605.232	51.44
605.568	51.48
605.904	51.51
606.24	51.53
606.576	51.58
606.912	51.59
607.248	51.63
607.583	51.68
607.919	51.71
608.255	51.71
608.591	51.74
608.926	51.74
609.262	51.75
609.597	51.8
609.933	51.81
610.268	51.82
610.604	51.83
610.939	51.85
611.275	51.89
611.61	51.89
611.945	51.93
612.281	51.94
612.616	51.94
612.951	51.96
613.286	51.99
613.621	52.02
613.956	52.05
614.291	52.06
614.626	52.06
614.961	52.05
615.296	52.06
615.631	52.07
615.966	52.12
616.3	52.16
616.635	52.18
616.97	52.2
617.304	52.24
617.639	52.27
617.973	52.29
618.308	52.32
618.642	52.35
618.977	52.34
619.311	52.35
619.646	52.4
619.98	52.43
620.314	52.44
620.648	52.47
620.983	52.49
621.317	52.49
621.651	52.53
621.985	52.6
622.319	52.62
622.653	52.64
622.987	52.66
623.321	52.66
623.655	52.68
623.988	52.73
624.322	52.77
624.656	52.79
624.99	52.81
625.323	52.82
625.657	52.85
625.99	52.89
626.324	52.93
626.657	52.94
626.991	52.98
627.324	53.02
627.658	53.03
627.991	53.03
628.324	53.04
628.657	53.05
628.991	53.03
629.324	53.07
629.657	53.08
629.99	53.08
630.323	53.1
630.656	53.12
630.989	53.13
631.322	53.17
631.655	53.18
631.987	53.21
632.32	53.25
632.653	53.27
632.986	53.28
633.318	53.29
633.651	53.29
633.984	53.31
634.316	53.31
634.649	53.34
634.981	53.4
635.313	53.43
635.646	53.46
635.978	53.47
636.31	53.48
636.643	53.5
636.975	53.53
637.307	53.56
637.639	53.58
637.971	53.58
638.303	53.56
638.635	53.59
638.967	53.61
639.299	53.62
639.631	53.64
639.963	53.67
640.295	53.69
640.626	53.75
640.958	53.74
641.29	53.77
641.621	53.78
641.953	53.77
642.285	53.77
642.616	53.8
642.948	53.84
643.279	53.86
643.61	53.89
643.942	53.93
644.273	53.93
644.604	53.97
644.936	54.01
645.267	54.05
645.598	54.07
645.929	54.07
646.26	54.09
646.591	54.1
646.922	54.13
647.253	54.16
647.584	54.14
647.915	54.16
648.245	54.17
648.576	54.17
648.907	54.2
649.238	54.24
649.568	54.24
649.899	54.25
650.229	54.3
650.56	54.36
650.89	54.37
651.221	54.41
651.551	54.43
651.882	54.4
652.212	54.45
652.542	54.46
652.872	54.46
653.203	54.45
653.533	54.47
653.863	54.48
654.193	54.46
654.523	54.52
654.853	54.56
655.183	54.58
655.513	54.63
655.843	54.66
656.172	54.68
656.502	54.72
656.832	54.74
657.162	54.74
657.491	54.72
657.821	54.72
658.15	54.72
658.48	54.72
658.809	54.78
659.139	54.74
659.468	54.76
659.798	54.77
660.127	54.81
660.456	54.82
660.785	54.81
661.115	54.86
661.444	54.85
661.773	54.84
662.102	54.89
662.431	54.89
662.76	54.89
663.089	54.89
663.418	54.9
663.747	54.92
664.076	54.96
664.404	54.97
664.733	54.99
665.062	55.01
665.39	55.05
665.719	55.03
666.048	55.08
666.376	55.09
666.705	55.13
667.033	55.15
667.362	55.17
667.69	55.23
668.018	55.26
668.347	55.28
668.675	55.29
669.003	55.27
669.331	55.25
669.659	55.26
