Data from UWBM88853_Reflection_00005.txt Node
Date: Sun May 02 13:40:32 EDT 2021
User: vgr7
Spectrometer: USB2G7710
Scans to average: 10
Trigger mode: 4
Integration Time (sec): 1.000000E-1
Electric dark correction enabled: true
Boxcar width: 20
XAxis mode: Wavelengths
Number of Pixels in Spectrum: 2048
>>>>>Begin Spectral Data<<<<<
177.721	150
178.105	131.17
178.488	107.89
178.871	184.21
179.254	120.19
179.636	42.93
180.019	35.19
180.402	27.59
180.785	34.16
181.168	30.29
181.55	27.05
181.933	33.28
182.316	27.17
182.698	21.51
183.081	16.43
183.463	15.86
183.846	9.94
184.228	7.99
184.611	10.34
184.993	13.16
185.376	12.9
185.758	13.01
186.14	16.6
186.522	15.58
186.904	14.99
187.287	12.25
187.669	13.17
188.051	12.3
188.433	12.67
188.815	8.41
189.197	9.42
189.579	8.72
189.961	8.21
190.342	7.98
190.724	8.56
191.106	8.59
191.488	9.63
191.869	7.07
192.251	4.25
192.633	2.27
193.014	2.97
193.396	-3.23
193.777	-1.08
194.159	-0.24
194.54	-1.17
194.922	-3.26
195.303	-3.12
195.684	-5.3
196.065	-5.3
196.447	-6.02
196.828	-5.32
197.209	-6.98
197.59	-11.24
197.971	-11.52
198.352	-10.4
198.733	-9.05
199.114	-8.06
199.495	-6.97
199.876	-7.17
200.257	-7
200.638	-9.5
201.018	-8.6
201.399	-8.08
201.78	-8.17
202.16	-9.18
202.541	-9.33
202.922	-10.78
203.302	-11.45
203.683	-12
204.063	-10.61
204.444	-11.43
204.824	-12.13
205.204	-13.81
205.585	-11.46
205.965	-10.66
206.345	-10.98
206.725	-10.66
207.106	-11.86
207.486	-11.26
207.866	-9.66
208.246	-11.18
208.626	-12.11
209.006	-9.46
209.386	-10.5
209.766	-11.33
210.145	-12.31
210.525	-11.41
210.905	-9.49
211.285	-9.65
211.664	-9.81
212.044	-9.78
212.424	-11.22
212.803	-9.88
213.183	-9.22
213.562	-8.85
213.942	-9.56
214.321	-9.62
214.701	-10.09
215.08	-9.56
215.459	-8.84
215.838	-11.13
216.218	-11.11
216.597	-11.43
216.976	-11.69
217.355	-12.1
217.734	-10.74
218.113	-9.64
218.492	-8.88
218.871	-8.67
219.25	-7.79
219.629	-8.68
220.008	-7.32
220.387	-7.77
220.766	-5.68
221.144	-7.12
221.523	-7.5
221.902	-6.34
222.28	-6.92
222.659	-6.58
223.037	-6.59
223.416	-5.21
223.794	-3.63
224.173	-2.46
224.551	-2.17
224.929	-0.38
225.308	0.1
225.686	0.79
226.064	0.77
226.442	0.26
226.821	1.11
227.199	1.78
227.577	1.86
227.955	2.82
228.333	2.93
228.711	3.19
229.089	2.89
229.467	2.94
229.845	3.06
230.222	3.2
230.6	3.31
230.978	3.16
231.356	3.75
231.733	4.05
232.111	4.16
232.488	4.11
232.866	4.08
233.243	3.83
233.621	3.9
233.998	4.11
234.376	4.29
234.753	4.21
235.13	4.23
235.508	4.43
235.885	4.45
236.262	4.43
236.639	4.49
237.016	4.48
237.393	4.46
237.77	4.55
238.147	4.55
238.524	4.57
238.901	4.44
239.278	4.43
239.655	4.47
240.032	4.5
240.409	4.43
240.785	4.49
241.162	4.49
241.539	4.57
241.915	4.66
242.292	4.67
242.668	4.63
243.045	4.63
243.421	4.58
243.798	4.6
244.174	4.64
244.551	4.68
244.927	4.7
245.303	4.69
245.679	4.68
246.056	4.63
246.432	4.64
246.808	4.6
247.184	4.62
247.56	4.59
247.936	4.59
248.312	4.57
248.688	4.57
249.064	4.54
249.44	4.55
249.815	4.5
250.191	4.45
250.567	4.49
250.943	4.43
251.318	4.44
251.694	4.45
252.069	4.41
252.445	4.44
252.82	4.42
253.196	4.43
253.571	4.43
253.947	4.42
254.322	4.41
254.697	4.39
255.073	4.36
255.448	4.35
255.823	4.31
256.198	4.28
256.573	4.28
256.948	4.26
257.323	4.21
257.698	4.17
258.073	4.17
258.448	4.14
258.823	4.12
259.198	4.09
259.573	4.06
259.948	4.05
260.322	4.04
260.697	4
261.072	3.97
261.446	3.96
261.821	3.96
262.195	3.96
262.57	3.95
262.944	3.97
263.319	3.98
263.693	3.99
264.067	4
264.442	4
264.816	3.96
265.19	3.99
265.564	4.02
265.938	4
266.313	4
266.687	3.99
267.061	4
267.435	4
267.809	3.97
268.183	3.96
268.556	3.94
268.93	3.95
269.304	3.95
269.678	3.95
270.051	3.94
270.425	3.92
270.799	3.92
271.172	3.93
271.546	3.94
271.919	3.94
272.293	3.94
272.666	3.94
273.04	3.95
273.413	3.96
273.787	3.99
274.16	4
274.533	4.01
274.906	4.03
275.279	4.03
275.653	4.03
276.026	4.05
276.399	4.07
276.772	4.11
277.145	4.11
277.518	4.1
277.891	4.11
278.263	4.09
278.636	4.08
279.009	4.07
279.382	4.08
279.755	4.09
280.127	4.12
280.5	4.11
280.872	4.12
281.245	4.13
281.617	4.14
281.99	4.13
282.362	4.1
282.735	4.09
283.107	4.1
283.479	4.11
283.852	4.12
284.224	4.11
284.596	4.09
284.968	4.1
285.34	4.12
285.713	4.11
286.085	4.12
286.457	4.11
286.829	4.1
287.201	4.09
287.572	4.09
287.944	4.09
288.316	4.08
288.688	4.08
289.06	4.07
289.431	4.07
289.803	4.09
290.175	4.08
290.546	4.08
290.918	4.09
291.289	4.09
291.661	4.08
292.032	4.06
292.403	4.06
292.775	4.06
293.146	4.06
293.517	4.06
293.889	4.07
294.26	4.07
294.631	4.06
295.002	4.07
295.373	4.06
295.744	4.06
296.115	4.05
296.486	4.05
296.857	4.06
297.228	4.05
297.599	4.08
297.97	4.09
298.34	4.09
298.711	4.09
299.082	4.09
299.452	4.1
299.823	4.11
300.194	4.1
300.564	4.1
300.935	4.1
301.305	4.09
301.676	4.1
302.046	4.11
302.416	4.11
302.787	4.1
303.157	4.1
303.527	4.11
303.897	4.1
304.267	4.09
304.637	4.08
305.008	4.07
305.378	4.06
305.748	4.05
306.117	4.04
306.487	4.04
306.857	4.04
307.227	4.05
307.597	4.05
307.967	4.06
308.336	4.06
308.706	4.05
309.076	4.03
309.445	4.03
309.815	4.03
310.184	4.02
310.554	4.01
310.923	4.01
311.293	4
311.662	3.97
312.031	3.97
312.401	3.98
312.77	3.97
313.139	3.97
313.508	3.98
313.877	3.97
314.246	3.98
314.616	3.97
314.985	3.97
315.353	3.98
315.722	3.96
316.091	3.97
316.46	3.97
316.829	3.96
317.198	3.98
317.567	3.97
317.935	3.97
318.304	3.96
318.672	3.95
319.041	3.96
319.41	3.95
319.778	3.95
320.147	3.94
320.515	3.94
320.883	3.93
321.252	3.92
321.62	3.92
321.988	3.92
322.357	3.91
322.725	3.91
323.093	3.9
323.461	3.89
323.829	3.92
324.197	3.93
324.565	3.92
324.933	3.92
325.301	3.9
325.669	3.91
326.037	3.9
326.405	3.92
326.772	3.92
327.14	3.91
327.508	3.9
327.875	3.89
328.243	3.88
328.61	3.87
328.978	3.86
329.346	3.84
329.713	3.86
330.08	3.87
330.448	3.86
330.815	3.86
331.182	3.84
331.55	3.84
331.917	3.84
332.284	3.83
332.651	3.83
333.018	3.84
333.385	3.84
333.752	3.85
334.119	3.84
334.486	3.85
334.853	3.83
335.22	3.83
335.587	3.84
335.954	3.84
336.32	3.84
336.687	3.83
337.054	3.82
337.42	3.83
337.787	3.83
338.153	3.83
338.52	3.82
338.886	3.8
339.253	3.8
339.619	3.81
339.986	3.81
340.352	3.82
340.718	3.82
341.084	3.82
341.451	3.81
341.817	3.81
342.183	3.81
342.549	3.82
342.915	3.82
343.281	3.82
343.647	3.82
344.013	3.82
344.379	3.82
344.745	3.82
345.11	3.81
345.476	3.81
345.842	3.81
346.208	3.82
346.573	3.81
346.939	3.81
347.304	3.81
347.67	3.82
348.035	3.82
348.401	3.82
348.766	3.82
349.132	3.82
349.497	3.82
349.862	3.83
350.228	3.84
350.593	3.84
350.958	3.85
351.323	3.85
351.688	3.86
352.053	3.85
352.418	3.85
352.783	3.85
353.148	3.85
353.513	3.86
353.878	3.86
354.243	3.86
354.608	3.86
354.972	3.87
355.337	3.87
355.702	3.87
356.066	3.87
356.431	3.87
356.795	3.87
357.16	3.86
357.524	3.87
357.889	3.87
358.253	3.87
358.618	3.87
358.982	3.88
359.346	3.87
359.71	3.86
360.075	3.87
360.439	3.87
360.803	3.87
361.167	3.88
361.531	3.88
361.895	3.87
362.259	3.86
362.623	3.85
362.987	3.84
363.351	3.84
363.714	3.84
364.078	3.84
364.442	3.83
364.806	3.83
365.169	3.83
365.533	3.83
365.896	3.83
366.26	3.82
366.623	3.82
366.987	3.82
367.35	3.83
367.714	3.83
368.077	3.83
368.44	3.83
368.803	3.82
369.167	3.82
369.53	3.82
369.893	3.82
370.256	3.81
370.619	3.81
370.982	3.82
371.345	3.82
371.708	3.82
372.071	3.83
372.434	3.83
372.797	3.83
373.159	3.82
373.522	3.83
373.885	3.83
374.247	3.83
374.61	3.83
374.973	3.83
375.335	3.82
375.698	3.82
376.06	3.82
376.423	3.81
376.785	3.82
377.147	3.82
377.51	3.82
377.872	3.83
378.234	3.82
378.596	3.82
378.958	3.82
379.321	3.82
379.683	3.82
380.045	3.81
380.407	3.82
380.769	3.82
381.13	3.82
381.492	3.82
381.854	3.82
382.216	3.82
382.578	3.82
382.939	3.81
383.301	3.8
383.663	3.8
384.024	3.79
384.386	3.79
384.747	3.79
385.109	3.8
385.47	3.8
385.832	3.79
386.193	3.78
386.554	3.78
386.916	3.77
387.277	3.77
387.638	3.77
387.999	3.77
388.36	3.77
388.721	3.76
389.082	3.76
389.443	3.76
389.804	3.76
390.165	3.76
390.526	3.76
390.887	3.76
391.248	3.76
391.609	3.76
391.969	3.76
392.33	3.75
392.691	3.75
393.051	3.75
393.412	3.75
393.772	3.75
394.133	3.75
394.493	3.74
394.854	3.74
395.214	3.73
395.574	3.74
395.935	3.73
396.295	3.73
396.655	3.72
397.015	3.72
397.376	3.72
397.736	3.72
398.096	3.72
398.456	3.72
398.816	3.73
399.176	3.73
399.535	3.73
399.895	3.72
400.255	3.72
400.615	3.72
400.975	3.72
401.334	3.72
401.694	3.72
402.054	3.72
402.413	3.72
402.773	3.72
403.132	3.72
403.492	3.72
403.851	3.72
404.211	3.72
404.57	3.72
404.929	3.72
405.288	3.72
405.648	3.72
406.007	3.72
406.366	3.72
406.725	3.72
407.084	3.72
407.443	3.72
407.802	3.72
408.161	3.72
408.52	3.72
408.879	3.72
409.238	3.72
409.596	3.73
409.955	3.73
410.314	3.73
410.673	3.73
411.031	3.74
411.39	3.75
411.748	3.76
412.107	3.76
412.465	3.77
412.824	3.8
413.182	3.82
413.54	3.84
413.899	3.87
414.257	3.9
414.615	3.94
414.974	3.97
415.332	4.01
415.69	4.05
416.048	4.08
416.406	4.12
416.764	4.15
417.122	4.18
417.48	4.21
417.838	4.24
418.195	4.27
418.553	4.29
418.911	4.31
419.269	4.32
419.626	4.32
419.984	4.32
420.342	4.31
420.699	4.3
421.057	4.28
421.414	4.26
421.772	4.25
422.129	4.25
422.486	4.25
422.844	4.25
423.201	4.25
423.558	4.24
423.915	4.25
424.273	4.25
424.63	4.25
424.987	4.25
425.344	4.25
425.701	4.25
426.058	4.25
426.415	4.25
426.772	4.25
427.128	4.25
427.485	4.24
427.842	4.23
428.199	4.21
428.555	4.2
428.912	4.18
429.269	4.15
429.625	4.13
429.982	4.11
430.338	4.08
430.695	4.06
431.051	4.03
431.407	4
431.764	3.99
432.12	3.97
432.476	3.96
432.832	3.95
433.189	3.95
433.545	3.96
433.901	3.97
434.257	3.99
434.613	4.02
434.969	4.04
435.325	4.07
435.681	4.1
436.036	4.12
436.392	4.14
436.748	4.16
437.104	4.17
437.459	4.19
437.815	4.21
438.171	4.23
438.526	4.25
438.882	4.28
439.237	4.32
439.593	4.35
439.948	4.38
440.304	4.42
440.659	4.45
441.014	4.47
441.369	4.49
441.725	4.51
442.08	4.53
442.435	4.55
442.79	4.56
443.145	4.56
443.5	4.56
443.855	4.57
444.21	4.57
444.565	4.57
444.92	4.56
445.275	4.55
445.629	4.54
445.984	4.53
446.339	4.52
446.693	4.51
447.048	4.5
447.403	4.48
447.757	4.46
448.112	4.44
448.466	4.42
448.82	4.4
449.175	4.38
449.529	4.36
449.883	4.34
450.238	4.32
450.592	4.32
450.946	4.31
451.3	4.3
451.654	4.31
452.008	4.31
452.362	4.32
452.716	4.32
453.07	4.33
453.424	4.32
453.778	4.32
454.132	4.31
454.486	4.3
454.839	4.28
455.193	4.26
455.547	4.25
455.9	4.23
456.254	4.21
456.607	4.18
456.961	4.15
457.314	4.13
457.668	4.12
458.021	4.12
458.375	4.11
458.728	4.11
459.081	4.11
459.434	4.12
459.787	4.13
460.141	4.14
460.494	4.15
460.847	4.15
461.2	4.16
461.553	4.17
461.906	4.17
462.259	4.18
462.611	4.18
462.964	4.18
463.317	4.19
463.67	4.19
464.022	4.2
464.375	4.21
464.728	4.21
465.08	4.21
465.433	4.21
465.785	4.21
466.138	4.2
466.49	4.18
466.843	4.16
467.195	4.14
467.547	4.12
467.899	4.09
468.252	4.06
468.604	4.04
468.956	4.02
469.308	4
469.66	4
470.012	3.99
470.364	4
470.716	4
471.068	4.01
471.42	4.03
471.772	4.05
472.123	4.06
472.475	4.07
472.827	4.08
473.178	4.09
473.53	4.09
473.882	4.11
474.233	4.13
474.585	4.16
474.936	4.22
475.288	4.31
475.639	4.42
475.99	4.55
476.342	4.7
476.693	4.86
477.044	5.02
477.395	5.19
477.746	5.36
478.097	5.53
478.448	5.71
478.8	5.88
479.15	6.04
479.501	6.19
479.852	6.32
480.203	6.45
480.554	6.57
480.905	6.68
481.255	6.79
481.606	6.9
481.957	7
482.307	7.1
482.658	7.19
483.009	7.28
483.359	7.36
483.709	7.45
484.06	7.52
484.41	7.6
484.761	7.68
485.111	7.75
485.461	7.82
485.811	7.88
486.162	7.94
486.512	7.99
486.862	8.03
487.212	8.06
487.562	8.08
487.912	8.09
488.262	8.1
488.612	8.09
488.961	8.07
489.311	8.03
489.661	7.96
490.011	7.88
490.36	7.77
490.71	7.65
491.06	7.52
491.409	7.39
491.759	7.24
492.108	7.08
492.458	6.92
492.807	6.76
493.157	6.6
493.506	6.44
493.855	6.29
494.204	6.15
494.554	6.02
494.903	5.9
495.252	5.78
495.601	5.67
495.95	5.55
496.299	5.45
496.648	5.35
496.997	5.26
497.346	5.17
497.695	5.09
498.043	5.01
498.392	4.93
498.741	4.85
499.09	4.78
499.438	4.71
499.787	4.64
500.135	4.58
500.484	4.53
500.832	4.48
501.181	4.44
501.529	4.42
501.878	4.4
502.226	4.4
502.574	4.4
502.923	4.4
503.271	4.41
503.619	4.42
503.967	4.42
504.315	4.42
504.663	4.43
505.011	4.43
505.359	4.43
505.707	4.43
506.055	4.44
506.403	4.45
506.751	4.46
507.098	4.47
507.446	4.49
507.794	4.5
508.141	4.52
508.489	4.54
508.837	4.56
509.184	4.58
509.531	4.6
509.879	4.63
510.226	4.65
510.574	4.68
510.921	4.7
511.268	4.73
511.616	4.76
511.963	4.79
512.31	4.82
512.657	4.85
513.004	4.88
513.351	4.91
513.698	4.93
514.045	4.94
514.392	4.96
514.739	4.97
515.086	4.97
515.432	4.98
515.779	4.98
516.126	4.99
516.473	5
516.819	5.01
517.166	5.02
517.512	5.04
517.859	5.06
518.205	5.09
518.552	5.13
518.898	5.17
519.245	5.22
519.591	5.29
519.937	5.38
520.283	5.48
520.629	5.61
520.976	5.74
521.322	5.88
521.668	6.02
522.014	6.17
522.36	6.32
522.706	6.45
523.052	6.59
523.398	6.71
523.743	6.82
524.089	6.92
524.435	7
524.781	7.08
525.126	7.15
525.472	7.22
525.817	7.29
526.163	7.35
526.509	7.4
526.854	7.46
527.199	7.51
527.545	7.57
527.89	7.63
528.235	7.69
528.581	7.74
528.926	7.8
529.271	7.84
529.616	7.89
529.961	7.93
530.306	7.97
530.651	7.99
530.996	8.01
531.341	8.03
531.686	8.04
532.031	8.04
532.376	8.05
532.721	8.05
533.065	8.07
533.41	8.08
533.755	8.07
534.099	8.06
534.444	8.04
534.788	8
535.133	7.96
535.477	7.91
535.822	7.85
536.166	7.79
536.51	7.71
536.855	7.63
537.199	7.54
537.543	7.45
537.887	7.38
538.231	7.31
538.576	7.25
538.92	7.18
539.264	7.12
539.608	7.05
539.951	6.99
540.295	6.92
540.639	6.85
540.983	6.78
541.327	6.7
541.671	6.63
542.014	6.56
542.358	6.49
542.701	6.45
543.045	6.41
543.389	6.38
543.732	6.36
544.075	6.34
544.419	6.32
544.762	6.31
545.105	6.29
545.449	6.28
545.792	6.28
546.135	6.27
546.478	6.25
546.821	6.23
547.165	6.19
547.508	6.15
547.851	6.09
548.194	6.03
548.536	5.96
548.879	5.89
549.222	5.81
549.565	5.72
549.908	5.64
550.25	5.56
550.593	5.49
550.936	5.44
551.278	5.39
551.621	5.36
551.963	5.32
552.306	5.29
552.648	5.27
552.991	5.26
553.333	5.24
553.675	5.23
554.017	5.23
554.36	5.23
554.702	5.24
555.044	5.25
555.386	5.27
555.728	5.28
556.07	5.3
556.412	5.32
556.754	5.33
557.096	5.33
557.438	5.33
557.78	5.33
558.121	5.33
558.463	5.34
558.805	5.34
559.147	5.34
559.488	5.34
559.83	5.35
560.171	5.35
560.513	5.36
560.854	5.35
561.196	5.36
561.537	5.36
561.878	5.36
562.22	5.36
562.561	5.36
562.902	5.37
563.243	5.37
563.584	5.38
563.925	5.38
564.266	5.38
564.607	5.39
564.948	5.39
565.289	5.4
565.63	5.4
565.971	5.41
566.312	5.41
566.653	5.42
566.993	5.42
567.334	5.42
567.675	5.43
568.015	5.43
568.356	5.43
568.696	5.43
569.037	5.43
569.377	5.43
569.718	5.43
570.058	5.43
570.398	5.43
570.739	5.43
571.079	5.43
571.419	5.43
571.759	5.43
572.099	5.43
572.439	5.43
572.779	5.43
573.119	5.43
573.459	5.43
573.799	5.43
574.139	5.43
574.479	5.43
574.819	5.43
575.158	5.43
575.498	5.43
575.838	5.43
576.177	5.42
576.517	5.42
576.856	5.42
577.196	5.42
577.535	5.42
577.875	5.42
578.214	5.42
578.553	5.42
578.893	5.42
579.232	5.42
579.571	5.42
579.91	5.42
580.25	5.41
580.589	5.41
580.928	5.41
581.267	5.4
581.606	5.41
581.945	5.41
582.283	5.41
582.622	5.42
582.961	5.42
583.3	5.42
583.639	5.42
583.977	5.42
584.316	5.42
584.654	5.42
584.993	5.42
585.332	5.43
585.67	5.43
586.008	5.43
586.347	5.44
586.685	5.44
587.024	5.44
587.362	5.44
587.7	5.45
588.038	5.45
588.376	5.45
588.715	5.45
589.053	5.45
589.391	5.46
589.729	5.47
590.067	5.47
590.404	5.47
590.742	5.47
591.08	5.48
591.418	5.49
591.756	5.49
592.093	5.49
592.431	5.49
592.769	5.5
593.106	5.5
593.444	5.5
593.781	5.5
594.119	5.51
594.456	5.5
594.793	5.5
595.131	5.51
595.468	5.51
595.805	5.51
596.143	5.51
596.48	5.51
596.817	5.51
597.154	5.51
597.491	5.51
597.828	5.52
598.165	5.52
598.502	5.53
598.839	5.53
599.176	5.54
599.512	5.54
599.849	5.54
600.186	5.54
600.523	5.54
600.859	5.54
601.196	5.55
601.532	5.55
601.869	5.55
602.205	5.55
602.542	5.56
602.878	5.56
603.215	5.55
603.551	5.55
603.887	5.55
604.223	5.56
604.56	5.56
604.896	5.56
605.232	5.56
605.568	5.56
605.904	5.57
606.24	5.57
606.576	5.57
606.912	5.57
607.248	5.57
607.583	5.57
607.919	5.57
608.255	5.58
608.591	5.58
608.926	5.58
609.262	5.58
609.597	5.58
609.933	5.58
610.268	5.58
610.604	5.58
610.939	5.58
611.275	5.58
611.61	5.58
611.945	5.58
612.281	5.58
612.616	5.58
612.951	5.57
613.286	5.57
613.621	5.58
613.956	5.58
614.291	5.58
614.626	5.58
614.961	5.58
615.296	5.58
615.631	5.58
615.966	5.59
616.3	5.59
616.635	5.59
616.97	5.59
617.304	5.59
617.639	5.6
617.973	5.59
618.308	5.59
618.642	5.59
618.977	5.59
619.311	5.6
619.646	5.6
619.98	5.6
620.314	5.6
620.648	5.61
620.983	5.61
621.317	5.62
621.651	5.62
621.985	5.62
622.319	5.62
622.653	5.63
622.987	5.64
623.321	5.65
623.655	5.66
623.988	5.66
624.322	5.66
624.656	5.66
624.99	5.67
625.323	5.68
625.657	5.68
625.99	5.68
626.324	5.68
626.657	5.69
626.991	5.69
627.324	5.69
627.658	5.69
627.991	5.69
628.324	5.69
628.657	5.7
628.991	5.7
629.324	5.71
629.657	5.71
629.99	5.71
630.323	5.71
630.656	5.72
630.989	5.72
631.322	5.72
631.655	5.72
631.987	5.73
632.32	5.73
632.653	5.73
632.986	5.73
633.318	5.73
633.651	5.73
633.984	5.74
634.316	5.74
634.649	5.74
634.981	5.75
635.313	5.74
635.646	5.75
635.978	5.75
636.31	5.75
636.643	5.75
636.975	5.75
637.307	5.75
637.639	5.75
637.971	5.76
638.303	5.75
638.635	5.76
638.967	5.75
639.299	5.75
639.631	5.76
639.963	5.76
640.295	5.77
640.626	5.78
640.958	5.78
641.29	5.78
641.621	5.79
641.953	5.79
642.285	5.79
642.616	5.79
642.948	5.79
643.279	5.79
643.61	5.81
643.942	5.81
644.273	5.8
644.604	5.81
644.936	5.81
645.267	5.81
645.598	5.81
645.929	5.82
646.26	5.82
646.591	5.82
646.922	5.83
647.253	5.83
647.584	5.83
647.915	5.84
648.245	5.84
648.576	5.84
648.907	5.84
649.238	5.84
649.568	5.84
649.899	5.83
650.229	5.83
650.56	5.83
650.89	5.83
651.221	5.82
651.551	5.83
651.882	5.83
652.212	5.83
652.542	5.84
652.872	5.84
653.203	5.85
653.533	5.85
653.863	5.84
654.193	5.85
654.523	5.85
654.853	5.85
655.183	5.86
655.513	5.86
655.843	5.87
656.172	5.87
656.502	5.88
656.832	5.88
657.162	5.88
657.491	5.88
657.821	5.89
658.15	5.89
658.48	5.9
658.809	5.9
659.139	5.91
659.468	5.92
659.798	5.93
660.127	5.93
660.456	5.94
660.785	5.94
661.115	5.94
661.444	5.95
661.773	5.96
662.102	5.96
662.431	5.97
662.76	5.98
663.089	6
663.418	6.01
663.747	6.02
664.076	6.03
664.404	6.04
664.733	6.06
665.062	6.07
665.39	6.08
665.719	6.08
666.048	6.09
666.376	6.09
666.705	6.1
667.033	6.1
667.362	6.1
667.69	6.1
668.018	6.11
668.347	6.11
668.675	6.11
669.003	6.12
669.331	6.13
669.659	6.13
669.987	6.13
670.315	6.13
670.643	6.14
670.971	6.15
671.299	6.14
671.627	6.15
671.955	6.15
672.283	6.15
672.61	6.16
672.938	6.16
673.266	6.16
673.593	6.16
673.921	6.16
674.249	6.17
674.576	6.18
674.904	6.18
675.231	6.19
675.558	6.19
675.886	6.19
676.213	6.18
676.54	6.18
676.867	6.17
677.195	6.17
677.522	6.16
677.849	6.16
678.176	6.17
678.503	6.16
678.83	6.17
679.157	6.17
679.484	6.18
679.81	6.19
680.137	6.18
