Data from UWBM42201_Reflection_00010.txt Node
Date: Sun May 02 12:50:23 EDT 2021
User: vgr7
Spectrometer: USB2G7710
Scans to average: 10
Trigger mode: 4
Integration Time (sec): 1.000000E-1
Electric dark correction enabled: true
Boxcar width: 20
XAxis mode: Wavelengths
Number of Pixels in Spectrum: 2048
>>>>>Begin Spectral Data<<<<<
177.721	99.64
178.105	99.06
178.488	98.41
178.871	98.88
179.254	98.01
179.636	96.38
180.019	94.89
180.402	93.01
180.785	90.76
181.168	89.51
181.55	87.95
181.933	111.2
182.316	112.3
182.698	114.39
183.081	116.31
183.463	117.94
183.846	119.81
184.228	120.65
184.611	121.01
184.993	123.62
185.376	126.56
185.758	-96.18
186.14	-45.42
186.522	-12.44
186.904	3.73
187.287	13.15
187.669	19.33
188.051	19.66
188.433	22.36
188.815	19.5
189.197	19.55
189.579	20.43
189.961	20.83
190.342	20.17
190.724	19.57
191.106	17.82
191.488	19.22
191.869	12.38
192.251	13.29
192.633	10.26
193.014	7.61
193.396	8.32
193.777	15.84
194.159	16.6
194.54	13.22
194.922	13.52
195.303	14.9
195.684	14.54
196.065	15.14
196.447	14.21
196.828	12.92
197.209	13.46
197.59	3.87
197.971	2.11
198.352	3.93
198.733	8.09
199.114	8.24
199.495	7.59
199.876	8.57
200.257	7.78
200.638	6.92
201.018	2.76
201.399	3.1
201.78	3.06
202.16	3.39
202.541	3.87
202.922	5.28
203.302	-0.25
203.683	-0.31
204.063	-0.15
204.444	0.75
204.824	2.24
205.204	6.09
205.585	15.82
205.965	14.62
206.345	15.29
206.725	11.67
207.106	11.34
207.486	12.3
207.866	13.07
208.246	13.14
208.626	15.82
209.006	19.95
209.386	14.82
209.766	14.89
210.145	14.92
210.525	13.61
210.905	14.62
211.285	16.4
211.664	15.3
212.044	16.19
212.424	15.8
212.803	11.62
213.183	13.16
213.562	14.75
213.942	13.2
214.321	9.96
214.701	8.64
215.08	9.14
215.459	7.86
215.838	6.4
216.218	6.91
216.597	4.87
216.976	2.26
217.355	2.89
217.734	2.56
218.113	2.69
218.492	2.75
218.871	3.76
219.25	4.21
219.629	3.37
220.008	3.69
220.387	4.77
220.766	3.95
221.144	2.15
221.523	3.74
221.902	4.42
222.28	5.36
222.659	6.3
223.037	6.59
223.416	7.14
223.794	7.68
224.173	6.84
224.551	7.3
224.929	7.9
225.308	8.52
225.686	8.22
226.064	8.69
226.442	8.65
226.821	8.28
227.199	7.82
227.577	7.46
227.955	7.27
228.333	6.79
228.711	6.76
229.089	7.1
229.467	6.74
229.845	7.5
230.222	7.74
230.6	8.2
230.978	8.22
231.356	7.52
231.733	7.37
232.111	7.49
232.488	7.32
232.866	7.29
233.243	6.91
233.621	6.9
233.998	6.5
234.376	6.74
234.753	6.82
235.13	6.73
235.508	6.91
235.885	6.81
236.262	6.81
236.639	6.91
237.016	6.86
237.393	6.75
237.77	6.52
238.147	6.4
238.524	6.4
238.901	6.4
239.278	6.43
239.655	6.43
240.032	6.34
240.409	6.34
240.785	6.21
241.162	6.25
241.539	6.23
241.915	6.25
242.292	6.22
242.668	6.18
243.045	6.15
243.421	6.01
243.798	5.99
244.174	5.98
244.551	5.9
244.927	5.74
245.303	5.68
245.679	5.67
246.056	5.62
246.432	5.6
246.808	5.44
247.184	5.47
247.56	5.45
247.936	5.46
248.312	5.44
248.688	5.5
249.064	5.5
249.44	5.5
249.815	5.48
250.191	5.43
250.567	5.42
250.943	5.51
251.318	5.51
251.694	5.46
252.069	5.39
252.445	5.4
252.82	5.5
253.196	5.51
253.571	5.46
253.947	5.53
254.322	5.47
254.697	5.58
255.073	5.56
255.448	5.55
255.823	5.51
256.198	5.48
256.573	5.32
256.948	5.29
257.323	5.29
257.698	5.23
258.073	5.22
258.448	5.11
258.823	5.12
259.198	5.1
259.573	5.1
259.948	5.12
260.322	5.1
260.697	5.11
261.072	5.12
261.446	5.09
261.821	5.07
262.195	5.04
262.57	4.99
262.944	4.98
263.319	4.95
263.693	4.95
264.067	4.97
264.442	5.05
264.816	5.03
265.19	5.01
265.564	5.05
265.938	5.02
266.313	5.07
266.687	5.01
267.061	5
267.435	5
267.809	4.98
268.183	4.94
268.556	4.95
268.93	4.96
269.304	4.92
269.678	4.89
270.051	4.87
270.425	4.85
270.799	4.85
271.172	4.84
271.546	4.86
271.919	4.85
272.293	4.81
272.666	4.79
273.04	4.8
273.413	4.74
273.787	4.72
274.16	4.72
274.533	4.75
274.906	4.73
275.279	4.74
275.653	4.71
276.026	4.68
276.399	4.64
276.772	4.63
277.145	4.64
277.518	4.65
277.891	4.68
278.263	4.68
278.636	4.7
279.009	4.73
279.382	4.7
279.755	4.63
280.127	4.66
280.5	4.66
280.872	4.65
281.245	4.75
281.617	4.76
281.99	4.8
282.362	4.83
282.735	4.81
283.107	4.81
283.479	4.83
283.852	4.86
284.224	4.9
284.596	4.9
284.968	4.81
285.34	4.82
285.713	4.82
286.085	4.77
286.457	4.79
286.829	4.77
287.201	4.8
287.572	4.87
287.944	4.9
288.316	4.95
288.688	5
289.06	5.02
289.431	5.06
289.803	5.09
290.175	5.13
290.546	5.19
290.918	5.24
291.289	5.26
291.661	5.31
292.032	5.31
292.403	5.37
292.775	5.5
293.146	5.53
293.517	5.6
293.889	5.68
294.26	5.71
294.631	5.77
295.002	5.86
295.373	5.92
295.744	5.97
296.115	6.01
296.486	6
296.857	6.04
297.228	6.07
297.599	6.1
297.97	6.15
298.34	6.22
298.711	6.22
299.082	6.25
299.452	6.32
299.823	6.4
300.194	6.46
300.564	6.51
300.935	6.57
301.305	6.61
301.676	6.65
302.046	6.71
302.416	6.76
302.787	6.82
303.157	6.83
303.527	6.89
303.897	6.97
304.267	7.05
304.637	7.12
305.008	7.21
305.378	7.28
305.748	7.33
306.117	7.45
306.487	7.57
306.857	7.68
307.227	7.75
307.597	7.81
307.967	7.86
308.336	7.94
308.706	8.01
309.076	8.07
309.445	8.13
309.815	8.09
310.184	8.13
310.554	8.15
310.923	8.23
311.293	8.31
311.662	8.38
312.031	8.44
312.401	8.52
312.77	8.56
313.139	8.61
313.508	8.7
313.877	8.71
314.246	8.78
314.616	8.81
314.985	8.82
315.353	8.88
315.722	8.94
316.091	9.01
316.46	9.07
316.829	9.16
317.198	9.25
317.567	9.45
317.935	9.52
318.304	9.64
318.672	9.74
319.041	9.82
319.41	9.91
319.778	10.01
320.147	10.08
320.515	10.14
320.883	10.23
321.252	10.24
321.62	10.35
321.988	10.4
322.357	10.47
322.725	10.59
323.093	10.66
323.461	10.71
323.829	10.76
324.197	10.8
324.565	10.83
324.933	10.88
325.301	10.94
325.669	10.98
326.037	11.03
326.405	11.03
326.772	11.07
327.14	11.1
327.508	11.13
327.875	11.19
328.243	11.23
328.61	11.22
328.978	11.28
329.346	11.32
329.713	11.34
330.08	11.38
330.448	11.41
330.815	11.42
331.182	11.46
331.55	11.5
331.917	11.54
332.284	11.58
332.651	11.63
333.018	11.67
333.385	11.69
333.752	11.74
334.119	11.79
334.486	11.83
334.853	11.85
335.22	11.89
335.587	11.91
335.954	11.94
336.32	12
336.687	12.04
337.054	12.09
337.42	12.14
337.787	12.16
338.153	12.2
338.52	12.27
338.886	12.33
339.253	12.37
339.619	12.39
339.986	12.4
340.352	12.41
340.718	12.45
341.084	12.47
341.451	12.49
341.817	12.5
342.183	12.52
342.549	12.57
342.915	12.58
343.281	12.62
343.647	12.65
344.013	12.68
344.379	12.71
344.745	12.75
345.11	12.77
345.476	12.8
345.842	12.83
346.208	12.84
346.573	12.85
346.939	12.88
347.304	12.89
347.67	12.92
348.035	12.94
348.401	12.95
348.766	12.98
349.132	13
349.497	13.02
349.862	13.04
350.228	13.06
350.593	13.1
350.958	13.09
351.323	13.08
351.688	13.08
352.053	13.07
352.418	13.08
352.783	13.09
353.148	13.08
353.513	13.07
353.878	13.06
354.243	13.06
354.608	13.06
354.972	13.07
355.337	13.07
355.702	13.04
356.066	13.05
356.431	13.04
356.795	13.03
357.16	13
357.524	12.99
357.889	12.98
358.253	12.97
358.618	12.97
358.982	12.98
359.346	12.98
359.71	12.96
360.075	12.96
360.439	12.95
360.803	12.93
361.167	12.91
361.531	12.91
361.895	12.9
362.259	12.88
362.623	12.86
362.987	12.83
363.351	12.82
363.714	12.81
364.078	12.78
364.442	12.76
364.806	12.75
365.169	12.72
365.533	12.68
365.896	12.65
366.26	12.62
366.623	12.58
366.987	12.55
367.35	12.53
367.714	12.5
368.077	12.47
368.44	12.44
368.803	12.41
369.167	12.37
369.53	12.32
369.893	12.29
370.256	12.25
370.619	12.23
370.982	12.17
371.345	12.12
371.708	12.08
372.071	12.03
372.434	11.98
372.797	11.94
373.159	11.91
373.522	11.85
373.885	11.79
374.247	11.72
374.61	11.67
374.973	11.6
375.335	11.53
375.698	11.47
376.06	11.41
376.423	11.34
376.785	11.28
377.147	11.21
377.51	11.16
377.872	11.1
378.234	11.04
378.596	11
378.958	10.94
379.321	10.88
379.683	10.82
380.045	10.75
380.407	10.7
380.769	10.63
381.13	10.58
381.492	10.53
381.854	10.47
382.216	10.41
382.578	10.35
382.939	10.3
383.301	10.24
383.663	10.19
384.024	10.12
384.386	10.08
384.747	10.02
385.109	9.95
385.47	9.89
385.832	9.84
386.193	9.78
386.554	9.72
386.916	9.67
387.277	9.62
387.638	9.58
387.999	9.53
388.36	9.48
388.721	9.44
389.082	9.38
389.443	9.34
389.804	9.3
390.165	9.25
390.526	9.21
390.887	9.16
391.248	9.11
391.609	9.07
391.969	9.03
392.33	8.99
392.691	8.94
393.051	8.89
393.412	8.83
393.772	8.79
394.133	8.74
394.493	8.69
394.854	8.65
395.214	8.6
395.574	8.54
395.935	8.49
396.295	8.44
396.655	8.39
397.015	8.34
397.376	8.29
397.736	8.24
398.096	8.18
398.456	8.14
398.816	8.09
399.176	8.03
399.535	7.98
399.895	7.93
400.255	7.89
400.615	7.84
400.975	7.79
401.334	7.75
401.694	7.7
402.054	7.66
402.413	7.6
402.773	7.55
403.132	7.52
403.492	7.47
403.851	7.43
404.211	7.4
404.57	7.37
404.929	7.34
405.288	7.3
405.648	7.27
406.007	7.25
406.366	7.22
406.725	7.2
407.084	7.16
407.443	7.14
407.802	7.1
408.161	7.07
408.52	7.03
408.879	7.01
409.238	6.98
409.596	6.96
409.955	6.94
410.314	6.92
410.673	6.89
411.031	6.87
411.39	6.85
411.748	6.83
412.107	6.81
412.465	6.8
412.824	6.81
413.182	6.81
413.54	6.81
413.899	6.82
414.257	6.84
414.615	6.88
414.974	6.9
415.332	6.93
415.69	6.97
416.048	6.98
416.406	7.01
416.764	7.03
417.122	7.05
417.48	7.08
417.838	7.1
418.195	7.11
418.553	7.12
418.911	7.12
419.269	7.1
419.626	7.07
419.984	7.04
420.342	7
420.699	6.95
421.057	6.9
421.414	6.86
421.772	6.83
422.129	6.8
422.486	6.78
422.844	6.76
423.201	6.75
423.558	6.73
423.915	6.71
424.273	6.69
424.63	6.67
424.987	6.64
425.344	6.62
425.701	6.61
426.058	6.59
426.415	6.56
426.772	6.54
427.128	6.51
427.485	6.48
427.842	6.45
428.199	6.41
428.555	6.37
428.912	6.33
429.269	6.27
429.625	6.23
429.982	6.17
430.338	6.12
430.695	6.07
431.051	6.01
431.407	5.97
431.764	5.93
432.12	5.89
432.476	5.86
432.832	5.83
433.189	5.83
433.545	5.82
433.901	5.83
434.257	5.85
434.613	5.88
434.969	5.91
435.325	5.94
435.681	5.99
436.036	6.01
436.392	6.03
436.748	6.04
437.104	6.04
437.459	6.06
437.815	6.08
438.171	6.1
438.526	6.13
438.882	6.17
439.237	6.21
439.593	6.26
439.948	6.29
440.304	6.34
440.659	6.37
441.014	6.39
441.369	6.42
441.725	6.44
442.08	6.46
442.435	6.47
442.79	6.47
443.145	6.47
443.5	6.47
443.855	6.46
444.21	6.45
444.565	6.44
444.92	6.42
445.275	6.4
445.629	6.38
445.984	6.37
446.339	6.35
446.693	6.34
447.048	6.31
447.403	6.28
447.757	6.24
448.112	6.21
448.466	6.17
448.82	6.14
449.175	6.11
449.529	6.08
449.883	6.05
450.238	6
450.592	5.99
450.946	5.97
451.3	5.96
451.654	5.97
452.008	5.95
452.362	5.95
452.716	5.94
453.07	5.93
453.424	5.91
453.778	5.89
454.132	5.86
454.486	5.84
454.839	5.81
455.193	5.77
455.547	5.74
455.9	5.7
456.254	5.66
456.607	5.62
456.961	5.58
457.314	5.55
457.668	5.53
458.021	5.52
458.375	5.52
458.728	5.52
459.081	5.52
459.434	5.54
459.787	5.55
460.141	5.57
460.494	5.58
460.847	5.58
461.2	5.59
461.553	5.61
461.906	5.62
462.259	5.63
462.611	5.64
462.964	5.66
463.317	5.67
463.67	5.68
464.022	5.69
464.375	5.7
464.728	5.71
465.08	5.72
465.433	5.74
465.785	5.75
466.138	5.74
466.49	5.74
466.843	5.73
467.195	5.72
467.547	5.71
467.899	5.7
468.252	5.68
468.604	5.67
468.956	5.66
469.308	5.66
469.66	5.68
470.012	5.68
470.364	5.71
470.716	5.74
471.068	5.78
471.42	5.83
471.772	5.87
472.123	5.9
472.475	5.93
472.827	5.96
473.178	5.99
473.53	6.01
473.882	6.04
474.233	6.08
474.585	6.14
474.936	6.23
475.288	6.37
475.639	6.54
475.99	6.75
476.342	6.97
476.693	7.21
477.044	7.45
477.395	7.7
477.746	7.95
478.097	8.2
478.448	8.45
478.8	8.7
479.15	8.92
479.501	9.12
479.852	9.31
480.203	9.48
480.554	9.64
480.905	9.8
481.255	9.95
481.606	10.1
481.957	10.22
482.307	10.35
482.658	10.47
483.009	10.58
483.359	10.69
483.709	10.79
484.06	10.89
484.41	10.99
484.761	11.07
485.111	11.16
485.461	11.24
485.811	11.32
486.162	11.39
486.512	11.45
486.862	11.49
487.212	11.52
487.562	11.55
487.912	11.56
488.262	11.56
488.612	11.55
488.961	11.52
489.311	11.46
489.661	11.37
490.011	11.24
490.36	11.09
490.71	10.91
491.06	10.72
491.409	10.52
491.759	10.32
492.108	10.1
492.458	9.89
492.807	9.66
493.157	9.44
493.506	9.23
493.855	9.03
494.204	8.85
494.554	8.7
494.903	8.54
495.252	8.4
495.601	8.26
495.95	8.13
496.299	8.02
496.648	7.91
496.997	7.81
497.346	7.73
497.695	7.64
498.043	7.57
498.392	7.51
498.741	7.45
499.09	7.39
499.438	7.34
499.787	7.31
500.135	7.28
500.484	7.27
500.832	7.27
501.181	7.3
501.529	7.34
501.878	7.4
502.226	7.47
502.574	7.55
502.923	7.64
503.271	7.74
503.619	7.84
503.967	7.95
504.315	8.05
504.663	8.16
505.011	8.28
505.359	8.39
505.707	8.51
506.055	8.64
506.403	8.78
506.751	8.92
507.098	9.07
507.446	9.23
507.794	9.4
508.141	9.58
508.489	9.77
508.837	9.96
509.184	10.15
509.531	10.36
509.879	10.58
510.226	10.82
510.574	11.06
510.921	11.32
511.268	11.58
511.616	11.86
511.963	12.15
512.31	12.44
512.657	12.74
513.004	13.03
513.351	13.32
513.698	13.59
514.045	13.85
514.392	14.11
514.739	14.36
515.086	14.61
515.432	14.86
515.779	15.13
516.126	15.41
516.473	15.7
516.819	16.01
517.166	16.35
517.512	16.72
517.859	17.11
518.205	17.53
518.552	17.98
518.898	18.46
519.245	19.01
519.591	19.66
519.937	20.41
520.283	21.27
520.629	22.21
520.976	23.17
521.322	24.17
521.668	25.18
522.014	26.19
522.36	27.2
522.706	28.2
523.052	29.17
523.398	30.1
523.743	30.95
524.089	31.75
524.435	32.49
524.781	33.22
525.126	33.94
525.472	34.65
525.817	35.35
526.163	36.03
526.509	36.69
526.854	37.34
527.199	37.98
527.545	38.62
527.89	39.28
528.235	39.92
528.581	40.53
528.926	41.1
529.271	41.64
529.616	42.13
529.961	42.56
530.306	42.97
530.651	43.36
530.996	43.72
531.341	44.05
531.686	44.35
532.031	44.63
532.376	44.93
532.721	45.27
533.065	45.62
533.41	45.98
533.755	46.28
534.099	46.5
534.444	46.68
534.788	46.81
535.133	46.92
535.477	46.98
535.822	47
536.166	46.97
536.51	46.87
536.855	46.69
537.199	46.47
537.543	46.25
537.887	46.08
538.231	45.95
538.576	45.83
538.92	45.69
539.264	45.53
539.608	45.34
539.951	45.13
540.295	44.9
540.639	44.66
540.983	44.4
541.327	44.13
541.671	43.88
542.014	43.63
542.358	43.42
542.701	43.34
543.045	43.3
543.389	43.3
543.732	43.32
544.075	43.37
544.419	43.43
544.762	43.5
545.105	43.59
545.449	43.7
545.792	43.82
546.135	43.93
546.478	43.99
546.821	43.98
547.165	43.89
547.508	43.74
547.851	43.53
548.194	43.27
548.536	42.94
548.879	42.58
549.222	42.18
549.565	41.78
549.908	41.39
550.25	41.02
550.593	40.73
550.936	40.52
551.278	40.38
551.621	40.29
551.963	40.23
552.306	40.19
552.648	40.19
552.991	40.22
553.333	40.28
553.675	40.38
554.017	40.51
554.36	40.69
554.702	40.89
555.044	41.14
555.386	41.44
555.728	41.71
556.07	41.96
556.412	42.21
556.754	42.33
557.096	42.46
557.438	42.6
557.78	42.73
558.121	42.86
558.463	42.99
558.805	43.11
559.147	43.25
559.488	43.37
559.83	43.5
560.171	43.63
560.513	43.76
560.854	43.87
561.196	43.98
561.537	44.1
561.878	44.21
562.22	44.32
562.561	44.43
562.902	44.54
563.243	44.67
563.584	44.77
563.925	44.88
564.266	45
564.607	45.11
564.948	45.23
565.289	45.33
565.63	45.44
565.971	45.54
566.312	45.64
566.653	45.74
566.993	45.82
567.334	45.92
567.675	46.01
568.015	46.1
568.356	46.19
568.696	46.28
569.037	46.35
569.377	46.43
569.718	46.51
570.058	46.59
570.398	46.66
570.739	46.72
571.079	46.77
571.419	46.81
571.759	46.87
572.099	46.93
572.439	46.98
572.779	47.04
573.119	47.08
573.459	47.12
573.799	47.16
574.139	47.21
574.479	47.25
574.819	47.29
575.158	47.34
575.498	47.38
575.838	47.42
576.177	47.46
576.517	47.5
576.856	47.53
577.196	47.56
577.535	47.59
577.875	47.62
578.214	47.64
578.553	47.67
578.893	47.69
579.232	47.72
579.571	47.74
579.91	47.76
580.25	47.79
580.589	47.81
580.928	47.84
581.267	47.87
581.606	47.9
581.945	47.94
582.283	47.97
582.622	48
582.961	48.04
583.3	48.08
583.639	48.12
583.977	48.15
584.316	48.18
584.654	48.23
584.993	48.28
585.332	48.32
585.67	48.36
586.008	48.4
586.347	48.44
586.685	48.48
587.024	48.52
587.362	48.57
587.7	48.62
588.038	48.67
588.376	48.73
588.715	48.78
589.053	48.85
589.391	48.9
589.729	48.95
590.067	49
590.404	49.06
590.742	49.12
591.08	49.19
591.418	49.25
591.756	49.3
592.093	49.35
592.431	49.39
592.769	49.44
593.106	49.47
593.444	49.51
593.781	49.54
594.119	49.57
594.456	49.61
594.793	49.65
595.131	49.68
595.468	49.72
595.805	49.75
596.143	49.79
596.48	49.84
596.817	49.89
597.154	49.93
597.491	49.97
597.828	50.02
598.165	50.08
598.502	50.12
598.839	50.16
599.176	50.19
599.512	50.22
599.849	50.25
600.186	50.28
600.523	50.31
600.859	50.34
601.196	50.37
601.532	50.4
601.869	50.42
602.205	50.45
602.542	50.47
602.878	50.5
603.215	50.52
603.551	50.55
603.887	50.57
604.223	50.57
604.56	50.59
604.896	50.6
605.232	50.6
605.568	50.61
605.904	50.64
606.24	50.66
606.576	50.68
606.912	50.69
607.248	50.71
607.583	50.73
607.919	50.76
608.255	50.77
608.591	50.78
608.926	50.8
609.262	50.81
609.597	50.81
609.933	50.83
610.268	50.83
610.604	50.83
610.939	50.83
611.275	50.83
611.61	50.84
611.945	50.83
612.281	50.82
612.616	50.83
612.951	50.84
613.286	50.85
613.621	50.85
613.956	50.86
614.291	50.88
614.626	50.89
614.961	50.91
615.296	50.92
615.631	50.93
615.966	50.93
616.3	50.93
616.635	50.92
616.97	50.93
617.304	50.93
617.639	50.92
617.973	50.95
618.308	50.95
618.642	50.96
618.977	50.98
619.311	51.01
619.646	51.02
619.98	51.04
620.314	51.07
620.648	51.12
620.983	51.13
621.317	51.17
621.651	51.19
621.985	51.21
622.319	51.23
622.653	51.24
622.987	51.26
623.321	51.29
623.655	51.3
623.988	51.34
624.322	51.35
624.656	51.37
624.99	51.39
625.323	51.42
625.657	51.43
625.99	51.46
626.324	51.48
626.657	51.49
626.991	51.5
627.324	51.52
627.658	51.54
627.991	51.55
628.324	51.57
628.657	51.58
628.991	51.6
629.324	51.61
629.657	51.64
629.99	51.65
630.323	51.68
630.656	51.69
630.989	51.71
631.322	51.73
631.655	51.74
631.987	51.76
632.32	51.77
632.653	51.78
632.986	51.78
633.318	51.8
633.651	51.8
633.984	51.81
634.316	51.82
634.649	51.83
634.981	51.83
635.313	51.84
635.646	51.83
635.978	51.85
636.31	51.86
636.643	51.86
636.975	51.87
637.307	51.89
637.639	51.91
637.971	51.93
638.303	51.94
638.635	51.95
638.967	51.95
639.299	51.97
639.631	51.99
639.963	52
640.295	52.02
640.626	52.05
640.958	52.07
641.29	52.09
641.621	52.1
641.953	52.12
642.285	52.14
642.616	52.16
642.948	52.17
643.279	52.19
643.61	52.2
643.942	52.2
644.273	52.23
644.604	52.25
644.936	52.28
645.267	52.3
645.598	52.3
645.929	52.33
646.26	52.35
646.591	52.37
646.922	52.39
647.253	52.41
647.584	52.43
647.915	52.45
648.245	52.47
648.576	52.49
648.907	52.51
649.238	52.53
649.568	52.54
649.899	52.54
650.229	52.57
650.56	52.59
650.89	52.6
651.221	52.62
651.551	52.64
651.882	52.67
652.212	52.69
652.542	52.7
652.872	52.72
653.203	52.74
653.533	52.73
653.863	52.74
654.193	52.75
654.523	52.75
654.853	52.76
655.183	52.77
655.513	52.8
655.843	52.81
656.172	52.82
656.502	52.84
656.832	52.83
657.162	52.84
657.491	52.86
657.821	52.86
658.15	52.87
658.48	52.87
658.809	52.89
659.139	52.91
659.468	52.92
659.798	52.93
660.127	52.95
660.456	52.98
660.785	53
661.115	53.01
661.444	53.02
661.773	53.04
662.102	53.06
662.431	53.07
662.76	53.1
663.089	53.1
663.418	53.13
663.747	53.13
664.076	53.15
664.404	53.16
664.733	53.17
665.062	53.19
665.39	53.21
665.719	53.2
666.048	53.22
