Data from UWBM48344_Reflection_00004.txt Node
Date: Sun May 02 14:00:26 EDT 2021
User: vgr7
Spectrometer: USB2G7710
Scans to average: 10
Trigger mode: 4
Integration Time (sec): 1.000000E-1
Electric dark correction enabled: true
Boxcar width: 20
XAxis mode: Wavelengths
Number of Pixels in Spectrum: 2048
>>>>>Begin Spectral Data<<<<<
177.721	342.59
178.105	1003.7
178.488	415.43
178.871	314.81
179.254	183.63
179.636	100.34
180.019	74.48
180.402	69.31
180.785	50.79
181.168	39.23
181.55	38.02
181.933	34.48
182.316	29.86
182.698	30.47
183.081	25.52
183.463	22.41
183.846	20.68
184.228	25.16
184.611	24.68
184.993	26.28
185.376	27.73
185.758	32.64
186.14	39.11
186.522	35.68
186.904	33.11
187.287	31.85
187.669	30.56
188.051	28.34
188.433	26.44
188.815	21.91
189.197	19.93
189.579	21.34
189.961	22.17
190.342	20.58
190.724	20.11
191.106	21.08
191.488	20.53
191.869	18.78
192.251	18.73
192.633	17.32
193.014	16.73
193.396	13.84
193.777	13.5
194.159	13.36
194.54	11.05
194.922	8.85
195.303	9.13
195.684	9.69
196.065	9.36
196.447	10.06
196.828	9.98
197.209	7.91
197.59	5.1
197.971	4.72
198.352	4.62
198.733	6.67
199.114	7.02
199.495	7.32
199.876	5.53
200.257	5.91
200.638	5.23
201.018	4.93
201.399	3.95
201.78	2.08
202.16	2.79
202.541	2.57
202.922	2.83
203.302	3.21
203.683	3.67
204.063	4.09
204.444	1.89
204.824	2.1
205.204	0.74
205.585	0.94
205.965	3.25
206.345	3.43
206.725	4.34
207.106	4.38
207.486	4.74
207.866	4.57
208.246	4.42
208.626	2.92
209.006	3.71
209.386	3.48
209.766	2.68
210.145	2.1
210.525	4.17
210.905	5.4
211.285	2.8
211.664	3.21
212.044	2.28
212.424	1.13
212.803	2.02
213.183	3.96
213.562	5.75
213.942	5.36
214.321	4.93
214.701	3.84
215.08	4.8
215.459	4.99
215.838	4.45
216.218	3.89
216.597	2.92
216.976	3.6
217.355	4.05
217.734	2.4
218.113	3.42
218.492	2.66
218.871	1.98
219.25	3.23
219.629	3.84
220.008	4.48
220.387	3.72
220.766	4.36
221.144	3.92
221.523	3.26
221.902	3.22
222.28	2.34
222.659	2.12
223.037	2.39
223.416	2.53
223.794	2.88
224.173	4.26
224.551	4.02
224.929	4.72
225.308	4.7
225.686	5.26
226.064	4.92
226.442	4.51
226.821	5.48
227.199	5.5
227.577	5.84
227.955	6.61
228.333	6.22
228.711	5.73
229.089	5.24
229.467	4.9
229.845	4.67
230.222	4.94
230.6	4.74
230.978	4.98
231.356	5.21
231.733	4.94
232.111	4.91
232.488	4.78
232.866	4.6
233.243	4.77
233.621	4.88
233.998	4.98
234.376	5.01
234.753	4.75
235.13	4.7
235.508	4.79
235.885	4.78
236.262	4.76
236.639	4.75
237.016	4.79
237.393	4.81
237.77	4.77
238.147	4.78
238.524	4.72
238.901	4.68
239.278	4.71
239.655	4.65
240.032	4.63
240.409	4.62
240.785	4.68
241.162	4.66
241.539	4.62
241.915	4.66
242.292	4.62
242.668	4.61
243.045	4.58
243.421	4.56
243.798	4.59
244.174	4.65
244.551	4.66
244.927	4.68
245.303	4.68
245.679	4.68
246.056	4.62
246.432	4.62
246.808	4.58
247.184	4.64
247.56	4.66
247.936	4.63
248.312	4.64
248.688	4.64
249.064	4.6
249.44	4.63
249.815	4.57
250.191	4.54
250.567	4.54
250.943	4.53
251.318	4.5
251.694	4.48
252.069	4.43
252.445	4.4
252.82	4.39
253.196	4.36
253.571	4.35
253.947	4.34
254.322	4.33
254.697	4.3
255.073	4.27
255.448	4.3
255.823	4.26
256.198	4.22
256.573	4.19
256.948	4.21
257.323	4.19
257.698	4.15
258.073	4.14
258.448	4.11
258.823	4.1
259.198	4.08
259.573	4.04
259.948	4.02
260.322	4
260.697	3.98
261.072	3.97
261.446	3.98
261.821	3.95
262.195	3.93
262.57	3.88
262.944	3.87
263.319	3.89
263.693	3.89
264.067	3.88
264.442	3.87
264.816	3.83
265.19	3.86
265.564	3.88
265.938	3.86
266.313	3.87
266.687	3.86
267.061	3.85
267.435	3.87
267.809	3.88
268.183	3.87
268.556	3.87
268.93	3.88
269.304	3.88
269.678	3.89
270.051	3.87
270.425	3.87
270.799	3.84
271.172	3.85
271.546	3.86
271.919	3.87
272.293	3.86
272.666	3.83
273.04	3.88
273.413	3.9
273.787	3.92
274.16	3.92
274.533	3.92
274.906	3.94
275.279	3.95
275.653	3.97
276.026	3.98
276.399	3.98
276.772	4
277.145	4
277.518	4.01
277.891	4.05
278.263	4.04
278.636	4.03
279.009	4.01
279.382	4.02
279.755	4.04
280.127	4.05
280.5	4.05
280.872	4.05
281.245	4.06
281.617	4.05
281.99	4.07
282.362	4.07
282.735	4.06
283.107	4.05
283.479	4.03
283.852	4.04
284.224	4.04
284.596	4.03
284.968	4.03
285.34	4.06
285.713	4.07
286.085	4.08
286.457	4.07
286.829	4.07
287.201	4.08
287.572	4.07
287.944	4.09
288.316	4.07
288.688	4.07
289.06	4.05
289.431	4.07
289.803	4.09
290.175	4.1
290.546	4.11
290.918	4.12
291.289	4.14
291.661	4.15
292.032	4.15
292.403	4.16
292.775	4.18
293.146	4.18
293.517	4.19
293.889	4.21
294.26	4.24
294.631	4.25
295.002	4.26
295.373	4.28
295.744	4.28
296.115	4.29
296.486	4.3
296.857	4.32
297.228	4.33
297.599	4.35
297.97	4.37
298.34	4.38
298.711	4.41
299.082	4.43
299.452	4.44
299.823	4.45
300.194	4.46
300.564	4.47
300.935	4.48
301.305	4.51
301.676	4.53
302.046	4.53
302.416	4.55
302.787	4.55
303.157	4.55
303.527	4.57
303.897	4.59
304.267	4.62
304.637	4.63
305.008	4.63
305.378	4.64
305.748	4.64
306.117	4.64
306.487	4.65
306.857	4.66
307.227	4.66
307.597	4.69
307.967	4.69
308.336	4.69
308.706	4.69
309.076	4.68
309.445	4.68
309.815	4.67
310.184	4.67
310.554	4.67
310.923	4.68
311.293	4.68
311.662	4.69
312.031	4.7
312.401	4.7
312.77	4.71
313.139	4.73
313.508	4.75
313.877	4.75
314.246	4.76
314.616	4.74
314.985	4.76
315.353	4.76
315.722	4.76
316.091	4.75
316.46	4.74
316.829	4.74
317.198	4.76
317.567	4.76
317.935	4.78
318.304	4.78
318.672	4.78
319.041	4.78
319.41	4.77
319.778	4.78
320.147	4.77
320.515	4.76
320.883	4.75
321.252	4.76
321.62	4.76
321.988	4.78
322.357	4.78
322.725	4.78
323.093	4.77
323.461	4.77
323.829	4.79
324.197	4.81
324.565	4.8
324.933	4.82
325.301	4.83
325.669	4.84
326.037	4.82
326.405	4.83
326.772	4.82
327.14	4.81
327.508	4.8
327.875	4.8
328.243	4.78
328.61	4.78
328.978	4.79
329.346	4.77
329.713	4.78
330.08	4.77
330.448	4.76
330.815	4.75
331.182	4.74
331.55	4.74
331.917	4.72
332.284	4.7
332.651	4.7
333.018	4.7
333.385	4.71
333.752	4.71
334.119	4.71
334.486	4.71
334.853	4.69
335.22	4.71
335.587	4.72
335.954	4.72
336.32	4.71
336.687	4.71
337.054	4.7
337.42	4.71
337.787	4.71
338.153	4.7
338.52	4.7
338.886	4.69
339.253	4.69
339.619	4.69
339.986	4.69
340.352	4.69
340.718	4.67
341.084	4.68
341.451	4.67
341.817	4.68
342.183	4.69
342.549	4.69
342.915	4.69
343.281	4.7
343.647	4.69
344.013	4.68
344.379	4.69
344.745	4.69
345.11	4.69
345.476	4.7
345.842	4.71
346.208	4.71
346.573	4.71
346.939	4.71
347.304	4.72
347.67	4.71
348.035	4.72
348.401	4.71
348.766	4.72
349.132	4.72
349.497	4.72
349.862	4.73
350.228	4.72
350.593	4.72
350.958	4.73
351.323	4.73
351.688	4.73
352.053	4.73
352.418	4.72
352.783	4.71
353.148	4.71
353.513	4.72
353.878	4.72
354.243	4.72
354.608	4.71
354.972	4.72
355.337	4.72
355.702	4.73
356.066	4.73
356.431	4.73
356.795	4.72
357.16	4.71
357.524	4.71
357.889	4.71
358.253	4.7
358.618	4.7
358.982	4.71
359.346	4.7
359.71	4.7
360.075	4.7
360.439	4.69
360.803	4.7
361.167	4.7
361.531	4.7
361.895	4.7
362.259	4.7
362.623	4.69
362.987	4.69
363.351	4.69
363.714	4.68
364.078	4.68
364.442	4.67
364.806	4.68
365.169	4.68
365.533	4.67
365.896	4.66
366.26	4.65
366.623	4.65
366.987	4.64
367.35	4.65
367.714	4.64
368.077	4.64
368.44	4.63
368.803	4.62
369.167	4.62
369.53	4.61
369.893	4.6
370.256	4.59
370.619	4.58
370.982	4.58
371.345	4.57
371.708	4.57
372.071	4.56
372.434	4.56
372.797	4.55
373.159	4.54
373.522	4.54
373.885	4.54
374.247	4.52
374.61	4.51
374.973	4.5
375.335	4.5
375.698	4.48
376.06	4.48
376.423	4.47
376.785	4.46
377.147	4.45
377.51	4.45
377.872	4.44
378.234	4.42
378.596	4.42
378.958	4.41
379.321	4.4
379.683	4.4
380.045	4.39
380.407	4.38
380.769	4.37
381.13	4.36
381.492	4.36
381.854	4.36
382.216	4.35
382.578	4.34
382.939	4.34
383.301	4.34
383.663	4.33
384.024	4.32
384.386	4.32
384.747	4.31
385.109	4.31
385.47	4.3
385.832	4.29
386.193	4.29
386.554	4.28
386.916	4.27
387.277	4.26
387.638	4.26
387.999	4.26
388.36	4.25
388.721	4.24
389.082	4.24
389.443	4.23
389.804	4.22
390.165	4.22
390.526	4.22
390.887	4.21
391.248	4.21
391.609	4.2
391.969	4.2
392.33	4.19
392.691	4.19
393.051	4.18
393.412	4.18
393.772	4.17
394.133	4.17
394.493	4.16
394.854	4.15
395.214	4.15
395.574	4.14
395.935	4.14
396.295	4.13
396.655	4.12
397.015	4.12
397.376	4.11
397.736	4.1
398.096	4.1
398.456	4.09
398.816	4.09
399.176	4.08
399.535	4.08
399.895	4.07
400.255	4.07
400.615	4.06
400.975	4.06
401.334	4.06
401.694	4.06
402.054	4.05
402.413	4.05
402.773	4.04
403.132	4.03
403.492	4.03
403.851	4.02
404.211	4.02
404.57	4.02
404.929	4.02
405.288	4.01
405.648	4.01
406.007	4.01
406.366	4.01
406.725	4
407.084	4
407.443	4
407.802	4
408.161	4
408.52	4
408.879	3.99
409.238	3.99
409.596	3.99
409.955	3.99
410.314	3.99
410.673	3.99
411.031	4
411.39	4
411.748	4.01
412.107	4.01
412.465	4.02
412.824	4.04
413.182	4.06
413.54	4.08
413.899	4.11
414.257	4.14
414.615	4.17
414.974	4.2
415.332	4.23
415.69	4.27
416.048	4.3
416.406	4.34
416.764	4.37
417.122	4.4
417.48	4.43
417.838	4.46
418.195	4.49
418.553	4.51
418.911	4.52
419.269	4.53
419.626	4.53
419.984	4.52
420.342	4.51
420.699	4.49
421.057	4.47
421.414	4.45
421.772	4.44
422.129	4.42
422.486	4.42
422.844	4.42
423.201	4.42
423.558	4.41
423.915	4.41
424.273	4.41
424.63	4.41
424.987	4.41
425.344	4.4
425.701	4.4
426.058	4.4
426.415	4.4
426.772	4.4
427.128	4.39
427.485	4.38
427.842	4.37
428.199	4.35
428.555	4.33
428.912	4.31
429.269	4.29
429.625	4.26
429.982	4.24
430.338	4.21
430.695	4.18
431.051	4.15
431.407	4.13
431.764	4.11
432.12	4.08
432.476	4.07
432.832	4.06
433.189	4.06
433.545	4.07
433.901	4.08
434.257	4.1
434.613	4.12
434.969	4.15
435.325	4.18
435.681	4.22
436.036	4.24
436.392	4.26
436.748	4.29
437.104	4.29
437.459	4.31
437.815	4.33
438.171	4.35
438.526	4.38
438.882	4.41
439.237	4.45
439.593	4.49
439.948	4.52
440.304	4.56
440.659	4.58
441.014	4.6
441.369	4.63
441.725	4.65
442.08	4.66
442.435	4.68
442.79	4.69
443.145	4.69
443.5	4.69
443.855	4.69
444.21	4.69
444.565	4.69
444.92	4.68
445.275	4.67
445.629	4.67
445.984	4.65
446.339	4.64
446.693	4.63
447.048	4.62
447.403	4.6
447.757	4.58
448.112	4.56
448.466	4.53
448.82	4.51
449.175	4.49
449.529	4.47
449.883	4.45
450.238	4.42
450.592	4.41
450.946	4.4
451.3	4.4
451.654	4.41
452.008	4.41
452.362	4.42
452.716	4.42
453.07	4.42
453.424	4.41
453.778	4.41
454.132	4.39
454.486	4.38
454.839	4.36
455.193	4.34
455.547	4.33
455.9	4.3
456.254	4.29
456.607	4.26
456.961	4.23
457.314	4.21
457.668	4.2
458.021	4.2
458.375	4.19
458.728	4.19
459.081	4.2
459.434	4.2
459.787	4.21
460.141	4.22
460.494	4.23
460.847	4.24
461.2	4.25
461.553	4.25
461.906	4.25
462.259	4.26
462.611	4.26
462.964	4.27
463.317	4.28
463.67	4.28
464.022	4.29
464.375	4.3
464.728	4.31
465.08	4.31
465.433	4.31
465.785	4.31
466.138	4.3
466.49	4.28
466.843	4.27
467.195	4.25
467.547	4.23
467.899	4.21
468.252	4.18
468.604	4.16
468.956	4.14
469.308	4.12
469.66	4.12
470.012	4.12
470.364	4.12
470.716	4.13
471.068	4.14
471.42	4.17
471.772	4.19
472.123	4.2
472.475	4.21
472.827	4.22
473.178	4.23
473.53	4.25
473.882	4.26
474.233	4.29
474.585	4.32
474.936	4.39
475.288	4.48
475.639	4.6
475.99	4.73
476.342	4.88
476.693	5.05
477.044	5.22
477.395	5.39
477.746	5.57
478.097	5.74
478.448	5.93
478.8	6.1
479.15	6.27
479.501	6.42
479.852	6.55
480.203	6.69
480.554	6.81
480.905	6.93
481.255	7.04
481.606	7.15
481.957	7.26
482.307	7.36
482.658	7.45
483.009	7.54
483.359	7.62
483.709	7.71
484.06	7.79
484.41	7.87
484.761	7.94
485.111	8.02
485.461	8.09
485.811	8.15
486.162	8.21
486.512	8.26
486.862	8.31
487.212	8.33
487.562	8.35
487.912	8.36
488.262	8.37
488.612	8.37
488.961	8.34
489.311	8.3
489.661	8.23
490.011	8.14
490.36	8.04
490.71	7.92
491.06	7.78
491.409	7.64
491.759	7.49
492.108	7.33
492.458	7.17
492.807	7
493.157	6.83
493.506	6.68
493.855	6.53
494.204	6.39
494.554	6.25
494.903	6.12
495.252	6
495.601	5.89
495.95	5.78
496.299	5.67
496.648	5.58
496.997	5.49
497.346	5.4
497.695	5.32
498.043	5.24
498.392	5.16
498.741	5.09
499.09	5.02
499.438	4.95
499.787	4.89
500.135	4.83
500.484	4.78
500.832	4.74
501.181	4.71
501.529	4.7
501.878	4.69
502.226	4.69
502.574	4.7
502.923	4.71
503.271	4.73
503.619	4.74
503.967	4.76
504.315	4.77
504.663	4.78
505.011	4.79
505.359	4.8
505.707	4.81
506.055	4.83
506.403	4.85
506.751	4.87
507.098	4.89
507.446	4.91
507.794	4.94
508.141	4.96
508.489	4.99
508.837	5.03
509.184	5.06
509.531	5.09
509.879	5.12
510.226	5.16
510.574	5.19
510.921	5.23
511.268	5.27
511.616	5.32
511.963	5.36
512.31	5.41
512.657	5.45
513.004	5.49
513.351	5.53
513.698	5.56
514.045	5.59
514.392	5.61
514.739	5.63
515.086	5.64
515.432	5.65
515.779	5.67
516.126	5.68
516.473	5.69
516.819	5.71
517.166	5.74
517.512	5.77
517.859	5.8
518.205	5.84
518.552	5.89
518.898	5.94
519.245	6.01
519.591	6.09
519.937	6.21
520.283	6.34
520.629	6.49
520.976	6.66
521.322	6.83
521.668	7.01
522.014	7.19
522.36	7.37
522.706	7.54
523.052	7.7
523.398	7.86
523.743	7.99
524.089	8.11
524.435	8.22
524.781	8.32
525.126	8.41
525.472	8.5
525.817	8.58
526.163	8.66
526.509	8.73
526.854	8.8
527.199	8.88
527.545	8.95
527.89	9.03
528.235	9.1
528.581	9.17
528.926	9.24
529.271	9.3
529.616	9.36
529.961	9.41
530.306	9.46
530.651	9.51
530.996	9.54
531.341	9.56
531.686	9.58
532.031	9.59
532.376	9.61
532.721	9.62
533.065	9.64
533.41	9.66
533.755	9.67
534.099	9.66
534.444	9.63
534.788	9.6
535.133	9.55
535.477	9.5
535.822	9.44
536.166	9.37
536.51	9.29
536.855	9.19
537.199	9.09
537.543	9
537.887	8.91
538.231	8.84
538.576	8.77
538.92	8.7
539.264	8.63
539.608	8.56
539.951	8.48
540.295	8.4
540.639	8.32
540.983	8.24
541.327	8.15
541.671	8.06
542.014	7.99
542.358	7.91
542.701	7.86
543.045	7.82
543.389	7.79
543.732	7.77
544.075	7.74
544.419	7.72
544.762	7.71
545.105	7.7
545.449	7.69
545.792	7.68
546.135	7.67
546.478	7.66
546.821	7.63
547.165	7.59
547.508	7.54
547.851	7.48
548.194	7.4
548.536	7.32
548.879	7.23
549.222	7.14
549.565	7.04
549.908	6.95
550.25	6.86
550.593	6.78
550.936	6.73
551.278	6.67
551.621	6.63
551.963	6.6
552.306	6.57
552.648	6.54
552.991	6.53
553.333	6.51
553.675	6.51
554.017	6.5
554.36	6.51
554.702	6.52
555.044	6.54
555.386	6.56
555.728	6.6
556.07	6.62
556.412	6.65
556.754	6.66
557.096	6.67
557.438	6.68
557.78	6.69
558.121	6.69
558.463	6.7
558.805	6.7
559.147	6.71
559.488	6.72
559.83	6.72
560.171	6.73
560.513	6.73
560.854	6.74
561.196	6.74
561.537	6.75
561.878	6.75
562.22	6.76
562.561	6.77
562.902	6.77
563.243	6.78
563.584	6.78
563.925	6.79
564.266	6.79
564.607	6.8
564.948	6.81
565.289	6.81
565.63	6.82
565.971	6.83
566.312	6.84
566.653	6.84
566.993	6.85
567.334	6.86
567.675	6.87
568.015	6.88
568.356	6.88
568.696	6.88
569.037	6.89
569.377	6.89
569.718	6.9
570.058	6.9
570.398	6.91
570.739	6.91
571.079	6.91
571.419	6.91
571.759	6.91
572.099	6.92
572.439	6.93
572.779	6.93
573.119	6.93
573.459	6.93
573.799	6.94
574.139	6.94
574.479	6.94
574.819	6.94
575.158	6.95
575.498	6.95
575.838	6.95
576.177	6.95
576.517	6.95
576.856	6.95
577.196	6.95
577.535	6.95
577.875	6.96
578.214	6.96
578.553	6.96
578.893	6.96
579.232	6.96
579.571	6.96
579.91	6.96
580.25	6.96
580.589	6.96
580.928	6.96
581.267	6.96
581.606	6.96
581.945	6.96
582.283	6.97
582.622	6.97
582.961	6.97
583.3	6.97
583.639	6.97
583.977	6.98
584.316	6.98
584.654	6.99
584.993	6.99
585.332	6.99
585.67	6.99
586.008	7
586.347	6.99
586.685	7
587.024	7
587.362	7
587.7	7.01
588.038	7.01
588.376	7.02
588.715	7.02
589.053	7.02
589.391	7.03
589.729	7.04
590.067	7.05
590.404	7.06
590.742	7.06
591.08	7.07
591.418	7.07
591.756	7.08
592.093	7.09
592.431	7.09
592.769	7.1
593.106	7.1
593.444	7.11
593.781	7.11
594.119	7.11
594.456	7.1
594.793	7.11
595.131	7.11
595.468	7.11
595.805	7.11
596.143	7.11
596.48	7.11
596.817	7.12
597.154	7.13
597.491	7.14
597.828	7.15
598.165	7.15
598.502	7.16
598.839	7.17
599.176	7.17
599.512	7.18
599.849	7.18
600.186	7.18
600.523	7.18
600.859	7.19
601.196	7.2
601.532	7.2
601.869	7.21
602.205	7.21
602.542	7.21
602.878	7.22
603.215	7.22
603.551	7.22
603.887	7.22
604.223	7.22
604.56	7.22
604.896	7.23
605.232	7.23
605.568	7.23
605.904	7.23
606.24	7.23
606.576	7.23
606.912	7.23
607.248	7.23
607.583	7.23
607.919	7.23
608.255	7.24
608.591	7.24
608.926	7.25
609.262	7.25
609.597	7.26
609.933	7.26
610.268	7.26
610.604	7.26
610.939	7.26
611.275	7.25
611.61	7.25
611.945	7.25
612.281	7.25
612.616	7.25
612.951	7.25
613.286	7.24
613.621	7.25
613.956	7.25
614.291	7.25
614.626	7.25
614.961	7.25
615.296	7.26
615.631	7.25
615.966	7.26
616.3	7.26
616.635	7.26
616.97	7.26
617.304	7.27
617.639	7.27
617.973	7.27
618.308	7.27
618.642	7.27
618.977	7.28
619.311	7.28
619.646	7.29
619.98	7.3
620.314	7.31
620.648	7.32
620.983	7.32
621.317	7.33
621.651	7.33
621.985	7.34
622.319	7.35
622.653	7.36
622.987	7.36
623.321	7.36
623.655	7.38
623.988	7.38
624.322	7.39
624.656	7.4
624.99	7.4
625.323	7.41
625.657	7.42
625.99	7.42
626.324	7.42
626.657	7.43
626.991	7.43
627.324	7.43
627.658	7.44
627.991	7.44
628.324	7.44
628.657	7.45
628.991	7.45
629.324	7.46
629.657	7.46
629.99	7.46
630.323	7.46
630.656	7.47
630.989	7.47
631.322	7.47
631.655	7.48
631.987	7.48
632.32	7.48
632.653	7.49
632.986	7.5
633.318	7.49
633.651	7.5
633.984	7.49
634.316	7.49
634.649	7.5
634.981	7.5
635.313	7.51
635.646	7.5
635.978	7.5
636.31	7.5
636.643	7.51
636.975	7.51
637.307	7.51
637.639	7.51
637.971	7.51
638.303	7.5
638.635	7.51
638.967	7.5
639.299	7.5
639.631	7.51
639.963	7.52
640.295	7.53
640.626	7.53
640.958	7.54
641.29	7.55
641.621	7.56
641.953	7.56
642.285	7.56
642.616	7.57
642.948	7.56
643.279	7.57
643.61	7.57
643.942	7.59
644.273	7.58
644.604	7.59
644.936	7.6
645.267	7.61
645.598	7.61
645.929	7.63
646.26	7.63
646.591	7.64
646.922	7.64
647.253	7.64
647.584	7.65
647.915	7.66
648.245	7.66
648.576	7.67
648.907	7.68
649.238	7.68
649.568	7.69
649.899	7.68
650.229	7.69
650.56	7.69
650.89	7.69
651.221	7.7
651.551	7.7
651.882	7.71
652.212	7.72
652.542	7.73
652.872	7.74
653.203	7.75
653.533	7.75
653.863	7.74
654.193	7.76
654.523	7.75
654.853	7.76
655.183	7.76
655.513	7.77
655.843	7.77
656.172	7.77
656.502	7.78
656.832	7.78
657.162	7.78
657.491	7.78
657.821	7.78
658.15	7.79
658.48	7.8
658.809	7.8
659.139	7.8
659.468	7.8
659.798	7.8
660.127	7.81
660.456	7.82
660.785	7.83
661.115	7.83
661.444	7.84
661.773	7.84
662.102	7.85
662.431	7.84
662.76	7.85
663.089	7.85
663.418	7.87
663.747	7.88
664.076	7.89
664.404	7.89
664.733	7.9
665.062	7.91
665.39	7.92
665.719	7.92
666.048	7.93
666.376	7.93
666.705	7.93
667.033	7.94
667.362	7.95
667.69	7.95
668.018	7.95
668.347	7.96
668.675	7.97
669.003	7.98
669.331	7.99
669.659	7.99
669.987	7.99
670.315	8
670.643	8.01
670.971	8.01
671.299	8.02
671.627	8.01
671.955	8
672.283	8.02
672.61	8.02
672.938	8.03
673.266	8.03
673.593	8.03
673.921	8.03
674.249	8.03
674.576	8.04
674.904	8.03
675.231	8.05
675.558	8.04
675.886	8.05
676.213	8.05
676.54	8.05
676.867	8.04
677.195	8.04
677.522	8.04
677.849	8.05
678.176	8.05
678.503	8.05
678.83	8.06
679.157	8.06
679.484	8.06
679.81	8.07
680.137	8.07
680.464	8.08
680.791	8.08
681.117	8.08
681.444	8.09
681.771	8.09
682.097	8.09
682.424	8.1
682.75	8.1
683.077	8.11
683.403	8.13
