Data from UWBM88853_Reflection_00001.txt Node
Date: Sun May 02 13:39:47 EDT 2021
User: vgr7
Spectrometer: USB2G7710
Scans to average: 10
Trigger mode: 4
Integration Time (sec): 1.000000E-1
Electric dark correction enabled: true
Boxcar width: 20
XAxis mode: Wavelengths
Number of Pixels in Spectrum: 2048
>>>>>Begin Spectral Data<<<<<
177.721	25.98
178.105	36.8
178.488	94.96
178.871	161.4
179.254	113.3
179.636	34.96
180.019	31.02
180.402	16
180.785	14.74
181.168	10.48
181.55	5.62
181.933	9.08
182.316	6.76
182.698	9.34
183.081	3.39
183.463	2.27
183.846	0.48
184.228	5.66
184.611	6.12
184.993	7.53
185.376	10.95
185.758	13.34
186.14	13.42
186.522	11.01
186.904	14.18
187.287	14.58
187.669	15.73
188.051	15.32
188.433	14.92
188.815	11.39
189.197	9.9
189.579	9.53
189.961	5.89
190.342	6.43
190.724	7.16
191.106	9.65
191.488	12.63
191.869	10.57
192.251	7.94
192.633	8.76
193.014	9.76
193.396	7.68
193.777	8.05
194.159	7.84
194.54	8.11
194.922	6.91
195.303	7.07
195.684	5.34
196.065	6.08
196.447	6.93
196.828	6.71
197.209	6.69
197.59	5.48
197.971	5.74
198.352	6.5
198.733	9.62
199.114	8.77
199.495	10.12
199.876	8.64
200.257	8.35
200.638	6.45
201.018	6.65
201.399	5.79
201.78	6.52
202.16	5.8
202.541	5.37
202.922	5.41
203.302	5.67
203.683	6.12
204.063	7.18
204.444	6.72
204.824	7.6
205.204	7.44
205.585	9.78
205.965	10.15
206.345	9.62
206.725	8.19
207.106	7.33
207.486	8.01
207.866	8.48
208.246	7.68
208.626	7.19
209.006	8.79
209.386	8.08
209.766	7.2
210.145	6.42
210.525	6.41
210.905	7.61
211.285	7.29
211.664	7.27
212.044	5.95
212.424	5.62
212.803	6.25
213.183	6.1
213.562	5.96
213.942	4.42
214.321	2.48
214.701	2.28
215.08	2.03
215.459	1.45
215.838	0.76
216.218	0.57
216.597	-0.74
216.976	-1.07
217.355	-0.99
217.734	-0.18
218.113	-1.1
218.492	-2.1
218.871	-3.3
219.25	-2.54
219.629	-2.76
220.008	-2.21
220.387	-3.38
220.766	-1.99
221.144	-3.1
221.523	-2.72
221.902	-1.72
222.28	-2.19
222.659	-2.23
223.037	-3.19
223.416	-2.67
223.794	-2
224.173	-1.27
224.551	-2.38
224.929	-1.65
225.308	-1.6
225.686	-1.78
226.064	-1.34
226.442	-1.35
226.821	-0.43
227.199	-0.05
227.577	0.1
227.955	0.71
228.333	0.73
228.711	0.37
229.089	-0.35
229.467	-0.52
229.845	-0.53
230.222	-0.37
230.6	-0.51
230.978	-0.15
231.356	0.24
231.733	0.59
232.111	0.55
232.488	0.52
232.866	0.31
233.243	-0.01
233.621	0.2
233.998	0.57
234.376	0.62
234.753	0.38
235.13	0.45
235.508	0.65
235.885	0.89
236.262	0.71
236.639	0.72
237.016	0.71
237.393	0.73
237.77	0.93
238.147	0.94
238.524	1.02
238.901	1
239.278	1.08
239.655	1.07
240.032	1.22
240.409	1.23
240.785	1.27
241.162	1.33
241.539	1.31
241.915	1.4
242.292	1.41
242.668	1.41
243.045	1.42
243.421	1.39
243.798	1.39
244.174	1.49
244.551	1.56
244.927	1.58
245.303	1.62
245.679	1.64
246.056	1.61
246.432	1.6
246.808	1.56
247.184	1.56
247.56	1.6
247.936	1.61
248.312	1.63
248.688	1.66
249.064	1.65
249.44	1.63
249.815	1.65
250.191	1.65
250.567	1.68
250.943	1.67
251.318	1.62
251.694	1.65
252.069	1.64
252.445	1.67
252.82	1.66
253.196	1.63
253.571	1.64
253.947	1.64
254.322	1.66
254.697	1.65
255.073	1.63
255.448	1.62
255.823	1.6
256.198	1.58
256.573	1.56
256.948	1.57
257.323	1.53
257.698	1.5
258.073	1.49
258.448	1.48
258.823	1.48
259.198	1.46
259.573	1.43
259.948	1.42
260.322	1.44
260.697	1.42
261.072	1.4
261.446	1.4
261.821	1.4
262.195	1.39
262.57	1.37
262.944	1.37
263.319	1.38
263.693	1.37
264.067	1.36
264.442	1.35
264.816	1.35
265.19	1.35
265.564	1.37
265.938	1.37
266.313	1.36
266.687	1.37
267.061	1.38
267.435	1.38
267.809	1.38
268.183	1.38
268.556	1.38
268.93	1.39
269.304	1.41
269.678	1.4
270.051	1.38
270.425	1.38
270.799	1.38
271.172	1.39
271.546	1.41
271.919	1.42
272.293	1.42
272.666	1.42
273.04	1.44
273.413	1.46
273.787	1.49
274.16	1.49
274.533	1.49
274.906	1.49
275.279	1.5
275.653	1.49
276.026	1.49
276.399	1.5
276.772	1.53
277.145	1.52
277.518	1.54
277.891	1.56
278.263	1.54
278.636	1.54
279.009	1.53
279.382	1.55
279.755	1.56
280.127	1.57
280.5	1.57
280.872	1.58
281.245	1.57
281.617	1.59
281.99	1.58
282.362	1.57
282.735	1.59
283.107	1.59
283.479	1.57
283.852	1.58
284.224	1.56
284.596	1.55
284.968	1.53
285.34	1.55
285.713	1.56
286.085	1.56
286.457	1.57
286.829	1.57
287.201	1.58
287.572	1.59
287.944	1.59
288.316	1.57
288.688	1.57
289.06	1.57
289.431	1.58
289.803	1.6
290.175	1.62
290.546	1.63
290.918	1.65
291.289	1.67
291.661	1.67
292.032	1.66
292.403	1.67
292.775	1.67
293.146	1.69
293.517	1.71
293.889	1.72
294.26	1.74
294.631	1.75
295.002	1.77
295.373	1.78
295.744	1.77
296.115	1.77
296.486	1.8
296.857	1.81
297.228	1.83
297.599	1.86
297.97	1.85
298.34	1.86
298.711	1.89
299.082	1.9
299.452	1.92
299.823	1.94
300.194	1.96
300.564	1.96
300.935	1.97
301.305	1.98
301.676	1.98
302.046	2
302.416	2.02
302.787	2.03
303.157	2.04
303.527	2.07
303.897	2.07
304.267	2.09
304.637	2.09
305.008	2.1
305.378	2.1
305.748	2.11
306.117	2.11
306.487	2.13
306.857	2.15
307.227	2.16
307.597	2.18
307.967	2.19
308.336	2.2
308.706	2.21
309.076	2.21
309.445	2.21
309.815	2.22
310.184	2.22
310.554	2.22
310.923	2.25
311.293	2.25
311.662	2.25
312.031	2.25
312.401	2.25
312.77	2.26
313.139	2.26
313.508	2.28
313.877	2.28
314.246	2.29
314.616	2.29
314.985	2.31
315.353	2.32
315.722	2.33
316.091	2.35
316.46	2.36
316.829	2.38
317.198	2.39
317.567	2.39
317.935	2.39
318.304	2.41
318.672	2.41
319.041	2.43
319.41	2.42
319.778	2.45
320.147	2.45
320.515	2.46
320.883	2.47
321.252	2.48
321.62	2.48
321.988	2.49
322.357	2.49
322.725	2.49
323.093	2.5
323.461	2.5
323.829	2.5
324.197	2.51
324.565	2.53
324.933	2.53
325.301	2.53
325.669	2.54
326.037	2.54
326.405	2.54
326.772	2.54
327.14	2.54
327.508	2.53
327.875	2.53
328.243	2.54
328.61	2.54
328.978	2.53
329.346	2.54
329.713	2.56
330.08	2.56
330.448	2.57
330.815	2.57
331.182	2.56
331.55	2.56
331.917	2.56
332.284	2.55
332.651	2.54
333.018	2.56
333.385	2.56
333.752	2.56
334.119	2.58
334.486	2.6
334.853	2.6
335.22	2.61
335.587	2.61
335.954	2.6
336.32	2.62
336.687	2.61
337.054	2.62
337.42	2.64
337.787	2.65
338.153	2.66
338.52	2.65
338.886	2.66
339.253	2.66
339.619	2.67
339.986	2.68
340.352	2.69
340.718	2.69
341.084	2.69
341.451	2.7
341.817	2.71
342.183	2.73
342.549	2.74
342.915	2.75
343.281	2.75
343.647	2.76
344.013	2.76
344.379	2.77
344.745	2.76
345.11	2.76
345.476	2.77
345.842	2.77
346.208	2.77
346.573	2.77
346.939	2.77
347.304	2.79
347.67	2.79
348.035	2.8
348.401	2.8
348.766	2.81
349.132	2.81
349.497	2.81
349.862	2.81
350.228	2.82
350.593	2.83
350.958	2.84
351.323	2.84
351.688	2.86
352.053	2.86
352.418	2.86
352.783	2.85
353.148	2.85
353.513	2.87
353.878	2.87
354.243	2.88
354.608	2.89
354.972	2.9
355.337	2.9
355.702	2.91
356.066	2.92
356.431	2.93
356.795	2.93
357.16	2.92
357.524	2.93
357.889	2.94
358.253	2.94
358.618	2.94
358.982	2.95
359.346	2.95
359.71	2.96
360.075	2.96
360.439	2.96
360.803	2.97
361.167	2.97
361.531	2.97
361.895	2.98
362.259	2.98
362.623	2.99
362.987	2.99
363.351	3
363.714	3
364.078	3
364.442	3
364.806	3
365.169	3
365.533	3
365.896	3.01
366.26	3.01
366.623	3.01
366.987	3.01
367.35	3.03
367.714	3.03
368.077	3.04
368.44	3.04
368.803	3.05
369.167	3.05
369.53	3.04
369.893	3.04
370.256	3.05
370.619	3.05
370.982	3.05
371.345	3.06
371.708	3.07
372.071	3.08
372.434	3.08
372.797	3.08
373.159	3.09
373.522	3.1
373.885	3.1
374.247	3.1
374.61	3.1
374.973	3.1
375.335	3.1
375.698	3.1
376.06	3.1
376.423	3.1
376.785	3.11
377.147	3.11
377.51	3.12
377.872	3.12
378.234	3.12
378.596	3.12
378.958	3.13
379.321	3.14
379.683	3.15
380.045	3.15
380.407	3.16
380.769	3.15
381.13	3.16
381.492	3.16
381.854	3.17
382.216	3.16
382.578	3.17
382.939	3.17
383.301	3.17
383.663	3.18
384.024	3.18
384.386	3.19
384.747	3.19
385.109	3.2
385.47	3.2
385.832	3.2
386.193	3.2
386.554	3.2
386.916	3.2
387.277	3.19
387.638	3.19
387.999	3.2
388.36	3.2
388.721	3.2
389.082	3.2
389.443	3.2
389.804	3.2
390.165	3.21
390.526	3.21
390.887	3.22
391.248	3.22
391.609	3.23
391.969	3.23
392.33	3.24
392.691	3.24
393.051	3.25
393.412	3.25
393.772	3.25
394.133	3.25
394.493	3.25
394.854	3.25
395.214	3.25
395.574	3.26
395.935	3.26
396.295	3.26
396.655	3.27
397.015	3.27
397.376	3.28
397.736	3.29
398.096	3.29
398.456	3.29
398.816	3.3
399.176	3.3
399.535	3.3
399.895	3.3
400.255	3.31
400.615	3.31
400.975	3.32
401.334	3.33
401.694	3.33
402.054	3.34
402.413	3.35
402.773	3.35
403.132	3.35
403.492	3.36
403.851	3.36
404.211	3.37
404.57	3.38
404.929	3.38
405.288	3.39
405.648	3.39
406.007	3.4
406.366	3.39
406.725	3.4
407.084	3.4
407.443	3.41
407.802	3.41
408.161	3.41
408.52	3.42
408.879	3.42
409.238	3.42
409.596	3.43
409.955	3.43
410.314	3.44
410.673	3.44
411.031	3.45
411.39	3.45
411.748	3.45
412.107	3.46
412.465	3.47
412.824	3.48
413.182	3.5
413.54	3.52
413.899	3.55
414.257	3.57
414.615	3.61
414.974	3.63
415.332	3.67
415.69	3.7
416.048	3.73
416.406	3.76
416.764	3.79
417.122	3.82
417.48	3.84
417.838	3.87
418.195	3.89
418.553	3.91
418.911	3.93
419.269	3.93
419.626	3.93
419.984	3.93
420.342	3.92
420.699	3.91
421.057	3.89
421.414	3.88
421.772	3.87
422.129	3.86
422.486	3.85
422.844	3.85
423.201	3.85
423.558	3.85
423.915	3.85
424.273	3.85
424.63	3.85
424.987	3.86
425.344	3.86
425.701	3.86
426.058	3.86
426.415	3.86
426.772	3.87
427.128	3.86
427.485	3.86
427.842	3.85
428.199	3.84
428.555	3.83
428.912	3.81
429.269	3.79
429.625	3.78
429.982	3.75
430.338	3.73
430.695	3.72
431.051	3.69
431.407	3.67
431.764	3.66
432.12	3.64
432.476	3.63
432.832	3.63
433.189	3.63
433.545	3.64
433.901	3.65
434.257	3.67
434.613	3.7
434.969	3.72
435.325	3.75
435.681	3.79
436.036	3.81
436.392	3.83
436.748	3.84
437.104	3.85
437.459	3.87
437.815	3.89
438.171	3.91
438.526	3.93
438.882	3.97
439.237	4
439.593	4.03
439.948	4.06
440.304	4.09
440.659	4.12
441.014	4.14
441.369	4.16
441.725	4.18
442.08	4.2
442.435	4.21
442.79	4.22
443.145	4.22
443.5	4.23
443.855	4.23
444.21	4.23
444.565	4.23
444.92	4.22
445.275	4.22
445.629	4.21
445.984	4.21
446.339	4.2
446.693	4.19
447.048	4.18
447.403	4.17
447.757	4.15
448.112	4.13
448.466	4.11
448.82	4.09
449.175	4.07
449.529	4.06
449.883	4.04
450.238	4.02
450.592	4.02
450.946	4.01
451.3	4.01
451.654	4.02
452.008	4.02
452.362	4.02
452.716	4.02
453.07	4.03
453.424	4.02
453.778	4.02
454.132	4.01
454.486	4
454.839	3.99
455.193	3.97
455.547	3.96
455.9	3.94
456.254	3.93
456.607	3.9
456.961	3.88
457.314	3.86
457.668	3.86
458.021	3.85
458.375	3.85
458.728	3.85
459.081	3.86
459.434	3.87
459.787	3.88
460.141	3.89
460.494	3.9
460.847	3.9
461.2	3.91
461.553	3.92
461.906	3.92
462.259	3.93
462.611	3.93
462.964	3.94
463.317	3.95
463.67	3.96
464.022	3.97
464.375	3.97
464.728	3.98
465.08	3.98
465.433	3.99
465.785	3.99
466.138	3.99
466.49	3.98
466.843	3.97
467.195	3.95
467.547	3.94
467.899	3.92
468.252	3.9
468.604	3.88
468.956	3.87
469.308	3.86
469.66	3.86
470.012	3.86
470.364	3.87
470.716	3.88
471.068	3.89
471.42	3.91
471.772	3.93
472.123	3.95
472.475	3.96
472.827	3.97
473.178	3.98
473.53	3.99
473.882	4.01
474.233	4.03
474.585	4.06
474.936	4.12
475.288	4.2
475.639	4.31
475.99	4.43
476.342	4.56
476.693	4.71
477.044	4.86
477.395	5.02
477.746	5.18
478.097	5.33
478.448	5.5
478.8	5.65
479.15	5.8
479.501	5.94
479.852	6.06
480.203	6.18
480.554	6.29
480.905	6.4
481.255	6.5
481.606	6.6
481.957	6.69
482.307	6.78
482.658	6.86
483.009	6.95
483.359	7.02
483.709	7.1
484.06	7.17
484.41	7.25
484.761	7.32
485.111	7.38
485.461	7.45
485.811	7.51
486.162	7.56
486.512	7.61
486.862	7.65
487.212	7.67
487.562	7.69
487.912	7.71
488.262	7.71
488.612	7.71
488.961	7.69
489.311	7.65
489.661	7.6
490.011	7.52
490.36	7.43
490.71	7.32
491.06	7.2
491.409	7.08
491.759	6.94
492.108	6.81
492.458	6.67
492.807	6.52
493.157	6.37
493.506	6.23
493.855	6.1
494.204	5.97
494.554	5.85
494.903	5.74
495.252	5.63
495.601	5.53
495.95	5.43
496.299	5.33
496.648	5.25
496.997	5.16
497.346	5.08
497.695	5
498.043	4.93
498.392	4.85
498.741	4.78
499.09	4.71
499.438	4.65
499.787	4.59
500.135	4.54
500.484	4.49
500.832	4.44
501.181	4.41
501.529	4.39
501.878	4.38
502.226	4.38
502.574	4.38
502.923	4.38
503.271	4.39
503.619	4.39
503.967	4.4
504.315	4.4
504.663	4.4
505.011	4.4
505.359	4.39
505.707	4.39
506.055	4.39
506.403	4.4
506.751	4.4
507.098	4.41
507.446	4.42
507.794	4.43
508.141	4.44
508.489	4.46
508.837	4.48
509.184	4.49
509.531	4.5
509.879	4.52
510.226	4.53
510.574	4.55
510.921	4.57
511.268	4.59
511.616	4.61
511.963	4.63
512.31	4.65
512.657	4.68
513.004	4.7
513.351	4.72
513.698	4.73
514.045	4.74
514.392	4.74
514.739	4.75
515.086	4.75
515.432	4.75
515.779	4.74
516.126	4.74
516.473	4.74
516.819	4.75
517.166	4.75
517.512	4.77
517.859	4.78
518.205	4.8
518.552	4.83
518.898	4.86
519.245	4.9
519.591	4.95
519.937	5.02
520.283	5.11
520.629	5.21
520.976	5.32
521.322	5.44
521.668	5.55
522.014	5.67
522.36	5.79
522.706	5.91
523.052	6.02
523.398	6.12
523.743	6.21
524.089	6.29
524.435	6.36
524.781	6.42
525.126	6.48
525.472	6.54
525.817	6.59
526.163	6.64
526.509	6.69
526.854	6.73
527.199	6.77
527.545	6.82
527.89	6.87
528.235	6.92
528.581	6.97
528.926	7.01
529.271	7.05
529.616	7.08
529.961	7.12
530.306	7.15
530.651	7.17
530.996	7.18
531.341	7.2
531.686	7.21
532.031	7.21
532.376	7.21
532.721	7.21
533.065	7.22
533.41	7.22
533.755	7.22
534.099	7.21
534.444	7.18
534.788	7.15
535.133	7.11
535.477	7.06
535.822	7.02
536.166	6.96
536.51	6.89
536.855	6.82
537.199	6.75
537.543	6.68
537.887	6.61
538.231	6.55
538.576	6.5
538.92	6.44
539.264	6.39
539.608	6.33
539.951	6.27
540.295	6.21
540.639	6.15
540.983	6.09
541.327	6.02
541.671	5.96
542.014	5.9
542.358	5.84
542.701	5.81
543.045	5.78
543.389	5.75
543.732	5.74
544.075	5.72
544.419	5.71
544.762	5.69
545.105	5.69
545.449	5.68
545.792	5.67
546.135	5.67
546.478	5.66
546.821	5.64
547.165	5.61
547.508	5.58
547.851	5.54
548.194	5.49
548.536	5.44
548.879	5.38
549.222	5.32
549.565	5.26
549.908	5.19
550.25	5.14
550.593	5.08
550.936	5.04
551.278	5.01
551.621	4.98
551.963	4.96
552.306	4.94
552.648	4.93
552.991	4.92
553.333	4.91
553.675	4.91
554.017	4.91
554.36	4.92
554.702	4.93
555.044	4.95
555.386	4.97
555.728	5
556.07	5.01
556.412	5.04
556.754	5.04
557.096	5.04
557.438	5.04
557.78	5.05
558.121	5.05
558.463	5.05
558.805	5.06
559.147	5.06
559.488	5.05
559.83	5.06
560.171	5.06
560.513	5.06
560.854	5.06
561.196	5.06
561.537	5.07
561.878	5.07
562.22	5.06
562.561	5.06
562.902	5.06
563.243	5.06
563.584	5.05
563.925	5.05
564.266	5.04
564.607	5.05
564.948	5.04
565.289	5.04
565.63	5.04
565.971	5.05
566.312	5.05
566.653	5.05
566.993	5.05
567.334	5.05
567.675	5.05
568.015	5.05
568.356	5.05
568.696	5.05
569.037	5.05
569.377	5.05
569.718	5.05
570.058	5.05
570.398	5.04
570.739	5.05
571.079	5.05
571.419	5.05
571.759	5.05
572.099	5.05
572.439	5.05
572.779	5.06
573.119	5.06
573.459	5.06
573.799	5.07
574.139	5.06
574.479	5.07
574.819	5.07
575.158	5.08
575.498	5.08
575.838	5.08
576.177	5.09
576.517	5.09
576.856	5.09
577.196	5.1
577.535	5.1
577.875	5.11
578.214	5.11
578.553	5.12
578.893	5.12
579.232	5.13
579.571	5.13
579.91	5.13
580.25	5.13
580.589	5.13
580.928	5.13
581.267	5.13
581.606	5.13
581.945	5.13
582.283	5.14
582.622	5.15
582.961	5.15
583.3	5.15
583.639	5.15
583.977	5.15
584.316	5.15
584.654	5.15
584.993	5.16
585.332	5.16
585.67	5.16
586.008	5.15
586.347	5.16
586.685	5.16
587.024	5.16
587.362	5.15
587.7	5.15
588.038	5.15
588.376	5.15
588.715	5.14
589.053	5.13
589.391	5.13
589.729	5.13
590.067	5.13
590.404	5.13
590.742	5.13
591.08	5.13
591.418	5.13
591.756	5.13
592.093	5.13
592.431	5.13
592.769	5.13
593.106	5.13
593.444	5.14
593.781	5.13
594.119	5.14
594.456	5.14
594.793	5.14
595.131	5.14
595.468	5.14
595.805	5.15
596.143	5.14
596.48	5.14
596.817	5.14
597.154	5.15
597.491	5.15
597.828	5.15
598.165	5.15
598.502	5.16
598.839	5.16
599.176	5.16
599.512	5.17
599.849	5.18
600.186	5.17
600.523	5.18
600.859	5.18
601.196	5.19
601.532	5.19
601.869	5.19
602.205	5.2
602.542	5.2
602.878	5.2
603.215	5.21
603.551	5.21
603.887	5.21
604.223	5.21
604.56	5.22
604.896	5.23
605.232	5.23
605.568	5.24
605.904	5.24
606.24	5.24
606.576	5.25
606.912	5.25
607.248	5.25
607.583	5.25
607.919	5.25
608.255	5.25
608.591	5.26
608.926	5.26
609.262	5.27
609.597	5.27
609.933	5.28
610.268	5.29
610.604	5.3
610.939	5.3
611.275	5.3
611.61	5.31
611.945	5.32
612.281	5.33
612.616	5.33
612.951	5.33
613.286	5.32
613.621	5.33
613.956	5.34
614.291	5.34
614.626	5.35
614.961	5.35
615.296	5.36
615.631	5.37
615.966	5.38
616.3	5.39
616.635	5.4
616.97	5.4
617.304	5.41
617.639	5.42
617.973	5.41
618.308	5.41
618.642	5.42
618.977	5.42
619.311	5.42
619.646	5.42
619.98	5.42
620.314	5.41
620.648	5.41
620.983	5.41
621.317	5.41
621.651	5.41
621.985	5.42
622.319	5.42
622.653	5.42
622.987	5.41
623.321	5.42
623.655	5.42
623.988	5.42
624.322	5.42
624.656	5.42
624.99	5.42
625.323	5.42
625.657	5.41
625.99	5.41
626.324	5.41
626.657	5.41
626.991	5.42
627.324	5.41
627.658	5.41
627.991	5.4
628.324	5.4
628.657	5.41
628.991	5.4
629.324	5.41
629.657	5.4
629.99	5.4
630.323	5.41
630.656	5.41
630.989	5.41
631.322	5.41
631.655	5.42
631.987	5.42
632.32	5.42
632.653	5.43
632.986	5.44
633.318	5.44
633.651	5.45
633.984	5.45
634.316	5.46
634.649	5.47
634.981	5.48
635.313	5.49
635.646	5.49
635.978	5.5
636.31	5.51
636.643	5.52
636.975	5.53
637.307	5.53
637.639	5.53
637.971	5.53
638.303	5.54
638.635	5.54
638.967	5.55
639.299	5.55
639.631	5.55
639.963	5.56
640.295	5.57
640.626	5.57
640.958	5.58
641.29	5.6
641.621	5.6
641.953	5.6
642.285	5.6
642.616	5.61
642.948	5.61
643.279	5.62
643.61	5.62
643.942	5.62
644.273	5.62
644.604	5.62
644.936	5.63
645.267	5.62
645.598	5.62
645.929	5.62
646.26	5.61
646.591	5.61
646.922	5.61
647.253	5.62
647.584	5.62
647.915	5.62
648.245	5.61
648.576	5.61
648.907	5.61
649.238	5.6
649.568	5.59
649.899	5.58
650.229	5.58
650.56	5.57
650.89	5.57
651.221	5.56
651.551	5.56
651.882	5.56
652.212	5.55
652.542	5.56
652.872	5.56
653.203	5.56
653.533	5.56
653.863	5.56
654.193	5.55
654.523	5.56
654.853	5.56
655.183	5.56
655.513	5.56
655.843	5.56
656.172	5.56
656.502	5.57
656.832	5.57
657.162	5.58
657.491	5.58
657.821	5.58
658.15	5.59
658.48	5.59
658.809	5.6
659.139	5.6
659.468	5.61
659.798	5.61
660.127	5.62
660.456	5.63
660.785	5.64
661.115	5.65
661.444	5.65
661.773	5.66
662.102	5.66
662.431	5.66
662.76	5.67
663.089	5.67
663.418	5.69
663.747	5.69
664.076	5.7
664.404	5.71
664.733	5.72
665.062	5.72
665.39	5.74
665.719	5.75
666.048	5.76
666.376	5.76
666.705	5.77
667.033	5.78
667.362	5.78
667.69	5.78
668.018	5.78
668.347	5.78
668.675	5.8
669.003	5.81
669.331	5.81
669.659	5.81
669.987	5.8
670.315	5.8
670.643	5.8
670.971	5.8
671.299	5.8
671.627	5.8
671.955	5.8
672.283	5.8
672.61	5.8
672.938	5.8
673.266	5.8
673.593	5.78
673.921	5.76
674.249	5.77
674.576	5.77
674.904	5.76
675.231	5.76
675.558	5.76
675.886	5.76
676.213	5.76
676.54	5.75
676.867	5.75
677.195	5.74
677.522	5.75
677.849	5.76
678.176	5.77
678.503	5.77
678.83	5.76
679.157	5.76
679.484	5.76
679.81	5.76
680.137	5.76
680.464	5.75
680.791	5.76
681.117	5.75
681.444	5.75
681.771	5.75
682.097	5.74
682.424	5.74
682.75	5.73
