Data from UWBM109429_Reflection_00006.txt Node
Date: Sun May 02 13:54:06 EDT 2021
User: vgr7
Spectrometer: USB2G7710
Scans to average: 10
Trigger mode: 4
Integration Time (sec): 1.000000E-1
Electric dark correction enabled: true
Boxcar width: 20
XAxis mode: Wavelengths
Number of Pixels in Spectrum: 2048
>>>>>Begin Spectral Data<<<<<
177.721	71.38
178.105	80.53
178.488	90.72
178.871	79.26
179.254	61.74
179.636	40.69
180.019	28.82
180.402	15.43
180.785	14.86
181.168	12.58
181.55	8.68
181.933	10.32
182.316	7.68
182.698	8.91
183.081	6.85
183.463	7.53
183.846	7.29
184.228	7.24
184.611	6.58
184.993	6.91
185.376	6.54
185.758	8.54
186.14	7.19
186.522	6.27
186.904	7.65
187.287	7.49
187.669	9.63
188.051	9.17
188.433	9.89
188.815	9.32
189.197	9.66
189.579	10.86
189.961	8.97
190.342	8.54
190.724	9.93
191.106	8.52
191.488	6.84
191.869	6.8
192.251	5.71
192.633	5.75
193.014	4.58
193.396	0.79
193.777	1.46
194.159	0.51
194.54	-0.54
194.922	-1.12
195.303	-0.31
195.684	-0.24
196.065	1.02
196.447	1.52
196.828	1.31
197.209	0.8
197.59	-0.17
197.971	-0.95
198.352	-0.09
198.733	2.23
199.114	1.75
199.495	1.77
199.876	1.62
200.257	1.78
200.638	0.13
201.018	0.06
201.399	1.98
201.78	2.34
202.16	2.53
202.541	3.81
202.922	3.56
203.302	2.47
203.683	2.16
204.063	2.24
204.444	1.07
204.824	0.32
205.204	-0.83
205.585	-0.68
205.965	0.9
206.345	1.16
206.725	1.49
207.106	1.62
207.486	0.95
207.866	2.64
208.246	1.87
208.626	0.55
209.006	1.67
209.386	1.23
209.766	1.65
210.145	2.72
210.525	3.39
210.905	4.72
211.285	3.23
211.664	2.66
212.044	1.26
212.424	0.11
212.803	0.4
213.183	0.88
213.562	2.46
213.942	1.17
214.321	-0.91
214.701	-1.82
215.08	-1.22
215.459	-0.85
215.838	-1.08
216.218	0.1
216.597	0.22
216.976	-0.87
217.355	-0.92
217.734	-0.91
218.113	-1.69
218.492	-2.04
218.871	-1.8
219.25	-0.95
219.629	-1.29
220.008	-1.22
220.387	-2.74
220.766	-1.56
221.144	-1.23
221.523	-1.14
221.902	-1.55
222.28	-1.07
222.659	-0.28
223.037	0.18
223.416	-0.4
223.794	0.19
224.173	1.7
224.551	1.31
224.929	2.21
225.308	2.02
225.686	1.83
226.064	1.97
226.442	1.5
226.821	2.75
227.199	3.5
227.577	4.22
227.955	5.13
228.333	5.11
228.711	4.28
229.089	3.65
229.467	3.94
229.845	4.43
230.222	4.6
230.6	4.63
230.978	4.57
231.356	4.79
231.733	4.87
232.111	4.97
232.488	4.86
232.866	4.89
233.243	4.68
233.621	4.66
233.998	4.77
234.376	4.89
234.753	4.62
235.13	4.72
235.508	4.87
235.885	5.01
236.262	5.1
236.639	5.24
237.016	5.24
237.393	5.3
237.77	5.35
238.147	5.27
238.524	5.26
238.901	5.31
239.278	5.4
239.655	5.39
240.032	5.4
240.409	5.33
240.785	5.34
241.162	5.3
241.539	5.3
241.915	5.37
242.292	5.37
242.668	5.34
243.045	5.33
243.421	5.24
243.798	5.26
244.174	5.33
244.551	5.35
244.927	5.34
245.303	5.31
245.679	5.32
246.056	5.27
246.432	5.28
246.808	5.21
247.184	5.22
247.56	5.2
247.936	5.19
248.312	5.17
248.688	5.17
249.064	5.15
249.44	5.14
249.815	5.11
250.191	5.09
250.567	5.08
250.943	5.06
251.318	5.03
251.694	5.02
252.069	4.95
252.445	4.93
252.82	4.93
253.196	4.89
253.571	4.88
253.947	4.87
254.322	4.84
254.697	4.81
255.073	4.79
255.448	4.8
255.823	4.75
256.198	4.74
256.573	4.73
256.948	4.71
257.323	4.66
257.698	4.61
258.073	4.58
258.448	4.55
258.823	4.56
259.198	4.55
259.573	4.53
259.948	4.53
260.322	4.5
260.697	4.48
261.072	4.47
261.446	4.47
261.821	4.45
262.195	4.45
262.57	4.44
262.944	4.43
263.319	4.45
263.693	4.44
264.067	4.44
264.442	4.46
264.816	4.44
265.19	4.45
265.564	4.48
265.938	4.49
266.313	4.5
266.687	4.5
267.061	4.51
267.435	4.51
267.809	4.51
268.183	4.49
268.556	4.47
268.93	4.48
269.304	4.47
269.678	4.46
270.051	4.45
270.425	4.43
270.799	4.4
271.172	4.43
271.546	4.42
271.919	4.43
272.293	4.42
272.666	4.41
273.04	4.42
273.413	4.44
273.787	4.45
274.16	4.45
274.533	4.46
274.906	4.46
275.279	4.46
275.653	4.47
276.026	4.46
276.399	4.47
276.772	4.49
277.145	4.48
277.518	4.47
277.891	4.48
278.263	4.48
278.636	4.48
279.009	4.46
279.382	4.46
279.755	4.45
280.127	4.46
280.5	4.46
280.872	4.45
281.245	4.45
281.617	4.43
281.99	4.44
282.362	4.41
282.735	4.41
283.107	4.42
283.479	4.42
283.852	4.44
284.224	4.43
284.596	4.42
284.968	4.42
285.34	4.42
285.713	4.42
286.085	4.42
286.457	4.42
286.829	4.41
287.201	4.41
287.572	4.41
287.944	4.41
288.316	4.41
288.688	4.4
289.06	4.4
289.431	4.39
289.803	4.38
290.175	4.38
290.546	4.37
290.918	4.36
291.289	4.37
291.661	4.37
292.032	4.34
292.403	4.35
292.775	4.36
293.146	4.36
293.517	4.36
293.889	4.34
294.26	4.36
294.631	4.36
295.002	4.38
295.373	4.37
295.744	4.36
296.115	4.35
296.486	4.35
296.857	4.36
297.228	4.35
297.599	4.35
297.97	4.34
298.34	4.33
298.711	4.34
299.082	4.33
299.452	4.33
299.823	4.33
300.194	4.35
300.564	4.35
300.935	4.36
301.305	4.36
301.676	4.35
302.046	4.35
302.416	4.34
302.787	4.33
303.157	4.33
303.527	4.33
303.897	4.33
304.267	4.32
304.637	4.32
305.008	4.33
305.378	4.33
305.748	4.34
306.117	4.34
306.487	4.34
306.857	4.33
307.227	4.33
307.597	4.33
307.967	4.32
308.336	4.32
308.706	4.31
309.076	4.31
309.445	4.32
309.815	4.3
310.184	4.28
310.554	4.28
310.923	4.3
311.293	4.29
311.662	4.27
312.031	4.26
312.401	4.28
312.77	4.27
313.139	4.28
313.508	4.29
313.877	4.28
314.246	4.27
314.616	4.26
314.985	4.26
315.353	4.24
315.722	4.22
316.091	4.23
316.46	4.22
316.829	4.23
317.198	4.23
317.567	4.24
317.935	4.24
318.304	4.24
318.672	4.22
319.041	4.21
319.41	4.19
319.778	4.19
320.147	4.16
320.515	4.14
320.883	4.11
321.252	4.11
321.62	4.1
321.988	4.09
322.357	4.09
322.725	4.07
323.093	4.07
323.461	4.05
323.829	4.05
324.197	4.06
324.565	4.04
324.933	4.05
325.301	4.03
325.669	4.03
326.037	4.01
326.405	4.01
326.772	4
327.14	4
327.508	3.99
327.875	3.98
328.243	3.97
328.61	3.95
328.978	3.93
329.346	3.92
329.713	3.94
330.08	3.93
330.448	3.92
330.815	3.92
331.182	3.9
331.55	3.9
331.917	3.88
332.284	3.87
332.651	3.86
333.018	3.85
333.385	3.85
333.752	3.84
334.119	3.84
334.486	3.85
334.853	3.84
335.22	3.84
335.587	3.85
335.954	3.85
336.32	3.84
336.687	3.85
337.054	3.84
337.42	3.85
337.787	3.86
338.153	3.86
338.52	3.87
338.886	3.86
339.253	3.85
339.619	3.85
339.986	3.84
340.352	3.85
340.718	3.85
341.084	3.85
341.451	3.85
341.817	3.84
342.183	3.85
342.549	3.85
342.915	3.84
343.281	3.85
343.647	3.86
344.013	3.87
344.379	3.87
344.745	3.87
345.11	3.87
345.476	3.89
345.842	3.9
346.208	3.9
346.573	3.89
346.939	3.89
347.304	3.89
347.67	3.89
348.035	3.89
348.401	3.9
348.766	3.9
349.132	3.9
349.497	3.91
349.862	3.92
350.228	3.92
350.593	3.92
350.958	3.93
351.323	3.92
351.688	3.92
352.053	3.93
352.418	3.93
352.783	3.92
353.148	3.92
353.513	3.92
353.878	3.92
354.243	3.92
354.608	3.92
354.972	3.93
355.337	3.92
355.702	3.93
356.066	3.93
356.431	3.94
356.795	3.94
357.16	3.93
357.524	3.94
357.889	3.95
358.253	3.95
358.618	3.94
358.982	3.94
359.346	3.94
359.71	3.94
360.075	3.95
360.439	3.94
360.803	3.94
361.167	3.94
361.531	3.96
361.895	3.96
362.259	3.96
362.623	3.96
362.987	3.96
363.351	3.96
363.714	3.96
364.078	3.95
364.442	3.95
364.806	3.96
365.169	3.97
365.533	3.97
365.896	3.97
366.26	3.98
366.623	3.98
366.987	3.98
367.35	3.98
367.714	3.99
368.077	4.01
368.44	4.01
368.803	4.02
369.167	4.02
369.53	4.02
369.893	4.02
370.256	4.03
370.619	4.03
370.982	4.03
371.345	4.03
371.708	4.04
372.071	4.05
372.434	4.05
372.797	4.04
373.159	4.05
373.522	4.06
373.885	4.06
374.247	4.06
374.61	4.06
374.973	4.05
375.335	4.06
375.698	4.06
376.06	4.06
376.423	4.05
376.785	4.06
377.147	4.06
377.51	4.07
377.872	4.06
378.234	4.07
378.596	4.07
378.958	4.08
379.321	4.08
379.683	4.08
380.045	4.08
380.407	4.08
380.769	4.09
381.13	4.08
381.492	4.09
381.854	4.09
382.216	4.09
382.578	4.08
382.939	4.08
383.301	4.09
383.663	4.09
384.024	4.09
384.386	4.1
384.747	4.1
385.109	4.1
385.47	4.1
385.832	4.1
386.193	4.11
386.554	4.11
386.916	4.1
387.277	4.11
387.638	4.11
387.999	4.11
388.36	4.11
388.721	4.11
389.082	4.12
389.443	4.12
389.804	4.12
390.165	4.12
390.526	4.12
390.887	4.12
391.248	4.12
391.609	4.13
391.969	4.14
392.33	4.14
392.691	4.15
393.051	4.15
393.412	4.15
393.772	4.16
394.133	4.16
394.493	4.15
394.854	4.15
395.214	4.15
395.574	4.15
395.935	4.15
396.295	4.15
396.655	4.15
397.015	4.16
397.376	4.16
397.736	4.16
398.096	4.16
398.456	4.17
398.816	4.18
399.176	4.18
399.535	4.19
399.895	4.19
400.255	4.19
400.615	4.2
400.975	4.2
401.334	4.2
401.694	4.21
402.054	4.21
402.413	4.21
402.773	4.21
403.132	4.22
403.492	4.22
403.851	4.22
404.211	4.23
404.57	4.24
404.929	4.24
405.288	4.24
405.648	4.25
406.007	4.26
406.366	4.26
406.725	4.26
407.084	4.27
407.443	4.27
407.802	4.27
408.161	4.27
408.52	4.28
408.879	4.28
409.238	4.29
409.596	4.29
409.955	4.3
410.314	4.31
410.673	4.32
411.031	4.33
411.39	4.34
411.748	4.34
412.107	4.36
412.465	4.38
412.824	4.41
413.182	4.43
413.54	4.46
413.899	4.5
414.257	4.54
414.615	4.59
414.974	4.63
415.332	4.68
415.69	4.72
416.048	4.76
416.406	4.81
416.764	4.85
417.122	4.89
417.48	4.93
417.838	4.96
418.195	5
418.553	5.03
418.911	5.04
419.269	5.05
419.626	5.06
419.984	5.05
420.342	5.04
420.699	5.02
421.057	5
421.414	4.98
421.772	4.97
422.129	4.96
422.486	4.96
422.844	4.96
423.201	4.96
423.558	4.96
423.915	4.97
424.273	4.97
424.63	4.97
424.987	4.97
425.344	4.98
425.701	4.97
426.058	4.98
426.415	4.98
426.772	4.98
427.128	4.98
427.485	4.97
427.842	4.95
428.199	4.93
428.555	4.92
428.912	4.89
429.269	4.86
429.625	4.84
429.982	4.81
430.338	4.78
430.695	4.75
431.051	4.72
431.407	4.7
431.764	4.68
432.12	4.65
432.476	4.64
432.832	4.63
433.189	4.63
433.545	4.64
433.901	4.66
434.257	4.68
434.613	4.71
434.969	4.74
435.325	4.77
435.681	4.82
436.036	4.85
436.392	4.87
436.748	4.9
437.104	4.91
437.459	4.93
437.815	4.95
438.171	4.98
438.526	5
438.882	5.04
439.237	5.09
439.593	5.13
439.948	5.16
440.304	5.21
440.659	5.24
441.014	5.26
441.369	5.3
441.725	5.32
442.08	5.34
442.435	5.36
442.79	5.37
443.145	5.38
443.5	5.38
443.855	5.38
444.21	5.38
444.565	5.38
444.92	5.37
445.275	5.36
445.629	5.36
445.984	5.34
446.339	5.33
446.693	5.32
447.048	5.3
447.403	5.29
447.757	5.26
448.112	5.24
448.466	5.22
448.82	5.19
449.175	5.17
449.529	5.15
449.883	5.13
450.238	5.1
450.592	5.1
450.946	5.09
451.3	5.09
451.654	5.1
452.008	5.1
452.362	5.11
452.716	5.11
453.07	5.11
453.424	5.1
453.778	5.09
454.132	5.09
454.486	5.08
454.839	5.06
455.193	5.03
455.547	5.02
455.9	4.99
456.254	4.97
456.607	4.93
456.961	4.9
457.314	4.88
457.668	4.87
458.021	4.86
458.375	4.86
458.728	4.85
459.081	4.86
459.434	4.86
459.787	4.87
460.141	4.88
460.494	4.9
460.847	4.9
461.2	4.91
461.553	4.92
461.906	4.92
462.259	4.92
462.611	4.92
462.964	4.93
463.317	4.93
463.67	4.94
464.022	4.94
464.375	4.95
464.728	4.95
465.08	4.95
465.433	4.95
465.785	4.94
466.138	4.93
466.49	4.91
466.843	4.88
467.195	4.86
467.547	4.83
467.899	4.8
468.252	4.77
468.604	4.74
468.956	4.71
469.308	4.69
469.66	4.68
470.012	4.67
470.364	4.67
470.716	4.68
471.068	4.69
471.42	4.71
471.772	4.73
472.123	4.75
472.475	4.76
472.827	4.77
473.178	4.78
473.53	4.79
473.882	4.81
474.233	4.83
474.585	4.87
474.936	4.94
475.288	5.04
475.639	5.18
475.99	5.33
476.342	5.5
476.693	5.69
477.044	5.88
477.395	6.08
477.746	6.28
478.097	6.48
478.448	6.69
478.8	6.89
479.15	7.08
479.501	7.26
479.852	7.41
480.203	7.56
480.554	7.71
480.905	7.84
481.255	7.97
481.606	8.1
481.957	8.22
482.307	8.33
482.658	8.44
483.009	8.54
483.359	8.64
483.709	8.74
484.06	8.83
484.41	8.93
484.761	9.01
485.111	9.1
485.461	9.18
485.811	9.25
486.162	9.33
486.512	9.39
486.862	9.43
487.212	9.46
487.562	9.48
487.912	9.5
488.262	9.5
488.612	9.49
488.961	9.47
489.311	9.42
489.661	9.34
490.011	9.23
490.36	9.11
490.71	8.97
491.06	8.81
491.409	8.64
491.759	8.47
492.108	8.29
492.458	8.1
492.807	7.9
493.157	7.71
493.506	7.52
493.855	7.34
494.204	7.18
494.554	7.01
494.903	6.86
495.252	6.72
495.601	6.59
495.95	6.45
496.299	6.32
496.648	6.2
496.997	6.09
497.346	5.98
497.695	5.87
498.043	5.77
498.392	5.67
498.741	5.57
499.09	5.48
499.438	5.39
499.787	5.3
500.135	5.22
500.484	5.15
500.832	5.09
501.181	5.04
501.529	5.01
501.878	4.99
502.226	4.98
502.574	4.97
502.923	4.96
503.271	4.96
503.619	4.96
503.967	4.95
504.315	4.94
504.663	4.93
505.011	4.92
505.359	4.91
505.707	4.9
506.055	4.9
506.403	4.89
506.751	4.9
507.098	4.9
507.446	4.9
507.794	4.9
508.141	4.91
508.489	4.92
508.837	4.93
509.184	4.94
509.531	4.95
509.879	4.96
510.226	4.98
510.574	4.99
510.921	5.01
511.268	5.03
511.616	5.05
511.963	5.07
512.31	5.1
512.657	5.12
513.004	5.14
513.351	5.15
513.698	5.16
514.045	5.17
514.392	5.17
514.739	5.17
515.086	5.17
515.432	5.16
515.779	5.15
516.126	5.15
516.473	5.15
516.819	5.14
517.166	5.15
517.512	5.16
517.859	5.17
518.205	5.2
518.552	5.22
518.898	5.25
519.245	5.29
519.591	5.36
519.937	5.44
520.283	5.54
520.629	5.65
520.976	5.77
521.322	5.89
521.668	6.03
522.014	6.17
522.36	6.3
522.706	6.44
523.052	6.57
523.398	6.68
523.743	6.79
524.089	6.88
524.435	6.95
524.781	7.02
525.126	7.09
525.472	7.15
525.817	7.21
526.163	7.26
526.509	7.31
526.854	7.36
527.199	7.41
527.545	7.46
527.89	7.51
528.235	7.56
528.581	7.61
528.926	7.66
529.271	7.7
529.616	7.74
529.961	7.78
530.306	7.81
530.651	7.84
530.996	7.86
531.341	7.87
531.686	7.87
532.031	7.87
532.376	7.87
532.721	7.88
533.065	7.88
533.41	7.89
533.755	7.88
534.099	7.87
534.444	7.84
534.788	7.8
535.133	7.75
535.477	7.7
535.822	7.64
536.166	7.57
536.51	7.5
536.855	7.41
537.199	7.32
537.543	7.23
537.887	7.15
538.231	7.08
538.576	7.02
538.92	6.96
539.264	6.89
539.608	6.82
539.951	6.75
540.295	6.68
540.639	6.61
540.983	6.54
541.327	6.46
541.671	6.39
542.014	6.32
542.358	6.25
542.701	6.2
543.045	6.16
543.389	6.13
543.732	6.11
544.075	6.08
544.419	6.06
544.762	6.04
545.105	6.03
545.449	6.02
545.792	6.01
546.135	6
546.478	5.98
546.821	5.95
547.165	5.92
547.508	5.87
547.851	5.82
548.194	5.76
548.536	5.68
548.879	5.61
549.222	5.53
549.565	5.45
549.908	5.37
550.25	5.29
550.593	5.22
550.936	5.17
551.278	5.13
551.621	5.09
551.963	5.06
552.306	5.03
552.648	5
552.991	4.98
553.333	4.97
553.675	4.96
554.017	4.95
554.36	4.95
554.702	4.95
555.044	4.96
555.386	4.97
555.728	4.99
556.07	5
556.412	5.02
556.754	5.03
557.096	5.03
557.438	5.03
557.78	5.03
558.121	5.03
558.463	5.03
558.805	5.03
559.147	5.03
559.488	5.03
559.83	5.04
560.171	5.03
560.513	5.03
560.854	5.03
561.196	5.04
561.537	5.04
561.878	5.04
562.22	5.03
562.561	5.04
562.902	5.04
563.243	5.04
563.584	5.04
563.925	5.04
564.266	5.05
564.607	5.05
564.948	5.05
565.289	5.05
565.63	5.06
565.971	5.06
566.312	5.07
566.653	5.08
566.993	5.08
567.334	5.08
567.675	5.08
568.015	5.09
568.356	5.09
568.696	5.09
569.037	5.09
569.377	5.09
569.718	5.1
570.058	5.09
570.398	5.09
570.739	5.09
571.079	5.1
571.419	5.1
571.759	5.1
572.099	5.1
572.439	5.1
572.779	5.1
573.119	5.1
573.459	5.1
573.799	5.1
574.139	5.1
574.479	5.1
574.819	5.1
575.158	5.1
575.498	5.1
575.838	5.1
576.177	5.1
576.517	5.1
576.856	5.1
577.196	5.1
577.535	5.1
577.875	5.1
578.214	5.1
578.553	5.1
578.893	5.1
579.232	5.1
579.571	5.1
579.91	5.09
580.25	5.08
580.589	5.08
580.928	5.08
581.267	5.08
581.606	5.08
581.945	5.07
582.283	5.07
582.622	5.08
582.961	5.08
583.3	5.08
583.639	5.08
583.977	5.08
584.316	5.08
584.654	5.08
584.993	5.09
585.332	5.09
585.67	5.09
586.008	5.09
586.347	5.09
586.685	5.09
587.024	5.09
587.362	5.09
587.7	5.09
588.038	5.09
588.376	5.09
588.715	5.09
589.053	5.1
589.391	5.1
589.729	5.1
590.067	5.1
590.404	5.11
590.742	5.11
591.08	5.12
591.418	5.12
591.756	5.13
592.093	5.13
592.431	5.13
592.769	5.14
593.106	5.14
593.444	5.15
593.781	5.15
594.119	5.15
594.456	5.15
594.793	5.15
595.131	5.15
595.468	5.15
595.805	5.15
596.143	5.16
596.48	5.15
596.817	5.15
597.154	5.16
597.491	5.16
597.828	5.16
598.165	5.17
598.502	5.17
598.839	5.18
599.176	5.18
599.512	5.18
599.849	5.18
600.186	5.19
600.523	5.19
600.859	5.19
601.196	5.2
601.532	5.2
601.869	5.2
602.205	5.2
602.542	5.2
602.878	5.2
603.215	5.2
603.551	5.2
603.887	5.2
604.223	5.2
604.56	5.2
604.896	5.2
605.232	5.2
605.568	5.2
605.904	5.2
606.24	5.2
606.576	5.19
606.912	5.19
607.248	5.19
607.583	5.19
607.919	5.19
608.255	5.19
608.591	5.19
608.926	5.19
609.262	5.19
609.597	5.19
609.933	5.19
610.268	5.19
610.604	5.19
610.939	5.19
611.275	5.19
611.61	5.19
611.945	5.19
612.281	5.18
612.616	5.18
612.951	5.17
613.286	5.17
613.621	5.17
613.956	5.17
614.291	5.17
614.626	5.17
614.961	5.17
615.296	5.17
615.631	5.17
615.966	5.18
616.3	5.17
616.635	5.17
616.97	5.18
617.304	5.19
617.639	5.19
617.973	5.19
618.308	5.19
618.642	5.19
618.977	5.19
619.311	5.19
619.646	5.19
619.98	5.19
620.314	5.2
620.648	5.2
620.983	5.21
621.317	5.21
621.651	5.22
621.985	5.23
622.319	5.23
622.653	5.24
622.987	5.24
623.321	5.25
623.655	5.25
623.988	5.26
624.322	5.26
624.656	5.26
624.99	5.26
625.323	5.26
625.657	5.26
625.99	5.27
626.324	5.27
626.657	5.28
626.991	5.28
627.324	5.28
627.658	5.28
627.991	5.28
628.324	5.28
628.657	5.28
628.991	5.29
629.324	5.29
629.657	5.29
629.99	5.29
630.323	5.3
630.656	5.3
630.989	5.29
631.322	5.29
631.655	5.29
631.987	5.29
632.32	5.3
632.653	5.31
632.986	5.32
633.318	5.32
633.651	5.33
633.984	5.33
634.316	5.33
634.649	5.33
634.981	5.33
635.313	5.33
635.646	5.33
635.978	5.33
636.31	5.33
636.643	5.33
636.975	5.34
637.307	5.34
637.639	5.34
637.971	5.34
638.303	5.34
638.635	5.34
638.967	5.34
639.299	5.35
639.631	5.35
639.963	5.36
640.295	5.36
640.626	5.37
640.958	5.37
641.29	5.38
641.621	5.39
641.953	5.39
642.285	5.39
642.616	5.4
642.948	5.4
643.279	5.41
643.61	5.42
643.942	5.42
644.273	5.42
644.604	5.42
644.936	5.43
645.267	5.43
645.598	5.44
645.929	5.43
646.26	5.43
646.591	5.43
646.922	5.43
647.253	5.43
647.584	5.43
647.915	5.44
648.245	5.44
648.576	5.45
648.907	5.46
649.238	5.45
649.568	5.45
649.899	5.45
650.229	5.45
650.56	5.46
650.89	5.47
651.221	5.47
651.551	5.47
651.882	5.48
652.212	5.49
652.542	5.49
652.872	5.49
653.203	5.49
653.533	5.49
653.863	5.5
654.193	5.5
654.523	5.51
654.853	5.51
655.183	5.51
655.513	5.52
655.843	5.52
656.172	5.52
656.502	5.53
656.832	5.53
657.162	5.53
657.491	5.53
657.821	5.53
658.15	5.53
658.48	5.54
658.809	5.55
659.139	5.55
659.468	5.55
659.798	5.55
660.127	5.56
660.456	5.57
660.785	5.57
661.115	5.58
661.444	5.58
661.773	5.59
662.102	5.59
662.431	5.59
662.76	5.6
663.089	5.59
663.418	5.6
663.747	5.61
664.076	5.62
664.404	5.62
664.733	5.61
665.062	5.62
665.39	5.63
665.719	5.64
666.048	5.65
666.376	5.65
666.705	5.65
667.033	5.65
667.362	5.66
667.69	5.66
668.018	5.66
668.347	5.67
668.675	5.67
669.003	5.68
669.331	5.67
669.659	5.68
669.987	5.67
670.315	5.68
670.643	5.68
670.971	5.68
671.299	5.69
671.627	5.69
671.955	5.69
672.283	5.7
672.61	5.71
672.938	5.72
673.266	5.73
673.593	5.73
673.921	5.72
674.249	5.73
674.576	5.73
674.904	5.73
675.231	5.73
675.558	5.73
675.886	5.74
676.213	5.73
676.54	5.75
676.867	5.75
677.195	5.75
677.522	5.75
677.849	5.76
678.176	5.77
678.503	5.77
678.83	5.77
679.157	5.77
679.484	5.78
679.81	5.78
680.137	5.79
680.464	5.8
680.791	5.81
681.117	5.81
681.444	5.82
681.771	5.82
682.097	5.82
682.424	5.82
682.75	5.82
