Data from UWBM42201_Reflection_00007.txt Node
Date: Sun May 02 12:48:48 EDT 2021
User: vgr7
Spectrometer: USB2G7710
Scans to average: 10
Trigger mode: 4
Integration Time (sec): 1.000000E-1
Electric dark correction enabled: true
Boxcar width: 20
XAxis mode: Wavelengths
Number of Pixels in Spectrum: 2048
>>>>>Begin Spectral Data<<<<<
177.721	99.92
178.105	99.7
178.488	98.89
178.871	97.73
179.254	98.39
179.636	96.21
180.019	94.61
180.402	93.2
180.785	92.31
181.168	90.82
181.55	87.98
181.933	111.57
182.316	111.47
182.698	113.42
183.081	114.38
183.463	116.4
183.846	118.32
184.228	120.19
184.611	120.57
184.993	123.3
185.376	126.73
185.758	-90.2
186.14	-43.41
186.522	-10.14
186.904	6.91
187.287	19.08
187.669	21.9
188.051	23.98
188.433	31.45
188.815	25.46
189.197	23.96
189.579	22.79
189.961	22.1
190.342	18.71
190.724	21.03
191.106	20.59
191.488	22.59
191.869	17.09
192.251	18.66
192.633	17.44
193.014	16.1
193.396	16.06
193.777	20.84
194.159	21.95
194.54	21.2
194.922	19.45
195.303	22.31
195.684	24.05
196.065	24.27
196.447	22.21
196.828	20.78
197.209	21.15
197.59	13.81
197.971	12.81
198.352	14.47
198.733	16.14
199.114	15.68
199.495	14.99
199.876	16.3
200.257	14.74
200.638	14.09
201.018	9.67
201.399	9.44
201.78	9
202.16	7.12
202.541	7.58
202.922	7.56
203.302	4.51
203.683	4.67
204.063	1.91
204.444	3.1
204.824	5.59
205.204	8.3
205.585	17.43
205.965	18.78
206.345	19.14
206.725	14.4
207.106	14.8
207.486	15.35
207.866	14.26
208.246	14.32
208.626	15.66
209.006	19.22
209.386	16.01
209.766	15.07
210.145	14.63
210.525	13.86
210.905	14.52
211.285	14.13
211.664	13.11
212.044	14.69
212.424	15.4
212.803	11.33
213.183	11.96
213.562	11.99
213.942	11.02
214.321	8.65
214.701	9.29
215.08	11.71
215.459	11.29
215.838	9.44
216.218	9.37
216.597	8.31
216.976	5.31
217.355	5.86
217.734	7.37
218.113	7.44
218.492	7.58
218.871	8.17
219.25	7.7
219.629	8.46
220.008	8.77
220.387	9.26
220.766	8.55
221.144	7.44
221.523	7.63
221.902	7.89
222.28	8.76
222.659	8.98
223.037	8.96
223.416	9.51
223.794	9.57
224.173	8.94
224.551	7.98
224.929	8.53
225.308	8.96
225.686	8.37
226.064	8.34
226.442	7.73
226.821	7.12
227.199	6.85
227.577	6.26
227.955	5.45
228.333	5.47
228.711	5.32
229.089	5.98
229.467	5.38
229.845	6.07
230.222	5.92
230.6	6.12
230.978	6.03
231.356	5.92
231.733	5.99
232.111	6
232.488	5.78
232.866	5.65
233.243	5.21
233.621	5.25
233.998	4.97
234.376	5.08
234.753	5.23
235.13	5.09
235.508	5.55
235.885	5.48
236.262	5.49
236.639	5.55
237.016	5.46
237.393	5.4
237.77	5.18
238.147	5.09
238.524	5.09
238.901	5.04
239.278	5.09
239.655	5.03
240.032	4.98
240.409	4.93
240.785	4.88
241.162	4.95
241.539	4.92
241.915	4.96
242.292	4.97
242.668	4.87
243.045	4.86
243.421	4.75
243.798	4.7
244.174	4.71
244.551	4.63
244.927	4.46
245.303	4.36
245.679	4.35
246.056	4.27
246.432	4.26
246.808	4.06
247.184	4.07
247.56	4.06
247.936	4.07
248.312	4.05
248.688	4.12
249.064	4.1
249.44	4.06
249.815	4.06
250.191	3.97
250.567	3.96
250.943	4
251.318	3.99
251.694	3.94
252.069	3.87
252.445	3.84
252.82	3.93
253.196	3.93
253.571	3.89
253.947	3.95
254.322	3.91
254.697	4.02
255.073	4.01
255.448	4.02
255.823	3.99
256.198	3.95
256.573	3.78
256.948	3.77
257.323	3.76
257.698	3.71
258.073	3.72
258.448	3.58
258.823	3.58
259.198	3.57
259.573	3.57
259.948	3.58
260.322	3.56
260.697	3.58
261.072	3.57
261.446	3.55
261.821	3.53
262.195	3.48
262.57	3.43
262.944	3.42
263.319	3.39
263.693	3.43
264.067	3.43
264.442	3.52
264.816	3.51
265.19	3.49
265.564	3.55
265.938	3.52
266.313	3.58
266.687	3.56
267.061	3.55
267.435	3.55
267.809	3.54
268.183	3.51
268.556	3.52
268.93	3.54
269.304	3.53
269.678	3.5
270.051	3.47
270.425	3.47
270.799	3.48
271.172	3.48
271.546	3.48
271.919	3.48
272.293	3.44
272.666	3.45
273.04	3.45
273.413	3.41
273.787	3.39
274.16	3.4
274.533	3.43
274.906	3.42
275.279	3.45
275.653	3.42
276.026	3.41
276.399	3.39
276.772	3.4
277.145	3.43
277.518	3.45
277.891	3.48
278.263	3.49
278.636	3.5
279.009	3.51
279.382	3.49
279.755	3.43
280.127	3.46
280.5	3.45
280.872	3.44
281.245	3.52
281.617	3.53
281.99	3.55
282.362	3.57
282.735	3.56
283.107	3.57
283.479	3.6
283.852	3.62
284.224	3.63
284.596	3.61
284.968	3.52
285.34	3.52
285.713	3.5
286.085	3.44
286.457	3.44
286.829	3.41
287.201	3.43
287.572	3.49
287.944	3.49
288.316	3.53
288.688	3.56
289.06	3.57
289.431	3.57
289.803	3.58
290.175	3.6
290.546	3.62
290.918	3.64
291.289	3.62
291.661	3.64
292.032	3.61
292.403	3.62
292.775	3.72
293.146	3.73
293.517	3.78
293.889	3.86
294.26	3.86
294.631	3.89
295.002	3.96
295.373	4
295.744	4.01
296.115	4.03
296.486	3.99
296.857	4.01
297.228	4.02
297.599	4.04
297.97	4.05
298.34	4.08
298.711	4.05
299.082	4.06
299.452	4.1
299.823	4.16
300.194	4.19
300.564	4.2
300.935	4.23
301.305	4.24
301.676	4.25
302.046	4.28
302.416	4.28
302.787	4.32
303.157	4.29
303.527	4.32
303.897	4.35
304.267	4.41
304.637	4.46
305.008	4.51
305.378	4.54
305.748	4.57
306.117	4.67
306.487	4.76
306.857	4.85
307.227	4.9
307.597	4.93
307.967	4.97
308.336	5
308.706	5.04
309.076	5.07
309.445	5.1
309.815	5.04
310.184	5.05
310.554	5.03
310.923	5.1
311.293	5.15
311.662	5.19
312.031	5.23
312.401	5.25
312.77	5.27
313.139	5.29
313.508	5.36
313.877	5.34
314.246	5.37
314.616	5.37
314.985	5.35
315.353	5.39
315.722	5.43
316.091	5.46
316.46	5.5
316.829	5.55
317.198	5.62
317.567	5.8
317.935	5.83
318.304	5.91
318.672	5.98
319.041	6.04
319.41	6.08
319.778	6.14
320.147	6.2
320.515	6.25
320.883	6.28
321.252	6.26
321.62	6.34
321.988	6.37
322.357	6.42
322.725	6.52
323.093	6.55
323.461	6.59
323.829	6.63
324.197	6.64
324.565	6.67
324.933	6.7
325.301	6.73
325.669	6.77
326.037	6.8
326.405	6.79
326.772	6.81
327.14	6.83
327.508	6.85
327.875	6.88
328.243	6.92
328.61	6.89
328.978	6.93
329.346	6.95
329.713	6.97
330.08	6.99
330.448	7.01
330.815	7
331.182	7.04
331.55	7.06
331.917	7.11
332.284	7.13
332.651	7.17
333.018	7.2
333.385	7.23
333.752	7.26
334.119	7.27
334.486	7.3
334.853	7.3
335.22	7.32
335.587	7.32
335.954	7.35
336.32	7.39
336.687	7.41
337.054	7.43
337.42	7.46
337.787	7.47
338.153	7.51
338.52	7.58
338.886	7.63
339.253	7.64
339.619	7.65
339.986	7.64
340.352	7.65
340.718	7.67
341.084	7.68
341.451	7.69
341.817	7.69
342.183	7.69
342.549	7.73
342.915	7.73
343.281	7.76
343.647	7.79
344.013	7.82
344.379	7.84
344.745	7.85
345.11	7.87
345.476	7.89
345.842	7.91
346.208	7.89
346.573	7.9
346.939	7.92
347.304	7.92
347.67	7.93
348.035	7.94
348.401	7.94
348.766	7.97
349.132	7.98
349.497	8.01
349.862	8.02
350.228	8.04
350.593	8.04
350.958	8.04
351.323	8.03
351.688	8.03
352.053	8.02
352.418	8.03
352.783	8.02
353.148	8
353.513	7.98
353.878	7.98
354.243	7.97
354.608	7.96
354.972	7.97
355.337	7.97
355.702	7.95
356.066	7.95
356.431	7.93
356.795	7.93
357.16	7.9
357.524	7.89
357.889	7.88
358.253	7.87
358.618	7.86
358.982	7.86
359.346	7.85
359.71	7.84
360.075	7.83
360.439	7.83
360.803	7.8
361.167	7.78
361.531	7.78
361.895	7.77
362.259	7.75
362.623	7.73
362.987	7.71
363.351	7.7
363.714	7.68
364.078	7.66
364.442	7.64
364.806	7.63
365.169	7.59
365.533	7.56
365.896	7.54
366.26	7.51
366.623	7.48
366.987	7.44
367.35	7.42
367.714	7.4
368.077	7.37
368.44	7.34
368.803	7.3
369.167	7.27
369.53	7.24
369.893	7.21
370.256	7.17
370.619	7.14
370.982	7.09
371.345	7.05
371.708	7.02
372.071	6.98
372.434	6.94
372.797	6.92
373.159	6.89
373.522	6.85
373.885	6.8
374.247	6.75
374.61	6.71
374.973	6.66
375.335	6.61
375.698	6.57
376.06	6.54
376.423	6.49
376.785	6.44
377.147	6.4
377.51	6.36
377.872	6.32
378.234	6.27
378.596	6.24
378.958	6.21
379.321	6.17
379.683	6.13
380.045	6.09
380.407	6.05
380.769	6.01
381.13	5.99
381.492	5.95
381.854	5.92
382.216	5.88
382.578	5.85
382.939	5.82
383.301	5.78
383.663	5.75
384.024	5.71
384.386	5.68
384.747	5.64
385.109	5.59
385.47	5.56
385.832	5.53
386.193	5.5
386.554	5.46
386.916	5.43
387.277	5.4
387.638	5.38
387.999	5.35
388.36	5.32
388.721	5.3
389.082	5.27
389.443	5.25
389.804	5.22
390.165	5.2
390.526	5.17
390.887	5.15
391.248	5.12
391.609	5.1
391.969	5.08
392.33	5.06
392.691	5.04
393.051	5.01
393.412	4.97
393.772	4.95
394.133	4.93
394.493	4.9
394.854	4.88
395.214	4.84
395.574	4.82
395.935	4.79
396.295	4.76
396.655	4.73
397.015	4.7
397.376	4.67
397.736	4.65
398.096	4.62
398.456	4.59
398.816	4.58
399.176	4.54
399.535	4.52
399.895	4.5
400.255	4.48
400.615	4.46
400.975	4.44
401.334	4.42
401.694	4.39
402.054	4.37
402.413	4.33
402.773	4.31
403.132	4.3
403.492	4.28
403.851	4.26
404.211	4.25
404.57	4.24
404.929	4.23
405.288	4.21
405.648	4.2
406.007	4.19
406.366	4.18
406.725	4.17
407.084	4.15
407.443	4.14
407.802	4.12
408.161	4.1
408.52	4.09
408.879	4.08
409.238	4.06
409.596	4.06
409.955	4.06
410.314	4.05
410.673	4.03
411.031	4.03
411.39	4.02
411.748	4.02
412.107	4.01
412.465	4.01
412.824	4.02
413.182	4.02
413.54	4.03
413.899	4.04
414.257	4.05
414.615	4.07
414.974	4.09
415.332	4.12
415.69	4.14
416.048	4.15
416.406	4.18
416.764	4.2
417.122	4.22
417.48	4.24
417.838	4.25
418.195	4.26
418.553	4.28
418.911	4.28
419.269	4.27
419.626	4.26
419.984	4.24
420.342	4.22
420.699	4.2
421.057	4.18
421.414	4.16
421.772	4.14
422.129	4.13
422.486	4.12
422.844	4.11
423.201	4.11
423.558	4.1
423.915	4.09
424.273	4.08
424.63	4.07
424.987	4.06
425.344	4.06
425.701	4.05
426.058	4.05
426.415	4.04
426.772	4.02
427.128	4.01
427.485	4
427.842	3.99
428.199	3.97
428.555	3.95
428.912	3.93
429.269	3.91
429.625	3.89
429.982	3.86
430.338	3.83
430.695	3.81
431.051	3.78
431.407	3.75
431.764	3.73
432.12	3.7
432.476	3.69
432.832	3.68
433.189	3.68
433.545	3.68
433.901	3.69
434.257	3.71
434.613	3.72
434.969	3.74
435.325	3.76
435.681	3.8
436.036	3.8
436.392	3.82
436.748	3.83
437.104	3.82
437.459	3.84
437.815	3.85
438.171	3.86
438.526	3.88
438.882	3.91
439.237	3.94
439.593	3.97
439.948	3.99
440.304	4.02
440.659	4.04
441.014	4.05
441.369	4.07
441.725	4.08
442.08	4.1
442.435	4.1
442.79	4.11
443.145	4.1
443.5	4.1
443.855	4.1
444.21	4.09
444.565	4.09
444.92	4.08
445.275	4.07
445.629	4.06
445.984	4.05
446.339	4.04
446.693	4.04
447.048	4.02
447.403	4.01
447.757	3.98
448.112	3.96
448.466	3.94
448.82	3.92
449.175	3.91
449.529	3.89
449.883	3.87
450.238	3.85
450.592	3.84
450.946	3.84
451.3	3.83
451.654	3.84
452.008	3.83
452.362	3.84
452.716	3.84
453.07	3.83
453.424	3.82
453.778	3.82
454.132	3.8
454.486	3.79
454.839	3.77
455.193	3.75
455.547	3.74
455.9	3.71
456.254	3.69
456.607	3.66
456.961	3.64
457.314	3.62
457.668	3.61
458.021	3.61
458.375	3.61
458.728	3.61
459.081	3.61
459.434	3.62
459.787	3.63
460.141	3.64
460.494	3.64
460.847	3.64
461.2	3.65
461.553	3.66
461.906	3.67
462.259	3.68
462.611	3.68
462.964	3.69
463.317	3.7
463.67	3.7
464.022	3.71
464.375	3.71
464.728	3.71
465.08	3.72
465.433	3.72
465.785	3.73
466.138	3.72
466.49	3.71
466.843	3.7
467.195	3.69
467.547	3.68
467.899	3.67
468.252	3.65
468.604	3.64
468.956	3.63
469.308	3.62
469.66	3.62
470.012	3.62
470.364	3.63
470.716	3.64
471.068	3.67
471.42	3.69
471.772	3.71
472.123	3.73
472.475	3.75
472.827	3.76
473.178	3.77
473.53	3.78
473.882	3.8
474.233	3.82
474.585	3.86
474.936	3.91
475.288	3.99
475.639	4.1
475.99	4.22
476.342	4.36
476.693	4.5
477.044	4.65
477.395	4.8
477.746	4.95
478.097	5.1
478.448	5.26
478.8	5.41
479.15	5.55
479.501	5.68
479.852	5.79
480.203	5.9
480.554	6
480.905	6.11
481.255	6.2
481.606	6.29
481.957	6.37
482.307	6.45
482.658	6.53
483.009	6.6
483.359	6.67
483.709	6.74
484.06	6.8
484.41	6.87
484.761	6.92
485.111	6.98
485.461	7.04
485.811	7.09
486.162	7.14
486.512	7.17
486.862	7.21
487.212	7.23
487.562	7.25
487.912	7.26
488.262	7.26
488.612	7.26
488.961	7.24
489.311	7.2
489.661	7.14
490.011	7.06
490.36	6.97
490.71	6.86
491.06	6.74
491.409	6.61
491.759	6.49
492.108	6.36
492.458	6.22
492.807	6.08
493.157	5.94
493.506	5.81
493.855	5.68
494.204	5.57
494.554	5.46
494.903	5.36
495.252	5.26
495.601	5.17
495.95	5.08
496.299	5.01
496.648	4.94
496.997	4.87
497.346	4.81
497.695	4.75
498.043	4.7
498.392	4.66
498.741	4.61
499.09	4.57
499.438	4.53
499.787	4.5
500.135	4.47
500.484	4.46
500.832	4.46
501.181	4.46
501.529	4.47
501.878	4.5
502.226	4.54
502.574	4.59
502.923	4.64
503.271	4.69
503.619	4.75
503.967	4.82
504.315	4.88
504.663	4.94
505.011	5.01
505.359	5.08
505.707	5.15
506.055	5.22
506.403	5.31
506.751	5.39
507.098	5.47
507.446	5.57
507.794	5.67
508.141	5.78
508.489	5.9
508.837	6.03
509.184	6.15
509.531	6.28
509.879	6.42
510.226	6.57
510.574	6.72
510.921	6.88
511.268	7.06
511.616	7.23
511.963	7.42
512.31	7.61
512.657	7.8
513.004	7.99
513.351	8.19
513.698	8.37
514.045	8.54
514.392	8.72
514.739	8.89
515.086	9.06
515.432	9.23
515.779	9.41
516.126	9.6
516.473	9.81
516.819	10.02
517.166	10.26
517.512	10.51
517.859	10.78
518.205	11.06
518.552	11.38
518.898	11.72
519.245	12.1
519.591	12.54
519.937	13.06
520.283	13.66
520.629	14.3
520.976	14.98
521.322	15.67
521.668	16.38
522.014	17.08
522.36	17.79
522.706	18.5
523.052	19.18
523.398	19.84
523.743	20.45
524.089	21.02
524.435	21.56
524.781	22.09
525.126	22.61
525.472	23.13
525.817	23.64
526.163	24.15
526.509	24.64
526.854	25.13
527.199	25.6
527.545	26.08
527.89	26.58
528.235	27.06
528.581	27.52
528.926	27.95
529.271	28.36
529.616	28.74
529.961	29.08
530.306	29.4
530.651	29.71
530.996	30
531.341	30.27
531.686	30.53
532.031	30.77
532.376	31.03
532.721	31.32
533.065	31.62
533.41	31.93
533.755	32.22
534.099	32.45
534.444	32.65
534.788	32.82
535.133	32.98
535.477	33.1
535.822	33.2
536.166	33.25
536.51	33.26
536.855	33.21
537.199	33.12
537.543	33.04
537.887	32.98
538.231	32.95
538.576	32.93
538.92	32.88
539.264	32.84
539.608	32.76
539.951	32.67
540.295	32.57
540.639	32.45
540.983	32.32
541.327	32.19
541.671	32.06
542.014	31.94
542.358	31.83
542.701	31.82
543.045	31.84
543.389	31.89
543.732	31.95
544.075	32.04
544.419	32.14
544.762	32.24
545.105	32.35
545.449	32.49
545.792	32.62
546.135	32.75
546.478	32.84
546.821	32.89
547.165	32.87
547.508	32.8
547.851	32.69
548.194	32.54
548.536	32.34
548.879	32.11
549.222	31.87
549.565	31.61
549.908	31.36
550.25	31.14
550.593	30.97
550.936	30.86
551.278	30.81
551.621	30.79
551.963	30.8
552.306	30.82
552.648	30.88
552.991	30.95
553.333	31.04
553.675	31.17
554.017	31.33
554.36	31.51
554.702	31.72
555.044	31.95
555.386	32.24
555.728	32.51
556.07	32.75
556.412	32.98
556.754	33.12
557.096	33.27
557.438	33.42
557.78	33.57
558.121	33.72
558.463	33.85
558.805	34
559.147	34.14
559.488	34.28
559.83	34.43
560.171	34.58
560.513	34.72
560.854	34.85
561.196	34.97
561.537	35.11
561.878	35.24
562.22	35.37
562.561	35.5
562.902	35.63
563.243	35.76
563.584	35.88
563.925	36.01
564.266	36.13
564.607	36.25
564.948	36.38
565.289	36.5
565.63	36.62
565.971	36.74
566.312	36.85
566.653	36.96
566.993	37.06
567.334	37.16
567.675	37.26
568.015	37.37
568.356	37.47
568.696	37.57
569.037	37.66
569.377	37.75
569.718	37.84
570.058	37.92
570.398	38
570.739	38.08
571.079	38.15
571.419	38.22
571.759	38.29
572.099	38.35
572.439	38.42
572.779	38.49
573.119	38.56
573.459	38.62
573.799	38.67
574.139	38.73
574.479	38.78
574.819	38.83
575.158	38.9
575.498	38.95
575.838	39
576.177	39.05
576.517	39.1
576.856	39.16
577.196	39.2
577.535	39.25
577.875	39.29
578.214	39.34
578.553	39.38
578.893	39.42
579.232	39.46
579.571	39.5
579.91	39.53
580.25	39.57
580.589	39.61
580.928	39.66
581.267	39.7
581.606	39.75
581.945	39.8
582.283	39.85
582.622	39.89
582.961	39.95
583.3	40
583.639	40.06
583.977	40.12
584.316	40.17
584.654	40.22
584.993	40.27
585.332	40.33
585.67	40.38
586.008	40.42
586.347	40.48
586.685	40.53
587.024	40.59
587.362	40.64
587.7	40.7
588.038	40.76
588.376	40.83
588.715	40.89
589.053	40.96
589.391	41.03
589.729	41.09
590.067	41.14
590.404	41.19
590.742	41.26
591.08	41.33
591.418	41.39
591.756	41.46
592.093	41.51
592.431	41.57
592.769	41.62
593.106	41.66
593.444	41.71
593.781	41.75
594.119	41.8
594.456	41.84
594.793	41.89
595.131	41.93
595.468	41.98
595.805	42.02
596.143	42.07
596.48	42.11
596.817	42.16
597.154	42.21
597.491	42.25
597.828	42.31
598.165	42.37
598.502	42.42
598.839	42.47
599.176	42.51
599.512	42.55
599.849	42.59
600.186	42.64
600.523	42.67
600.859	42.7
601.196	42.73
601.532	42.78
601.869	42.81
602.205	42.84
602.542	42.88
602.878	42.9
603.215	42.93
603.551	42.95
603.887	42.98
604.223	43
604.56	43.02
604.896	43.05
605.232	43.06
605.568	43.08
605.904	43.11
606.24	43.13
606.576	43.15
606.912	43.17
607.248	43.19
607.583	43.21
607.919	43.23
608.255	43.25
608.591	43.26
608.926	43.29
609.262	43.3
609.597	43.32
609.933	43.34
610.268	43.36
610.604	43.38
610.939	43.39
611.275	43.39
611.61	43.4
611.945	43.4
612.281	43.41
612.616	43.42
612.951	43.42
613.286	43.44
613.621	43.45
613.956	43.47
614.291	43.48
614.626	43.5
614.961	43.52
615.296	43.53
615.631	43.56
615.966	43.58
616.3	43.59
616.635	43.61
616.97	43.62
617.304	43.64
617.639	43.66
617.973	43.68
618.308	43.69
618.642	43.7
618.977	43.71
619.311	43.74
619.646	43.77
619.98	43.81
620.314	43.85
620.648	43.89
620.983	43.91
621.317	43.94
621.651	43.97
621.985	44
622.319	44.03
622.653	44.05
622.987	44.07
623.321	44.1
623.655	44.12
623.988	44.14
624.322	44.15
624.656	44.18
624.99	44.21
625.323	44.23
625.657	44.25
625.99	44.27
626.324	44.3
626.657	44.33
626.991	44.34
627.324	44.36
627.658	44.37
627.991	44.39
628.324	44.4
628.657	44.42
628.991	44.43
629.324	44.46
629.657	44.49
629.99	44.49
630.323	44.5
630.656	44.52
630.989	44.54
631.322	44.56
631.655	44.58
631.987	44.59
632.32	44.61
632.653	44.63
632.986	44.64
633.318	44.65
633.651	44.65
633.984	44.66
634.316	44.67
634.649	44.69
634.981	44.7
635.313	44.71
635.646	44.71
635.978	44.72
636.31	44.73
636.643	44.73
636.975	44.74
637.307	44.76
637.639	44.77
637.971	44.8
638.303	44.81
638.635	44.83
638.967	44.84
639.299	44.85
639.631	44.86
639.963	44.89
640.295	44.9
640.626	44.93
640.958	44.93
641.29	44.96
641.621	44.97
641.953	45
642.285	45.02
642.616	45.06
642.948	45.06
643.279	45.08
643.61	45.11
643.942	45.13
644.273	45.15
644.604	45.16
644.936	45.18
645.267	45.2
645.598	45.23
645.929	45.24
646.26	45.26
646.591	45.27
646.922	45.29
647.253	45.31
647.584	45.31
647.915	45.34
648.245	45.36
648.576	45.39
648.907	45.41
649.238	45.44
649.568	45.45
649.899	45.47
650.229	45.51
650.56	45.53
650.89	45.55
651.221	45.57
651.551	45.59
651.882	45.64
652.212	45.66
652.542	45.68
652.872	45.7
653.203	45.72
653.533	45.73
653.863	45.73
654.193	45.74
654.523	45.76
654.853	45.76
655.183	45.79
655.513	45.8
655.843	45.82
656.172	45.82
656.502	45.83
656.832	45.82
657.162	45.84
657.491	45.86
657.821	45.88
658.15	45.9
658.48	45.92
658.809	45.94
659.139	45.96
659.468	45.98
659.798	46.01
660.127	46.04
660.456	46.08
660.785	46.09
661.115	46.12
661.444	46.14
661.773	46.15
662.102	46.17
662.431	46.17
662.76	46.2
663.089	46.21
663.418	46.22
663.747	46.22
664.076	46.25
664.404	46.25
664.733	46.28
665.062	46.31
665.39	46.3
665.719	46.3
666.048	46.32
666.376	46.35
666.705	46.37
667.033	46.36
667.362	46.37
667.69	46.4
668.018	46.42
668.347	46.44
668.675	46.42
669.003	46.44
669.331	46.45
669.659	46.46
669.987	46.5
670.315	46.5
670.643	46.54
670.971	46.54
