Data from UWBM53665_Reflection_00004.txt Node
Date: Sun May 02 13:12:21 EDT 2021
User: vgr7
Spectrometer: USB2G7710
Scans to average: 10
Trigger mode: 4
Integration Time (sec): 1.000000E-1
Electric dark correction enabled: true
Boxcar width: 20
XAxis mode: Wavelengths
Number of Pixels in Spectrum: 2048
>>>>>Begin Spectral Data<<<<<
177.721	102.43
178.105	102.78
178.488	103.72
178.871	103.71
179.254	102.99
179.636	100.1
180.019	97
180.402	94.57
180.785	91.57
181.168	89.93
181.55	85.58
181.933	113.55
182.316	114.16
182.698	114.41
183.081	116.17
183.463	118.13
183.846	119.59
184.228	119.53
184.611	121.09
184.993	123.7
185.376	125.72
185.758	-77.36
186.14	-24.78
186.522	-0.84
186.904	12.16
187.287	22.05
187.669	26.58
188.051	26.66
188.433	28.21
188.815	22.03
189.197	20.19
189.579	20.29
189.961	19.59
190.342	18.43
190.724	19.06
191.106	18.35
191.488	18.52
191.869	12.44
192.251	12.62
192.633	10.13
193.014	5.81
193.396	3.71
193.777	10.67
194.159	10.12
194.54	7.19
194.922	7.19
195.303	9.78
195.684	11.55
196.065	10.7
196.447	8.88
196.828	7.67
197.209	9.67
197.59	-0.26
197.971	-2.29
198.352	-1.16
198.733	-0.62
199.114	-1.85
199.495	-2.57
199.876	-3.14
200.257	-3.41
200.638	-3.81
201.018	-8.73
201.399	-9.79
201.78	-10.02
202.16	-10.38
202.541	-8.47
202.922	-9.28
203.302	-15.67
203.683	-17.62
204.063	-20.57
204.444	-17.74
204.824	-13.75
205.204	-12.85
205.585	-3.01
205.965	-3.99
206.345	-2.93
206.725	-9.18
207.106	-9.55
207.486	-9.36
207.866	-7.89
208.246	-7.05
208.626	-2.54
209.006	1.73
209.386	-2.98
209.766	-4.14
210.145	-4.9
210.525	-5.13
210.905	-3.32
211.285	-3.19
211.664	-3.3
212.044	-2
212.424	-2.01
212.803	-8.21
213.183	-6.01
213.562	-5.96
213.942	-8.46
214.321	-9.86
214.701	-10.18
215.08	-7.27
215.459	-6.5
215.838	-7.3
216.218	-7.76
216.597	-9.15
216.976	-12.54
217.355	-12.49
217.734	-12.85
218.113	-13.39
218.492	-11.39
218.871	-7.97
219.25	-6.13
219.629	-6.08
220.008	-5.97
220.387	-5.54
220.766	-4.17
221.144	-4.23
221.523	-1.93
221.902	-0.66
222.28	1.34
222.659	3.53
223.037	3.25
223.416	4.45
223.794	5.1
224.173	4.77
224.551	4.36
224.929	4.78
225.308	5.92
225.686	6.05
226.064	5.51
226.442	4.89
226.821	4.92
227.199	4.6
227.577	4.17
227.955	3.8
228.333	4
228.711	4.25
229.089	4.85
229.467	4.71
229.845	5.23
230.222	5.38
230.6	5.5
230.978	5.33
231.356	4.63
231.733	4.95
232.111	5.2
232.488	5.21
232.866	5.28
233.243	5.29
233.621	5.57
233.998	5.36
234.376	5.44
234.753	5.51
235.13	5.5
235.508	6.01
235.885	5.96
236.262	5.86
236.639	5.95
237.016	5.9
237.393	5.93
237.77	5.78
238.147	5.66
238.524	5.75
238.901	5.69
239.278	5.74
239.655	5.67
240.032	5.61
240.409	5.67
240.785	5.58
241.162	5.63
241.539	5.63
241.915	5.65
242.292	5.6
242.668	5.55
243.045	5.52
243.421	5.39
243.798	5.35
244.174	5.32
244.551	5.28
244.927	5.13
245.303	5.08
245.679	5.1
246.056	5.05
246.432	5.03
246.808	4.84
247.184	4.8
247.56	4.78
247.936	4.77
248.312	4.76
248.688	4.82
249.064	4.78
249.44	4.77
249.815	4.75
250.191	4.72
250.567	4.71
250.943	4.79
251.318	4.81
251.694	4.76
252.069	4.68
252.445	4.66
252.82	4.71
253.196	4.7
253.571	4.65
253.947	4.7
254.322	4.68
254.697	4.8
255.073	4.78
255.448	4.77
255.823	4.71
256.198	4.67
256.573	4.5
256.948	4.48
257.323	4.48
257.698	4.43
258.073	4.44
258.448	4.32
258.823	4.31
259.198	4.3
259.573	4.31
259.948	4.34
260.322	4.31
260.697	4.31
261.072	4.3
261.446	4.29
261.821	4.27
262.195	4.23
262.57	4.21
262.944	4.18
263.319	4.17
263.693	4.18
264.067	4.18
264.442	4.28
264.816	4.24
265.19	4.21
265.564	4.25
265.938	4.23
266.313	4.25
266.687	4.2
267.061	4.19
267.435	4.18
267.809	4.15
268.183	4.12
268.556	4.15
268.93	4.14
269.304	4.12
269.678	4.08
270.051	4.05
270.425	4.05
270.799	4.08
271.172	4.09
271.546	4.08
271.919	4.07
272.293	4.04
272.666	4.04
273.04	4.04
273.413	3.97
273.787	3.96
274.16	3.97
274.533	4
274.906	3.97
275.279	3.98
275.653	3.96
276.026	3.94
276.399	3.91
276.772	3.91
277.145	3.94
277.518	3.96
277.891	3.98
278.263	4
278.636	4.01
279.009	4.02
279.382	4
279.755	3.95
280.127	3.97
280.5	3.97
280.872	3.96
281.245	4.07
281.617	4.09
281.99	4.11
282.362	4.14
282.735	4.13
283.107	4.13
283.479	4.14
283.852	4.14
284.224	4.16
284.596	4.15
284.968	4.03
285.34	4.01
285.713	4
286.085	3.9
286.457	3.91
286.829	3.89
287.201	3.9
287.572	3.94
287.944	3.93
288.316	3.97
288.688	4
289.06	3.99
289.431	3.99
289.803	3.98
290.175	3.99
290.546	4
290.918	4
291.289	3.96
291.661	3.96
292.032	3.91
292.403	3.92
292.775	4.01
293.146	4.01
293.517	4.03
293.889	4.09
294.26	4.07
294.631	4.09
295.002	4.12
295.373	4.13
295.744	4.12
296.115	4.1
296.486	4.03
296.857	4.03
297.228	4.01
297.599	3.99
297.97	3.98
298.34	3.99
298.711	3.94
299.082	3.93
299.452	3.95
299.823	3.97
300.194	3.99
300.564	3.99
300.935	3.98
301.305	3.96
301.676	3.93
302.046	3.93
302.416	3.91
302.787	3.92
303.157	3.86
303.527	3.86
303.897	3.85
304.267	3.85
304.637	3.86
305.008	3.86
305.378	3.87
305.748	3.84
306.117	3.91
306.487	3.96
306.857	4
307.227	3.99
307.597	3.96
307.967	3.93
308.336	3.92
308.706	3.93
309.076	3.93
309.445	3.91
309.815	3.79
310.184	3.77
310.554	3.72
310.923	3.76
311.293	3.77
311.662	3.77
312.031	3.76
312.401	3.75
312.77	3.72
313.139	3.7
313.508	3.72
313.877	3.68
314.246	3.66
314.616	3.62
314.985	3.56
315.353	3.55
315.722	3.54
316.091	3.54
316.46	3.55
316.829	3.57
317.198	3.59
317.567	3.73
317.935	3.72
318.304	3.76
318.672	3.77
319.041	3.76
319.41	3.76
319.778	3.76
320.147	3.77
320.515	3.77
320.883	3.76
321.252	3.69
321.62	3.72
321.988	3.72
322.357	3.72
322.725	3.79
323.093	3.81
323.461	3.8
323.829	3.79
324.197	3.77
324.565	3.76
324.933	3.76
325.301	3.75
325.669	3.76
326.037	3.75
326.405	3.69
326.772	3.68
327.14	3.67
327.508	3.65
327.875	3.65
328.243	3.65
328.61	3.6
328.978	3.6
329.346	3.6
329.713	3.58
330.08	3.58
330.448	3.56
330.815	3.53
331.182	3.52
331.55	3.49
331.917	3.49
332.284	3.48
332.651	3.48
333.018	3.48
333.385	3.47
333.752	3.47
334.119	3.48
334.486	3.48
334.853	3.44
335.22	3.43
335.587	3.41
335.954	3.41
336.32	3.42
336.687	3.42
337.054	3.41
337.42	3.42
337.787	3.41
338.153	3.42
338.52	3.45
338.886	3.47
339.253	3.46
339.619	3.44
339.986	3.42
340.352	3.4
340.718	3.4
341.084	3.39
341.451	3.39
341.817	3.37
342.183	3.35
342.549	3.37
342.915	3.37
343.281	3.39
343.647	3.39
344.013	3.41
344.379	3.42
344.745	3.41
345.11	3.41
345.476	3.42
345.842	3.43
346.208	3.41
346.573	3.41
346.939	3.42
347.304	3.41
347.67	3.42
348.035	3.44
348.401	3.43
348.766	3.45
349.132	3.45
349.497	3.47
349.862	3.49
350.228	3.5
350.593	3.51
350.958	3.5
351.323	3.48
351.688	3.48
352.053	3.47
352.418	3.47
352.783	3.46
353.148	3.45
353.513	3.45
353.878	3.45
354.243	3.45
354.608	3.44
354.972	3.45
355.337	3.45
355.702	3.44
356.066	3.44
356.431	3.43
356.795	3.43
357.16	3.41
357.524	3.41
357.889	3.4
358.253	3.39
358.618	3.4
358.982	3.41
359.346	3.41
359.71	3.41
360.075	3.41
360.439	3.42
360.803	3.41
361.167	3.4
361.531	3.41
361.895	3.41
362.259	3.41
362.623	3.41
362.987	3.39
363.351	3.4
363.714	3.4
364.078	3.4
364.442	3.39
364.806	3.4
365.169	3.38
365.533	3.38
365.896	3.38
366.26	3.38
366.623	3.38
366.987	3.37
367.35	3.38
367.714	3.39
368.077	3.38
368.44	3.38
368.803	3.38
369.167	3.38
369.53	3.39
369.893	3.4
370.256	3.39
370.619	3.4
370.982	3.4
371.345	3.39
371.708	3.4
372.071	3.39
372.434	3.4
372.797	3.42
373.159	3.43
373.522	3.43
373.885	3.42
374.247	3.41
374.61	3.41
374.973	3.4
375.335	3.39
375.698	3.4
376.06	3.4
376.423	3.39
376.785	3.39
377.147	3.39
377.51	3.39
377.872	3.39
378.234	3.39
378.596	3.4
378.958	3.41
379.321	3.41
379.683	3.41
380.045	3.4
380.407	3.4
380.769	3.39
381.13	3.4
381.492	3.4
381.854	3.41
382.216	3.4
382.578	3.41
382.939	3.41
383.301	3.41
383.663	3.42
384.024	3.41
384.386	3.41
384.747	3.4
385.109	3.4
385.47	3.4
385.832	3.4
386.193	3.39
386.554	3.39
386.916	3.4
387.277	3.39
387.638	3.4
387.999	3.4
388.36	3.4
388.721	3.4
389.082	3.4
389.443	3.4
389.804	3.41
390.165	3.41
390.526	3.41
390.887	3.41
391.248	3.4
391.609	3.41
391.969	3.41
392.33	3.41
392.691	3.42
393.051	3.42
393.412	3.41
393.772	3.42
394.133	3.42
394.493	3.42
394.854	3.43
395.214	3.42
395.574	3.42
395.935	3.41
396.295	3.4
396.655	3.41
397.015	3.4
397.376	3.39
397.736	3.4
398.096	3.4
398.456	3.4
398.816	3.41
399.176	3.4
399.535	3.41
399.895	3.41
400.255	3.41
400.615	3.42
400.975	3.42
401.334	3.42
401.694	3.42
402.054	3.43
402.413	3.41
402.773	3.41
403.132	3.42
403.492	3.42
403.851	3.42
404.211	3.42
404.57	3.43
404.929	3.44
405.288	3.44
405.648	3.44
406.007	3.45
406.366	3.45
406.725	3.46
407.084	3.46
407.443	3.46
407.802	3.45
408.161	3.45
408.52	3.44
408.879	3.45
409.238	3.45
409.596	3.44
409.955	3.46
410.314	3.46
410.673	3.46
411.031	3.47
411.39	3.47
411.748	3.48
412.107	3.49
412.465	3.5
412.824	3.52
413.182	3.53
413.54	3.55
413.899	3.58
414.257	3.61
414.615	3.64
414.974	3.67
415.332	3.71
415.69	3.74
416.048	3.77
416.406	3.8
416.764	3.83
417.122	3.86
417.48	3.89
417.838	3.92
418.195	3.95
418.553	3.97
418.911	3.99
419.269	3.99
419.626	3.99
419.984	3.99
420.342	3.97
420.699	3.96
421.057	3.95
421.414	3.94
421.772	3.93
422.129	3.92
422.486	3.91
422.844	3.91
423.201	3.91
423.558	3.92
423.915	3.91
424.273	3.91
424.63	3.91
424.987	3.91
425.344	3.91
425.701	3.92
426.058	3.92
426.415	3.92
426.772	3.92
427.128	3.91
427.485	3.91
427.842	3.9
428.199	3.89
428.555	3.88
428.912	3.86
429.269	3.84
429.625	3.82
429.982	3.8
430.338	3.78
430.695	3.76
431.051	3.73
431.407	3.71
431.764	3.7
432.12	3.67
432.476	3.67
432.832	3.66
433.189	3.66
433.545	3.66
433.901	3.68
434.257	3.69
434.613	3.72
434.969	3.74
435.325	3.76
435.681	3.8
436.036	3.81
436.392	3.83
436.748	3.84
437.104	3.84
437.459	3.86
437.815	3.87
438.171	3.89
438.526	3.92
438.882	3.94
439.237	3.97
439.593	4.01
439.948	4.04
440.304	4.07
440.659	4.1
441.014	4.11
441.369	4.14
441.725	4.15
442.08	4.17
442.435	4.18
442.79	4.19
443.145	4.19
443.5	4.2
443.855	4.2
444.21	4.2
444.565	4.2
444.92	4.19
445.275	4.18
445.629	4.17
445.984	4.17
446.339	4.16
446.693	4.16
447.048	4.14
447.403	4.13
447.757	4.11
448.112	4.09
448.466	4.08
448.82	4.06
449.175	4.04
449.529	4.02
449.883	4.01
450.238	3.99
450.592	3.98
450.946	3.98
451.3	3.98
451.654	3.99
452.008	3.99
452.362	3.99
452.716	4
453.07	4
453.424	3.99
453.778	3.99
454.132	3.97
454.486	3.97
454.839	3.95
455.193	3.93
455.547	3.92
455.9	3.89
456.254	3.87
456.607	3.85
456.961	3.82
457.314	3.81
457.668	3.8
458.021	3.79
458.375	3.79
458.728	3.79
459.081	3.78
459.434	3.79
459.787	3.8
460.141	3.81
460.494	3.81
460.847	3.82
461.2	3.82
461.553	3.83
461.906	3.83
462.259	3.84
462.611	3.84
462.964	3.84
463.317	3.85
463.67	3.85
464.022	3.86
464.375	3.86
464.728	3.86
465.08	3.85
465.433	3.86
465.785	3.85
466.138	3.83
466.49	3.82
466.843	3.8
467.195	3.79
467.547	3.77
467.899	3.75
468.252	3.72
468.604	3.69
468.956	3.67
469.308	3.66
469.66	3.65
470.012	3.64
470.364	3.64
470.716	3.64
471.068	3.66
471.42	3.67
471.772	3.69
472.123	3.7
472.475	3.71
472.827	3.72
473.178	3.73
473.53	3.74
473.882	3.75
474.233	3.77
474.585	3.8
474.936	3.85
475.288	3.93
475.639	4.03
475.99	4.15
476.342	4.29
476.693	4.44
477.044	4.58
477.395	4.74
477.746	4.89
478.097	5.05
478.448	5.21
478.8	5.36
479.15	5.51
479.501	5.64
479.852	5.77
480.203	5.88
480.554	5.99
480.905	6.1
481.255	6.2
481.606	6.3
481.957	6.38
482.307	6.47
482.658	6.55
483.009	6.63
483.359	6.71
483.709	6.78
484.06	6.86
484.41	6.93
484.761	7
485.111	7.06
485.461	7.12
485.811	7.18
486.162	7.24
486.512	7.28
486.862	7.32
487.212	7.35
487.562	7.37
487.912	7.38
488.262	7.38
488.612	7.38
488.961	7.36
489.311	7.33
489.661	7.27
490.011	7.19
490.36	7.1
490.71	6.98
491.06	6.86
491.409	6.73
491.759	6.59
492.108	6.45
492.458	6.31
492.807	6.16
493.157	6.01
493.506	5.87
493.855	5.72
494.204	5.59
494.554	5.47
494.903	5.36
495.252	5.25
495.601	5.14
495.95	5.03
496.299	4.93
496.648	4.84
496.997	4.75
497.346	4.67
497.695	4.59
498.043	4.51
498.392	4.44
498.741	4.36
499.09	4.29
499.438	4.22
499.787	4.16
500.135	4.09
500.484	4.04
500.832	4
501.181	3.96
501.529	3.93
501.878	3.91
502.226	3.9
502.574	3.89
502.923	3.88
503.271	3.88
503.619	3.88
503.967	3.88
504.315	3.88
504.663	3.87
505.011	3.87
505.359	3.86
505.707	3.86
506.055	3.85
506.403	3.86
506.751	3.85
507.098	3.85
507.446	3.85
507.794	3.86
508.141	3.86
508.489	3.88
508.837	3.89
509.184	3.91
509.531	3.92
509.879	3.92
510.226	3.94
510.574	3.96
510.921	3.97
511.268	3.99
511.616	4
511.963	4.02
512.31	4.04
512.657	4.06
513.004	4.07
513.351	4.09
513.698	4.09
514.045	4.1
514.392	4.11
514.739	4.11
515.086	4.11
515.432	4.11
515.779	4.11
516.126	4.11
516.473	4.11
516.819	4.11
517.166	4.12
517.512	4.13
517.859	4.14
518.205	4.16
518.552	4.18
518.898	4.21
519.245	4.24
519.591	4.28
519.937	4.35
520.283	4.43
520.629	4.52
520.976	4.63
521.322	4.73
521.668	4.84
522.014	4.95
522.36	5.05
522.706	5.15
523.052	5.26
523.398	5.35
523.743	5.44
524.089	5.51
524.435	5.57
524.781	5.63
525.126	5.69
525.472	5.74
525.817	5.79
526.163	5.83
526.509	5.87
526.854	5.91
527.199	5.95
527.545	5.99
527.89	6.03
528.235	6.07
528.581	6.11
528.926	6.15
529.271	6.19
529.616	6.23
529.961	6.26
530.306	6.28
530.651	6.32
530.996	6.33
531.341	6.34
531.686	6.34
532.031	6.34
532.376	6.34
532.721	6.34
533.065	6.34
533.41	6.35
533.755	6.34
534.099	6.31
534.444	6.28
534.788	6.24
535.133	6.21
535.477	6.17
535.822	6.12
536.166	6.06
536.51	6.01
536.855	5.93
537.199	5.86
537.543	5.79
537.887	5.72
538.231	5.66
538.576	5.61
538.92	5.56
539.264	5.51
539.608	5.46
539.951	5.4
540.295	5.35
540.639	5.29
540.983	5.24
541.327	5.2
541.671	5.14
542.014	5.08
542.358	5.03
542.701	4.99
543.045	4.95
543.389	4.93
543.732	4.91
544.075	4.9
544.419	4.88
544.762	4.85
545.105	4.84
545.449	4.83
545.792	4.83
546.135	4.82
546.478	4.81
546.821	4.78
547.165	4.75
547.508	4.71
547.851	4.67
548.194	4.62
548.536	4.56
548.879	4.5
549.222	4.44
549.565	4.38
549.908	4.31
550.25	4.25
550.593	4.2
550.936	4.16
551.278	4.12
551.621	4.09
551.963	4.07
552.306	4.05
552.648	4.03
552.991	4.01
553.333	3.99
553.675	3.98
554.017	3.98
554.36	3.98
554.702	3.98
555.044	3.98
555.386	3.99
555.728	4.01
556.07	4.01
556.412	4.02
556.754	4.03
557.096	4.03
557.438	4.03
557.78	4.03
558.121	4.03
558.463	4.03
558.805	4.03
559.147	4.03
559.488	4.02
559.83	4.03
560.171	4.03
560.513	4.03
560.854	4.02
561.196	4.02
561.537	4.03
561.878	4.03
562.22	4.04
562.561	4.03
562.902	4.04
563.243	4.04
563.584	4.05
563.925	4.05
564.266	4.05
564.607	4.05
564.948	4.05
565.289	4.06
565.63	4.06
565.971	4.07
566.312	4.07
566.653	4.07
566.993	4.07
567.334	4.07
567.675	4.07
568.015	4.08
568.356	4.09
568.696	4.09
569.037	4.09
569.377	4.09
569.718	4.1
570.058	4.1
570.398	4.1
570.739	4.1
571.079	4.1
571.419	4.1
571.759	4.1
572.099	4.1
572.439	4.09
572.779	4.1
573.119	4.1
573.459	4.1
573.799	4.1
574.139	4.1
574.479	4.11
574.819	4.11
575.158	4.1
575.498	4.1
575.838	4.1
576.177	4.09
576.517	4.09
576.856	4.09
577.196	4.09
577.535	4.08
577.875	4.08
578.214	4.09
578.553	4.09
578.893	4.08
579.232	4.08
579.571	4.08
579.91	4.07
580.25	4.07
580.589	4.07
580.928	4.06
581.267	4.06
581.606	4.06
581.945	4.05
582.283	4.05
582.622	4.05
582.961	4.05
583.3	4.05
583.639	4.05
583.977	4.05
584.316	4.05
584.654	4.05
584.993	4.05
585.332	4.04
585.67	4.04
586.008	4.04
586.347	4.04
586.685	4.04
587.024	4.04
587.362	4.04
587.7	4.04
588.038	4.04
588.376	4.04
588.715	4.04
589.053	4.05
589.391	4.05
589.729	4.05
590.067	4.06
590.404	4.05
590.742	4.05
591.08	4.05
591.418	4.05
591.756	4.05
592.093	4.06
592.431	4.06
592.769	4.06
593.106	4.07
593.444	4.07
593.781	4.06
594.119	4.06
594.456	4.06
594.793	4.06
595.131	4.07
595.468	4.07
595.805	4.06
596.143	4.06
596.48	4.06
596.817	4.07
597.154	4.07
597.491	4.08
597.828	4.08
598.165	4.09
598.502	4.09
598.839	4.09
599.176	4.09
599.512	4.09
599.849	4.09
600.186	4.1
600.523	4.1
600.859	4.1
601.196	4.1
601.532	4.11
601.869	4.11
602.205	4.1
602.542	4.11
602.878	4.11
603.215	4.09
603.551	4.09
603.887	4.08
604.223	4.09
604.56	4.1
604.896	4.1
605.232	4.1
605.568	4.1
605.904	4.1
606.24	4.1
606.576	4.1
606.912	4.1
607.248	4.1
607.583	4.11
607.919	4.11
608.255	4.11
608.591	4.1
608.926	4.11
609.262	4.11
609.597	4.12
609.933	4.12
610.268	4.13
610.604	4.14
610.939	4.14
611.275	4.13
611.61	4.14
611.945	4.13
612.281	4.13
612.616	4.13
612.951	4.12
613.286	4.11
613.621	4.11
613.956	4.1
614.291	4.1
614.626	4.1
614.961	4.11
615.296	4.11
615.631	4.12
615.966	4.11
616.3	4.12
616.635	4.12
616.97	4.12
617.304	4.12
617.639	4.12
617.973	4.12
618.308	4.11
618.642	4.11
618.977	4.1
619.311	4.09
619.646	4.09
619.98	4.11
620.314	4.1
620.648	4.11
620.983	4.11
621.317	4.11
621.651	4.11
621.985	4.11
622.319	4.11
622.653	4.11
622.987	4.11
623.321	4.1
623.655	4.11
623.988	4.11
624.322	4.11
624.656	4.12
624.99	4.12
625.323	4.12
625.657	4.12
625.99	4.13
626.324	4.14
626.657	4.15
626.991	4.15
627.324	4.15
627.658	4.15
627.991	4.15
628.324	4.15
628.657	4.15
628.991	4.16
629.324	4.16
629.657	4.17
629.99	4.17
630.323	4.18
630.656	4.18
630.989	4.18
631.322	4.18
631.655	4.18
631.987	4.18
632.32	4.19
632.653	4.19
632.986	4.2
633.318	4.2
633.651	4.19
633.984	4.19
634.316	4.2
634.649	4.2
634.981	4.21
635.313	4.21
635.646	4.21
635.978	4.2
636.31	4.19
636.643	4.19
636.975	4.19
637.307	4.19
637.639	4.19
637.971	4.19
638.303	4.19
638.635	4.18
638.967	4.18
639.299	4.18
639.631	4.18
639.963	4.19
640.295	4.19
640.626	4.2
640.958	4.21
641.29	4.2
641.621	4.21
641.953	4.22
642.285	4.23
642.616	4.23
642.948	4.23
643.279	4.24
643.61	4.24
643.942	4.24
644.273	4.24
644.604	4.24
644.936	4.24
645.267	4.24
645.598	4.24
645.929	4.25
646.26	4.25
646.591	4.24
646.922	4.25
647.253	4.25
647.584	4.24
647.915	4.25
648.245	4.26
648.576	4.26
648.907	4.25
649.238	4.25
649.568	4.24
649.899	4.25
650.229	4.26
650.56	4.27
650.89	4.27
651.221	4.28
651.551	4.28
651.882	4.3
652.212	4.29
652.542	4.28
652.872	4.29
653.203	4.3
653.533	4.3
653.863	4.29
654.193	4.29
654.523	4.29
654.853	4.29
655.183	4.29
655.513	4.29
655.843	4.3
656.172	4.3
656.502	4.31
656.832	4.29
657.162	4.28
657.491	4.28
657.821	4.28
658.15	4.28
658.48	4.28
658.809	4.28
659.139	4.28
659.468	4.3
659.798	4.3
660.127	4.3
660.456	4.33
660.785	4.33
661.115	4.34
661.444	4.34
661.773	4.35
662.102	4.35
662.431	4.36
662.76	4.36
663.089	4.35
663.418	4.36
663.747	4.36
664.076	4.37
664.404	4.36
664.733	4.36
665.062	4.37
665.39	4.38
665.719	4.37
666.048	4.37
666.376	4.37
666.705	4.35
667.033	4.34
667.362	4.33
667.69	4.34
668.018	4.34
668.347	4.34
668.675	4.32
669.003	4.32
669.331	4.33
669.659	4.33
669.987	4.34
670.315	4.34
670.643	4.37
670.971	4.37
671.299	4.37
671.627	4.37
671.955	4.36
672.283	4.35
672.61	4.36
672.938	4.38
673.266	4.38
673.593	4.38
673.921	4.39
674.249	4.38
674.576	4.4
674.904	4.41
675.231	4.41
675.558	4.43
675.886	4.44
676.213	4.44
676.54	4.45
676.867	4.45
677.195	4.45
677.522	4.46
677.849	4.48
678.176	4.49
678.503	4.51
678.83	4.51
679.157	4.51
679.484	4.51
679.81	4.51
680.137	4.52
680.464	4.52
680.791	4.53
681.117	4.51
681.444	4.5
