Data from UWBM79812_Reflection_00007.txt Node
Date: Sun May 02 13:57:43 EDT 2021
User: vgr7
Spectrometer: USB2G7710
Scans to average: 10
Trigger mode: 4
Integration Time (sec): 1.000000E-1
Electric dark correction enabled: true
Boxcar width: 20
XAxis mode: Wavelengths
Number of Pixels in Spectrum: 2048
>>>>>Begin Spectral Data<<<<<
177.721	1.45
178.105	-11.01
178.488	-1.71
178.871	45.6
179.254	72.44
179.636	73.53
180.019	54.15
180.402	49.34
180.785	47.61
181.168	43.07
181.55	37.47
181.933	41.73
182.316	34.93
182.698	29.1
183.081	25.21
183.463	19.07
183.846	14.82
184.228	16.18
184.611	17.97
184.993	16.78
185.376	18.22
185.758	20.62
186.14	22.19
186.522	21.08
186.904	23.07
187.287	25.45
187.669	26.69
188.051	25.13
188.433	26.84
188.815	27.13
189.197	28.17
189.579	29.17
189.961	28.67
190.342	25.6
190.724	25.13
191.106	25.74
191.488	27.59
191.869	25.66
192.251	26.17
192.633	28.26
193.014	29.3
193.396	29.63
193.777	29.62
194.159	29.22
194.54	27.75
194.922	25.37
195.303	25.03
195.684	25.22
196.065	25.1
196.447	26.04
196.828	26.78
197.209	26.75
197.59	24.3
197.971	25.47
198.352	28.04
198.733	29.84
199.114	32.25
199.495	33.68
199.876	33.41
200.257	32.84
200.638	31.66
201.018	31.4
201.399	30.41
201.78	31.1
202.16	30.28
202.541	29.32
202.922	28.92
203.302	28.76
203.683	29.55
204.063	28.1
204.444	26.67
204.824	25.91
205.204	24.66
205.585	25.43
205.965	27.74
206.345	25.97
206.725	25.02
207.106	24.57
207.486	24.53
207.866	24.89
208.246	23.66
208.626	23.22
209.006	22.3
209.386	21.49
209.766	20.56
210.145	19.88
210.525	20.69
210.905	21.18
211.285	21.03
211.664	20.53
212.044	19.39
212.424	18.83
212.803	19.17
213.183	19.74
213.562	20.96
213.942	19.82
214.321	18.85
214.701	19.11
215.08	19.31
215.459	19.84
215.838	19.27
216.218	21.22
216.597	21.51
216.976	21.91
217.355	20.46
217.734	21.58
218.113	21.33
218.492	20.23
218.871	20.08
219.25	20.76
219.629	20.43
220.008	20.85
220.387	19
220.766	20.3
221.144	19.18
221.523	18.35
221.902	19.03
222.28	18.68
222.659	18.21
223.037	17.45
223.416	16.81
223.794	16.36
224.173	16.33
224.551	15.59
224.929	16.25
225.308	16.68
225.686	16.05
226.064	15.67
226.442	14.92
226.821	15.05
227.199	15.4
227.577	15.23
227.955	15
228.333	14.8
228.711	14.64
229.089	13.35
229.467	13.07
229.845	12.79
230.222	12.44
230.6	12.1
230.978	11.88
231.356	11.93
231.733	11.37
232.111	10.98
232.488	10.83
232.866	10.71
233.243	10.1
233.621	10.04
233.998	9.98
234.376	9.62
234.753	9.23
235.13	9.12
235.508	8.86
235.885	8.86
236.262	8.58
236.639	8.46
237.016	8.39
237.393	8.29
237.77	8.14
238.147	7.98
238.524	7.89
238.901	7.78
239.278	7.76
239.655	7.74
240.032	7.71
240.409	7.59
240.785	7.51
241.162	7.53
241.539	7.48
241.915	7.49
242.292	7.42
242.668	7.38
243.045	7.33
243.421	7.32
243.798	7.31
244.174	7.31
244.551	7.36
244.927	7.34
245.303	7.36
245.679	7.33
246.056	7.28
246.432	7.27
246.808	7.25
247.184	7.29
247.56	7.31
247.936	7.29
248.312	7.3
248.688	7.33
249.064	7.33
249.44	7.33
249.815	7.32
250.191	7.3
250.567	7.32
250.943	7.3
251.318	7.28
251.694	7.29
252.069	7.29
252.445	7.26
252.82	7.24
253.196	7.22
253.571	7.2
253.947	7.19
254.322	7.18
254.697	7.14
255.073	7.11
255.448	7.11
255.823	7.1
256.198	7.09
256.573	7.09
256.948	7.08
257.323	7.06
257.698	7.04
258.073	7.01
258.448	7.01
258.823	6.97
259.198	6.95
259.573	6.91
259.948	6.9
260.322	6.9
260.697	6.87
261.072	6.86
261.446	6.86
261.821	6.84
262.195	6.82
262.57	6.78
262.944	6.74
263.319	6.75
263.693	6.74
264.067	6.71
264.442	6.69
264.816	6.67
265.19	6.67
265.564	6.67
265.938	6.65
266.313	6.66
266.687	6.65
267.061	6.63
267.435	6.63
267.809	6.6
268.183	6.6
268.556	6.58
268.93	6.59
269.304	6.59
269.678	6.58
270.051	6.57
270.425	6.55
270.799	6.54
271.172	6.53
271.546	6.52
271.919	6.5
272.293	6.5
272.666	6.49
273.04	6.51
273.413	6.54
273.787	6.52
274.16	6.53
274.533	6.52
274.906	6.54
275.279	6.53
275.653	6.54
276.026	6.56
276.399	6.55
276.772	6.54
277.145	6.55
277.518	6.56
277.891	6.57
278.263	6.57
278.636	6.57
279.009	6.57
279.382	6.59
279.755	6.6
280.127	6.6
280.5	6.62
280.872	6.63
281.245	6.64
281.617	6.66
281.99	6.68
282.362	6.7
282.735	6.71
283.107	6.74
283.479	6.74
283.852	6.79
284.224	6.8
284.596	6.82
284.968	6.85
285.34	6.89
285.713	6.92
286.085	6.97
286.457	7
286.829	7.04
287.201	7.08
287.572	7.12
287.944	7.16
288.316	7.17
288.688	7.21
289.06	7.27
289.431	7.33
289.803	7.4
290.175	7.47
290.546	7.53
290.918	7.59
291.289	7.64
291.661	7.71
292.032	7.77
292.403	7.83
292.775	7.91
293.146	7.99
293.517	8.07
293.889	8.15
294.26	8.23
294.631	8.31
295.002	8.4
295.373	8.47
295.744	8.55
296.115	8.63
296.486	8.72
296.857	8.8
297.228	8.88
297.599	8.97
297.97	9.07
298.34	9.16
298.711	9.27
299.082	9.36
299.452	9.46
299.823	9.55
300.194	9.65
300.564	9.74
300.935	9.84
301.305	9.95
301.676	10.06
302.046	10.16
302.416	10.25
302.787	10.36
303.157	10.47
303.527	10.6
303.897	10.73
304.267	10.85
304.637	10.96
305.008	11.08
305.378	11.2
305.748	11.33
306.117	11.46
306.487	11.62
306.857	11.77
307.227	11.91
307.597	12.06
307.967	12.17
308.336	12.29
308.706	12.41
309.076	12.5
309.445	12.6
309.815	12.7
310.184	12.79
310.554	12.91
310.923	13.03
311.293	13.14
311.662	13.24
312.031	13.34
312.401	13.46
312.77	13.56
313.139	13.66
313.508	13.74
313.877	13.85
314.246	13.95
314.616	14.05
314.985	14.15
315.353	14.26
315.722	14.35
316.091	14.46
316.46	14.55
316.829	14.68
317.198	14.78
317.567	14.9
317.935	15.02
318.304	15.14
318.672	15.25
319.041	15.39
319.41	15.5
319.778	15.64
320.147	15.75
320.515	15.87
320.883	15.97
321.252	16.08
321.62	16.18
321.988	16.26
322.357	16.35
322.725	16.43
323.093	16.52
323.461	16.6
323.829	16.68
324.197	16.76
324.565	16.85
324.933	16.94
325.301	17.02
325.669	17.1
326.037	17.18
326.405	17.25
326.772	17.33
327.14	17.42
327.508	17.48
327.875	17.56
328.243	17.64
328.61	17.71
328.978	17.76
329.346	17.81
329.713	17.88
330.08	17.95
330.448	18.01
330.815	18.06
331.182	18.14
331.55	18.2
331.917	18.24
332.284	18.29
332.651	18.37
333.018	18.44
333.385	18.53
333.752	18.62
334.119	18.68
334.486	18.78
334.853	18.84
335.22	18.91
335.587	19
335.954	19.06
336.32	19.13
336.687	19.18
337.054	19.25
337.42	19.32
337.787	19.38
338.153	19.45
338.52	19.5
338.886	19.56
339.253	19.64
339.619	19.69
339.986	19.76
340.352	19.81
340.718	19.87
341.084	19.92
341.451	19.99
341.817	20.05
342.183	20.11
342.549	20.16
342.915	20.22
343.281	20.26
343.647	20.32
344.013	20.37
344.379	20.42
344.745	20.48
345.11	20.51
345.476	20.57
345.842	20.63
346.208	20.67
346.573	20.71
346.939	20.75
347.304	20.83
347.67	20.87
348.035	20.9
348.401	20.95
348.766	20.99
349.132	21.03
349.497	21.05
349.862	21.09
350.228	21.13
350.593	21.17
350.958	21.22
351.323	21.24
351.688	21.27
352.053	21.31
352.418	21.34
352.783	21.36
353.148	21.39
353.513	21.42
353.878	21.44
354.243	21.47
354.608	21.5
354.972	21.51
355.337	21.54
355.702	21.55
356.066	21.57
356.431	21.58
356.795	21.58
357.16	21.58
357.524	21.6
357.889	21.6
358.253	21.6
358.618	21.6
358.982	21.6
359.346	21.61
359.71	21.61
360.075	21.62
360.439	21.62
360.803	21.61
361.167	21.59
361.531	21.58
361.895	21.58
362.259	21.56
362.623	21.54
362.987	21.53
363.351	21.51
363.714	21.49
364.078	21.47
364.442	21.46
364.806	21.44
365.169	21.42
365.533	21.39
365.896	21.36
366.26	21.34
366.623	21.32
366.987	21.28
367.35	21.24
367.714	21.21
368.077	21.17
368.44	21.14
368.803	21.1
369.167	21.04
369.53	20.99
369.893	20.93
370.256	20.88
370.619	20.84
370.982	20.78
371.345	20.72
371.708	20.67
372.071	20.61
372.434	20.56
372.797	20.5
373.159	20.45
373.522	20.39
373.885	20.33
374.247	20.27
374.61	20.19
374.973	20.13
375.335	20.07
375.698	20
376.06	19.94
376.423	19.87
376.785	19.81
377.147	19.74
377.51	19.68
377.872	19.61
378.234	19.54
378.596	19.47
378.958	19.4
379.321	19.32
379.683	19.25
380.045	19.18
380.407	19.1
380.769	19.03
381.13	18.95
381.492	18.89
381.854	18.83
382.216	18.76
382.578	18.69
382.939	18.63
383.301	18.57
383.663	18.5
384.024	18.43
384.386	18.36
384.747	18.3
385.109	18.23
385.47	18.17
385.832	18.09
386.193	18.03
386.554	17.95
386.916	17.89
387.277	17.82
387.638	17.76
387.999	17.69
388.36	17.63
388.721	17.57
389.082	17.52
389.443	17.46
389.804	17.4
390.165	17.34
390.526	17.28
390.887	17.22
391.248	17.15
391.609	17.1
391.969	17.04
392.33	16.97
392.691	16.91
393.051	16.85
393.412	16.79
393.772	16.72
394.133	16.66
394.493	16.59
394.854	16.52
395.214	16.46
395.574	16.39
395.935	16.33
396.295	16.27
396.655	16.19
397.015	16.12
397.376	16.05
397.736	15.98
398.096	15.91
398.456	15.84
398.816	15.78
399.176	15.71
399.535	15.65
399.895	15.59
400.255	15.52
400.615	15.46
400.975	15.4
401.334	15.33
401.694	15.27
402.054	15.21
402.413	15.15
402.773	15.09
403.132	15.04
403.492	14.99
403.851	14.93
404.211	14.88
404.57	14.84
404.929	14.79
405.288	14.75
405.648	14.7
406.007	14.67
406.366	14.62
406.725	14.58
407.084	14.55
407.443	14.51
407.802	14.48
408.161	14.45
408.52	14.41
408.879	14.38
409.238	14.35
409.596	14.32
409.955	14.29
410.314	14.26
410.673	14.24
411.031	14.21
411.39	14.19
411.748	14.18
412.107	14.16
412.465	14.17
412.824	14.21
413.182	14.24
413.54	14.29
413.899	14.35
414.257	14.41
414.615	14.51
414.974	14.57
415.332	14.66
415.69	14.75
416.048	14.82
416.406	14.92
416.764	14.99
417.122	15.05
417.48	15.13
417.838	15.19
418.195	15.23
418.553	15.27
418.911	15.28
419.269	15.27
419.626	15.23
419.984	15.17
420.342	15.09
420.699	15.02
421.057	14.92
421.414	14.83
421.772	14.76
422.129	14.7
422.486	14.65
422.844	14.62
423.201	14.58
423.558	14.54
423.915	14.51
424.273	14.48
424.63	14.44
424.987	14.41
425.344	14.38
425.701	14.34
426.058	14.31
426.415	14.28
426.772	14.23
427.128	14.18
427.485	14.11
427.842	14.04
428.199	13.96
428.555	13.87
428.912	13.77
429.269	13.65
429.625	13.56
429.982	13.44
430.338	13.32
430.695	13.23
431.051	13.09
431.407	13.01
431.764	12.93
432.12	12.84
432.476	12.79
432.832	12.74
433.189	12.73
433.545	12.72
433.901	12.75
434.257	12.81
434.613	12.88
434.969	12.95
435.325	13.03
435.681	13.14
436.036	13.21
436.392	13.27
436.748	13.31
437.104	13.33
437.459	13.39
437.815	13.44
438.171	13.51
438.526	13.58
438.882	13.68
439.237	13.78
439.593	13.89
439.948	13.98
440.304	14.08
440.659	14.15
441.014	14.21
441.369	14.29
441.725	14.34
442.08	14.39
442.435	14.42
442.79	14.43
443.145	14.43
443.5	14.42
443.855	14.42
444.21	14.4
444.565	14.38
444.92	14.34
445.275	14.3
445.629	14.26
445.984	14.21
446.339	14.15
446.693	14.1
447.048	14.03
447.403	13.97
447.757	13.88
448.112	13.8
448.466	13.7
448.82	13.61
449.175	13.51
449.529	13.43
449.883	13.36
450.238	13.26
450.592	13.23
450.946	13.17
451.3	13.15
451.654	13.16
452.008	13.14
452.362	13.14
452.716	13.12
453.07	13.09
453.424	13.05
453.778	13.01
454.132	12.96
454.486	12.92
454.839	12.85
455.193	12.77
455.547	12.72
455.9	12.62
456.254	12.55
456.607	12.46
456.961	12.37
457.314	12.3
457.668	12.26
458.021	12.24
458.375	12.22
458.728	12.22
459.081	12.23
459.434	12.25
459.787	12.28
460.141	12.31
460.494	12.34
460.847	12.37
461.2	12.4
461.553	12.42
461.906	12.45
462.259	12.47
462.611	12.49
462.964	12.52
463.317	12.56
463.67	12.59
464.022	12.64
464.375	12.67
464.728	12.7
465.08	12.72
465.433	12.76
465.785	12.77
466.138	12.75
466.49	12.73
466.843	12.69
467.195	12.66
467.547	12.62
467.899	12.58
468.252	12.52
468.604	12.48
468.956	12.45
469.308	12.43
469.66	12.45
470.012	12.46
470.364	12.51
470.716	12.55
471.068	12.62
471.42	12.71
471.772	12.8
472.123	12.86
472.475	12.91
472.827	12.97
473.178	13.02
473.53	13.08
473.882	13.14
474.233	13.23
474.585	13.37
474.936	13.59
475.288	13.9
475.639	14.28
475.99	14.72
476.342	15.21
476.693	15.74
477.044	16.27
477.395	16.82
477.746	17.38
478.097	17.93
478.448	18.5
478.8	19.05
479.15	19.55
479.501	20.01
479.852	20.43
480.203	20.83
480.554	21.21
480.905	21.57
481.255	21.91
481.606	22.24
481.957	22.55
482.307	22.84
482.658	23.12
483.009	23.38
483.359	23.64
483.709	23.89
484.06	24.12
484.41	24.35
484.761	24.57
485.111	24.78
485.461	24.99
485.811	25.17
486.162	25.35
486.512	25.5
486.862	25.61
487.212	25.68
487.562	25.73
487.912	25.76
488.262	25.78
488.612	25.76
488.961	25.69
489.311	25.55
489.661	25.33
490.011	25.04
490.36	24.7
490.71	24.32
491.06	23.9
491.409	23.47
491.759	23.01
492.108	22.53
492.458	22.05
492.807	21.54
493.157	21.04
493.506	20.58
493.855	20.14
494.204	19.74
494.554	19.35
494.903	18.99
495.252	18.66
495.601	18.35
495.95	18.04
496.299	17.76
496.648	17.51
496.997	17.28
497.346	17.06
497.695	16.86
498.043	16.66
498.392	16.49
498.741	16.32
499.09	16.17
499.438	16.04
499.787	15.91
500.135	15.82
500.484	15.74
500.832	15.7
501.181	15.7
501.529	15.76
501.878	15.85
502.226	15.95
502.574	16.08
502.923	16.21
503.271	16.36
503.619	16.51
503.967	16.67
504.315	16.83
504.663	16.98
505.011	17.14
505.359	17.29
505.707	17.45
506.055	17.62
506.403	17.79
506.751	17.98
507.098	18.17
507.446	18.37
507.794	18.57
508.141	18.79
508.489	19.02
508.837	19.28
509.184	19.52
509.531	19.77
509.879	20.03
510.226	20.31
510.574	20.61
510.921	20.92
511.268	21.23
511.616	21.56
511.963	21.89
512.31	22.22
512.657	22.56
513.004	22.89
513.351	23.19
513.698	23.47
514.045	23.74
514.392	23.98
514.739	24.2
515.086	24.41
515.432	24.61
515.779	24.81
516.126	25.01
516.473	25.23
516.819	25.48
517.166	25.75
517.512	26.06
517.859	26.39
518.205	26.74
518.552	27.14
518.898	27.58
519.245	28.09
519.591	28.73
519.937	29.48
520.283	30.35
520.629	31.3
520.976	32.3
521.322	33.34
521.668	34.41
522.014	35.5
522.36	36.58
522.706	37.64
523.052	38.65
523.398	39.61
523.743	40.49
524.089	41.27
524.435	41.99
524.781	42.68
525.126	43.35
525.472	43.99
525.817	44.61
526.163	45.2
526.509	45.79
526.854	46.36
527.199	46.92
527.545	47.48
527.89	48.08
528.235	48.66
528.581	49.21
528.926	49.73
529.271	50.21
529.616	50.67
529.961	51.11
530.306	51.51
530.651	51.89
530.996	52.22
531.341	52.49
531.686	52.73
532.031	52.94
532.376	53.18
532.721	53.44
533.065	53.73
533.41	54.01
533.755	54.23
534.099	54.38
534.444	54.46
534.788	54.49
535.133	54.49
535.477	54.44
535.822	54.35
536.166	54.21
536.51	53.99
536.855	53.7
537.199	53.36
537.543	53.02
537.887	52.74
538.231	52.53
538.576	52.33
538.92	52.11
539.264	51.88
539.608	51.63
539.951	51.35
540.295	51.07
540.639	50.77
540.983	50.44
541.327	50.1
541.671	49.72
542.014	49.4
542.358	49.11
542.701	48.93
543.045	48.85
543.389	48.83
543.732	48.83
544.075	48.87
544.419	48.92
544.762	48.99
545.105	49.08
545.449	49.19
545.792	49.31
546.135	49.42
546.478	49.49
546.821	49.48
547.165	49.39
547.508	49.22
547.851	48.99
548.194	48.7
548.536	48.35
548.879	47.96
549.222	47.53
549.565	47.1
549.908	46.67
550.25	46.27
550.593	45.96
550.936	45.74
551.278	45.6
551.621	45.51
551.963	45.45
552.306	45.41
552.648	45.43
552.991	45.49
553.333	45.58
553.675	45.71
554.017	45.87
554.36	46.07
554.702	46.31
555.044	46.61
555.386	46.96
555.728	47.37
556.07	47.73
556.412	48.08
556.754	48.35
557.096	48.55
557.438	48.74
557.78	48.95
558.121	49.14
558.463	49.34
558.805	49.55
559.147	49.74
559.488	49.93
559.83	50.13
560.171	50.33
560.513	50.51
560.854	50.7
561.196	50.88
561.537	51.07
561.878	51.25
562.22	51.42
562.561	51.59
562.902	51.76
563.243	51.93
563.584	52.1
563.925	52.27
564.266	52.45
564.607	52.62
564.948	52.79
565.289	52.94
565.63	53.1
565.971	53.25
566.312	53.41
566.653	53.56
566.993	53.71
567.334	53.85
567.675	53.98
568.015	54.13
568.356	54.26
568.696	54.4
569.037	54.53
569.377	54.66
569.718	54.78
570.058	54.88
570.398	54.98
570.739	55.07
571.079	55.17
571.419	55.26
571.759	55.35
572.099	55.43
572.439	55.51
572.779	55.58
573.119	55.66
573.459	55.74
573.799	55.82
574.139	55.89
574.479	55.96
574.819	56.03
575.158	56.1
575.498	56.17
575.838	56.24
576.177	56.31
576.517	56.37
576.856	56.43
577.196	56.49
577.535	56.55
577.875	56.6
578.214	56.66
578.553	56.71
578.893	56.77
579.232	56.83
579.571	56.88
579.91	56.93
580.25	56.99
580.589	57.04
580.928	57.08
581.267	57.14
581.606	57.19
581.945	57.24
582.283	57.29
582.622	57.34
582.961	57.38
583.3	57.43
583.639	57.48
583.977	57.55
584.316	57.62
584.654	57.68
584.993	57.75
585.332	57.81
585.67	57.88
586.008	57.93
586.347	58.01
586.685	58.07
587.024	58.14
587.362	58.19
587.7	58.25
588.038	58.31
588.376	58.39
588.715	58.46
589.053	58.53
589.391	58.6
589.729	58.67
590.067	58.73
590.404	58.8
590.742	58.88
591.08	58.94
591.418	59
591.756	59.06
592.093	59.11
592.431	59.17
592.769	59.23
593.106	59.27
593.444	59.32
593.781	59.36
594.119	59.39
594.456	59.44
594.793	59.48
595.131	59.52
595.468	59.56
595.805	59.6
596.143	59.64
596.48	59.7
596.817	59.76
597.154	59.81
597.491	59.86
597.828	59.91
598.165	59.95
598.502	60
598.839	60.04
599.176	60.08
599.512	60.11
599.849	60.16
600.186	60.2
600.523	60.24
600.859	60.26
601.196	60.3
601.532	60.34
601.869	60.38
602.205	60.41
602.542	60.43
602.878	60.46
603.215	60.49
603.551	60.5
603.887	60.52
604.223	60.55
604.56	60.57
604.896	60.59
605.232	60.61
605.568	60.62
605.904	60.64
606.24	60.65
606.576	60.66
606.912	60.67
607.248	60.69
607.583	60.72
607.919	60.74
608.255	60.75
608.591	60.76
608.926	60.78
609.262	60.79
609.597	60.81
609.933	60.82
610.268	60.82
610.604	60.81
610.939	60.82
611.275	60.82
611.61	60.81
611.945	60.8
612.281	60.8
612.616	60.8
612.951	60.8
613.286	60.8
613.621	60.8
613.956	60.81
614.291	60.81
614.626	60.81
614.961	60.83
615.296	60.83
615.631	60.82
615.966	60.82
616.3	60.83
616.635	60.83
616.97	60.82
617.304	60.83
617.639	60.83
617.973	60.85
618.308	60.85
618.642	60.86
618.977	60.88
619.311	60.9
619.646	60.92
619.98	60.94
620.314	60.95
620.648	60.98
620.983	61.02
621.317	61.04
621.651	61.07
621.985	61.11
622.319	61.13
622.653	61.14
622.987	61.16
623.321	61.17
623.655	61.19
623.988	61.2
624.322	61.22
624.656	61.23
624.99	61.25
625.323	61.27
625.657	61.3
625.99	61.31
626.324	61.32
626.657	61.35
626.991	61.38
627.324	61.38
627.658	61.37
627.991	61.38
628.324	61.4
628.657	61.41
628.991	61.42
629.324	61.45
629.657	61.45
629.99	61.46
630.323	61.48
630.656	61.49
630.989	61.51
631.322	61.52
631.655	61.53
631.987	61.53
632.32	61.53
632.653	61.53
632.986	61.54
633.318	61.55
633.651	61.55
633.984	61.56
634.316	61.56
634.649	61.55
634.981	61.55
635.313	61.55
635.646	61.53
635.978	61.55
636.31	61.56
636.643	61.56
636.975	61.58
637.307	61.57
637.639	61.59
637.971	61.58
638.303	61.6
638.635	61.6
638.967	61.59
639.299	61.59
639.631	61.61
639.963	61.62
640.295	61.62
640.626	61.62
640.958	61.64
641.29	61.68
641.621	61.69
641.953	61.7
642.285	61.71
642.616	61.73
642.948	61.73
643.279	61.74
643.61	61.76
643.942	61.76
644.273	61.77
644.604	61.79
644.936	61.81
645.267	61.82
645.598	61.84
645.929	61.86
646.26	61.89
646.591	61.91
646.922	61.92
647.253	61.94
647.584	61.95
647.915	61.97
648.245	61.98
648.576	61.99
648.907	62.01
649.238	62.02
649.568	62.02
649.899	62.05
650.229	62.07
650.56	62.09
650.89	62.11
651.221	62.12
651.551	62.15
651.882	62.16
652.212	62.19
652.542	62.23
652.872	62.23
653.203	62.24
653.533	62.26
653.863	62.27
654.193	62.29
654.523	62.32
654.853	62.31
655.183	62.33
655.513	62.33
655.843	62.35
