Data from UWBM122453_Reflection_00012.txt Node
Date: Sun May 02 12:41:41 EDT 2021
User: vgr7
Spectrometer: USB2G7710
Scans to average: 10
Trigger mode: 4
Integration Time (sec): 1.000000E-1
Electric dark correction enabled: true
Boxcar width: 20
XAxis mode: Wavelengths
Number of Pixels in Spectrum: 2048
>>>>>Begin Spectral Data<<<<<
177.721	100.8
178.105	102.46
178.488	102.96
178.871	102.76
179.254	102.9
179.636	101.8
180.019	99.71
180.402	97.75
180.785	95.24
181.168	93.86
181.55	93.27
181.933	106.28
182.316	107.53
182.698	108.09
183.081	108.12
183.463	109.36
183.846	111.38
184.228	113.03
184.611	114.9
184.993	118.09
185.376	120.11
185.758	-32.67
186.14	1.08
186.522	26.22
186.904	39.24
187.287	44.98
187.669	47.53
188.051	43.97
188.433	48.66
188.815	47.23
189.197	47.86
189.579	46.55
189.961	46.57
190.342	42.34
190.724	45.81
191.106	42.52
191.488	41.88
191.869	36.81
192.251	37.89
192.633	36
193.014	33.25
193.396	29.62
193.777	32.29
194.159	32.58
194.54	31.98
194.922	29.77
195.303	31.57
195.684	32.44
196.065	32.91
196.447	32.93
196.828	32.04
197.209	31.91
197.59	24.28
197.971	23.16
198.352	23.23
198.733	23.91
199.114	23.73
199.495	23.47
199.876	24.25
200.257	24.8
200.638	23.49
201.018	19.23
201.399	17.72
201.78	16.05
202.16	14.93
202.541	14.87
202.922	15.43
203.302	11.96
203.683	13.5
204.063	13.22
204.444	13.34
204.824	16.36
205.204	19.51
205.585	24.55
205.965	24.93
206.345	24.16
206.725	20.64
207.106	21.16
207.486	21.39
207.866	20.42
208.246	19.53
208.626	21.84
209.006	25.81
209.386	22.36
209.766	22.19
210.145	21.25
210.525	21.8
210.905	22.34
211.285	23.02
211.664	22.19
212.044	21.77
212.424	20.61
212.803	16.51
213.183	18.36
213.562	18.93
213.942	18.32
214.321	16.46
214.701	15.5
215.08	16.14
215.459	15.75
215.838	14.34
216.218	14.91
216.597	13.75
216.976	11.47
217.355	11.53
217.734	9.98
218.113	9.88
218.492	10.11
218.871	11.27
219.25	10.41
219.629	9.86
220.008	9.33
220.387	7.98
220.766	7.34
221.144	7.77
221.523	9.2
221.902	10.08
222.28	11.1
222.659	11.65
223.037	11.63
223.416	11.86
223.794	12.33
224.173	11.81
224.551	11.47
224.929	12.2
225.308	12.65
225.686	11.97
226.064	12.2
226.442	11.92
226.821	11.27
227.199	10.65
227.577	9.94
227.955	9.74
228.333	9.73
228.711	9.09
229.089	8.92
229.467	8.54
229.845	9.12
230.222	9.18
230.6	9.47
230.978	9.37
231.356	8.61
231.733	8.28
232.111	8.14
232.488	8.03
232.866	8.08
233.243	7.65
233.621	7.73
233.998	7.3
234.376	7.14
234.753	7.22
235.13	7.06
235.508	7.44
235.885	7.37
236.262	7.29
236.639	7.13
237.016	6.95
237.393	6.75
237.77	6.58
238.147	6.47
238.524	6.39
238.901	6.33
239.278	6.29
239.655	6.26
240.032	6.11
240.409	6.04
240.785	5.9
241.162	5.99
241.539	5.92
241.915	5.85
242.292	5.83
242.668	5.72
243.045	5.68
243.421	5.54
243.798	5.45
244.174	5.46
244.551	5.38
244.927	5.15
245.303	5.11
245.679	5.1
246.056	5.04
246.432	5.01
246.808	4.78
247.184	4.78
247.56	4.74
247.936	4.72
248.312	4.67
248.688	4.76
249.064	4.69
249.44	4.67
249.815	4.66
250.191	4.6
250.567	4.59
250.943	4.64
251.318	4.63
251.694	4.56
252.069	4.5
252.445	4.5
252.82	4.59
253.196	4.59
253.571	4.55
253.947	4.63
254.322	4.57
254.697	4.7
255.073	4.65
255.448	4.63
255.823	4.61
256.198	4.56
256.573	4.37
256.948	4.34
257.323	4.34
257.698	4.28
258.073	4.28
258.448	4.17
258.823	4.16
259.198	4.16
259.573	4.17
259.948	4.21
260.322	4.21
260.697	4.19
261.072	4.19
261.446	4.2
261.821	4.18
262.195	4.16
262.57	4.14
262.944	4.14
263.319	4.13
263.693	4.16
264.067	4.17
264.442	4.26
264.816	4.25
265.19	4.23
265.564	4.28
265.938	4.24
266.313	4.28
266.687	4.23
267.061	4.23
267.435	4.22
267.809	4.18
268.183	4.16
268.556	4.17
268.93	4.17
269.304	4.17
269.678	4.14
270.051	4.12
270.425	4.12
270.799	4.13
271.172	4.13
271.546	4.14
271.919	4.13
272.293	4.11
272.666	4.12
273.04	4.12
273.413	4.07
273.787	4.04
274.16	4.05
274.533	4.09
274.906	4.06
275.279	4.06
275.653	4.04
276.026	4.03
276.399	4
276.772	3.97
277.145	4
277.518	4
277.891	4.02
278.263	4.04
278.636	4.02
279.009	4.04
279.382	4.02
279.755	3.97
280.127	3.97
280.5	3.98
280.872	3.97
281.245	4.08
281.617	4.09
281.99	4.13
282.362	4.16
282.735	4.16
283.107	4.16
283.479	4.19
283.852	4.21
284.224	4.22
284.596	4.2
284.968	4.11
285.34	4.09
285.713	4.08
286.085	4.03
286.457	4.04
286.829	4.02
287.201	4.04
287.572	4.09
287.944	4.1
288.316	4.14
288.688	4.2
289.06	4.22
289.431	4.24
289.803	4.25
290.175	4.27
290.546	4.31
290.918	4.32
291.289	4.3
291.661	4.32
292.032	4.31
292.403	4.33
292.775	4.44
293.146	4.46
293.517	4.5
293.889	4.59
294.26	4.61
294.631	4.65
295.002	4.72
295.373	4.78
295.744	4.78
296.115	4.8
296.486	4.77
296.857	4.8
297.228	4.83
297.599	4.86
297.97	4.88
298.34	4.92
298.711	4.89
299.082	4.91
299.452	4.97
299.823	5.03
300.194	5.07
300.564	5.11
300.935	5.13
301.305	5.16
301.676	5.17
302.046	5.21
302.416	5.25
302.787	5.29
303.157	5.26
303.527	5.29
303.897	5.33
304.267	5.37
304.637	5.42
305.008	5.47
305.378	5.52
305.748	5.55
306.117	5.66
306.487	5.76
306.857	5.85
307.227	5.9
307.597	5.94
307.967	5.99
308.336	6.04
308.706	6.08
309.076	6.12
309.445	6.14
309.815	6.05
310.184	6.09
310.554	6.07
310.923	6.14
311.293	6.2
311.662	6.23
312.031	6.26
312.401	6.28
312.77	6.28
313.139	6.31
313.508	6.37
313.877	6.35
314.246	6.37
314.616	6.39
314.985	6.36
315.353	6.4
315.722	6.45
316.091	6.49
316.46	6.53
316.829	6.59
317.198	6.63
317.567	6.78
317.935	6.83
318.304	6.92
318.672	6.97
319.041	7
319.41	7.06
319.778	7.11
320.147	7.17
320.515	7.21
320.883	7.24
321.252	7.21
321.62	7.28
321.988	7.32
322.357	7.34
322.725	7.43
323.093	7.44
323.461	7.46
323.829	7.48
324.197	7.49
324.565	7.51
324.933	7.54
325.301	7.55
325.669	7.58
326.037	7.59
326.405	7.55
326.772	7.56
327.14	7.57
327.508	7.58
327.875	7.59
328.243	7.62
328.61	7.6
328.978	7.62
329.346	7.63
329.713	7.62
330.08	7.63
330.448	7.63
330.815	7.61
331.182	7.63
331.55	7.63
331.917	7.65
332.284	7.66
332.651	7.69
333.018	7.7
333.385	7.73
333.752	7.75
334.119	7.78
334.486	7.8
334.853	7.8
335.22	7.82
335.587	7.83
335.954	7.86
336.32	7.9
336.687	7.92
337.054	7.95
337.42	7.98
337.787	7.99
338.153	8.04
338.52	8.1
338.886	8.15
339.253	8.17
339.619	8.17
339.986	8.16
340.352	8.16
340.718	8.19
341.084	8.21
341.451	8.23
341.817	8.24
342.183	8.24
342.549	8.28
342.915	8.3
343.281	8.33
343.647	8.34
344.013	8.38
344.379	8.41
344.745	8.42
345.11	8.45
345.476	8.48
345.842	8.49
346.208	8.49
346.573	8.5
346.939	8.51
347.304	8.53
347.67	8.54
348.035	8.56
348.401	8.55
348.766	8.59
349.132	8.61
349.497	8.62
349.862	8.63
350.228	8.66
350.593	8.68
350.958	8.67
351.323	8.66
351.688	8.66
352.053	8.65
352.418	8.65
352.783	8.63
353.148	8.61
353.513	8.58
353.878	8.58
354.243	8.58
354.608	8.57
354.972	8.58
355.337	8.58
355.702	8.57
356.066	8.57
356.431	8.55
356.795	8.54
357.16	8.51
357.524	8.5
357.889	8.49
358.253	8.48
358.618	8.47
358.982	8.47
359.346	8.46
359.71	8.46
360.075	8.44
360.439	8.44
360.803	8.43
361.167	8.41
361.531	8.42
361.895	8.41
362.259	8.4
362.623	8.39
362.987	8.36
363.351	8.36
363.714	8.34
364.078	8.32
364.442	8.31
364.806	8.3
365.169	8.26
365.533	8.22
365.896	8.2
366.26	8.18
366.623	8.15
366.987	8.12
367.35	8.11
367.714	8.09
368.077	8.07
368.44	8.05
368.803	8.02
369.167	7.98
369.53	7.95
369.893	7.93
370.256	7.89
370.619	7.86
370.982	7.81
371.345	7.77
371.708	7.74
372.071	7.7
372.434	7.67
372.797	7.64
373.159	7.62
373.522	7.58
373.885	7.53
374.247	7.48
374.61	7.43
374.973	7.39
375.335	7.33
375.698	7.28
376.06	7.24
376.423	7.19
376.785	7.15
377.147	7.11
377.51	7.07
377.872	7.03
378.234	6.98
378.596	6.95
378.958	6.92
379.321	6.88
379.683	6.84
380.045	6.79
380.407	6.76
380.769	6.72
381.13	6.69
381.492	6.66
381.854	6.62
382.216	6.59
382.578	6.55
382.939	6.52
383.301	6.49
383.663	6.45
384.024	6.42
384.386	6.39
384.747	6.34
385.109	6.3
385.47	6.27
385.832	6.23
386.193	6.19
386.554	6.16
386.916	6.13
387.277	6.09
387.638	6.07
387.999	6.04
388.36	6.01
388.721	5.98
389.082	5.95
389.443	5.93
389.804	5.9
390.165	5.88
390.526	5.85
390.887	5.82
391.248	5.79
391.609	5.76
391.969	5.74
392.33	5.71
392.691	5.69
393.051	5.66
393.412	5.61
393.772	5.59
394.133	5.56
394.493	5.52
394.854	5.5
395.214	5.46
395.574	5.42
395.935	5.39
396.295	5.36
396.655	5.32
397.015	5.29
397.376	5.25
397.736	5.22
398.096	5.19
398.456	5.16
398.816	5.14
399.176	5.1
399.535	5.08
399.895	5.06
400.255	5.04
400.615	5.01
400.975	4.99
401.334	4.96
401.694	4.93
402.054	4.91
402.413	4.87
402.773	4.85
403.132	4.84
403.492	4.81
403.851	4.79
404.211	4.78
404.57	4.77
404.929	4.76
405.288	4.74
405.648	4.73
406.007	4.72
406.366	4.71
406.725	4.7
407.084	4.68
407.443	4.67
407.802	4.65
408.161	4.64
408.52	4.62
408.879	4.61
409.238	4.6
409.596	4.59
409.955	4.59
410.314	4.58
410.673	4.56
411.031	4.55
411.39	4.55
411.748	4.54
412.107	4.53
412.465	4.53
412.824	4.54
413.182	4.55
413.54	4.56
413.899	4.56
414.257	4.58
414.615	4.6
414.974	4.62
415.332	4.65
415.69	4.68
416.048	4.69
416.406	4.72
416.764	4.74
417.122	4.76
417.48	4.78
417.838	4.79
418.195	4.81
418.553	4.82
418.911	4.82
419.269	4.81
419.626	4.8
419.984	4.78
420.342	4.76
420.699	4.73
421.057	4.7
421.414	4.68
421.772	4.66
422.129	4.64
422.486	4.63
422.844	4.62
423.201	4.61
423.558	4.6
423.915	4.59
424.273	4.58
424.63	4.57
424.987	4.57
425.344	4.56
425.701	4.55
426.058	4.55
426.415	4.54
426.772	4.53
427.128	4.51
427.485	4.49
427.842	4.48
428.199	4.46
428.555	4.44
428.912	4.41
429.269	4.39
429.625	4.37
429.982	4.34
430.338	4.3
430.695	4.28
431.051	4.24
431.407	4.22
431.764	4.2
432.12	4.17
432.476	4.17
432.832	4.15
433.189	4.16
433.545	4.16
433.901	4.17
434.257	4.19
434.613	4.21
434.969	4.24
435.325	4.26
435.681	4.3
436.036	4.31
436.392	4.34
436.748	4.34
437.104	4.35
437.459	4.36
437.815	4.38
438.171	4.39
438.526	4.42
438.882	4.45
439.237	4.48
439.593	4.51
439.948	4.54
440.304	4.57
440.659	4.59
441.014	4.61
441.369	4.63
441.725	4.65
442.08	4.67
442.435	4.67
442.79	4.67
443.145	4.67
443.5	4.67
443.855	4.67
444.21	4.66
444.565	4.65
444.92	4.64
445.275	4.63
445.629	4.61
445.984	4.6
446.339	4.59
446.693	4.58
447.048	4.56
447.403	4.54
447.757	4.52
448.112	4.49
448.466	4.47
448.82	4.44
449.175	4.42
449.529	4.4
449.883	4.38
450.238	4.35
450.592	4.34
450.946	4.33
451.3	4.32
451.654	4.33
452.008	4.33
452.362	4.33
452.716	4.33
453.07	4.33
453.424	4.32
453.778	4.31
454.132	4.29
454.486	4.28
454.839	4.26
455.193	4.24
455.547	4.23
455.9	4.2
456.254	4.18
456.607	4.15
456.961	4.13
457.314	4.11
457.668	4.11
458.021	4.1
458.375	4.1
458.728	4.11
459.081	4.11
459.434	4.13
459.787	4.14
460.141	4.15
460.494	4.16
460.847	4.17
461.2	4.18
461.553	4.2
461.906	4.21
462.259	4.22
462.611	4.23
462.964	4.24
463.317	4.25
463.67	4.26
464.022	4.27
464.375	4.28
464.728	4.29
465.08	4.3
465.433	4.31
465.785	4.32
466.138	4.31
466.49	4.31
466.843	4.3
467.195	4.29
467.547	4.28
467.899	4.27
468.252	4.25
468.604	4.24
468.956	4.23
469.308	4.22
469.66	4.22
470.012	4.22
470.364	4.23
470.716	4.24
471.068	4.26
471.42	4.29
471.772	4.32
472.123	4.33
472.475	4.35
472.827	4.36
473.178	4.37
473.53	4.38
473.882	4.39
474.233	4.41
474.585	4.45
474.936	4.51
475.288	4.6
475.639	4.71
475.99	4.84
476.342	4.99
476.693	5.15
477.044	5.3
477.395	5.47
477.746	5.64
478.097	5.8
478.448	5.97
478.8	6.14
479.15	6.29
479.501	6.43
479.852	6.55
480.203	6.67
480.554	6.78
480.905	6.9
481.255	7
481.606	7.1
481.957	7.18
482.307	7.27
482.658	7.36
483.009	7.44
483.359	7.52
483.709	7.6
484.06	7.67
484.41	7.75
484.761	7.82
485.111	7.9
485.461	7.96
485.811	8.02
486.162	8.08
486.512	8.13
486.862	8.16
487.212	8.19
487.562	8.22
487.912	8.24
488.262	8.24
488.612	8.25
488.961	8.23
489.311	8.21
489.661	8.15
490.011	8.07
490.36	7.97
490.71	7.85
491.06	7.73
491.409	7.6
491.759	7.47
492.108	7.33
492.458	7.19
492.807	7.05
493.157	6.9
493.506	6.76
493.855	6.63
494.204	6.52
494.554	6.41
494.903	6.31
495.252	6.22
495.601	6.13
495.95	6.05
496.299	5.99
496.648	5.93
496.997	5.87
497.346	5.82
497.695	5.78
498.043	5.74
498.392	5.72
498.741	5.69
499.09	5.66
499.438	5.65
499.787	5.64
500.135	5.65
500.484	5.66
500.832	5.69
501.181	5.74
501.529	5.8
501.878	5.87
502.226	5.96
502.574	6.06
502.923	6.16
503.271	6.27
503.619	6.38
503.967	6.5
504.315	6.63
504.663	6.75
505.011	6.88
505.359	7.01
505.707	7.15
506.055	7.29
506.403	7.43
506.751	7.59
507.098	7.74
507.446	7.91
507.794	8.09
508.141	8.27
508.489	8.47
508.837	8.67
509.184	8.86
509.531	9.07
509.879	9.29
510.226	9.52
510.574	9.75
510.921	9.99
511.268	10.25
511.616	10.51
511.963	10.79
512.31	11.06
512.657	11.33
513.004	11.59
513.351	11.86
513.698	12.1
514.045	12.33
514.392	12.56
514.739	12.78
515.086	12.98
515.432	13.2
515.779	13.41
516.126	13.64
516.473	13.88
516.819	14.14
517.166	14.41
517.512	14.7
517.859	15.01
518.205	15.34
518.552	15.69
518.898	16.07
519.245	16.5
519.591	17.01
519.937	17.61
520.283	18.29
520.629	19.03
520.976	19.8
521.322	20.61
521.668	21.41
522.014	22.22
522.36	23.02
522.706	23.81
523.052	24.58
523.398	25.32
523.743	26
524.089	26.61
524.435	27.2
524.781	27.77
525.126	28.34
525.472	28.89
525.817	29.43
526.163	29.96
526.509	30.47
526.854	30.98
527.199	31.49
527.545	32
527.89	32.52
528.235	33.04
528.581	33.53
528.926	33.99
529.271	34.43
529.616	34.84
529.961	35.22
530.306	35.56
530.651	35.9
530.996	36.21
531.341	36.49
531.686	36.76
532.031	37
532.376	37.28
532.721	37.58
533.065	37.92
533.41	38.26
533.755	38.56
534.099	38.8
534.444	39.01
534.788	39.19
535.133	39.35
535.477	39.47
535.822	39.56
536.166	39.61
536.51	39.59
536.855	39.52
537.199	39.41
537.543	39.3
537.887	39.22
538.231	39.2
538.576	39.17
538.92	39.12
539.264	39.06
539.608	38.98
539.951	38.88
540.295	38.77
540.639	38.63
540.983	38.48
541.327	38.33
541.671	38.18
542.014	38.04
542.358	37.92
542.701	37.92
543.045	37.96
543.389	38.03
543.732	38.11
544.075	38.23
544.419	38.36
544.762	38.49
545.105	38.65
545.449	38.82
545.792	39
546.135	39.17
546.478	39.3
546.821	39.36
547.165	39.36
547.508	39.3
547.851	39.18
548.194	39.02
548.536	38.8
548.879	38.55
549.222	38.28
549.565	38
549.908	37.72
550.25	37.48
550.593	37.3
550.936	37.19
551.278	37.15
551.621	37.14
551.963	37.16
552.306	37.2
552.648	37.28
552.991	37.38
553.333	37.51
553.675	37.67
554.017	37.87
554.36	38.09
554.702	38.37
555.044	38.67
555.386	39.03
555.728	39.37
556.07	39.69
556.412	40
556.754	40.19
557.096	40.37
557.438	40.57
557.78	40.76
558.121	40.95
558.463	41.14
558.805	41.32
559.147	41.51
559.488	41.69
559.83	41.87
560.171	42.06
560.513	42.24
560.854	42.41
561.196	42.58
561.537	42.74
561.878	42.9
562.22	43.07
562.561	43.22
562.902	43.38
563.243	43.54
563.584	43.69
563.925	43.85
564.266	44
564.607	44.15
564.948	44.31
565.289	44.45
565.63	44.59
565.971	44.73
566.312	44.88
566.653	45.02
566.993	45.15
567.334	45.28
567.675	45.42
568.015	45.55
568.356	45.68
568.696	45.8
569.037	45.91
569.377	46.02
569.718	46.13
570.058	46.22
570.398	46.32
570.739	46.41
571.079	46.5
571.419	46.58
571.759	46.67
572.099	46.74
572.439	46.81
572.779	46.9
573.119	46.97
573.459	47.04
573.799	47.1
574.139	47.17
574.479	47.25
574.819	47.32
575.158	47.4
575.498	47.48
575.838	47.54
576.177	47.62
576.517	47.68
576.856	47.75
577.196	47.81
577.535	47.87
577.875	47.93
578.214	47.99
578.553	48.06
578.893	48.11
579.232	48.18
579.571	48.23
579.91	48.29
580.25	48.34
580.589	48.41
580.928	48.46
581.267	48.52
581.606	48.58
581.945	48.64
582.283	48.7
582.622	48.78
582.961	48.84
583.3	48.91
583.639	48.98
583.977	49.05
584.316	49.13
584.654	49.2
584.993	49.27
585.332	49.34
585.67	49.4
586.008	49.48
586.347	49.55
586.685	49.62
587.024	49.69
587.362	49.76
587.7	49.85
588.038	49.92
588.376	49.99
588.715	50.06
589.053	50.14
589.391	50.21
589.729	50.28
590.067	50.35
590.404	50.43
590.742	50.5
591.08	50.58
591.418	50.64
591.756	50.71
592.093	50.78
592.431	50.85
592.769	50.91
593.106	50.96
593.444	51.02
593.781	51.06
594.119	51.11
594.456	51.15
594.793	51.19
595.131	51.25
595.468	51.3
595.805	51.36
596.143	51.42
596.48	51.47
596.817	51.53
597.154	51.59
597.491	51.64
597.828	51.71
598.165	51.78
598.502	51.84
598.839	51.9
599.176	51.94
599.512	52
599.849	52.04
600.186	52.09
600.523	52.13
600.859	52.18
601.196	52.22
601.532	52.27
601.869	52.31
602.205	52.36
602.542	52.4
602.878	52.43
603.215	52.45
603.551	52.49
603.887	52.53
604.223	52.57
604.56	52.61
604.896	52.64
605.232	52.68
605.568	52.7
605.904	52.73
606.24	52.75
606.576	52.77
606.912	52.81
607.248	52.83
607.583	52.85
607.919	52.88
608.255	52.9
608.591	52.94
608.926	52.97
609.262	53
609.597	53.01
609.933	53.03
610.268	53.07
610.604	53.08
610.939	53.1
611.275	53.11
611.61	53.12
611.945	53.12
612.281	53.14
612.616	53.14
612.951	53.17
613.286	53.19
613.621	53.2
613.956	53.22
614.291	53.24
614.626	53.26
614.961	53.28
615.296	53.3
615.631	53.31
615.966	53.32
616.3	53.34
616.635	53.37
616.97	53.4
617.304	53.41
617.639	53.43
617.973	53.44
618.308	53.47
618.642	53.49
618.977	53.5
619.311	53.53
619.646	53.56
619.98	53.6
620.314	53.64
620.648	53.68
620.983	53.71
621.317	53.75
621.651	53.78
621.985	53.81
622.319	53.84
622.653	53.86
622.987	53.88
623.321	53.9
623.655	53.92
623.988	53.93
624.322	53.97
624.656	53.99
624.99	54.01
625.323	54.03
625.657	54.04
625.99	54.08
626.324	54.12
626.657	54.15
626.991	54.18
627.324	54.2
627.658	54.24
627.991	54.25
628.324	54.28
628.657	54.3
628.991	54.33
629.324	54.36
629.657	54.39
629.99	54.41
630.323	54.43
630.656	54.45
630.989	54.48
631.322	54.51
631.655	54.51
631.987	54.54
632.32	54.56
632.653	54.58
632.986	54.6
633.318	54.6
633.651	54.62
633.984	54.64
634.316	54.67
634.649	54.68
634.981	54.71
635.313	54.72
635.646	54.74
635.978	54.75
636.31	54.77
636.643	54.79
636.975	54.8
637.307	54.82
637.639	54.85
637.971	54.86
638.303	54.88
638.635	54.9
638.967	54.94
639.299	54.96
639.631	54.98
639.963	54.99
640.295	55.01
640.626	55.03
640.958	55.05
641.29	55.06
641.621	55.08
641.953	55.09
642.285	55.12
642.616	55.15
642.948	55.17
643.279	55.19
643.61	55.2
643.942	55.22
644.273	55.23
644.604	55.24
644.936	55.25
645.267	55.28
645.598	55.29
645.929	55.3
646.26	55.32
646.591	55.34
646.922	55.39
647.253	55.39
647.584	55.4
647.915	55.42
648.245	55.45
648.576	55.46
648.907	55.48
649.238	55.5
649.568	55.53
649.899	55.54
650.229	55.56
650.56	55.6
650.89	55.62
651.221	55.64
651.551	55.67
651.882	55.69
652.212	55.72
652.542	55.72
652.872	55.73
653.203	55.76
653.533	55.79
653.863	55.81
654.193	55.82
654.523	55.84
654.853	55.85
655.183	55.87
655.513	55.89
655.843	55.9
656.172	55.91
656.502	55.93
656.832	55.93
657.162	55.95
657.491	55.97
657.821	55.99
658.15	56.02
658.48	56.05
658.809	56.05
659.139	56.08
659.468	56.11
659.798	56.13
660.127	56.15
660.456	56.17
660.785	56.19
661.115	56.23
661.444	56.24
661.773	56.25
662.102	56.27
662.431	56.28
662.76	56.29
663.089	56.3
663.418	56.31
663.747	56.32
664.076	56.31
664.404	56.33
664.733	56.37
665.062	56.38
665.39	56.4
665.719	56.4
666.048	56.39
666.376	56.41
666.705	56.39
667.033	56.4
667.362	56.41
667.69	56.43
668.018	56.44
668.347	56.47
668.675	56.47
669.003	56.49
669.331	56.51
669.659	56.52
