Data from UWBM104549_Reflection_00015.txt Node
Date: Sun May 02 12:26:18 EDT 2021
User: vgr7
Spectrometer: USB2G7710
Scans to average: 10
Trigger mode: 4
Integration Time (sec): 1.000000E-1
Electric dark correction enabled: true
Boxcar width: 10
XAxis mode: Wavelengths
Number of Pixels in Spectrum: 2048
>>>>>Begin Spectral Data<<<<<
177.721	-258
178.105	51.43
178.488	-14.6
178.871	116.33
179.254	12.1
179.636	-18.54
180.019	975
180.402	144.44
180.785	49.04
181.168	0.84
181.55	4.57
181.933	30.98
182.316	93.16
182.698	144.77
183.081	95.93
183.463	26.61
183.846	69.46
184.228	28.93
184.611	24.35
184.993	19.45
185.376	32.86
185.758	31.95
186.14	21.69
186.522	35.18
186.904	17.6
187.287	13.09
187.669	11.6
188.051	12.26
188.433	14.77
188.815	13.25
189.197	17.82
189.579	15.73
189.961	11.04
190.342	7.51
190.724	13.01
191.106	13.59
191.488	21.89
191.869	18.41
192.251	16.76
192.633	9.13
193.014	11.97
193.396	11.96
193.777	13.11
194.159	8.5
194.54	-0.71
194.922	2.97
195.303	9.65
195.684	9.59
196.065	6.89
196.447	1.56
196.828	-4.82
197.209	-10.36
197.59	-10.84
197.971	-9.22
198.352	-5.75
198.733	-3.97
199.114	-6.01
199.495	-7.17
199.876	-9.55
200.257	-5.37
200.638	-1.65
201.018	-8.87
201.399	-14.28
201.78	-15.48
202.16	-11.41
202.541	-10.68
202.922	-9.8
203.302	-15.06
203.683	-14.19
204.063	-17.1
204.444	-11.65
204.824	-6.3
205.204	-5.16
205.585	-5.02
205.965	-8
206.345	-5.99
206.725	-11.03
207.106	-8.78
207.486	-10.37
207.866	-6.65
208.246	-7.53
208.626	-4.68
209.006	-0.62
209.386	0.09
209.766	-2.08
210.145	-1.78
210.525	-3.19
210.905	-2.51
211.285	1.12
211.664	-0.32
212.044	2.14
212.424	5.66
212.803	6.71
213.183	10.35
213.562	11.78
213.942	13.35
214.321	11.2
214.701	7.86
215.08	11.42
215.459	9.84
215.838	8.29
216.218	11.91
216.597	13.97
216.976	10.05
217.355	13.93
217.734	13.48
218.113	11.26
218.492	13.91
218.871	14.12
219.25	14.15
219.629	11.28
220.008	14.93
220.387	8.85
220.766	3.31
221.144	4.78
221.523	9.21
221.902	8.05
222.28	9.56
222.659	12.45
223.037	12
223.416	13.53
223.794	14.13
224.173	10.92
224.551	6.15
224.929	5.22
225.308	4.19
225.686	3.81
226.064	5.61
226.442	6.56
226.821	6.13
227.199	5.8
227.577	5.44
227.955	4.49
228.333	5.26
228.711	5.99
229.089	6.09
229.467	5.05
229.845	5.71
230.222	4.51
230.6	5.06
230.978	5.4
231.356	4.69
231.733	3.86
232.111	3.92
232.488	4.61
232.866	4.29
233.243	4.08
233.621	5.03
233.998	4.49
234.376	4.5
234.753	5.23
235.13	5.66
235.508	6.71
235.885	6.81
236.262	7.31
236.639	7.63
237.016	7.45
237.393	7.22
237.77	6.96
238.147	7.02
238.524	6.94
238.901	6.67
239.278	6.48
239.655	6.6
240.032	6.58
240.409	6.4
240.785	6.37
241.162	6.49
241.539	6.38
241.915	6.35
242.292	6.27
242.668	6.14
243.045	5.99
243.421	5.75
243.798	5.74
244.174	5.72
244.551	5.69
244.927	5.61
245.303	5.53
245.679	5.59
246.056	5.57
246.432	5.49
246.808	5.39
247.184	5.35
247.56	5.37
247.936	5.39
248.312	5.42
248.688	5.55
249.064	5.49
249.44	5.49
249.815	5.45
250.191	5.44
250.567	5.38
250.943	5.36
251.318	5.46
251.694	5.4
252.069	5.28
252.445	5.33
252.82	5.33
253.196	5.39
253.571	5.35
253.947	5.4
254.322	5.39
254.697	5.52
255.073	5.51
255.448	5.47
255.823	5.35
256.198	5.2
256.573	5.01
256.948	4.98
257.323	4.98
257.698	5
258.073	4.97
258.448	4.96
258.823	4.95
259.198	4.91
259.573	4.9
259.948	4.93
260.322	4.87
260.697	4.82
261.072	4.8
261.446	4.75
261.821	4.73
262.195	4.68
262.57	4.65
262.944	4.62
263.319	4.63
263.693	4.68
264.067	4.7
264.442	4.73
264.816	4.76
265.19	4.73
265.564	4.7
265.938	4.67
266.313	4.63
266.687	4.56
267.061	4.55
267.435	4.58
267.809	4.58
268.183	4.6
268.556	4.64
268.93	4.65
269.304	4.62
269.678	4.58
270.051	4.63
270.425	4.59
270.799	4.63
271.172	4.61
271.546	4.57
271.919	4.59
272.293	4.56
272.666	4.5
273.04	4.48
273.413	4.44
273.787	4.43
274.16	4.46
274.533	4.49
274.906	4.45
275.279	4.46
275.653	4.44
276.026	4.4
276.399	4.38
276.772	4.37
277.145	4.41
277.518	4.42
277.891	4.43
278.263	4.44
278.636	4.48
279.009	4.49
279.382	4.47
279.755	4.45
280.127	4.52
280.5	4.54
280.872	4.5
281.245	4.55
281.617	4.57
281.99	4.55
282.362	4.55
282.735	4.58
283.107	4.53
283.479	4.54
283.852	4.52
284.224	4.55
284.596	4.54
284.968	4.57
285.34	4.59
285.713	4.64
286.085	4.63
286.457	4.63
286.829	4.6
287.201	4.62
287.572	4.64
287.944	4.65
288.316	4.69
288.688	4.79
289.06	4.8
289.431	4.81
289.803	4.84
290.175	4.86
290.546	4.88
290.918	4.91
291.289	4.9
291.661	4.95
292.032	4.91
292.403	4.97
292.775	4.97
293.146	4.93
293.517	4.88
293.889	4.94
294.26	4.93
294.631	4.95
295.002	4.98
295.373	5.03
295.744	5.05
296.115	5.07
296.486	5.03
296.857	5.03
297.228	5.08
297.599	5.1
297.97	5.14
298.34	5.17
298.711	5.19
299.082	5.2
299.452	5.21
299.823	5.26
300.194	5.27
300.564	5.28
300.935	5.35
301.305	5.37
301.676	5.36
302.046	5.38
302.416	5.42
302.787	5.46
303.157	5.46
303.527	5.48
303.897	5.49
304.267	5.54
304.637	5.61
305.008	5.6
305.378	5.64
305.748	5.65
306.117	5.7
306.487	5.72
306.857	5.78
307.227	5.81
307.597	5.85
307.967	5.86
308.336	5.88
308.706	5.92
309.076	5.96
309.445	6
309.815	5.99
310.184	6.01
310.554	6.05
310.923	6.03
311.293	6.06
311.662	6.06
312.031	6.06
312.401	6.07
312.77	6.1
313.139	6.11
313.508	6.08
313.877	6.1
314.246	6.11
314.616	6.16
314.985	6.2
315.353	6.24
315.722	6.31
316.091	6.38
316.46	6.39
316.829	6.47
317.198	6.53
317.567	6.64
317.935	6.66
318.304	6.7
318.672	6.78
319.041	6.78
319.41	6.85
319.778	6.92
320.147	6.97
320.515	7.04
320.883	7.09
321.252	7.16
321.62	7.16
321.988	7.26
322.357	7.26
322.725	7.29
323.093	7.31
323.461	7.31
323.829	7.31
324.197	7.34
324.565	7.38
324.933	7.4
325.301	7.43
325.669	7.46
326.037	7.5
326.405	7.54
326.772	7.56
327.14	7.53
327.508	7.54
327.875	7.61
328.243	7.64
328.61	7.67
328.978	7.77
329.346	7.79
329.713	7.79
330.08	7.84
330.448	7.85
330.815	7.87
331.182	7.88
331.55	7.91
331.917	7.91
332.284	7.91
332.651	7.97
333.018	7.99
333.385	8.03
333.752	8.07
334.119	8.1
334.486	8.16
334.853	8.26
335.22	8.3
335.587	8.28
335.954	8.31
336.32	8.35
336.687	8.34
337.054	8.38
337.42	8.43
337.787	8.43
338.153	8.5
338.52	8.56
338.886	8.64
339.253	8.66
339.619	8.74
339.986	8.78
340.352	8.8
340.718	8.84
341.084	8.87
341.451	8.87
341.817	8.9
342.183	8.95
342.549	8.97
342.915	8.97
343.281	9.03
343.647	9.06
344.013	9.07
344.379	9.11
344.745	9.12
345.11	9.17
345.476	9.25
345.842	9.3
346.208	9.31
346.573	9.34
346.939	9.4
347.304	9.41
347.67	9.45
348.035	9.48
348.401	9.48
348.766	9.51
349.132	9.56
349.497	9.62
349.862	9.63
350.228	9.67
350.593	9.73
350.958	9.75
351.323	9.77
351.688	9.82
352.053	9.84
352.418	9.89
352.783	9.9
353.148	9.91
353.513	9.89
353.878	9.91
354.243	9.91
354.608	9.93
354.972	9.94
355.337	9.98
355.702	9.95
356.066	9.96
356.431	9.97
356.795	9.97
357.16	9.94
357.524	9.93
357.889	9.92
358.253	9.92
358.618	9.92
358.982	9.95
359.346	9.93
359.71	9.92
360.075	9.91
360.439	9.9
360.803	9.87
361.167	9.87
361.531	9.88
361.895	9.87
362.259	9.85
362.623	9.86
362.987	9.85
363.351	9.89
363.714	9.91
364.078	9.89
364.442	9.88
364.806	9.88
365.169	9.9
365.533	9.88
365.896	9.89
366.26	9.88
366.623	9.85
366.987	9.84
367.35	9.83
367.714	9.84
368.077	9.83
368.44	9.83
368.803	9.82
369.167	9.8
369.53	9.79
369.893	9.78
370.256	9.75
370.619	9.73
370.982	9.67
371.345	9.63
371.708	9.62
372.071	9.59
372.434	9.56
372.797	9.51
373.159	9.49
373.522	9.44
373.885	9.4
374.247	9.37
374.61	9.33
374.973	9.29
375.335	9.24
375.698	9.2
376.06	9.17
376.423	9.15
376.785	9.11
377.147	9.07
377.51	9.05
377.872	8.99
378.234	8.93
378.596	8.9
378.958	8.86
379.321	8.83
379.683	8.8
380.045	8.76
380.407	8.72
380.769	8.69
381.13	8.66
381.492	8.61
381.854	8.57
382.216	8.55
382.578	8.52
382.939	8.5
383.301	8.44
383.663	8.41
384.024	8.36
384.386	8.34
384.747	8.3
385.109	8.28
385.47	8.26
385.832	8.25
386.193	8.21
386.554	8.18
386.916	8.15
387.277	8.1
387.638	8.08
387.999	8.06
388.36	8.03
388.721	8
389.082	7.98
389.443	7.95
389.804	7.91
390.165	7.87
390.526	7.84
390.887	7.81
391.248	7.8
391.609	7.78
391.969	7.74
392.33	7.72
392.691	7.68
393.051	7.66
393.412	7.62
393.772	7.59
394.133	7.56
394.493	7.53
394.854	7.51
395.214	7.46
395.574	7.43
395.935	7.39
396.295	7.34
396.655	7.3
397.015	7.25
397.376	7.22
397.736	7.2
398.096	7.15
398.456	7.11
398.816	7.06
399.176	7
399.535	6.98
399.895	6.94
400.255	6.9
400.615	6.85
400.975	6.82
401.334	6.78
401.694	6.75
402.054	6.73
402.413	6.71
402.773	6.68
403.132	6.65
403.492	6.63
403.851	6.61
404.211	6.59
404.57	6.57
404.929	6.55
405.288	6.53
405.648	6.51
406.007	6.49
406.366	6.49
406.725	6.48
407.084	6.45
407.443	6.43
407.802	6.42
408.161	6.41
408.52	6.4
408.879	6.39
409.238	6.37
409.596	6.35
409.955	6.33
410.314	6.32
410.673	6.3
411.031	6.3
411.39	6.29
411.748	6.28
412.107	6.27
412.465	6.26
412.824	6.25
413.182	6.24
413.54	6.23
413.899	6.21
414.257	6.2
414.615	6.19
414.974	6.18
415.332	6.18
415.69	6.17
416.048	6.15
416.406	6.15
416.764	6.15
417.122	6.15
417.48	6.15
417.838	6.14
418.195	6.13
418.553	6.11
418.911	6.11
419.269	6.1
419.626	6.09
419.984	6.09
420.342	6.08
420.699	6.07
421.057	6.06
421.414	6.05
421.772	6.03
422.129	6.02
422.486	6.01
422.844	5.99
423.201	5.97
423.558	5.96
423.915	5.94
424.273	5.92
424.63	5.9
424.987	5.88
425.344	5.86
425.701	5.84
426.058	5.83
426.415	5.8
426.772	5.78
427.128	5.75
427.485	5.72
427.842	5.7
428.199	5.68
428.555	5.66
428.912	5.64
429.269	5.63
429.625	5.62
429.982	5.61
430.338	5.59
430.695	5.59
431.051	5.58
431.407	5.57
431.764	5.57
432.12	5.56
432.476	5.57
432.832	5.57
433.189	5.57
433.545	5.57
433.901	5.58
434.257	5.59
434.613	5.59
434.969	5.6
435.325	5.6
435.681	5.62
436.036	5.62
436.392	5.64
436.748	5.64
437.104	5.65
437.459	5.66
437.815	5.67
438.171	5.67
438.526	5.68
438.882	5.69
439.237	5.7
439.593	5.71
439.948	5.71
440.304	5.72
440.659	5.72
441.014	5.72
441.369	5.73
441.725	5.72
442.08	5.73
442.435	5.73
442.79	5.73
443.145	5.73
443.5	5.73
443.855	5.72
444.21	5.72
444.565	5.71
444.92	5.71
445.275	5.7
445.629	5.69
445.984	5.69
446.339	5.68
446.693	5.67
447.048	5.66
447.403	5.65
447.757	5.64
448.112	5.63
448.466	5.62
448.82	5.61
449.175	5.6
449.529	5.58
449.883	5.57
450.238	5.55
450.592	5.53
450.946	5.52
451.3	5.51
451.654	5.49
452.008	5.48
452.362	5.46
452.716	5.45
453.07	5.44
453.424	5.43
453.778	5.42
454.132	5.41
454.486	5.41
454.839	5.41
455.193	5.4
455.547	5.39
455.9	5.4
456.254	5.4
456.607	5.4
456.961	5.41
457.314	5.42
457.668	5.42
458.021	5.43
458.375	5.43
458.728	5.44
459.081	5.45
459.434	5.45
459.787	5.45
460.141	5.46
460.494	5.46
460.847	5.47
461.2	5.46
461.553	5.47
461.906	5.48
462.259	5.48
462.611	5.48
462.964	5.5
463.317	5.5
463.67	5.5
464.022	5.51
464.375	5.52
464.728	5.53
465.08	5.54
465.433	5.55
465.785	5.56
466.138	5.57
466.49	5.57
466.843	5.58
467.195	5.6
467.547	5.62
467.899	5.63
468.252	5.65
468.604	5.67
468.956	5.68
469.308	5.7
469.66	5.71
470.012	5.73
470.364	5.75
470.716	5.77
471.068	5.79
471.42	5.8
471.772	5.82
472.123	5.83
472.475	5.85
472.827	5.87
473.178	5.88
473.53	5.89
473.882	5.9
474.233	5.92
474.585	5.94
474.936	5.95
475.288	5.96
475.639	5.97
475.99	5.98
476.342	5.99
476.693	5.99
477.044	5.99
477.395	5.99
477.746	5.99
478.097	5.99
478.448	6.02
478.8	6.12
479.15	6.27
479.501	6.44
479.852	6.64
480.203	6.86
480.554	7.09
480.905	7.32
481.255	7.55
481.606	7.76
481.957	7.98
482.307	8.2
482.658	8.38
483.009	8.54
483.359	8.67
483.709	8.78
484.06	8.9
484.41	9.01
484.761	9.1
485.111	9.2
485.461	9.3
485.811	9.38
486.162	9.41
486.512	9.38
486.862	9.33
487.212	9.25
487.562	9.13
487.912	9
488.262	8.84
488.612	8.68
488.961	8.51
489.311	8.33
489.661	8.14
490.011	7.95
490.36	7.76
490.71	7.57
491.06	7.37
491.409	7.17
491.759	7.01
492.108	6.89
492.458	6.78
492.807	6.68
493.157	6.59
493.506	6.5
493.855	6.42
494.204	6.34
494.554	6.27
494.903	6.21
495.252	6.16
495.601	6.12
495.95	6.09
496.299	6.06
496.648	6.03
496.997	6.02
497.346	6.03
497.695	6.07
498.043	6.16
498.392	6.27
498.741	6.4
499.09	6.49
499.438	6.56
499.787	6.62
500.135	6.68
500.484	6.75
500.832	6.83
501.181	6.9
501.529	6.98
501.878	7.05
502.226	7.13
502.574	7.21
502.923	7.3
503.271	7.39
503.619	7.49
503.967	7.6
504.315	7.71
504.663	7.82
505.011	7.94
505.359	8.05
505.707	8.15
506.055	8.27
506.403	8.4
506.751	8.53
507.098	8.66
507.446	8.78
507.794	8.91
508.141	9.03
508.489	9.16
508.837	9.29
509.184	9.43
509.531	9.57
509.879	9.7
510.226	9.84
510.574	9.98
510.921	10.11
511.268	10.25
511.616	10.39
511.963	10.53
512.31	10.68
512.657	10.83
513.004	10.99
513.351	11.16
513.698	11.33
514.045	11.5
514.392	11.67
514.739	11.86
515.086	12.04
515.432	12.23
515.779	12.41
516.126	12.58
516.473	12.74
516.819	12.91
517.166	13.07
517.512	13.22
517.859	13.37
518.205	13.52
518.552	13.66
518.898	13.8
519.245	13.95
519.591	14.09
519.937	14.24
520.283	14.39
520.629	14.54
520.976	14.71
521.322	14.89
521.668	15.07
522.014	15.24
522.36	15.43
522.706	15.63
523.052	15.89
523.398	16.26
523.743	16.75
524.089	17.29
524.435	17.87
524.781	18.47
525.126	19.08
525.472	19.67
525.817	20.26
526.163	20.8
526.509	21.3
526.854	21.73
527.199	22.09
527.545	22.38
527.89	22.61
528.235	22.85
528.581	23.07
528.926	23.29
529.271	23.52
529.616	23.74
529.961	23.95
530.306	24.14
530.651	24.23
530.996	24.22
531.341	24.16
531.686	24.03
532.031	23.82
532.376	23.55
532.721	23.21
533.065	22.87
533.41	22.61
533.755	22.37
534.099	22.2
534.444	22.14
534.788	22.15
535.133	22.2
535.477	22.27
535.822	22.37
536.166	22.49
536.51	22.63
536.855	22.82
537.199	23.04
537.543	23.29
537.887	23.6
538.231	23.92
538.576	24.26
538.92	24.63
539.264	25.04
539.608	25.45
539.951	25.86
540.295	26.24
540.639	26.51
540.983	26.74
541.327	26.92
541.671	27.1
542.014	27.32
542.358	27.53
542.701	27.74
543.045	27.94
543.389	28.13
543.732	28.32
544.075	28.5
544.419	28.67
544.762	28.8
545.105	28.91
545.449	29.01
545.792	29.07
546.135	29.14
546.478	29.22
546.821	29.37
547.165	29.57
547.508	29.84
547.851	30.14
548.194	30.52
548.536	30.93
548.879	31.23
549.222	31.48
549.565	31.73
549.908	31.98
550.25	32.23
550.593	32.48
550.936	32.72
551.278	32.96
551.621	33.2
551.963	33.47
552.306	33.73
552.648	33.96
552.991	34.22
553.333	34.45
553.675	34.69
554.017	34.93
554.36	35.18
554.702	35.41
555.044	35.64
555.386	35.86
555.728	36.08
556.07	36.31
556.412	36.52
556.754	36.74
557.096	36.98
557.438	37.2
557.78	37.44
558.121	37.7
558.463	37.94
558.805	38.18
559.147	38.39
559.488	38.62
559.83	38.85
560.171	39.06
560.513	39.3
560.854	39.53
561.196	39.75
561.537	39.95
561.878	40.19
562.22	40.43
562.561	40.64
562.902	40.87
563.243	41.09
563.584	41.31
563.925	41.55
564.266	41.73
564.607	41.92
564.948	42.11
565.289	42.28
565.63	42.44
565.971	42.64
566.312	42.81
566.653	43
566.993	43.16
567.334	43.33
567.675	43.5
568.015	43.67
568.356	43.84
568.696	44.02
569.037	44.19
569.377	44.35
569.718	44.5
570.058	44.65
570.398	44.79
570.739	44.93
571.079	45.06
571.419	45.21
571.759	45.36
572.099	45.49
572.439	45.61
572.779	45.74
573.119	45.86
573.459	45.97
573.799	46.08
574.139	46.19
574.479	46.28
574.819	46.38
575.158	46.48
575.498	46.55
575.838	46.63
576.177	46.7
576.517	46.77
576.856	46.84
577.196	46.93
577.535	47
577.875	47.09
578.214	47.16
578.553	47.23
578.893	47.3
579.232	47.39
579.571	47.47
579.91	47.53
580.25	47.59
580.589	47.69
580.928	47.75
581.267	47.83
581.606	47.95
581.945	48.03
582.283	48.11
582.622	48.2
582.961	48.31
583.3	48.4
583.639	48.48
583.977	48.6
584.316	48.71
584.654	48.83
584.993	48.92
585.332	49.01
585.67	49.13
586.008	49.22
586.347	49.3
586.685	49.42
587.024	49.52
587.362	49.61
587.7	49.69
588.038	49.77
588.376	49.85
588.715	49.93
589.053	50.02
589.391	50.1
589.729	50.16
590.067	50.21
590.404	50.29
590.742	50.38
591.08	50.47
591.418	50.54
591.756	50.62
592.093	50.7
592.431	50.79
592.769	50.85
593.106	50.93
593.444	51.01
593.781	51.1
594.119	51.18
594.456	51.26
594.793	51.33
595.131	51.42
595.468	51.5
595.805	51.55
596.143	51.58
596.48	51.65
596.817	51.7
597.154	51.77
597.491	51.8
597.828	51.83
598.165	51.84
598.502	51.86
598.839	51.91
599.176	51.96
599.512	52
599.849	52.06
600.186	52.14
600.523	52.19
600.859	52.24
601.196	52.29
601.532	52.35
601.869	52.39
602.205	52.42
602.542	52.48
602.878	52.53
603.215	52.61
603.551	52.64
603.887	52.7
604.223	52.74
604.56	52.8
604.896	52.88
605.232	52.94
605.568	53
605.904	53.03
606.24	53.07
606.576	53.11
606.912	53.14
607.248	53.16
607.583	53.21
607.919	53.22
608.255	53.24
608.591	53.28
608.926	53.3
609.262	53.31
609.597	53.32
609.933	53.35
610.268	53.33
610.604	53.35
610.939	53.34
611.275	53.35
611.61	53.36
611.945	53.36
612.281	53.39
612.616	53.4
612.951	53.4
613.286	53.43
613.621	53.46
613.956	53.51
614.291	53.54
614.626	53.54
614.961	53.55
615.296	53.57
615.631	53.58
615.966	53.6
616.3	53.67
616.635	53.69
616.97	53.71
617.304	53.77
617.639	53.85
617.973	53.9
618.308	53.96
618.642	54
618.977	53.99
619.311	54
619.646	54.05
619.98	54.1
620.314	54.14
620.648	54.17
620.983	54.19
621.317	54.2
621.651	54.23
621.985	54.27
622.319	54.32
622.653	54.36
622.987	54.41
623.321	54.41
623.655	54.46
623.988	54.53
624.322	54.56
624.656	54.57
624.99	54.6
625.323	54.61
625.657	54.64
625.99	54.7
626.324	54.76
626.657	54.77
626.991	54.82
627.324	54.82
627.658	54.83
627.991	54.82
628.324	54.84
628.657	54.84
628.991	54.86
629.324	54.9
629.657	54.91
629.99	54.9
630.323	54.94
630.656	54.93
630.989	54.95
631.322	54.99
631.655	54.99
631.987	55.02
632.32	55.05
632.653	55.06
632.986	55.06
633.318	55.09
633.651	55.1
633.984	55.11
634.316	55.11
634.649	55.15
634.981	55.18
635.313	55.22
635.646	55.24
635.978	55.27
636.31	55.29
636.643	55.31
636.975	55.35
637.307	55.36
637.639	55.4
637.971	55.41
638.303	55.38
638.635	55.44
638.967	55.47
639.299	55.5
639.631	55.52
639.963	55.56
640.295	55.57
640.626	55.56
640.958	55.56
641.29	55.59
641.621	55.59
641.953	55.61
642.285	55.62
642.616	55.68
642.948	55.72
643.279	55.72
643.61	55.75
643.942	55.79
644.273	55.84
644.604	55.85
644.936	55.87
645.267	55.93
645.598	55.94
645.929	55.98
646.26	56.03
646.591	56.04
646.922	56.05
647.253	56.05
647.584	56.09
647.915	56.14
648.245	56.19
648.576	56.24
648.907	56.26
649.238	56.31
649.568	56.31
649.899	56.31
650.229	56.37
650.56	56.38
650.89	56.41
651.221	56.42
651.551	56.46
651.882	56.47
652.212	56.49
652.542	56.52
652.872	56.5
653.203	56.48
653.533	56.5
653.863	56.54
654.193	56.6
654.523	56.66
654.853	56.7
655.183	56.72
655.513	56.77
655.843	56.8
656.172	56.85
656.502	56.88
656.832	56.91
657.162	56.93
657.491	56.98
657.821	57
658.15	57.01
658.48	57.01
658.809	57.07
659.139	57.06
659.468	57.06
659.798	57.09
660.127	57.13
660.456	57.16
660.785	57.14
661.115	57.14
661.444	57.15
661.773	57.15
662.102	57.2
662.431	57.19
662.76	57.21
663.089	57.19
663.418	57.2
663.747	57.2
664.076	57.23
664.404	57.24
664.733	57.24
665.062	57.29
665.39	57.36
665.719	57.31
666.048	57.36
666.376	57.4
666.705	57.42
667.033	57.41
667.362	57.45
667.69	57.5
668.018	57.56
668.347	57.55
668.675	57.54
669.003	57.51
669.331	57.47
669.659	57.48
669.987	57.49
670.315	57.47
670.643	57.5
