Data from UWBM50074_Reflection_00012.txt Node
Date: Sun May 02 12:36:18 EDT 2021
User: vgr7
Spectrometer: USB2G7710
Scans to average: 10
Trigger mode: 4
Integration Time (sec): 1.000000E-1
Electric dark correction enabled: true
Boxcar width: 10
XAxis mode: Wavelengths
Number of Pixels in Spectrum: 2048
>>>>>Begin Spectral Data<<<<<
177.721	-90.78
178.105	-159.09
178.488	247.54
178.871	-18.87
179.254	172
179.636	79.23
180.019	154.96
180.402	57.89
180.785	15.06
181.168	-29.5
181.55	33.86
181.933	81.54
182.316	52
182.698	126.97
183.081	42.4
183.463	-264.56
183.846	-63.06
184.228	-109.42
184.611	-95.74
184.993	-36.56
185.376	-13.8
185.758	-10.28
186.14	-12.23
186.522	-9.02
186.904	-10.5
187.287	-8.18
187.669	-6.7
188.051	-9.01
188.433	-3.57
188.815	-3.45
189.197	1.84
189.579	-1.5
189.961	3.17
190.342	-0.15
190.724	5.98
191.106	6.05
191.488	14.2
191.869	12.14
192.251	15.43
192.633	15.36
193.014	10.31
193.396	8.99
193.777	5.02
194.159	5.27
194.54	6.25
194.922	7.94
195.303	12.13
195.684	9.48
196.065	7.82
196.447	7.62
196.828	8.11
197.209	4.66
197.59	5.51
197.971	0.97
198.352	6.22
198.733	9.5
199.114	10.35
199.495	7.01
199.876	7.09
200.257	5.56
200.638	7.49
201.018	10.62
201.399	10.46
201.78	12.6
202.16	12.26
202.541	13.78
202.922	12.63
203.302	7.54
203.683	11.41
204.063	11.55
204.444	11.19
204.824	14.46
205.204	17.44
205.585	15.44
205.965	15.89
206.345	16.37
206.725	11.84
207.106	9.98
207.486	12.76
207.866	16.99
208.246	16.99
208.626	19.09
209.006	16.97
209.386	16.09
209.766	15.51
210.145	15.25
210.525	12.11
210.905	14.52
211.285	15.03
211.664	11.71
212.044	12.49
212.424	14.64
212.803	12.6
213.183	12.37
213.562	13.08
213.942	12.94
214.321	11.95
214.701	10.07
215.08	10.96
215.459	7.9
215.838	4.42
216.218	6.45
216.597	4
216.976	2.06
217.355	5.35
217.734	6.9
218.113	7.96
218.492	9.19
218.871	8.36
219.25	8.26
219.629	9.71
220.008	8.92
220.387	7.39
220.766	5.78
221.144	5.31
221.523	8.27
221.902	9.85
222.28	9.56
222.659	11.63
223.037	11.56
223.416	12.94
223.794	14.44
224.173	13.25
224.551	12.61
224.929	12.64
225.308	12.48
225.686	10.77
226.064	10.05
226.442	9.13
226.821	9.17
227.199	8.27
227.577	8.23
227.955	8.18
228.333	8.21
228.711	8.06
229.089	8.22
229.467	7.82
229.845	7.22
230.222	6.99
230.6	6.83
230.978	6.98
231.356	6.43
231.733	6.33
232.111	6.76
232.488	6.47
232.866	6.57
233.243	5.81
233.621	6.48
233.998	6.42
234.376	6.71
234.753	7.1
235.13	7.4
235.508	7.75
235.885	7.79
236.262	7.58
236.639	7.98
237.016	7.43
237.393	7.18
237.77	6.99
238.147	6.74
238.524	6.64
238.901	6.37
239.278	6.22
239.655	5.95
240.032	5.77
240.409	5.8
240.785	5.62
241.162	5.65
241.539	5.44
241.915	5.43
242.292	5.39
242.668	5.29
243.045	5.25
243.421	5.07
243.798	4.98
244.174	4.9
244.551	4.71
244.927	4.68
245.303	4.58
245.679	4.6
246.056	4.59
246.432	4.54
246.808	4.52
247.184	4.48
247.56	4.48
247.936	4.51
248.312	4.47
248.688	4.53
249.064	4.46
249.44	4.47
249.815	4.47
250.191	4.41
250.567	4.34
250.943	4.34
251.318	4.33
251.694	4.31
252.069	4.31
252.445	4.4
252.82	4.37
253.196	4.42
253.571	4.37
253.947	4.43
254.322	4.43
254.697	4.44
255.073	4.44
255.448	4.4
255.823	4.23
256.198	4.2
256.573	4.09
256.948	4.03
257.323	4.03
257.698	4
258.073	4
258.448	4
258.823	3.98
259.198	3.97
259.573	3.97
259.948	3.98
260.322	3.96
260.697	3.98
261.072	3.97
261.446	3.97
261.821	3.97
262.195	3.96
262.57	3.95
262.944	3.93
263.319	3.95
263.693	4.01
264.067	3.99
264.442	4.02
264.816	4.05
265.19	4.02
265.564	4.02
265.938	3.97
266.313	3.92
266.687	3.84
267.061	3.86
267.435	3.84
267.809	3.82
268.183	3.79
268.556	3.81
268.93	3.83
269.304	3.8
269.678	3.72
270.051	3.71
270.425	3.68
270.799	3.74
271.172	3.7
271.546	3.66
271.919	3.71
272.293	3.69
272.666	3.7
273.04	3.73
273.413	3.7
273.787	3.73
274.16	3.76
274.533	3.82
274.906	3.8
275.279	3.86
275.653	3.85
276.026	3.82
276.399	3.79
276.772	3.81
277.145	3.85
277.518	3.89
277.891	3.92
278.263	3.96
278.636	3.94
279.009	3.96
279.382	3.95
279.755	3.9
280.127	3.94
280.5	3.92
280.872	3.9
281.245	3.93
281.617	3.96
281.99	4
282.362	3.99
282.735	3.98
283.107	3.91
283.479	3.92
283.852	3.93
284.224	3.92
284.596	3.87
284.968	3.85
285.34	3.84
285.713	3.87
286.085	3.84
286.457	3.84
286.829	3.84
287.201	3.85
287.572	3.88
287.944	3.87
288.316	3.89
288.688	3.9
289.06	3.9
289.431	3.89
289.803	3.86
290.175	3.88
290.546	3.9
290.918	3.95
291.289	3.94
291.661	3.97
292.032	3.99
292.403	4.02
292.775	4.02
293.146	4.04
293.517	4.05
293.889	4.09
294.26	4.08
294.631	4.08
295.002	4.11
295.373	4.14
295.744	4.13
296.115	4.17
296.486	4.17
296.857	4.18
297.228	4.19
297.599	4.22
297.97	4.23
298.34	4.24
298.711	4.24
299.082	4.27
299.452	4.3
299.823	4.31
300.194	4.34
300.564	4.36
300.935	4.37
301.305	4.35
301.676	4.34
302.046	4.38
302.416	4.42
302.787	4.45
303.157	4.47
303.527	4.54
303.897	4.54
304.267	4.58
304.637	4.63
305.008	4.68
305.378	4.69
305.748	4.73
306.117	4.78
306.487	4.84
306.857	4.87
307.227	4.88
307.597	4.92
307.967	4.97
308.336	5.04
308.706	5.1
309.076	5.16
309.445	5.2
309.815	5.24
310.184	5.25
310.554	5.3
310.923	5.3
311.293	5.32
311.662	5.36
312.031	5.4
312.401	5.43
312.77	5.43
313.139	5.47
313.508	5.5
313.877	5.54
314.246	5.56
314.616	5.6
314.985	5.65
315.353	5.71
315.722	5.75
316.091	5.79
316.46	5.84
316.829	5.88
317.198	5.94
317.567	5.96
317.935	6.05
318.304	6.1
318.672	6.16
319.041	6.19
319.41	6.23
319.778	6.29
320.147	6.36
320.515	6.43
320.883	6.47
321.252	6.52
321.62	6.53
321.988	6.59
322.357	6.63
322.725	6.69
323.093	6.71
323.461	6.74
323.829	6.78
324.197	6.81
324.565	6.85
324.933	6.89
325.301	6.96
325.669	6.99
326.037	7.02
326.405	7.07
326.772	7.1
327.14	7.13
327.508	7.16
327.875	7.2
328.243	7.26
328.61	7.3
328.978	7.36
329.346	7.4
329.713	7.43
330.08	7.49
330.448	7.5
330.815	7.54
331.182	7.58
331.55	7.61
331.917	7.62
332.284	7.65
332.651	7.69
333.018	7.7
333.385	7.73
333.752	7.75
334.119	7.77
334.486	7.79
334.853	7.81
335.22	7.83
335.587	7.84
335.954	7.84
336.32	7.85
336.687	7.85
337.054	7.87
337.42	7.91
337.787	7.92
338.153	7.97
338.52	8.02
338.886	8.06
339.253	8.05
339.619	8.08
339.986	8.11
340.352	8.11
340.718	8.17
341.084	8.19
341.451	8.21
341.817	8.23
342.183	8.29
342.549	8.32
342.915	8.34
343.281	8.39
343.647	8.42
344.013	8.46
344.379	8.51
344.745	8.55
345.11	8.57
345.476	8.6
345.842	8.61
346.208	8.61
346.573	8.61
346.939	8.65
347.304	8.65
347.67	8.67
348.035	8.71
348.401	8.7
348.766	8.71
349.132	8.72
349.497	8.73
349.862	8.71
350.228	8.73
350.593	8.74
350.958	8.72
351.323	8.72
351.688	8.73
352.053	8.71
352.418	8.72
352.783	8.72
353.148	8.72
353.513	8.73
353.878	8.74
354.243	8.74
354.608	8.75
354.972	8.77
355.337	8.76
355.702	8.73
356.066	8.72
356.431	8.71
356.795	8.69
357.16	8.68
357.524	8.69
357.889	8.69
358.253	8.68
358.618	8.66
358.982	8.66
359.346	8.63
359.71	8.62
360.075	8.59
360.439	8.59
360.803	8.55
361.167	8.52
361.531	8.5
361.895	8.49
362.259	8.46
362.623	8.44
362.987	8.43
363.351	8.42
363.714	8.41
364.078	8.4
364.442	8.39
364.806	8.36
365.169	8.34
365.533	8.3
365.896	8.27
366.26	8.26
366.623	8.21
366.987	8.19
367.35	8.16
367.714	8.13
368.077	8.09
368.44	8.07
368.803	8.03
369.167	8
369.53	7.97
369.893	7.95
370.256	7.92
370.619	7.86
370.982	7.82
371.345	7.76
371.708	7.72
372.071	7.68
372.434	7.64
372.797	7.6
373.159	7.56
373.522	7.51
373.885	7.47
374.247	7.43
374.61	7.38
374.973	7.32
375.335	7.28
375.698	7.24
376.06	7.19
376.423	7.16
376.785	7.11
377.147	7.05
377.51	7
377.872	6.95
378.234	6.91
378.596	6.88
378.958	6.84
379.321	6.79
379.683	6.76
380.045	6.72
380.407	6.68
380.769	6.64
381.13	6.61
381.492	6.56
381.854	6.53
382.216	6.5
382.578	6.48
382.939	6.45
383.301	6.41
383.663	6.37
384.024	6.34
384.386	6.31
384.747	6.28
385.109	6.26
385.47	6.24
385.832	6.21
386.193	6.18
386.554	6.15
386.916	6.14
387.277	6.1
387.638	6.08
387.999	6.04
388.36	6.02
388.721	6
389.082	5.97
389.443	5.95
389.804	5.91
390.165	5.89
390.526	5.86
390.887	5.83
391.248	5.81
391.609	5.79
391.969	5.77
392.33	5.75
392.691	5.72
393.051	5.69
393.412	5.66
393.772	5.62
394.133	5.61
394.493	5.58
394.854	5.56
395.214	5.52
395.574	5.5
395.935	5.47
396.295	5.44
396.655	5.41
397.015	5.37
397.376	5.34
397.736	5.32
398.096	5.28
398.456	5.26
398.816	5.22
399.176	5.18
399.535	5.17
399.895	5.14
400.255	5.12
400.615	5.09
400.975	5.07
401.334	5.05
401.694	5.03
402.054	5.01
402.413	4.99
402.773	4.98
403.132	4.96
403.492	4.94
403.851	4.93
404.211	4.92
404.57	4.92
404.929	4.92
405.288	4.9
405.648	4.89
406.007	4.88
406.366	4.88
406.725	4.87
407.084	4.85
407.443	4.85
407.802	4.84
408.161	4.84
408.52	4.83
408.879	4.83
409.238	4.82
409.596	4.81
409.955	4.8
410.314	4.8
410.673	4.79
411.031	4.78
411.39	4.78
411.748	4.77
412.107	4.76
412.465	4.75
412.824	4.75
413.182	4.74
413.54	4.74
413.899	4.72
414.257	4.73
414.615	4.72
414.974	4.72
415.332	4.72
415.69	4.71
416.048	4.72
416.406	4.75
416.764	4.78
417.122	4.81
417.48	4.85
417.838	4.9
418.195	4.96
418.553	5
418.911	5.05
419.269	5.11
419.626	5.15
419.984	5.21
420.342	5.25
420.699	5.3
421.057	5.35
421.414	5.4
421.772	5.43
422.129	5.46
422.486	5.49
422.844	5.5
423.201	5.49
423.558	5.47
423.915	5.41
424.273	5.36
424.63	5.29
424.987	5.22
425.344	5.15
425.701	5.07
426.058	5.01
426.415	4.95
426.772	4.88
427.128	4.82
427.485	4.75
427.842	4.68
428.199	4.62
428.555	4.55
428.912	4.48
429.269	4.43
429.625	4.38
429.982	4.34
430.338	4.31
430.695	4.3
431.051	4.31
431.407	4.33
431.764	4.35
432.12	4.38
432.476	4.42
432.832	4.44
433.189	4.45
433.545	4.46
433.901	4.46
434.257	4.47
434.613	4.47
434.969	4.48
435.325	4.51
435.681	4.54
436.036	4.57
436.392	4.61
436.748	4.66
437.104	4.7
437.459	4.75
437.815	4.8
438.171	4.85
438.526	4.88
438.882	4.92
439.237	4.97
439.593	4.98
439.948	5
440.304	5.02
440.659	5.04
441.014	5.08
441.369	5.11
441.725	5.15
442.08	5.2
442.435	5.24
442.79	5.3
443.145	5.35
443.5	5.38
443.855	5.42
444.21	5.42
444.565	5.42
444.92	5.42
445.275	5.41
445.629	5.4
445.984	5.4
446.339	5.36
446.693	5.32
447.048	5.29
447.403	5.27
447.757	5.24
448.112	5.21
448.466	5.16
448.82	5.1
449.175	5.04
449.529	4.97
449.883	4.89
450.238	4.8
450.592	4.72
450.946	4.65
451.3	4.57
451.654	4.51
452.008	4.46
452.362	4.39
452.716	4.33
453.07	4.28
453.424	4.25
453.778	4.23
454.132	4.22
454.486	4.23
454.839	4.24
455.193	4.28
455.547	4.32
455.9	4.39
456.254	4.45
456.607	4.52
456.961	4.59
457.314	4.67
457.668	4.73
458.021	4.79
458.375	4.83
458.728	4.85
459.081	4.88
459.434	4.88
459.787	4.89
460.141	4.88
460.494	4.87
460.847	4.85
461.2	4.84
461.553	4.83
461.906	4.83
462.259	4.81
462.611	4.78
462.964	4.75
463.317	4.72
463.67	4.68
464.022	4.64
464.375	4.6
464.728	4.55
465.08	4.51
465.433	4.47
465.785	4.44
466.138	4.44
466.49	4.42
466.843	4.44
467.195	4.45
467.547	4.48
467.899	4.53
468.252	4.57
468.604	4.6
468.956	4.62
469.308	4.65
469.66	4.66
470.012	4.67
470.364	4.69
470.716	4.69
471.068	4.7
471.42	4.71
471.772	4.71
472.123	4.71
472.475	4.72
472.827	4.73
473.178	4.73
473.53	4.73
473.882	4.74
474.233	4.75
474.585	4.75
474.936	4.75
475.288	4.75
475.639	4.76
475.99	4.76
476.342	4.76
476.693	4.77
477.044	4.77
477.395	4.8
477.746	4.83
478.097	4.9
478.448	5.01
478.8	5.19
479.15	5.41
479.501	5.67
479.852	5.95
480.203	6.27
480.554	6.59
480.905	6.92
481.255	7.26
481.606	7.6
481.957	7.95
482.307	8.29
482.658	8.6
483.009	8.9
483.359	9.18
483.709	9.44
484.06	9.7
484.41	9.95
484.761	10.18
485.111	10.39
485.461	10.55
485.811	10.66
486.162	10.71
486.512	10.69
486.862	10.64
487.212	10.55
487.562	10.42
487.912	10.28
488.262	10.12
488.612	9.94
488.961	9.76
489.311	9.56
489.661	9.35
490.011	9.15
490.36	8.94
490.71	8.72
491.06	8.51
491.409	8.29
491.759	8.07
492.108	7.86
492.458	7.65
492.807	7.46
493.157	7.27
493.506	7.1
493.855	6.93
494.204	6.78
494.554	6.63
494.903	6.5
495.252	6.36
495.601	6.23
495.95	6.09
496.299	5.96
496.648	5.84
496.997	5.72
497.346	5.63
497.695	5.55
498.043	5.51
498.392	5.49
498.741	5.49
499.09	5.49
499.438	5.51
499.787	5.53
500.135	5.56
500.484	5.6
500.832	5.64
501.181	5.69
501.529	5.74
501.878	5.79
502.226	5.85
502.574	5.92
502.923	6
503.271	6.09
503.619	6.2
503.967	6.31
504.315	6.45
504.663	6.6
505.011	6.76
505.359	6.94
505.707	7.11
506.055	7.27
506.403	7.45
506.751	7.63
507.098	7.82
507.446	8.01
507.794	8.19
508.141	8.37
508.489	8.55
508.837	8.73
509.184	8.92
509.531	9.1
509.879	9.29
510.226	9.48
510.574	9.66
510.921	9.85
511.268	10.04
511.616	10.23
511.963	10.43
512.31	10.64
512.657	10.87
513.004	11.12
513.351	11.38
513.698	11.67
514.045	11.98
514.392	12.31
514.739	12.65
515.086	13.03
515.432	13.4
515.779	13.78
516.126	14.17
516.473	14.54
516.819	14.9
517.166	15.23
517.512	15.53
517.859	15.81
518.205	16.07
518.552	16.31
518.898	16.55
519.245	16.77
519.591	16.98
519.937	17.2
520.283	17.47
520.629	17.77
520.976	18.08
521.322	18.42
521.668	18.78
522.014	19.17
522.36	19.59
522.706	20.11
523.052	20.8
523.398	21.66
523.743	22.7
524.089	23.87
524.435	25.14
524.781	26.51
525.126	27.92
525.472	29.4
525.817	30.9
526.163	32.38
526.509	33.83
526.854	35.21
527.199	36.45
527.545	37.52
527.89	38.47
528.235	39.38
528.581	40.24
528.926	41.06
529.271	41.83
529.616	42.51
529.961	43.08
530.306	43.45
530.651	43.64
530.996	43.65
531.341	43.56
531.686	43.34
532.031	42.99
532.376	42.52
532.721	41.96
533.065	41.32
533.41	40.69
533.755	40.06
534.099	39.49
534.444	39
534.788	38.59
535.133	38.25
535.477	37.94
535.822	37.71
536.166	37.61
536.51	37.63
536.855	37.77
537.199	38.04
537.543	38.38
537.887	38.81
538.231	39.31
538.576	39.83
538.92	40.39
539.264	41.01
539.608	41.63
539.951	42.2
540.295	42.69
540.639	43.08
540.983	43.44
541.327	43.78
541.671	44.1
542.014	44.39
542.358	44.64
542.701	44.84
543.045	44.91
543.389	44.82
543.732	44.56
544.075	44.15
544.419	43.58
544.762	42.89
545.105	42.05
545.449	41.23
545.792	40.38
546.135	39.62
546.478	38.95
546.821	38.33
547.165	37.83
547.508	37.46
547.851	37.2
548.194	37.01
548.536	36.85
548.879	36.73
549.222	36.7
549.565	36.7
549.908	36.75
550.25	36.87
550.593	37.02
550.936	37.23
551.278	37.48
551.621	37.81
551.963	38.23
552.306	38.74
552.648	39.19
552.991	39.62
553.333	39.93
553.675	40.1
554.017	40.29
554.36	40.47
554.702	40.65
555.044	40.81
555.386	40.99
555.728	41.17
556.07	41.34
556.412	41.5
556.754	41.67
557.096	41.82
557.438	41.98
557.78	42.13
558.121	42.29
558.463	42.46
558.805	42.62
559.147	42.78
559.488	42.95
559.83	43.11
560.171	43.28
560.513	43.45
560.854	43.64
561.196	43.81
561.537	43.99
561.878	44.16
562.22	44.34
562.561	44.52
562.902	44.69
563.243	44.87
563.584	45.05
563.925	45.22
564.266	45.38
564.607	45.53
564.948	45.67
565.289	45.82
565.63	45.96
565.971	46.1
566.312	46.24
566.653	46.36
566.993	46.5
567.334	46.65
567.675	46.8
568.015	46.95
568.356	47.08
568.696	47.22
569.037	47.37
569.377	47.5
569.718	47.63
570.058	47.74
570.398	47.86
570.739	47.95
571.079	48.06
571.419	48.18
571.759	48.29
572.099	48.41
572.439	48.5
572.779	48.6
573.119	48.69
573.459	48.77
573.799	48.88
574.139	48.97
574.479	49.04
574.819	49.11
575.158	49.14
575.498	49.2
575.838	49.24
576.177	49.28
576.517	49.31
576.856	49.36
577.196	49.4
577.535	49.44
577.875	49.5
578.214	49.55
578.553	49.61
578.893	49.65
579.232	49.69
579.571	49.74
579.91	49.78
580.25	49.83
580.589	49.9
580.928	49.94
581.267	49.98
581.606	50.03
581.945	50.09
582.283	50.18
582.622	50.25
582.961	50.33
583.3	50.39
583.639	50.48
583.977	50.55
584.316	50.63
584.654	50.72
584.993	50.79
585.332	50.86
585.67	50.93
586.008	51.03
586.347	51.11
586.685	51.2
587.024	51.29
587.362	51.37
587.7	51.43
588.038	51.5
588.376	51.6
588.715	51.67
589.053	51.73
589.391	51.8
589.729	51.89
590.067	51.95
590.404	52.02
590.742	52.1
591.08	52.18
591.418	52.28
591.756	52.34
592.093	52.43
592.431	52.5
592.769	52.61
593.106	52.68
593.444	52.76
593.781	52.83
594.119	52.91
594.456	53.01
594.793	53.08
595.131	53.16
595.468	53.22
595.805	53.29
596.143	53.34
596.48	53.39
596.817	53.43
597.154	53.49
597.491	53.53
597.828	53.59
598.165	53.63
598.502	53.66
598.839	53.73
599.176	53.78
599.512	53.83
599.849	53.85
600.186	53.94
600.523	54.02
600.859	54.09
601.196	54.17
601.532	54.23
601.869	54.3
602.205	54.34
602.542	54.41
602.878	54.48
603.215	54.54
603.551	54.6
603.887	54.66
604.223	54.71
604.56	54.77
604.896	54.8
605.232	54.85
605.568	54.88
605.904	54.92
606.24	54.97
606.576	55
606.912	55.04
607.248	55.05
607.583	55.07
607.919	55.07
608.255	55.09
608.591	55.08
608.926	55.08
609.262	55.09
609.597	55.1
609.933	55.09
610.268	55.13
610.604	55.14
610.939	55.13
611.275	55.13
611.61	55.15
611.945	55.15
612.281	55.15
612.616	55.2
612.951	55.19
613.286	55.18
613.621	55.17
613.956	55.16
614.291	55.16
614.626	55.19
614.961	55.21
615.296	55.22
615.631	55.25
615.966	55.28
616.3	55.32
616.635	55.32
616.97	55.33
617.304	55.32
617.639	55.33
617.973	55.37
618.308	55.42
618.642	55.44
618.977	55.47
619.311	55.5
619.646	55.5
619.98	55.52
620.314	55.57
620.648	55.63
620.983	55.68
621.317	55.71
621.651	55.72
621.985	55.74
622.319	55.79
622.653	55.82
622.987	55.88
623.321	55.93
623.655	55.97
623.988	56.04
624.322	56.09
624.656	56.11
624.99	56.17
625.323	56.22
625.657	56.26
625.99	56.29
626.324	56.33
626.657	56.37
626.991	56.42
627.324	56.44
627.658	56.47
627.991	56.47
628.324	56.5
628.657	56.51
628.991	56.54
629.324	56.57
629.657	56.59
629.99	56.6
630.323	56.6
630.656	56.65
630.989	56.64
631.322	56.67
631.655	56.72
631.987	56.73
632.32	56.74
632.653	56.73
632.986	56.75
633.318	56.77
633.651	56.75
633.984	56.78
634.316	56.8
634.649	56.81
634.981	56.84
635.313	56.86
635.646	56.9
635.978	56.92
636.31	56.91
636.643	56.92
636.975	56.94
637.307	56.97
637.639	56.96
637.971	57
638.303	57.02
638.635	57.04
638.967	57.03
639.299	57.03
639.631	57.07
639.963	57.08
640.295	57.12
640.626	57.15
640.958	57.17
641.29	57.2
641.621	57.21
641.953	57.26
642.285	57.27
642.616	57.29
642.948	57.29
643.279	57.31
643.61	57.33
643.942	57.33
644.273	57.34
644.604	57.36
644.936	57.36
645.267	57.39
645.598	57.4
645.929	57.42
646.26	57.44
646.591	57.46
646.922	57.5
647.253	57.53
647.584	57.57
647.915	57.57
648.245	57.58
648.576	57.62
648.907	57.63
649.238	57.64
649.568	57.67
649.899	57.72
650.229	57.75
650.56	57.78
650.89	57.8
651.221	57.86
651.551	57.89
651.882	57.95
652.212	57.98
652.542	57.96
652.872	58.01
653.203	58.07
653.533	58.1
653.863	58.14
654.193	58.15
654.523	58.16
654.853	58.21
655.183	58.26
655.513	58.27
655.843	58.32
656.172	58.33
656.502	58.35
656.832	58.37
657.162	58.42
657.491	58.47
657.821	58.49
658.15	58.49
658.48	58.5
658.809	58.5
659.139	58.49
659.468	58.54
659.798	58.53
660.127	58.52
660.456	58.53
660.785	58.56
661.115	58.57
661.444	58.59
661.773	58.61
662.102	58.59
662.431	58.58
662.76	58.56
663.089	58.6
663.418	58.6
663.747	58.62
664.076	58.61
664.404	58.58
664.733	58.62
665.062	58.63
665.39	58.62
665.719	58.64
666.048	58.68
666.376	58.71
666.705	58.73
667.033	58.75
667.362	58.76
667.69	58.74
668.018	58.74
668.347	58.74
668.675	58.77
669.003	58.78
669.331	58.79
669.659	58.81
669.987	58.81
670.315	58.84
