Data from UWBM109429_Reflection_00015.txt Node
Date: Sun May 02 13:55:36 EDT 2021
User: vgr7
Spectrometer: USB2G7710
Scans to average: 10
Trigger mode: 4
Integration Time (sec): 1.000000E-1
Electric dark correction enabled: true
Boxcar width: 20
XAxis mode: Wavelengths
Number of Pixels in Spectrum: 2048
>>>>>Begin Spectral Data<<<<<
177.721	84
178.105	101.68
178.488	90.25
178.871	103.69
179.254	86.49
179.636	71.97
180.019	63.69
180.402	58.99
180.785	51.61
181.168	46.43
181.55	41.92
181.933	39.92
182.316	35.43
182.698	36.39
183.081	38.46
183.463	35.77
183.846	34.93
184.228	37.25
184.611	35.57
184.993	35.67
185.376	34.62
185.758	34.91
186.14	34.97
186.522	35.91
186.904	36.48
187.287	36.56
187.669	37.2
188.051	34.3
188.433	31.28
188.815	29.13
189.197	29.5
189.579	31.29
189.961	30.34
190.342	30.2
190.724	30.17
191.106	29.59
191.488	29.99
191.869	27.55
192.251	26.67
192.633	27.05
193.014	25.57
193.396	24.22
193.777	25.36
194.159	25.32
194.54	24.49
194.922	23.67
195.303	22.5
195.684	21.61
196.065	21.59
196.447	21.9
196.828	21.71
197.209	21.9
197.59	20.51
197.971	21.4
198.352	21.29
198.733	20.99
199.114	21.52
199.495	22.16
199.876	20.19
200.257	20.55
200.638	20.31
201.018	22.5
201.399	22.39
201.78	20.7
202.16	20.75
202.541	20.71
202.922	20.28
203.302	19.37
203.683	19.95
204.063	21.46
204.444	20.99
204.824	21.94
205.204	20.98
205.585	21.08
205.965	21.87
206.345	21.66
206.725	22.95
207.106	23.61
207.486	23.77
207.866	25.55
208.246	23.88
208.626	24.37
209.006	24.79
209.386	22.91
209.766	21.69
210.145	21.69
210.525	22.15
210.905	23.1
211.285	22.19
211.664	22.03
212.044	22.15
212.424	21.29
212.803	21.23
213.183	21.45
213.562	21.39
213.942	21.12
214.321	20.35
214.701	19.98
215.08	19.56
215.459	19.45
215.838	18.82
216.218	17.94
216.597	14.97
216.976	16.07
217.355	16.44
217.734	16.6
218.113	16.28
218.492	14.54
218.871	14.63
219.25	14.78
219.629	14.17
220.008	13.96
220.387	11.65
220.766	12.83
221.144	12.87
221.523	12.27
221.902	12.2
222.28	11.17
222.659	10.51
223.037	10.09
223.416	9.76
223.794	10.11
224.173	9.67
224.551	9.14
224.929	10.12
225.308	9.8
225.686	8.79
226.064	8.83
226.442	8.67
226.821	9.13
227.199	9.46
227.577	9.51
227.955	10
228.333	9.69
228.711	9.58
229.089	9.08
229.467	8.6
229.845	8.38
230.222	8.34
230.6	8.41
230.978	8.5
231.356	8.64
231.733	8.56
232.111	8.47
232.488	8.14
232.866	7.88
233.243	7.53
233.621	7.44
233.998	7.59
234.376	7.43
234.753	7.09
235.13	7.06
235.508	7.08
235.885	7.02
236.262	6.76
236.639	6.46
237.016	6.42
237.393	6.36
237.77	6.26
238.147	6.2
238.524	6.09
238.901	5.95
239.278	5.83
239.655	5.77
240.032	5.66
240.409	5.48
240.785	5.49
241.162	5.48
241.539	5.41
241.915	5.36
242.292	5.31
242.668	5.19
243.045	5.15
243.421	5.08
243.798	5.07
244.174	5.09
244.551	5.1
244.927	5.08
245.303	5.07
245.679	5.06
246.056	4.97
246.432	4.94
246.808	4.89
247.184	4.88
247.56	4.88
247.936	4.85
248.312	4.82
248.688	4.81
249.064	4.81
249.44	4.78
249.815	4.76
250.191	4.72
250.567	4.68
250.943	4.64
251.318	4.62
251.694	4.61
252.069	4.59
252.445	4.57
252.82	4.51
253.196	4.46
253.571	4.43
253.947	4.43
254.322	4.4
254.697	4.39
255.073	4.36
255.448	4.36
255.823	4.33
256.198	4.32
256.573	4.31
256.948	4.31
257.323	4.28
257.698	4.26
258.073	4.25
258.448	4.23
258.823	4.23
259.198	4.22
259.573	4.2
259.948	4.19
260.322	4.18
260.697	4.15
261.072	4.14
261.446	4.15
261.821	4.14
262.195	4.12
262.57	4.1
262.944	4.11
263.319	4.11
263.693	4.1
264.067	4.1
264.442	4.07
264.816	4.05
265.19	4.06
265.564	4.08
265.938	4.08
266.313	4.09
266.687	4.08
267.061	4.07
267.435	4.08
267.809	4.06
268.183	4.08
268.556	4.09
268.93	4.1
269.304	4.09
269.678	4.12
270.051	4.12
270.425	4.1
270.799	4.11
271.172	4.13
271.546	4.12
271.919	4.12
272.293	4.1
272.666	4.09
273.04	4.09
273.413	4.12
273.787	4.13
274.16	4.12
274.533	4.12
274.906	4.1
275.279	4.08
275.653	4.09
276.026	4.11
276.399	4.11
276.772	4.13
277.145	4.13
277.518	4.15
277.891	4.17
278.263	4.14
278.636	4.17
279.009	4.14
279.382	4.15
279.755	4.15
280.127	4.16
280.5	4.16
280.872	4.17
281.245	4.16
281.617	4.16
281.99	4.16
282.362	4.16
282.735	4.17
283.107	4.17
283.479	4.15
283.852	4.17
284.224	4.16
284.596	4.15
284.968	4.15
285.34	4.15
285.713	4.16
286.085	4.17
286.457	4.18
286.829	4.17
287.201	4.18
287.572	4.19
287.944	4.2
288.316	4.21
288.688	4.19
289.06	4.19
289.431	4.22
289.803	4.23
290.175	4.27
290.546	4.32
290.918	4.34
291.289	4.35
291.661	4.37
292.032	4.36
292.403	4.38
292.775	4.4
293.146	4.41
293.517	4.44
293.889	4.46
294.26	4.51
294.631	4.54
295.002	4.58
295.373	4.61
295.744	4.63
296.115	4.66
296.486	4.7
296.857	4.74
297.228	4.77
297.599	4.8
297.97	4.83
298.34	4.87
298.711	4.91
299.082	4.94
299.452	4.99
299.823	5.03
300.194	5.06
300.564	5.09
300.935	5.13
301.305	5.15
301.676	5.18
302.046	5.22
302.416	5.26
302.787	5.29
303.157	5.32
303.527	5.37
303.897	5.43
304.267	5.49
304.637	5.52
305.008	5.57
305.378	5.61
305.748	5.63
306.117	5.68
306.487	5.73
306.857	5.78
307.227	5.83
307.597	5.88
307.967	5.93
308.336	5.98
308.706	6.01
309.076	6.03
309.445	6.06
309.815	6.08
310.184	6.11
310.554	6.14
310.923	6.17
311.293	6.18
311.662	6.22
312.031	6.25
312.401	6.28
312.77	6.31
313.139	6.36
313.508	6.4
313.877	6.43
314.246	6.47
314.616	6.49
314.985	6.53
315.353	6.57
315.722	6.6
316.091	6.64
316.46	6.68
316.829	6.73
317.198	6.77
317.567	6.81
317.935	6.86
318.304	6.9
318.672	6.95
319.041	7
319.41	7.03
319.778	7.09
320.147	7.12
320.515	7.15
320.883	7.19
321.252	7.21
321.62	7.25
321.988	7.29
322.357	7.33
322.725	7.35
323.093	7.39
323.461	7.41
323.829	7.46
324.197	7.51
324.565	7.53
324.933	7.59
325.301	7.6
325.669	7.65
326.037	7.68
326.405	7.72
326.772	7.73
327.14	7.76
327.508	7.78
327.875	7.81
328.243	7.83
328.61	7.84
328.978	7.86
329.346	7.87
329.713	7.91
330.08	7.93
330.448	7.93
330.815	7.93
331.182	7.94
331.55	7.96
331.917	7.97
332.284	7.98
332.651	8
333.018	8.02
333.385	8.04
333.752	8.07
334.119	8.09
334.486	8.11
334.853	8.13
335.22	8.15
335.587	8.17
335.954	8.19
336.32	8.23
336.687	8.25
337.054	8.26
337.42	8.28
337.787	8.3
338.153	8.32
338.52	8.33
338.886	8.33
339.253	8.34
339.619	8.36
339.986	8.37
340.352	8.39
340.718	8.4
341.084	8.4
341.451	8.4
341.817	8.42
342.183	8.43
342.549	8.45
342.915	8.46
343.281	8.47
343.647	8.48
344.013	8.5
344.379	8.51
344.745	8.51
345.11	8.52
345.476	8.54
345.842	8.57
346.208	8.58
346.573	8.58
346.939	8.58
347.304	8.59
347.67	8.59
348.035	8.6
348.401	8.61
348.766	8.6
349.132	8.6
349.497	8.59
349.862	8.59
350.228	8.58
350.593	8.58
350.958	8.57
351.323	8.57
351.688	8.55
352.053	8.55
352.418	8.55
352.783	8.54
353.148	8.52
353.513	8.51
353.878	8.49
354.243	8.48
354.608	8.47
354.972	8.45
355.337	8.43
355.702	8.42
356.066	8.41
356.431	8.4
356.795	8.38
357.16	8.36
357.524	8.34
357.889	8.33
358.253	8.31
358.618	8.28
358.982	8.25
359.346	8.24
359.71	8.22
360.075	8.22
360.439	8.19
360.803	8.16
361.167	8.15
361.531	8.13
361.895	8.11
362.259	8.09
362.623	8.07
362.987	8.04
363.351	8.01
363.714	7.99
364.078	7.96
364.442	7.94
364.806	7.91
365.169	7.9
365.533	7.88
365.896	7.85
366.26	7.82
366.623	7.79
366.987	7.75
367.35	7.72
367.714	7.68
368.077	7.65
368.44	7.61
368.803	7.58
369.167	7.53
369.53	7.49
369.893	7.44
370.256	7.4
370.619	7.36
370.982	7.32
371.345	7.28
371.708	7.23
372.071	7.19
372.434	7.15
372.797	7.1
373.159	7.05
373.522	7.02
373.885	6.99
374.247	6.93
374.61	6.88
374.973	6.84
375.335	6.8
375.698	6.75
376.06	6.71
376.423	6.67
376.785	6.63
377.147	6.59
377.51	6.55
377.872	6.5
378.234	6.47
378.596	6.42
378.958	6.38
379.321	6.34
379.683	6.3
380.045	6.26
380.407	6.22
380.769	6.19
381.13	6.15
381.492	6.12
381.854	6.08
382.216	6.04
382.578	6.01
382.939	5.98
383.301	5.95
383.663	5.92
384.024	5.89
384.386	5.87
384.747	5.84
385.109	5.81
385.47	5.78
385.832	5.74
386.193	5.71
386.554	5.68
386.916	5.65
387.277	5.61
387.638	5.59
387.999	5.57
388.36	5.54
388.721	5.51
389.082	5.49
389.443	5.47
389.804	5.44
390.165	5.42
390.526	5.39
390.887	5.37
391.248	5.35
391.609	5.32
391.969	5.3
392.33	5.28
392.691	5.26
393.051	5.23
393.412	5.22
393.772	5.19
394.133	5.17
394.493	5.14
394.854	5.12
395.214	5.09
395.574	5.07
395.935	5.04
396.295	5.02
396.655	5
397.015	4.98
397.376	4.96
397.736	4.93
398.096	4.91
398.456	4.89
398.816	4.87
399.176	4.85
399.535	4.83
399.895	4.81
400.255	4.79
400.615	4.78
400.975	4.76
401.334	4.74
401.694	4.72
402.054	4.71
402.413	4.7
402.773	4.68
403.132	4.66
403.492	4.65
403.851	4.63
404.211	4.62
404.57	4.62
404.929	4.6
405.288	4.59
405.648	4.58
406.007	4.57
406.366	4.57
406.725	4.55
407.084	4.54
407.443	4.53
407.802	4.53
408.161	4.52
408.52	4.51
408.879	4.51
409.238	4.5
409.596	4.5
409.955	4.49
410.314	4.49
410.673	4.48
411.031	4.48
411.39	4.48
411.748	4.47
412.107	4.47
412.465	4.47
412.824	4.49
413.182	4.5
413.54	4.52
413.899	4.55
414.257	4.57
414.615	4.61
414.974	4.63
415.332	4.66
415.69	4.7
416.048	4.72
416.406	4.76
416.764	4.78
417.122	4.81
417.48	4.84
417.838	4.87
418.195	4.89
418.553	4.9
418.911	4.91
419.269	4.91
419.626	4.9
419.984	4.89
420.342	4.87
420.699	4.85
421.057	4.82
421.414	4.8
421.772	4.78
422.129	4.77
422.486	4.76
422.844	4.75
423.201	4.74
423.558	4.73
423.915	4.73
424.273	4.73
424.63	4.72
424.987	4.72
425.344	4.71
425.701	4.7
426.058	4.7
426.415	4.7
426.772	4.69
427.128	4.68
427.485	4.67
427.842	4.65
428.199	4.63
428.555	4.61
428.912	4.58
429.269	4.55
429.625	4.52
429.982	4.49
430.338	4.45
430.695	4.43
431.051	4.39
431.407	4.37
431.764	4.35
432.12	4.32
432.476	4.31
432.832	4.3
433.189	4.3
433.545	4.3
433.901	4.32
434.257	4.34
434.613	4.37
434.969	4.39
435.325	4.42
435.681	4.46
436.036	4.48
436.392	4.5
436.748	4.52
437.104	4.53
437.459	4.55
437.815	4.57
438.171	4.59
438.526	4.62
438.882	4.65
439.237	4.68
439.593	4.72
439.948	4.75
440.304	4.79
440.659	4.82
441.014	4.84
441.369	4.86
441.725	4.88
442.08	4.9
442.435	4.91
442.79	4.92
443.145	4.92
443.5	4.92
443.855	4.92
444.21	4.92
444.565	4.91
444.92	4.9
445.275	4.89
445.629	4.88
445.984	4.86
446.339	4.85
446.693	4.83
447.048	4.81
447.403	4.79
447.757	4.76
448.112	4.74
448.466	4.71
448.82	4.68
449.175	4.65
449.529	4.63
449.883	4.61
450.238	4.58
450.592	4.58
450.946	4.56
451.3	4.56
451.654	4.57
452.008	4.57
452.362	4.57
452.716	4.57
453.07	4.56
453.424	4.55
453.778	4.55
454.132	4.53
454.486	4.52
454.839	4.5
455.193	4.47
455.547	4.46
455.9	4.43
456.254	4.41
456.607	4.38
456.961	4.35
457.314	4.33
457.668	4.32
458.021	4.32
458.375	4.31
458.728	4.31
459.081	4.31
459.434	4.32
459.787	4.33
460.141	4.34
460.494	4.35
460.847	4.36
461.2	4.37
461.553	4.38
461.906	4.39
462.259	4.39
462.611	4.4
462.964	4.41
463.317	4.42
463.67	4.43
464.022	4.44
464.375	4.45
464.728	4.46
465.08	4.46
465.433	4.47
465.785	4.47
466.138	4.46
466.49	4.44
466.843	4.43
467.195	4.41
467.547	4.39
467.899	4.37
468.252	4.35
468.604	4.33
468.956	4.31
469.308	4.3
469.66	4.3
470.012	4.3
470.364	4.31
470.716	4.32
471.068	4.34
471.42	4.36
471.772	4.39
472.123	4.4
472.475	4.41
472.827	4.43
473.178	4.44
473.53	4.45
473.882	4.47
474.233	4.49
474.585	4.53
474.936	4.6
475.288	4.7
475.639	4.82
475.99	4.96
476.342	5.11
476.693	5.28
477.044	5.45
477.395	5.62
477.746	5.8
478.097	5.98
478.448	6.16
478.8	6.34
479.15	6.51
479.501	6.66
479.852	6.79
480.203	6.93
480.554	7.05
480.905	7.17
481.255	7.28
481.606	7.39
481.957	7.5
482.307	7.59
482.658	7.69
483.009	7.78
483.359	7.87
483.709	7.95
484.06	8.03
484.41	8.11
484.761	8.18
485.111	8.26
485.461	8.32
485.811	8.39
486.162	8.45
486.512	8.5
486.862	8.54
487.212	8.57
487.562	8.59
487.912	8.6
488.262	8.61
488.612	8.6
488.961	8.58
489.311	8.53
489.661	8.46
490.011	8.37
490.36	8.26
490.71	8.13
491.06	8
491.409	7.86
491.759	7.71
492.108	7.55
492.458	7.39
492.807	7.22
493.157	7.05
493.506	6.9
493.855	6.75
494.204	6.61
494.554	6.48
494.903	6.36
495.252	6.24
495.601	6.14
495.95	6.03
496.299	5.94
496.648	5.85
496.997	5.76
497.346	5.69
497.695	5.61
498.043	5.54
498.392	5.48
498.741	5.41
499.09	5.36
499.438	5.31
499.787	5.27
500.135	5.23
500.484	5.2
500.832	5.18
501.181	5.18
501.529	5.2
501.878	5.22
502.226	5.26
502.574	5.29
502.923	5.34
503.271	5.39
503.619	5.44
503.967	5.5
504.315	5.55
504.663	5.6
505.011	5.66
505.359	5.72
505.707	5.78
506.055	5.84
506.403	5.91
506.751	5.98
507.098	6.06
507.446	6.13
507.794	6.21
508.141	6.3
508.489	6.4
508.837	6.49
509.184	6.59
509.531	6.69
509.879	6.8
510.226	6.92
510.574	7.04
510.921	7.17
511.268	7.31
511.616	7.44
511.963	7.59
512.31	7.73
512.657	7.88
513.004	8.02
513.351	8.15
513.698	8.29
514.045	8.41
514.392	8.52
514.739	8.63
515.086	8.74
515.432	8.84
515.779	8.94
516.126	9.05
516.473	9.17
516.819	9.3
517.166	9.45
517.512	9.6
517.859	9.77
518.205	9.96
518.552	10.16
518.898	10.38
519.245	10.63
519.591	10.94
519.937	11.3
520.283	11.72
520.629	12.17
520.976	12.66
521.322	13.16
521.668	13.68
522.014	14.21
522.36	14.74
522.706	15.26
523.052	15.76
523.398	16.24
523.743	16.69
524.089	17.09
524.435	17.47
524.781	17.85
525.126	18.22
525.472	18.58
525.817	18.94
526.163	19.3
526.509	19.65
526.854	20
527.199	20.35
527.545	20.7
527.89	21.07
528.235	21.43
528.581	21.77
528.926	22.1
529.271	22.41
529.616	22.72
529.961	23.01
530.306	23.29
530.651	23.56
530.996	23.81
531.341	24.05
531.686	24.26
532.031	24.47
532.376	24.71
532.721	24.97
533.065	25.26
533.41	25.56
533.755	25.84
534.099	26.1
534.444	26.34
534.788	26.56
535.133	26.77
535.477	26.97
535.822	27.14
536.166	27.28
536.51	27.38
536.855	27.43
537.199	27.47
537.543	27.49
537.887	27.55
538.231	27.63
538.576	27.72
538.92	27.79
539.264	27.86
539.608	27.91
539.951	27.94
540.295	27.97
540.639	27.98
540.983	27.99
541.327	27.97
541.671	27.94
542.014	27.94
542.358	27.94
542.701	28.01
543.045	28.13
543.389	28.28
543.732	28.45
544.075	28.63
544.419	28.83
544.762	29.03
545.105	29.25
545.449	29.49
545.792	29.73
546.135	29.97
546.478	30.17
546.821	30.34
547.165	30.46
547.508	30.54
547.851	30.58
548.194	30.59
548.536	30.56
548.879	30.5
549.222	30.43
549.565	30.35
549.908	30.27
550.25	30.24
550.593	30.24
550.936	30.3
551.278	30.41
551.621	30.56
551.963	30.72
552.306	30.9
552.648	31.11
552.991	31.35
553.333	31.61
553.675	31.9
554.017	32.22
554.36	32.56
554.702	32.93
555.044	33.33
555.386	33.79
555.728	34.27
556.07	34.71
556.412	35.16
556.754	35.53
557.096	35.86
557.438	36.18
557.78	36.51
558.121	36.84
558.463	37.17
558.805	37.49
559.147	37.82
559.488	38.15
559.83	38.48
560.171	38.8
560.513	39.12
560.854	39.45
561.196	39.76
561.537	40.06
561.878	40.36
562.22	40.64
562.561	40.92
562.902	41.2
563.243	41.48
563.584	41.76
563.925	42.04
564.266	42.31
564.607	42.59
564.948	42.85
565.289	43.11
565.63	43.38
565.971	43.64
566.312	43.9
566.653	44.14
566.993	44.39
567.334	44.62
567.675	44.85
568.015	45.08
568.356	45.3
568.696	45.51
569.037	45.73
569.377	45.94
569.718	46.14
570.058	46.34
570.398	46.52
570.739	46.7
571.079	46.86
571.419	47.04
571.759	47.2
572.099	47.37
572.439	47.54
572.779	47.7
573.119	47.86
573.459	48.01
573.799	48.16
574.139	48.31
574.479	48.47
574.819	48.62
575.158	48.76
575.498	48.91
575.838	49.06
576.177	49.2
576.517	49.35
576.856	49.48
577.196	49.61
577.535	49.75
577.875	49.89
578.214	50.01
578.553	50.14
578.893	50.27
579.232	50.41
579.571	50.53
579.91	50.66
580.25	50.78
580.589	50.91
580.928	51.04
581.267	51.17
581.606	51.31
581.945	51.44
582.283	51.58
582.622	51.72
582.961	51.85
583.3	51.97
583.639	52.09
583.977	52.21
584.316	52.35
584.654	52.47
584.993	52.6
585.332	52.73
585.67	52.84
586.008	52.96
586.347	53.08
586.685	53.21
587.024	53.31
587.362	53.42
587.7	53.55
588.038	53.69
588.376	53.81
588.715	53.93
589.053	54.06
589.391	54.19
589.729	54.32
590.067	54.44
590.404	54.54
590.742	54.67
591.08	54.78
591.418	54.88
591.756	54.99
592.093	55.09
592.431	55.18
592.769	55.27
593.106	55.35
593.444	55.43
593.781	55.52
594.119	55.6
594.456	55.7
594.793	55.79
595.131	55.87
595.468	55.95
595.805	56.04
596.143	56.13
596.48	56.22
596.817	56.31
597.154	56.41
597.491	56.52
597.828	56.62
598.165	56.7
598.502	56.8
598.839	56.88
599.176	56.95
599.512	57.03
599.849	57.1
600.186	57.17
600.523	57.23
600.859	57.31
601.196	57.38
601.532	57.45
601.869	57.51
602.205	57.58
602.542	57.63
602.878	57.69
603.215	57.75
603.551	57.8
603.887	57.86
604.223	57.93
604.56	57.98
604.896	58.03
605.232	58.09
605.568	58.13
605.904	58.18
606.24	58.23
606.576	58.27
606.912	58.32
607.248	58.36
607.583	58.4
607.919	58.45
608.255	58.47
608.591	58.5
608.926	58.54
609.262	58.57
609.597	58.61
609.933	58.63
610.268	58.65
610.604	58.7
610.939	58.73
611.275	58.75
611.61	58.78
611.945	58.81
612.281	58.84
612.616	58.88
612.951	58.91
613.286	58.94
613.621	58.97
613.956	59
614.291	59.04
614.626	59.06
614.961	59.1
615.296	59.12
615.631	59.15
615.966	59.19
616.3	59.21
616.635	59.25
616.97	59.27
617.304	59.3
617.639	59.33
617.973	59.35
618.308	59.38
618.642	59.42
618.977	59.46
619.311	59.51
619.646	59.55
619.98	59.59
620.314	59.66
620.648	59.71
620.983	59.75
621.317	59.79
621.651	59.82
621.985	59.87
622.319	59.91
622.653	59.95
622.987	59.98
623.321	60.01
623.655	60.06
623.988	60.1
624.322	60.12
624.656	60.15
624.99	60.18
625.323	60.21
625.657	60.23
625.99	60.26
626.324	60.28
626.657	60.32
626.991	60.35
627.324	60.38
627.658	60.41
627.991	60.43
628.324	60.46
628.657	60.48
628.991	60.51
629.324	60.55
629.657	60.57
629.99	60.6
630.323	60.64
630.656	60.68
630.989	60.69
631.322	60.72
631.655	60.74
631.987	60.78
632.32	60.82
632.653	60.84
632.986	60.85
633.318	60.87
633.651	60.89
633.984	60.9
634.316	60.92
634.649	60.94
634.981	60.98
635.313	61.01
635.646	61.03
635.978	61.05
636.31	61.06
636.643	61.08
636.975	61.1
637.307	61.12
637.639	61.14
637.971	61.18
638.303	61.19
638.635	61.21
638.967	61.22
639.299	61.26
639.631	61.28
639.963	61.3
640.295	61.32
640.626	61.36
640.958	61.4
641.29	61.43
641.621	61.46
641.953	61.48
642.285	61.51
642.616	61.52
642.948	61.54
643.279	61.58
643.61	61.62
643.942	61.63
644.273	61.66
644.604	61.7
644.936	61.73
645.267	61.77
645.598	61.77
645.929	61.79
646.26	61.8
646.591	61.84
646.922	61.87
647.253	61.9
647.584	61.92
647.915	61.93
648.245	61.97
648.576	61.97
648.907	61.97
649.238	61.99
649.568	62.04
649.899	62.07
650.229	62.09
650.56	62.12
650.89	62.15
651.221	62.17
651.551	62.18
651.882	62.21
652.212	62.23
652.542	62.26
652.872	62.29
653.203	62.33
653.533	62.37
653.863	62.4
654.193	62.41
654.523	62.44
654.853	62.44
655.183	62.46
655.513	62.47
655.843	62.48
656.172	62.51
656.502	62.52
656.832	62.53
657.162	62.53
657.491	62.55
657.821	62.56
658.15	62.55
658.48	62.58
658.809	62.58
659.139	62.6
659.468	62.6
659.798	62.63
660.127	62.64
660.456	62.66
660.785	62.67
661.115	62.7
661.444	62.72
661.773	62.73
662.102	62.75
662.431	62.76
662.76	62.79
663.089	62.8
663.418	62.81
663.747	62.84
664.076	62.86
664.404	62.87
664.733	62.89
665.062	62.91
665.39	62.91
665.719	62.95
666.048	62.97
666.376	62.97
666.705	62.98
667.033	62.99
667.362	63
667.69	63.01
668.018	63.04
668.347	63.06
668.675	63.08
669.003	63.11
669.331	63.12
669.659	63.14
669.987	63.14
