Data from UWBM122617_Reflection_00003.txt Node
Date: Sun May 02 12:16:43 EDT 2021
User: vgr7
Spectrometer: USB2G7710
Scans to average: 10
Trigger mode: 4
Integration Time (sec): 1.000000E-1
Electric dark correction enabled: true
Boxcar width: 10
XAxis mode: Wavelengths
Number of Pixels in Spectrum: 2048
>>>>>Begin Spectral Data<<<<<
177.721	-2190
178.105	-436.36
178.488	-11.48
178.871	-60.76
179.254	184.62
179.636	354.55
180.019	-10.71
180.402	55
180.785	33.87
181.168	4.89
181.55	15.67
181.933	-13.29
182.316	2.19
182.698	-92.96
183.081	-36.89
183.463	-87.86
183.846	-9.02
184.228	-10.34
184.611	23.75
184.993	29.36
185.376	29.46
185.758	23.9
186.14	18.38
186.522	15.94
186.904	10.23
187.287	17.14
187.669	24.01
188.051	20.24
188.433	19.04
188.815	15.93
189.197	18.13
189.579	19.88
189.961	19.03
190.342	16.4
190.724	20.74
191.106	20.39
191.488	23.19
191.869	13.95
192.251	14.55
192.633	11.94
193.014	9.92
193.396	7.27
193.777	11.1
194.159	9.49
194.54	8.71
194.922	11.14
195.303	6.28
195.684	3.19
196.065	2.86
196.447	-1.14
196.828	1.19
197.209	-3.76
197.59	-8.26
197.971	-11.65
198.352	-9.49
198.733	-3.28
199.114	-4.36
199.495	-2.04
199.876	-1.1
200.257	2.05
200.638	1.69
201.018	-3.14
201.399	-4.63
201.78	-4.41
202.16	-4.99
202.541	-7.03
202.922	-7.78
203.302	-9.06
203.683	-11.22
204.063	-11.25
204.444	-8.76
204.824	-6.08
205.204	-4.32
205.585	-2.99
205.965	-0.72
206.345	1.64
206.725	-6.43
207.106	-5.39
207.486	-5.82
207.866	-0.17
208.246	-2.76
208.626	-1.04
209.006	2.73
209.386	0.85
209.766	2.24
210.145	2.74
210.525	1.38
210.905	1.7
211.285	2.88
211.664	2.5
212.044	3.89
212.424	6.31
212.803	3.66
213.183	6.1
213.562	4.48
213.942	4.3
214.321	-2.14
214.701	-4.07
215.08	-3.58
215.459	-6.86
215.838	-12.53
216.218	-11.12
216.597	-10.74
216.976	-9.02
217.355	-3.95
217.734	-6.79
218.113	-4
218.492	-2.77
218.871	-5
219.25	-3.05
219.629	-1.96
220.008	-5.19
220.387	-8.57
220.766	-9.41
221.144	-9.6
221.523	-8.65
221.902	-7.11
222.28	-3.79
222.659	-2.89
223.037	-3.25
223.416	-1.02
223.794	1.12
224.173	2.33
224.551	0
224.929	-3.54
225.308	-3.43
225.686	-4.22
226.064	-4.68
226.442	-3.15
226.821	-0.8
227.199	-1.66
227.577	-3.01
227.955	-2.54
228.333	-1.74
228.711	-1.94
229.089	-0.82
229.467	0.27
229.845	1.88
230.222	2.56
230.6	3.34
230.978	2.77
231.356	2.31
231.733	2.29
232.111	2.41
232.488	2.67
232.866	3.16
233.243	2.65
233.621	3.49
233.998	3.42
234.376	3.43
234.753	3.56
235.13	4.47
235.508	5.9
235.885	6.2
236.262	6.73
236.639	7.18
237.016	6.36
237.393	5.79
237.77	5.61
238.147	5.47
238.524	5.44
238.901	5.75
239.278	5.68
239.655	5.84
240.032	5.55
240.409	5.79
240.785	5.71
241.162	5.78
241.539	5.66
241.915	5.46
242.292	5.43
242.668	5.27
243.045	5.14
243.421	5
243.798	4.95
244.174	4.78
244.551	4.63
244.927	4.72
245.303	4.78
245.679	4.73
246.056	4.59
246.432	4.58
246.808	4.53
247.184	4.54
247.56	4.43
247.936	4.45
248.312	4.42
248.688	4.51
249.064	4.48
249.44	4.47
249.815	4.51
250.191	4.54
250.567	4.53
250.943	4.52
251.318	4.5
251.694	4.44
252.069	4.45
252.445	4.56
252.82	4.48
253.196	4.41
253.571	4.41
253.947	4.62
254.322	4.65
254.697	4.64
255.073	4.63
255.448	4.61
255.823	4.51
256.198	4.42
256.573	4.34
256.948	4.35
257.323	4.4
257.698	4.37
258.073	4.32
258.448	4.35
258.823	4.34
259.198	4.32
259.573	4.32
259.948	4.34
260.322	4.32
260.697	4.33
261.072	4.35
261.446	4.31
261.821	4.28
262.195	4.22
262.57	4.22
262.944	4.16
263.319	4.19
263.693	4.24
264.067	4.24
264.442	4.24
264.816	4.22
265.19	4.16
265.564	4.19
265.938	4.19
266.313	4.16
266.687	4.09
267.061	4.1
267.435	4.07
267.809	4.05
268.183	4.02
268.556	4.05
268.93	4.03
269.304	3.99
269.678	3.93
270.051	3.94
270.425	3.93
270.799	3.98
271.172	3.92
271.546	3.9
271.919	3.91
272.293	3.89
272.666	3.86
273.04	3.87
273.413	3.78
273.787	3.74
274.16	3.76
274.533	3.82
274.906	3.8
275.279	3.84
275.653	3.82
276.026	3.76
276.399	3.72
276.772	3.72
277.145	3.77
277.518	3.79
277.891	3.78
278.263	3.75
278.636	3.78
279.009	3.81
279.382	3.8
279.755	3.77
280.127	3.81
280.5	3.83
280.872	3.83
281.245	3.93
281.617	3.93
281.99	3.89
282.362	3.85
282.735	3.84
283.107	3.84
283.479	3.88
283.852	3.95
284.224	3.96
284.596	3.93
284.968	3.93
285.34	3.93
285.713	4
286.085	4.01
286.457	4.04
286.829	4.03
287.201	4.05
287.572	4.08
287.944	4.06
288.316	4.07
288.688	4.09
289.06	4.1
289.431	4.12
289.803	4.12
290.175	4.14
290.546	4.19
290.918	4.23
291.289	4.23
291.661	4.23
292.032	4.22
292.403	4.28
292.775	4.26
293.146	4.23
293.517	4.19
293.889	4.25
294.26	4.22
294.631	4.23
295.002	4.26
295.373	4.3
295.744	4.29
296.115	4.32
296.486	4.3
296.857	4.29
297.228	4.31
297.599	4.33
297.97	4.34
298.34	4.35
298.711	4.34
299.082	4.31
299.452	4.28
299.823	4.29
300.194	4.29
300.564	4.33
300.935	4.4
301.305	4.43
301.676	4.36
302.046	4.33
302.416	4.34
302.787	4.34
303.157	4.32
303.527	4.39
303.897	4.38
304.267	4.42
304.637	4.43
305.008	4.45
305.378	4.48
305.748	4.48
306.117	4.47
306.487	4.48
306.857	4.47
307.227	4.5
307.597	4.5
307.967	4.5
308.336	4.52
308.706	4.53
309.076	4.5
309.445	4.53
309.815	4.55
310.184	4.56
310.554	4.55
310.923	4.54
311.293	4.5
311.662	4.52
312.031	4.47
312.401	4.46
312.77	4.44
313.139	4.45
313.508	4.4
313.877	4.42
314.246	4.37
314.616	4.41
314.985	4.39
315.353	4.38
315.722	4.36
316.091	4.33
316.46	4.31
316.829	4.34
317.198	4.37
317.567	4.39
317.935	4.38
318.304	4.38
318.672	4.39
319.041	4.4
319.41	4.43
319.778	4.47
320.147	4.49
320.515	4.49
320.883	4.48
321.252	4.5
321.62	4.47
321.988	4.51
322.357	4.5
322.725	4.5
323.093	4.51
323.461	4.51
323.829	4.52
324.197	4.51
324.565	4.53
324.933	4.49
325.301	4.51
325.669	4.53
326.037	4.51
326.405	4.52
326.772	4.51
327.14	4.47
327.508	4.45
327.875	4.46
328.243	4.46
328.61	4.44
328.978	4.48
329.346	4.45
329.713	4.42
330.08	4.41
330.448	4.4
330.815	4.41
331.182	4.39
331.55	4.38
331.917	4.38
332.284	4.34
332.651	4.37
333.018	4.35
333.385	4.33
333.752	4.35
334.119	4.33
334.486	4.33
334.853	4.32
335.22	4.35
335.587	4.33
335.954	4.35
336.32	4.36
336.687	4.33
337.054	4.34
337.42	4.35
337.787	4.34
338.153	4.37
338.52	4.39
338.886	4.42
339.253	4.41
339.619	4.39
339.986	4.41
340.352	4.4
340.718	4.44
341.084	4.44
341.451	4.41
341.817	4.4
342.183	4.44
342.549	4.46
342.915	4.45
343.281	4.46
343.647	4.46
344.013	4.44
344.379	4.45
344.745	4.47
345.11	4.46
345.476	4.49
345.842	4.51
346.208	4.49
346.573	4.47
346.939	4.49
347.304	4.51
347.67	4.5
348.035	4.49
348.401	4.45
348.766	4.46
349.132	4.48
349.497	4.52
349.862	4.49
350.228	4.49
350.593	4.48
350.958	4.48
351.323	4.47
351.688	4.5
352.053	4.48
352.418	4.49
352.783	4.52
353.148	4.5
353.513	4.45
353.878	4.47
354.243	4.46
354.608	4.45
354.972	4.44
355.337	4.43
355.702	4.43
356.066	4.42
356.431	4.41
356.795	4.39
357.16	4.37
357.524	4.35
357.889	4.34
358.253	4.37
358.618	4.37
358.982	4.39
359.346	4.4
359.71	4.4
360.075	4.4
360.439	4.38
360.803	4.37
361.167	4.37
361.531	4.37
361.895	4.37
362.259	4.37
362.623	4.37
362.987	4.39
363.351	4.4
363.714	4.41
364.078	4.41
364.442	4.41
364.806	4.4
365.169	4.43
365.533	4.42
365.896	4.4
366.26	4.39
366.623	4.37
366.987	4.34
367.35	4.37
367.714	4.38
368.077	4.4
368.44	4.39
368.803	4.4
369.167	4.4
369.53	4.42
369.893	4.42
370.256	4.43
370.619	4.41
370.982	4.41
371.345	4.39
371.708	4.42
372.071	4.42
372.434	4.44
372.797	4.43
373.159	4.45
373.522	4.46
373.885	4.46
374.247	4.47
374.61	4.47
374.973	4.44
375.335	4.42
375.698	4.42
376.06	4.43
376.423	4.44
376.785	4.45
377.147	4.43
377.51	4.44
377.872	4.44
378.234	4.45
378.596	4.44
378.958	4.46
379.321	4.46
379.683	4.47
380.045	4.45
380.407	4.45
380.769	4.44
381.13	4.45
381.492	4.42
381.854	4.42
382.216	4.44
382.578	4.46
382.939	4.49
383.301	4.49
383.663	4.5
384.024	4.5
384.386	4.5
384.747	4.5
385.109	4.51
385.47	4.51
385.832	4.51
386.193	4.51
386.554	4.51
386.916	4.51
387.277	4.5
387.638	4.51
387.999	4.51
388.36	4.52
388.721	4.52
389.082	4.54
389.443	4.53
389.804	4.51
390.165	4.51
390.526	4.5
390.887	4.49
391.248	4.48
391.609	4.5
391.969	4.49
392.33	4.49
392.691	4.48
393.051	4.49
393.412	4.49
393.772	4.49
394.133	4.5
394.493	4.49
394.854	4.5
395.214	4.5
395.574	4.51
395.935	4.5
396.295	4.5
396.655	4.5
397.015	4.51
397.376	4.53
397.736	4.53
398.096	4.54
398.456	4.55
398.816	4.55
399.176	4.53
399.535	4.56
399.895	4.56
400.255	4.56
400.615	4.57
400.975	4.57
401.334	4.58
401.694	4.57
402.054	4.58
402.413	4.58
402.773	4.59
403.132	4.6
403.492	4.59
403.851	4.59
404.211	4.6
404.57	4.61
404.929	4.6
405.288	4.6
405.648	4.59
406.007	4.6
406.366	4.61
406.725	4.61
407.084	4.6
407.443	4.6
407.802	4.6
408.161	4.61
408.52	4.61
408.879	4.6
409.238	4.6
409.596	4.6
409.955	4.59
410.314	4.59
410.673	4.57
411.031	4.59
411.39	4.59
411.748	4.59
412.107	4.59
412.465	4.59
412.824	4.6
413.182	4.6
413.54	4.61
413.899	4.61
414.257	4.63
414.615	4.63
414.974	4.63
415.332	4.64
415.69	4.64
416.048	4.64
416.406	4.66
416.764	4.67
417.122	4.68
417.48	4.7
417.838	4.71
418.195	4.72
418.553	4.72
418.911	4.73
419.269	4.74
419.626	4.75
419.984	4.77
420.342	4.78
420.699	4.79
421.057	4.79
421.414	4.8
421.772	4.8
422.129	4.81
422.486	4.81
422.844	4.81
423.201	4.81
423.558	4.82
423.915	4.81
424.273	4.81
424.63	4.82
424.987	4.81
425.344	4.81
425.701	4.81
426.058	4.81
426.415	4.81
426.772	4.79
427.128	4.79
427.485	4.77
427.842	4.76
428.199	4.76
428.555	4.75
428.912	4.74
429.269	4.74
429.625	4.73
429.982	4.73
430.338	4.73
430.695	4.74
431.051	4.74
431.407	4.73
431.764	4.73
432.12	4.73
432.476	4.74
432.832	4.74
433.189	4.74
433.545	4.75
433.901	4.75
434.257	4.75
434.613	4.75
434.969	4.76
435.325	4.77
435.681	4.77
436.036	4.78
436.392	4.79
436.748	4.79
437.104	4.8
437.459	4.8
437.815	4.81
438.171	4.82
438.526	4.83
438.882	4.83
439.237	4.84
439.593	4.84
439.948	4.84
440.304	4.84
440.659	4.84
441.014	4.84
441.369	4.84
441.725	4.85
442.08	4.85
442.435	4.86
442.79	4.87
443.145	4.87
443.5	4.86
443.855	4.86
444.21	4.87
444.565	4.87
444.92	4.87
445.275	4.87
445.629	4.87
445.984	4.87
446.339	4.87
446.693	4.87
447.048	4.87
447.403	4.87
447.757	4.88
448.112	4.88
448.466	4.87
448.82	4.87
449.175	4.88
449.529	4.87
449.883	4.87
450.238	4.86
450.592	4.85
450.946	4.85
451.3	4.85
451.654	4.85
452.008	4.85
452.362	4.83
452.716	4.83
453.07	4.83
453.424	4.82
453.778	4.83
454.132	4.82
454.486	4.82
454.839	4.82
455.193	4.82
455.547	4.82
455.9	4.83
456.254	4.83
456.607	4.84
456.961	4.86
457.314	4.86
457.668	4.87
458.021	4.88
458.375	4.88
458.728	4.89
459.081	4.9
459.434	4.9
459.787	4.9
460.141	4.9
460.494	4.9
460.847	4.91
461.2	4.91
461.553	4.91
461.906	4.91
462.259	4.91
462.611	4.91
462.964	4.91
463.317	4.91
463.67	4.91
464.022	4.91
464.375	4.9
464.728	4.9
465.08	4.89
465.433	4.89
465.785	4.88
466.138	4.87
466.49	4.86
466.843	4.85
467.195	4.85
467.547	4.85
467.899	4.85
468.252	4.85
468.604	4.85
468.956	4.86
469.308	4.87
469.66	4.86
470.012	4.86
470.364	4.87
470.716	4.87
471.068	4.86
471.42	4.86
471.772	4.86
472.123	4.85
472.475	4.86
472.827	4.86
473.178	4.85
473.53	4.86
473.882	4.87
474.233	4.89
474.585	4.9
474.936	4.9
475.288	4.89
475.639	4.89
475.99	4.89
476.342	4.9
476.693	4.9
477.044	4.9
477.395	4.91
477.746	4.91
478.097	4.92
478.448	4.96
478.8	5.05
479.15	5.18
479.501	5.35
479.852	5.54
480.203	5.75
480.554	5.96
480.905	6.17
481.255	6.38
481.606	6.58
481.957	6.78
482.307	6.98
482.658	7.15
483.009	7.31
483.359	7.44
483.709	7.56
484.06	7.67
484.41	7.78
484.761	7.87
485.111	7.98
485.461	8.07
485.811	8.15
486.162	8.18
486.512	8.18
486.862	8.14
487.212	8.07
487.562	7.98
487.912	7.86
488.262	7.74
488.612	7.6
488.961	7.47
489.311	7.31
489.661	7.14
490.011	6.97
490.36	6.81
490.71	6.63
491.06	6.45
491.409	6.26
491.759	6.11
492.108	5.98
492.458	5.87
492.807	5.78
493.157	5.69
493.506	5.6
493.855	5.51
494.204	5.42
494.554	5.33
494.903	5.26
495.252	5.19
495.601	5.12
495.95	5.06
496.299	4.99
496.648	4.94
496.997	4.9
497.346	4.88
497.695	4.87
498.043	4.9
498.392	4.95
498.741	5.01
499.09	5.05
499.438	5.06
499.787	5.07
500.135	5.07
500.484	5.06
500.832	5.07
501.181	5.06
501.529	5.07
501.878	5.07
502.226	5.07
502.574	5.07
502.923	5.06
503.271	5.07
503.619	5.07
503.967	5.08
504.315	5.08
504.663	5.09
505.011	5.1
505.359	5.1
505.707	5.11
506.055	5.11
506.403	5.12
506.751	5.12
507.098	5.13
507.446	5.13
507.794	5.14
508.141	5.14
508.489	5.15
508.837	5.16
509.184	5.16
509.531	5.18
509.879	5.18
510.226	5.18
510.574	5.19
510.921	5.2
511.268	5.2
511.616	5.19
511.963	5.19
512.31	5.2
512.657	5.2
513.004	5.2
513.351	5.2
513.698	5.21
514.045	5.21
514.392	5.21
514.739	5.22
515.086	5.22
515.432	5.23
515.779	5.24
516.126	5.24
516.473	5.24
516.819	5.23
517.166	5.24
517.512	5.25
517.859	5.25
518.205	5.26
518.552	5.26
518.898	5.26
519.245	5.26
519.591	5.26
519.937	5.26
520.283	5.26
520.629	5.26
520.976	5.26
521.322	5.27
521.668	5.27
522.014	5.28
522.36	5.28
522.706	5.28
523.052	5.3
523.398	5.36
523.743	5.43
524.089	5.53
524.435	5.66
524.781	5.78
525.126	5.9
525.472	6.02
525.817	6.15
526.163	6.27
526.509	6.38
526.854	6.47
527.199	6.54
527.545	6.6
527.89	6.63
528.235	6.66
528.581	6.68
528.926	6.7
529.271	6.72
529.616	6.75
529.961	6.77
530.306	6.77
530.651	6.75
530.996	6.71
531.341	6.64
531.686	6.55
532.031	6.45
532.376	6.33
532.721	6.19
533.065	6.04
533.41	5.92
533.755	5.8
534.099	5.7
534.444	5.63
534.788	5.57
535.133	5.52
535.477	5.49
535.822	5.45
536.166	5.42
536.51	5.4
536.855	5.37
537.199	5.35
537.543	5.35
537.887	5.36
538.231	5.37
538.576	5.39
538.92	5.41
539.264	5.44
539.608	5.47
539.951	5.51
540.295	5.55
540.639	5.56
540.983	5.56
541.327	5.56
541.671	5.54
542.014	5.54
542.358	5.55
542.701	5.55
543.045	5.55
543.389	5.56
543.732	5.56
544.075	5.56
544.419	5.56
544.762	5.55
545.105	5.53
545.449	5.5
545.792	5.47
546.135	5.44
546.478	5.41
546.821	5.38
547.165	5.37
547.508	5.36
547.851	5.37
548.194	5.38
548.536	5.4
548.879	5.43
549.222	5.44
549.565	5.44
549.908	5.43
550.25	5.42
550.593	5.41
550.936	5.41
551.278	5.4
551.621	5.39
551.963	5.39
552.306	5.39
552.648	5.39
552.991	5.38
553.333	5.38
553.675	5.37
554.017	5.38
554.36	5.38
554.702	5.39
555.044	5.38
555.386	5.38
555.728	5.37
556.07	5.37
556.412	5.35
556.754	5.35
557.096	5.35
557.438	5.35
557.78	5.35
558.121	5.35
558.463	5.35
558.805	5.36
559.147	5.36
559.488	5.37
559.83	5.38
560.171	5.39
560.513	5.4
560.854	5.39
561.196	5.39
561.537	5.4
561.878	5.4
562.22	5.4
562.561	5.41
562.902	5.42
563.243	5.43
563.584	5.43
563.925	5.44
564.266	5.44
564.607	5.45
564.948	5.46
565.289	5.47
565.63	5.47
565.971	5.46
566.312	5.47
566.653	5.47
566.993	5.46
567.334	5.46
567.675	5.47
568.015	5.48
568.356	5.49
568.696	5.48
569.037	5.48
569.377	5.49
569.718	5.49
570.058	5.49
570.398	5.5
570.739	5.5
571.079	5.51
571.419	5.51
571.759	5.52
572.099	5.51
572.439	5.51
572.779	5.53
573.119	5.54
573.459	5.53
573.799	5.53
574.139	5.54
574.479	5.54
574.819	5.54
575.158	5.53
575.498	5.53
575.838	5.54
576.177	5.54
576.517	5.54
576.856	5.54
577.196	5.55
577.535	5.55
577.875	5.55
578.214	5.54
578.553	5.54
578.893	5.53
579.232	5.53
579.571	5.53
579.91	5.52
580.25	5.52
580.589	5.51
580.928	5.52
581.267	5.52
581.606	5.52
581.945	5.52
582.283	5.53
582.622	5.54
582.961	5.52
583.3	5.53
583.639	5.53
583.977	5.53
584.316	5.53
584.654	5.53
584.993	5.53
585.332	5.53
585.67	5.53
586.008	5.55
586.347	5.56
586.685	5.55
587.024	5.55
587.362	5.54
587.7	5.55
588.038	5.55
588.376	5.55
588.715	5.57
589.053	5.56
589.391	5.56
589.729	5.56
590.067	5.56
590.404	5.56
590.742	5.57
591.08	5.58
591.418	5.59
591.756	5.59
592.093	5.59
592.431	5.61
592.769	5.61
593.106	5.6
593.444	5.6
593.781	5.61
594.119	5.62
594.456	5.61
594.793	5.62
595.131	5.62
595.468	5.64
595.805	5.63
596.143	5.63
596.48	5.64
596.817	5.65
597.154	5.66
597.491	5.66
597.828	5.67
598.165	5.65
598.502	5.65
598.839	5.65
599.176	5.65
599.512	5.65
599.849	5.65
600.186	5.65
600.523	5.65
600.859	5.65
601.196	5.66
601.532	5.67
601.869	5.68
602.205	5.68
602.542	5.67
602.878	5.68
603.215	5.69
603.551	5.69
603.887	5.69
604.223	5.71
604.56	5.71
604.896	5.7
605.232	5.7
605.568	5.7
605.904	5.7
606.24	5.71
606.576	5.71
606.912	5.72
607.248	5.72
607.583	5.73
607.919	5.73
608.255	5.73
608.591	5.73
608.926	5.73
609.262	5.73
609.597	5.73
609.933	5.74
610.268	5.74
610.604	5.74
610.939	5.74
611.275	5.73
611.61	5.74
611.945	5.74
612.281	5.76
612.616	5.76
612.951	5.75
613.286	5.76
613.621	5.77
613.956	5.76
614.291	5.78
614.626	5.77
614.961	5.78
615.296	5.78
615.631	5.77
615.966	5.75
616.3	5.77
616.635	5.76
616.97	5.76
617.304	5.75
617.639	5.76
617.973	5.76
618.308	5.77
618.642	5.77
618.977	5.78
619.311	5.77
619.646	5.78
619.98	5.8
620.314	5.79
620.648	5.78
620.983	5.79
621.317	5.78
621.651	5.79
621.985	5.79
622.319	5.79
622.653	5.79
622.987	5.81
623.321	5.79
623.655	5.81
623.988	5.82
624.322	5.81
624.656	5.8
624.99	5.81
625.323	5.8
625.657	5.82
625.99	5.82
626.324	5.82
626.657	5.83
626.991	5.84
627.324	5.84
627.658	5.85
627.991	5.85
628.324	5.85
628.657	5.85
628.991	5.87
629.324	5.89
629.657	5.9
629.99	5.9
630.323	5.92
630.656	5.91
630.989	5.91
631.322	5.92
631.655	5.92
631.987	5.93
632.32	5.93
632.653	5.94
632.986	5.95
633.318	5.96
633.651	5.94
633.984	5.96
634.316	5.97
634.649	5.97
634.981	5.97
635.313	5.99
635.646	6
635.978	6.01
636.31	6.01
636.643	6
636.975	6.01
637.307	6.01
637.639	6.01
637.971	6.02
638.303	6.05
638.635	6.06
638.967	6.05
639.299	6.06
639.631	6.04
639.963	6.05
640.295	6.04
640.626	6.06
640.958	6.06
641.29	6.06
641.621	6.07
641.953	6.08
642.285	6.09
642.616	6.09
642.948	6.07
643.279	6.06
643.61	6.07
643.942	6.07
644.273	6.07
644.604	6.08
644.936	6.07
645.267	6.06
645.598	6.06
645.929	6.08
646.26	6.08
646.591	6.1
646.922	6.11
647.253	6.12
647.584	6.11
647.915	6.1
648.245	6.1
648.576	6.1
648.907	6.11
649.238	6.09
649.568	6.09
649.899	6.09
650.229	6.08
650.56	6.09
650.89	6.09
651.221	6.11
651.551	6.14
651.882	6.15
652.212	6.14
652.542	6.14
652.872	6.15
653.203	6.15
653.533	6.17
653.863	6.15
654.193	6.13
654.523	6.14
654.853	6.15
655.183	6.15
655.513	6.14
655.843	6.13
656.172	6.14
656.502	6.17
656.832	6.17
657.162	6.19
657.491	6.19
657.821	6.2
658.15	6.19
658.48	6.18
658.809	6.19
659.139	6.2
659.468	6.21
659.798	6.23
660.127	6.25
660.456	6.24
660.785	6.25
661.115	6.27
661.444	6.27
661.773	6.28
662.102	6.29
662.431	6.28
662.76	6.3
663.089	6.3
663.418	6.28
663.747	6.29
664.076	6.29
664.404	6.29
664.733	6.3
665.062	6.31
665.39	6.31
665.719	6.28
666.048	6.3
666.376	6.29
666.705	6.25
667.033	6.25
667.362	6.24
667.69	6.26
668.018	6.26
668.347	6.27
668.675	6.28
669.003	6.28
669.331	6.28
669.659	6.27
669.987	6.28
670.315	6.29
670.643	6.3
670.971	6.33
671.299	6.33
671.627	6.33
671.955	6.32
672.283	6.32
672.61	6.35
672.938	6.32
673.266	6.34
673.593	6.37
673.921	6.36
674.249	6.36
674.576	6.37
674.904	6.39
675.231	6.43
675.558	6.45
675.886	6.46
676.213	6.46
676.54	6.48
676.867	6.5
677.195	6.52
677.522	6.52
677.849	6.51
678.176	6.53
678.503	6.53
678.83	6.55
679.157	6.55
679.484	6.54
679.81	6.55
680.137	6.54
680.464	6.53
680.791	6.54
