Data from UWBM12228_Reflection_00009.txt Node
Date: Sun May 02 12:54:00 EDT 2021
User: vgr7
Spectrometer: USB2G7710
Scans to average: 10
Trigger mode: 4
Integration Time (sec): 1.000000E-1
Electric dark correction enabled: true
Boxcar width: 20
XAxis mode: Wavelengths
Number of Pixels in Spectrum: 2048
>>>>>Begin Spectral Data<<<<<
177.721	98.78
178.105	98.22
178.488	98.1
178.871	97.21
179.254	95.46
179.636	93.11
180.019	92.22
180.402	90.33
180.785	90.31
181.168	88.73
181.55	85.83
181.933	112.83
182.316	113.59
182.698	115.38
183.081	116.79
183.463	118.25
183.846	120.09
184.228	120.41
184.611	121.18
184.993	123.64
185.376	126.28
185.758	-86.41
186.14	-34.4
186.522	-2.43
186.904	9.73
187.287	22.01
187.669	26.66
188.051	26.61
188.433	27.8
188.815	24.54
189.197	24.64
189.579	23.78
189.961	23.16
190.342	21.06
190.724	24.21
191.106	24.85
191.488	25.29
191.869	21.7
192.251	20.45
192.633	17.02
193.014	15.78
193.396	15.93
193.777	21.48
194.159	20.6
194.54	18.91
194.922	20.15
195.303	22.83
195.684	22.86
196.065	23.93
196.447	19.71
196.828	17.84
197.209	18.67
197.59	8.92
197.971	8.11
198.352	10.08
198.733	13.99
199.114	14.46
199.495	14.48
199.876	14.07
200.257	12.15
200.638	11.12
201.018	6.25
201.399	5.24
201.78	3
202.16	1.98
202.541	2.73
202.922	0.84
203.302	-1.66
203.683	-1.29
204.063	-0.55
204.444	-0.54
204.824	0.41
205.204	3
205.585	11.06
205.965	10.31
206.345	9.54
206.725	2.88
207.106	3.86
207.486	4.92
207.866	7.13
208.246	7.28
208.626	10.39
209.006	14.72
209.386	10.49
209.766	11.7
210.145	11.67
210.525	11.01
210.905	11.36
211.285	12.86
211.664	10.27
212.044	11.98
212.424	12
212.803	7.06
213.183	8.6
213.562	8.58
213.942	6.62
214.321	2.83
214.701	1.45
215.08	2.09
215.459	1.22
215.838	0.67
216.218	1.94
216.597	0.72
216.976	-1.86
217.355	-1.55
217.734	-2.21
218.113	-1.52
218.492	2.28
218.871	2.48
219.25	2.26
219.629	1.85
220.008	1.49
220.387	2.6
220.766	3.19
221.144	2.56
221.523	4.25
221.902	5.08
222.28	6.39
222.659	6.39
223.037	5.85
223.416	5.84
223.794	6.7
224.173	5.76
224.551	5.39
224.929	5.88
225.308	6.61
225.686	6.35
226.064	6.64
226.442	6.32
226.821	5.84
227.199	5.82
227.577	5.51
227.955	5.38
228.333	5.19
228.711	5.18
229.089	5.32
229.467	5
229.845	5.8
230.222	5.72
230.6	6.01
230.978	5.91
231.356	5.49
231.733	5.09
232.111	5.11
232.488	5.05
232.866	4.98
233.243	4.63
233.621	4.72
233.998	4.18
234.376	4.34
234.753	4.36
235.13	4.4
235.508	4.92
235.885	4.83
236.262	4.91
236.639	4.86
237.016	4.8
237.393	4.82
237.77	4.66
238.147	4.64
238.524	4.66
238.901	4.73
239.278	4.74
239.655	4.77
240.032	4.66
240.409	4.66
240.785	4.55
241.162	4.62
241.539	4.56
241.915	4.57
242.292	4.54
242.668	4.49
243.045	4.45
243.421	4.36
243.798	4.35
244.174	4.34
244.551	4.31
244.927	4.16
245.303	4.1
245.679	4.11
246.056	4.08
246.432	4.06
246.808	3.85
247.184	3.88
247.56	3.85
247.936	3.85
248.312	3.86
248.688	3.97
249.064	3.93
249.44	3.88
249.815	3.88
250.191	3.84
250.567	3.8
250.943	3.85
251.318	3.91
251.694	3.83
252.069	3.8
252.445	3.79
252.82	3.86
253.196	3.88
253.571	3.84
253.947	3.91
254.322	3.87
254.697	3.99
255.073	3.95
255.448	3.94
255.823	3.91
256.198	3.87
256.573	3.69
256.948	3.68
257.323	3.67
257.698	3.61
258.073	3.61
258.448	3.49
258.823	3.46
259.198	3.45
259.573	3.49
259.948	3.53
260.322	3.5
260.697	3.49
261.072	3.47
261.446	3.45
261.821	3.45
262.195	3.43
262.57	3.39
262.944	3.4
263.319	3.38
263.693	3.38
264.067	3.4
264.442	3.49
264.816	3.48
265.19	3.44
265.564	3.5
265.938	3.48
266.313	3.53
266.687	3.47
267.061	3.48
267.435	3.46
267.809	3.44
268.183	3.42
268.556	3.42
268.93	3.42
269.304	3.4
269.678	3.34
270.051	3.32
270.425	3.33
270.799	3.35
271.172	3.36
271.546	3.36
271.919	3.37
272.293	3.36
272.666	3.36
273.04	3.36
273.413	3.31
273.787	3.3
274.16	3.31
274.533	3.33
274.906	3.29
275.279	3.3
275.653	3.28
276.026	3.27
276.399	3.24
276.772	3.23
277.145	3.26
277.518	3.26
277.891	3.29
278.263	3.29
278.636	3.3
279.009	3.31
279.382	3.27
279.755	3.21
280.127	3.23
280.5	3.25
280.872	3.22
281.245	3.33
281.617	3.35
281.99	3.37
282.362	3.39
282.735	3.39
283.107	3.4
283.479	3.42
283.852	3.44
284.224	3.46
284.596	3.43
284.968	3.34
285.34	3.34
285.713	3.32
286.085	3.25
286.457	3.26
286.829	3.24
287.201	3.25
287.572	3.31
287.944	3.32
288.316	3.38
288.688	3.43
289.06	3.43
289.431	3.44
289.803	3.46
290.175	3.48
290.546	3.51
290.918	3.54
291.289	3.52
291.661	3.56
292.032	3.54
292.403	3.56
292.775	3.67
293.146	3.67
293.517	3.72
293.889	3.8
294.26	3.82
294.631	3.86
295.002	3.92
295.373	3.97
295.744	3.97
296.115	4
296.486	3.95
296.857	3.97
297.228	3.98
297.599	4
297.97	4.01
298.34	4.05
298.711	4.03
299.082	4.06
299.452	4.11
299.823	4.19
300.194	4.24
300.564	4.26
300.935	4.29
301.305	4.3
301.676	4.32
302.046	4.36
302.416	4.4
302.787	4.44
303.157	4.42
303.527	4.47
303.897	4.51
304.267	4.57
304.637	4.64
305.008	4.69
305.378	4.75
305.748	4.78
306.117	4.91
306.487	5.02
306.857	5.11
307.227	5.17
307.597	5.22
307.967	5.25
308.336	5.31
308.706	5.37
309.076	5.41
309.445	5.46
309.815	5.39
310.184	5.44
310.554	5.44
310.923	5.52
311.293	5.6
311.662	5.66
312.031	5.71
312.401	5.77
312.77	5.79
313.139	5.84
313.508	5.91
313.877	5.92
314.246	5.95
314.616	5.97
314.985	5.97
315.353	6.02
315.722	6.08
316.091	6.14
316.46	6.22
316.829	6.3
317.198	6.36
317.567	6.54
317.935	6.6
318.304	6.7
318.672	6.78
319.041	6.85
319.41	6.93
319.778	7.03
320.147	7.1
320.515	7.16
320.883	7.21
321.252	7.2
321.62	7.28
321.988	7.35
322.357	7.41
322.725	7.51
323.093	7.57
323.461	7.62
323.829	7.69
324.197	7.72
324.565	7.76
324.933	7.83
325.301	7.85
325.669	7.88
326.037	7.92
326.405	7.91
326.772	7.97
327.14	7.99
327.508	8.01
327.875	8.06
328.243	8.11
328.61	8.11
328.978	8.16
329.346	8.19
329.713	8.21
330.08	8.25
330.448	8.27
330.815	8.27
331.182	8.32
331.55	8.33
331.917	8.38
332.284	8.42
332.651	8.47
333.018	8.49
333.385	8.54
333.752	8.59
334.119	8.63
334.486	8.65
334.853	8.65
335.22	8.69
335.587	8.71
335.954	8.74
336.32	8.79
336.687	8.82
337.054	8.85
337.42	8.88
337.787	8.9
338.153	8.93
338.52	8.98
338.886	9.02
339.253	9.04
339.619	9.05
339.986	9.03
340.352	9.04
340.718	9.09
341.084	9.11
341.451	9.11
341.817	9.11
342.183	9.12
342.549	9.15
342.915	9.16
343.281	9.17
343.647	9.2
344.013	9.22
344.379	9.24
344.745	9.26
345.11	9.27
345.476	9.29
345.842	9.31
346.208	9.29
346.573	9.3
346.939	9.32
347.304	9.31
347.67	9.3
348.035	9.32
348.401	9.32
348.766	9.32
349.132	9.32
349.497	9.34
349.862	9.35
350.228	9.36
350.593	9.35
350.958	9.33
351.323	9.3
351.688	9.3
352.053	9.27
352.418	9.27
352.783	9.26
353.148	9.23
353.513	9.2
353.878	9.17
354.243	9.15
354.608	9.13
354.972	9.12
355.337	9.09
355.702	9.05
356.066	9.04
356.431	9.01
356.795	8.97
357.16	8.92
357.524	8.89
357.889	8.87
358.253	8.85
358.618	8.82
358.982	8.8
359.346	8.78
359.71	8.75
360.075	8.73
360.439	8.7
360.803	8.66
361.167	8.63
361.531	8.6
361.895	8.57
362.259	8.54
362.623	8.52
362.987	8.47
363.351	8.45
363.714	8.42
364.078	8.38
364.442	8.34
364.806	8.31
365.169	8.25
365.533	8.22
365.896	8.17
366.26	8.14
366.623	8.08
366.987	8.03
367.35	7.99
367.714	7.95
368.077	7.9
368.44	7.86
368.803	7.82
369.167	7.77
369.53	7.72
369.893	7.67
370.256	7.63
370.619	7.58
370.982	7.52
371.345	7.45
371.708	7.4
372.071	7.35
372.434	7.3
372.797	7.26
373.159	7.21
373.522	7.14
373.885	7.08
374.247	7.01
374.61	6.96
374.973	6.9
375.335	6.83
375.698	6.78
376.06	6.73
376.423	6.67
376.785	6.61
377.147	6.54
377.51	6.5
377.872	6.45
378.234	6.39
378.596	6.35
378.958	6.31
379.321	6.26
379.683	6.22
380.045	6.17
380.407	6.12
380.769	6.06
381.13	6.02
381.492	5.98
381.854	5.94
382.216	5.9
382.578	5.86
382.939	5.83
383.301	5.78
383.663	5.74
384.024	5.7
384.386	5.66
384.747	5.62
385.109	5.57
385.47	5.52
385.832	5.49
386.193	5.45
386.554	5.4
386.916	5.37
387.277	5.34
387.638	5.32
387.999	5.29
388.36	5.26
388.721	5.23
389.082	5.2
389.443	5.17
389.804	5.14
390.165	5.11
390.526	5.09
390.887	5.06
391.248	5.02
391.609	5
391.969	4.98
392.33	4.96
392.691	4.93
393.051	4.9
393.412	4.86
393.772	4.84
394.133	4.81
394.493	4.77
394.854	4.75
395.214	4.72
395.574	4.69
395.935	4.66
396.295	4.63
396.655	4.6
397.015	4.58
397.376	4.54
397.736	4.52
398.096	4.48
398.456	4.46
398.816	4.45
399.176	4.41
399.535	4.39
399.895	4.37
400.255	4.35
400.615	4.33
400.975	4.31
401.334	4.28
401.694	4.26
402.054	4.24
402.413	4.2
402.773	4.19
403.132	4.17
403.492	4.15
403.851	4.14
404.211	4.12
404.57	4.12
404.929	4.11
405.288	4.09
405.648	4.09
406.007	4.08
406.366	4.07
406.725	4.06
407.084	4.04
407.443	4.03
407.802	4.01
408.161	4
408.52	3.98
408.879	3.97
409.238	3.96
409.596	3.95
409.955	3.95
410.314	3.94
410.673	3.92
411.031	3.91
411.39	3.91
411.748	3.91
412.107	3.9
412.465	3.9
412.824	3.9
413.182	3.91
413.54	3.91
413.899	3.92
414.257	3.93
414.615	3.95
414.974	3.97
415.332	3.99
415.69	4.02
416.048	4.03
416.406	4.06
416.764	4.07
417.122	4.08
417.48	4.1
417.838	4.12
418.195	4.13
418.553	4.14
418.911	4.14
419.269	4.13
419.626	4.12
419.984	4.11
420.342	4.08
420.699	4.06
421.057	4.04
421.414	4.02
421.772	4
422.129	3.99
422.486	3.98
422.844	3.97
423.201	3.96
423.558	3.96
423.915	3.95
424.273	3.94
424.63	3.93
424.987	3.93
425.344	3.92
425.701	3.92
426.058	3.91
426.415	3.9
426.772	3.89
427.128	3.88
427.485	3.87
427.842	3.86
428.199	3.84
428.555	3.82
428.912	3.8
429.269	3.77
429.625	3.76
429.982	3.73
430.338	3.7
430.695	3.68
431.051	3.65
431.407	3.63
431.764	3.61
432.12	3.59
432.476	3.58
432.832	3.57
433.189	3.57
433.545	3.57
433.901	3.58
434.257	3.59
434.613	3.61
434.969	3.63
435.325	3.65
435.681	3.69
436.036	3.69
436.392	3.71
436.748	3.72
437.104	3.71
437.459	3.73
437.815	3.74
438.171	3.76
438.526	3.78
438.882	3.8
439.237	3.82
439.593	3.85
439.948	3.88
440.304	3.91
440.659	3.93
441.014	3.94
441.369	3.96
441.725	3.97
442.08	3.98
442.435	3.99
442.79	3.99
443.145	3.99
443.5	3.99
443.855	3.99
444.21	3.98
444.565	3.98
444.92	3.96
445.275	3.95
445.629	3.94
445.984	3.93
446.339	3.92
446.693	3.92
447.048	3.9
447.403	3.89
447.757	3.86
448.112	3.84
448.466	3.82
448.82	3.81
449.175	3.79
449.529	3.78
449.883	3.76
450.238	3.74
450.592	3.73
450.946	3.72
451.3	3.72
451.654	3.72
452.008	3.72
452.362	3.72
452.716	3.72
453.07	3.71
453.424	3.7
453.778	3.69
454.132	3.68
454.486	3.66
454.839	3.65
455.193	3.63
455.547	3.61
455.9	3.59
456.254	3.57
456.607	3.54
456.961	3.52
457.314	3.5
457.668	3.5
458.021	3.5
458.375	3.49
458.728	3.5
459.081	3.5
459.434	3.51
459.787	3.51
460.141	3.52
460.494	3.53
460.847	3.53
461.2	3.54
461.553	3.55
461.906	3.55
462.259	3.56
462.611	3.57
462.964	3.58
463.317	3.58
463.67	3.58
464.022	3.59
464.375	3.59
464.728	3.6
465.08	3.6
465.433	3.61
465.785	3.61
466.138	3.6
466.49	3.6
466.843	3.59
467.195	3.58
467.547	3.57
467.899	3.56
468.252	3.54
468.604	3.53
468.956	3.52
469.308	3.51
469.66	3.51
470.012	3.51
470.364	3.52
470.716	3.53
471.068	3.55
471.42	3.57
471.772	3.59
472.123	3.6
472.475	3.62
472.827	3.63
473.178	3.64
473.53	3.65
473.882	3.67
474.233	3.68
474.585	3.72
474.936	3.77
475.288	3.85
475.639	3.95
475.99	4.06
476.342	4.19
476.693	4.32
477.044	4.46
477.395	4.6
477.746	4.75
478.097	4.89
478.448	5.04
478.8	5.19
479.15	5.32
479.501	5.44
479.852	5.55
480.203	5.65
480.554	5.74
480.905	5.84
481.255	5.93
481.606	6.02
481.957	6.09
482.307	6.17
482.658	6.24
483.009	6.31
483.359	6.38
483.709	6.44
484.06	6.5
484.41	6.56
484.761	6.62
485.111	6.67
485.461	6.72
485.811	6.77
486.162	6.82
486.512	6.86
486.862	6.89
487.212	6.91
487.562	6.93
487.912	6.94
488.262	6.94
488.612	6.94
488.961	6.92
489.311	6.89
489.661	6.84
490.011	6.76
490.36	6.68
490.71	6.57
491.06	6.46
491.409	6.34
491.759	6.22
492.108	6.1
492.458	5.97
492.807	5.84
493.157	5.7
493.506	5.58
493.855	5.46
494.204	5.35
494.554	5.25
494.903	5.16
495.252	5.07
495.601	4.98
495.95	4.9
496.299	4.83
496.648	4.76
496.997	4.7
497.346	4.64
497.695	4.58
498.043	4.54
498.392	4.49
498.741	4.45
499.09	4.41
499.438	4.37
499.787	4.33
500.135	4.31
500.484	4.29
500.832	4.28
501.181	4.28
501.529	4.29
501.878	4.31
502.226	4.34
502.574	4.38
502.923	4.41
503.271	4.46
503.619	4.5
503.967	4.55
504.315	4.6
504.663	4.64
505.011	4.69
505.359	4.73
505.707	4.79
506.055	4.84
506.403	4.9
506.751	4.95
507.098	5.01
507.446	5.08
507.794	5.15
508.141	5.22
508.489	5.3
508.837	5.38
509.184	5.46
509.531	5.54
509.879	5.62
510.226	5.71
510.574	5.8
510.921	5.89
511.268	5.99
511.616	6.09
511.963	6.19
512.31	6.3
512.657	6.4
513.004	6.5
513.351	6.6
513.698	6.69
514.045	6.78
514.392	6.87
514.739	6.95
515.086	7.02
515.432	7.1
515.779	7.18
516.126	7.27
516.473	7.36
516.819	7.45
517.166	7.56
517.512	7.67
517.859	7.78
518.205	7.92
518.552	8.06
518.898	8.22
519.245	8.4
519.591	8.62
519.937	8.89
520.283	9.19
520.629	9.53
520.976	9.89
521.322	10.26
521.668	10.63
522.014	11.01
522.36	11.39
522.706	11.76
523.052	12.13
523.398	12.48
523.743	12.8
524.089	13.1
524.435	13.39
524.781	13.67
525.126	13.94
525.472	14.21
525.817	14.49
526.163	14.75
526.509	15.01
526.854	15.27
527.199	15.54
527.545	15.8
527.89	16.08
528.235	16.35
528.581	16.61
528.926	16.86
529.271	17.11
529.616	17.34
529.961	17.54
530.306	17.73
530.651	17.93
530.996	18.12
531.341	18.29
531.686	18.46
532.031	18.63
532.376	18.81
532.721	19.01
533.065	19.24
533.41	19.48
533.755	19.71
534.099	19.91
534.444	20.11
534.788	20.29
535.133	20.47
535.477	20.64
535.822	20.79
536.166	20.92
536.51	21.02
536.855	21.09
537.199	21.13
537.543	21.17
537.887	21.23
538.231	21.32
538.576	21.41
538.92	21.49
539.264	21.57
539.608	21.63
539.951	21.69
540.295	21.73
540.639	21.78
540.983	21.81
541.327	21.85
541.671	21.88
542.014	21.91
542.358	21.97
542.701	22.07
543.045	22.2
543.389	22.35
543.732	22.52
544.075	22.7
544.419	22.89
544.762	23.08
545.105	23.3
545.449	23.53
545.792	23.76
546.135	24
546.478	24.21
546.821	24.39
547.165	24.53
547.508	24.64
547.851	24.72
548.194	24.77
548.536	24.8
548.879	24.8
549.222	24.8
549.565	24.78
549.908	24.78
550.25	24.8
550.593	24.85
550.936	24.95
551.278	25.1
551.621	25.27
551.963	25.47
552.306	25.67
552.648	25.9
552.991	26.15
553.333	26.42
553.675	26.71
554.017	27.03
554.36	27.37
554.702	27.74
555.044	28.14
555.386	28.57
555.728	28.98
556.07	29.37
556.412	29.76
556.754	30.06
557.096	30.36
557.438	30.67
557.78	30.97
558.121	31.28
558.463	31.59
558.805	31.9
559.147	32.2
559.488	32.51
559.83	32.82
560.171	33.12
560.513	33.42
560.854	33.72
561.196	34
561.537	34.3
561.878	34.58
562.22	34.85
562.561	35.13
562.902	35.4
563.243	35.67
563.584	35.94
563.925	36.21
564.266	36.47
564.607	36.72
564.948	36.98
565.289	37.24
565.63	37.48
565.971	37.72
566.312	37.96
566.653	38.2
566.993	38.42
567.334	38.64
567.675	38.87
568.015	39.09
568.356	39.3
568.696	39.51
569.037	39.71
569.377	39.91
569.718	40.1
570.058	40.27
570.398	40.45
570.739	40.62
571.079	40.79
571.419	40.94
571.759	41.1
572.099	41.25
572.439	41.41
572.779	41.57
573.119	41.71
573.459	41.85
573.799	42
574.139	42.15
574.479	42.29
574.819	42.42
575.158	42.56
575.498	42.7
575.838	42.83
576.177	42.95
576.517	43.07
576.856	43.19
577.196	43.31
577.535	43.43
577.875	43.55
578.214	43.67
578.553	43.79
578.893	43.9
579.232	44
579.571	44.12
579.91	44.23
580.25	44.34
580.589	44.46
580.928	44.57
581.267	44.68
581.606	44.8
581.945	44.91
582.283	45.01
582.622	45.11
582.961	45.23
583.3	45.35
583.639	45.47
583.977	45.59
584.316	45.7
584.654	45.82
584.993	45.94
585.332	46.05
585.67	46.16
586.008	46.26
586.347	46.36
586.685	46.47
587.024	46.57
587.362	46.68
587.7	46.79
588.038	46.89
588.376	46.99
588.715	47.1
589.053	47.22
589.391	47.32
589.729	47.43
590.067	47.54
590.404	47.65
590.742	47.76
591.08	47.87
591.418	47.97
591.756	48.06
592.093	48.15
592.431	48.25
592.769	48.34
593.106	48.42
593.444	48.5
593.781	48.56
594.119	48.64
594.456	48.7
594.793	48.77
595.131	48.84
595.468	48.91
595.805	48.98
596.143	49.06
596.48	49.14
596.817	49.23
597.154	49.31
597.491	49.4
597.828	49.48
598.165	49.57
598.502	49.64
598.839	49.73
599.176	49.78
599.512	49.85
599.849	49.91
600.186	49.98
600.523	50.04
600.859	50.09
601.196	50.14
601.532	50.2
601.869	50.26
602.205	50.32
602.542	50.38
602.878	50.43
603.215	50.48
603.551	50.52
603.887	50.56
604.223	50.61
604.56	50.64
604.896	50.68
605.232	50.72
605.568	50.77
605.904	50.8
606.24	50.84
606.576	50.87
606.912	50.9
607.248	50.94
607.583	50.98
607.919	51.02
608.255	51.06
608.591	51.1
608.926	51.13
609.262	51.17
609.597	51.2
609.933	51.23
610.268	51.26
610.604	51.28
610.939	51.3
611.275	51.31
611.61	51.33
611.945	51.35
612.281	51.36
612.616	51.38
612.951	51.41
613.286	51.43
613.621	51.45
613.956	51.48
614.291	51.49
614.626	51.53
614.961	51.58
615.296	51.6
615.631	51.63
615.966	51.65
616.3	51.66
616.635	51.69
616.97	51.7
617.304	51.71
617.639	51.73
617.973	51.75
618.308	51.79
618.642	51.82
618.977	51.84
619.311	51.86
619.646	51.9
619.98	51.93
620.314	51.97
620.648	52.02
620.983	52.05
621.317	52.09
621.651	52.12
621.985	52.16
622.319	52.19
622.653	52.23
622.987	52.25
623.321	52.28
623.655	52.33
623.988	52.37
624.322	52.39
624.656	52.42
624.99	52.45
625.323	52.49
625.657	52.51
625.99	52.55
626.324	52.58
626.657	52.61
626.991	52.62
627.324	52.64
627.658	52.67
627.991	52.7
628.324	52.72
628.657	52.73
628.991	52.76
629.324	52.78
629.657	52.81
629.99	52.84
630.323	52.87
630.656	52.91
630.989	52.94
631.322	52.97
631.655	53
631.987	53.01
632.32	53.04
632.653	53.06
632.986	53.09
633.318	53.1
633.651	53.12
633.984	53.14
634.316	53.16
634.649	53.17
634.981	53.18
635.313	53.19
635.646	53.21
635.978	53.23
636.31	53.24
636.643	53.25
636.975	53.26
637.307	53.27
637.639	53.29
637.971	53.32
638.303	53.34
638.635	53.36
638.967	53.38
639.299	53.39
639.631	53.41
639.963	53.43
640.295	53.45
640.626	53.49
640.958	53.52
641.29	53.54
641.621	53.56
641.953	53.58
642.285	53.61
642.616	53.63
642.948	53.63
643.279	53.67
643.61	53.69
643.942	53.71
644.273	53.72
644.604	53.73
644.936	53.76
645.267	53.79
645.598	53.82
645.929	53.83
646.26	53.85
646.591	53.86
646.922	53.88
647.253	53.9
647.584	53.93
647.915	53.95
648.245	53.99
648.576	54.02
648.907	54.04
649.238	54.06
649.568	54.08
649.899	54.08
650.229	54.12
650.56	54.15
650.89	54.17
651.221	54.19
651.551	54.2
651.882	54.22
652.212	54.24
652.542	54.24
652.872	54.27
653.203	54.3
653.533	54.31
653.863	54.31
654.193	54.32
654.523	54.33
654.853	54.35
655.183	54.38
655.513	54.42
655.843	54.44
656.172	54.46
656.502	54.47
656.832	54.46
657.162	54.47
657.491	54.48
657.821	54.51
658.15	54.52
658.48	54.55
658.809	54.56
659.139	54.58
659.468	54.61
659.798	54.62
660.127	54.65
660.456	54.7
660.785	54.73
661.115	54.75
661.444	54.77
661.773	54.77
662.102	54.79
662.431	54.8
662.76	54.81
663.089	54.81
663.418	54.85
663.747	54.85
664.076	54.87
664.404	54.89
664.733	54.91
665.062	54.94
665.39	54.96
665.719	54.98
666.048	55.01
666.376	55.01
666.705	55.03
667.033	55.04
667.362	55.06
667.69	55.08
668.018	55.12
668.347	55.12
668.675	55.11
669.003	55.1
669.331	55.11
669.659	55.12
669.987	55.16
670.315	55.19
670.643	55.22
670.971	55.24
671.299	55.24
