Data from UWBM42201_Reflection_00006.txt Node
Date: Sun May 02 12:48:36 EDT 2021
User: vgr7
Spectrometer: USB2G7710
Scans to average: 10
Trigger mode: 4
Integration Time (sec): 1.000000E-1
Electric dark correction enabled: true
Boxcar width: 20
XAxis mode: Wavelengths
Number of Pixels in Spectrum: 2048
>>>>>Begin Spectral Data<<<<<
177.721	100.27
178.105	99.04
178.488	98.69
178.871	99.66
179.254	98.7
179.636	96.87
180.019	95.7
180.402	94.36
180.785	92.56
181.168	91.54
181.55	88.82
181.933	111.39
182.316	111.09
182.698	113.37
183.081	115.35
183.463	116.46
183.846	118.62
184.228	120.6
184.611	120.91
184.993	121.93
185.376	124.48
185.758	-77.08
186.14	-26.12
186.522	-3.25
186.904	11.94
187.287	19.36
187.669	20.42
188.051	20.57
188.433	23.71
188.815	17.68
189.197	18.76
189.579	17.73
189.961	18.03
190.342	12.7
190.724	14.88
191.106	13.56
191.488	13.21
191.869	8.29
192.251	8.89
192.633	5.29
193.014	2.19
193.396	1.43
193.777	9.67
194.159	10
194.54	4.49
194.922	4.59
195.303	6.39
195.684	7.35
196.065	6.86
196.447	3.96
196.828	2.07
197.209	3.09
197.59	-8.71
197.971	-11.2
198.352	-8.87
198.733	-5.04
199.114	-6.59
199.495	-7.14
199.876	-5.67
200.257	-7.9
200.638	-11.55
201.018	-18
201.399	-19.31
201.78	-21.03
202.16	-19.45
202.541	-19.48
202.922	-19.45
203.302	-23.61
203.683	-22.73
204.063	-24.23
204.444	-22.36
204.824	-20.35
205.204	-18.07
205.585	-8.83
205.965	-8.68
206.345	-7.06
206.725	-11.94
207.106	-11.79
207.486	-11.69
207.866	-11.14
208.246	-10.77
208.626	-8.73
209.006	-4
209.386	-10.65
209.766	-10.83
210.145	-11.28
210.525	-12.4
210.905	-11.92
211.285	-10.91
211.664	-11.92
212.044	-9.48
212.424	-8.76
212.803	-14.89
213.183	-11.46
213.562	-11.53
213.942	-13.48
214.321	-17.73
214.701	-18.95
215.08	-16.12
215.459	-16.52
215.838	-17.25
216.218	-15.92
216.597	-16.59
216.976	-20.2
217.355	-18.93
217.734	-18.8
218.113	-18.04
218.492	-16.11
218.871	-14.1
219.25	-13.46
219.629	-13.77
220.008	-13.14
220.387	-12.46
220.766	-11.26
221.144	-10.8
221.523	-7.51
221.902	-6.69
222.28	-5
222.659	-2.84
223.037	-2.45
223.416	-1.51
223.794	0.27
224.173	0.57
224.551	0.4
224.929	1.16
225.308	1.97
225.686	2.22
226.064	2.65
226.442	2.78
226.821	2.47
227.199	2.17
227.577	1.76
227.955	0.94
228.333	0.87
228.711	0.88
229.089	1.51
229.467	1.36
229.845	2.4
230.222	2.75
230.6	2.95
230.978	3.05
231.356	2.74
231.733	2.79
232.111	2.99
232.488	3.16
232.866	3.19
233.243	2.91
233.621	3.15
233.998	2.99
234.376	3.2
234.753	3.39
235.13	3.71
235.508	4.26
235.885	4.4
236.262	4.42
236.639	4.55
237.016	4.49
237.393	4.55
237.77	4.46
238.147	4.39
238.524	4.48
238.901	4.56
239.278	4.64
239.655	4.69
240.032	4.76
240.409	4.83
240.785	4.82
241.162	4.93
241.539	4.94
241.915	4.97
242.292	4.96
242.668	4.95
243.045	4.96
243.421	4.92
243.798	4.9
244.174	4.91
244.551	4.82
244.927	4.67
245.303	4.63
245.679	4.65
246.056	4.62
246.432	4.59
246.808	4.38
247.184	4.39
247.56	4.36
247.936	4.34
248.312	4.33
248.688	4.43
249.064	4.39
249.44	4.36
249.815	4.36
250.191	4.32
250.567	4.29
250.943	4.36
251.318	4.37
251.694	4.34
252.069	4.28
252.445	4.3
252.82	4.39
253.196	4.41
253.571	4.38
253.947	4.46
254.322	4.44
254.697	4.55
255.073	4.54
255.448	4.52
255.823	4.5
256.198	4.45
256.573	4.27
256.948	4.24
257.323	4.25
257.698	4.2
258.073	4.19
258.448	4.07
258.823	4.06
259.198	4.05
259.573	4.08
259.948	4.13
260.322	4.09
260.697	4.08
261.072	4.07
261.446	4.06
261.821	4.06
262.195	4.05
262.57	4.03
262.944	4.01
263.319	4.01
263.693	4.06
264.067	4.06
264.442	4.15
264.816	4.15
265.19	4.12
265.564	4.17
265.938	4.15
266.313	4.21
266.687	4.17
267.061	4.16
267.435	4.14
267.809	4.11
268.183	4.1
268.556	4.1
268.93	4.09
269.304	4.07
269.678	4.04
270.051	4
270.425	3.99
270.799	4
271.172	3.99
271.546	3.98
271.919	3.99
272.293	3.98
272.666	3.96
273.04	3.98
273.413	3.92
273.787	3.91
274.16	3.91
274.533	3.93
274.906	3.91
275.279	3.92
275.653	3.92
276.026	3.9
276.399	3.88
276.772	3.88
277.145	3.89
277.518	3.9
277.891	3.91
278.263	3.93
278.636	3.94
279.009	3.94
279.382	3.92
279.755	3.88
280.127	3.89
280.5	3.91
280.872	3.89
281.245	3.99
281.617	3.99
281.99	3.99
282.362	4.02
282.735	4.02
283.107	4.01
283.479	4.03
283.852	4.05
284.224	4.07
284.596	4.05
284.968	3.94
285.34	3.95
285.713	3.92
286.085	3.84
286.457	3.85
286.829	3.84
287.201	3.84
287.572	3.88
287.944	3.9
288.316	3.93
288.688	3.95
289.06	3.96
289.431	3.97
289.803	3.96
290.175	3.97
290.546	3.98
290.918	3.99
291.289	3.97
291.661	3.98
292.032	3.93
292.403	3.95
292.775	4.04
293.146	4.04
293.517	4.07
293.889	4.11
294.26	4.1
294.631	4.13
295.002	4.16
295.373	4.18
295.744	4.16
296.115	4.16
296.486	4.11
296.857	4.12
297.228	4.13
297.599	4.12
297.97	4.11
298.34	4.13
298.711	4.07
299.082	4.05
299.452	4.07
299.823	4.1
300.194	4.12
300.564	4.1
300.935	4.12
301.305	4.11
301.676	4.11
302.046	4.11
302.416	4.12
302.787	4.13
303.157	4.06
303.527	4.07
303.897	4.09
304.267	4.09
304.637	4.1
305.008	4.13
305.378	4.15
305.748	4.15
306.117	4.21
306.487	4.26
306.857	4.31
307.227	4.33
307.597	4.32
307.967	4.32
308.336	4.34
308.706	4.35
309.076	4.36
309.445	4.37
309.815	4.26
310.184	4.25
310.554	4.21
310.923	4.24
311.293	4.26
311.662	4.27
312.031	4.25
312.401	4.24
312.77	4.22
313.139	4.22
313.508	4.24
313.877	4.19
314.246	4.17
314.616	4.15
314.985	4.09
315.353	4.09
315.722	4.1
316.091	4.1
316.46	4.11
316.829	4.13
317.198	4.14
317.567	4.27
317.935	4.27
318.304	4.32
318.672	4.32
319.041	4.31
319.41	4.33
319.778	4.35
320.147	4.37
320.515	4.36
320.883	4.36
321.252	4.3
321.62	4.34
321.988	4.33
322.357	4.32
322.725	4.38
323.093	4.39
323.461	4.37
323.829	4.37
324.197	4.36
324.565	4.34
324.933	4.33
325.301	4.32
325.669	4.32
326.037	4.33
326.405	4.28
326.772	4.26
327.14	4.26
327.508	4.25
327.875	4.25
328.243	4.25
328.61	4.21
328.978	4.23
329.346	4.24
329.713	4.23
330.08	4.24
330.448	4.23
330.815	4.2
331.182	4.21
331.55	4.2
331.917	4.21
332.284	4.2
332.651	4.22
333.018	4.22
333.385	4.22
333.752	4.24
334.119	4.25
334.486	4.25
334.853	4.23
335.22	4.22
335.587	4.2
335.954	4.2
336.32	4.21
336.687	4.21
337.054	4.21
337.42	4.23
337.787	4.22
338.153	4.24
338.52	4.28
338.886	4.3
339.253	4.3
339.619	4.29
339.986	4.27
340.352	4.27
340.718	4.3
341.084	4.29
341.451	4.29
341.817	4.27
342.183	4.25
342.549	4.28
342.915	4.27
343.281	4.3
343.647	4.3
344.013	4.32
344.379	4.33
344.745	4.33
345.11	4.33
345.476	4.35
345.842	4.36
346.208	4.33
346.573	4.32
346.939	4.34
347.304	4.34
347.67	4.33
348.035	4.35
348.401	4.33
348.766	4.34
349.132	4.34
349.497	4.35
349.862	4.36
350.228	4.37
350.593	4.39
350.958	4.38
351.323	4.37
351.688	4.37
352.053	4.36
352.418	4.35
352.783	4.35
353.148	4.34
353.513	4.32
353.878	4.33
354.243	4.33
354.608	4.34
354.972	4.34
355.337	4.33
355.702	4.31
356.066	4.32
356.431	4.31
356.795	4.31
357.16	4.3
357.524	4.29
357.889	4.29
358.253	4.29
358.618	4.29
358.982	4.3
359.346	4.3
359.71	4.31
360.075	4.32
360.439	4.32
360.803	4.3
361.167	4.3
361.531	4.31
361.895	4.31
362.259	4.3
362.623	4.3
362.987	4.28
363.351	4.29
363.714	4.3
364.078	4.3
364.442	4.3
364.806	4.3
365.169	4.29
365.533	4.27
365.896	4.27
366.26	4.27
366.623	4.26
366.987	4.26
367.35	4.27
367.714	4.28
368.077	4.28
368.44	4.28
368.803	4.28
369.167	4.28
369.53	4.28
369.893	4.28
370.256	4.29
370.619	4.3
370.982	4.3
371.345	4.29
371.708	4.29
372.071	4.28
372.434	4.29
372.797	4.31
373.159	4.32
373.522	4.32
373.885	4.3
374.247	4.29
374.61	4.28
374.973	4.26
375.335	4.25
375.698	4.26
376.06	4.26
376.423	4.25
376.785	4.25
377.147	4.25
377.51	4.25
377.872	4.26
378.234	4.26
378.596	4.27
378.958	4.28
379.321	4.28
379.683	4.28
380.045	4.27
380.407	4.28
380.769	4.26
381.13	4.27
381.492	4.28
381.854	4.28
382.216	4.27
382.578	4.27
382.939	4.28
383.301	4.28
383.663	4.28
384.024	4.27
384.386	4.28
384.747	4.27
385.109	4.26
385.47	4.25
385.832	4.26
386.193	4.26
386.554	4.25
386.916	4.26
387.277	4.26
387.638	4.27
387.999	4.26
388.36	4.26
388.721	4.27
389.082	4.27
389.443	4.27
389.804	4.28
390.165	4.29
390.526	4.28
390.887	4.28
391.248	4.27
391.609	4.28
391.969	4.27
392.33	4.28
392.691	4.28
393.051	4.28
393.412	4.27
393.772	4.28
394.133	4.28
394.493	4.27
394.854	4.28
395.214	4.26
395.574	4.26
395.935	4.26
396.295	4.25
396.655	4.25
397.015	4.25
397.376	4.24
397.736	4.24
398.096	4.24
398.456	4.24
398.816	4.25
399.176	4.24
399.535	4.25
399.895	4.25
400.255	4.25
400.615	4.25
400.975	4.24
401.334	4.24
401.694	4.24
402.054	4.24
402.413	4.22
402.773	4.22
403.132	4.23
403.492	4.22
403.851	4.22
404.211	4.22
404.57	4.23
404.929	4.23
405.288	4.23
405.648	4.23
406.007	4.24
406.366	4.24
406.725	4.25
407.084	4.24
407.443	4.24
407.802	4.24
408.161	4.23
408.52	4.22
408.879	4.23
409.238	4.23
409.596	4.23
409.955	4.24
410.314	4.24
410.673	4.24
411.031	4.25
411.39	4.26
411.748	4.26
412.107	4.27
412.465	4.28
412.824	4.3
413.182	4.32
413.54	4.34
413.899	4.36
414.257	4.39
414.615	4.43
414.974	4.46
415.332	4.5
415.69	4.55
416.048	4.57
416.406	4.62
416.764	4.65
417.122	4.68
417.48	4.71
417.838	4.74
418.195	4.77
418.553	4.79
418.911	4.81
419.269	4.81
419.626	4.81
419.984	4.8
420.342	4.78
420.699	4.76
421.057	4.74
421.414	4.73
421.772	4.72
422.129	4.71
422.486	4.71
422.844	4.7
423.201	4.7
423.558	4.7
423.915	4.7
424.273	4.7
424.63	4.7
424.987	4.7
425.344	4.7
425.701	4.7
426.058	4.7
426.415	4.69
426.772	4.68
427.128	4.68
427.485	4.67
427.842	4.66
428.199	4.65
428.555	4.64
428.912	4.62
429.269	4.59
429.625	4.57
429.982	4.54
430.338	4.51
430.695	4.49
431.051	4.45
431.407	4.43
431.764	4.41
432.12	4.38
432.476	4.37
432.832	4.36
433.189	4.36
433.545	4.37
433.901	4.38
434.257	4.4
434.613	4.43
434.969	4.46
435.325	4.49
435.681	4.53
436.036	4.54
436.392	4.56
436.748	4.57
437.104	4.57
437.459	4.59
437.815	4.61
438.171	4.63
438.526	4.65
438.882	4.68
439.237	4.71
439.593	4.75
439.948	4.78
440.304	4.82
440.659	4.85
441.014	4.86
441.369	4.89
441.725	4.91
442.08	4.93
442.435	4.94
442.79	4.94
443.145	4.95
443.5	4.95
443.855	4.95
444.21	4.94
444.565	4.94
444.92	4.93
445.275	4.92
445.629	4.91
445.984	4.9
446.339	4.9
446.693	4.89
447.048	4.87
447.403	4.86
447.757	4.84
448.112	4.82
448.466	4.8
448.82	4.78
449.175	4.76
449.529	4.75
449.883	4.73
450.238	4.7
450.592	4.7
450.946	4.69
451.3	4.69
451.654	4.71
452.008	4.7
452.362	4.71
452.716	4.71
453.07	4.71
453.424	4.7
453.778	4.7
454.132	4.68
454.486	4.67
454.839	4.65
455.193	4.62
455.547	4.61
455.9	4.58
456.254	4.56
456.607	4.52
456.961	4.49
457.314	4.47
457.668	4.46
458.021	4.46
458.375	4.46
458.728	4.46
459.081	4.46
459.434	4.47
459.787	4.48
460.141	4.49
460.494	4.5
460.847	4.5
461.2	4.5
461.553	4.51
461.906	4.51
462.259	4.52
462.611	4.52
462.964	4.53
463.317	4.53
463.67	4.53
464.022	4.53
464.375	4.53
464.728	4.53
465.08	4.53
465.433	4.53
465.785	4.53
466.138	4.51
466.49	4.5
466.843	4.48
467.195	4.46
467.547	4.44
467.899	4.42
468.252	4.39
468.604	4.37
468.956	4.35
469.308	4.33
469.66	4.33
470.012	4.32
470.364	4.32
470.716	4.33
471.068	4.35
471.42	4.38
471.772	4.4
472.123	4.41
472.475	4.43
472.827	4.44
473.178	4.45
473.53	4.45
473.882	4.47
474.233	4.5
474.585	4.54
474.936	4.6
475.288	4.69
475.639	4.81
475.99	4.96
476.342	5.13
476.693	5.3
477.044	5.47
477.395	5.65
477.746	5.84
478.097	6.02
478.448	6.21
478.8	6.4
479.15	6.57
479.501	6.72
479.852	6.87
480.203	7
480.554	7.13
480.905	7.26
481.255	7.37
481.606	7.48
481.957	7.58
482.307	7.68
482.658	7.78
483.009	7.87
483.359	7.96
483.709	8.04
484.06	8.12
484.41	8.21
484.761	8.28
485.111	8.35
485.461	8.41
485.811	8.48
486.162	8.54
486.512	8.59
486.862	8.62
487.212	8.65
487.562	8.67
487.912	8.68
488.262	8.68
488.612	8.68
488.961	8.65
489.311	8.61
489.661	8.54
490.011	8.44
490.36	8.32
490.71	8.19
491.06	8.04
491.409	7.88
491.759	7.73
492.108	7.57
492.458	7.4
492.807	7.22
493.157	7.04
493.506	6.87
493.855	6.71
494.204	6.56
494.554	6.42
494.903	6.28
495.252	6.16
495.601	6.03
495.95	5.91
496.299	5.81
496.648	5.7
496.997	5.6
497.346	5.51
497.695	5.42
498.043	5.33
498.392	5.25
498.741	5.16
499.09	5.08
499.438	5
499.787	4.93
500.135	4.86
500.484	4.81
500.832	4.76
501.181	4.72
501.529	4.69
501.878	4.68
502.226	4.67
502.574	4.67
502.923	4.67
503.271	4.67
503.619	4.68
503.967	4.69
504.315	4.69
504.663	4.69
505.011	4.69
505.359	4.69
505.707	4.7
506.055	4.7
506.403	4.7
506.751	4.71
507.098	4.72
507.446	4.73
507.794	4.75
508.141	4.78
508.489	4.8
508.837	4.82
509.184	4.85
509.531	4.87
509.879	4.88
510.226	4.91
510.574	4.93
510.921	4.95
511.268	4.97
511.616	4.99
511.963	5.02
512.31	5.05
512.657	5.08
513.004	5.11
513.351	5.13
513.698	5.15
514.045	5.16
514.392	5.18
514.739	5.18
515.086	5.19
515.432	5.19
515.779	5.2
516.126	5.21
516.473	5.22
516.819	5.23
517.166	5.24
517.512	5.27
517.859	5.29
518.205	5.31
518.552	5.34
518.898	5.39
519.245	5.44
519.591	5.51
519.937	5.6
520.283	5.71
520.629	5.84
520.976	5.98
521.322	6.12
521.668	6.26
522.014	6.4
522.36	6.53
522.706	6.67
523.052	6.81
523.398	6.93
523.743	7.04
524.089	7.14
524.435	7.22
524.781	7.3
525.126	7.38
525.472	7.45
525.817	7.52
526.163	7.58
526.509	7.64
526.854	7.7
527.199	7.75
527.545	7.81
527.89	7.87
528.235	7.93
528.581	7.99
528.926	8.05
529.271	8.1
529.616	8.15
529.961	8.18
530.306	8.2
530.651	8.24
530.996	8.26
531.341	8.28
531.686	8.28
532.031	8.28
532.376	8.28
532.721	8.28
533.065	8.29
533.41	8.3
533.755	8.29
534.099	8.26
534.444	8.23
534.788	8.19
535.133	8.14
535.477	8.09
535.822	8.03
536.166	7.97
536.51	7.89
536.855	7.8
537.199	7.71
537.543	7.62
537.887	7.54
538.231	7.46
538.576	7.4
538.92	7.33
539.264	7.27
539.608	7.2
539.951	7.13
540.295	7.06
540.639	6.99
540.983	6.91
541.327	6.85
541.671	6.78
542.014	6.71
542.358	6.65
542.701	6.61
543.045	6.57
543.389	6.54
543.732	6.52
544.075	6.5
544.419	6.48
544.762	6.45
545.105	6.44
545.449	6.43
545.792	6.43
546.135	6.43
546.478	6.42
546.821	6.39
547.165	6.36
547.508	6.31
547.851	6.25
548.194	6.19
548.536	6.12
548.879	6.04
549.222	5.96
549.565	5.87
549.908	5.79
550.25	5.72
550.593	5.65
550.936	5.6
551.278	5.56
551.621	5.52
551.963	5.49
552.306	5.47
552.648	5.45
552.991	5.43
553.333	5.42
553.675	5.41
554.017	5.41
554.36	5.42
554.702	5.44
555.044	5.45
555.386	5.47
555.728	5.49
556.07	5.5
556.412	5.51
556.754	5.51
557.096	5.51
557.438	5.52
557.78	5.52
558.121	5.52
558.463	5.52
558.805	5.52
559.147	5.53
559.488	5.53
559.83	5.53
560.171	5.54
560.513	5.54
560.854	5.53
561.196	5.53
561.537	5.54
561.878	5.54
562.22	5.54
562.561	5.54
562.902	5.55
563.243	5.56
563.584	5.56
563.925	5.57
564.266	5.56
564.607	5.57
564.948	5.57
565.289	5.57
565.63	5.58
565.971	5.58
566.312	5.58
566.653	5.58
566.993	5.58
567.334	5.58
567.675	5.59
568.015	5.6
568.356	5.61
568.696	5.61
569.037	5.62
569.377	5.62
569.718	5.62
570.058	5.62
570.398	5.63
570.739	5.63
571.079	5.63
571.419	5.63
571.759	5.63
572.099	5.63
572.439	5.63
572.779	5.64
573.119	5.64
573.459	5.63
573.799	5.63
574.139	5.64
574.479	5.65
574.819	5.64
575.158	5.64
575.498	5.64
575.838	5.64
576.177	5.64
576.517	5.64
576.856	5.64
577.196	5.63
577.535	5.63
577.875	5.63
578.214	5.63
578.553	5.63
578.893	5.63
579.232	5.63
579.571	5.63
579.91	5.62
580.25	5.62
580.589	5.62
580.928	5.61
581.267	5.6
581.606	5.6
581.945	5.6
582.283	5.59
582.622	5.6
582.961	5.59
583.3	5.6
583.639	5.6
583.977	5.6
584.316	5.6
584.654	5.61
584.993	5.61
585.332	5.6
585.67	5.6
586.008	5.6
586.347	5.6
586.685	5.6
587.024	5.61
587.362	5.61
587.7	5.62
588.038	5.62
588.376	5.62
588.715	5.63
589.053	5.63
589.391	5.63
589.729	5.63
590.067	5.63
590.404	5.63
590.742	5.64
591.08	5.64
591.418	5.65
591.756	5.65
592.093	5.66
592.431	5.67
592.769	5.68
593.106	5.68
593.444	5.68
593.781	5.69
594.119	5.69
594.456	5.69
594.793	5.7
595.131	5.7
595.468	5.7
595.805	5.7
596.143	5.7
596.48	5.7
596.817	5.71
597.154	5.71
597.491	5.71
597.828	5.71
598.165	5.71
598.502	5.72
598.839	5.72
599.176	5.72
599.512	5.72
599.849	5.73
600.186	5.73
600.523	5.73
600.859	5.74
601.196	5.74
601.532	5.74
601.869	5.74
602.205	5.74
602.542	5.75
602.878	5.75
603.215	5.74
603.551	5.74
603.887	5.74
604.223	5.75
604.56	5.75
604.896	5.75
605.232	5.76
605.568	5.76
605.904	5.76
606.24	5.76
606.576	5.76
606.912	5.77
607.248	5.76
607.583	5.77
607.919	5.77
608.255	5.76
608.591	5.77
608.926	5.77
609.262	5.77
609.597	5.78
609.933	5.78
610.268	5.8
610.604	5.8
610.939	5.81
611.275	5.8
611.61	5.81
611.945	5.81
612.281	5.81
612.616	5.81
612.951	5.8
613.286	5.8
613.621	5.79
613.956	5.79
614.291	5.8
614.626	5.79
614.961	5.8
615.296	5.8
615.631	5.8
615.966	5.8
616.3	5.81
616.635	5.81
616.97	5.8
617.304	5.8
617.639	5.81
617.973	5.81
618.308	5.81
618.642	5.8
618.977	5.8
619.311	5.79
619.646	5.8
619.98	5.81
620.314	5.81
620.648	5.82
620.983	5.82
621.317	5.82
621.651	5.82
621.985	5.82
622.319	5.83
622.653	5.83
622.987	5.83
623.321	5.83
623.655	5.83
623.988	5.84
624.322	5.84
624.656	5.84
624.99	5.84
625.323	5.84
625.657	5.85
625.99	5.86
626.324	5.87
626.657	5.87
626.991	5.88
627.324	5.88
627.658	5.89
627.991	5.88
628.324	5.89
628.657	5.89
628.991	5.9
629.324	5.91
629.657	5.92
629.99	5.92
630.323	5.94
630.656	5.94
630.989	5.94
631.322	5.94
631.655	5.94
631.987	5.94
632.32	5.94
632.653	5.94
632.986	5.95
633.318	5.95
633.651	5.95
633.984	5.95
634.316	5.97
634.649	5.97
634.981	5.98
635.313	5.98
635.646	5.98
635.978	5.98
636.31	5.97
636.643	5.97
636.975	5.98
637.307	5.97
637.639	5.97
637.971	5.98
638.303	5.98
638.635	5.99
638.967	5.99
639.299	5.99
639.631	6
639.963	6.01
640.295	6.01
640.626	6.03
640.958	6.03
641.29	6.03
641.621	6.03
641.953	6.04
642.285	6.04
642.616	6.04
642.948	6.04
643.279	6.05
643.61	6.06
643.942	6.05
644.273	6.06
644.604	6.06
644.936	6.06
645.267	6.07
645.598	6.08
645.929	6.08
646.26	6.08
646.591	6.08
646.922	6.08
647.253	6.09
647.584	6.08
647.915	6.08
648.245	6.09
648.576	6.08
648.907	6.07
649.238	6.08
649.568	6.07
649.899	6.07
650.229	6.08
650.56	6.09
650.89	6.1
651.221	6.11
651.551	6.12
651.882	6.13
652.212	6.12
652.542	6.12
652.872	6.13
653.203	6.14
653.533	6.15
653.863	6.14
654.193	6.14
654.523	6.14
654.853	6.14
655.183	6.14
655.513	6.15
655.843	6.17
656.172	6.17
656.502	6.18
656.832	6.17
657.162	6.17
657.491	6.17
657.821	6.16
658.15	6.16
658.48	6.16
658.809	6.16
659.139	6.17
659.468	6.18
659.798	6.19
660.127	6.19
660.456	6.24
660.785	6.25
661.115	6.26
661.444	6.27
661.773	6.28
662.102	6.29
662.431	6.3
662.76	6.31
663.089	6.32
663.418	6.33
663.747	6.33
664.076	6.34
664.404	6.33
664.733	6.35
665.062	6.37
665.39	6.37
665.719	6.38
666.048	6.37
666.376	6.38
666.705	6.37
667.033	6.36
667.362	6.35
667.69	6.36
668.018	6.36
668.347	6.37
668.675	6.36
669.003	6.36
669.331	6.36
669.659	6.36
669.987	6.37
670.315	6.36
670.643	6.38
670.971	6.39
671.299	6.39
671.627	6.4
671.955	6.39
672.283	6.4
672.61	6.41
672.938	6.43
673.266	6.44
673.593	6.43
673.921	6.43
674.249	6.43
674.576	6.45
674.904	6.46
675.231	6.46
675.558	6.48
675.886	6.5
676.213	6.49
676.54	6.5
676.867	6.51
677.195	6.52
677.522	6.52
677.849	6.55
678.176	6.57
678.503	6.57
678.83	6.58
679.157	6.58
679.484	6.58
679.81	6.57
680.137	6.57
