Data from UWBM48344_Reflection_00007.txt Node
Date: Sun May 02 14:00:56 EDT 2021
User: vgr7
Spectrometer: USB2G7710
Scans to average: 10
Trigger mode: 4
Integration Time (sec): 1.000000E-1
Electric dark correction enabled: true
Boxcar width: 20
XAxis mode: Wavelengths
Number of Pixels in Spectrum: 2048
>>>>>Begin Spectral Data<<<<<
177.721	516.67
178.105	1155.56
178.488	398.15
178.871	188.89
179.254	130.18
179.636	76.26
180.019	57.81
180.402	53.02
180.785	45.4
181.168	43.9
181.55	27.84
181.933	29.75
182.316	30
182.698	27.53
183.081	22
183.463	16.55
183.846	11.82
184.228	13.89
184.611	18.89
184.993	15.92
185.376	17.49
185.758	20.97
186.14	27.28
186.522	24.43
186.904	22.99
187.287	24.27
187.669	27.14
188.051	28.4
188.433	25.42
188.815	21.97
189.197	21.56
189.579	20.45
189.961	18.8
190.342	15.58
190.724	18.39
191.106	20.48
191.488	21.51
191.869	19.45
192.251	17.96
192.633	18.53
193.014	15.75
193.396	12.13
193.777	13.89
194.159	14.25
194.54	15.35
194.922	13.55
195.303	13.72
195.684	12.7
196.065	12.72
196.447	13.12
196.828	10.72
197.209	12.36
197.59	10.68
197.971	11.27
198.352	11.82
198.733	13.27
199.114	13.15
199.495	14.13
199.876	13.49
200.257	12.41
200.638	12.95
201.018	14.18
201.399	14.76
201.78	13.24
202.16	13.43
202.541	13.04
202.922	12.55
203.302	11.96
203.683	10.77
204.063	10.65
204.444	11.09
204.824	11.06
205.204	10.7
205.585	12.31
205.965	15.56
206.345	14.29
206.725	14.11
207.106	13.82
207.486	12.88
207.866	13.14
208.246	11.18
208.626	11.51
209.006	12.62
209.386	11.3
209.766	10.66
210.145	9.92
210.525	9.37
210.905	10.07
211.285	9.18
211.664	9.46
212.044	8.46
212.424	8.77
212.803	8.37
213.183	8.14
213.562	7.87
213.942	8.23
214.321	6.94
214.701	8.1
215.08	8.99
215.459	9.91
215.838	9.37
216.218	8.98
216.597	7.33
216.976	6.28
217.355	6.4
217.734	7.3
218.113	6.46
218.492	5.31
218.871	5.4
219.25	6.9
219.629	7.3
220.008	7.46
220.387	6.78
220.766	9.34
221.144	8.39
221.523	7.35
221.902	6.74
222.28	6.91
222.659	7.14
223.037	7.33
223.416	7.58
223.794	8.21
224.173	8.92
224.551	8.77
224.929	9.94
225.308	10.08
225.686	10
226.064	10.64
226.442	10.25
226.821	11.17
227.199	10.82
227.577	10.64
227.955	10.67
228.333	10.51
228.711	10.33
229.089	9.71
229.467	9.24
229.845	9.25
230.222	8.96
230.6	8.61
230.978	8.13
231.356	8.09
231.733	7.91
232.111	7.6
232.488	7.25
232.866	6.88
233.243	6.63
233.621	6.7
233.998	6.9
234.376	6.75
234.753	6.18
235.13	6.03
235.508	5.96
235.885	5.93
236.262	5.54
236.639	5.47
237.016	5.4
237.393	5.5
237.77	5.39
238.147	5.31
238.524	5.22
238.901	5.13
239.278	5.11
239.655	5.06
240.032	5.02
240.409	4.94
240.785	4.94
241.162	4.93
241.539	4.9
241.915	4.96
242.292	4.92
242.668	4.91
243.045	4.94
243.421	4.93
243.798	4.95
244.174	4.99
244.551	4.97
244.927	4.95
245.303	4.96
245.679	4.98
246.056	4.95
246.432	4.95
246.808	4.93
247.184	4.96
247.56	4.97
247.936	4.97
248.312	4.98
248.688	4.99
249.064	4.96
249.44	4.93
249.815	4.91
250.191	4.91
250.567	4.93
250.943	4.91
251.318	4.87
251.694	4.88
252.069	4.85
252.445	4.83
252.82	4.77
253.196	4.75
253.571	4.73
253.947	4.72
254.322	4.72
254.697	4.71
255.073	4.68
255.448	4.65
255.823	4.62
256.198	4.6
256.573	4.56
256.948	4.54
257.323	4.49
257.698	4.45
258.073	4.44
258.448	4.39
258.823	4.38
259.198	4.35
259.573	4.33
259.948	4.31
260.322	4.3
260.697	4.27
261.072	4.25
261.446	4.24
261.821	4.23
262.195	4.23
262.57	4.19
262.944	4.18
263.319	4.19
263.693	4.18
264.067	4.18
264.442	4.16
264.816	4.15
265.19	4.16
265.564	4.16
265.938	4.14
266.313	4.16
266.687	4.16
267.061	4.14
267.435	4.14
267.809	4.14
268.183	4.14
268.556	4.15
268.93	4.15
269.304	4.14
269.678	4.14
270.051	4.12
270.425	4.11
270.799	4.1
271.172	4.1
271.546	4.1
271.919	4.1
272.293	4.1
272.666	4.11
273.04	4.12
273.413	4.15
273.787	4.18
274.16	4.18
274.533	4.19
274.906	4.19
275.279	4.19
275.653	4.19
276.026	4.2
276.399	4.2
276.772	4.21
277.145	4.21
277.518	4.22
277.891	4.24
278.263	4.24
278.636	4.25
279.009	4.24
279.382	4.23
279.755	4.25
280.127	4.25
280.5	4.25
280.872	4.27
281.245	4.26
281.617	4.25
281.99	4.25
282.362	4.25
282.735	4.25
283.107	4.26
283.479	4.26
283.852	4.26
284.224	4.24
284.596	4.24
284.968	4.22
285.34	4.23
285.713	4.24
286.085	4.26
286.457	4.26
286.829	4.27
287.201	4.27
287.572	4.28
287.944	4.28
288.316	4.28
288.688	4.27
289.06	4.28
289.431	4.28
289.803	4.28
290.175	4.3
290.546	4.33
290.918	4.36
291.289	4.37
291.661	4.38
292.032	4.38
292.403	4.39
292.775	4.39
293.146	4.39
293.517	4.41
293.889	4.42
294.26	4.44
294.631	4.47
295.002	4.49
295.373	4.51
295.744	4.51
296.115	4.53
296.486	4.55
296.857	4.58
297.228	4.6
297.599	4.64
297.97	4.66
298.34	4.66
298.711	4.68
299.082	4.68
299.452	4.72
299.823	4.76
300.194	4.79
300.564	4.81
300.935	4.83
301.305	4.87
301.676	4.88
302.046	4.9
302.416	4.94
302.787	4.95
303.157	4.98
303.527	5
303.897	5.01
304.267	5.04
304.637	5.07
305.008	5.09
305.378	5.12
305.748	5.13
306.117	5.14
306.487	5.18
306.857	5.22
307.227	5.27
307.597	5.3
307.967	5.34
308.336	5.37
308.706	5.39
309.076	5.4
309.445	5.42
309.815	5.44
310.184	5.46
310.554	5.48
310.923	5.5
311.293	5.52
311.662	5.54
312.031	5.56
312.401	5.59
312.77	5.61
313.139	5.63
313.508	5.67
313.877	5.71
314.246	5.74
314.616	5.75
314.985	5.78
315.353	5.81
315.722	5.83
316.091	5.86
316.46	5.84
316.829	5.9
317.198	5.92
317.567	5.93
317.935	5.96
318.304	5.98
318.672	6.03
319.041	6.07
319.41	6.09
319.778	6.13
320.147	6.16
320.515	6.18
320.883	6.19
321.252	6.22
321.62	6.22
321.988	6.24
322.357	6.25
322.725	6.28
323.093	6.29
323.461	6.31
323.829	6.34
324.197	6.38
324.565	6.39
324.933	6.41
325.301	6.4
325.669	6.43
326.037	6.44
326.405	6.46
326.772	6.47
327.14	6.48
327.508	6.49
327.875	6.48
328.243	6.48
328.61	6.49
328.978	6.49
329.346	6.5
329.713	6.53
330.08	6.55
330.448	6.55
330.815	6.56
331.182	6.57
331.55	6.6
331.917	6.59
332.284	6.59
332.651	6.61
333.018	6.63
333.385	6.65
333.752	6.66
334.119	6.68
334.486	6.7
334.853	6.7
335.22	6.71
335.587	6.72
335.954	6.75
336.32	6.76
336.687	6.75
337.054	6.76
337.42	6.77
337.787	6.77
338.153	6.79
338.52	6.78
338.886	6.78
339.253	6.79
339.619	6.8
339.986	6.81
340.352	6.82
340.718	6.83
341.084	6.85
341.451	6.86
341.817	6.88
342.183	6.89
342.549	6.9
342.915	6.91
343.281	6.93
343.647	6.94
344.013	6.94
344.379	6.94
344.745	6.94
345.11	6.95
345.476	6.96
345.842	6.96
346.208	6.96
346.573	6.96
346.939	6.97
347.304	6.99
347.67	6.99
348.035	7
348.401	7
348.766	6.99
349.132	6.99
349.497	6.99
349.862	7
350.228	7
350.593	7
350.958	6.99
351.323	7
351.688	7.01
352.053	7.02
352.418	7.01
352.783	7.02
353.148	7.01
353.513	7.02
353.878	7.01
354.243	7
354.608	7
354.972	7
355.337	6.99
355.702	6.98
356.066	6.96
356.431	6.95
356.795	6.93
357.16	6.92
357.524	6.91
357.889	6.9
358.253	6.88
358.618	6.87
358.982	6.87
359.346	6.86
359.71	6.85
360.075	6.84
360.439	6.82
360.803	6.81
361.167	6.8
361.531	6.79
361.895	6.77
362.259	6.76
362.623	6.74
362.987	6.72
363.351	6.7
363.714	6.69
364.078	6.67
364.442	6.65
364.806	6.63
365.169	6.62
365.533	6.6
365.896	6.58
366.26	6.57
366.623	6.55
366.987	6.52
367.35	6.5
367.714	6.47
368.077	6.44
368.44	6.41
368.803	6.4
369.167	6.37
369.53	6.35
369.893	6.31
370.256	6.28
370.619	6.25
370.982	6.23
371.345	6.21
371.708	6.19
372.071	6.17
372.434	6.14
372.797	6.12
373.159	6.09
373.522	6.07
373.885	6.04
374.247	6.01
374.61	5.98
374.973	5.95
375.335	5.92
375.698	5.9
376.06	5.86
376.423	5.83
376.785	5.81
377.147	5.78
377.51	5.76
377.872	5.74
378.234	5.71
378.596	5.69
378.958	5.66
379.321	5.64
379.683	5.62
380.045	5.59
380.407	5.56
380.769	5.53
381.13	5.51
381.492	5.48
381.854	5.46
382.216	5.45
382.578	5.43
382.939	5.41
383.301	5.39
383.663	5.37
384.024	5.34
384.386	5.32
384.747	5.3
385.109	5.29
385.47	5.26
385.832	5.23
386.193	5.21
386.554	5.18
386.916	5.16
387.277	5.14
387.638	5.12
387.999	5.11
388.36	5.08
388.721	5.07
389.082	5.05
389.443	5.04
389.804	5.01
390.165	5
390.526	4.99
390.887	4.97
391.248	4.96
391.609	4.94
391.969	4.92
392.33	4.9
392.691	4.89
393.051	4.87
393.412	4.85
393.772	4.83
394.133	4.82
394.493	4.8
394.854	4.78
395.214	4.77
395.574	4.75
395.935	4.74
396.295	4.72
396.655	4.7
397.015	4.68
397.376	4.67
397.736	4.65
398.096	4.63
398.456	4.62
398.816	4.61
399.176	4.6
399.535	4.58
399.895	4.56
400.255	4.55
400.615	4.54
400.975	4.53
401.334	4.52
401.694	4.51
402.054	4.5
402.413	4.49
402.773	4.48
403.132	4.47
403.492	4.46
403.851	4.45
404.211	4.45
404.57	4.45
404.929	4.44
405.288	4.42
405.648	4.42
406.007	4.41
406.366	4.41
406.725	4.41
407.084	4.4
407.443	4.4
407.802	4.39
408.161	4.39
408.52	4.38
408.879	4.38
409.238	4.38
409.596	4.37
409.955	4.37
410.314	4.37
410.673	4.36
411.031	4.36
411.39	4.37
411.748	4.37
412.107	4.37
412.465	4.38
412.824	4.4
413.182	4.41
413.54	4.43
413.899	4.46
414.257	4.49
414.615	4.53
414.974	4.55
415.332	4.59
415.69	4.63
416.048	4.65
416.406	4.69
416.764	4.72
417.122	4.74
417.48	4.77
417.838	4.8
418.195	4.82
418.553	4.84
418.911	4.85
419.269	4.85
419.626	4.85
419.984	4.84
420.342	4.83
420.699	4.81
421.057	4.79
421.414	4.76
421.772	4.75
422.129	4.73
422.486	4.72
422.844	4.72
423.201	4.71
423.558	4.71
423.915	4.71
424.273	4.7
424.63	4.7
424.987	4.7
425.344	4.69
425.701	4.69
426.058	4.68
426.415	4.68
426.772	4.68
427.128	4.67
427.485	4.65
427.842	4.64
428.199	4.62
428.555	4.6
428.912	4.57
429.269	4.54
429.625	4.51
429.982	4.48
430.338	4.45
430.695	4.42
431.051	4.39
431.407	4.36
431.764	4.34
432.12	4.32
432.476	4.31
432.832	4.3
433.189	4.3
433.545	4.3
433.901	4.31
434.257	4.33
434.613	4.36
434.969	4.38
435.325	4.41
435.681	4.45
436.036	4.48
436.392	4.5
436.748	4.52
437.104	4.53
437.459	4.55
437.815	4.57
438.171	4.59
438.526	4.61
438.882	4.65
439.237	4.69
439.593	4.72
439.948	4.76
440.304	4.8
440.659	4.82
441.014	4.84
441.369	4.87
441.725	4.89
442.08	4.91
442.435	4.92
442.79	4.93
443.145	4.94
443.5	4.94
443.855	4.94
444.21	4.94
444.565	4.93
444.92	4.92
445.275	4.91
445.629	4.9
445.984	4.89
446.339	4.87
446.693	4.86
447.048	4.85
447.403	4.83
447.757	4.8
448.112	4.78
448.466	4.75
448.82	4.73
449.175	4.7
449.529	4.68
449.883	4.66
450.238	4.63
450.592	4.62
450.946	4.6
451.3	4.6
451.654	4.61
452.008	4.61
452.362	4.61
452.716	4.61
453.07	4.61
453.424	4.6
453.778	4.59
454.132	4.58
454.486	4.57
454.839	4.55
455.193	4.53
455.547	4.52
455.9	4.48
456.254	4.47
456.607	4.43
456.961	4.4
457.314	4.38
457.668	4.37
458.021	4.36
458.375	4.36
458.728	4.36
459.081	4.36
459.434	4.37
459.787	4.38
460.141	4.39
460.494	4.4
460.847	4.41
461.2	4.41
461.553	4.42
461.906	4.43
462.259	4.43
462.611	4.44
462.964	4.44
463.317	4.45
463.67	4.46
464.022	4.47
464.375	4.47
464.728	4.48
465.08	4.49
465.433	4.49
465.785	4.49
466.138	4.48
466.49	4.47
466.843	4.45
467.195	4.43
467.547	4.41
467.899	4.38
468.252	4.36
468.604	4.33
468.956	4.32
469.308	4.3
469.66	4.3
470.012	4.3
470.364	4.3
470.716	4.31
471.068	4.32
471.42	4.35
471.772	4.37
472.123	4.39
472.475	4.4
472.827	4.41
473.178	4.42
473.53	4.43
473.882	4.45
474.233	4.47
474.585	4.51
474.936	4.58
475.288	4.67
475.639	4.79
475.99	4.94
476.342	5.1
476.693	5.26
477.044	5.43
477.395	5.61
477.746	5.79
478.097	5.98
478.448	6.17
478.8	6.35
479.15	6.52
479.501	6.68
479.852	6.82
480.203	6.95
480.554	7.08
480.905	7.2
481.255	7.32
481.606	7.43
481.957	7.54
482.307	7.64
482.658	7.73
483.009	7.82
483.359	7.91
483.709	7.99
484.06	8.07
484.41	8.15
484.761	8.23
485.111	8.3
485.461	8.38
485.811	8.44
486.162	8.5
486.512	8.55
486.862	8.6
487.212	8.63
487.562	8.65
487.912	8.66
488.262	8.66
488.612	8.66
488.961	8.64
489.311	8.59
489.661	8.52
490.011	8.43
490.36	8.31
490.71	8.19
491.06	8.05
491.409	7.91
491.759	7.76
492.108	7.6
492.458	7.43
492.807	7.25
493.157	7.08
493.506	6.92
493.855	6.77
494.204	6.63
494.554	6.49
494.903	6.36
495.252	6.25
495.601	6.13
495.95	6.03
496.299	5.92
496.648	5.83
496.997	5.74
497.346	5.66
497.695	5.58
498.043	5.51
498.392	5.44
498.741	5.37
499.09	5.31
499.438	5.25
499.787	5.2
500.135	5.15
500.484	5.11
500.832	5.09
501.181	5.08
501.529	5.08
501.878	5.09
502.226	5.12
502.574	5.15
502.923	5.19
503.271	5.23
503.619	5.27
503.967	5.31
504.315	5.36
504.663	5.4
505.011	5.44
505.359	5.49
505.707	5.54
506.055	5.59
506.403	5.64
506.751	5.7
507.098	5.76
507.446	5.82
507.794	5.89
508.141	5.96
508.489	6.04
508.837	6.13
509.184	6.21
509.531	6.3
509.879	6.39
510.226	6.49
510.574	6.6
510.921	6.71
511.268	6.82
511.616	6.94
511.963	7.06
512.31	7.19
512.657	7.31
513.004	7.43
513.351	7.55
513.698	7.66
514.045	7.77
514.392	7.87
514.739	7.96
515.086	8.06
515.432	8.14
515.779	8.24
516.126	8.33
516.473	8.43
516.819	8.54
517.166	8.66
517.512	8.8
517.859	8.94
518.205	9.1
518.552	9.28
518.898	9.47
519.245	9.69
519.591	9.95
519.937	10.27
520.283	10.64
520.629	11.04
520.976	11.47
521.322	11.91
521.668	12.37
522.014	12.83
522.36	13.3
522.706	13.75
523.052	14.19
523.398	14.61
523.743	15
524.089	15.36
524.435	15.69
524.781	16.02
525.126	16.34
525.472	16.66
525.817	16.98
526.163	17.28
526.509	17.58
526.854	17.88
527.199	18.18
527.545	18.48
527.89	18.8
528.235	19.1
528.581	19.39
528.926	19.67
529.271	19.94
529.616	20.2
529.961	20.44
530.306	20.68
530.651	20.91
530.996	21.11
531.341	21.31
531.686	21.49
532.031	21.65
532.376	21.84
532.721	22.05
533.065	22.28
533.41	22.52
533.755	22.75
534.099	22.94
534.444	23.12
534.788	23.28
535.133	23.43
535.477	23.56
535.822	23.67
536.166	23.77
536.51	23.82
536.855	23.83
537.199	23.82
537.543	23.81
537.887	23.82
538.231	23.86
538.576	23.89
538.92	23.92
539.264	23.94
539.608	23.94
539.951	23.93
540.295	23.92
540.639	23.9
540.983	23.86
541.327	23.8
541.671	23.74
542.014	23.7
542.358	23.67
542.701	23.69
543.045	23.76
543.389	23.85
543.732	23.95
544.075	24.07
544.419	24.19
544.762	24.33
545.105	24.48
545.449	24.63
545.792	24.79
546.135	24.95
546.478	25.08
546.821	25.18
547.165	25.24
547.508	25.25
547.851	25.23
548.194	25.18
548.536	25.11
548.879	25.01
549.222	24.9
549.565	24.77
549.908	24.66
550.25	24.56
550.593	24.5
550.936	24.5
551.278	24.53
551.621	24.59
551.963	24.67
552.306	24.76
552.648	24.87
552.991	25.01
553.333	25.17
553.675	25.34
554.017	25.54
554.36	25.75
554.702	26
555.044	26.27
555.386	26.58
555.728	26.91
556.07	27.2
556.412	27.49
556.754	27.74
557.096	27.94
557.438	28.14
557.78	28.34
558.121	28.56
558.463	28.76
558.805	28.97
559.147	29.18
559.488	29.39
559.83	29.59
560.171	29.8
560.513	30
560.854	30.2
561.196	30.4
561.537	30.59
561.878	30.79
562.22	30.98
562.561	31.16
562.902	31.34
563.243	31.52
563.584	31.71
563.925	31.89
564.266	32.07
564.607	32.25
564.948	32.42
565.289	32.59
565.63	32.76
565.971	32.93
566.312	33.1
566.653	33.27
566.993	33.43
567.334	33.59
567.675	33.74
568.015	33.89
568.356	34.04
568.696	34.17
569.037	34.31
569.377	34.44
569.718	34.57
570.058	34.7
570.398	34.83
570.739	34.95
571.079	35.07
571.419	35.18
571.759	35.3
572.099	35.41
572.439	35.51
572.779	35.62
573.119	35.73
573.459	35.83
573.799	35.93
574.139	36.03
574.479	36.13
574.819	36.24
575.158	36.34
575.498	36.43
575.838	36.52
576.177	36.62
576.517	36.72
576.856	36.81
577.196	36.9
577.535	36.99
577.875	37.08
578.214	37.18
578.553	37.26
578.893	37.35
579.232	37.44
579.571	37.53
579.91	37.62
580.25	37.7
580.589	37.79
580.928	37.87
581.267	37.95
581.606	38.05
581.945	38.15
582.283	38.25
582.622	38.34
582.961	38.45
583.3	38.55
583.639	38.64
583.977	38.73
584.316	38.82
584.654	38.92
584.993	39.01
585.332	39.11
585.67	39.19
586.008	39.29
586.347	39.39
586.685	39.47
587.024	39.56
587.362	39.65
587.7	39.73
588.038	39.83
588.376	39.92
588.715	40.01
589.053	40.11
589.391	40.22
589.729	40.32
590.067	40.41
590.404	40.5
590.742	40.59
591.08	40.69
591.418	40.77
591.756	40.87
592.093	40.94
592.431	41.01
592.769	41.08
593.106	41.15
593.444	41.22
593.781	41.29
594.119	41.36
594.456	41.42
594.793	41.49
595.131	41.56
595.468	41.62
595.805	41.68
596.143	41.75
596.48	41.83
596.817	41.9
597.154	41.97
597.491	42.05
597.828	42.13
598.165	42.21
598.502	42.27
598.839	42.33
599.176	42.39
599.512	42.45
599.849	42.5
600.186	42.55
600.523	42.61
600.859	42.67
601.196	42.73
601.532	42.79
601.869	42.84
602.205	42.89
602.542	42.94
602.878	42.98
603.215	43.02
603.551	43.06
603.887	43.1
604.223	43.14
604.56	43.18
604.896	43.21
605.232	43.25
605.568	43.29
605.904	43.33
606.24	43.36
606.576	43.41
606.912	43.45
607.248	43.48
607.583	43.51
607.919	43.54
608.255	43.57
608.591	43.59
608.926	43.62
609.262	43.65
609.597	43.68
609.933	43.71
610.268	43.73
610.604	43.74
610.939	43.76
611.275	43.78
611.61	43.8
611.945	43.82
612.281	43.84
612.616	43.88
612.951	43.89
613.286	43.92
613.621	43.95
613.956	43.97
614.291	43.99
614.626	44.01
614.961	44.03
615.296	44.07
615.631	44.08
615.966	44.1
616.3	44.13
616.635	44.16
616.97	44.18
617.304	44.22
617.639	44.24
617.973	44.27
618.308	44.3
618.642	44.34
618.977	44.36
619.311	44.38
619.646	44.42
619.98	44.46
620.314	44.5
620.648	44.53
620.983	44.57
621.317	44.6
621.651	44.63
621.985	44.66
622.319	44.7
622.653	44.75
622.987	44.78
623.321	44.81
623.655	44.83
623.988	44.87
624.322	44.89
624.656	44.91
624.99	44.94
625.323	44.97
625.657	44.98
625.99	45
626.324	45.03
626.657	45.06
626.991	45.09
627.324	45.12
627.658	45.16
627.991	45.18
628.324	45.2
628.657	45.24
628.991	45.26
629.324	45.29
629.657	45.3
629.99	45.33
630.323	45.36
630.656	45.38
630.989	45.4
631.322	45.43
631.655	45.44
631.987	45.47
632.32	45.5
632.653	45.51
632.986	45.53
633.318	45.55
633.651	45.57
633.984	45.57
634.316	45.58
634.649	45.6
634.981	45.61
635.313	45.64
635.646	45.66
635.978	45.67
636.31	45.67
636.643	45.69
636.975	45.69
637.307	45.71
637.639	45.73
637.971	45.75
638.303	45.77
638.635	45.78
638.967	45.8
639.299	45.82
639.631	45.85
639.963	45.88
640.295	45.89
640.626	45.92
640.958	45.94
641.29	45.95
641.621	45.96
641.953	45.98
642.285	45.99
642.616	46.01
642.948	46.03
643.279	46.05
643.61	46.07
643.942	46.08
644.273	46.11
644.604	46.12
644.936	46.13
645.267	46.17
645.598	46.18
645.929	46.2
646.26	46.24
646.591	46.26
646.922	46.27
647.253	46.29
647.584	46.32
647.915	46.35
648.245	46.36
648.576	46.38
648.907	46.39
649.238	46.42
649.568	46.43
649.899	46.46
650.229	46.49
650.56	46.53
650.89	46.55
651.221	46.57
651.551	46.58
651.882	46.61
652.212	46.65
652.542	46.66
652.872	46.69
653.203	46.7
653.533	46.72
653.863	46.76
654.193	46.78
654.523	46.8
654.853	46.82
655.183	46.84
655.513	46.85
655.843	46.86
656.172	46.86
656.502	46.88
656.832	46.89
657.162	46.91
657.491	46.93
657.821	46.94
658.15	46.96
658.48	46.99
658.809	46.99
659.139	47
659.468	47.01
659.798	47.01
660.127	47.01
660.456	47.03
660.785	47.03
661.115	47.04
661.444	47.06
661.773	47.07
662.102	47.09
662.431	47.1
662.76	47.11
663.089	47.11
663.418	47.13
663.747	47.14
664.076	47.15
664.404	47.16
664.733	47.17
665.062	47.19
665.39	47.2
665.719	47.21
666.048	47.24
666.376	47.26
666.705	47.28
667.033	47.29
667.362	47.29
667.69	47.3
668.018	47.33
668.347	47.34
668.675	47.36
669.003	47.37
669.331	47.38
669.659	47.41
669.987	47.42
670.315	47.45
670.643	47.45
670.971	47.47
671.299	47.5
