Data from UWBM48344_Reflection_00008.txt Node
Date: Sun May 02 14:01:05 EDT 2021
User: vgr7
Spectrometer: USB2G7710
Scans to average: 10
Trigger mode: 4
Integration Time (sec): 1.000000E-1
Electric dark correction enabled: true
Boxcar width: 20
XAxis mode: Wavelengths
Number of Pixels in Spectrum: 2048
>>>>>Begin Spectral Data<<<<<
177.721	538.89
178.105	1388.89
178.488	409.26
178.871	272.22
179.254	178.83
179.636	120.2
180.019	91.15
180.402	97.78
180.785	88.68
181.168	82.32
181.55	72.86
181.933	67.41
182.316	57.76
182.698	52.53
183.081	49.41
183.463	50
183.846	46.79
184.228	47.51
184.611	46.87
184.993	48.42
185.376	45.58
185.758	47.02
186.14	49.2
186.522	52.13
186.904	50.76
187.287	46.56
187.669	42.77
188.051	44.14
188.433	42.74
188.815	38.53
189.197	36.71
189.579	35.63
189.961	32.71
190.342	30.85
190.724	33.5
191.106	33.75
191.488	35.31
191.869	36.23
192.251	33.9
192.633	30.76
193.014	30.21
193.396	26.94
193.777	26.66
194.159	27.49
194.54	26.61
194.922	23.95
195.303	22.98
195.684	22.28
196.065	21.07
196.447	21.24
196.828	20.74
197.209	19.61
197.59	16.93
197.971	17.95
198.352	19.52
198.733	19.53
199.114	18.65
199.495	19.23
199.876	17.96
200.257	18.72
200.638	15.36
201.018	15.33
201.399	15.62
201.78	13.67
202.16	13.64
202.541	15.66
202.922	15.5
203.302	15.71
203.683	15.1
204.063	15.63
204.444	14.89
204.824	14.06
205.204	13.99
205.585	14.78
205.965	16.12
206.345	14.79
206.725	15.15
207.106	14.03
207.486	13.09
207.866	13.48
208.246	13.24
208.626	11.85
209.006	13.91
209.386	14.06
209.766	14.07
210.145	13.57
210.525	14.06
210.905	14.64
211.285	14.65
211.664	13.66
212.044	13.32
212.424	10.63
212.803	12.84
213.183	13.66
213.562	14.53
213.942	14.64
214.321	14.51
214.701	13.01
215.08	12.61
215.459	12.59
215.838	10.71
216.218	12.45
216.597	11.64
216.976	11.18
217.355	11.94
217.734	11.97
218.113	11.03
218.492	11.23
218.871	10.88
219.25	10.36
219.629	9.49
220.008	10.24
220.387	9.64
220.766	9.97
221.144	10.04
221.523	8.45
221.902	7.73
222.28	6.34
222.659	6.11
223.037	5.85
223.416	6.34
223.794	7.19
224.173	7.68
224.551	6.5
224.929	7.34
225.308	6.81
225.686	6.56
226.064	6.61
226.442	6.31
226.821	6.59
227.199	7.14
227.577	7.06
227.955	7.74
228.333	6.98
228.711	6.87
229.089	6.13
229.467	5.59
229.845	5.4
230.222	5.49
230.6	5.72
230.978	5.95
231.356	6.12
231.733	6.04
232.111	6.14
232.488	5.97
232.866	5.83
233.243	5.57
233.621	5.46
233.998	5.63
234.376	5.71
234.753	5.45
235.13	5.45
235.508	5.51
235.885	5.5
236.262	5.47
236.639	5.3
237.016	5.38
237.393	5.53
237.77	5.49
238.147	5.45
238.524	5.44
238.901	5.31
239.278	5.25
239.655	5.21
240.032	5.18
240.409	5.04
240.785	5.11
241.162	5.08
241.539	5.01
241.915	5.03
242.292	5
242.668	4.97
243.045	4.96
243.421	4.99
243.798	4.99
244.174	5.04
244.551	5.05
244.927	5.06
245.303	5.07
245.679	5.12
246.056	5.05
246.432	5.01
246.808	4.97
247.184	4.99
247.56	4.98
247.936	4.99
248.312	4.97
248.688	4.97
249.064	4.96
249.44	4.93
249.815	4.91
250.191	4.91
250.567	4.93
250.943	4.91
251.318	4.89
251.694	4.88
252.069	4.88
252.445	4.87
252.82	4.83
253.196	4.81
253.571	4.81
253.947	4.81
254.322	4.81
254.697	4.79
255.073	4.76
255.448	4.78
255.823	4.78
256.198	4.75
256.573	4.74
256.948	4.75
257.323	4.73
257.698	4.7
258.073	4.68
258.448	4.65
258.823	4.62
259.198	4.6
259.573	4.55
259.948	4.54
260.322	4.52
260.697	4.5
261.072	4.47
261.446	4.48
261.821	4.49
262.195	4.48
262.57	4.46
262.944	4.45
263.319	4.43
263.693	4.44
264.067	4.44
264.442	4.43
264.816	4.42
265.19	4.42
265.564	4.44
265.938	4.4
266.313	4.4
266.687	4.37
267.061	4.36
267.435	4.37
267.809	4.36
268.183	4.36
268.556	4.38
268.93	4.36
269.304	4.35
269.678	4.34
270.051	4.33
270.425	4.32
270.799	4.3
271.172	4.3
271.546	4.3
271.919	4.29
272.293	4.28
272.666	4.28
273.04	4.3
273.413	4.31
273.787	4.34
274.16	4.35
274.533	4.37
274.906	4.4
275.279	4.4
275.653	4.42
276.026	4.43
276.399	4.44
276.772	4.45
277.145	4.43
277.518	4.45
277.891	4.47
278.263	4.46
278.636	4.47
279.009	4.47
279.382	4.46
279.755	4.45
280.127	4.46
280.5	4.47
280.872	4.48
281.245	4.49
281.617	4.48
281.99	4.5
282.362	4.49
282.735	4.49
283.107	4.49
283.479	4.48
283.852	4.48
284.224	4.48
284.596	4.48
284.968	4.47
285.34	4.48
285.713	4.5
286.085	4.52
286.457	4.53
286.829	4.53
287.201	4.55
287.572	4.57
287.944	4.58
288.316	4.57
288.688	4.57
289.06	4.56
289.431	4.57
289.803	4.59
290.175	4.59
290.546	4.6
290.918	4.61
291.289	4.62
291.661	4.62
292.032	4.62
292.403	4.64
292.775	4.65
293.146	4.65
293.517	4.67
293.889	4.69
294.26	4.71
294.631	4.72
295.002	4.76
295.373	4.78
295.744	4.8
296.115	4.81
296.486	4.85
296.857	4.9
297.228	4.92
297.599	4.95
297.97	4.97
298.34	4.99
298.711	5.01
299.082	5.03
299.452	5.06
299.823	5.08
300.194	5.1
300.564	5.13
300.935	5.16
301.305	5.19
301.676	5.22
302.046	5.26
302.416	5.29
302.787	5.31
303.157	5.33
303.527	5.36
303.897	5.4
304.267	5.44
304.637	5.46
305.008	5.49
305.378	5.53
305.748	5.55
306.117	5.58
306.487	5.62
306.857	5.67
307.227	5.71
307.597	5.75
307.967	5.78
308.336	5.83
308.706	5.85
309.076	5.88
309.445	5.92
309.815	5.95
310.184	5.95
310.554	5.99
310.923	6.02
311.293	6.04
311.662	6.06
312.031	6.07
312.401	6.1
312.77	6.14
313.139	6.17
313.508	6.2
313.877	6.24
314.246	6.27
314.616	6.31
314.985	6.34
315.353	6.38
315.722	6.4
316.091	6.42
316.46	6.44
316.829	6.47
317.198	6.49
317.567	6.52
317.935	6.56
318.304	6.59
318.672	6.63
319.041	6.68
319.41	6.71
319.778	6.75
320.147	6.76
320.515	6.78
320.883	6.82
321.252	6.85
321.62	6.9
321.988	6.93
322.357	6.96
322.725	6.99
323.093	7.01
323.461	7.02
323.829	7.06
324.197	7.09
324.565	7.11
324.933	7.13
325.301	7.16
325.669	7.18
326.037	7.19
326.405	7.22
326.772	7.23
327.14	7.25
327.508	7.26
327.875	7.26
328.243	7.27
328.61	7.29
328.978	7.3
329.346	7.3
329.713	7.33
330.08	7.35
330.448	7.36
330.815	7.37
331.182	7.38
331.55	7.4
331.917	7.42
332.284	7.42
332.651	7.44
333.018	7.46
333.385	7.48
333.752	7.51
334.119	7.53
334.486	7.55
334.853	7.58
335.22	7.6
335.587	7.63
335.954	7.64
336.32	7.65
336.687	7.66
337.054	7.68
337.42	7.69
337.787	7.71
338.153	7.72
338.52	7.73
338.886	7.74
339.253	7.74
339.619	7.76
339.986	7.77
340.352	7.79
340.718	7.8
341.084	7.81
341.451	7.81
341.817	7.83
342.183	7.85
342.549	7.86
342.915	7.89
343.281	7.9
343.647	7.92
344.013	7.93
344.379	7.94
344.745	7.94
345.11	7.95
345.476	7.97
345.842	7.98
346.208	7.99
346.573	7.98
346.939	7.99
347.304	8.01
347.67	8.01
348.035	8.02
348.401	8.03
348.766	8.02
349.132	8.03
349.497	8.03
349.862	8.03
350.228	8.03
350.593	8.03
350.958	8.04
351.323	8.05
351.688	8.05
352.053	8.05
352.418	8.04
352.783	8.03
353.148	8.04
353.513	8.04
353.878	8.04
354.243	8.03
354.608	8.03
354.972	8.03
355.337	8.02
355.702	8.01
356.066	8
356.431	8
356.795	7.98
357.16	7.96
357.524	7.96
357.889	7.94
358.253	7.92
358.618	7.9
358.982	7.9
359.346	7.89
359.71	7.89
360.075	7.87
360.439	7.86
360.803	7.84
361.167	7.83
361.531	7.82
361.895	7.8
362.259	7.78
362.623	7.75
362.987	7.74
363.351	7.72
363.714	7.71
364.078	7.69
364.442	7.67
364.806	7.65
365.169	7.62
365.533	7.61
365.896	7.58
366.26	7.56
366.623	7.53
366.987	7.5
367.35	7.48
367.714	7.45
368.077	7.42
368.44	7.39
368.803	7.36
369.167	7.34
369.53	7.3
369.893	7.26
370.256	7.23
370.619	7.18
370.982	7.16
371.345	7.12
371.708	7.09
372.071	7.06
372.434	7.02
372.797	6.99
373.159	6.96
373.522	6.94
373.885	6.91
374.247	6.87
374.61	6.83
374.973	6.8
375.335	6.77
375.698	6.72
376.06	6.69
376.423	6.66
376.785	6.63
377.147	6.59
377.51	6.56
377.872	6.52
378.234	6.48
378.596	6.44
378.958	6.4
379.321	6.37
379.683	6.34
380.045	6.3
380.407	6.28
380.769	6.25
381.13	6.22
381.492	6.19
381.854	6.16
382.216	6.13
382.578	6.1
382.939	6.08
383.301	6.05
383.663	6.02
384.024	5.99
384.386	5.96
384.747	5.94
385.109	5.91
385.47	5.89
385.832	5.85
386.193	5.83
386.554	5.81
386.916	5.78
387.277	5.76
387.638	5.73
387.999	5.71
388.36	5.69
388.721	5.66
389.082	5.64
389.443	5.62
389.804	5.6
390.165	5.58
390.526	5.57
390.887	5.55
391.248	5.53
391.609	5.51
391.969	5.49
392.33	5.48
392.691	5.46
393.051	5.44
393.412	5.42
393.772	5.4
394.133	5.38
394.493	5.36
394.854	5.34
395.214	5.32
395.574	5.29
395.935	5.27
396.295	5.25
396.655	5.23
397.015	5.21
397.376	5.19
397.736	5.17
398.096	5.15
398.456	5.13
398.816	5.11
399.176	5.09
399.535	5.07
399.895	5.06
400.255	5.04
400.615	5.03
400.975	5.01
401.334	4.99
401.694	4.97
402.054	4.96
402.413	4.95
402.773	4.94
403.132	4.92
403.492	4.91
403.851	4.89
404.211	4.88
404.57	4.87
404.929	4.85
405.288	4.84
405.648	4.83
406.007	4.83
406.366	4.81
406.725	4.81
407.084	4.8
407.443	4.79
407.802	4.78
408.161	4.77
408.52	4.77
408.879	4.77
409.238	4.76
409.596	4.76
409.955	4.76
410.314	4.75
410.673	4.74
411.031	4.74
411.39	4.74
411.748	4.74
412.107	4.74
412.465	4.74
412.824	4.76
413.182	4.78
413.54	4.8
413.899	4.83
414.257	4.86
414.615	4.9
414.974	4.92
415.332	4.96
415.69	5
416.048	5.02
416.406	5.07
416.764	5.09
417.122	5.11
417.48	5.15
417.838	5.17
418.195	5.19
418.553	5.21
418.911	5.22
419.269	5.22
419.626	5.22
419.984	5.2
420.342	5.19
420.699	5.16
421.057	5.14
421.414	5.11
421.772	5.09
422.129	5.08
422.486	5.07
422.844	5.06
423.201	5.05
423.558	5.04
423.915	5.04
424.273	5.03
424.63	5.03
424.987	5.02
425.344	5.02
425.701	5.01
426.058	5.01
426.415	5.01
426.772	5
427.128	4.99
427.485	4.98
427.842	4.96
428.199	4.94
428.555	4.92
428.912	4.89
429.269	4.86
429.625	4.83
429.982	4.79
430.338	4.75
430.695	4.73
431.051	4.69
431.407	4.67
431.764	4.64
432.12	4.62
432.476	4.61
432.832	4.6
433.189	4.6
433.545	4.6
433.901	4.62
434.257	4.64
434.613	4.67
434.969	4.69
435.325	4.73
435.681	4.77
436.036	4.8
436.392	4.82
436.748	4.84
437.104	4.85
437.459	4.88
437.815	4.9
438.171	4.92
438.526	4.95
438.882	4.99
439.237	5.03
439.593	5.07
439.948	5.11
440.304	5.15
440.659	5.17
441.014	5.2
441.369	5.23
441.725	5.25
442.08	5.27
442.435	5.28
442.79	5.29
443.145	5.29
443.5	5.29
443.855	5.29
444.21	5.29
444.565	5.28
444.92	5.27
445.275	5.26
445.629	5.25
445.984	5.24
446.339	5.22
446.693	5.21
447.048	5.19
447.403	5.17
447.757	5.14
448.112	5.11
448.466	5.09
448.82	5.06
449.175	5.03
449.529	5.01
449.883	4.98
450.238	4.95
450.592	4.94
450.946	4.92
451.3	4.92
451.654	4.93
452.008	4.92
452.362	4.93
452.716	4.93
453.07	4.92
453.424	4.91
453.778	4.9
454.132	4.89
454.486	4.88
454.839	4.85
455.193	4.83
455.547	4.81
455.9	4.78
456.254	4.76
456.607	4.72
456.961	4.69
457.314	4.67
457.668	4.66
458.021	4.65
458.375	4.65
458.728	4.65
459.081	4.65
459.434	4.66
459.787	4.67
460.141	4.68
460.494	4.69
460.847	4.7
461.2	4.71
461.553	4.72
461.906	4.72
462.259	4.73
462.611	4.74
462.964	4.74
463.317	4.75
463.67	4.76
464.022	4.77
464.375	4.78
464.728	4.79
465.08	4.79
465.433	4.8
465.785	4.8
466.138	4.79
466.49	4.78
466.843	4.76
467.195	4.74
467.547	4.72
467.899	4.7
468.252	4.67
468.604	4.65
468.956	4.63
469.308	4.62
469.66	4.62
470.012	4.62
470.364	4.63
470.716	4.63
471.068	4.65
471.42	4.68
471.772	4.71
472.123	4.73
472.475	4.74
472.827	4.76
473.178	4.77
473.53	4.79
473.882	4.81
474.233	4.83
474.585	4.88
474.936	4.95
475.288	5.05
475.639	5.18
475.99	5.33
476.342	5.5
476.693	5.68
477.044	5.87
477.395	6.06
477.746	6.26
478.097	6.46
478.448	6.65
478.8	6.85
479.15	7.03
479.501	7.2
479.852	7.35
480.203	7.5
480.554	7.63
480.905	7.77
481.255	7.89
481.606	8.01
481.957	8.12
482.307	8.23
482.658	8.33
483.009	8.43
483.359	8.52
483.709	8.61
484.06	8.7
484.41	8.78
484.761	8.86
485.111	8.94
485.461	9.02
485.811	9.09
486.162	9.15
486.512	9.21
486.862	9.25
487.212	9.29
487.562	9.31
487.912	9.32
488.262	9.32
488.612	9.32
488.961	9.29
489.311	9.25
489.661	9.17
490.011	9.08
490.36	8.96
490.71	8.82
491.06	8.67
491.409	8.52
491.759	8.35
492.108	8.18
492.458	8.01
492.807	7.82
493.157	7.64
493.506	7.47
493.855	7.31
494.204	7.16
494.554	7.01
494.903	6.88
495.252	6.75
495.601	6.64
495.95	6.52
496.299	6.41
496.648	6.32
496.997	6.23
497.346	6.15
497.695	6.07
498.043	5.99
498.392	5.92
498.741	5.86
499.09	5.8
499.438	5.74
499.787	5.69
500.135	5.65
500.484	5.61
500.832	5.59
501.181	5.59
501.529	5.6
501.878	5.63
502.226	5.66
502.574	5.71
502.923	5.76
503.271	5.81
503.619	5.86
503.967	5.91
504.315	5.97
504.663	6.02
505.011	6.08
505.359	6.14
505.707	6.2
506.055	6.27
506.403	6.34
506.751	6.42
507.098	6.5
507.446	6.58
507.794	6.67
508.141	6.76
508.489	6.85
508.837	6.96
509.184	7.06
509.531	7.17
509.879	7.28
510.226	7.41
510.574	7.54
510.921	7.67
511.268	7.81
511.616	7.95
511.963	8.1
512.31	8.26
512.657	8.41
513.004	8.56
513.351	8.71
513.698	8.84
514.045	8.97
514.392	9.09
514.739	9.21
515.086	9.32
515.432	9.42
515.779	9.53
516.126	9.65
516.473	9.77
516.819	9.9
517.166	10.05
517.512	10.21
517.859	10.39
518.205	10.58
518.552	10.79
518.898	11.02
519.245	11.27
519.591	11.59
519.937	11.96
520.283	12.38
520.629	12.85
520.976	13.35
521.322	13.86
521.668	14.39
522.014	14.93
522.36	15.47
522.706	16
523.052	16.52
523.398	17.01
523.743	17.46
524.089	17.88
524.435	18.26
524.781	18.64
525.126	19.02
525.472	19.39
525.817	19.74
526.163	20.09
526.509	20.43
526.854	20.77
527.199	21.11
527.545	21.45
527.89	21.81
528.235	22.16
528.581	22.49
528.926	22.81
529.271	23.11
529.616	23.4
529.961	23.68
530.306	23.95
530.651	24.2
530.996	24.43
531.341	24.65
531.686	24.85
532.031	25.04
532.376	25.24
532.721	25.47
533.065	25.72
533.41	25.98
533.755	26.21
534.099	26.42
534.444	26.61
534.788	26.77
535.133	26.92
535.477	27.04
535.822	27.15
536.166	27.23
536.51	27.26
536.855	27.25
537.199	27.22
537.543	27.18
537.887	27.16
538.231	27.18
538.576	27.21
538.92	27.22
539.264	27.22
539.608	27.2
539.951	27.17
540.295	27.14
540.639	27.1
540.983	27.04
541.327	26.96
541.671	26.87
542.014	26.81
542.358	26.75
542.701	26.77
543.045	26.83
543.389	26.91
543.732	27.01
544.075	27.12
544.419	27.25
544.762	27.38
545.105	27.53
545.449	27.68
545.792	27.83
546.135	28
546.478	28.13
546.821	28.22
547.165	28.27
547.508	28.27
547.851	28.24
548.194	28.17
548.536	28.06
548.879	27.94
549.222	27.79
549.565	27.64
549.908	27.5
550.25	27.36
550.593	27.28
550.936	27.26
551.278	27.27
551.621	27.33
551.963	27.4
552.306	27.48
552.648	27.58
552.991	27.72
553.333	27.86
553.675	28.03
554.017	28.24
554.36	28.45
554.702	28.69
555.044	28.97
555.386	29.28
555.728	29.63
556.07	29.93
556.412	30.24
556.754	30.49
557.096	30.69
557.438	30.89
557.78	31.09
558.121	31.3
558.463	31.51
558.805	31.73
559.147	31.94
559.488	32.15
559.83	32.37
560.171	32.57
560.513	32.76
560.854	32.96
561.196	33.16
561.537	33.36
561.878	33.55
562.22	33.74
562.561	33.92
562.902	34.1
563.243	34.29
563.584	34.47
563.925	34.65
564.266	34.83
564.607	35.01
564.948	35.19
565.289	35.36
565.63	35.54
565.971	35.7
566.312	35.87
566.653	36.03
566.993	36.19
567.334	36.35
567.675	36.5
568.015	36.65
568.356	36.8
568.696	36.94
569.037	37.08
569.377	37.22
569.718	37.36
570.058	37.48
570.398	37.61
570.739	37.73
571.079	37.86
571.419	37.97
571.759	38.09
572.099	38.2
572.439	38.31
572.779	38.41
573.119	38.51
573.459	38.61
573.799	38.72
574.139	38.82
574.479	38.93
574.819	39.03
575.158	39.13
575.498	39.23
575.838	39.33
576.177	39.42
576.517	39.51
576.856	39.61
577.196	39.69
577.535	39.78
577.875	39.86
578.214	39.96
578.553	40.06
578.893	40.13
579.232	40.22
579.571	40.31
579.91	40.4
580.25	40.49
580.589	40.59
580.928	40.69
581.267	40.77
581.606	40.87
581.945	40.97
582.283	41.06
582.622	41.15
582.961	41.25
583.3	41.35
583.639	41.44
583.977	41.53
584.316	41.62
584.654	41.7
584.993	41.79
585.332	41.88
585.67	41.95
586.008	42.05
586.347	42.14
586.685	42.23
587.024	42.31
587.362	42.4
587.7	42.48
588.038	42.57
588.376	42.66
588.715	42.75
589.053	42.84
589.391	42.94
589.729	43.03
590.067	43.13
590.404	43.21
590.742	43.3
591.08	43.39
591.418	43.47
591.756	43.55
592.093	43.62
592.431	43.69
592.769	43.76
593.106	43.84
593.444	43.9
593.781	43.96
594.119	44.02
594.456	44.08
594.793	44.14
595.131	44.2
595.468	44.26
595.805	44.32
596.143	44.38
596.48	44.46
596.817	44.55
597.154	44.62
597.491	44.69
597.828	44.77
598.165	44.83
598.502	44.91
598.839	44.97
599.176	45.03
599.512	45.09
599.849	45.15
600.186	45.21
600.523	45.26
600.859	45.33
601.196	45.39
601.532	45.45
601.869	45.5
602.205	45.55
602.542	45.59
602.878	45.63
603.215	45.68
603.551	45.73
603.887	45.77
604.223	45.81
604.56	45.86
604.896	45.89
605.232	45.94
605.568	45.98
605.904	46.02
606.24	46.05
606.576	46.08
606.912	46.12
607.248	46.16
607.583	46.19
607.919	46.22
608.255	46.25
608.591	46.28
608.926	46.32
609.262	46.35
609.597	46.38
609.933	46.41
610.268	46.44
610.604	46.46
610.939	46.48
611.275	46.49
611.61	46.51
611.945	46.54
612.281	46.56
612.616	46.58
612.951	46.6
613.286	46.64
613.621	46.66
613.956	46.68
614.291	46.7
614.626	46.72
614.961	46.74
615.296	46.76
615.631	46.78
615.966	46.8
616.3	46.83
616.635	46.86
616.97	46.88
617.304	46.9
617.639	46.92
617.973	46.95
618.308	46.98
618.642	47.01
618.977	47.03
619.311	47.07
619.646	47.12
619.98	47.16
620.314	47.19
620.648	47.22
620.983	47.26
621.317	47.29
621.651	47.33
621.985	47.35
622.319	47.38
622.653	47.42
622.987	47.45
623.321	47.48
623.655	47.51
623.988	47.54
624.322	47.56
624.656	47.59
624.99	47.64
625.323	47.66
625.657	47.67
625.99	47.71
626.324	47.73
626.657	47.75
626.991	47.78
627.324	47.8
627.658	47.83
627.991	47.86
628.324	47.88
628.657	47.91
628.991	47.93
629.324	47.96
629.657	47.99
629.99	48.01
630.323	48.05
630.656	48.07
630.989	48.09
631.322	48.12
631.655	48.14
631.987	48.16
632.32	48.18
632.653	48.21
632.986	48.22
633.318	48.23
633.651	48.25
633.984	48.26
634.316	48.27
634.649	48.29
634.981	48.32
635.313	48.34
635.646	48.36
635.978	48.38
636.31	48.4
636.643	48.41
636.975	48.43
637.307	48.43
637.639	48.45
637.971	48.49
638.303	48.5
638.635	48.52
638.967	48.55
639.299	48.58
639.631	48.6
639.963	48.63
640.295	48.67
640.626	48.68
640.958	48.71
641.29	48.74
641.621	48.77
641.953	48.81
642.285	48.82
642.616	48.85
642.948	48.86
643.279	48.87
643.61	48.91
643.942	48.92
644.273	48.95
644.604	48.98
644.936	49
645.267	49.02
645.598	49.04
645.929	49.05
646.26	49.09
646.591	49.12
646.922	49.13
647.253	49.14
647.584	49.17
647.915	49.2
648.245	49.21
648.576	49.24
648.907	49.26
649.238	49.29
649.568	49.3
649.899	49.3
650.229	49.33
650.56	49.34
650.89	49.37
651.221	49.38
651.551	49.4
651.882	49.42
652.212	49.44
652.542	49.45
652.872	49.48
653.203	49.5
653.533	49.51
653.863	49.52
654.193	49.55
654.523	49.57
654.853	49.57
655.183	49.58
655.513	49.59
655.843	49.6
656.172	49.6
656.502	49.63
656.832	49.64
657.162	49.65
657.491	49.67
657.821	49.69
658.15	49.7
658.48	49.71
658.809	49.73
659.139	49.74
659.468	49.76
659.798	49.77
660.127	49.78
660.456	49.8
660.785	49.82
661.115	49.84
661.444	49.85
661.773	49.87
662.102	49.88
662.431	49.89
662.76	49.9
663.089	49.93
663.418	49.97
663.747	49.99
664.076	50.01
664.404	50.04
664.733	50.06
665.062	50.06
665.39	50.09
665.719	50.11
666.048	50.13
666.376	50.14
666.705	50.17
667.033	50.18
667.362	50.2
667.69	50.22
668.018	50.25
668.347	50.28
668.675	50.3
669.003	50.33
669.331	50.35
669.659	50.37
