Data from UWBM109429_Reflection_00003.txt Node
Date: Sun May 02 13:53:41 EDT 2021
User: vgr7
Spectrometer: USB2G7710
Scans to average: 10
Trigger mode: 4
Integration Time (sec): 1.000000E-1
Electric dark correction enabled: true
Boxcar width: 20
XAxis mode: Wavelengths
Number of Pixels in Spectrum: 2048
>>>>>Begin Spectral Data<<<<<
177.721	51.08
178.105	42.31
178.488	59.79
178.871	48.85
179.254	61.04
179.636	46.75
180.019	30.55
180.402	32.83
180.785	25.6
181.168	26.36
181.55	16.75
181.933	20.61
182.316	16.02
182.698	15.9
183.081	15.71
183.463	14.85
183.846	11.04
184.228	14.02
184.611	12
184.993	11.54
185.376	10.77
185.758	11.49
186.14	12.3
186.522	11.49
186.904	10.46
187.287	10.31
187.669	13.91
188.051	12.57
188.433	14.76
188.815	10.87
189.197	11.99
189.579	11.84
189.961	9.52
190.342	7.65
190.724	7.91
191.106	8.06
191.488	8.15
191.869	7.02
192.251	4.52
192.633	5.31
193.014	5.13
193.396	1.5
193.777	2.6
194.159	2.92
194.54	3.76
194.922	1.43
195.303	1.13
195.684	2.35
196.065	-0.26
196.447	1.65
196.828	0.77
197.209	1.9
197.59	-1.51
197.971	-1.36
198.352	-1.51
198.733	-1.39
199.114	-1.29
199.495	0.1
199.876	-2.03
200.257	-1.98
200.638	-2.3
201.018	-0.4
201.399	0.39
201.78	-1.39
202.16	-1.81
202.541	-2.73
202.922	-2.28
203.302	-3.21
203.683	-2.28
204.063	-3.18
204.444	-2.34
204.824	-2.41
205.204	-2.67
205.585	-0.9
205.965	0.62
206.345	-0.1
206.725	0.22
207.106	0.49
207.486	0.22
207.866	1.42
208.246	1.22
208.626	1.85
209.006	2.45
209.386	1.4
209.766	0.64
210.145	-0.22
210.525	0.46
210.905	1
211.285	-1.05
211.664	0.26
212.044	0.21
212.424	-0.15
212.803	-0.39
213.183	-0.09
213.562	1.62
213.942	1.98
214.321	0.56
214.701	-0.7
215.08	-1.11
215.459	0.21
215.838	0.2
216.218	0.2
216.597	-1.59
216.976	-1.24
217.355	-0.66
217.734	-0.65
218.113	-0.2
218.492	-1.66
218.871	-2.04
219.25	-2.18
219.629	-2.27
220.008	-2.6
220.387	-2.4
220.766	-2.55
221.144	-2.92
221.523	-2.05
221.902	-0.84
222.28	-0.64
222.659	-1.2
223.037	-1.49
223.416	-1.13
223.794	-0.46
224.173	-0.41
224.551	0.11
224.929	1.3
225.308	0.82
225.686	0.6
226.064	0.65
226.442	0.84
226.821	1.8
227.199	2.32
227.577	1.93
227.955	2.2
228.333	2.3
228.711	2.46
229.089	1.74
229.467	1.72
229.845	1.88
230.222	2.42
230.6	2.65
230.978	2.56
231.356	2.9
231.733	3.04
232.111	3.39
232.488	3.56
232.866	3.61
233.243	3.48
233.621	3.73
233.998	4.31
234.376	4.41
234.753	4.35
235.13	4.45
235.508	4.56
235.885	4.6
236.262	4.69
236.639	4.77
237.016	4.74
237.393	4.65
237.77	4.7
238.147	4.76
238.524	4.78
238.901	4.74
239.278	4.72
239.655	4.83
240.032	4.87
240.409	4.88
240.785	4.99
241.162	5.09
241.539	5.1
241.915	5.15
242.292	5.2
242.668	5.17
243.045	5.15
243.421	5.15
243.798	5.17
244.174	5.22
244.551	5.25
244.927	5.23
245.303	5.26
245.679	5.25
246.056	5.24
246.432	5.26
246.808	5.22
247.184	5.26
247.56	5.23
247.936	5.21
248.312	5.22
248.688	5.27
249.064	5.27
249.44	5.23
249.815	5.22
250.191	5.18
250.567	5.19
250.943	5.16
251.318	5.13
251.694	5.13
252.069	5.09
252.445	5.1
252.82	5.11
253.196	5.1
253.571	5.1
253.947	5.11
254.322	5.1
254.697	5.09
255.073	5.05
255.448	5.04
255.823	5.01
256.198	4.99
256.573	4.95
256.948	4.95
257.323	4.91
257.698	4.87
258.073	4.84
258.448	4.83
258.823	4.8
259.198	4.78
259.573	4.75
259.948	4.75
260.322	4.73
260.697	4.71
261.072	4.69
261.446	4.67
261.821	4.65
262.195	4.64
262.57	4.61
262.944	4.62
263.319	4.63
263.693	4.59
264.067	4.59
264.442	4.56
264.816	4.55
265.19	4.56
265.564	4.59
265.938	4.59
266.313	4.62
266.687	4.61
267.061	4.62
267.435	4.63
267.809	4.61
268.183	4.62
268.556	4.6
268.93	4.61
269.304	4.63
269.678	4.63
270.051	4.62
270.425	4.61
270.799	4.61
271.172	4.6
271.546	4.61
271.919	4.62
272.293	4.63
272.666	4.62
273.04	4.63
273.413	4.67
273.787	4.68
274.16	4.69
274.533	4.69
274.906	4.7
275.279	4.7
275.653	4.73
276.026	4.75
276.399	4.77
276.772	4.79
277.145	4.79
277.518	4.8
277.891	4.8
278.263	4.8
278.636	4.82
279.009	4.83
279.382	4.82
279.755	4.84
280.127	4.85
280.5	4.87
280.872	4.86
281.245	4.85
281.617	4.85
281.99	4.85
282.362	4.84
282.735	4.83
283.107	4.85
283.479	4.84
283.852	4.85
284.224	4.85
284.596	4.83
284.968	4.83
285.34	4.84
285.713	4.85
286.085	4.85
286.457	4.86
286.829	4.85
287.201	4.85
287.572	4.85
287.944	4.86
288.316	4.85
288.688	4.83
289.06	4.84
289.431	4.84
289.803	4.86
290.175	4.86
290.546	4.87
290.918	4.88
291.289	4.88
291.661	4.89
292.032	4.88
292.403	4.88
292.775	4.89
293.146	4.9
293.517	4.91
293.889	4.92
294.26	4.93
294.631	4.96
295.002	4.97
295.373	4.97
295.744	4.95
296.115	4.95
296.486	4.97
296.857	4.97
297.228	4.98
297.599	5
297.97	5.01
298.34	5.01
298.711	5.02
299.082	5.03
299.452	5.05
299.823	5.06
300.194	5.07
300.564	5.07
300.935	5.07
301.305	5.08
301.676	5.08
302.046	5.09
302.416	5.09
302.787	5.08
303.157	5.08
303.527	5.1
303.897	5.11
304.267	5.12
304.637	5.11
305.008	5.12
305.378	5.12
305.748	5.12
306.117	5.12
306.487	5.13
306.857	5.14
307.227	5.15
307.597	5.16
307.967	5.16
308.336	5.17
308.706	5.15
309.076	5.14
309.445	5.14
309.815	5.12
310.184	5.11
310.554	5.11
310.923	5.13
311.293	5.13
311.662	5.13
312.031	5.13
312.401	5.13
312.77	5.12
313.139	5.12
313.508	5.13
313.877	5.13
314.246	5.12
314.616	5.1
314.985	5.1
315.353	5.1
315.722	5.08
316.091	5.09
316.46	5.07
316.829	5.08
317.198	5.08
317.567	5.06
317.935	5.08
318.304	5.09
318.672	5.08
319.041	5.08
319.41	5.07
319.778	5.07
320.147	5.06
320.515	5.05
320.883	5.03
321.252	5
321.62	4.99
321.988	4.97
322.357	4.96
322.725	4.96
323.093	4.96
323.461	4.95
323.829	4.96
324.197	4.96
324.565	4.96
324.933	4.96
325.301	4.95
325.669	4.96
326.037	4.94
326.405	4.94
326.772	4.93
327.14	4.91
327.508	4.91
327.875	4.91
328.243	4.9
328.61	4.88
328.978	4.87
329.346	4.88
329.713	4.88
330.08	4.89
330.448	4.88
330.815	4.88
331.182	4.87
331.55	4.87
331.917	4.87
332.284	4.84
332.651	4.85
333.018	4.85
333.385	4.84
333.752	4.84
334.119	4.83
334.486	4.83
334.853	4.83
335.22	4.84
335.587	4.84
335.954	4.86
336.32	4.86
336.687	4.85
337.054	4.85
337.42	4.88
337.787	4.87
338.153	4.87
338.52	4.85
338.886	4.84
339.253	4.84
339.619	4.84
339.986	4.84
340.352	4.86
340.718	4.85
341.084	4.85
341.451	4.84
341.817	4.85
342.183	4.86
342.549	4.87
342.915	4.87
343.281	4.88
343.647	4.89
344.013	4.88
344.379	4.88
344.745	4.88
345.11	4.88
345.476	4.88
345.842	4.89
346.208	4.89
346.573	4.88
346.939	4.88
347.304	4.9
347.67	4.89
348.035	4.89
348.401	4.89
348.766	4.9
349.132	4.91
349.497	4.91
349.862	4.91
350.228	4.91
350.593	4.91
350.958	4.91
351.323	4.92
351.688	4.93
352.053	4.93
352.418	4.93
352.783	4.92
353.148	4.91
353.513	4.92
353.878	4.93
354.243	4.92
354.608	4.93
354.972	4.93
355.337	4.93
355.702	4.94
356.066	4.94
356.431	4.94
356.795	4.94
357.16	4.93
357.524	4.93
357.889	4.94
358.253	4.93
358.618	4.93
358.982	4.94
359.346	4.94
359.71	4.94
360.075	4.95
360.439	4.95
360.803	4.95
361.167	4.95
361.531	4.96
361.895	4.97
362.259	4.96
362.623	4.96
362.987	4.96
363.351	4.96
363.714	4.96
364.078	4.96
364.442	4.96
364.806	4.96
365.169	4.96
365.533	4.95
365.896	4.94
366.26	4.95
366.623	4.96
366.987	4.95
367.35	4.95
367.714	4.95
368.077	4.96
368.44	4.96
368.803	4.96
369.167	4.97
369.53	4.97
369.893	4.96
370.256	4.96
370.619	4.96
370.982	4.97
371.345	4.97
371.708	4.98
372.071	4.99
372.434	5
372.797	4.99
373.159	4.99
373.522	5
373.885	5.01
374.247	5
374.61	5
374.973	4.99
375.335	5
375.698	4.99
376.06	4.99
376.423	5
376.785	5
377.147	5.01
377.51	5.01
377.872	5.01
378.234	5.01
378.596	5.01
378.958	5.01
379.321	5.01
379.683	5.02
380.045	5.03
380.407	5.04
380.769	5.04
381.13	5.04
381.492	5.04
381.854	5.04
382.216	5.04
382.578	5.04
382.939	5.04
383.301	5.04
383.663	5.05
384.024	5.05
384.386	5.06
384.747	5.06
385.109	5.06
385.47	5.06
385.832	5.06
386.193	5.06
386.554	5.05
386.916	5.05
387.277	5.05
387.638	5.05
387.999	5.06
388.36	5.06
388.721	5.06
389.082	5.06
389.443	5.06
389.804	5.06
390.165	5.06
390.526	5.07
390.887	5.07
391.248	5.06
391.609	5.07
391.969	5.06
392.33	5.06
392.691	5.06
393.051	5.07
393.412	5.07
393.772	5.07
394.133	5.08
394.493	5.07
394.854	5.07
395.214	5.06
395.574	5.06
395.935	5.06
396.295	5.06
396.655	5.06
397.015	5.06
397.376	5.07
397.736	5.07
398.096	5.08
398.456	5.08
398.816	5.08
399.176	5.08
399.535	5.08
399.895	5.08
400.255	5.09
400.615	5.09
400.975	5.1
401.334	5.1
401.694	5.11
402.054	5.11
402.413	5.11
402.773	5.1
403.132	5.1
403.492	5.11
403.851	5.11
404.211	5.11
404.57	5.12
404.929	5.12
405.288	5.13
405.648	5.13
406.007	5.14
406.366	5.14
406.725	5.14
407.084	5.14
407.443	5.14
407.802	5.14
408.161	5.15
408.52	5.15
408.879	5.16
409.238	5.16
409.596	5.17
409.955	5.17
410.314	5.17
410.673	5.18
411.031	5.19
411.39	5.2
411.748	5.21
412.107	5.22
412.465	5.23
412.824	5.26
413.182	5.29
413.54	5.33
413.899	5.37
414.257	5.41
414.615	5.46
414.974	5.51
415.332	5.56
415.69	5.61
416.048	5.65
416.406	5.71
416.764	5.75
417.122	5.79
417.48	5.84
417.838	5.88
418.195	5.91
418.553	5.95
418.911	5.97
419.269	5.97
419.626	5.97
419.984	5.97
420.342	5.95
420.699	5.94
421.057	5.91
421.414	5.89
421.772	5.88
422.129	5.87
422.486	5.86
422.844	5.86
423.201	5.86
423.558	5.86
423.915	5.86
424.273	5.86
424.63	5.86
424.987	5.86
425.344	5.86
425.701	5.86
426.058	5.87
426.415	5.87
426.772	5.87
427.128	5.86
427.485	5.85
427.842	5.84
428.199	5.82
428.555	5.8
428.912	5.78
429.269	5.74
429.625	5.71
429.982	5.68
430.338	5.64
430.695	5.61
431.051	5.57
431.407	5.54
431.764	5.52
432.12	5.5
432.476	5.48
432.832	5.48
433.189	5.48
433.545	5.48
433.901	5.51
434.257	5.53
434.613	5.57
434.969	5.6
435.325	5.64
435.681	5.69
436.036	5.72
436.392	5.75
436.748	5.78
437.104	5.79
437.459	5.82
437.815	5.84
438.171	5.88
438.526	5.91
438.882	5.96
439.237	6.01
439.593	6.05
439.948	6.1
440.304	6.15
440.659	6.18
441.014	6.21
441.369	6.25
441.725	6.27
442.08	6.3
442.435	6.32
442.79	6.33
443.145	6.33
443.5	6.34
443.855	6.34
444.21	6.34
444.565	6.34
444.92	6.33
445.275	6.32
445.629	6.31
445.984	6.29
446.339	6.28
446.693	6.26
447.048	6.24
447.403	6.22
447.757	6.19
448.112	6.16
448.466	6.13
448.82	6.1
449.175	6.07
449.529	6.05
449.883	6.02
450.238	5.99
450.592	5.98
450.946	5.97
451.3	5.97
451.654	5.98
452.008	5.98
452.362	5.99
452.716	5.99
453.07	5.99
453.424	5.99
453.778	5.98
454.132	5.97
454.486	5.95
454.839	5.93
455.193	5.9
455.547	5.89
455.9	5.85
456.254	5.83
456.607	5.79
456.961	5.75
457.314	5.72
457.668	5.7
458.021	5.7
458.375	5.69
458.728	5.69
459.081	5.69
459.434	5.7
459.787	5.71
460.141	5.73
460.494	5.74
460.847	5.75
461.2	5.76
461.553	5.76
461.906	5.77
462.259	5.77
462.611	5.78
462.964	5.78
463.317	5.79
463.67	5.8
464.022	5.81
464.375	5.82
464.728	5.82
465.08	5.82
465.433	5.83
465.785	5.82
466.138	5.8
466.49	5.78
466.843	5.75
467.195	5.72
467.547	5.69
467.899	5.66
468.252	5.62
468.604	5.59
468.956	5.56
469.308	5.54
469.66	5.53
470.012	5.52
470.364	5.53
470.716	5.53
471.068	5.55
471.42	5.58
471.772	5.6
472.123	5.62
472.475	5.63
472.827	5.65
473.178	5.67
473.53	5.68
473.882	5.7
474.233	5.73
474.585	5.78
474.936	5.86
475.288	5.99
475.639	6.15
475.99	6.34
476.342	6.54
476.693	6.76
477.044	6.99
477.395	7.23
477.746	7.47
478.097	7.71
478.448	7.96
478.8	8.19
479.15	8.41
479.501	8.62
479.852	8.81
480.203	8.99
480.554	9.16
480.905	9.32
481.255	9.48
481.606	9.63
481.957	9.77
482.307	9.9
482.658	10.03
483.009	10.15
483.359	10.27
483.709	10.39
484.06	10.5
484.41	10.6
484.761	10.71
485.111	10.81
485.461	10.9
485.811	10.99
486.162	11.07
486.512	11.14
486.862	11.2
487.212	11.23
487.562	11.25
487.912	11.27
488.262	11.27
488.612	11.27
488.961	11.24
489.311	11.18
489.661	11.08
490.011	10.96
490.36	10.81
490.71	10.64
491.06	10.45
491.409	10.25
491.759	10.05
492.108	9.83
492.458	9.61
492.807	9.38
493.157	9.15
493.506	8.94
493.855	8.73
494.204	8.53
494.554	8.34
494.903	8.16
495.252	8
495.601	7.84
495.95	7.68
496.299	7.53
496.648	7.39
496.997	7.26
497.346	7.13
497.695	7
498.043	6.88
498.392	6.77
498.741	6.66
499.09	6.55
499.438	6.45
499.787	6.35
500.135	6.26
500.484	6.17
500.832	6.11
501.181	6.05
501.529	6.02
501.878	6
502.226	5.99
502.574	5.98
502.923	5.98
503.271	5.98
503.619	5.97
503.967	5.97
504.315	5.97
504.663	5.96
505.011	5.95
505.359	5.95
505.707	5.94
506.055	5.94
506.403	5.94
506.751	5.94
507.098	5.95
507.446	5.95
507.794	5.96
508.141	5.98
508.489	5.99
508.837	6.01
509.184	6.02
509.531	6.03
509.879	6.05
510.226	6.07
510.574	6.09
510.921	6.12
511.268	6.14
511.616	6.17
511.963	6.2
512.31	6.23
512.657	6.26
513.004	6.29
513.351	6.31
513.698	6.33
514.045	6.34
514.392	6.35
514.739	6.35
515.086	6.34
515.432	6.34
515.779	6.34
516.126	6.33
516.473	6.33
516.819	6.34
517.166	6.34
517.512	6.36
517.859	6.37
518.205	6.4
518.552	6.43
518.898	6.47
519.245	6.52
519.591	6.6
519.937	6.7
520.283	6.83
520.629	6.97
520.976	7.12
521.322	7.28
521.668	7.45
522.014	7.62
522.36	7.79
522.706	7.96
523.052	8.12
523.398	8.26
523.743	8.4
524.089	8.51
524.435	8.6
524.781	8.69
525.126	8.77
525.472	8.84
525.817	8.92
526.163	8.98
526.509	9.05
526.854	9.11
527.199	9.17
527.545	9.23
527.89	9.3
528.235	9.36
528.581	9.43
528.926	9.48
529.271	9.53
529.616	9.58
529.961	9.62
530.306	9.66
530.651	9.69
530.996	9.72
531.341	9.73
531.686	9.74
532.031	9.74
532.376	9.74
532.721	9.75
533.065	9.76
533.41	9.76
533.755	9.76
534.099	9.74
534.444	9.7
534.788	9.65
535.133	9.59
535.477	9.53
535.822	9.46
536.166	9.38
536.51	9.28
536.855	9.18
537.199	9.07
537.543	8.96
537.887	8.86
538.231	8.78
538.576	8.7
538.92	8.62
539.264	8.54
539.608	8.46
539.951	8.38
540.295	8.29
540.639	8.2
540.983	8.11
541.327	8.02
541.671	7.93
542.014	7.85
542.358	7.76
542.701	7.7
543.045	7.66
543.389	7.63
543.732	7.59
544.075	7.57
544.419	7.55
544.762	7.53
545.105	7.51
545.449	7.5
545.792	7.49
546.135	7.48
546.478	7.46
546.821	7.43
547.165	7.38
547.508	7.33
547.851	7.26
548.194	7.18
548.536	7.1
548.879	7.01
549.222	6.91
549.565	6.81
549.908	6.71
550.25	6.62
550.593	6.53
550.936	6.46
551.278	6.41
551.621	6.37
551.963	6.33
552.306	6.29
552.648	6.27
552.991	6.25
553.333	6.23
553.675	6.21
554.017	6.21
554.36	6.21
554.702	6.22
555.044	6.23
555.386	6.25
555.728	6.27
556.07	6.29
556.412	6.31
556.754	6.32
557.096	6.32
557.438	6.32
557.78	6.33
558.121	6.33
558.463	6.33
558.805	6.32
559.147	6.33
559.488	6.33
559.83	6.34
560.171	6.34
560.513	6.34
560.854	6.34
561.196	6.35
561.537	6.35
561.878	6.35
562.22	6.36
562.561	6.36
562.902	6.36
563.243	6.36
563.584	6.36
563.925	6.37
564.266	6.37
564.607	6.38
564.948	6.38
565.289	6.38
565.63	6.39
565.971	6.4
566.312	6.4
566.653	6.4
566.993	6.41
567.334	6.41
567.675	6.42
568.015	6.42
568.356	6.43
568.696	6.42
569.037	6.43
569.377	6.43
569.718	6.44
570.058	6.43
570.398	6.44
570.739	6.44
571.079	6.44
571.419	6.45
571.759	6.45
572.099	6.45
572.439	6.45
572.779	6.46
573.119	6.46
573.459	6.45
573.799	6.45
574.139	6.45
574.479	6.45
574.819	6.45
575.158	6.46
575.498	6.46
575.838	6.46
576.177	6.45
576.517	6.46
576.856	6.46
577.196	6.46
577.535	6.45
577.875	6.45
578.214	6.45
578.553	6.45
578.893	6.45
579.232	6.44
579.571	6.45
579.91	6.45
580.25	6.44
580.589	6.44
580.928	6.44
581.267	6.44
581.606	6.44
581.945	6.44
582.283	6.44
582.622	6.44
582.961	6.44
583.3	6.44
583.639	6.44
583.977	6.44
584.316	6.44
584.654	6.43
584.993	6.44
585.332	6.44
585.67	6.45
586.008	6.44
586.347	6.45
586.685	6.45
587.024	6.45
587.362	6.46
587.7	6.46
588.038	6.46
588.376	6.47
588.715	6.47
589.053	6.47
589.391	6.47
589.729	6.48
590.067	6.48
590.404	6.49
590.742	6.49
591.08	6.5
591.418	6.51
591.756	6.52
592.093	6.53
592.431	6.53
592.769	6.54
593.106	6.54
593.444	6.54
593.781	6.54
594.119	6.54
594.456	6.54
594.793	6.54
595.131	6.54
595.468	6.55
595.805	6.55
596.143	6.55
596.48	6.56
596.817	6.56
597.154	6.56
597.491	6.57
597.828	6.57
598.165	6.58
598.502	6.58
598.839	6.59
599.176	6.6
599.512	6.6
599.849	6.6
600.186	6.6
600.523	6.6
600.859	6.61
601.196	6.61
601.532	6.61
601.869	6.61
602.205	6.61
602.542	6.62
602.878	6.62
603.215	6.62
603.551	6.62
603.887	6.62
604.223	6.63
604.56	6.64
604.896	6.64
605.232	6.64
605.568	6.64
605.904	6.64
606.24	6.64
606.576	6.64
606.912	6.64
607.248	6.64
607.583	6.64
607.919	6.65
608.255	6.65
608.591	6.66
608.926	6.66
609.262	6.66
609.597	6.66
609.933	6.66
610.268	6.66
610.604	6.66
610.939	6.65
611.275	6.65
611.61	6.65
611.945	6.66
612.281	6.66
612.616	6.66
612.951	6.65
613.286	6.65
613.621	6.65
613.956	6.65
614.291	6.65
614.626	6.65
614.961	6.66
615.296	6.66
615.631	6.67
615.966	6.67
616.3	6.67
616.635	6.67
616.97	6.68
617.304	6.69
617.639	6.69
617.973	6.68
618.308	6.69
618.642	6.68
618.977	6.68
619.311	6.68
619.646	6.69
619.98	6.69
620.314	6.7
620.648	6.71
620.983	6.71
621.317	6.72
621.651	6.72
621.985	6.72
622.319	6.73
622.653	6.73
622.987	6.73
623.321	6.74
623.655	6.74
623.988	6.74
624.322	6.75
624.656	6.76
624.99	6.76
625.323	6.77
625.657	6.76
625.99	6.76
626.324	6.77
626.657	6.77
626.991	6.77
627.324	6.78
627.658	6.78
627.991	6.78
628.324	6.78
628.657	6.79
628.991	6.79
629.324	6.79
629.657	6.8
629.99	6.8
630.323	6.81
630.656	6.81
630.989	6.8
631.322	6.8
631.655	6.81
631.987	6.81
632.32	6.81
632.653	6.82
632.986	6.82
633.318	6.82
633.651	6.82
633.984	6.82
634.316	6.82
634.649	6.83
634.981	6.83
635.313	6.83
635.646	6.83
635.978	6.83
636.31	6.83
636.643	6.84
636.975	6.85
637.307	6.85
637.639	6.86
637.971	6.86
638.303	6.86
638.635	6.86
638.967	6.86
639.299	6.87
639.631	6.88
639.963	6.88
640.295	6.89
640.626	6.9
640.958	6.91
641.29	6.91
641.621	6.92
641.953	6.92
642.285	6.92
642.616	6.94
642.948	6.94
643.279	6.94
643.61	6.95
643.942	6.95
644.273	6.96
644.604	6.98
644.936	6.98
645.267	6.98
645.598	6.97
645.929	6.98
646.26	6.98
646.591	6.98
646.922	6.99
647.253	7
647.584	7
647.915	7
648.245	7.01
648.576	7.01
648.907	7.02
649.238	7.03
649.568	7.03
649.899	7.03
650.229	7.03
650.56	7.03
650.89	7.03
651.221	7.03
651.551	7.05
651.882	7.06
652.212	7.06
652.542	7.07
652.872	7.07
653.203	7.08
653.533	7.08
653.863	7.08
654.193	7.09
654.523	7.09
654.853	7.1
655.183	7.1
655.513	7.11
655.843	7.11
656.172	7.11
656.502	7.12
656.832	7.11
657.162	7.11
657.491	7.11
657.821	7.11
658.15	7.11
658.48	7.12
658.809	7.13
659.139	7.14
659.468	7.14
659.798	7.15
660.127	7.16
660.456	7.17
660.785	7.17
661.115	7.19
661.444	7.2
661.773	7.21
662.102	7.22
662.431	7.22
662.76	7.23
663.089	7.23
663.418	7.25
663.747	7.26
664.076	7.27
664.404	7.27
664.733	7.28
665.062	7.28
665.39	7.29
665.719	7.29
666.048	7.3
666.376	7.31
666.705	7.31
667.033	7.32
667.362	7.33
667.69	7.33
668.018	7.34
668.347	7.34
668.675	7.34
669.003	7.36
669.331	7.37
669.659	7.37
669.987	7.38
670.315	7.39
670.643	7.41
670.971	7.41
671.299	7.42
671.627	7.43
671.955	7.43
672.283	7.43
672.61	7.43
672.938	7.43
673.266	7.43
673.593	7.43
673.921	7.44
674.249	7.45
674.576	7.46
674.904	7.46
675.231	7.47
675.558	7.47
675.886	7.48
676.213	7.48
676.54	7.48
676.867	7.47
677.195	7.47
677.522	7.47
677.849	7.48
678.176	7.49
678.503	7.49
678.83	7.51
679.157	7.51
679.484	7.52
679.81	7.52
680.137	7.53
680.464	7.53
680.791	7.54
681.117	7.55
