Data from UWBM79812_Reflection_00006.txt Node
Date: Sun May 02 13:57:30 EDT 2021
User: vgr7
Spectrometer: USB2G7710
Scans to average: 10
Trigger mode: 4
Integration Time (sec): 1.000000E-1
Electric dark correction enabled: true
Boxcar width: 20
XAxis mode: Wavelengths
Number of Pixels in Spectrum: 2048
>>>>>Begin Spectral Data<<<<<
177.721	46.97
178.105	72.48
178.488	163.58
178.871	217.6
179.254	184.88
179.636	158.65
180.019	110.92
180.402	82.73
180.785	75.01
181.168	64.76
181.55	56.26
181.933	45.25
182.316	34.5
182.698	32.68
183.081	25.74
183.463	23.97
183.846	21.31
184.228	23.29
184.611	22.32
184.993	22.99
185.376	22.2
185.758	22.37
186.14	24.31
186.522	23.69
186.904	21.45
187.287	19.68
187.669	19.26
188.051	20.96
188.433	19.2
188.815	19.3
189.197	20.54
189.579	20.91
189.961	20.22
190.342	18.1
190.724	18.37
191.106	18.77
191.488	18.76
191.869	17.32
192.251	15.65
192.633	17
193.014	14.72
193.396	13.08
193.777	13.36
194.159	11.59
194.54	9.5
194.922	6.77
195.303	6.1
195.684	6.19
196.065	6.3
196.447	6.77
196.828	5.97
197.209	5.73
197.59	5.38
197.971	5.54
198.352	6.77
198.733	9.2
199.114	9.67
199.495	10.81
199.876	9.22
200.257	8.99
200.638	7.62
201.018	9.34
201.399	10.85
201.78	9.11
202.16	8.71
202.541	8.88
202.922	7.22
203.302	7.82
203.683	7.23
204.063	7.77
204.444	5.71
204.824	4.72
205.204	4.31
205.585	4.2
205.965	5.39
206.345	4.74
206.725	4.3
207.106	2.66
207.486	2.02
207.866	2.51
208.246	1.25
208.626	1.11
209.006	1.09
209.386	0.05
209.766	-1.09
210.145	-1.98
210.525	-1.72
210.905	-0.94
211.285	-3.25
211.664	-1.47
212.044	-3.58
212.424	-3.2
212.803	-3.13
213.183	-3.05
213.562	-1.29
213.942	-1.79
214.321	-2.7
214.701	-4.04
215.08	-3.82
215.459	-3.68
215.838	-4.76
216.218	-4.79
216.597	-6.4
216.976	-6.98
217.355	-5.82
217.734	-4.96
218.113	-4.91
218.492	-5.57
218.871	-6.21
219.25	-5.54
219.629	-5.67
220.008	-3.65
220.387	-4.13
220.766	-2.88
221.144	-2.3
221.523	-2.85
221.902	-1.72
222.28	-1.36
222.659	-0.2
223.037	0.78
223.416	1.47
223.794	1.99
224.173	2.42
224.551	2.9
224.929	3.65
225.308	3.74
225.686	3.94
226.064	4
226.442	3.76
226.821	4.71
227.199	4.54
227.577	5.12
227.955	5.25
228.333	5.24
228.711	4.95
229.089	4.33
229.467	3.97
229.845	3.74
230.222	3.93
230.6	3.79
230.978	3.64
231.356	4.23
231.733	4.18
232.111	4.07
232.488	4.04
232.866	3.69
233.243	3.58
233.621	3.57
233.998	3.66
234.376	3.81
234.753	3.61
235.13	3.76
235.508	3.85
235.885	3.96
236.262	3.97
236.639	3.89
237.016	3.95
237.393	3.96
237.77	3.89
238.147	3.9
238.524	3.85
238.901	3.87
239.278	3.94
239.655	3.98
240.032	3.92
240.409	3.93
240.785	3.97
241.162	4
241.539	4
241.915	4.02
242.292	4.03
242.668	4.03
243.045	3.99
243.421	3.97
243.798	3.97
244.174	4.02
244.551	4.06
244.927	4.05
245.303	4.08
245.679	4.09
246.056	4.04
246.432	4.06
246.808	4.02
247.184	4.06
247.56	4.07
247.936	4.04
248.312	4.08
248.688	4.05
249.064	4.04
249.44	4.06
249.815	4.04
250.191	4.03
250.567	4.07
250.943	4.04
251.318	4.01
251.694	4.01
252.069	4.03
252.445	4.01
252.82	3.99
253.196	3.98
253.571	3.97
253.947	3.98
254.322	3.95
254.697	3.92
255.073	3.9
255.448	3.91
255.823	3.88
256.198	3.87
256.573	3.85
256.948	3.87
257.323	3.86
257.698	3.81
258.073	3.77
258.448	3.76
258.823	3.74
259.198	3.72
259.573	3.69
259.948	3.68
260.322	3.67
260.697	3.65
261.072	3.64
261.446	3.65
261.821	3.65
262.195	3.64
262.57	3.61
262.944	3.61
263.319	3.63
263.693	3.64
264.067	3.64
264.442	3.63
264.816	3.61
265.19	3.61
265.564	3.62
265.938	3.58
266.313	3.58
266.687	3.57
267.061	3.57
267.435	3.55
267.809	3.54
268.183	3.54
268.556	3.54
268.93	3.54
269.304	3.53
269.678	3.54
270.051	3.55
270.425	3.52
270.799	3.51
271.172	3.5
271.546	3.51
271.919	3.51
272.293	3.48
272.666	3.48
273.04	3.51
273.413	3.55
273.787	3.57
274.16	3.59
274.533	3.61
274.906	3.61
275.279	3.62
275.653	3.64
276.026	3.64
276.399	3.63
276.772	3.65
277.145	3.63
277.518	3.64
277.891	3.66
278.263	3.64
278.636	3.64
279.009	3.62
279.382	3.61
279.755	3.63
280.127	3.65
280.5	3.65
280.872	3.66
281.245	3.67
281.617	3.66
281.99	3.66
282.362	3.65
282.735	3.64
283.107	3.65
283.479	3.64
283.852	3.65
284.224	3.65
284.596	3.64
284.968	3.62
285.34	3.61
285.713	3.63
286.085	3.63
286.457	3.63
286.829	3.63
287.201	3.63
287.572	3.64
287.944	3.63
288.316	3.61
288.688	3.59
289.06	3.59
289.431	3.58
289.803	3.57
290.175	3.57
290.546	3.58
290.918	3.58
291.289	3.58
291.661	3.6
292.032	3.58
292.403	3.58
292.775	3.57
293.146	3.57
293.517	3.58
293.889	3.58
294.26	3.59
294.631	3.6
295.002	3.6
295.373	3.59
295.744	3.58
296.115	3.58
296.486	3.58
296.857	3.59
297.228	3.6
297.599	3.6
297.97	3.61
298.34	3.61
298.711	3.61
299.082	3.61
299.452	3.61
299.823	3.61
300.194	3.62
300.564	3.62
300.935	3.61
301.305	3.62
301.676	3.62
302.046	3.62
302.416	3.61
302.787	3.6
303.157	3.6
303.527	3.59
303.897	3.59
304.267	3.58
304.637	3.58
305.008	3.56
305.378	3.55
305.748	3.54
306.117	3.54
306.487	3.53
306.857	3.53
307.227	3.53
307.597	3.54
307.967	3.52
308.336	3.52
308.706	3.5
309.076	3.48
309.445	3.48
309.815	3.47
310.184	3.46
310.554	3.45
310.923	3.44
311.293	3.42
311.662	3.41
312.031	3.41
312.401	3.41
312.77	3.4
313.139	3.39
313.508	3.38
313.877	3.37
314.246	3.36
314.616	3.35
314.985	3.35
315.353	3.35
315.722	3.34
316.091	3.34
316.46	3.32
316.829	3.32
317.198	3.32
317.567	3.32
317.935	3.32
318.304	3.31
318.672	3.31
319.041	3.31
319.41	3.31
319.778	3.3
320.147	3.3
320.515	3.29
320.883	3.28
321.252	3.26
321.62	3.26
321.988	3.25
322.357	3.24
322.725	3.24
323.093	3.24
323.461	3.23
323.829	3.24
324.197	3.25
324.565	3.22
324.933	3.21
325.301	3.19
325.669	3.21
326.037	3.2
326.405	3.22
326.772	3.22
327.14	3.2
327.508	3.18
327.875	3.19
328.243	3.18
328.61	3.16
328.978	3.15
329.346	3.15
329.713	3.16
330.08	3.16
330.448	3.15
330.815	3.15
331.182	3.14
331.55	3.14
331.917	3.12
332.284	3.1
332.651	3.1
333.018	3.1
333.385	3.1
333.752	3.1
334.119	3.11
334.486	3.11
334.853	3.1
335.22	3.11
335.587	3.11
335.954	3.12
336.32	3.11
336.687	3.11
337.054	3.1
337.42	3.1
337.787	3.11
338.153	3.11
338.52	3.11
338.886	3.1
339.253	3.1
339.619	3.1
339.986	3.13
340.352	3.14
340.718	3.14
341.084	3.15
341.451	3.14
341.817	3.14
342.183	3.15
342.549	3.16
342.915	3.16
343.281	3.17
343.647	3.18
344.013	3.18
344.379	3.18
344.745	3.18
345.11	3.17
345.476	3.17
345.842	3.18
346.208	3.18
346.573	3.18
346.939	3.18
347.304	3.19
347.67	3.2
348.035	3.2
348.401	3.21
348.766	3.2
349.132	3.19
349.497	3.2
349.862	3.2
350.228	3.19
350.593	3.19
350.958	3.2
351.323	3.2
351.688	3.21
352.053	3.21
352.418	3.21
352.783	3.21
353.148	3.2
353.513	3.21
353.878	3.22
354.243	3.23
354.608	3.24
354.972	3.24
355.337	3.23
355.702	3.23
356.066	3.22
356.431	3.22
356.795	3.21
357.16	3.2
357.524	3.21
357.889	3.21
358.253	3.21
358.618	3.21
358.982	3.21
359.346	3.22
359.71	3.21
360.075	3.22
360.439	3.21
360.803	3.22
361.167	3.23
361.531	3.22
361.895	3.22
362.259	3.22
362.623	3.22
362.987	3.22
363.351	3.21
363.714	3.22
364.078	3.23
364.442	3.23
364.806	3.23
365.169	3.23
365.533	3.23
365.896	3.23
366.26	3.22
366.623	3.23
366.987	3.22
367.35	3.23
367.714	3.23
368.077	3.23
368.44	3.23
368.803	3.23
369.167	3.23
369.53	3.23
369.893	3.22
370.256	3.22
370.619	3.23
370.982	3.24
371.345	3.25
371.708	3.25
372.071	3.26
372.434	3.26
372.797	3.26
373.159	3.27
373.522	3.27
373.885	3.27
374.247	3.27
374.61	3.27
374.973	3.27
375.335	3.28
375.698	3.27
376.06	3.27
376.423	3.26
376.785	3.27
377.147	3.27
377.51	3.28
377.872	3.28
378.234	3.28
378.596	3.28
378.958	3.28
379.321	3.27
379.683	3.28
380.045	3.28
380.407	3.28
380.769	3.28
381.13	3.29
381.492	3.29
381.854	3.29
382.216	3.28
382.578	3.28
382.939	3.28
383.301	3.28
383.663	3.29
384.024	3.28
384.386	3.28
384.747	3.29
385.109	3.29
385.47	3.29
385.832	3.28
386.193	3.28
386.554	3.28
386.916	3.28
387.277	3.28
387.638	3.28
387.999	3.28
388.36	3.28
388.721	3.27
389.082	3.28
389.443	3.28
389.804	3.28
390.165	3.28
390.526	3.29
390.887	3.29
391.248	3.29
391.609	3.29
391.969	3.3
392.33	3.3
392.691	3.3
393.051	3.3
393.412	3.3
393.772	3.3
394.133	3.31
394.493	3.31
394.854	3.31
395.214	3.31
395.574	3.31
395.935	3.31
396.295	3.31
396.655	3.31
397.015	3.32
397.376	3.32
397.736	3.32
398.096	3.32
398.456	3.32
398.816	3.32
399.176	3.33
399.535	3.33
399.895	3.32
400.255	3.33
400.615	3.33
400.975	3.34
401.334	3.34
401.694	3.34
402.054	3.35
402.413	3.35
402.773	3.35
403.132	3.35
403.492	3.35
403.851	3.35
404.211	3.36
404.57	3.36
404.929	3.36
405.288	3.36
405.648	3.37
406.007	3.37
406.366	3.37
406.725	3.37
407.084	3.37
407.443	3.38
407.802	3.38
408.161	3.38
408.52	3.38
408.879	3.38
409.238	3.38
409.596	3.39
409.955	3.39
410.314	3.4
410.673	3.4
411.031	3.41
411.39	3.41
411.748	3.42
412.107	3.43
412.465	3.44
412.824	3.47
413.182	3.49
413.54	3.51
413.899	3.54
414.257	3.57
414.615	3.61
414.974	3.64
415.332	3.67
415.69	3.71
416.048	3.74
416.406	3.78
416.764	3.81
417.122	3.84
417.48	3.87
417.838	3.9
418.195	3.92
418.553	3.94
418.911	3.96
419.269	3.97
419.626	3.97
419.984	3.97
420.342	3.96
420.699	3.95
421.057	3.93
421.414	3.92
421.772	3.91
422.129	3.9
422.486	3.9
422.844	3.9
423.201	3.91
423.558	3.91
423.915	3.91
424.273	3.91
424.63	3.91
424.987	3.91
425.344	3.91
425.701	3.91
426.058	3.92
426.415	3.92
426.772	3.92
427.128	3.92
427.485	3.91
427.842	3.91
428.199	3.9
428.555	3.88
428.912	3.86
429.269	3.84
429.625	3.82
429.982	3.8
430.338	3.78
430.695	3.76
431.051	3.73
431.407	3.71
431.764	3.7
432.12	3.68
432.476	3.67
432.832	3.67
433.189	3.67
433.545	3.67
433.901	3.68
434.257	3.7
434.613	3.72
434.969	3.75
435.325	3.77
435.681	3.81
436.036	3.83
436.392	3.85
436.748	3.86
437.104	3.87
437.459	3.89
437.815	3.9
438.171	3.93
438.526	3.95
438.882	3.98
439.237	4.01
439.593	4.05
439.948	4.07
440.304	4.11
440.659	4.13
441.014	4.15
441.369	4.17
441.725	4.19
442.08	4.21
442.435	4.22
442.79	4.23
443.145	4.23
443.5	4.24
443.855	4.24
444.21	4.24
444.565	4.23
444.92	4.23
445.275	4.22
445.629	4.21
445.984	4.21
446.339	4.2
446.693	4.19
447.048	4.17
447.403	4.16
447.757	4.14
448.112	4.12
448.466	4.1
448.82	4.08
449.175	4.06
449.529	4.05
449.883	4.03
450.238	4.01
450.592	4.01
450.946	4
451.3	4
451.654	4.01
452.008	4.01
452.362	4.02
452.716	4.02
453.07	4.02
453.424	4.02
453.778	4.01
454.132	4.01
454.486	4
454.839	3.98
455.193	3.97
455.547	3.95
455.9	3.93
456.254	3.91
456.607	3.89
456.961	3.86
457.314	3.84
457.668	3.83
458.021	3.83
458.375	3.82
458.728	3.82
459.081	3.82
459.434	3.83
459.787	3.84
460.141	3.85
460.494	3.85
460.847	3.86
461.2	3.87
461.553	3.87
461.906	3.87
462.259	3.87
462.611	3.87
462.964	3.88
463.317	3.88
463.67	3.88
464.022	3.89
464.375	3.9
464.728	3.9
465.08	3.9
465.433	3.9
465.785	3.89
466.138	3.88
466.49	3.86
466.843	3.84
467.195	3.82
467.547	3.8
467.899	3.78
468.252	3.75
468.604	3.73
468.956	3.71
469.308	3.69
469.66	3.69
470.012	3.68
470.364	3.68
470.716	3.68
471.068	3.69
471.42	3.71
471.772	3.73
472.123	3.74
472.475	3.75
472.827	3.76
473.178	3.76
473.53	3.77
473.882	3.79
474.233	3.8
474.585	3.84
474.936	3.9
475.288	3.98
475.639	4.08
475.99	4.2
476.342	4.34
476.693	4.49
477.044	4.64
477.395	4.8
477.746	4.96
478.097	5.12
478.448	5.29
478.8	5.45
479.15	5.6
479.501	5.73
479.852	5.86
480.203	5.98
480.554	6.1
480.905	6.21
481.255	6.31
481.606	6.42
481.957	6.51
482.307	6.61
482.658	6.69
483.009	6.78
483.359	6.86
483.709	6.94
484.06	7.01
484.41	7.09
484.761	7.16
485.111	7.23
485.461	7.3
485.811	7.36
486.162	7.41
486.512	7.46
486.862	7.5
487.212	7.53
487.562	7.55
487.912	7.56
488.262	7.57
488.612	7.56
488.961	7.54
489.311	7.5
489.661	7.44
490.011	7.35
490.36	7.26
490.71	7.14
491.06	7.02
491.409	6.89
491.759	6.75
492.108	6.6
492.458	6.45
492.807	6.3
493.157	6.15
493.506	6
493.855	5.86
494.204	5.73
494.554	5.59
494.903	5.48
495.252	5.36
495.601	5.25
495.95	5.14
496.299	5.04
496.648	4.94
496.997	4.85
497.346	4.76
497.695	4.68
498.043	4.59
498.392	4.51
498.741	4.43
499.09	4.35
499.438	4.28
499.787	4.21
500.135	4.14
500.484	4.08
500.832	4.03
501.181	3.99
501.529	3.96
501.878	3.94
502.226	3.93
502.574	3.92
502.923	3.92
503.271	3.91
503.619	3.91
503.967	3.91
504.315	3.9
504.663	3.9
505.011	3.89
505.359	3.88
505.707	3.88
506.055	3.87
506.403	3.87
506.751	3.87
507.098	3.87
507.446	3.87
507.794	3.87
508.141	3.87
508.489	3.88
508.837	3.89
509.184	3.9
509.531	3.91
509.879	3.92
510.226	3.93
510.574	3.94
510.921	3.95
511.268	3.97
511.616	3.98
511.963	4
512.31	4.02
512.657	4.04
513.004	4.05
513.351	4.07
513.698	4.08
514.045	4.09
514.392	4.09
514.739	4.09
515.086	4.09
515.432	4.09
515.779	4.08
516.126	4.08
516.473	4.07
516.819	4.07
517.166	4.08
517.512	4.08
517.859	4.09
518.205	4.1
518.552	4.12
518.898	4.15
519.245	4.18
519.591	4.23
519.937	4.29
520.283	4.37
520.629	4.46
520.976	4.56
521.322	4.67
521.668	4.77
522.014	4.88
522.36	4.99
522.706	5.1
523.052	5.2
523.398	5.29
523.743	5.38
524.089	5.45
524.435	5.51
524.781	5.57
525.126	5.62
525.472	5.67
525.817	5.72
526.163	5.76
526.509	5.8
526.854	5.84
527.199	5.88
527.545	5.92
527.89	5.96
528.235	6
528.581	6.05
528.926	6.08
529.271	6.12
529.616	6.14
529.961	6.18
530.306	6.2
530.651	6.23
530.996	6.24
531.341	6.25
531.686	6.26
532.031	6.26
532.376	6.26
532.721	6.27
533.065	6.27
533.41	6.28
533.755	6.27
534.099	6.26
534.444	6.24
534.788	6.2
535.133	6.17
535.477	6.12
535.822	6.08
536.166	6.02
536.51	5.96
536.855	5.89
537.199	5.82
537.543	5.75
537.887	5.69
538.231	5.63
538.576	5.58
538.92	5.53
539.264	5.48
539.608	5.42
539.951	5.37
540.295	5.31
540.639	5.26
540.983	5.2
541.327	5.13
541.671	5.07
542.014	5.02
542.358	4.96
542.701	4.92
543.045	4.89
543.389	4.87
543.732	4.85
544.075	4.83
544.419	4.81
544.762	4.79
545.105	4.78
545.449	4.77
545.792	4.76
546.135	4.75
546.478	4.74
546.821	4.72
547.165	4.69
547.508	4.65
547.851	4.61
548.194	4.56
548.536	4.5
548.879	4.45
549.222	4.38
549.565	4.32
549.908	4.25
550.25	4.19
550.593	4.13
550.936	4.09
551.278	4.06
551.621	4.02
551.963	4
552.306	3.97
552.648	3.95
552.991	3.94
553.333	3.93
553.675	3.92
554.017	3.92
554.36	3.92
554.702	3.92
555.044	3.92
555.386	3.93
555.728	3.95
556.07	3.96
556.412	3.98
556.754	3.98
557.096	3.98
557.438	3.98
557.78	3.98
558.121	3.98
558.463	3.98
558.805	3.98
559.147	3.98
559.488	3.99
559.83	3.99
560.171	3.99
560.513	3.99
560.854	3.99
561.196	3.99
561.537	3.99
561.878	3.99
562.22	3.99
562.561	3.98
562.902	3.98
563.243	3.97
563.584	3.97
563.925	3.98
564.266	3.98
564.607	3.99
564.948	3.99
565.289	3.99
565.63	3.99
565.971	4
566.312	4
566.653	4
566.993	4
567.334	4
567.675	4
568.015	4.01
568.356	4
568.696	4.01
569.037	4.01
569.377	4.01
569.718	4.01
570.058	4.01
570.398	4.01
570.739	4.01
571.079	4.01
571.419	4.01
571.759	4.01
572.099	4.01
572.439	4.01
572.779	4.01
573.119	4.01
573.459	4.01
573.799	4.01
574.139	4.01
574.479	4.01
574.819	4.01
575.158	4.01
575.498	4.01
575.838	4
576.177	4
576.517	4.01
576.856	4.01
577.196	4.01
577.535	4.01
577.875	4
578.214	4
578.553	4
578.893	4
579.232	4
579.571	4
579.91	3.99
580.25	3.99
580.589	3.99
580.928	3.98
581.267	3.98
581.606	3.98
581.945	3.98
582.283	3.98
582.622	3.98
582.961	3.99
583.3	3.99
583.639	3.99
583.977	3.98
584.316	3.99
584.654	3.98
584.993	3.98
585.332	3.98
585.67	3.98
586.008	3.98
586.347	3.98
586.685	3.98
587.024	3.98
587.362	3.98
587.7	3.98
588.038	3.98
588.376	3.98
588.715	3.97
589.053	3.97
589.391	3.98
589.729	3.98
590.067	3.98
590.404	3.98
590.742	3.99
591.08	3.99
591.418	3.99
591.756	4
592.093	4
592.431	4.01
592.769	4.01
593.106	4.01
593.444	4.01
593.781	4.01
594.119	4.01
594.456	4.01
594.793	4.01
595.131	4.01
595.468	4.01
595.805	4.01
596.143	4.01
596.48	4.01
596.817	4.01
597.154	4.01
597.491	4.01
597.828	4.02
598.165	4.02
598.502	4.02
598.839	4.02
599.176	4.03
599.512	4.03
599.849	4.03
600.186	4.03
600.523	4.03
600.859	4.04
601.196	4.04
601.532	4.04
601.869	4.04
602.205	4.04
602.542	4.05
602.878	4.05
603.215	4.05
603.551	4.05
603.887	4.05
604.223	4.05
604.56	4.05
604.896	4.05
605.232	4.05
605.568	4.05
605.904	4.05
606.24	4.05
606.576	4.05
606.912	4.05
607.248	4.04
607.583	4.04
607.919	4.04
608.255	4.04
608.591	4.05
608.926	4.05
609.262	4.05
609.597	4.05
609.933	4.04
610.268	4.05
610.604	4.05
610.939	4.04
611.275	4.04
611.61	4.04
611.945	4.04
612.281	4.04
612.616	4.04
612.951	4.03
613.286	4.03
613.621	4.04
613.956	4.03
614.291	4.04
614.626	4.03
614.961	4.04
615.296	4.03
615.631	4.03
615.966	4.04
616.3	4.03
616.635	4.03
616.97	4.04
617.304	4.04
617.639	4.04
617.973	4.04
618.308	4.04
618.642	4.03
618.977	4.04
619.311	4.04
619.646	4.04
619.98	4.04
620.314	4.04
620.648	4.04
620.983	4.04
621.317	4.05
621.651	4.05
621.985	4.05
622.319	4.06
622.653	4.06
622.987	4.06
623.321	4.06
623.655	4.07
623.988	4.07
624.322	4.07
624.656	4.08
624.99	4.08
625.323	4.08
625.657	4.08
625.99	4.08
626.324	4.08
626.657	4.08
626.991	4.08
627.324	4.08
627.658	4.07
627.991	4.08
628.324	4.08
628.657	4.08
628.991	4.09
629.324	4.09
629.657	4.09
629.99	4.09
630.323	4.09
630.656	4.09
630.989	4.09
631.322	4.09
631.655	4.09
631.987	4.1
632.32	4.1
632.653	4.1
632.986	4.1
633.318	4.1
633.651	4.1
633.984	4.11
634.316	4.11
634.649	4.11
634.981	4.11
635.313	4.12
635.646	4.11
635.978	4.12
636.31	4.12
636.643	4.12
636.975	4.13
637.307	4.13
637.639	4.13
637.971	4.13
638.303	4.13
638.635	4.13
638.967	4.12
639.299	4.13
639.631	4.13
639.963	4.14
640.295	4.14
640.626	4.15
640.958	4.16
641.29	4.16
641.621	4.17
641.953	4.17
642.285	4.17
642.616	4.18
642.948	4.18
643.279	4.18
643.61	4.18
643.942	4.19
644.273	4.19
644.604	4.2
644.936	4.2
645.267	4.19
645.598	4.19
645.929	4.19
646.26	4.19
646.591	4.2
646.922	4.2
647.253	4.2
647.584	4.2
647.915	4.2
648.245	4.2
648.576	4.21
648.907	4.21
649.238	4.21
649.568	4.2
649.899	4.21
650.229	4.21
650.56	4.2
650.89	4.2
651.221	4.2
651.551	4.2
651.882	4.21
652.212	4.21
652.542	4.21
652.872	4.21
653.203	4.21
653.533	4.2
653.863	4.2
654.193	4.2
654.523	4.19
654.853	4.2
655.183	4.2
655.513	4.2
655.843	4.21
656.172	4.21
656.502	4.21
656.832	4.21
657.162	4.21
657.491	4.21
657.821	4.2
658.15	4.21
658.48	4.22
658.809	4.22
659.139	4.23
659.468	4.23
659.798	4.24
660.127	4.24
660.456	4.25
660.785	4.24
661.115	4.25
661.444	4.26
661.773	4.27
662.102	4.27
662.431	4.27
662.76	4.28
663.089	4.28
663.418	4.28
663.747	4.29
664.076	4.3
664.404	4.3
664.733	4.31
665.062	4.32
665.39	4.33
665.719	4.33
666.048	4.34
666.376	4.34
666.705	4.34
667.033	4.35
667.362	4.35
667.69	4.35
668.018	4.37
668.347	4.37
668.675	4.37
669.003	4.38
669.331	4.38
669.659	4.38
669.987	4.37
670.315	4.38
670.643	4.39
670.971	4.4
671.299	4.4
671.627	4.39
671.955	4.39
672.283	4.39
672.61	4.39
672.938	4.39
673.266	4.4
673.593	4.4
673.921	4.39
674.249	4.4
674.576	4.39
674.904	4.39
675.231	4.38
675.558	4.38
675.886	4.39
676.213	4.39
676.54	4.39
676.867	4.38
677.195	4.38
677.522	4.38
677.849	4.38
678.176	4.38
678.503	4.38
678.83	4.38
679.157	4.39
679.484	4.39
679.81	4.4
680.137	4.4
680.464	4.4
680.791	4.41
681.117	4.41
681.444	4.4
681.771	4.4
682.097	4.4
682.424	4.4
682.75	4.4
683.077	4.4
