Data from UWBM12228_Reflection_00012.txt Node
Date: Sun May 02 12:54:33 EDT 2021
User: vgr7
Spectrometer: USB2G7710
Scans to average: 10
Trigger mode: 4
Integration Time (sec): 1.000000E-1
Electric dark correction enabled: true
Boxcar width: 20
XAxis mode: Wavelengths
Number of Pixels in Spectrum: 2048
>>>>>Begin Spectral Data<<<<<
177.721	99.13
178.105	98.9
178.488	97.31
178.871	96.64
179.254	96.35
179.636	93.97
180.019	92.62
180.402	91.11
180.785	90.33
181.168	88.76
181.55	86.05
181.933	112.27
182.316	112.28
182.698	113.8
183.081	114.12
183.463	115.23
183.846	117.7
184.228	118.43
184.611	118.64
184.993	120.89
185.376	122.34
185.758	-59.34
186.14	-17.2
186.522	0.51
186.904	10.91
187.287	18.94
187.669	21.93
188.051	22.59
188.433	26.71
188.815	23.61
189.197	22.9
189.579	23.38
189.961	24.97
190.342	22.76
190.724	24.87
191.106	25.01
191.488	22.81
191.869	19.64
192.251	20.02
192.633	18.32
193.014	18.9
193.396	15.51
193.777	21.69
194.159	22.88
194.54	21.71
194.922	21.5
195.303	23.27
195.684	24.22
196.065	24.13
196.447	19.98
196.828	18.19
197.209	18.94
197.59	7.31
197.971	5.7
198.352	7.46
198.733	9.8
199.114	7.27
199.495	7.98
199.876	7.06
200.257	4.26
200.638	3.35
201.018	-3.14
201.399	-3.36
201.78	-4.83
202.16	-3.5
202.541	-2.31
202.922	-2.09
203.302	-4.65
203.683	-6.76
204.063	-7.62
204.444	-5.58
204.824	-2.37
205.204	-0.37
205.585	6.96
205.965	5.74
206.345	7.32
206.725	3.37
207.106	4.64
207.486	5.03
207.866	3.94
208.246	2.99
208.626	4.55
209.006	10.09
209.386	5.1
209.766	5.71
210.145	4.79
210.525	3.73
210.905	5.52
211.285	4.2
211.664	3.24
212.044	6.2
212.424	7.21
212.803	2.51
213.183	5.82
213.562	6.07
213.942	4.18
214.321	0.37
214.701	0.34
215.08	1.35
215.459	3.21
215.838	3.05
216.218	3.25
216.597	2.04
216.976	-0.31
217.355	-0.12
217.734	0.72
218.113	0.53
218.492	1.11
218.871	1.39
219.25	3.39
219.629	2.33
220.008	2.4
220.387	2.63
220.766	3.07
221.144	2.93
221.523	5.43
221.902	5.67
222.28	6.61
222.659	7.43
223.037	6.76
223.416	7.87
223.794	9
224.173	8.97
224.551	9.24
224.929	9.64
225.308	10.24
225.686	10.2
226.064	9.96
226.442	9.33
226.821	9.38
227.199	9.05
227.577	8.38
227.955	7.52
228.333	7.27
228.711	7.39
229.089	7.66
229.467	7.37
229.845	7.91
230.222	8.06
230.6	8.3
230.978	7.82
231.356	7.38
231.733	7.33
232.111	7.36
232.488	6.94
232.866	6.71
233.243	6.24
233.621	6.34
233.998	6.27
234.376	6.21
234.753	6.11
235.13	6.11
235.508	6.54
235.885	6.48
236.262	6.44
236.639	6.46
237.016	6.33
237.393	6.23
237.77	5.98
238.147	5.89
238.524	5.85
238.901	5.83
239.278	5.79
239.655	5.74
240.032	5.58
240.409	5.54
240.785	5.48
241.162	5.47
241.539	5.46
241.915	5.51
242.292	5.48
242.668	5.41
243.045	5.41
243.421	5.34
243.798	5.34
244.174	5.29
244.551	5.23
244.927	5.06
245.303	4.99
245.679	5
246.056	4.95
246.432	4.95
246.808	4.76
247.184	4.77
247.56	4.73
247.936	4.72
248.312	4.72
248.688	4.77
249.064	4.73
249.44	4.68
249.815	4.67
250.191	4.63
250.567	4.62
250.943	4.69
251.318	4.67
251.694	4.61
252.069	4.53
252.445	4.52
252.82	4.62
253.196	4.64
253.571	4.6
253.947	4.69
254.322	4.63
254.697	4.77
255.073	4.74
255.448	4.73
255.823	4.7
256.198	4.64
256.573	4.47
256.948	4.45
257.323	4.43
257.698	4.37
258.073	4.38
258.448	4.26
258.823	4.24
259.198	4.21
259.573	4.23
259.948	4.27
260.322	4.23
260.697	4.23
261.072	4.22
261.446	4.19
261.821	4.15
262.195	4.1
262.57	4.07
262.944	4.07
263.319	4.06
263.693	4.08
264.067	4.09
264.442	4.17
264.816	4.16
265.19	4.15
265.564	4.19
265.938	4.15
266.313	4.19
266.687	4.14
267.061	4.13
267.435	4.13
267.809	4.12
268.183	4.09
268.556	4.1
268.93	4.1
269.304	4.07
269.678	4.05
270.051	4.02
270.425	4
270.799	4.01
271.172	4.01
271.546	4.01
271.919	4.02
272.293	4.01
272.666	4.02
273.04	4.04
273.413	3.96
273.787	3.94
274.16	3.94
274.533	3.98
274.906	3.94
275.279	3.96
275.653	3.95
276.026	3.94
276.399	3.9
276.772	3.9
277.145	3.94
277.518	3.95
277.891	3.98
278.263	3.97
278.636	3.98
279.009	3.99
279.382	3.98
279.755	3.95
280.127	3.97
280.5	3.96
280.872	3.95
281.245	4.05
281.617	4.06
281.99	4.1
282.362	4.12
282.735	4.11
283.107	4.1
283.479	4.12
283.852	4.12
284.224	4.14
284.596	4.12
284.968	4.01
285.34	4
285.713	3.99
286.085	3.92
286.457	3.93
286.829	3.91
287.201	3.91
287.572	3.96
287.944	3.96
288.316	4
288.688	4.06
289.06	4.05
289.431	4.06
289.803	4.06
290.175	4.08
290.546	4.11
290.918	4.13
291.289	4.11
291.661	4.14
292.032	4.1
292.403	4.12
292.775	4.23
293.146	4.23
293.517	4.28
293.889	4.35
294.26	4.35
294.631	4.38
295.002	4.42
295.373	4.45
295.744	4.48
296.115	4.49
296.486	4.45
296.857	4.47
297.228	4.48
297.599	4.5
297.97	4.52
298.34	4.55
298.711	4.51
299.082	4.53
299.452	4.58
299.823	4.63
300.194	4.67
300.564	4.69
300.935	4.73
301.305	4.75
301.676	4.75
302.046	4.8
302.416	4.82
302.787	4.86
303.157	4.84
303.527	4.87
303.897	4.9
304.267	4.96
304.637	5
305.008	5.06
305.378	5.11
305.748	5.13
306.117	5.23
306.487	5.33
306.857	5.43
307.227	5.49
307.597	5.53
307.967	5.56
308.336	5.61
308.706	5.67
309.076	5.7
309.445	5.74
309.815	5.68
310.184	5.73
310.554	5.72
310.923	5.79
311.293	5.85
311.662	5.9
312.031	5.93
312.401	5.96
312.77	5.98
313.139	6.01
313.508	6.07
313.877	6.04
314.246	6.08
314.616	6.09
314.985	6.09
315.353	6.13
315.722	6.18
316.091	6.23
316.46	6.29
316.829	6.36
317.198	6.42
317.567	6.62
317.935	6.67
318.304	6.77
318.672	6.86
319.041	6.93
319.41	6.99
319.778	7.07
320.147	7.14
320.515	7.18
320.883	7.23
321.252	7.22
321.62	7.31
321.988	7.37
322.357	7.43
322.725	7.54
323.093	7.6
323.461	7.64
323.829	7.69
324.197	7.73
324.565	7.77
324.933	7.81
325.301	7.83
325.669	7.88
326.037	7.92
326.405	7.91
326.772	7.94
327.14	7.96
327.508	8
327.875	8.04
328.243	8.09
328.61	8.09
328.978	8.14
329.346	8.18
329.713	8.2
330.08	8.24
330.448	8.27
330.815	8.27
331.182	8.31
331.55	8.33
331.917	8.38
332.284	8.41
332.651	8.45
333.018	8.48
333.385	8.51
333.752	8.56
334.119	8.61
334.486	8.66
334.853	8.67
335.22	8.72
335.587	8.74
335.954	8.78
336.32	8.84
336.687	8.85
337.054	8.87
337.42	8.91
337.787	8.92
338.153	8.96
338.52	9.03
338.886	9.07
339.253	9.08
339.619	9.11
339.986	9.12
340.352	9.13
340.718	9.17
341.084	9.19
341.451	9.2
341.817	9.21
342.183	9.22
342.549	9.26
342.915	9.28
343.281	9.32
343.647	9.35
344.013	9.4
344.379	9.42
344.745	9.44
345.11	9.46
345.476	9.5
345.842	9.53
346.208	9.52
346.573	9.53
346.939	9.55
347.304	9.56
347.67	9.57
348.035	9.6
348.401	9.6
348.766	9.61
349.132	9.62
349.497	9.64
349.862	9.66
350.228	9.67
350.593	9.68
350.958	9.67
351.323	9.66
351.688	9.68
352.053	9.66
352.418	9.66
352.783	9.66
353.148	9.65
353.513	9.63
353.878	9.63
354.243	9.62
354.608	9.6
354.972	9.6
355.337	9.6
355.702	9.57
356.066	9.56
356.431	9.54
356.795	9.52
357.16	9.49
357.524	9.47
357.889	9.45
358.253	9.43
358.618	9.42
358.982	9.41
359.346	9.4
359.71	9.4
360.075	9.38
360.439	9.36
360.803	9.33
361.167	9.31
361.531	9.31
361.895	9.29
362.259	9.27
362.623	9.24
362.987	9.21
363.351	9.19
363.714	9.17
364.078	9.14
364.442	9.11
364.806	9.09
365.169	9.05
365.533	9.01
365.896	8.98
366.26	8.95
366.623	8.9
366.987	8.86
367.35	8.83
367.714	8.8
368.077	8.76
368.44	8.72
368.803	8.68
369.167	8.64
369.53	8.61
369.893	8.57
370.256	8.52
370.619	8.48
370.982	8.43
371.345	8.38
371.708	8.34
372.071	8.3
372.434	8.26
372.797	8.23
373.159	8.2
373.522	8.15
373.885	8.09
374.247	8.03
374.61	7.97
374.973	7.92
375.335	7.86
375.698	7.81
376.06	7.76
376.423	7.7
376.785	7.65
377.147	7.59
377.51	7.55
377.872	7.5
378.234	7.45
378.596	7.42
378.958	7.38
379.321	7.34
379.683	7.29
380.045	7.24
380.407	7.2
380.769	7.15
381.13	7.11
381.492	7.08
381.854	7.04
382.216	7
382.578	6.96
382.939	6.93
383.301	6.88
383.663	6.85
384.024	6.8
384.386	6.76
384.747	6.72
385.109	6.67
385.47	6.63
385.832	6.6
386.193	6.56
386.554	6.52
386.916	6.49
387.277	6.45
387.638	6.42
387.999	6.39
388.36	6.36
388.721	6.33
389.082	6.3
389.443	6.27
389.804	6.25
390.165	6.22
390.526	6.19
390.887	6.16
391.248	6.12
391.609	6.1
391.969	6.06
392.33	6.04
392.691	6.01
393.051	5.98
393.412	5.94
393.772	5.92
394.133	5.9
394.493	5.86
394.854	5.84
395.214	5.8
395.574	5.76
395.935	5.73
396.295	5.69
396.655	5.66
397.015	5.63
397.376	5.58
397.736	5.56
398.096	5.52
398.456	5.5
398.816	5.48
399.176	5.44
399.535	5.41
399.895	5.39
400.255	5.36
400.615	5.33
400.975	5.31
401.334	5.28
401.694	5.25
402.054	5.23
402.413	5.18
402.773	5.16
403.132	5.15
403.492	5.12
403.851	5.1
404.211	5.08
404.57	5.07
404.929	5.06
405.288	5.04
405.648	5.03
406.007	5.01
406.366	5.01
406.725	5
407.084	4.98
407.443	4.97
407.802	4.95
408.161	4.93
408.52	4.91
408.879	4.9
409.238	4.88
409.596	4.87
409.955	4.87
410.314	4.86
410.673	4.84
411.031	4.84
411.39	4.83
411.748	4.83
412.107	4.82
412.465	4.82
412.824	4.83
413.182	4.84
413.54	4.85
413.899	4.86
414.257	4.88
414.615	4.9
414.974	4.92
415.332	4.95
415.69	4.98
416.048	4.99
416.406	5.03
416.764	5.05
417.122	5.07
417.48	5.09
417.838	5.11
418.195	5.12
418.553	5.13
418.911	5.14
419.269	5.13
419.626	5.11
419.984	5.09
420.342	5.06
420.699	5.04
421.057	5
421.414	4.98
421.772	4.96
422.129	4.94
422.486	4.93
422.844	4.92
423.201	4.91
423.558	4.9
423.915	4.89
424.273	4.88
424.63	4.87
424.987	4.86
425.344	4.85
425.701	4.84
426.058	4.83
426.415	4.82
426.772	4.81
427.128	4.8
427.485	4.78
427.842	4.76
428.199	4.74
428.555	4.71
428.912	4.69
429.269	4.65
429.625	4.63
429.982	4.6
430.338	4.56
430.695	4.53
431.051	4.49
431.407	4.46
431.764	4.44
432.12	4.41
432.476	4.39
432.832	4.38
433.189	4.38
433.545	4.38
433.901	4.39
434.257	4.41
434.613	4.44
434.969	4.46
435.325	4.49
435.681	4.53
436.036	4.54
436.392	4.56
436.748	4.56
437.104	4.57
437.459	4.58
437.815	4.6
438.171	4.62
438.526	4.64
438.882	4.67
439.237	4.7
439.593	4.73
439.948	4.76
440.304	4.8
440.659	4.82
441.014	4.83
441.369	4.86
441.725	4.87
442.08	4.89
442.435	4.89
442.79	4.9
443.145	4.89
443.5	4.89
443.855	4.89
444.21	4.88
444.565	4.87
444.92	4.86
445.275	4.85
445.629	4.84
445.984	4.83
446.339	4.82
446.693	4.81
447.048	4.79
447.403	4.77
447.757	4.74
448.112	4.71
448.466	4.69
448.82	4.67
449.175	4.65
449.529	4.63
449.883	4.61
450.238	4.58
450.592	4.58
450.946	4.57
451.3	4.56
451.654	4.57
452.008	4.56
452.362	4.56
452.716	4.56
453.07	4.56
453.424	4.54
453.778	4.53
454.132	4.51
454.486	4.5
454.839	4.48
455.193	4.45
455.547	4.44
455.9	4.4
456.254	4.38
456.607	4.35
456.961	4.32
457.314	4.3
457.668	4.29
458.021	4.29
458.375	4.28
458.728	4.29
459.081	4.29
459.434	4.3
459.787	4.31
460.141	4.32
460.494	4.32
460.847	4.33
461.2	4.34
461.553	4.35
461.906	4.36
462.259	4.36
462.611	4.37
462.964	4.38
463.317	4.39
463.67	4.39
464.022	4.4
464.375	4.4
464.728	4.41
465.08	4.41
465.433	4.42
465.785	4.42
466.138	4.41
466.49	4.4
466.843	4.39
467.195	4.38
467.547	4.37
467.899	4.35
468.252	4.33
468.604	4.31
468.956	4.3
469.308	4.29
469.66	4.3
470.012	4.3
470.364	4.31
470.716	4.32
471.068	4.35
471.42	4.38
471.772	4.4
472.123	4.42
472.475	4.44
472.827	4.45
473.178	4.47
473.53	4.48
473.882	4.5
474.233	4.52
474.585	4.56
474.936	4.62
475.288	4.72
475.639	4.84
475.99	4.98
476.342	5.14
476.693	5.31
477.044	5.48
477.395	5.65
477.746	5.83
478.097	6.01
478.448	6.19
478.8	6.37
479.15	6.53
479.501	6.68
479.852	6.82
480.203	6.94
480.554	7.07
480.905	7.19
481.255	7.3
481.606	7.4
481.957	7.49
482.307	7.59
482.658	7.68
483.009	7.76
483.359	7.84
483.709	7.92
484.06	7.99
484.41	8.07
484.761	8.14
485.111	8.21
485.461	8.27
485.811	8.33
486.162	8.38
486.512	8.43
486.862	8.47
487.212	8.49
487.562	8.51
487.912	8.52
488.262	8.53
488.612	8.53
488.961	8.51
489.311	8.47
489.661	8.4
490.011	8.31
490.36	8.2
490.71	8.07
491.06	7.94
491.409	7.79
491.759	7.64
492.108	7.49
492.458	7.33
492.807	7.17
493.157	7
493.506	6.85
493.855	6.7
494.204	6.56
494.554	6.44
494.903	6.32
495.252	6.22
495.601	6.11
495.95	6.01
496.299	5.92
496.648	5.84
496.997	5.76
497.346	5.69
497.695	5.62
498.043	5.57
498.392	5.51
498.741	5.45
499.09	5.4
499.438	5.35
499.787	5.31
500.135	5.28
500.484	5.25
500.832	5.25
501.181	5.24
501.529	5.25
501.878	5.28
502.226	5.31
502.574	5.36
502.923	5.4
503.271	5.45
503.619	5.51
503.967	5.57
504.315	5.62
504.663	5.67
505.011	5.72
505.359	5.78
505.707	5.84
506.055	5.9
506.403	5.97
506.751	6.03
507.098	6.1
507.446	6.18
507.794	6.26
508.141	6.35
508.489	6.45
508.837	6.54
509.184	6.63
509.531	6.72
509.879	6.82
510.226	6.92
510.574	7.03
510.921	7.14
511.268	7.25
511.616	7.36
511.963	7.49
512.31	7.61
512.657	7.74
513.004	7.86
513.351	7.97
513.698	8.08
514.045	8.18
514.392	8.28
514.739	8.37
515.086	8.46
515.432	8.55
515.779	8.64
516.126	8.74
516.473	8.85
516.819	8.96
517.166	9.09
517.512	9.22
517.859	9.36
518.205	9.51
518.552	9.68
518.898	9.88
519.245	10.1
519.591	10.37
519.937	10.68
520.283	11.06
520.629	11.46
520.976	11.89
521.322	12.34
521.668	12.79
522.014	13.24
522.36	13.69
522.706	14.14
523.052	14.58
523.398	15
523.743	15.39
524.089	15.75
524.435	16.08
524.781	16.41
525.126	16.74
525.472	17.07
525.817	17.39
526.163	17.71
526.509	18.01
526.854	18.32
527.199	18.64
527.545	18.95
527.89	19.27
528.235	19.59
528.581	19.9
528.926	20.19
529.271	20.48
529.616	20.74
529.961	20.98
530.306	21.21
530.651	21.43
530.996	21.64
531.341	21.84
531.686	22.03
532.031	22.22
532.376	22.43
532.721	22.65
533.065	22.91
533.41	23.17
533.755	23.42
534.099	23.64
534.444	23.85
534.788	24.04
535.133	24.22
535.477	24.4
535.822	24.55
536.166	24.67
536.51	24.76
536.855	24.81
537.199	24.83
537.543	24.86
537.887	24.9
538.231	24.97
538.576	25.04
538.92	25.1
539.264	25.16
539.608	25.2
539.951	25.24
540.295	25.26
540.639	25.28
540.983	25.28
541.327	25.28
541.671	25.29
542.014	25.3
542.358	25.33
542.701	25.43
543.045	25.54
543.389	25.69
543.732	25.84
544.075	26.02
544.419	26.21
544.762	26.4
545.105	26.62
545.449	26.84
545.792	27.08
546.135	27.31
546.478	27.51
546.821	27.68
547.165	27.8
547.508	27.88
547.851	27.93
548.194	27.95
548.536	27.94
548.879	27.9
549.222	27.84
549.565	27.78
549.908	27.73
550.25	27.71
550.593	27.72
550.936	27.79
551.278	27.89
551.621	28.04
551.963	28.19
552.306	28.37
552.648	28.58
552.991	28.8
553.333	29.05
553.675	29.32
554.017	29.62
554.36	29.95
554.702	30.3
555.044	30.69
555.386	31.12
555.728	31.52
556.07	31.89
556.412	32.27
556.754	32.54
557.096	32.82
557.438	33.11
557.78	33.4
558.121	33.68
558.463	33.97
558.805	34.25
559.147	34.54
559.488	34.82
559.83	35.09
560.171	35.38
560.513	35.65
560.854	35.92
561.196	36.17
561.537	36.44
561.878	36.69
562.22	36.93
562.561	37.18
562.902	37.43
563.243	37.67
563.584	37.91
563.925	38.15
564.266	38.39
564.607	38.62
564.948	38.87
565.289	39.09
565.63	39.31
565.971	39.53
566.312	39.76
566.653	39.97
566.993	40.18
567.334	40.38
567.675	40.58
568.015	40.78
568.356	40.97
568.696	41.17
569.037	41.34
569.377	41.5
569.718	41.67
570.058	41.83
570.398	41.98
570.739	42.14
571.079	42.29
571.419	42.42
571.759	42.56
572.099	42.69
572.439	42.81
572.779	42.96
573.119	43.08
573.459	43.19
573.799	43.32
574.139	43.45
574.479	43.58
574.819	43.7
575.158	43.82
575.498	43.93
575.838	44.05
576.177	44.17
576.517	44.27
576.856	44.38
577.196	44.48
577.535	44.58
577.875	44.68
578.214	44.78
578.553	44.88
578.893	44.97
579.232	45.07
579.571	45.17
579.91	45.26
580.25	45.35
580.589	45.45
580.928	45.53
581.267	45.62
581.606	45.71
581.945	45.82
582.283	45.91
582.622	45.99
582.961	46.1
583.3	46.21
583.639	46.31
583.977	46.41
584.316	46.51
584.654	46.61
584.993	46.7
585.332	46.8
585.67	46.91
586.008	47.01
586.347	47.1
586.685	47.19
587.024	47.29
587.362	47.38
587.7	47.48
588.038	47.56
588.376	47.66
588.715	47.75
589.053	47.86
589.391	47.96
589.729	48.06
590.067	48.15
590.404	48.24
590.742	48.33
591.08	48.43
591.418	48.53
591.756	48.61
592.093	48.7
592.431	48.78
592.769	48.86
593.106	48.94
593.444	49
593.781	49.06
594.119	49.13
594.456	49.19
594.793	49.27
595.131	49.33
595.468	49.39
595.805	49.45
596.143	49.52
596.48	49.59
596.817	49.66
597.154	49.74
597.491	49.82
597.828	49.9
598.165	49.98
598.502	50.05
598.839	50.13
599.176	50.2
599.512	50.26
599.849	50.32
600.186	50.37
600.523	50.43
600.859	50.48
601.196	50.52
601.532	50.58
601.869	50.64
602.205	50.7
602.542	50.75
602.878	50.8
603.215	50.84
603.551	50.87
603.887	50.92
604.223	50.96
604.56	51.01
604.896	51.05
605.232	51.09
605.568	51.13
605.904	51.17
606.24	51.21
606.576	51.23
606.912	51.27
607.248	51.3
607.583	51.34
607.919	51.38
608.255	51.42
608.591	51.45
608.926	51.48
609.262	51.51
609.597	51.54
609.933	51.58
610.268	51.61
610.604	51.63
610.939	51.64
611.275	51.65
611.61	51.66
611.945	51.67
612.281	51.68
612.616	51.7
612.951	51.71
613.286	51.73
613.621	51.74
613.956	51.76
614.291	51.78
614.626	51.8
614.961	51.84
615.296	51.85
615.631	51.87
615.966	51.88
616.3	51.89
616.635	51.91
616.97	51.93
617.304	51.95
617.639	51.96
617.973	51.97
618.308	52
618.642	52
618.977	52.01
619.311	52.04
619.646	52.07
619.98	52.1
620.314	52.14
620.648	52.18
620.983	52.21
621.317	52.25
621.651	52.28
621.985	52.31
622.319	52.33
622.653	52.36
622.987	52.39
623.321	52.42
623.655	52.45
623.988	52.49
624.322	52.51
624.656	52.54
624.99	52.57
625.323	52.6
625.657	52.62
625.99	52.65
626.324	52.67
626.657	52.7
626.991	52.71
627.324	52.74
627.658	52.76
627.991	52.79
628.324	52.82
628.657	52.85
628.991	52.88
629.324	52.91
629.657	52.95
629.99	52.98
630.323	53
630.656	53.02
630.989	53.05
631.322	53.09
631.655	53.12
631.987	53.14
632.32	53.18
632.653	53.19
632.986	53.21
633.318	53.22
633.651	53.24
633.984	53.25
634.316	53.26
634.649	53.28
634.981	53.3
635.313	53.31
635.646	53.32
635.978	53.34
636.31	53.36
636.643	53.37
636.975	53.37
637.307	53.38
637.639	53.39
637.971	53.43
638.303	53.45
638.635	53.48
638.967	53.5
639.299	53.53
639.631	53.55
639.963	53.57
640.295	53.59
640.626	53.62
640.958	53.65
641.29	53.67
641.621	53.68
641.953	53.7
642.285	53.7
642.616	53.73
642.948	53.73
643.279	53.76
643.61	53.78
643.942	53.79
644.273	53.81
644.604	53.82
644.936	53.84
645.267	53.84
645.598	53.86
645.929	53.87
646.26	53.89
646.591	53.89
646.922	53.91
647.253	53.92
647.584	53.95
647.915	53.97
648.245	54
648.576	54
648.907	54.03
649.238	54.06
649.568	54.06
649.899	54.07
650.229	54.1
650.56	54.13
650.89	54.16
651.221	54.19
651.551	54.19
651.882	54.22
652.212	54.22
652.542	54.25
652.872	54.28
653.203	54.32
653.533	54.34
653.863	54.35
654.193	54.36
654.523	54.37
654.853	54.4
655.183	54.42
655.513	54.46
655.843	54.49
656.172	54.5
656.502	54.52
656.832	54.52
657.162	54.52
657.491	54.54
657.821	54.56
658.15	54.58
658.48	54.6
658.809	54.63
659.139	54.65
659.468	54.67
659.798	54.7
660.127	54.73
660.456	54.77
660.785	54.8
661.115	54.82
661.444	54.84
661.773	54.86
662.102	54.88
662.431	54.88
662.76	54.9
663.089	54.93
663.418	54.95
663.747	54.96
664.076	54.99
664.404	55.01
664.733	55.02
665.062	55.06
665.39	55.07
665.719	55.08
666.048	55.08
666.376	55.08
666.705	55.1
667.033	55.1
667.362	55.12
667.69	55.15
668.018	55.16
668.347	55.16
668.675	55.16
669.003	55.17
669.331	55.18
669.659	55.18
669.987	55.21
670.315	55.21
670.643	55.25
670.971	55.27
671.299	55.27
671.627	55.27
