Data from UWBM37214_Reflection_00008.txt Node
Date: Sun May 02 14:04:21 EDT 2021
User: vgr7
Spectrometer: USB2G7710
Scans to average: 10
Trigger mode: 4
Integration Time (sec): 1.000000E-1
Electric dark correction enabled: true
Boxcar width: 20
XAxis mode: Wavelengths
Number of Pixels in Spectrum: 2048
>>>>>Begin Spectral Data<<<<<
177.721	313.16
178.105	338.98
178.488	-5360
178.871	850
179.254	228.32
179.636	178.89
180.019	69.86
180.402	41.86
180.785	33.47
181.168	29.17
181.55	28.19
181.933	34.43
182.316	28.07
182.698	28.56
183.081	25.67
183.463	21.49
183.846	15.06
184.228	18.35
184.611	19.21
184.993	19.86
185.376	21.69
185.758	24.14
186.14	26.07
186.522	26.52
186.904	26.44
187.287	27.6
187.669	28.09
188.051	25.47
188.433	23.75
188.815	21.67
189.197	20.59
189.579	19.4
189.961	17.84
190.342	15.09
190.724	13.44
191.106	12.56
191.488	13.39
191.869	9.44
192.251	7.52
192.633	9
193.014	8.3
193.396	5.57
193.777	7.57
194.159	6.3
194.54	5.55
194.922	4.36
195.303	2.61
195.684	2.64
196.065	1.98
196.447	3.92
196.828	4.12
197.209	3.31
197.59	0.51
197.971	0.21
198.352	1.34
198.733	1.98
199.114	2.18
199.495	4.6
199.876	2.29
200.257	1.64
200.638	0.13
201.018	0.06
201.399	-0.52
201.78	-1.24
202.16	-1.53
202.541	-1.53
202.922	-2.66
203.302	-3.67
203.683	-1.87
204.063	-0.37
204.444	-0.98
204.824	-0.5
205.204	-0.78
205.585	0.66
205.965	2.23
206.345	3.47
206.725	3.73
207.106	3.74
207.486	4.3
207.866	4.99
208.246	3.44
208.626	2.38
209.006	3.42
209.386	1.96
209.766	2.29
210.145	2.7
210.525	4.68
210.905	6.12
211.285	6.13
211.664	8.41
212.044	7.31
212.424	7.23
212.803	6.68
213.183	6.56
213.562	7.9
213.942	7.32
214.321	6.17
214.701	6.31
215.08	6.49
215.459	8.05
215.838	7.63
216.218	7.59
216.597	7.46
216.976	8.2
217.355	8.64
217.734	9.23
218.113	8.9
218.492	9.35
218.871	9.31
219.25	9.32
219.629	9.21
220.008	9.57
220.387	8.69
220.766	9.76
221.144	9.3
221.523	9
221.902	8.86
222.28	8.47
222.659	7.98
223.037	7.74
223.416	7.94
223.794	8.39
224.173	8.65
224.551	8.23
224.929	9.51
225.308	9.85
225.686	9.21
226.064	8.57
226.442	8.19
226.821	8.5
227.199	8.01
227.577	7.67
227.955	7.67
228.333	7.78
228.711	7.45
229.089	6.75
229.467	6.14
229.845	6.38
230.222	6.34
230.6	5.91
230.978	5.56
231.356	5.83
231.733	5.98
232.111	5.64
232.488	5.56
232.866	5.16
233.243	4.98
233.621	4.96
233.998	4.75
234.376	4.94
234.753	4.66
235.13	4.59
235.508	4.62
235.885	4.53
236.262	4.32
236.639	4.26
237.016	4.19
237.393	4.14
237.77	4.21
238.147	4.15
238.524	4.12
238.901	4
239.278	3.98
239.655	3.91
240.032	3.91
240.409	3.79
240.785	3.77
241.162	3.77
241.539	3.78
241.915	3.83
242.292	3.8
242.668	3.79
243.045	3.77
243.421	3.74
243.798	3.74
244.174	3.8
244.551	3.82
244.927	3.85
245.303	3.84
245.679	3.84
246.056	3.81
246.432	3.84
246.808	3.82
247.184	3.82
247.56	3.82
247.936	3.8
248.312	3.81
248.688	3.81
249.064	3.78
249.44	3.78
249.815	3.72
250.191	3.68
250.567	3.69
250.943	3.66
251.318	3.66
251.694	3.67
252.069	3.65
252.445	3.66
252.82	3.65
253.196	3.61
253.571	3.6
253.947	3.59
254.322	3.57
254.697	3.56
255.073	3.53
255.448	3.54
255.823	3.51
256.198	3.47
256.573	3.44
256.948	3.43
257.323	3.4
257.698	3.36
258.073	3.34
258.448	3.33
258.823	3.32
259.198	3.31
259.573	3.26
259.948	3.25
260.322	3.25
260.697	3.22
261.072	3.21
261.446	3.19
261.821	3.17
262.195	3.15
262.57	3.13
262.944	3.13
263.319	3.12
263.693	3.13
264.067	3.11
264.442	3.12
264.816	3.11
265.19	3.12
265.564	3.14
265.938	3.12
266.313	3.12
266.687	3.12
267.061	3.1
267.435	3.1
267.809	3.09
268.183	3.09
268.556	3.08
268.93	3.06
269.304	3.07
269.678	3.1
270.051	3.08
270.425	3.09
270.799	3.08
271.172	3.1
271.546	3.11
271.919	3.12
272.293	3.12
272.666	3.11
273.04	3.13
273.413	3.15
273.787	3.16
274.16	3.16
274.533	3.16
274.906	3.19
275.279	3.21
275.653	3.21
276.026	3.22
276.399	3.23
276.772	3.25
277.145	3.25
277.518	3.25
277.891	3.27
278.263	3.26
278.636	3.29
279.009	3.26
279.382	3.26
279.755	3.28
280.127	3.29
280.5	3.3
280.872	3.32
281.245	3.33
281.617	3.34
281.99	3.35
282.362	3.36
282.735	3.36
283.107	3.38
283.479	3.38
283.852	3.39
284.224	3.42
284.596	3.41
284.968	3.42
285.34	3.43
285.713	3.44
286.085	3.46
286.457	3.46
286.829	3.48
287.201	3.51
287.572	3.51
287.944	3.54
288.316	3.55
288.688	3.55
289.06	3.57
289.431	3.59
289.803	3.63
290.175	3.66
290.546	3.68
290.918	3.7
291.289	3.73
291.661	3.76
292.032	3.79
292.403	3.83
292.775	3.87
293.146	3.89
293.517	3.93
293.889	3.96
294.26	4.01
294.631	4.05
295.002	4.09
295.373	4.14
295.744	4.18
296.115	4.2
296.486	4.25
296.857	4.29
297.228	4.33
297.599	4.39
297.97	4.43
298.34	4.47
298.711	4.51
299.082	4.55
299.452	4.59
299.823	4.65
300.194	4.7
300.564	4.76
300.935	4.81
301.305	4.84
301.676	4.89
302.046	4.94
302.416	4.99
302.787	5.03
303.157	5.07
303.527	5.12
303.897	5.19
304.267	5.26
304.637	5.31
305.008	5.37
305.378	5.42
305.748	5.48
306.117	5.54
306.487	5.61
306.857	5.67
307.227	5.73
307.597	5.79
307.967	5.85
308.336	5.9
308.706	5.95
309.076	5.99
309.445	6.05
309.815	6.11
310.184	6.13
310.554	6.17
310.923	6.22
311.293	6.25
311.662	6.29
312.031	6.34
312.401	6.38
312.77	6.41
313.139	6.46
313.508	6.49
313.877	6.55
314.246	6.59
314.616	6.63
314.985	6.67
315.353	6.72
315.722	6.74
316.091	6.78
316.46	6.83
316.829	6.9
317.198	6.96
317.567	7
317.935	7.06
318.304	7.13
318.672	7.17
319.041	7.24
319.41	7.28
319.778	7.34
320.147	7.38
320.515	7.44
320.883	7.47
321.252	7.5
321.62	7.54
321.988	7.59
322.357	7.62
322.725	7.65
323.093	7.69
323.461	7.72
323.829	7.76
324.197	7.78
324.565	7.78
324.933	7.82
325.301	7.85
325.669	7.89
326.037	7.91
326.405	7.96
326.772	7.99
327.14	8.02
327.508	8.05
327.875	8.08
328.243	8.11
328.61	8.13
328.978	8.13
329.346	8.15
329.713	8.19
330.08	8.21
330.448	8.22
330.815	8.24
331.182	8.26
331.55	8.28
331.917	8.29
332.284	8.29
332.651	8.31
333.018	8.33
333.385	8.35
333.752	8.38
334.119	8.4
334.486	8.43
334.853	8.45
335.22	8.46
335.587	8.48
335.954	8.5
336.32	8.52
336.687	8.54
337.054	8.55
337.42	8.57
337.787	8.61
338.153	8.62
338.52	8.63
338.886	8.64
339.253	8.66
339.619	8.7
339.986	8.72
340.352	8.74
340.718	8.75
341.084	8.76
341.451	8.78
341.817	8.78
342.183	8.79
342.549	8.81
342.915	8.82
343.281	8.83
343.647	8.85
344.013	8.87
344.379	8.88
344.745	8.89
345.11	8.89
345.476	8.91
345.842	8.92
346.208	8.93
346.573	8.93
346.939	8.93
347.304	8.94
347.67	8.94
348.035	8.94
348.401	8.94
348.766	8.94
349.132	8.94
349.497	8.94
349.862	8.94
350.228	8.93
350.593	8.93
350.958	8.92
351.323	8.92
351.688	8.91
352.053	8.92
352.418	8.91
352.783	8.89
353.148	8.87
353.513	8.86
353.878	8.85
354.243	8.84
354.608	8.81
354.972	8.8
355.337	8.77
355.702	8.75
356.066	8.73
356.431	8.71
356.795	8.69
357.16	8.66
357.524	8.63
357.889	8.61
358.253	8.58
358.618	8.55
358.982	8.53
359.346	8.51
359.71	8.48
360.075	8.46
360.439	8.43
360.803	8.4
361.167	8.38
361.531	8.35
361.895	8.32
362.259	8.29
362.623	8.25
362.987	8.23
363.351	8.2
363.714	8.17
364.078	8.13
364.442	8.09
364.806	8.05
365.169	8.02
365.533	7.98
365.896	7.94
366.26	7.9
366.623	7.86
366.987	7.8
367.35	7.75
367.714	7.71
368.077	7.67
368.44	7.61
368.803	7.56
369.167	7.5
369.53	7.45
369.893	7.39
370.256	7.33
370.619	7.27
370.982	7.22
371.345	7.16
371.708	7.11
372.071	7.05
372.434	7
372.797	6.94
373.159	6.89
373.522	6.84
373.885	6.79
374.247	6.73
374.61	6.67
374.973	6.61
375.335	6.55
375.698	6.49
376.06	6.44
376.423	6.39
376.785	6.34
377.147	6.29
377.51	6.24
377.872	6.18
378.234	6.12
378.596	6.07
378.958	6.02
379.321	5.98
379.683	5.94
380.045	5.88
380.407	5.83
380.769	5.78
381.13	5.74
381.492	5.7
381.854	5.66
382.216	5.62
382.578	5.58
382.939	5.54
383.301	5.5
383.663	5.46
384.024	5.42
384.386	5.38
384.747	5.34
385.109	5.3
385.47	5.26
385.832	5.22
386.193	5.18
386.554	5.14
386.916	5.11
387.277	5.08
387.638	5.04
387.999	5.01
388.36	4.98
388.721	4.95
389.082	4.91
389.443	4.88
389.804	4.86
390.165	4.83
390.526	4.8
390.887	4.77
391.248	4.75
391.609	4.72
391.969	4.69
392.33	4.66
392.691	4.64
393.051	4.6
393.412	4.58
393.772	4.55
394.133	4.51
394.493	4.48
394.854	4.45
395.214	4.42
395.574	4.39
395.935	4.36
396.295	4.33
396.655	4.3
397.015	4.28
397.376	4.25
397.736	4.22
398.096	4.19
398.456	4.16
398.816	4.14
399.176	4.11
399.535	4.09
399.895	4.07
400.255	4.04
400.615	4.03
400.975	4
401.334	3.98
401.694	3.96
402.054	3.93
402.413	3.91
402.773	3.89
403.132	3.88
403.492	3.86
403.851	3.84
404.211	3.83
404.57	3.81
404.929	3.79
405.288	3.78
405.648	3.77
406.007	3.75
406.366	3.73
406.725	3.72
407.084	3.71
407.443	3.7
407.802	3.69
408.161	3.68
408.52	3.67
408.879	3.66
409.238	3.65
409.596	3.65
409.955	3.65
410.314	3.64
410.673	3.63
411.031	3.62
411.39	3.61
411.748	3.61
412.107	3.6
412.465	3.6
412.824	3.6
413.182	3.61
413.54	3.62
413.899	3.63
414.257	3.64
414.615	3.67
414.974	3.69
415.332	3.71
415.69	3.73
416.048	3.75
416.406	3.77
416.764	3.79
417.122	3.81
417.48	3.83
417.838	3.84
418.195	3.85
418.553	3.86
418.911	3.87
419.269	3.87
419.626	3.86
419.984	3.85
420.342	3.83
420.699	3.81
421.057	3.79
421.414	3.77
421.772	3.75
422.129	3.74
422.486	3.73
422.844	3.72
423.201	3.71
423.558	3.71
423.915	3.7
424.273	3.69
424.63	3.68
424.987	3.68
425.344	3.67
425.701	3.66
426.058	3.66
426.415	3.65
426.772	3.64
427.128	3.63
427.485	3.62
427.842	3.61
428.199	3.59
428.555	3.57
428.912	3.55
429.269	3.52
429.625	3.5
429.982	3.47
430.338	3.44
430.695	3.42
431.051	3.39
431.407	3.37
431.764	3.35
432.12	3.33
432.476	3.32
432.832	3.31
433.189	3.31
433.545	3.31
433.901	3.31
434.257	3.33
434.613	3.35
434.969	3.37
435.325	3.39
435.681	3.42
436.036	3.44
436.392	3.45
436.748	3.47
437.104	3.48
437.459	3.49
437.815	3.5
438.171	3.52
438.526	3.54
438.882	3.56
439.237	3.59
439.593	3.62
439.948	3.64
440.304	3.67
440.659	3.69
441.014	3.7
441.369	3.72
441.725	3.74
442.08	3.75
442.435	3.76
442.79	3.76
443.145	3.76
443.5	3.76
443.855	3.76
444.21	3.76
444.565	3.75
444.92	3.74
445.275	3.73
445.629	3.72
445.984	3.71
446.339	3.7
446.693	3.68
447.048	3.66
447.403	3.65
447.757	3.63
448.112	3.61
448.466	3.59
448.82	3.56
449.175	3.54
449.529	3.52
449.883	3.5
450.238	3.47
450.592	3.47
450.946	3.45
451.3	3.45
451.654	3.45
452.008	3.45
452.362	3.45
452.716	3.45
453.07	3.45
453.424	3.44
453.778	3.43
454.132	3.43
454.486	3.42
454.839	3.4
455.193	3.39
455.547	3.38
455.9	3.35
456.254	3.34
456.607	3.32
456.961	3.3
457.314	3.28
457.668	3.28
458.021	3.28
458.375	3.27
458.728	3.28
459.081	3.28
459.434	3.28
459.787	3.29
460.141	3.3
460.494	3.31
460.847	3.32
461.2	3.33
461.553	3.34
461.906	3.35
462.259	3.36
462.611	3.36
462.964	3.37
463.317	3.38
463.67	3.39
464.022	3.4
464.375	3.41
464.728	3.42
465.08	3.43
465.433	3.44
465.785	3.44
466.138	3.43
466.49	3.43
466.843	3.42
467.195	3.4
467.547	3.39
467.899	3.38
468.252	3.37
468.604	3.35
468.956	3.34
469.308	3.33
469.66	3.33
470.012	3.33
470.364	3.34
470.716	3.34
471.068	3.35
471.42	3.37
471.772	3.39
472.123	3.41
472.475	3.42
472.827	3.43
473.178	3.43
473.53	3.44
473.882	3.46
474.233	3.47
474.585	3.5
474.936	3.55
475.288	3.62
475.639	3.71
475.99	3.82
476.342	3.94
476.693	4.06
477.044	4.19
477.395	4.33
477.746	4.46
478.097	4.6
478.448	4.74
478.8	4.87
479.15	5
479.501	5.12
479.852	5.22
480.203	5.33
480.554	5.42
480.905	5.52
481.255	5.6
481.606	5.69
481.957	5.77
482.307	5.85
482.658	5.92
483.009	5.99
483.359	6.07
483.709	6.13
484.06	6.2
484.41	6.26
484.761	6.32
485.111	6.38
485.461	6.44
485.811	6.49
486.162	6.54
486.512	6.59
486.862	6.63
487.212	6.65
487.562	6.67
487.912	6.69
488.262	6.69
488.612	6.69
488.961	6.69
489.311	6.65
489.661	6.61
490.011	6.54
490.36	6.46
490.71	6.37
491.06	6.28
491.409	6.17
491.759	6.06
492.108	5.95
492.458	5.83
492.807	5.71
493.157	5.59
493.506	5.48
493.855	5.37
494.204	5.27
494.554	5.17
494.903	5.09
495.252	5.01
495.601	4.93
495.95	4.86
496.299	4.79
496.648	4.73
496.997	4.68
497.346	4.63
497.695	4.59
498.043	4.55
498.392	4.51
498.741	4.48
499.09	4.45
499.438	4.43
499.787	4.41
500.135	4.4
500.484	4.4
500.832	4.41
501.181	4.43
501.529	4.46
501.878	4.51
502.226	4.57
502.574	4.63
502.923	4.69
503.271	4.77
503.619	4.84
503.967	4.92
504.315	5
504.663	5.08
505.011	5.16
505.359	5.25
505.707	5.34
506.055	5.42
506.403	5.52
506.751	5.62
507.098	5.72
507.446	5.83
507.794	5.94
508.141	6.06
508.489	6.18
508.837	6.31
509.184	6.44
509.531	6.57
509.879	6.71
510.226	6.86
510.574	7.03
510.921	7.2
511.268	7.37
511.616	7.54
511.963	7.73
512.31	7.91
512.657	8.1
513.004	8.29
513.351	8.47
513.698	8.64
514.045	8.8
514.392	8.96
514.739	9.11
515.086	9.26
515.432	9.4
515.779	9.54
516.126	9.69
516.473	9.84
516.819	10.01
517.166	10.2
517.512	10.4
517.859	10.61
518.205	10.84
518.552	11.09
518.898	11.36
519.245	11.67
519.591	12.04
519.937	12.46
520.283	12.95
520.629	13.48
520.976	14.04
521.322	14.63
521.668	15.23
522.014	15.84
522.36	16.45
522.706	17.06
523.052	17.65
523.398	18.22
523.743	18.74
524.089	19.22
524.435	19.67
524.781	20.1
525.126	20.54
525.472	20.97
525.817	21.38
526.163	21.79
526.509	22.19
526.854	22.59
527.199	22.99
527.545	23.39
527.89	23.8
528.235	24.21
528.581	24.6
528.926	24.97
529.271	25.32
529.616	25.66
529.961	25.99
530.306	26.31
530.651	26.61
530.996	26.89
531.341	27.15
531.686	27.38
532.031	27.61
532.376	27.86
532.721	28.13
533.065	28.42
533.41	28.74
533.755	29.02
534.099	29.28
534.444	29.52
534.788	29.72
535.133	29.92
535.477	30.09
535.822	30.23
536.166	30.35
536.51	30.42
536.855	30.44
537.199	30.42
537.543	30.41
537.887	30.42
538.231	30.46
538.576	30.5
538.92	30.54
539.264	30.55
539.608	30.56
539.951	30.54
540.295	30.52
540.639	30.49
540.983	30.43
541.327	30.37
541.671	30.28
542.014	30.21
542.358	30.16
542.701	30.17
543.045	30.24
543.389	30.34
543.732	30.45
544.075	30.59
544.419	30.74
544.762	30.9
545.105	31.07
545.449	31.25
545.792	31.44
546.135	31.63
546.478	31.78
546.821	31.89
547.165	31.95
547.508	31.95
547.851	31.92
548.194	31.84
548.536	31.73
548.879	31.59
549.222	31.44
549.565	31.27
549.908	31.11
550.25	30.96
550.593	30.86
550.936	30.83
551.278	30.85
551.621	30.9
551.963	30.96
552.306	31.05
552.648	31.17
552.991	31.31
553.333	31.47
553.675	31.66
554.017	31.88
554.36	32.12
554.702	32.39
555.044	32.7
555.386	33.04
555.728	33.43
556.07	33.78
556.412	34.12
556.754	34.41
557.096	34.63
557.438	34.86
557.78	35.09
558.121	35.31
558.463	35.53
558.805	35.75
559.147	35.97
559.488	36.19
559.83	36.41
560.171	36.64
560.513	36.85
560.854	37.07
561.196	37.29
561.537	37.5
561.878	37.69
562.22	37.88
562.561	38.08
562.902	38.26
563.243	38.45
563.584	38.64
563.925	38.83
564.266	39.01
564.607	39.2
564.948	39.39
565.289	39.57
565.63	39.75
565.971	39.93
566.312	40.11
566.653	40.27
566.993	40.44
567.334	40.6
567.675	40.76
568.015	40.91
568.356	41.06
568.696	41.2
569.037	41.34
569.377	41.48
569.718	41.61
570.058	41.73
570.398	41.85
570.739	41.98
571.079	42.1
571.419	42.21
571.759	42.32
572.099	42.43
572.439	42.55
572.779	42.65
573.119	42.76
573.459	42.87
573.799	42.97
574.139	43.06
574.479	43.17
574.819	43.26
575.158	43.35
575.498	43.44
575.838	43.54
576.177	43.63
576.517	43.72
576.856	43.81
577.196	43.9
577.535	43.99
577.875	44.08
578.214	44.17
578.553	44.26
578.893	44.34
579.232	44.42
579.571	44.49
579.91	44.57
580.25	44.64
580.589	44.74
580.928	44.81
581.267	44.89
581.606	44.97
581.945	45.06
582.283	45.14
582.622	45.22
582.961	45.3
583.3	45.38
583.639	45.46
583.977	45.55
584.316	45.64
584.654	45.71
584.993	45.8
585.332	45.88
585.67	45.95
586.008	46.04
586.347	46.12
586.685	46.2
587.024	46.27
587.362	46.34
587.7	46.41
588.038	46.49
588.376	46.57
588.715	46.64
589.053	46.72
589.391	46.82
589.729	46.9
590.067	46.99
590.404	47.07
590.742	47.14
591.08	47.21
591.418	47.28
591.756	47.34
592.093	47.41
592.431	47.47
592.769	47.53
593.106	47.59
593.444	47.65
593.781	47.7
594.119	47.76
594.456	47.8
594.793	47.85
595.131	47.91
595.468	47.96
595.805	48
596.143	48.05
596.48	48.13
596.817	48.2
597.154	48.26
597.491	48.33
597.828	48.39
598.165	48.45
598.502	48.51
598.839	48.57
599.176	48.62
599.512	48.68
599.849	48.72
600.186	48.77
600.523	48.82
600.859	48.86
601.196	48.91
601.532	48.96
601.869	49
602.205	49.04
602.542	49.09
602.878	49.13
603.215	49.16
603.551	49.19
603.887	49.23
604.223	49.26
604.56	49.3
604.896	49.34
605.232	49.36
605.568	49.38
605.904	49.41
606.24	49.43
606.576	49.46
606.912	49.48
607.248	49.52
607.583	49.55
607.919	49.58
608.255	49.6
608.591	49.64
608.926	49.66
609.262	49.69
609.597	49.72
609.933	49.74
610.268	49.76
610.604	49.78
610.939	49.78
611.275	49.8
611.61	49.81
611.945	49.83
612.281	49.85
612.616	49.85
612.951	49.87
613.286	49.88
613.621	49.91
613.956	49.93
614.291	49.94
614.626	49.96
614.961	49.98
615.296	49.99
615.631	50.02
615.966	50.04
616.3	50.05
616.635	50.06
616.97	50.07
617.304	50.09
617.639	50.11
617.973	50.12
618.308	50.14
618.642	50.17
618.977	50.19
619.311	50.22
619.646	50.24
619.98	50.28
620.314	50.3
620.648	50.33
620.983	50.36
621.317	50.39
621.651	50.41
621.985	50.43
622.319	50.45
622.653	50.49
622.987	50.51
623.321	50.53
623.655	50.56
623.988	50.56
624.322	50.58
624.656	50.62
624.99	50.63
625.323	50.65
625.657	50.66
625.99	50.68
626.324	50.71
626.657	50.72
626.991	50.74
627.324	50.75
627.658	50.76
627.991	50.78
628.324	50.79
628.657	50.83
628.991	50.85
629.324	50.87
629.657	50.88
629.99	50.9
630.323	50.91
630.656	50.94
630.989	50.96
631.322	50.97
631.655	50.99
631.987	51.01
632.32	51.01
632.653	51.03
632.986	51.05
633.318	51.06
633.651	51.06
633.984	51.07
634.316	51.09
634.649	51.1
634.981	51.1
635.313	51.11
635.646	51.13
635.978	51.14
636.31	51.15
636.643	51.16
636.975	51.17
637.307	51.18
637.639	51.19
637.971	51.21
638.303	51.23
638.635	51.23
638.967	51.23
639.299	51.24
639.631	51.25
639.963	51.28
640.295	51.29
640.626	51.31
640.958	51.32
641.29	51.35
641.621	51.37
641.953	51.38
642.285	51.38
642.616	51.38
642.948	51.41
643.279	51.42
643.61	51.45
643.942	51.47
644.273	51.47
644.604	51.49
644.936	51.5
645.267	51.51
645.598	51.53
645.929	51.55
646.26	51.57
646.591	51.56
646.922	51.59
647.253	51.61
647.584	51.62
647.915	51.64
648.245	51.65
648.576	51.67
648.907	51.69
649.238	51.71
649.568	51.7
649.899	51.71
650.229	51.73
650.56	51.75
650.89	51.76
651.221	51.78
651.551	51.8
651.882	51.81
652.212	51.83
652.542	51.87
652.872	51.88
653.203	51.89
653.533	51.9
653.863	51.92
654.193	51.91
654.523	51.93
654.853	51.94
655.183	51.96
655.513	51.98
655.843	52
656.172	52.03
656.502	52.03
656.832	52.04
657.162	52.06
657.491	52.08
657.821	52.09
658.15	52.09
658.48	52.11
658.809	52.13
659.139	52.15
659.468	52.17
659.798	52.18
660.127	52.2
660.456	52.2
660.785	52.2
661.115	52.21
661.444	52.22
661.773	52.22
662.102	52.22
662.431	52.23
662.76	52.24
663.089	52.26
663.418	52.27
663.747	52.27
664.076	52.29
664.404	52.31
664.733	52.33
665.062	52.36
665.39	52.36
665.719	52.37
666.048	52.38
666.376	52.39
666.705	52.41
667.033	52.42
667.362	52.43
667.69	52.46
668.018	52.47
668.347	52.47
668.675	52.48
669.003	52.48
669.331	52.48
669.659	52.47
669.987	52.47
670.315	52.5
670.643	52.5
670.971	52.49
671.299	52.5
