Data from UWBM91361_Reflection_00014.txt Node
Date: Sun May 02 12:22:43 EDT 2021
User: vgr7
Spectrometer: USB2G7710
Scans to average: 10
Trigger mode: 4
Integration Time (sec): 1.000000E-1
Electric dark correction enabled: true
Boxcar width: 10
XAxis mode: Wavelengths
Number of Pixels in Spectrum: 2048
>>>>>Begin Spectral Data<<<<<
177.721	-228.77
178.105	223.53
178.488	41.55
178.871	-1.98
179.254	-251.72
179.636	-161.04
180.019	-2.72
180.402	-16.67
180.785	64.26
181.168	7.45
181.55	39.45
181.933	5.79
182.316	64.5
182.698	183.48
183.081	332.94
183.463	183.48
183.846	89.83
184.228	69.88
184.611	20.4
184.993	27.69
185.376	15.96
185.758	-4.86
186.14	-1.62
186.522	3.18
186.904	5.55
187.287	11.41
187.669	13.87
188.051	10.91
188.433	14.57
188.815	18.2
189.197	22.19
189.579	18.54
189.961	18.62
190.342	16.17
190.724	15.95
191.106	15.92
191.488	25.03
191.869	22.03
192.251	26.79
192.633	24.29
193.014	15.7
193.396	14.35
193.777	17.15
194.159	14.75
194.54	10.9
194.922	9.1
195.303	11.27
195.684	12.84
196.065	11.1
196.447	9.24
196.828	6.92
197.209	5.62
197.59	6.85
197.971	4.52
198.352	3.22
198.733	3.37
199.114	1.29
199.495	-1.48
199.876	0.47
200.257	-1.45
200.638	-0.8
201.018	4.87
201.399	3.92
201.78	4.2
202.16	4.55
202.541	8.82
202.922	8.77
203.302	4.94
203.683	-1.1
204.063	-1.52
204.444	-0.39
204.824	0.84
205.204	1.79
205.585	-0.37
205.965	-0.75
206.345	0.62
206.725	-5.01
207.106	-7.32
207.486	-9.81
207.866	-10.43
208.246	-12.76
208.626	-9.29
209.006	-9.38
209.386	-9.85
209.766	-10.55
210.145	-12.94
210.525	-15.66
210.905	-13.94
211.285	-11.87
211.664	-12.24
212.044	-8.81
212.424	-9.55
212.803	-11.93
213.183	-8.76
213.562	-7.89
213.942	-8.59
214.321	-13.58
214.701	-12.93
215.08	-7.44
215.459	-5.58
215.838	-4.73
216.218	-2.87
216.597	1.3
216.976	2.96
217.355	4.43
217.734	6.03
218.113	10.51
218.492	9.38
218.871	10.83
219.25	10.6
219.629	9.65
220.008	8.02
220.387	8.17
220.766	5.36
221.144	2.13
221.523	3.82
221.902	7.99
222.28	11.61
222.659	11.73
223.037	11.18
223.416	10.87
223.794	11.96
224.173	12.44
224.551	10.23
224.929	6.45
225.308	8.55
225.686	8.38
226.064	5.76
226.442	5.45
226.821	4.11
227.199	3.22
227.577	3.32
227.955	3.18
228.333	3.13
228.711	3.69
229.089	4.41
229.467	4.03
229.845	4.28
230.222	4.17
230.6	4.65
230.978	5.24
231.356	4.44
231.733	4.31
232.111	4.08
232.488	3.27
232.866	3.67
233.243	2.9
233.621	3.03
233.998	3.24
234.376	4.82
234.753	5.49
235.13	5.76
235.508	5.99
235.885	6.02
236.262	6.01
236.639	6.64
237.016	6.4
237.393	6.4
237.77	6.23
238.147	5.81
238.524	5.67
238.901	5.49
239.278	5.41
239.655	5.44
240.032	5.28
240.409	5.38
240.785	5.24
241.162	5.27
241.539	5.18
241.915	5.24
242.292	5
242.668	4.89
243.045	4.89
243.421	4.88
243.798	4.9
244.174	4.83
244.551	4.66
244.927	4.6
245.303	4.58
245.679	4.61
246.056	4.6
246.432	4.62
246.808	4.56
247.184	4.62
247.56	4.54
247.936	4.59
248.312	4.62
248.688	4.71
249.064	4.7
249.44	4.74
249.815	4.78
250.191	4.72
250.567	4.67
250.943	4.67
251.318	4.7
251.694	4.61
252.069	4.52
252.445	4.54
252.82	4.52
253.196	4.57
253.571	4.46
253.947	4.53
254.322	4.45
254.697	4.47
255.073	4.44
255.448	4.49
255.823	4.5
256.198	4.39
256.573	4.37
256.948	4.28
257.323	4.26
257.698	4.18
258.073	4.21
258.448	4.24
258.823	4.23
259.198	4.21
259.573	4.23
259.948	4.29
260.322	4.29
260.697	4.29
261.072	4.27
261.446	4.24
261.821	4.25
262.195	4.25
262.57	4.2
262.944	4.18
263.319	4.15
263.693	4.19
264.067	4.21
264.442	4.18
264.816	4.22
265.19	4.22
265.564	4.26
265.938	4.24
266.313	4.24
266.687	4.18
267.061	4.19
267.435	4.19
267.809	4.16
268.183	4.17
268.556	4.17
268.93	4.19
269.304	4.17
269.678	4.09
270.051	4.09
270.425	4.14
270.799	4.18
271.172	4.15
271.546	4.1
271.919	4.08
272.293	4.05
272.666	4.02
273.04	4.01
273.413	3.91
273.787	3.89
274.16	3.85
274.533	3.87
274.906	3.84
275.279	3.87
275.653	3.87
276.026	3.82
276.399	3.8
276.772	3.8
277.145	3.85
277.518	3.88
277.891	3.91
278.263	3.93
278.636	3.92
279.009	3.93
279.382	3.92
279.755	3.9
280.127	3.98
280.5	4.01
280.872	3.99
281.245	4.05
281.617	4.09
281.99	4.14
282.362	4.18
282.735	4.13
283.107	4.11
283.479	4.13
283.852	4.18
284.224	4.21
284.596	4.18
284.968	4.17
285.34	4.18
285.713	4.22
286.085	4.14
286.457	4.11
286.829	4.1
287.201	4.12
287.572	4.2
287.944	4.23
288.316	4.25
288.688	4.31
289.06	4.33
289.431	4.31
289.803	4.32
290.175	4.32
290.546	4.37
290.918	4.43
291.289	4.44
291.661	4.5
292.032	4.52
292.403	4.59
292.775	4.62
293.146	4.65
293.517	4.66
293.889	4.77
294.26	4.81
294.631	4.86
295.002	4.9
295.373	4.91
295.744	4.87
296.115	4.91
296.486	4.92
296.857	4.96
297.228	5.01
297.599	5.04
297.97	5.06
298.34	5.12
298.711	5.14
299.082	5.18
299.452	5.16
299.823	5.2
300.194	5.23
300.564	5.25
300.935	5.3
301.305	5.34
301.676	5.34
302.046	5.38
302.416	5.42
302.787	5.46
303.157	5.53
303.527	5.66
303.897	5.71
304.267	5.76
304.637	5.83
305.008	5.9
305.378	6.01
305.748	6.11
306.117	6.17
306.487	6.25
306.857	6.35
307.227	6.46
307.597	6.53
307.967	6.6
308.336	6.72
308.706	6.81
309.076	6.88
309.445	6.97
309.815	7.07
310.184	7.15
310.554	7.24
310.923	7.27
311.293	7.32
311.662	7.4
312.031	7.48
312.401	7.57
312.77	7.65
313.139	7.7
313.508	7.75
313.877	7.84
314.246	7.9
314.616	7.98
314.985	8
315.353	8.04
315.722	8.12
316.091	8.16
316.46	8.26
316.829	8.34
317.198	8.39
317.567	8.46
317.935	8.56
318.304	8.57
318.672	8.69
319.041	8.76
319.41	8.79
319.778	8.87
320.147	8.92
320.515	8.95
320.883	9.03
321.252	9.08
321.62	9.14
321.988	9.23
322.357	9.27
322.725	9.34
323.093	9.46
323.461	9.55
323.829	9.61
324.197	9.63
324.565	9.68
324.933	9.76
325.301	9.81
325.669	9.87
326.037	9.94
326.405	9.97
326.772	10
327.14	10.04
327.508	10.08
327.875	10.13
328.243	10.18
328.61	10.22
328.978	10.3
329.346	10.35
329.713	10.4
330.08	10.46
330.448	10.52
330.815	10.55
331.182	10.55
331.55	10.6
331.917	10.67
332.284	10.68
332.651	10.73
333.018	10.75
333.385	10.77
333.752	10.85
334.119	10.86
334.486	10.93
334.853	10.98
335.22	11
335.587	11.04
335.954	11.08
336.32	11.09
336.687	11.1
337.054	11.12
337.42	11.13
337.787	11.15
338.153	11.21
338.52	11.23
338.886	11.29
339.253	11.34
339.619	11.34
339.986	11.42
340.352	11.46
340.718	11.51
341.084	11.53
341.451	11.51
341.817	11.53
342.183	11.56
342.549	11.59
342.915	11.61
343.281	11.62
343.647	11.67
344.013	11.71
344.379	11.74
344.745	11.74
345.11	11.76
345.476	11.77
345.842	11.8
346.208	11.81
346.573	11.82
346.939	11.82
347.304	11.83
347.67	11.83
348.035	11.85
348.401	11.83
348.766	11.87
349.132	11.92
349.497	11.95
349.862	11.93
350.228	11.93
350.593	11.94
350.958	11.95
351.323	11.92
351.688	11.93
352.053	11.9
352.418	11.93
352.783	11.92
353.148	11.91
353.513	11.87
353.878	11.9
354.243	11.88
354.608	11.88
354.972	11.87
355.337	11.83
355.702	11.78
356.066	11.78
356.431	11.75
356.795	11.72
357.16	11.66
357.524	11.59
357.889	11.56
358.253	11.52
358.618	11.49
358.982	11.46
359.346	11.42
359.71	11.4
360.075	11.36
360.439	11.32
360.803	11.27
361.167	11.23
361.531	11.18
361.895	11.12
362.259	11.08
362.623	11.06
362.987	11.03
363.351	10.98
363.714	10.95
364.078	10.89
364.442	10.83
364.806	10.8
365.169	10.78
365.533	10.71
365.896	10.67
366.26	10.62
366.623	10.56
366.987	10.49
367.35	10.41
367.714	10.34
368.077	10.27
368.44	10.21
368.803	10.15
369.167	10.08
369.53	10.04
369.893	9.96
370.256	9.88
370.619	9.8
370.982	9.76
371.345	9.66
371.708	9.59
372.071	9.52
372.434	9.45
372.797	9.36
373.159	9.33
373.522	9.24
373.885	9.17
374.247	9.11
374.61	9.03
374.973	8.95
375.335	8.88
375.698	8.83
376.06	8.76
376.423	8.68
376.785	8.61
377.147	8.53
377.51	8.48
377.872	8.39
378.234	8.33
378.596	8.25
378.958	8.19
379.321	8.15
379.683	8.07
380.045	8.02
380.407	7.95
380.769	7.88
381.13	7.81
381.492	7.74
381.854	7.67
382.216	7.63
382.578	7.58
382.939	7.53
383.301	7.46
383.663	7.41
384.024	7.35
384.386	7.31
384.747	7.27
385.109	7.22
385.47	7.18
385.832	7.13
386.193	7.1
386.554	7.04
386.916	6.98
387.277	6.94
387.638	6.9
387.999	6.87
388.36	6.82
388.721	6.78
389.082	6.74
389.443	6.69
389.804	6.64
390.165	6.59
390.526	6.54
390.887	6.5
391.248	6.46
391.609	6.43
391.969	6.38
392.33	6.34
392.691	6.29
393.051	6.26
393.412	6.21
393.772	6.17
394.133	6.15
394.493	6.12
394.854	6.07
395.214	6.03
395.574	5.99
395.935	5.94
396.295	5.88
396.655	5.85
397.015	5.8
397.376	5.76
397.736	5.72
398.096	5.68
398.456	5.63
398.816	5.59
399.176	5.53
399.535	5.5
399.895	5.46
400.255	5.42
400.615	5.38
400.975	5.36
401.334	5.32
401.694	5.27
402.054	5.23
402.413	5.21
402.773	5.18
403.132	5.16
403.492	5.13
403.851	5.12
404.211	5.1
404.57	5.08
404.929	5.06
405.288	5.04
405.648	5.02
406.007	5.01
406.366	5
406.725	4.98
407.084	4.96
407.443	4.95
407.802	4.92
408.161	4.91
408.52	4.89
408.879	4.88
409.238	4.86
409.596	4.85
409.955	4.82
410.314	4.81
410.673	4.78
411.031	4.78
411.39	4.77
411.748	4.76
412.107	4.73
412.465	4.72
412.824	4.71
413.182	4.69
413.54	4.68
413.899	4.66
414.257	4.65
414.615	4.64
414.974	4.64
415.332	4.63
415.69	4.61
416.048	4.61
416.406	4.6
416.764	4.59
417.122	4.58
417.48	4.57
417.838	4.57
418.195	4.56
418.553	4.56
418.911	4.56
419.269	4.55
419.626	4.54
419.984	4.54
420.342	4.53
420.699	4.53
421.057	4.52
421.414	4.52
421.772	4.51
422.129	4.5
422.486	4.49
422.844	4.47
423.201	4.47
423.558	4.46
423.915	4.45
424.273	4.44
424.63	4.42
424.987	4.41
425.344	4.4
425.701	4.38
426.058	4.37
426.415	4.35
426.772	4.33
427.128	4.32
427.485	4.29
427.842	4.28
428.199	4.27
428.555	4.26
428.912	4.24
429.269	4.24
429.625	4.23
429.982	4.21
430.338	4.21
430.695	4.2
431.051	4.19
431.407	4.18
431.764	4.18
432.12	4.17
432.476	4.17
432.832	4.16
433.189	4.16
433.545	4.15
433.901	4.15
434.257	4.16
434.613	4.16
434.969	4.16
435.325	4.17
435.681	4.16
436.036	4.16
436.392	4.17
436.748	4.17
437.104	4.17
437.459	4.17
437.815	4.18
438.171	4.18
438.526	4.18
438.882	4.19
439.237	4.19
439.593	4.2
439.948	4.21
440.304	4.2
440.659	4.21
441.014	4.21
441.369	4.21
441.725	4.21
442.08	4.22
442.435	4.22
442.79	4.22
443.145	4.21
443.5	4.21
443.855	4.21
444.21	4.21
444.565	4.21
444.92	4.2
445.275	4.2
445.629	4.19
445.984	4.19
446.339	4.18
446.693	4.18
447.048	4.17
447.403	4.16
447.757	4.16
448.112	4.15
448.466	4.15
448.82	4.14
449.175	4.14
449.529	4.12
449.883	4.11
450.238	4.1
450.592	4.09
450.946	4.08
451.3	4.07
451.654	4.06
452.008	4.05
452.362	4.03
452.716	4.02
453.07	4.02
453.424	4.01
453.778	4.01
454.132	4
454.486	4
454.839	4
455.193	4
455.547	4.01
455.9	4
456.254	4
456.607	4
456.961	4.01
457.314	4.02
457.668	4.02
458.021	4.03
458.375	4.03
458.728	4.03
459.081	4.03
459.434	4.03
459.787	4.03
460.141	4.03
460.494	4.03
460.847	4.03
461.2	4.03
461.553	4.04
461.906	4.04
462.259	4.04
462.611	4.04
462.964	4.04
463.317	4.05
463.67	4.05
464.022	4.05
464.375	4.05
464.728	4.05
465.08	4.05
465.433	4.05
465.785	4.06
466.138	4.06
466.49	4.06
466.843	4.07
467.195	4.08
467.547	4.1
467.899	4.1
468.252	4.11
468.604	4.12
468.956	4.12
469.308	4.12
469.66	4.12
470.012	4.13
470.364	4.14
470.716	4.14
471.068	4.16
471.42	4.16
471.772	4.16
472.123	4.18
472.475	4.19
472.827	4.2
473.178	4.21
473.53	4.21
473.882	4.22
474.233	4.23
474.585	4.23
474.936	4.23
475.288	4.24
475.639	4.24
475.99	4.25
476.342	4.25
476.693	4.25
477.044	4.25
477.395	4.25
477.746	4.25
478.097	4.26
478.448	4.28
478.8	4.35
479.15	4.46
479.501	4.59
479.852	4.74
480.203	4.9
480.554	5.06
480.905	5.24
481.255	5.41
481.606	5.58
481.957	5.75
482.307	5.9
482.658	6.04
483.009	6.17
483.359	6.27
483.709	6.37
484.06	6.46
484.41	6.55
484.761	6.63
485.111	6.71
485.461	6.78
485.811	6.85
486.162	6.88
486.512	6.87
486.862	6.84
487.212	6.78
487.562	6.7
487.912	6.61
488.262	6.5
488.612	6.38
488.961	6.26
489.311	6.12
489.661	5.99
490.011	5.85
490.36	5.71
490.71	5.57
491.06	5.42
491.409	5.28
491.759	5.16
492.108	5.06
492.458	4.97
492.807	4.89
493.157	4.82
493.506	4.74
493.855	4.68
494.204	4.62
494.554	4.56
494.903	4.51
495.252	4.47
495.601	4.43
495.95	4.39
496.299	4.36
496.648	4.33
496.997	4.31
497.346	4.31
497.695	4.33
498.043	4.37
498.392	4.43
498.741	4.5
499.09	4.55
499.438	4.59
499.787	4.62
500.135	4.65
500.484	4.68
500.832	4.72
501.181	4.75
501.529	4.79
501.878	4.81
502.226	4.84
502.574	4.89
502.923	4.93
503.271	4.96
503.619	5.01
503.967	5.05
504.315	5.11
504.663	5.16
505.011	5.21
505.359	5.27
505.707	5.32
506.055	5.38
506.403	5.44
506.751	5.51
507.098	5.57
507.446	5.63
507.794	5.69
508.141	5.76
508.489	5.82
508.837	5.89
509.184	5.96
509.531	6.02
509.879	6.08
510.226	6.15
510.574	6.22
510.921	6.28
511.268	6.35
511.616	6.41
511.963	6.48
512.31	6.56
512.657	6.63
513.004	6.71
513.351	6.79
513.698	6.88
514.045	6.97
514.392	7.06
514.739	7.16
515.086	7.26
515.432	7.36
515.779	7.45
516.126	7.54
516.473	7.63
516.819	7.72
517.166	7.81
517.512	7.9
517.859	7.98
518.205	8.06
518.552	8.14
518.898	8.23
519.245	8.3
519.591	8.38
519.937	8.45
520.283	8.53
520.629	8.62
520.976	8.71
521.322	8.81
521.668	8.9
522.014	9
522.36	9.1
522.706	9.22
523.052	9.37
523.398	9.58
523.743	9.86
524.089	10.17
524.435	10.52
524.781	10.86
525.126	11.22
525.472	11.57
525.817	11.91
526.163	12.24
526.509	12.54
526.854	12.81
527.199	13.04
527.545	13.21
527.89	13.36
528.235	13.5
528.581	13.63
528.926	13.76
529.271	13.9
529.616	14.03
529.961	14.16
530.306	14.27
530.651	14.34
530.996	14.34
531.341	14.3
531.686	14.23
532.031	14.12
532.376	13.96
532.721	13.78
533.065	13.59
533.41	13.44
533.755	13.29
534.099	13.2
534.444	13.17
534.788	13.18
535.133	13.22
535.477	13.27
535.822	13.33
536.166	13.42
536.51	13.54
536.855	13.66
537.199	13.82
537.543	14
537.887	14.2
538.231	14.43
538.576	14.67
538.92	14.92
539.264	15.2
539.608	15.48
539.951	15.76
540.295	16.02
540.639	16.21
540.983	16.39
541.327	16.55
541.671	16.68
542.014	16.85
542.358	17.02
542.701	17.19
543.045	17.35
543.389	17.5
543.732	17.64
544.075	17.8
544.419	17.95
544.762	18.08
545.105	18.19
545.449	18.3
545.792	18.39
546.135	18.48
546.478	18.58
546.821	18.72
547.165	18.91
547.508	19.13
547.851	19.39
548.194	19.69
548.536	20.01
548.879	20.3
549.222	20.53
549.565	20.77
549.908	21.01
550.25	21.26
550.593	21.52
550.936	21.78
551.278	22.04
551.621	22.29
551.963	22.56
552.306	22.82
552.648	23.09
552.991	23.34
553.333	23.61
553.675	23.89
554.017	24.15
554.36	24.42
554.702	24.68
555.044	24.95
555.386	25.24
555.728	25.52
556.07	25.79
556.412	26.07
556.754	26.36
557.096	26.65
557.438	26.94
557.78	27.25
558.121	27.54
558.463	27.84
558.805	28.16
559.147	28.47
559.488	28.75
559.83	29.04
560.171	29.35
560.513	29.66
560.854	29.96
561.196	30.27
561.537	30.58
561.878	30.91
562.22	31.22
562.561	31.53
562.902	31.82
563.243	32.13
563.584	32.45
563.925	32.76
564.266	33.06
564.607	33.36
564.948	33.64
565.289	33.94
565.63	34.22
565.971	34.49
566.312	34.77
566.653	35.07
566.993	35.34
567.334	35.64
567.675	35.93
568.015	36.21
568.356	36.5
568.696	36.79
569.037	37.06
569.377	37.34
569.718	37.62
570.058	37.88
570.398	38.16
570.739	38.4
571.079	38.64
571.419	38.89
571.759	39.13
572.099	39.34
572.439	39.56
572.779	39.78
573.119	40
573.459	40.2
573.799	40.4
574.139	40.58
574.479	40.76
574.819	40.92
575.158	41.09
575.498	41.26
575.838	41.42
576.177	41.57
576.517	41.73
576.856	41.88
577.196	42.04
577.535	42.2
577.875	42.36
578.214	42.5
578.553	42.65
578.893	42.79
579.232	42.96
579.571	43.12
579.91	43.27
580.25	43.43
580.589	43.57
580.928	43.73
581.267	43.9
581.606	44.07
581.945	44.23
582.283	44.39
582.622	44.56
582.961	44.71
583.3	44.88
583.639	45.05
583.977	45.21
584.316	45.39
584.654	45.56
584.993	45.74
585.332	45.93
585.67	46.11
586.008	46.3
586.347	46.49
586.685	46.67
587.024	46.84
587.362	47.02
587.7	47.2
588.038	47.36
588.376	47.51
588.715	47.66
589.053	47.81
589.391	47.98
589.729	48.14
590.067	48.27
590.404	48.42
590.742	48.57
591.08	48.7
591.418	48.85
591.756	48.97
592.093	49.13
592.431	49.28
592.769	49.4
593.106	49.54
593.444	49.65
593.781	49.77
594.119	49.91
594.456	50
594.793	50.11
595.131	50.22
595.468	50.32
595.805	50.41
596.143	50.48
596.48	50.56
596.817	50.6
597.154	50.7
597.491	50.76
597.828	50.84
598.165	50.92
598.502	50.99
598.839	51.08
599.176	51.16
599.512	51.23
599.849	51.34
600.186	51.44
600.523	51.55
600.859	51.64
601.196	51.72
601.532	51.82
601.869	51.91
602.205	51.97
602.542	52.07
602.878	52.18
603.215	52.27
603.551	52.33
603.887	52.45
604.223	52.52
604.56	52.59
604.896	52.65
605.232	52.75
605.568	52.82
605.904	52.88
606.24	52.95
606.576	53
606.912	53.03
607.248	53.05
607.583	53.07
607.919	53.13
608.255	53.17
608.591	53.23
608.926	53.27
609.262	53.3
609.597	53.32
609.933	53.35
610.268	53.38
610.604	53.42
610.939	53.42
611.275	53.42
611.61	53.44
611.945	53.46
612.281	53.48
612.616	53.48
612.951	53.48
613.286	53.46
613.621	53.48
613.956	53.51
614.291	53.56
614.626	53.58
614.961	53.57
615.296	53.58
615.631	53.59
615.966	53.58
616.3	53.64
616.635	53.67
616.97	53.69
617.304	53.72
617.639	53.73
617.973	53.8
618.308	53.82
618.642	53.86
618.977	53.9
619.311	53.91
619.646	53.95
619.98	54
620.314	54.06
620.648	54.14
620.983	54.15
621.317	54.19
621.651	54.24
621.985	54.3
622.319	54.36
622.653	54.4
622.987	54.47
623.321	54.54
623.655	54.62
623.988	54.68
624.322	54.74
624.656	54.79
624.99	54.83
625.323	54.92
625.657	54.97
625.99	55.03
626.324	55.1
626.657	55.15
626.991	55.16
627.324	55.2
627.658	55.2
627.991	55.24
628.324	55.25
628.657	55.25
628.991	55.28
629.324	55.32
629.657	55.35
629.99	55.37
630.323	55.38
630.656	55.38
630.989	55.4
631.322	55.42
631.655	55.47
631.987	55.47
632.32	55.46
632.653	55.48
632.986	55.47
633.318	55.45
633.651	55.47
633.984	55.51
634.316	55.54
634.649	55.53
634.981	55.54
635.313	55.58
635.646	55.62
635.978	55.62
636.31	55.62
636.643	55.63
636.975	55.63
637.307	55.62
637.639	55.62
637.971	55.59
638.303	55.57
638.635	55.54
638.967	55.56
639.299	55.52
639.631	55.52
639.963	55.55
640.295	55.59
640.626	55.57
640.958	55.59
641.29	55.57
641.621	55.67
641.953	55.69
642.285	55.72
642.616	55.73
642.948	55.74
643.279	55.76
643.61	55.76
643.942	55.83
644.273	55.87
644.604	55.93
644.936	56.03
645.267	56.08
645.598	56.11
645.929	56.15
646.26	56.23
646.591	56.27
646.922	56.31
647.253	56.34
647.584	56.37
647.915	56.43
648.245	56.49
648.576	56.48
648.907	56.55
649.238	56.56
649.568	56.6
649.899	56.66
650.229	56.69
650.56	56.72
650.89	56.71
651.221	56.75
651.551	56.78
651.882	56.75
652.212	56.76
652.542	56.79
652.872	56.79
653.203	56.83
653.533	56.85
653.863	56.86
654.193	56.86
654.523	56.89
654.853	56.9
655.183	56.92
655.513	56.99
655.843	57
656.172	57.06
656.502	57.09
656.832	57.12
657.162	57.17
657.491	57.23
657.821	57.27
658.15	57.25
658.48	57.26
658.809	57.28
659.139	57.3
659.468	57.3
659.798	57.29
660.127	57.31
660.456	57.37
660.785	57.38
661.115	57.43
661.444	57.44
661.773	57.46
662.102	57.42
662.431	57.39
662.76	57.4
663.089	57.37
663.418	57.38
663.747	57.37
664.076	57.33
664.404	57.26
664.733	57.25
665.062	57.28
665.39	57.25
665.719	57.28
666.048	57.32
666.376	57.34
666.705	57.4
667.033	57.37
667.362	57.37
667.69	57.36
668.018	57.33
668.347	57.37
