Data from UWBM55942_Reflection_00014.txt Node
Date: Sun May 02 14:12:13 EDT 2021
User: vgr7
Spectrometer: USB2G7710
Scans to average: 10
Trigger mode: 4
Integration Time (sec): 1.000000E-1
Electric dark correction enabled: true
Boxcar width: 20
XAxis mode: Wavelengths
Number of Pixels in Spectrum: 2048
>>>>>Begin Spectral Data<<<<<
177.721	-1230
178.105	-136.68
178.488	-506.02
178.871	-882.35
179.254	231.38
179.636	123.2
180.019	49.33
180.402	35.38
180.785	38.72
181.168	37.18
181.55	30.44
181.933	35.96
182.316	27.31
182.698	24.56
183.081	21.99
183.463	14.72
183.846	5.6
184.228	7.59
184.611	7.21
184.993	7.9
185.376	7.94
185.758	13.21
186.14	13.46
186.522	10.93
186.904	10.4
187.287	9.44
187.669	9.49
188.051	7.24
188.433	6.6
188.815	4
189.197	3.29
189.579	5.49
189.961	4.63
190.342	4.65
190.724	5.14
191.106	6.03
191.488	6.74
191.869	4.33
192.251	1.92
192.633	1.3
193.014	1.14
193.396	-1.78
193.777	-1.2
194.159	-0.82
194.54	-2.18
194.922	-1.58
195.303	-0.96
195.684	-0.46
196.065	-0.2
196.447	-1.38
196.828	-1.81
197.209	-2.47
197.59	-6.25
197.971	-6.02
198.352	-5.51
198.733	-4.6
199.114	-3.76
199.495	-1.83
199.876	-2.66
200.257	-2.26
200.638	-4.01
201.018	-3.54
201.399	-3.49
201.78	-4.69
202.16	-2.46
202.541	-4.15
202.922	-3.46
203.302	-2.22
203.683	-0.99
204.063	-0.58
204.444	-0.65
204.824	-1.25
205.204	-3.77
205.585	-3.33
205.965	-1.44
206.345	-2.03
206.725	-2.99
207.106	-2.83
207.486	-1.71
207.866	0.05
208.246	-0.81
208.626	-1.76
209.006	-0.52
209.386	-0.31
209.766	-1.77
210.145	-0.02
210.525	-0.24
210.905	0.26
211.285	-2.05
211.664	-2.31
212.044	-2.81
212.424	-5.02
212.803	-4.42
213.183	-1.99
213.562	-1.37
213.942	-0.97
214.321	-1.78
214.701	-2.11
215.08	-0.7
215.459	-0.61
215.838	-1.32
216.218	-0.02
216.597	-0.74
216.976	-0.15
217.355	0.74
217.734	0.35
218.113	1.56
218.492	0.41
218.871	-1.36
219.25	-1.09
219.629	-1.62
220.008	-1.47
220.387	-3.14
220.766	-0.67
221.144	-0.91
221.523	-2.13
221.902	-1.57
222.28	-0.52
222.659	-0.27
223.037	-1
223.416	-0.79
223.794	-0.34
224.173	0.3
224.551	0.19
224.929	0.66
225.308	1.22
225.686	1.11
226.064	1.24
226.442	1.15
226.821	2.57
227.199	2.94
227.577	3.56
227.955	4.23
228.333	4.34
228.711	3.69
229.089	3.21
229.467	3.34
229.845	3.44
230.222	3.84
230.6	3.6
230.978	3.79
231.356	4
231.733	4.07
232.111	4.2
232.488	4.05
232.866	3.86
233.243	3.67
233.621	3.75
233.998	3.94
234.376	4.12
234.753	3.95
235.13	4.08
235.508	4.21
235.885	4.36
236.262	4.23
236.639	4.19
237.016	4.23
237.393	4.3
237.77	4.27
238.147	4.32
238.524	4.36
238.901	4.3
239.278	4.32
239.655	4.38
240.032	4.32
240.409	4.32
240.785	4.36
241.162	4.36
241.539	4.38
241.915	4.47
242.292	4.45
242.668	4.47
243.045	4.4
243.421	4.4
243.798	4.42
244.174	4.5
244.551	4.54
244.927	4.54
245.303	4.55
245.679	4.52
246.056	4.49
246.432	4.47
246.808	4.47
247.184	4.47
247.56	4.47
247.936	4.47
248.312	4.5
248.688	4.51
249.064	4.48
249.44	4.47
249.815	4.45
250.191	4.44
250.567	4.45
250.943	4.43
251.318	4.43
251.694	4.43
252.069	4.44
252.445	4.43
252.82	4.41
253.196	4.38
253.571	4.36
253.947	4.35
254.322	4.35
254.697	4.35
255.073	4.33
255.448	4.35
255.823	4.32
256.198	4.31
256.573	4.28
256.948	4.28
257.323	4.25
257.698	4.23
258.073	4.2
258.448	4.19
258.823	4.19
259.198	4.17
259.573	4.13
259.948	4.12
260.322	4.1
260.697	4.06
261.072	4.05
261.446	4.04
261.821	4.04
262.195	4.01
262.57	3.99
262.944	3.97
263.319	3.99
263.693	3.97
264.067	3.97
264.442	3.98
264.816	3.97
265.19	3.98
265.564	3.98
265.938	3.98
266.313	3.97
266.687	3.96
267.061	3.96
267.435	3.96
267.809	3.94
268.183	3.93
268.556	3.93
268.93	3.92
269.304	3.92
269.678	3.93
270.051	3.92
270.425	3.9
270.799	3.87
271.172	3.88
271.546	3.86
271.919	3.88
272.293	3.86
272.666	3.85
273.04	3.87
273.413	3.91
273.787	3.94
274.16	3.93
274.533	3.94
274.906	3.95
275.279	3.96
275.653	3.97
276.026	4
276.399	4.01
276.772	4.03
277.145	4.02
277.518	4.05
277.891	4.07
278.263	4.07
278.636	4.07
279.009	4.07
279.382	4.09
279.755	4.1
280.127	4.13
280.5	4.15
280.872	4.17
281.245	4.17
281.617	4.19
281.99	4.21
282.362	4.21
282.735	4.22
283.107	4.26
283.479	4.27
283.852	4.28
284.224	4.31
284.596	4.3
284.968	4.31
285.34	4.32
285.713	4.34
286.085	4.37
286.457	4.39
286.829	4.42
287.201	4.43
287.572	4.46
287.944	4.48
288.316	4.49
288.688	4.49
289.06	4.52
289.431	4.54
289.803	4.56
290.175	4.58
290.546	4.62
290.918	4.65
291.289	4.68
291.661	4.72
292.032	4.74
292.403	4.77
292.775	4.8
293.146	4.83
293.517	4.86
293.889	4.9
294.26	4.94
294.631	4.99
295.002	5.05
295.373	5.08
295.744	5.12
296.115	5.16
296.486	5.22
296.857	5.26
297.228	5.3
297.599	5.36
297.97	5.4
298.34	5.45
298.711	5.48
299.082	5.54
299.452	5.59
299.823	5.64
300.194	5.71
300.564	5.77
300.935	5.82
301.305	5.87
301.676	5.92
302.046	5.97
302.416	6.04
302.787	6.09
303.157	6.15
303.527	6.2
303.897	6.26
304.267	6.32
304.637	6.4
305.008	6.48
305.378	6.55
305.748	6.63
306.117	6.71
306.487	6.79
306.857	6.87
307.227	6.96
307.597	7.04
307.967	7.11
308.336	7.19
308.706	7.26
309.076	7.31
309.445	7.37
309.815	7.42
310.184	7.47
310.554	7.52
310.923	7.58
311.293	7.63
311.662	7.69
312.031	7.76
312.401	7.84
312.77	7.92
313.139	7.98
313.508	8.03
313.877	8.12
314.246	8.18
314.616	8.25
314.985	8.31
315.353	8.38
315.722	8.42
316.091	8.49
316.46	8.54
316.829	8.61
317.198	8.69
317.567	8.76
317.935	8.84
318.304	8.91
318.672	8.98
319.041	9.09
319.41	9.17
319.778	9.25
320.147	9.31
320.515	9.38
320.883	9.43
321.252	9.48
321.62	9.55
321.988	9.6
322.357	9.65
322.725	9.71
323.093	9.75
323.461	9.81
323.829	9.88
324.197	9.94
324.565	10
324.933	10.07
325.301	10.1
325.669	10.17
326.037	10.21
326.405	10.26
326.772	10.3
327.14	10.33
327.508	10.36
327.875	10.39
328.243	10.43
328.61	10.47
328.978	10.5
329.346	10.53
329.713	10.58
330.08	10.62
330.448	10.65
330.815	10.7
331.182	10.73
331.55	10.79
331.917	10.82
332.284	10.86
332.651	10.89
333.018	10.94
333.385	10.99
333.752	11.05
334.119	11.09
334.486	11.13
334.853	11.16
335.22	11.2
335.587	11.25
335.954	11.3
336.32	11.34
336.687	11.37
337.054	11.4
337.42	11.45
337.787	11.49
338.153	11.53
338.52	11.56
338.886	11.58
339.253	11.62
339.619	11.66
339.986	11.68
340.352	11.72
340.718	11.75
341.084	11.78
341.451	11.81
341.817	11.83
342.183	11.88
342.549	11.92
342.915	11.96
343.281	11.99
343.647	12.02
344.013	12.03
344.379	12.06
344.745	12.09
345.11	12.11
345.476	12.14
345.842	12.17
346.208	12.19
346.573	12.21
346.939	12.22
347.304	12.24
347.67	12.26
348.035	12.26
348.401	12.29
348.766	12.31
349.132	12.33
349.497	12.34
349.862	12.35
350.228	12.37
350.593	12.38
350.958	12.39
351.323	12.4
351.688	12.41
352.053	12.41
352.418	12.42
352.783	12.42
353.148	12.42
353.513	12.42
353.878	12.42
354.243	12.41
354.608	12.41
354.972	12.41
355.337	12.4
355.702	12.39
356.066	12.39
356.431	12.38
356.795	12.37
357.16	12.34
357.524	12.33
357.889	12.31
358.253	12.3
358.618	12.27
358.982	12.25
359.346	12.24
359.71	12.21
360.075	12.2
360.439	12.17
360.803	12.15
361.167	12.13
361.531	12.1
361.895	12.09
362.259	12.06
362.623	12.03
362.987	12
363.351	11.96
363.714	11.94
364.078	11.9
364.442	11.87
364.806	11.83
365.169	11.8
365.533	11.77
365.896	11.72
366.26	11.69
366.623	11.64
366.987	11.6
367.35	11.55
367.714	11.5
368.077	11.44
368.44	11.39
368.803	11.33
369.167	11.28
369.53	11.21
369.893	11.15
370.256	11.08
370.619	11.02
370.982	10.94
371.345	10.88
371.708	10.81
372.071	10.75
372.434	10.69
372.797	10.62
373.159	10.56
373.522	10.51
373.885	10.45
374.247	10.37
374.61	10.3
374.973	10.23
375.335	10.17
375.698	10.1
376.06	10.04
376.423	9.98
376.785	9.9
377.147	9.83
377.51	9.77
377.872	9.71
378.234	9.63
378.596	9.55
378.958	9.49
379.321	9.42
379.683	9.35
380.045	9.28
380.407	9.22
380.769	9.15
381.13	9.09
381.492	9.03
381.854	8.97
382.216	8.91
382.578	8.86
382.939	8.81
383.301	8.75
383.663	8.69
384.024	8.63
384.386	8.57
384.747	8.52
385.109	8.46
385.47	8.41
385.832	8.36
386.193	8.3
386.554	8.25
386.916	8.19
387.277	8.13
387.638	8.07
387.999	8.03
388.36	7.97
388.721	7.93
389.082	7.89
389.443	7.84
389.804	7.79
390.165	7.75
390.526	7.71
390.887	7.66
391.248	7.62
391.609	7.58
391.969	7.53
392.33	7.49
392.691	7.45
393.051	7.41
393.412	7.36
393.772	7.32
394.133	7.27
394.493	7.22
394.854	7.17
395.214	7.13
395.574	7.08
395.935	7.04
396.295	6.99
396.655	6.94
397.015	6.9
397.376	6.85
397.736	6.8
398.096	6.76
398.456	6.72
398.816	6.68
399.176	6.63
399.535	6.59
399.895	6.55
400.255	6.51
400.615	6.48
400.975	6.44
401.334	6.4
401.694	6.37
402.054	6.33
402.413	6.3
402.773	6.26
403.132	6.23
403.492	6.2
403.851	6.16
404.211	6.14
404.57	6.11
404.929	6.07
405.288	6.05
405.648	6.02
406.007	6
406.366	5.97
406.725	5.95
407.084	5.92
407.443	5.9
407.802	5.88
408.161	5.86
408.52	5.84
408.879	5.82
409.238	5.81
409.596	5.79
409.955	5.78
410.314	5.76
410.673	5.75
411.031	5.73
411.39	5.72
411.748	5.71
412.107	5.7
412.465	5.69
412.824	5.71
413.182	5.71
413.54	5.73
413.899	5.74
414.257	5.77
414.615	5.8
414.974	5.82
415.332	5.84
415.69	5.88
416.048	5.89
416.406	5.93
416.764	5.95
417.122	5.97
417.48	6
417.838	6.02
418.195	6.03
418.553	6.04
418.911	6.05
419.269	6.04
419.626	6.02
419.984	6
420.342	5.97
420.699	5.93
421.057	5.89
421.414	5.86
421.772	5.83
422.129	5.81
422.486	5.79
422.844	5.78
423.201	5.76
423.558	5.75
423.915	5.73
424.273	5.71
424.63	5.7
424.987	5.69
425.344	5.67
425.701	5.66
426.058	5.65
426.415	5.63
426.772	5.62
427.128	5.6
427.485	5.57
427.842	5.54
428.199	5.51
428.555	5.48
428.912	5.44
429.269	5.4
429.625	5.36
429.982	5.32
430.338	5.27
430.695	5.23
431.051	5.18
431.407	5.15
431.764	5.12
432.12	5.09
432.476	5.07
432.832	5.05
433.189	5.05
433.545	5.05
433.901	5.07
434.257	5.09
434.613	5.12
434.969	5.14
435.325	5.18
435.681	5.22
436.036	5.25
436.392	5.27
436.748	5.29
437.104	5.3
437.459	5.32
437.815	5.34
438.171	5.37
438.526	5.4
438.882	5.44
439.237	5.48
439.593	5.52
439.948	5.56
440.304	5.6
440.659	5.63
441.014	5.65
441.369	5.68
441.725	5.7
442.08	5.71
442.435	5.73
442.79	5.73
443.145	5.73
443.5	5.73
443.855	5.72
444.21	5.71
444.565	5.7
444.92	5.69
445.275	5.67
445.629	5.66
445.984	5.64
446.339	5.62
446.693	5.59
447.048	5.56
447.403	5.54
447.757	5.5
448.112	5.47
448.466	5.43
448.82	5.39
449.175	5.36
449.529	5.32
449.883	5.29
450.238	5.26
450.592	5.25
450.946	5.23
451.3	5.21
451.654	5.22
452.008	5.21
452.362	5.21
452.716	5.2
453.07	5.2
453.424	5.18
453.778	5.16
454.132	5.15
454.486	5.13
454.839	5.11
455.193	5.08
455.547	5.06
455.9	5.02
456.254	5
456.607	4.97
456.961	4.93
457.314	4.9
457.668	4.89
458.021	4.88
458.375	4.88
458.728	4.88
459.081	4.89
459.434	4.9
459.787	4.92
460.141	4.93
460.494	4.94
460.847	4.96
461.2	4.97
461.553	4.99
461.906	5
462.259	5.01
462.611	5.02
462.964	5.03
463.317	5.05
463.67	5.06
464.022	5.08
464.375	5.1
464.728	5.11
465.08	5.12
465.433	5.13
465.785	5.14
466.138	5.13
466.49	5.12
466.843	5.11
467.195	5.1
467.547	5.08
467.899	5.06
468.252	5.04
468.604	5.02
468.956	5.01
469.308	5.01
469.66	5.01
470.012	5.02
470.364	5.03
470.716	5.05
471.068	5.07
471.42	5.1
471.772	5.14
472.123	5.16
472.475	5.18
472.827	5.2
473.178	5.22
473.53	5.23
473.882	5.26
474.233	5.29
474.585	5.33
474.936	5.41
475.288	5.53
475.639	5.67
475.99	5.83
476.342	6.01
476.693	6.21
477.044	6.41
477.395	6.62
477.746	6.84
478.097	7.04
478.448	7.26
478.8	7.47
479.15	7.66
479.501	7.84
479.852	8
480.203	8.15
480.554	8.29
480.905	8.43
481.255	8.56
481.606	8.68
481.957	8.8
482.307	8.91
482.658	9.02
483.009	9.12
483.359	9.22
483.709	9.31
484.06	9.4
484.41	9.49
484.761	9.58
485.111	9.66
485.461	9.74
485.811	9.82
486.162	9.89
486.512	9.95
486.862	10
487.212	10.03
487.562	10.05
487.912	10.07
488.262	10.08
488.612	10.07
488.961	10.05
489.311	10
489.661	9.92
490.011	9.82
490.36	9.7
490.71	9.56
491.06	9.4
491.409	9.24
491.759	9.07
492.108	8.89
492.458	8.72
492.807	8.52
493.157	8.34
493.506	8.16
493.855	8
494.204	7.85
494.554	7.71
494.903	7.57
495.252	7.46
495.601	7.34
495.95	7.23
496.299	7.14
496.648	7.05
496.997	6.97
497.346	6.9
497.695	6.84
498.043	6.77
498.392	6.72
498.741	6.67
499.09	6.63
499.438	6.59
499.787	6.56
500.135	6.54
500.484	6.53
500.832	6.54
501.181	6.56
501.529	6.6
501.878	6.66
502.226	6.73
502.574	6.81
502.923	6.89
503.271	6.98
503.619	7.07
503.967	7.16
504.315	7.25
504.663	7.34
505.011	7.44
505.359	7.54
505.707	7.63
506.055	7.74
506.403	7.84
506.751	7.96
507.098	8.08
507.446	8.2
507.794	8.32
508.141	8.45
508.489	8.58
508.837	8.73
509.184	8.87
509.531	9.02
509.879	9.17
510.226	9.34
510.574	9.51
510.921	9.69
511.268	9.87
511.616	10.06
511.963	10.26
512.31	10.46
512.657	10.66
513.004	10.84
513.351	11.02
513.698	11.19
514.045	11.35
514.392	11.5
514.739	11.64
515.086	11.77
515.432	11.9
515.779	12.03
516.126	12.16
516.473	12.3
516.819	12.46
517.166	12.64
517.512	12.82
517.859	13.03
518.205	13.25
518.552	13.49
518.898	13.76
519.245	14.05
519.591	14.42
519.937	14.86
520.283	15.37
520.629	15.92
520.976	16.51
521.322	17.11
521.668	17.74
522.014	18.38
522.36	19.01
522.706	19.63
523.052	20.24
523.398	20.8
523.743	21.32
524.089	21.8
524.435	22.23
524.781	22.66
525.126	23.07
525.472	23.48
525.817	23.87
526.163	24.26
526.509	24.63
526.854	25.01
527.199	25.39
527.545	25.77
527.89	26.16
528.235	26.56
528.581	26.93
528.926	27.28
529.271	27.62
529.616	27.93
529.961	28.25
530.306	28.55
530.651	28.82
530.996	29.07
531.341	29.29
531.686	29.5
532.031	29.7
532.376	29.92
532.721	30.16
533.065	30.43
533.41	30.71
533.755	30.97
534.099	31.18
534.444	31.37
534.788	31.52
535.133	31.66
535.477	31.78
535.822	31.88
536.166	31.94
536.51	31.94
536.855	31.89
537.199	31.82
537.543	31.75
537.887	31.71
538.231	31.71
538.576	31.71
538.92	31.71
539.264	31.69
539.608	31.66
539.951	31.61
540.295	31.54
540.639	31.48
540.983	31.4
541.327	31.29
541.671	31.17
542.014	31.07
542.358	30.98
542.701	30.97
543.045	31.02
543.389	31.11
543.732	31.22
544.075	31.33
544.419	31.46
544.762	31.61
545.105	31.77
545.449	31.94
545.792	32.12
546.135	32.3
546.478	32.44
546.821	32.53
547.165	32.57
547.508	32.56
547.851	32.51
548.194	32.42
548.536	32.28
548.879	32.12
549.222	31.93
549.565	31.74
549.908	31.56
550.25	31.4
550.593	31.3
550.936	31.27
551.278	31.28
551.621	31.34
551.963	31.41
552.306	31.49
552.648	31.61
552.991	31.76
553.333	31.92
553.675	32.12
554.017	32.35
554.36	32.59
554.702	32.87
555.044	33.18
555.386	33.53
555.728	33.93
556.07	34.29
556.412	34.65
556.754	34.94
557.096	35.17
557.438	35.4
557.78	35.64
558.121	35.88
558.463	36.11
558.805	36.34
559.147	36.57
559.488	36.81
559.83	37.04
560.171	37.26
560.513	37.49
560.854	37.7
561.196	37.93
561.537	38.13
561.878	38.33
562.22	38.52
562.561	38.72
562.902	38.91
563.243	39.11
563.584	39.31
563.925	39.5
564.266	39.7
564.607	39.89
564.948	40.06
565.289	40.25
565.63	40.44
565.971	40.62
566.312	40.79
566.653	40.96
566.993	41.13
567.334	41.29
567.675	41.44
568.015	41.59
568.356	41.74
568.696	41.89
569.037	42.03
569.377	42.17
569.718	42.31
570.058	42.43
570.398	42.55
570.739	42.67
571.079	42.78
571.419	42.9
571.759	43.01
572.099	43.11
572.439	43.22
572.779	43.32
573.119	43.42
573.459	43.51
573.799	43.61
574.139	43.7
574.479	43.81
574.819	43.9
575.158	43.99
575.498	44.09
575.838	44.19
576.177	44.27
576.517	44.36
576.856	44.45
577.196	44.54
577.535	44.62
577.875	44.7
578.214	44.78
578.553	44.86
578.893	44.94
579.232	45.01
579.571	45.08
579.91	45.15
580.25	45.22
580.589	45.3
580.928	45.37
581.267	45.45
581.606	45.54
581.945	45.61
582.283	45.69
582.622	45.76
582.961	45.84
583.3	45.91
583.639	45.98
583.977	46.04
584.316	46.12
584.654	46.2
584.993	46.28
585.332	46.36
585.67	46.43
586.008	46.5
586.347	46.56
586.685	46.64
587.024	46.71
587.362	46.77
587.7	46.84
588.038	46.92
588.376	46.98
588.715	47.05
589.053	47.12
589.391	47.19
589.729	47.27
590.067	47.33
590.404	47.39
590.742	47.46
591.08	47.51
591.418	47.57
591.756	47.63
592.093	47.68
592.431	47.72
592.769	47.77
593.106	47.82
593.444	47.87
593.781	47.92
594.119	47.96
594.456	47.99
594.793	48.05
595.131	48.09
595.468	48.13
595.805	48.18
596.143	48.23
596.48	48.28
596.817	48.33
597.154	48.39
597.491	48.46
597.828	48.51
598.165	48.56
598.502	48.6
598.839	48.65
599.176	48.71
599.512	48.75
599.849	48.8
600.186	48.85
600.523	48.87
600.859	48.91
601.196	48.95
601.532	48.99
601.869	49.03
602.205	49.06
602.542	49.1
602.878	49.14
603.215	49.18
603.551	49.2
603.887	49.23
604.223	49.26
604.56	49.29
604.896	49.33
605.232	49.35
605.568	49.37
605.904	49.38
606.24	49.41
606.576	49.43
606.912	49.45
607.248	49.48
607.583	49.5
607.919	49.53
608.255	49.56
608.591	49.57
608.926	49.59
609.262	49.62
609.597	49.63
609.933	49.65
610.268	49.67
610.604	49.68
610.939	49.7
611.275	49.71
611.61	49.73
611.945	49.74
612.281	49.76
612.616	49.76
612.951	49.76
613.286	49.78
613.621	49.79
613.956	49.81
614.291	49.83
614.626	49.85
614.961	49.87
615.296	49.89
615.631	49.9
615.966	49.93
616.3	49.94
616.635	49.94
616.97	49.95
617.304	49.97
617.639	49.99
617.973	50.01
618.308	50.02
618.642	50.03
618.977	50.07
619.311	50.09
619.646	50.13
619.98	50.15
620.314	50.18
620.648	50.21
620.983	50.22
621.317	50.24
621.651	50.25
621.985	50.28
622.319	50.3
622.653	50.32
622.987	50.33
623.321	50.35
623.655	50.35
623.988	50.37
624.322	50.38
624.656	50.39
624.99	50.41
625.323	50.42
625.657	50.43
625.99	50.44
626.324	50.46
626.657	50.47
626.991	50.49
627.324	50.51
627.658	50.52
627.991	50.52
628.324	50.53
628.657	50.55
628.991	50.57
629.324	50.59
629.657	50.59
629.99	50.6
630.323	50.61
630.656	50.63
630.989	50.64
631.322	50.65
631.655	50.67
631.987	50.69
632.32	50.71
632.653	50.7
632.986	50.72
633.318	50.74
633.651	50.76
633.984	50.77
634.316	50.78
634.649	50.8
634.981	50.81
635.313	50.84
635.646	50.84
635.978	50.85
636.31	50.87
636.643	50.89
636.975	50.92
637.307	50.95
637.639	50.96
637.971	50.99
638.303	51.01
638.635	51.03
638.967	51.06
639.299	51.07
639.631	51.09
639.963	51.12
640.295	51.14
640.626	51.13
640.958	51.15
641.29	51.16
641.621	51.21
641.953	51.23
642.285	51.24
642.616	51.24
642.948	51.26
643.279	51.28
643.61	51.31
643.942	51.33
644.273	51.34
644.604	51.35
644.936	51.37
645.267	51.39
645.598	51.4
645.929	51.42
646.26	51.45
646.591	51.46
646.922	51.45
647.253	51.45
647.584	51.49
647.915	51.5
648.245	51.51
648.576	51.52
648.907	51.53
649.238	51.56
649.568	51.58
649.899	51.6
650.229	51.6
650.56	51.61
650.89	51.6
651.221	51.61
651.551	51.61
651.882	51.61
652.212	51.62
652.542	51.62
652.872	51.62
653.203	51.64
653.533	51.65
653.863	51.66
654.193	51.67
654.523	51.68
654.853	51.69
655.183	51.69
655.513	51.69
655.843	51.71
656.172	51.72
656.502	51.73
656.832	51.74
657.162	51.75
657.491	51.76
657.821	51.76
658.15	51.77
658.48	51.79
658.809	51.8
659.139	51.82
659.468	51.83
659.798	51.83
660.127	51.84
660.456	51.86
660.785	51.9
661.115	51.89
661.444	51.91
661.773	51.93
662.102	51.95
662.431	51.96
662.76	51.96
663.089	51.96
663.418	51.96
663.747	51.98
664.076	51.99
664.404	52.01
664.733	52.03
665.062	52.06
665.39	52.09
665.719	52.09
666.048	52.11
666.376	52.14
666.705	52.15
667.033	52.15
