Data from UWBM79812_Reflection_00009.txt Node
Date: Sun May 02 13:58:05 EDT 2021
User: vgr7
Spectrometer: USB2G7710
Scans to average: 10
Trigger mode: 4
Integration Time (sec): 1.000000E-1
Electric dark correction enabled: true
Boxcar width: 20
XAxis mode: Wavelengths
Number of Pixels in Spectrum: 2048
>>>>>Begin Spectral Data<<<<<
177.721	80.87
178.105	85.78
178.488	162.45
178.871	180.8
179.254	128.11
179.636	98.95
180.019	69.87
180.402	52.47
180.785	44.91
181.168	45.84
181.55	44.5
181.933	43.62
182.316	31.48
182.698	25.01
183.081	18.37
183.463	18.04
183.846	18.85
184.228	18.93
184.611	16.47
184.993	15.04
185.376	18.6
185.758	18.65
186.14	19.22
186.522	19.03
186.904	20.68
187.287	18.54
187.669	18.94
188.051	17.91
188.433	14.13
188.815	14.51
189.197	14.29
189.579	13.63
189.961	15.87
190.342	14.02
190.724	13.78
191.106	14.94
191.488	15.88
191.869	15.11
192.251	16.25
192.633	18.05
193.014	14.59
193.396	11.32
193.777	13.84
194.159	12.37
194.54	12.12
194.922	11.58
195.303	10.91
195.684	9.97
196.065	9.26
196.447	8.29
196.828	7.75
197.209	5.22
197.59	2.85
197.971	4.93
198.352	6.42
198.733	8.37
199.114	8.17
199.495	6.53
199.876	5.51
200.257	5.69
200.638	4.3
201.018	3.89
201.399	5.39
201.78	5.5
202.16	6.04
202.541	5.06
202.922	5.67
203.302	6.35
203.683	6.63
204.063	7.17
204.444	6.64
204.824	6.13
205.204	4.35
205.585	4.11
205.965	5.49
206.345	5.78
206.725	5.4
207.106	4.33
207.486	4.85
207.866	4.37
208.246	3.1
208.626	4.62
209.006	5.05
209.386	3.18
209.766	2.07
210.145	0.86
210.525	1.21
210.905	2.25
211.285	0.68
211.664	2.71
212.044	3.24
212.424	2.99
212.803	5.12
213.183	5.76
213.562	5.96
213.942	5.31
214.321	4.68
214.701	4.63
215.08	5.94
215.459	6.24
215.838	5.52
216.218	6.94
216.597	5.57
216.976	4.98
217.355	5.12
217.734	5.96
218.113	5.86
218.492	5.54
218.871	5.47
219.25	5.13
219.629	5.32
220.008	4.49
220.387	3.6
220.766	5.95
221.144	5.07
221.523	4.85
221.902	4.66
222.28	4.49
222.659	4.62
223.037	4.73
223.416	5.59
223.794	5.99
224.173	5.94
224.551	5.71
224.929	7.01
225.308	7.01
225.686	7.43
226.064	7.1
226.442	6.89
226.821	7.89
227.199	7.51
227.577	7.65
227.955	7.93
228.333	7.64
228.711	7.51
229.089	6.83
229.467	6.59
229.845	6.44
230.222	6.3
230.6	6.2
230.978	6.15
231.356	6.65
231.733	6.59
232.111	6.42
232.488	6.25
232.866	6.01
233.243	5.67
233.621	5.4
233.998	5.23
234.376	5.06
234.753	4.86
235.13	4.84
235.508	4.99
235.885	4.99
236.262	4.79
236.639	4.86
237.016	4.82
237.393	4.81
237.77	4.68
238.147	4.61
238.524	4.5
238.901	4.35
239.278	4.3
239.655	4.24
240.032	4.26
240.409	4.21
240.785	4.32
241.162	4.3
241.539	4.28
241.915	4.34
242.292	4.33
242.668	4.37
243.045	4.36
243.421	4.35
243.798	4.34
244.174	4.35
244.551	4.36
244.927	4.38
245.303	4.4
245.679	4.39
246.056	4.34
246.432	4.36
246.808	4.31
247.184	4.32
247.56	4.35
247.936	4.36
248.312	4.34
248.688	4.33
249.064	4.36
249.44	4.37
249.815	4.36
250.191	4.34
250.567	4.33
250.943	4.31
251.318	4.29
251.694	4.3
252.069	4.23
252.445	4.21
252.82	4.19
253.196	4.19
253.571	4.17
253.947	4.17
254.322	4.18
254.697	4.17
255.073	4.17
255.448	4.16
255.823	4.12
256.198	4.09
256.573	4.06
256.948	4.06
257.323	4.02
257.698	4
258.073	3.96
258.448	3.94
258.823	3.91
259.198	3.89
259.573	3.89
259.948	3.9
260.322	3.92
260.697	3.9
261.072	3.9
261.446	3.91
261.821	3.9
262.195	3.89
262.57	3.87
262.944	3.85
263.319	3.87
263.693	3.86
264.067	3.85
264.442	3.84
264.816	3.82
265.19	3.82
265.564	3.82
265.938	3.82
266.313	3.82
266.687	3.82
267.061	3.81
267.435	3.83
267.809	3.82
268.183	3.83
268.556	3.82
268.93	3.84
269.304	3.85
269.678	3.85
270.051	3.86
270.425	3.84
270.799	3.84
271.172	3.85
271.546	3.85
271.919	3.86
272.293	3.87
272.666	3.87
273.04	3.88
273.413	3.91
273.787	3.93
274.16	3.93
274.533	3.94
274.906	3.94
275.279	3.92
275.653	3.91
276.026	3.92
276.399	3.92
276.772	3.94
277.145	3.94
277.518	3.95
277.891	3.97
278.263	3.96
278.636	3.95
279.009	3.95
279.382	3.96
279.755	3.96
280.127	3.96
280.5	3.97
280.872	3.99
281.245	3.99
281.617	3.99
281.99	3.99
282.362	3.98
282.735	3.98
283.107	4
283.479	4
283.852	4.02
284.224	4.02
284.596	3.99
284.968	3.99
285.34	3.97
285.713	3.99
286.085	3.99
286.457	3.99
286.829	3.99
287.201	4
287.572	3.99
287.944	4
288.316	4
288.688	3.98
289.06	3.97
289.431	3.98
289.803	4
290.175	3.99
290.546	4.02
290.918	4.03
291.289	4.04
291.661	4.04
292.032	4.03
292.403	4.03
292.775	4.03
293.146	4.03
293.517	4.06
293.889	4.07
294.26	4.08
294.631	4.07
295.002	4.09
295.373	4.1
295.744	4.13
296.115	4.14
296.486	4.15
296.857	4.17
297.228	4.19
297.599	4.23
297.97	4.25
298.34	4.25
298.711	4.26
299.082	4.27
299.452	4.28
299.823	4.3
300.194	4.32
300.564	4.34
300.935	4.35
301.305	4.37
301.676	4.39
302.046	4.4
302.416	4.42
302.787	4.43
303.157	4.45
303.527	4.47
303.897	4.48
304.267	4.51
304.637	4.53
305.008	4.54
305.378	4.58
305.748	4.58
306.117	4.61
306.487	4.64
306.857	4.68
307.227	4.71
307.597	4.74
307.967	4.78
308.336	4.81
308.706	4.82
309.076	4.83
309.445	4.87
309.815	4.91
310.184	4.93
310.554	4.95
310.923	4.98
311.293	4.99
311.662	5
312.031	5.02
312.401	5.04
312.77	5.05
313.139	5.07
313.508	5.1
313.877	5.13
314.246	5.15
314.616	5.18
314.985	5.21
315.353	5.25
315.722	5.26
316.091	5.31
316.46	5.33
316.829	5.36
317.198	5.4
317.567	5.42
317.935	5.45
318.304	5.48
318.672	5.51
319.041	5.56
319.41	5.59
319.778	5.63
320.147	5.66
320.515	5.67
320.883	5.7
321.252	5.72
321.62	5.73
321.988	5.75
322.357	5.77
322.725	5.79
323.093	5.8
323.461	5.8
323.829	5.84
324.197	5.86
324.565	5.86
324.933	5.87
325.301	5.89
325.669	5.92
326.037	5.92
326.405	5.94
326.772	5.98
327.14	5.98
327.508	6
327.875	6.02
328.243	6.03
328.61	6.03
328.978	6.04
329.346	6.06
329.713	6.09
330.08	6.11
330.448	6.12
330.815	6.13
331.182	6.14
331.55	6.16
331.917	6.17
332.284	6.18
332.651	6.19
333.018	6.21
333.385	6.23
333.752	6.26
334.119	6.27
334.486	6.3
334.853	6.31
335.22	6.33
335.587	6.36
335.954	6.38
336.32	6.4
336.687	6.42
337.054	6.44
337.42	6.45
337.787	6.47
338.153	6.51
338.52	6.52
338.886	6.53
339.253	6.56
339.619	6.59
339.986	6.61
340.352	6.63
340.718	6.65
341.084	6.66
341.451	6.68
341.817	6.68
342.183	6.7
342.549	6.72
342.915	6.73
343.281	6.75
343.647	6.78
344.013	6.78
344.379	6.8
344.745	6.8
345.11	6.81
345.476	6.82
345.842	6.85
346.208	6.85
346.573	6.86
346.939	6.86
347.304	6.88
347.67	6.89
348.035	6.9
348.401	6.91
348.766	6.92
349.132	6.93
349.497	6.94
349.862	6.95
350.228	6.95
350.593	6.96
350.958	6.97
351.323	6.97
351.688	6.98
352.053	6.99
352.418	7.01
352.783	7.01
353.148	6.99
353.513	7.01
353.878	7.01
354.243	7.01
354.608	7.01
354.972	7.01
355.337	7
355.702	7
356.066	7
356.431	6.99
356.795	6.99
357.16	6.98
357.524	6.98
357.889	6.97
358.253	6.96
358.618	6.96
358.982	6.95
359.346	6.94
359.71	6.94
360.075	6.94
360.439	6.92
360.803	6.92
361.167	6.9
361.531	6.89
361.895	6.89
362.259	6.87
362.623	6.85
362.987	6.84
363.351	6.83
363.714	6.82
364.078	6.8
364.442	6.79
364.806	6.77
365.169	6.77
365.533	6.75
365.896	6.74
366.26	6.72
366.623	6.71
366.987	6.69
367.35	6.66
367.714	6.64
368.077	6.63
368.44	6.6
368.803	6.58
369.167	6.56
369.53	6.54
369.893	6.5
370.256	6.49
370.619	6.46
370.982	6.45
371.345	6.41
371.708	6.39
372.071	6.38
372.434	6.35
372.797	6.33
373.159	6.31
373.522	6.29
373.885	6.28
374.247	6.25
374.61	6.22
374.973	6.18
375.335	6.15
375.698	6.12
376.06	6.1
376.423	6.08
376.785	6.05
377.147	6.03
377.51	6.01
377.872	5.98
378.234	5.95
378.596	5.92
378.958	5.89
379.321	5.86
379.683	5.83
380.045	5.8
380.407	5.77
380.769	5.74
381.13	5.72
381.492	5.69
381.854	5.67
382.216	5.65
382.578	5.63
382.939	5.6
383.301	5.58
383.663	5.56
384.024	5.53
384.386	5.51
384.747	5.49
385.109	5.46
385.47	5.44
385.832	5.41
386.193	5.39
386.554	5.36
386.916	5.34
387.277	5.32
387.638	5.29
387.999	5.27
388.36	5.24
388.721	5.22
389.082	5.2
389.443	5.19
389.804	5.17
390.165	5.15
390.526	5.14
390.887	5.12
391.248	5.1
391.609	5.08
391.969	5.07
392.33	5.05
392.691	5.04
393.051	5.02
393.412	5
393.772	4.99
394.133	4.97
394.493	4.95
394.854	4.93
395.214	4.91
395.574	4.9
395.935	4.88
396.295	4.86
396.655	4.85
397.015	4.82
397.376	4.8
397.736	4.79
398.096	4.77
398.456	4.75
398.816	4.74
399.176	4.73
399.535	4.71
399.895	4.69
400.255	4.68
400.615	4.66
400.975	4.65
401.334	4.63
401.694	4.62
402.054	4.61
402.413	4.59
402.773	4.58
403.132	4.57
403.492	4.55
403.851	4.54
404.211	4.53
404.57	4.52
404.929	4.5
405.288	4.49
405.648	4.48
406.007	4.48
406.366	4.46
406.725	4.45
407.084	4.44
407.443	4.43
407.802	4.43
408.161	4.42
408.52	4.41
408.879	4.4
409.238	4.39
409.596	4.39
409.955	4.39
410.314	4.38
410.673	4.38
411.031	4.37
411.39	4.37
411.748	4.36
412.107	4.37
412.465	4.37
412.824	4.38
413.182	4.4
413.54	4.42
413.899	4.44
414.257	4.46
414.615	4.5
414.974	4.52
415.332	4.56
415.69	4.59
416.048	4.62
416.406	4.65
416.764	4.68
417.122	4.71
417.48	4.73
417.838	4.76
418.195	4.78
418.553	4.79
418.911	4.8
419.269	4.81
419.626	4.8
419.984	4.79
420.342	4.77
420.699	4.76
421.057	4.74
421.414	4.71
421.772	4.69
422.129	4.68
422.486	4.67
422.844	4.67
423.201	4.66
423.558	4.66
423.915	4.65
424.273	4.65
424.63	4.64
424.987	4.63
425.344	4.63
425.701	4.62
426.058	4.61
426.415	4.61
426.772	4.6
427.128	4.59
427.485	4.58
427.842	4.56
428.199	4.54
428.555	4.52
428.912	4.49
429.269	4.46
429.625	4.43
429.982	4.4
430.338	4.36
430.695	4.33
431.051	4.29
431.407	4.27
431.764	4.25
432.12	4.22
432.476	4.21
432.832	4.2
433.189	4.19
433.545	4.2
433.901	4.21
434.257	4.23
434.613	4.25
434.969	4.28
435.325	4.3
435.681	4.34
436.036	4.36
436.392	4.38
436.748	4.39
437.104	4.4
437.459	4.42
437.815	4.43
438.171	4.45
438.526	4.48
438.882	4.51
439.237	4.55
439.593	4.58
439.948	4.61
440.304	4.65
440.659	4.67
441.014	4.69
441.369	4.72
441.725	4.74
442.08	4.75
442.435	4.77
442.79	4.77
443.145	4.77
443.5	4.77
443.855	4.77
444.21	4.77
444.565	4.76
444.92	4.75
445.275	4.74
445.629	4.73
445.984	4.72
446.339	4.7
446.693	4.69
447.048	4.67
447.403	4.65
447.757	4.63
448.112	4.61
448.466	4.58
448.82	4.55
449.175	4.52
449.529	4.5
449.883	4.48
450.238	4.45
450.592	4.44
450.946	4.43
451.3	4.43
451.654	4.43
452.008	4.43
452.362	4.43
452.716	4.43
453.07	4.43
453.424	4.42
453.778	4.41
454.132	4.4
454.486	4.39
454.839	4.37
455.193	4.34
455.547	4.33
455.9	4.3
456.254	4.28
456.607	4.25
456.961	4.22
457.314	4.2
457.668	4.19
458.021	4.18
458.375	4.17
458.728	4.17
459.081	4.17
459.434	4.18
459.787	4.19
460.141	4.2
460.494	4.21
460.847	4.22
461.2	4.22
461.553	4.23
461.906	4.23
462.259	4.24
462.611	4.24
462.964	4.25
463.317	4.26
463.67	4.26
464.022	4.27
464.375	4.28
464.728	4.28
465.08	4.29
465.433	4.29
465.785	4.29
466.138	4.28
466.49	4.26
466.843	4.25
467.195	4.23
467.547	4.21
467.899	4.19
468.252	4.16
468.604	4.14
468.956	4.12
469.308	4.11
469.66	4.11
470.012	4.1
470.364	4.11
470.716	4.11
471.068	4.13
471.42	4.15
471.772	4.18
472.123	4.19
472.475	4.21
472.827	4.22
473.178	4.23
473.53	4.24
473.882	4.26
474.233	4.28
474.585	4.32
474.936	4.39
475.288	4.48
475.639	4.6
475.99	4.74
476.342	4.89
476.693	5.06
477.044	5.23
477.395	5.4
477.746	5.58
478.097	5.75
478.448	5.94
478.8	6.11
479.15	6.28
479.501	6.43
479.852	6.57
480.203	6.7
480.554	6.82
480.905	6.94
481.255	7.06
481.606	7.17
481.957	7.27
482.307	7.37
482.658	7.46
483.009	7.55
483.359	7.63
483.709	7.72
484.06	7.8
484.41	7.88
484.761	7.95
485.111	8.03
485.461	8.1
485.811	8.16
486.162	8.22
486.512	8.27
486.862	8.31
487.212	8.34
487.562	8.36
487.912	8.37
488.262	8.38
488.612	8.37
488.961	8.35
489.311	8.31
489.661	8.24
490.011	8.14
490.36	8.04
490.71	7.91
491.06	7.78
491.409	7.64
491.759	7.48
492.108	7.33
492.458	7.17
492.807	7
493.157	6.84
493.506	6.68
493.855	6.53
494.204	6.39
494.554	6.25
494.903	6.13
495.252	6.01
495.601	5.9
495.95	5.79
496.299	5.69
496.648	5.59
496.997	5.5
497.346	5.42
497.695	5.34
498.043	5.27
498.392	5.19
498.741	5.12
499.09	5.05
499.438	4.99
499.787	4.94
500.135	4.89
500.484	4.84
500.832	4.81
501.181	4.79
501.529	4.79
501.878	4.79
502.226	4.81
502.574	4.83
502.923	4.85
503.271	4.88
503.619	4.9
503.967	4.93
504.315	4.96
504.663	4.99
505.011	5.02
505.359	5.04
505.707	5.07
506.055	5.11
506.403	5.14
506.751	5.19
507.098	5.23
507.446	5.27
507.794	5.32
508.141	5.37
508.489	5.43
508.837	5.49
509.184	5.55
509.531	5.62
509.879	5.68
510.226	5.76
510.574	5.84
510.921	5.93
511.268	6.01
511.616	6.1
511.963	6.19
512.31	6.29
512.657	6.38
513.004	6.48
513.351	6.56
513.698	6.65
514.045	6.72
514.392	6.8
514.739	6.86
515.086	6.93
515.432	7
515.779	7.06
516.126	7.13
516.473	7.2
516.819	7.28
517.166	7.37
517.512	7.48
517.859	7.59
518.205	7.71
518.552	7.85
518.898	8
519.245	8.17
519.591	8.39
519.937	8.64
520.283	8.94
520.629	9.26
520.976	9.61
521.322	9.97
521.668	10.34
522.014	10.71
522.36	11.09
522.706	11.46
523.052	11.82
523.398	12.16
523.743	12.48
524.089	12.76
524.435	13.03
524.781	13.29
525.126	13.55
525.472	13.8
525.817	14.05
526.163	14.29
526.509	14.53
526.854	14.77
527.199	15.01
527.545	15.24
527.89	15.49
528.235	15.74
528.581	15.97
528.926	16.19
529.271	16.41
529.616	16.61
529.961	16.81
530.306	17
530.651	17.18
530.996	17.35
531.341	17.5
531.686	17.64
532.031	17.77
532.376	17.92
532.721	18.08
533.065	18.26
533.41	18.45
533.755	18.63
534.099	18.79
534.444	18.93
534.788	19.06
535.133	19.17
535.477	19.28
535.822	19.37
536.166	19.44
536.51	19.48
536.855	19.49
537.199	19.48
537.543	19.47
537.887	19.48
538.231	19.51
538.576	19.54
538.92	19.57
539.264	19.59
539.608	19.61
539.951	19.61
540.295	19.61
540.639	19.6
540.983	19.58
541.327	19.55
541.671	19.51
542.014	19.49
542.358	19.48
542.701	19.51
543.045	19.58
543.389	19.67
543.732	19.78
544.075	19.89
544.419	20.02
544.762	20.15
545.105	20.3
545.449	20.45
545.792	20.62
546.135	20.78
546.478	20.92
546.821	21.04
547.165	21.13
547.508	21.18
547.851	21.21
548.194	21.22
548.536	21.2
548.879	21.16
549.222	21.12
549.565	21.07
549.908	21.03
550.25	21
550.593	21.02
550.936	21.07
551.278	21.16
551.621	21.27
551.963	21.4
552.306	21.54
552.648	21.7
552.991	21.89
553.333	22.09
553.675	22.31
554.017	22.55
554.36	22.8
554.702	23.1
555.044	23.41
555.386	23.75
555.728	24.12
556.07	24.47
556.412	24.81
556.754	25.1
557.096	25.36
557.438	25.63
557.78	25.9
558.121	26.17
558.463	26.44
558.805	26.71
559.147	26.98
559.488	27.25
559.83	27.52
560.171	27.79
560.513	28.05
560.854	28.31
561.196	28.57
561.537	28.83
561.878	29.08
562.22	29.33
562.561	29.57
562.902	29.81
563.243	30.05
563.584	30.29
563.925	30.52
564.266	30.76
564.607	31
564.948	31.24
565.289	31.47
565.63	31.69
565.971	31.92
566.312	32.14
566.653	32.37
566.993	32.59
567.334	32.81
567.675	33.02
568.015	33.23
568.356	33.43
568.696	33.63
569.037	33.82
569.377	34.02
569.718	34.2
570.058	34.38
570.398	34.54
570.739	34.71
571.079	34.86
571.419	35.01
571.759	35.17
572.099	35.32
572.439	35.47
572.779	35.62
573.119	35.77
573.459	35.92
573.799	36.06
574.139	36.2
574.479	36.34
574.819	36.49
575.158	36.62
575.498	36.76
575.838	36.9
576.177	37.04
576.517	37.17
576.856	37.31
577.196	37.45
577.535	37.57
577.875	37.7
578.214	37.83
578.553	37.96
578.893	38.09
579.232	38.21
579.571	38.34
579.91	38.47
580.25	38.59
580.589	38.72
580.928	38.83
581.267	38.95
581.606	39.07
581.945	39.19
582.283	39.3
582.622	39.43
582.961	39.55
583.3	39.66
583.639	39.79
583.977	39.91
584.316	40.04
584.654	40.15
584.993	40.28
585.332	40.41
585.67	40.54
586.008	40.65
586.347	40.76
586.685	40.87
587.024	40.98
587.362	41.09
587.7	41.21
588.038	41.32
588.376	41.44
588.715	41.56
589.053	41.67
589.391	41.78
589.729	41.89
590.067	41.99
590.404	42.1
590.742	42.2
591.08	42.3
591.418	42.41
591.756	42.51
592.093	42.59
592.431	42.68
592.769	42.76
593.106	42.84
593.444	42.92
593.781	42.99
594.119	43.07
594.456	43.14
594.793	43.22
595.131	43.3
595.468	43.39
595.805	43.47
596.143	43.55
596.48	43.64
596.817	43.73
597.154	43.81
597.491	43.9
597.828	43.97
598.165	44.06
598.502	44.14
598.839	44.21
599.176	44.27
599.512	44.33
599.849	44.4
600.186	44.45
600.523	44.51
600.859	44.58
601.196	44.63
601.532	44.68
601.869	44.74
602.205	44.8
602.542	44.85
602.878	44.91
603.215	44.96
603.551	45.02
603.887	45.07
604.223	45.12
604.56	45.17
604.896	45.21
605.232	45.25
605.568	45.3
605.904	45.34
606.24	45.38
606.576	45.42
606.912	45.46
607.248	45.5
607.583	45.55
607.919	45.59
608.255	45.63
608.591	45.67
608.926	45.71
609.262	45.73
609.597	45.77
609.933	45.81
610.268	45.84
610.604	45.86
610.939	45.9
611.275	45.93
611.61	45.97
611.945	45.98
612.281	46.01
612.616	46.04
612.951	46.07
613.286	46.11
613.621	46.14
613.956	46.18
614.291	46.2
614.626	46.23
614.961	46.27
615.296	46.3
615.631	46.35
615.966	46.38
616.3	46.41
616.635	46.43
616.97	46.47
617.304	46.5
617.639	46.52
617.973	46.56
618.308	46.58
618.642	46.62
618.977	46.65
619.311	46.69
619.646	46.73
619.98	46.76
620.314	46.79
620.648	46.83
620.983	46.88
621.317	46.92
621.651	46.96
621.985	46.98
622.319	47.01
622.653	47.02
622.987	47.06
623.321	47.08
623.655	47.1
623.988	47.13
624.322	47.16
624.656	47.19
624.99	47.22
625.323	47.24
625.657	47.27
625.99	47.29
626.324	47.31
626.657	47.33
626.991	47.36
627.324	47.39
627.658	47.4
627.991	47.42
628.324	47.44
628.657	47.46
628.991	47.49
629.324	47.51
629.657	47.54
629.99	47.56
630.323	47.59
630.656	47.6
630.989	47.62
631.322	47.64
631.655	47.66
631.987	47.69
632.32	47.71
632.653	47.72
632.986	47.74
633.318	47.76
633.651	47.79
633.984	47.8
634.316	47.82
634.649	47.83
634.981	47.85
635.313	47.87
635.646	47.88
635.978	47.9
636.31	47.94
636.643	47.95
636.975	47.98
637.307	48
637.639	48.03
637.971	48.06
638.303	48.06
638.635	48.08
638.967	48.11
639.299	48.12
639.631	48.15
639.963	48.18
640.295	48.2
640.626	48.22
640.958	48.25
641.29	48.28
641.621	48.31
641.953	48.33
642.285	48.34
642.616	48.36
642.948	48.36
643.279	48.36
643.61	48.38
643.942	48.39
644.273	48.42
644.604	48.44
644.936	48.46
645.267	48.48
645.598	48.5
645.929	48.52
646.26	48.55
646.591	48.55
646.922	48.57
647.253	48.59
647.584	48.62
647.915	48.64
648.245	48.65
648.576	48.66
648.907	48.67
649.238	48.7
649.568	48.72
649.899	48.73
650.229	48.76
650.56	48.77
650.89	48.79
651.221	48.79
651.551	48.8
651.882	48.83
652.212	48.84
652.542	48.86
652.872	48.87
653.203	48.89
653.533	48.9
653.863	48.89
654.193	48.92
654.523	48.92
654.853	48.94
655.183	48.97
655.513	48.97
655.843	49
656.172	49
656.502	49.02
656.832	49.05
657.162	49.05
657.491	49.06
657.821	49.07
658.15	49.09
658.48	49.11
658.809	49.12
659.139	49.13
659.468	49.15
659.798	49.17
660.127	49.2
660.456	49.2
660.785	49.21
661.115	49.23
661.444	49.24
661.773	49.27
662.102	49.28
662.431	49.3
662.76	49.32
663.089	49.33
663.418	49.35
663.747	49.36
664.076	49.37
664.404	49.38
664.733	49.41
665.062	49.42
665.39	49.44
665.719	49.46
666.048	49.48
666.376	49.51
666.705	49.55
667.033	49.56
667.362	49.59
667.69	49.59
668.018	49.61
668.347	49.61
668.675	49.62
669.003	49.65
669.331	49.67
669.659	49.69
669.987	49.7
670.315	49.71
670.643	49.74
670.971	49.76
671.299	49.78
671.627	49.78
671.955	49.78
672.283	49.8
672.61	49.81
