Data from UWBM59333_Reflection_00014.txt Node
Date: Sun May 02 13:49:19 EDT 2021
User: vgr7
Spectrometer: USB2G7710
Scans to average: 10
Trigger mode: 4
Integration Time (sec): 1.000000E-1
Electric dark correction enabled: true
Boxcar width: 20
XAxis mode: Wavelengths
Number of Pixels in Spectrum: 2048
>>>>>Begin Spectral Data<<<<<
177.721	41.3
178.105	62.18
178.488	65.12
178.871	92.19
179.254	69.55
179.636	68.67
180.019	53.02
180.402	44.53
180.785	39.53
181.168	40.7
181.55	37.87
181.933	38.28
182.316	33.15
182.698	34.17
183.081	33.74
183.463	32.22
183.846	28.55
184.228	28.62
184.611	26.29
184.993	23.86
185.376	24.87
185.758	30.59
186.14	30.54
186.522	26.52
186.904	25.6
187.287	25.54
187.669	26.01
188.051	26.33
188.433	27.66
188.815	26.1
189.197	24.4
189.579	24.56
189.961	24.71
190.342	23.83
190.724	25
191.106	26.2
191.488	27.41
191.869	26.66
192.251	24.95
192.633	24.93
193.014	25.91
193.396	26
193.777	25.09
194.159	25.83
194.54	22.79
194.922	21.41
195.303	21.63
195.684	21.92
196.065	22.71
196.447	22.71
196.828	21.85
197.209	20.96
197.59	19.52
197.971	18.67
198.352	19.62
198.733	20.13
199.114	20.85
199.495	22.51
199.876	21.9
200.257	22.3
200.638	22.33
201.018	22.69
201.399	22.82
201.78	21.98
202.16	22.73
202.541	23.11
202.922	23.77
203.302	22.71
203.683	23.37
204.063	23.08
204.444	23.51
204.824	23.6
205.204	23.23
205.585	23.8
205.965	26.28
206.345	25.07
206.725	24.34
207.106	23.22
207.486	23.56
207.866	23.33
208.246	22.79
208.626	21.5
209.006	20.5
209.386	20.98
209.766	19.2
210.145	18.93
210.525	20.02
210.905	20.56
211.285	18.7
211.664	18.34
212.044	18.01
212.424	17.66
212.803	18.62
213.183	19.26
213.562	21.39
213.942	21.07
214.321	20.02
214.701	18.04
215.08	18.17
215.459	19.05
215.838	17.99
216.218	18.85
216.597	17.28
216.976	16.01
217.355	15.76
217.734	15.57
218.113	14.76
218.492	13.82
218.871	13.97
219.25	14.51
219.629	14.9
220.008	14.2
220.387	12.73
220.766	14.15
221.144	12.19
221.523	10.83
221.902	10.62
222.28	10.34
222.659	10.12
223.037	8.99
223.416	9.18
223.794	9.02
224.173	8.89
224.551	8.82
224.929	9.42
225.308	9.89
225.686	10.43
226.064	10.13
226.442	9.99
226.821	10.95
227.199	11.03
227.577	11.01
227.955	11.09
228.333	10.74
228.711	10.06
229.089	9.44
229.467	8.86
229.845	9.15
230.222	9.51
230.6	9.08
230.978	8.71
231.356	8.82
231.733	8.63
232.111	8.45
232.488	8.12
232.866	8.07
233.243	8
233.621	7.9
233.998	7.77
234.376	7.49
234.753	6.96
235.13	6.73
235.508	6.65
235.885	6.68
236.262	6.36
236.639	6.31
237.016	6.21
237.393	6.16
237.77	6.09
238.147	5.95
238.524	5.87
238.901	5.79
239.278	5.8
239.655	5.72
240.032	5.61
240.409	5.46
240.785	5.35
241.162	5.29
241.539	5.28
241.915	5.24
242.292	5.18
242.668	5.14
243.045	5.11
243.421	5.07
243.798	5.06
244.174	5.1
244.551	5.1
244.927	5.08
245.303	5.09
245.679	5.04
246.056	5
246.432	5.01
246.808	4.98
247.184	5
247.56	5.01
247.936	4.99
248.312	4.95
248.688	4.92
249.064	4.89
249.44	4.89
249.815	4.85
250.191	4.82
250.567	4.84
250.943	4.81
251.318	4.77
251.694	4.77
252.069	4.74
252.445	4.72
252.82	4.68
253.196	4.65
253.571	4.62
253.947	4.63
254.322	4.59
254.697	4.55
255.073	4.53
255.448	4.54
255.823	4.5
256.198	4.5
256.573	4.48
256.948	4.47
257.323	4.44
257.698	4.41
258.073	4.37
258.448	4.35
258.823	4.33
259.198	4.3
259.573	4.27
259.948	4.26
260.322	4.25
260.697	4.2
261.072	4.18
261.446	4.18
261.821	4.16
262.195	4.15
262.57	4.11
262.944	4.1
263.319	4.12
263.693	4.13
264.067	4.12
264.442	4.12
264.816	4.11
265.19	4.13
265.564	4.13
265.938	4.11
266.313	4.11
266.687	4.1
267.061	4.08
267.435	4.08
267.809	4.06
268.183	4.07
268.556	4.08
268.93	4.08
269.304	4.08
269.678	4.09
270.051	4.09
270.425	4.07
270.799	4.06
271.172	4.06
271.546	4.06
271.919	4.06
272.293	4.05
272.666	4.04
273.04	4.04
273.413	4.08
273.787	4.11
274.16	4.12
274.533	4.13
274.906	4.13
275.279	4.12
275.653	4.13
276.026	4.13
276.399	4.14
276.772	4.14
277.145	4.14
277.518	4.14
277.891	4.16
278.263	4.16
278.636	4.15
279.009	4.15
279.382	4.14
279.755	4.16
280.127	4.16
280.5	4.17
280.872	4.18
281.245	4.19
281.617	4.19
281.99	4.22
282.362	4.22
282.735	4.22
283.107	4.25
283.479	4.23
283.852	4.25
284.224	4.26
284.596	4.25
284.968	4.25
285.34	4.25
285.713	4.26
286.085	4.27
286.457	4.28
286.829	4.29
287.201	4.29
287.572	4.3
287.944	4.32
288.316	4.31
288.688	4.29
289.06	4.31
289.431	4.32
289.803	4.32
290.175	4.33
290.546	4.34
290.918	4.37
291.289	4.39
291.661	4.4
292.032	4.41
292.403	4.42
292.775	4.44
293.146	4.44
293.517	4.46
293.889	4.48
294.26	4.51
294.631	4.53
295.002	4.56
295.373	4.57
295.744	4.59
296.115	4.6
296.486	4.63
296.857	4.66
297.228	4.68
297.599	4.72
297.97	4.74
298.34	4.74
298.711	4.78
299.082	4.8
299.452	4.84
299.823	4.88
300.194	4.9
300.564	4.94
300.935	4.97
301.305	5.01
301.676	5.04
302.046	5.07
302.416	5.1
302.787	5.13
303.157	5.17
303.527	5.21
303.897	5.26
304.267	5.3
304.637	5.34
305.008	5.4
305.378	5.45
305.748	5.51
306.117	5.55
306.487	5.6
306.857	5.65
307.227	5.71
307.597	5.77
307.967	5.83
308.336	5.88
308.706	5.91
309.076	5.94
309.445	5.98
309.815	6.03
310.184	6.07
310.554	6.11
310.923	6.17
311.293	6.21
311.662	6.24
312.031	6.29
312.401	6.34
312.77	6.38
313.139	6.44
313.508	6.5
313.877	6.55
314.246	6.6
314.616	6.63
314.985	6.68
315.353	6.74
315.722	6.77
316.091	6.84
316.46	6.88
316.829	6.94
317.198	7
317.567	7.06
317.935	7.12
318.304	7.18
318.672	7.24
319.041	7.32
319.41	7.39
319.778	7.45
320.147	7.49
320.515	7.53
320.883	7.57
321.252	7.63
321.62	7.68
321.988	7.74
322.357	7.8
322.725	7.85
323.093	7.87
323.461	7.9
323.829	7.97
324.197	8.02
324.565	8.04
324.933	8.08
325.301	8.12
325.669	8.16
326.037	8.18
326.405	8.24
326.772	8.27
327.14	8.3
327.508	8.32
327.875	8.34
328.243	8.36
328.61	8.39
328.978	8.4
329.346	8.41
329.713	8.46
330.08	8.48
330.448	8.49
330.815	8.52
331.182	8.54
331.55	8.58
331.917	8.6
332.284	8.61
332.651	8.64
333.018	8.69
333.385	8.71
333.752	8.74
334.119	8.76
334.486	8.78
334.853	8.79
335.22	8.83
335.587	8.87
335.954	8.92
336.32	8.93
336.687	8.96
337.054	8.97
337.42	8.99
337.787	9
338.153	9.04
338.52	9.07
338.886	9.07
339.253	9.09
339.619	9.12
339.986	9.14
340.352	9.17
340.718	9.18
341.084	9.2
341.451	9.22
341.817	9.24
342.183	9.26
342.549	9.28
342.915	9.3
343.281	9.32
343.647	9.34
344.013	9.35
344.379	9.38
344.745	9.38
345.11	9.4
345.476	9.42
345.842	9.44
346.208	9.45
346.573	9.44
346.939	9.46
347.304	9.47
347.67	9.48
348.035	9.48
348.401	9.49
348.766	9.5
349.132	9.5
349.497	9.51
349.862	9.53
350.228	9.53
350.593	9.53
350.958	9.53
351.323	9.52
351.688	9.53
352.053	9.53
352.418	9.53
352.783	9.51
353.148	9.5
353.513	9.49
353.878	9.48
354.243	9.46
354.608	9.46
354.972	9.44
355.337	9.42
355.702	9.41
356.066	9.4
356.431	9.38
356.795	9.37
357.16	9.36
357.524	9.35
357.889	9.33
358.253	9.32
358.618	9.3
358.982	9.27
359.346	9.26
359.71	9.23
360.075	9.21
360.439	9.18
360.803	9.16
361.167	9.14
361.531	9.11
361.895	9.09
362.259	9.06
362.623	9.03
362.987	9
363.351	8.98
363.714	8.94
364.078	8.91
364.442	8.87
364.806	8.83
365.169	8.79
365.533	8.76
365.896	8.72
366.26	8.69
366.623	8.64
366.987	8.6
367.35	8.56
367.714	8.53
368.077	8.49
368.44	8.44
368.803	8.4
369.167	8.35
369.53	8.29
369.893	8.24
370.256	8.19
370.619	8.13
370.982	8.08
371.345	8.02
371.708	7.96
372.071	7.9
372.434	7.84
372.797	7.79
373.159	7.74
373.522	7.69
373.885	7.64
374.247	7.58
374.61	7.52
374.973	7.47
375.335	7.42
375.698	7.36
376.06	7.3
376.423	7.25
376.785	7.2
377.147	7.15
377.51	7.1
377.872	7.04
378.234	6.98
378.596	6.93
378.958	6.87
379.321	6.82
379.683	6.78
380.045	6.73
380.407	6.68
380.769	6.64
381.13	6.59
381.492	6.54
381.854	6.49
382.216	6.44
382.578	6.39
382.939	6.35
383.301	6.31
383.663	6.27
384.024	6.23
384.386	6.19
384.747	6.15
385.109	6.11
385.47	6.07
385.832	6.03
386.193	5.98
386.554	5.94
386.916	5.9
387.277	5.87
387.638	5.82
387.999	5.79
388.36	5.75
388.721	5.72
389.082	5.69
389.443	5.66
389.804	5.62
390.165	5.59
390.526	5.56
390.887	5.53
391.248	5.5
391.609	5.47
391.969	5.44
392.33	5.41
392.691	5.38
393.051	5.35
393.412	5.33
393.772	5.29
394.133	5.26
394.493	5.23
394.854	5.2
395.214	5.17
395.574	5.14
395.935	5.11
396.295	5.08
396.655	5.05
397.015	5.02
397.376	5
397.736	4.97
398.096	4.94
398.456	4.9
398.816	4.88
399.176	4.85
399.535	4.82
399.895	4.79
400.255	4.77
400.615	4.75
400.975	4.72
401.334	4.7
401.694	4.67
402.054	4.65
402.413	4.63
402.773	4.6
403.132	4.59
403.492	4.57
403.851	4.55
404.211	4.53
404.57	4.52
404.929	4.5
405.288	4.48
405.648	4.47
406.007	4.46
406.366	4.44
406.725	4.43
407.084	4.42
407.443	4.4
407.802	4.39
408.161	4.38
408.52	4.37
408.879	4.36
409.238	4.35
409.596	4.34
409.955	4.33
410.314	4.32
410.673	4.31
411.031	4.31
411.39	4.3
411.748	4.3
412.107	4.29
412.465	4.29
412.824	4.3
413.182	4.32
413.54	4.33
413.899	4.34
414.257	4.37
414.615	4.4
414.974	4.42
415.332	4.45
415.69	4.48
416.048	4.5
416.406	4.54
416.764	4.55
417.122	4.57
417.48	4.6
417.838	4.62
418.195	4.63
418.553	4.65
418.911	4.65
419.269	4.65
419.626	4.64
419.984	4.63
420.342	4.61
420.699	4.59
421.057	4.56
421.414	4.53
421.772	4.51
422.129	4.5
422.486	4.49
422.844	4.47
423.201	4.46
423.558	4.45
423.915	4.45
424.273	4.44
424.63	4.43
424.987	4.42
425.344	4.41
425.701	4.41
426.058	4.4
426.415	4.4
426.772	4.39
427.128	4.37
427.485	4.35
427.842	4.34
428.199	4.31
428.555	4.29
428.912	4.26
429.269	4.23
429.625	4.2
429.982	4.17
430.338	4.14
430.695	4.11
431.051	4.07
431.407	4.04
431.764	4.02
432.12	4
432.476	3.98
432.832	3.97
433.189	3.97
433.545	3.97
433.901	3.99
434.257	4
434.613	4.03
434.969	4.05
435.325	4.08
435.681	4.11
436.036	4.14
436.392	4.16
436.748	4.18
437.104	4.18
437.459	4.2
437.815	4.22
438.171	4.24
438.526	4.27
438.882	4.3
439.237	4.34
439.593	4.37
439.948	4.4
440.304	4.44
440.659	4.46
441.014	4.48
441.369	4.5
441.725	4.52
442.08	4.54
442.435	4.55
442.79	4.55
443.145	4.55
443.5	4.55
443.855	4.55
444.21	4.55
444.565	4.54
444.92	4.53
445.275	4.52
445.629	4.51
445.984	4.5
446.339	4.48
446.693	4.47
447.048	4.45
447.403	4.43
447.757	4.4
448.112	4.38
448.466	4.35
448.82	4.33
449.175	4.3
449.529	4.28
449.883	4.25
450.238	4.22
450.592	4.22
450.946	4.2
451.3	4.19
451.654	4.2
452.008	4.19
452.362	4.2
452.716	4.19
453.07	4.19
453.424	4.18
453.778	4.16
454.132	4.15
454.486	4.14
454.839	4.12
455.193	4.09
455.547	4.08
455.9	4.05
456.254	4.03
456.607	4
456.961	3.97
457.314	3.95
457.668	3.94
458.021	3.94
458.375	3.93
458.728	3.94
459.081	3.94
459.434	3.95
459.787	3.96
460.141	3.97
460.494	3.98
460.847	3.98
461.2	3.99
461.553	4
461.906	4.01
462.259	4.02
462.611	4.02
462.964	4.03
463.317	4.04
463.67	4.05
464.022	4.06
464.375	4.07
464.728	4.08
465.08	4.09
465.433	4.09
465.785	4.1
466.138	4.09
466.49	4.08
466.843	4.07
467.195	4.05
467.547	4.04
467.899	4.02
468.252	4
468.604	3.99
468.956	3.98
469.308	3.97
469.66	3.97
470.012	3.97
470.364	3.98
470.716	3.99
471.068	4.01
471.42	4.04
471.772	4.06
472.123	4.08
472.475	4.09
472.827	4.11
473.178	4.12
473.53	4.14
473.882	4.15
474.233	4.18
474.585	4.21
474.936	4.28
475.288	4.37
475.639	4.48
475.99	4.61
476.342	4.75
476.693	4.91
477.044	5.07
477.395	5.23
477.746	5.4
478.097	5.57
478.448	5.74
478.8	5.9
479.15	6.05
479.501	6.2
479.852	6.32
480.203	6.44
480.554	6.56
480.905	6.67
481.255	6.77
481.606	6.87
481.957	6.97
482.307	7.06
482.658	7.14
483.009	7.22
483.359	7.3
483.709	7.38
484.06	7.45
484.41	7.52
484.761	7.59
485.111	7.66
485.461	7.72
485.811	7.78
486.162	7.84
486.512	7.88
486.862	7.92
487.212	7.94
487.562	7.96
487.912	7.97
488.262	7.97
488.612	7.97
488.961	7.95
489.311	7.91
489.661	7.84
490.011	7.76
490.36	7.66
490.71	7.54
491.06	7.42
491.409	7.29
491.759	7.15
492.108	7
492.458	6.86
492.807	6.71
493.157	6.56
493.506	6.41
493.855	6.28
494.204	6.16
494.554	6.04
494.903	5.93
495.252	5.83
495.601	5.74
495.95	5.64
496.299	5.56
496.648	5.48
496.997	5.41
497.346	5.35
497.695	5.29
498.043	5.24
498.392	5.19
498.741	5.14
499.09	5.1
499.438	5.06
499.787	5.03
500.135	5.01
500.484	4.99
500.832	4.99
501.181	5
501.529	5.03
501.878	5.08
502.226	5.12
502.574	5.18
502.923	5.24
503.271	5.31
503.619	5.38
503.967	5.46
504.315	5.53
504.663	5.61
505.011	5.69
505.359	5.77
505.707	5.85
506.055	5.94
506.403	6.03
506.751	6.12
507.098	6.23
507.446	6.33
507.794	6.44
508.141	6.56
508.489	6.68
508.837	6.81
509.184	6.94
509.531	7.08
509.879	7.23
510.226	7.39
510.574	7.56
510.921	7.74
511.268	7.92
511.616	8.11
511.963	8.3
512.31	8.5
512.657	8.7
513.004	8.89
513.351	9.08
513.698	9.27
514.045	9.44
514.392	9.61
514.739	9.78
515.086	9.94
515.432	10.09
515.779	10.25
516.126	10.41
516.473	10.59
516.819	10.78
517.166	10.99
517.512	11.22
517.859	11.46
518.205	11.73
518.552	12.01
518.898	12.31
519.245	12.66
519.591	13.07
519.937	13.55
520.283	14.1
520.629	14.7
520.976	15.34
521.322	16
521.668	16.68
522.014	17.37
522.36	18.07
522.706	18.74
523.052	19.41
523.398	20.03
523.743	20.61
524.089	21.15
524.435	21.65
524.781	22.15
525.126	22.64
525.472	23.12
525.817	23.59
526.163	24.05
526.509	24.51
526.854	24.97
527.199	25.42
527.545	25.87
527.89	26.33
528.235	26.79
528.581	27.23
528.926	27.65
529.271	28.05
529.616	28.43
529.961	28.81
530.306	29.17
530.651	29.5
530.996	29.81
531.341	30.09
531.686	30.36
532.031	30.61
532.376	30.89
532.721	31.19
533.065	31.53
533.41	31.87
533.755	32.19
534.099	32.48
534.444	32.73
534.788	32.96
535.133	33.17
535.477	33.35
535.822	33.5
536.166	33.62
536.51	33.68
536.855	33.69
537.199	33.67
537.543	33.65
537.887	33.66
538.231	33.7
538.576	33.75
538.92	33.77
539.264	33.79
539.608	33.78
539.951	33.75
540.295	33.72
540.639	33.67
540.983	33.61
541.327	33.52
541.671	33.42
542.014	33.36
542.358	33.3
542.701	33.31
543.045	33.39
543.389	33.49
543.732	33.62
544.075	33.76
544.419	33.92
544.762	34.09
545.105	34.27
545.449	34.47
545.792	34.67
546.135	34.87
546.478	35.03
546.821	35.15
547.165	35.21
547.508	35.21
547.851	35.17
548.194	35.09
548.536	34.96
548.879	34.79
549.222	34.6
549.565	34.41
549.908	34.23
550.25	34.06
550.593	33.96
550.936	33.93
551.278	33.94
551.621	34
551.963	34.08
552.306	34.17
552.648	34.31
552.991	34.47
553.333	34.65
553.675	34.86
554.017	35.11
554.36	35.38
554.702	35.68
555.044	36.02
555.386	36.41
555.728	36.83
556.07	37.2
556.412	37.57
556.754	37.88
557.096	38.11
557.438	38.36
557.78	38.61
558.121	38.86
558.463	39.11
558.805	39.37
559.147	39.62
559.488	39.86
559.83	40.12
560.171	40.36
560.513	40.6
560.854	40.83
561.196	41.06
561.537	41.28
561.878	41.5
562.22	41.71
562.561	41.92
562.902	42.13
563.243	42.35
563.584	42.56
563.925	42.77
564.266	42.98
564.607	43.18
564.948	43.39
565.289	43.58
565.63	43.78
565.971	43.98
566.312	44.17
566.653	44.35
566.993	44.54
567.334	44.71
567.675	44.88
568.015	45.05
568.356	45.22
568.696	45.38
569.037	45.54
569.377	45.68
569.718	45.83
570.058	45.96
570.398	46.11
570.739	46.25
571.079	46.38
571.419	46.51
571.759	46.63
572.099	46.75
572.439	46.87
572.779	46.99
573.119	47.1
573.459	47.22
573.799	47.32
574.139	47.43
574.479	47.54
574.819	47.66
575.158	47.77
575.498	47.88
575.838	47.98
576.177	48.08
576.517	48.19
576.856	48.29
577.196	48.38
577.535	48.47
577.875	48.58
578.214	48.67
578.553	48.76
578.893	48.85
579.232	48.95
579.571	49.04
579.91	49.13
580.25	49.22
580.589	49.33
580.928	49.43
581.267	49.53
581.606	49.63
581.945	49.73
582.283	49.82
582.622	49.91
582.961	50
583.3	50.1
583.639	50.2
583.977	50.3
584.316	50.39
584.654	50.48
584.993	50.58
585.332	50.68
585.67	50.77
586.008	50.86
586.347	50.94
586.685	51.03
587.024	51.13
587.362	51.21
587.7	51.3
588.038	51.41
588.376	51.51
588.715	51.6
589.053	51.69
589.391	51.78
589.729	51.88
590.067	51.99
590.404	52.09
590.742	52.18
591.08	52.27
591.418	52.37
591.756	52.44
592.093	52.52
592.431	52.6
592.769	52.67
593.106	52.74
593.444	52.81
593.781	52.87
594.119	52.94
594.456	52.99
594.793	53.06
595.131	53.11
595.468	53.17
595.805	53.23
596.143	53.31
596.48	53.39
596.817	53.48
597.154	53.57
597.491	53.63
597.828	53.71
598.165	53.79
598.502	53.85
598.839	53.92
599.176	53.98
599.512	54.05
599.849	54.11
600.186	54.17
600.523	54.23
600.859	54.27
601.196	54.32
601.532	54.36
601.869	54.4
602.205	54.45
602.542	54.5
602.878	54.54
603.215	54.59
603.551	54.64
603.887	54.68
604.223	54.73
604.56	54.78
604.896	54.82
605.232	54.84
605.568	54.89
605.904	54.93
606.24	54.95
606.576	54.99
606.912	55.02
607.248	55.06
607.583	55.09
607.919	55.12
608.255	55.15
608.591	55.2
608.926	55.23
609.262	55.25
609.597	55.28
609.933	55.3
610.268	55.33
610.604	55.34
610.939	55.35
611.275	55.38
611.61	55.39
611.945	55.41
612.281	55.45
612.616	55.46
612.951	55.48
613.286	55.5
613.621	55.53
613.956	55.55
614.291	55.58
614.626	55.6
614.961	55.64
615.296	55.67
615.631	55.7
615.966	55.71
616.3	55.73
616.635	55.77
616.97	55.8
617.304	55.81
617.639	55.82
617.973	55.83
618.308	55.85
618.642	55.88
618.977	55.91
619.311	55.94
619.646	55.98
619.98	56
620.314	56.01
620.648	56.05
620.983	56.09
621.317	56.12
621.651	56.16
621.985	56.18
622.319	56.19
622.653	56.23
622.987	56.26
623.321	56.29
623.655	56.32
623.988	56.34
624.322	56.36
624.656	56.38
624.99	56.4
625.323	56.42
625.657	56.44
625.99	56.46
626.324	56.49
626.657	56.51
626.991	56.52
627.324	56.53
627.658	56.55
627.991	56.58
628.324	56.59
628.657	56.61
628.991	56.64
629.324	56.67
629.657	56.7
629.99	56.71
630.323	56.74
630.656	56.75
630.989	56.77
631.322	56.79
631.655	56.81
631.987	56.83
632.32	56.85
632.653	56.88
632.986	56.9
633.318	56.91
633.651	56.93
633.984	56.96
634.316	56.97
634.649	56.97
634.981	56.98
635.313	57
635.646	57.02
635.978	57.03
636.31	57.05
636.643	57.06
636.975	57.09
637.307	57.1
637.639	57.13
637.971	57.15
638.303	57.19
638.635	57.21
638.967	57.22
639.299	57.23
639.631	57.26
639.963	57.26
640.295	57.27
640.626	57.29
640.958	57.33
641.29	57.36
641.621	57.37
641.953	57.4
642.285	57.43
642.616	57.44
642.948	57.46
643.279	57.46
643.61	57.49
643.942	57.5
644.273	57.52
644.604	57.55
644.936	57.58
645.267	57.59
645.598	57.62
645.929	57.66
646.26	57.68
646.591	57.7
646.922	57.71
647.253	57.73
647.584	57.75
647.915	57.78
648.245	57.82
648.576	57.85
648.907	57.86
649.238	57.89
649.568	57.9
649.899	57.92
650.229	57.95
650.56	57.95
650.89	57.96
651.221	57.97
651.551	57.99
651.882	57.98
652.212	58
652.542	58.03
652.872	58.05
653.203	58.06
653.533	58.09
653.863	58.11
654.193	58.13
654.523	58.14
654.853	58.16
655.183	58.18
655.513	58.19
655.843	58.2
656.172	58.22
656.502	58.22
656.832	58.25
657.162	58.27
657.491	58.29
657.821	58.31
658.15	58.33
658.48	58.35
658.809	58.38
659.139	58.39
659.468	58.38
659.798	58.39
660.127	58.42
660.456	58.45
660.785	58.46
661.115	58.47
661.444	58.48
661.773	58.5
662.102	58.51
662.431	58.53
662.76	58.54
663.089	58.56
663.418	58.58
663.747	58.59
664.076	58.62
664.404	58.64
664.733	58.65
665.062	58.67
665.39	58.71
665.719	58.72
666.048	58.73
666.376	58.76
666.705	58.77
667.033	58.78
667.362	58.8
667.69	58.82
668.018	58.83
668.347	58.85
668.675	58.87
669.003	58.89
669.331	58.9
669.659	58.92
669.987	58.94
670.315	58.94
670.643	58.94
