Data from UWBM109429_Reflection_00011.txt Node
Date: Sun May 02 13:54:58 EDT 2021
User: vgr7
Spectrometer: USB2G7710
Scans to average: 10
Trigger mode: 4
Integration Time (sec): 1.000000E-1
Electric dark correction enabled: true
Boxcar width: 20
XAxis mode: Wavelengths
Number of Pixels in Spectrum: 2048
>>>>>Begin Spectral Data<<<<<
177.721	139.38
178.105	160.1
178.488	149.3
178.871	121.66
179.254	92.78
179.636	82.25
180.019	69.45
180.402	72.04
180.785	62.5
181.168	56.95
181.55	47.65
181.933	43.91
182.316	42.3
182.698	39.52
183.081	36.93
183.463	35.36
183.846	34.93
184.228	34.4
184.611	29.27
184.993	29.45
185.376	29.42
185.758	30.2
186.14	30.34
186.522	31.54
186.904	29.92
187.287	29.17
187.669	28.57
188.051	28.32
188.433	28.72
188.815	29.66
189.197	29.6
189.579	29.78
189.961	28.39
190.342	27.06
190.724	27.64
191.106	27.24
191.488	27.73
191.869	28.46
192.251	26.01
192.633	25.74
193.014	24.99
193.396	22.11
193.777	23.5
194.159	23.8
194.54	23.82
194.922	22.27
195.303	21.54
195.684	20.78
196.065	20.18
196.447	21.46
196.828	21.56
197.209	21.45
197.59	19.43
197.971	19.93
198.352	19.66
198.733	20.84
199.114	20.12
199.495	19.66
199.876	19.97
200.257	21.56
200.638	21.33
201.018	21.92
201.399	21.67
201.78	21.34
202.16	20.47
202.541	20.07
202.922	18.32
203.302	18.95
203.683	19.4
204.063	20.58
204.444	21.67
204.824	22.01
205.204	22.06
205.585	22.21
205.965	22.19
206.345	21.59
206.725	22.89
207.106	21.45
207.486	20.36
207.866	21.13
208.246	19.35
208.626	19.29
209.006	19.13
209.386	17.32
209.766	15.21
210.145	15.11
210.525	16.45
210.905	16.6
211.285	15.88
211.664	15.09
212.044	14.18
212.424	12.32
212.803	12.99
213.183	13.74
213.562	13.51
213.942	13.36
214.321	12.1
214.701	12.69
215.08	13.25
215.459	12.88
215.838	12.38
216.218	11.89
216.597	10.24
216.976	11.14
217.355	11.14
217.734	11.43
218.113	11.52
218.492	12.17
218.871	11.4
219.25	10.76
219.629	9.69
220.008	7.52
220.387	5.94
220.766	6.33
221.144	6.1
221.523	6.91
221.902	7.11
222.28	6.43
222.659	6.99
223.037	7.3
223.416	7.4
223.794	7.78
224.173	7.76
224.551	6.99
224.929	7.93
225.308	8.7
225.686	9.07
226.064	9.1
226.442	9.24
226.821	9.85
227.199	10.06
227.577	9.83
227.955	10.17
228.333	10.28
228.711	9.94
229.089	9.27
229.467	8.91
229.845	8.81
230.222	8.82
230.6	8.87
230.978	8.8
231.356	8.99
231.733	8.81
232.111	8.78
232.488	8.38
232.866	7.97
233.243	7.76
233.621	7.75
233.998	7.73
234.376	7.74
234.753	7.33
235.13	7.21
235.508	7.26
235.885	7.14
236.262	6.83
236.639	6.73
237.016	6.52
237.393	6.39
237.77	6.36
238.147	6.22
238.524	6.15
238.901	6.05
239.278	6.05
239.655	5.96
240.032	5.94
240.409	5.8
240.785	5.76
241.162	5.66
241.539	5.57
241.915	5.58
242.292	5.54
242.668	5.56
243.045	5.59
243.421	5.57
243.798	5.54
244.174	5.55
244.551	5.57
244.927	5.59
245.303	5.63
245.679	5.6
246.056	5.52
246.432	5.51
246.808	5.45
247.184	5.45
247.56	5.46
247.936	5.46
248.312	5.47
248.688	5.46
249.064	5.45
249.44	5.44
249.815	5.38
250.191	5.37
250.567	5.39
250.943	5.37
251.318	5.35
251.694	5.36
252.069	5.35
252.445	5.33
252.82	5.31
253.196	5.24
253.571	5.26
253.947	5.22
254.322	5.18
254.697	5.14
255.073	5.12
255.448	5.11
255.823	5.08
256.198	5.05
256.573	5.05
256.948	5.05
257.323	5.01
257.698	4.97
258.073	4.92
258.448	4.88
258.823	4.86
259.198	4.84
259.573	4.83
259.948	4.82
260.322	4.79
260.697	4.75
261.072	4.73
261.446	4.74
261.821	4.74
262.195	4.72
262.57	4.71
262.944	4.71
263.319	4.69
263.693	4.68
264.067	4.67
264.442	4.63
264.816	4.58
265.19	4.6
265.564	4.62
265.938	4.58
266.313	4.57
266.687	4.56
267.061	4.54
267.435	4.52
267.809	4.5
268.183	4.5
268.556	4.51
268.93	4.48
269.304	4.48
269.678	4.49
270.051	4.49
270.425	4.47
270.799	4.47
271.172	4.49
271.546	4.5
271.919	4.5
272.293	4.49
272.666	4.49
273.04	4.5
273.413	4.53
273.787	4.54
274.16	4.53
274.533	4.53
274.906	4.54
275.279	4.53
275.653	4.54
276.026	4.55
276.399	4.55
276.772	4.56
277.145	4.53
277.518	4.54
277.891	4.54
278.263	4.52
278.636	4.54
279.009	4.53
279.382	4.53
279.755	4.55
280.127	4.58
280.5	4.6
280.872	4.6
281.245	4.62
281.617	4.62
281.99	4.64
282.362	4.65
282.735	4.67
283.107	4.68
283.479	4.67
283.852	4.68
284.224	4.7
284.596	4.69
284.968	4.69
285.34	4.69
285.713	4.71
286.085	4.73
286.457	4.72
286.829	4.73
287.201	4.74
287.572	4.76
287.944	4.77
288.316	4.79
288.688	4.79
289.06	4.82
289.431	4.85
289.803	4.87
290.175	4.89
290.546	4.93
290.918	4.97
291.289	5
291.661	5.02
292.032	5.04
292.403	5.08
292.775	5.11
293.146	5.13
293.517	5.16
293.889	5.19
294.26	5.23
294.631	5.27
295.002	5.31
295.373	5.33
295.744	5.35
296.115	5.38
296.486	5.43
296.857	5.47
297.228	5.5
297.599	5.55
297.97	5.59
298.34	5.62
298.711	5.69
299.082	5.72
299.452	5.77
299.823	5.81
300.194	5.86
300.564	5.92
300.935	5.96
301.305	6.01
301.676	6.06
302.046	6.11
302.416	6.16
302.787	6.21
303.157	6.25
303.527	6.31
303.897	6.37
304.267	6.42
304.637	6.48
305.008	6.54
305.378	6.61
305.748	6.66
306.117	6.71
306.487	6.79
306.857	6.85
307.227	6.92
307.597	7
307.967	7.06
308.336	7.13
308.706	7.18
309.076	7.22
309.445	7.28
309.815	7.33
310.184	7.39
310.554	7.43
310.923	7.49
311.293	7.53
311.662	7.57
312.031	7.62
312.401	7.67
312.77	7.72
313.139	7.76
313.508	7.82
313.877	7.85
314.246	7.92
314.616	7.96
314.985	8.02
315.353	8.07
315.722	8.1
316.091	8.17
316.46	8.2
316.829	8.25
317.198	8.3
317.567	8.35
317.935	8.42
318.304	8.47
318.672	8.52
319.041	8.58
319.41	8.63
319.778	8.69
320.147	8.73
320.515	8.77
320.883	8.81
321.252	8.86
321.62	8.9
321.988	8.95
322.357	8.98
322.725	9.01
323.093	9.04
323.461	9.07
323.829	9.11
324.197	9.15
324.565	9.18
324.933	9.22
325.301	9.23
325.669	9.28
326.037	9.31
326.405	9.34
326.772	9.36
327.14	9.38
327.508	9.4
327.875	9.44
328.243	9.46
328.61	9.48
328.978	9.5
329.346	9.51
329.713	9.56
330.08	9.57
330.448	9.58
330.815	9.58
331.182	9.59
331.55	9.63
331.917	9.65
332.284	9.65
332.651	9.67
333.018	9.69
333.385	9.71
333.752	9.73
334.119	9.76
334.486	9.77
334.853	9.8
335.22	9.82
335.587	9.84
335.954	9.86
336.32	9.88
336.687	9.9
337.054	9.92
337.42	9.94
337.787	9.97
338.153	9.99
338.52	10.01
338.886	10.02
339.253	10.05
339.619	10.06
339.986	10.07
340.352	10.08
340.718	10.09
341.084	10.09
341.451	10.1
341.817	10.12
342.183	10.15
342.549	10.17
342.915	10.16
343.281	10.19
343.647	10.19
344.013	10.2
344.379	10.21
344.745	10.21
345.11	10.23
345.476	10.25
345.842	10.26
346.208	10.28
346.573	10.28
346.939	10.29
347.304	10.31
347.67	10.31
348.035	10.32
348.401	10.33
348.766	10.34
349.132	10.33
349.497	10.34
349.862	10.34
350.228	10.34
350.593	10.34
350.958	10.35
351.323	10.35
351.688	10.34
352.053	10.33
352.418	10.34
352.783	10.31
353.148	10.3
353.513	10.29
353.878	10.28
354.243	10.26
354.608	10.26
354.972	10.24
355.337	10.23
355.702	10.22
356.066	10.21
356.431	10.21
356.795	10.19
357.16	10.16
357.524	10.15
357.889	10.14
358.253	10.12
358.618	10.1
358.982	10.08
359.346	10.06
359.71	10.03
360.075	10.02
360.439	9.99
360.803	9.97
361.167	9.95
361.531	9.92
361.895	9.89
362.259	9.86
362.623	9.83
362.987	9.81
363.351	9.78
363.714	9.74
364.078	9.71
364.442	9.68
364.806	9.65
365.169	9.62
365.533	9.59
365.896	9.55
366.26	9.52
366.623	9.48
366.987	9.44
367.35	9.39
367.714	9.36
368.077	9.33
368.44	9.28
368.803	9.23
369.167	9.18
369.53	9.13
369.893	9.08
370.256	9.03
370.619	8.97
370.982	8.92
371.345	8.86
371.708	8.8
372.071	8.75
372.434	8.7
372.797	8.64
373.159	8.59
373.522	8.54
373.885	8.5
374.247	8.44
374.61	8.39
374.973	8.33
375.335	8.27
375.698	8.21
376.06	8.15
376.423	8.1
376.785	8.05
377.147	8
377.51	7.94
377.872	7.89
378.234	7.84
378.596	7.78
378.958	7.73
379.321	7.67
379.683	7.62
380.045	7.56
380.407	7.52
380.769	7.47
381.13	7.41
381.492	7.37
381.854	7.33
382.216	7.28
382.578	7.23
382.939	7.19
383.301	7.14
383.663	7.09
384.024	7.05
384.386	7.01
384.747	6.97
385.109	6.93
385.47	6.88
385.832	6.83
386.193	6.79
386.554	6.75
386.916	6.71
387.277	6.67
387.638	6.64
387.999	6.6
388.36	6.57
388.721	6.53
389.082	6.49
389.443	6.46
389.804	6.43
390.165	6.39
390.526	6.36
390.887	6.33
391.248	6.3
391.609	6.26
391.969	6.23
392.33	6.2
392.691	6.17
393.051	6.14
393.412	6.11
393.772	6.08
394.133	6.04
394.493	6
394.854	5.97
395.214	5.93
395.574	5.9
395.935	5.87
396.295	5.83
396.655	5.79
397.015	5.76
397.376	5.73
397.736	5.69
398.096	5.66
398.456	5.63
398.816	5.6
399.176	5.57
399.535	5.54
399.895	5.51
400.255	5.48
400.615	5.45
400.975	5.42
401.334	5.39
401.694	5.36
402.054	5.33
402.413	5.3
402.773	5.28
403.132	5.25
403.492	5.23
403.851	5.21
404.211	5.19
404.57	5.17
404.929	5.15
405.288	5.13
405.648	5.11
406.007	5.1
406.366	5.09
406.725	5.07
407.084	5.05
407.443	5.04
407.802	5.02
408.161	5
408.52	4.99
408.879	4.98
409.238	4.97
409.596	4.96
409.955	4.94
410.314	4.94
410.673	4.92
411.031	4.92
411.39	4.91
411.748	4.9
412.107	4.89
412.465	4.89
412.824	4.9
413.182	4.91
413.54	4.93
413.899	4.95
414.257	4.98
414.615	5.01
414.974	5.03
415.332	5.06
415.69	5.09
416.048	5.12
416.406	5.16
416.764	5.18
417.122	5.2
417.48	5.23
417.838	5.25
418.195	5.26
418.553	5.27
418.911	5.28
419.269	5.28
419.626	5.26
419.984	5.24
420.342	5.22
420.699	5.19
421.057	5.16
421.414	5.13
421.772	5.11
422.129	5.09
422.486	5.08
422.844	5.06
423.201	5.05
423.558	5.04
423.915	5.04
424.273	5.03
424.63	5.02
424.987	5.01
425.344	5
425.701	4.99
426.058	4.98
426.415	4.98
426.772	4.97
427.128	4.96
427.485	4.93
427.842	4.91
428.199	4.89
428.555	4.86
428.912	4.83
429.269	4.79
429.625	4.76
429.982	4.72
430.338	4.68
430.695	4.65
431.051	4.6
431.407	4.58
431.764	4.55
432.12	4.52
432.476	4.51
432.832	4.5
433.189	4.5
433.545	4.5
433.901	4.51
434.257	4.53
434.613	4.56
434.969	4.58
435.325	4.61
435.681	4.65
436.036	4.67
436.392	4.7
436.748	4.71
437.104	4.72
437.459	4.74
437.815	4.76
438.171	4.78
438.526	4.81
438.882	4.84
439.237	4.88
439.593	4.92
439.948	4.95
440.304	4.99
440.659	5.01
441.014	5.03
441.369	5.07
441.725	5.08
442.08	5.1
442.435	5.11
442.79	5.12
443.145	5.12
443.5	5.11
443.855	5.12
444.21	5.11
444.565	5.11
444.92	5.09
445.275	5.08
445.629	5.07
445.984	5.05
446.339	5.04
446.693	5.02
447.048	5
447.403	4.98
447.757	4.94
448.112	4.92
448.466	4.88
448.82	4.85
449.175	4.82
449.529	4.8
449.883	4.77
450.238	4.74
450.592	4.73
450.946	4.71
451.3	4.71
451.654	4.71
452.008	4.71
452.362	4.71
452.716	4.71
453.07	4.7
453.424	4.69
453.778	4.67
454.132	4.66
454.486	4.64
454.839	4.62
455.193	4.6
455.547	4.58
455.9	4.54
456.254	4.53
456.607	4.49
456.961	4.46
457.314	4.44
457.668	4.43
458.021	4.42
458.375	4.41
458.728	4.41
459.081	4.42
459.434	4.42
459.787	4.43
460.141	4.45
460.494	4.46
460.847	4.47
461.2	4.48
461.553	4.49
461.906	4.49
462.259	4.51
462.611	4.51
462.964	4.52
463.317	4.53
463.67	4.55
464.022	4.56
464.375	4.57
464.728	4.59
465.08	4.59
465.433	4.6
465.785	4.61
466.138	4.6
466.49	4.59
466.843	4.57
467.195	4.56
467.547	4.54
467.899	4.53
468.252	4.51
468.604	4.49
468.956	4.48
469.308	4.47
469.66	4.47
470.012	4.47
470.364	4.49
470.716	4.5
471.068	4.52
471.42	4.55
471.772	4.57
472.123	4.6
472.475	4.61
472.827	4.63
473.178	4.64
473.53	4.66
473.882	4.68
474.233	4.71
474.585	4.75
474.936	4.82
475.288	4.92
475.639	5.06
475.99	5.2
476.342	5.37
476.693	5.54
477.044	5.72
477.395	5.91
477.746	6.1
478.097	6.28
478.448	6.48
478.8	6.66
479.15	6.83
479.501	6.99
479.852	7.13
480.203	7.27
480.554	7.4
480.905	7.52
481.255	7.64
481.606	7.75
481.957	7.85
482.307	7.95
482.658	8.05
483.009	8.14
483.359	8.22
483.709	8.31
484.06	8.39
484.41	8.47
484.761	8.55
485.111	8.62
485.461	8.69
485.811	8.76
486.162	8.82
486.512	8.87
486.862	8.91
487.212	8.93
487.562	8.95
487.912	8.96
488.262	8.97
488.612	8.96
488.961	8.94
489.311	8.89
489.661	8.82
490.011	8.72
490.36	8.6
490.71	8.48
491.06	8.34
491.409	8.19
491.759	8.03
492.108	7.87
492.458	7.71
492.807	7.53
493.157	7.36
493.506	7.2
493.855	7.05
494.204	6.92
494.554	6.78
494.903	6.66
495.252	6.55
495.601	6.45
495.95	6.34
496.299	6.25
496.648	6.17
496.997	6.09
497.346	6.02
497.695	5.95
498.043	5.88
498.392	5.83
498.741	5.78
499.09	5.73
499.438	5.69
499.787	5.66
500.135	5.64
500.484	5.62
500.832	5.61
501.181	5.62
501.529	5.66
501.878	5.7
502.226	5.76
502.574	5.82
502.923	5.88
503.271	5.95
503.619	6.03
503.967	6.1
504.315	6.18
504.663	6.26
505.011	6.34
505.359	6.42
505.707	6.5
506.055	6.59
506.403	6.68
506.751	6.78
507.098	6.87
507.446	6.98
507.794	7.09
508.141	7.21
508.489	7.33
508.837	7.45
509.184	7.58
509.531	7.71
509.879	7.85
510.226	8
510.574	8.15
510.921	8.32
511.268	8.49
511.616	8.66
511.963	8.84
512.31	9.02
512.657	9.21
513.004	9.38
513.351	9.55
513.698	9.71
514.045	9.86
514.392	10.01
514.739	10.14
515.086	10.28
515.432	10.41
515.779	10.54
516.126	10.67
516.473	10.81
516.819	10.97
517.166	11.15
517.512	11.33
517.859	11.54
518.205	11.76
518.552	12
518.898	12.26
519.245	12.55
519.591	12.91
519.937	13.33
520.283	13.81
520.629	14.34
520.976	14.89
521.322	15.47
521.668	16.07
522.014	16.67
522.36	17.28
522.706	17.88
523.052	18.45
523.398	19
523.743	19.5
524.089	19.96
524.435	20.39
524.781	20.8
525.126	21.21
525.472	21.62
525.817	22.01
526.163	22.4
526.509	22.78
526.854	23.16
527.199	23.53
527.545	23.91
527.89	24.3
528.235	24.68
528.581	25.05
528.926	25.4
529.271	25.73
529.616	26.05
529.961	26.36
530.306	26.65
530.651	26.92
530.996	27.17
531.341	27.4
531.686	27.62
532.031	27.82
532.376	28.05
532.721	28.3
533.065	28.57
533.41	28.86
533.755	29.13
534.099	29.36
534.444	29.57
534.788	29.75
535.133	29.92
535.477	30.07
535.822	30.19
536.166	30.27
536.51	30.31
536.855	30.3
537.199	30.26
537.543	30.23
537.887	30.23
538.231	30.26
538.576	30.29
538.92	30.32
539.264	30.32
539.608	30.31
539.951	30.3
540.295	30.27
540.639	30.23
540.983	30.18
541.327	30.11
541.671	30.02
542.014	29.98
542.358	29.93
542.701	29.96
543.045	30.04
543.389	30.15
543.732	30.28
544.075	30.43
544.419	30.6
544.762	30.77
545.105	30.95
545.449	31.15
545.792	31.35
546.135	31.56
546.478	31.73
546.821	31.86
547.165	31.93
547.508	31.96
547.851	31.94
548.194	31.89
548.536	31.8
548.879	31.68
549.222	31.54
549.565	31.4
549.908	31.27
550.25	31.16
550.593	31.11
550.936	31.12
551.278	31.17
551.621	31.26
551.963	31.37
552.306	31.49
552.648	31.66
552.991	31.85
553.333	32.06
553.675	32.3
554.017	32.57
554.36	32.86
554.702	33.18
555.044	33.54
555.386	33.94
555.728	34.38
556.07	34.76
556.412	35.15
556.754	35.49
557.096	35.77
557.438	36.04
557.78	36.32
558.121	36.59
558.463	36.87
558.805	37.16
559.147	37.44
559.488	37.72
559.83	38
560.171	38.27
560.513	38.55
560.854	38.83
561.196	39.1
561.537	39.35
561.878	39.61
562.22	39.86
562.561	40.1
562.902	40.35
563.243	40.59
563.584	40.83
563.925	41.08
564.266	41.31
564.607	41.55
564.948	41.77
565.289	42.02
565.63	42.25
565.971	42.48
566.312	42.7
566.653	42.91
566.993	43.13
567.334	43.34
567.675	43.54
568.015	43.74
568.356	43.93
568.696	44.13
569.037	44.31
569.377	44.5
569.718	44.68
570.058	44.85
570.398	45.01
570.739	45.16
571.079	45.31
571.419	45.46
571.759	45.6
572.099	45.73
572.439	45.88
572.779	46.01
573.119	46.15
573.459	46.28
573.799	46.42
574.139	46.56
574.479	46.68
574.819	46.81
575.158	46.94
575.498	47.07
575.838	47.2
576.177	47.32
576.517	47.44
576.856	47.56
577.196	47.68
577.535	47.8
577.875	47.92
578.214	48.03
578.553	48.14
578.893	48.25
579.232	48.35
579.571	48.47
579.91	48.58
580.25	48.68
580.589	48.79
580.928	48.9
581.267	49.02
581.606	49.13
581.945	49.24
582.283	49.36
582.622	49.48
582.961	49.59
583.3	49.7
583.639	49.81
583.977	49.91
584.316	50.03
584.654	50.14
584.993	50.26
585.332	50.37
585.67	50.47
586.008	50.59
586.347	50.7
586.685	50.81
587.024	50.91
587.362	51.02
587.7	51.13
588.038	51.24
588.376	51.36
588.715	51.48
589.053	51.6
589.391	51.71
589.729	51.83
590.067	51.93
590.404	52.05
590.742	52.16
591.08	52.26
591.418	52.37
591.756	52.47
592.093	52.55
592.431	52.64
592.769	52.74
593.106	52.82
593.444	52.9
593.781	52.97
594.119	53.05
594.456	53.14
594.793	53.2
595.131	53.27
595.468	53.36
595.805	53.45
596.143	53.54
596.48	53.62
596.817	53.71
597.154	53.81
597.491	53.9
597.828	54
598.165	54.07
598.502	54.15
598.839	54.22
599.176	54.3
599.512	54.37
599.849	54.43
600.186	54.51
600.523	54.57
600.859	54.64
601.196	54.69
601.532	54.77
601.869	54.83
602.205	54.89
602.542	54.95
602.878	55
603.215	55.07
603.551	55.12
603.887	55.19
604.223	55.23
604.56	55.29
604.896	55.34
605.232	55.37
605.568	55.42
605.904	55.47
606.24	55.52
606.576	55.55
606.912	55.6
607.248	55.64
607.583	55.68
607.919	55.73
608.255	55.77
608.591	55.81
608.926	55.85
609.262	55.89
609.597	55.93
609.933	55.95
610.268	55.98
610.604	56.02
610.939	56.04
611.275	56.08
611.61	56.1
611.945	56.14
612.281	56.18
612.616	56.21
612.951	56.24
613.286	56.28
613.621	56.32
613.956	56.35
614.291	56.39
614.626	56.41
614.961	56.45
615.296	56.47
615.631	56.5
615.966	56.54
616.3	56.56
616.635	56.6
616.97	56.63
617.304	56.66
617.639	56.7
617.973	56.74
618.308	56.78
618.642	56.82
618.977	56.88
619.311	56.93
619.646	56.98
619.98	57.04
620.314	57.08
620.648	57.13
620.983	57.18
621.317	57.22
621.651	57.25
621.985	57.3
622.319	57.34
622.653	57.37
622.987	57.4
623.321	57.43
623.655	57.46
623.988	57.5
624.322	57.51
624.656	57.54
624.99	57.57
625.323	57.6
625.657	57.64
625.99	57.67
626.324	57.69
626.657	57.72
626.991	57.74
627.324	57.77
627.658	57.79
627.991	57.82
628.324	57.86
628.657	57.9
628.991	57.92
629.324	57.96
629.657	57.97
629.99	57.99
630.323	58.02
630.656	58.05
630.989	58.06
631.322	58.07
631.655	58.1
631.987	58.11
632.32	58.15
632.653	58.17
632.986	58.18
633.318	58.2
633.651	58.21
633.984	58.24
634.316	58.26
634.649	58.27
634.981	58.31
635.313	58.33
635.646	58.34
635.978	58.36
636.31	58.38
636.643	58.41
636.975	58.43
637.307	58.47
637.639	58.49
637.971	58.53
638.303	58.55
638.635	58.57
638.967	58.59
639.299	58.61
639.631	58.64
639.963	58.68
640.295	58.7
640.626	58.75
640.958	58.78
641.29	58.81
641.621	58.83
641.953	58.85
642.285	58.88
642.616	58.91
642.948	58.93
643.279	58.97
643.61	59.01
643.942	59.03
644.273	59.08
644.604	59.12
644.936	59.16
645.267	59.19
645.598	59.2
645.929	59.21
646.26	59.23
646.591	59.26
646.922	59.29
647.253	59.31
647.584	59.34
647.915	59.35
648.245	59.38
648.576	59.38
648.907	59.42
649.238	59.44
649.568	59.47
649.899	59.5
650.229	59.5
650.56	59.53
650.89	59.55
651.221	59.56
651.551	59.58
651.882	59.6
652.212	59.62
652.542	59.65
652.872	59.68
653.203	59.7
653.533	59.73
653.863	59.75
654.193	59.77
654.523	59.8
654.853	59.81
655.183	59.84
655.513	59.84
655.843	59.86
656.172	59.88
656.502	59.89
656.832	59.92
657.162	59.91
657.491	59.92
657.821	59.91
658.15	59.92
658.48	59.93
658.809	59.95
659.139	59.97
659.468	59.99
659.798	60.01
660.127	60.04
660.456	60.05
660.785	60.07
661.115	60.09
661.444	60.1
661.773	60.12
662.102	60.13
662.431	60.14
662.76	60.16
663.089	60.16
663.418	60.18
663.747	60.21
664.076	60.22
664.404	60.25
664.733	60.26
665.062	60.29
665.39	60.3
665.719	60.34
666.048	60.35
666.376	60.35
666.705	60.37
667.033	60.38
667.362	60.4
667.69	60.41
668.018	60.42
668.347	60.44
668.675	60.46
669.003	60.5
