Data from UWBM122453_Reflection_00007.txt Node
Date: Sun May 02 12:40:22 EDT 2021
User: vgr7
Spectrometer: USB2G7710
Scans to average: 10
Trigger mode: 4
Integration Time (sec): 1.000000E-1
Electric dark correction enabled: true
Boxcar width: 20
XAxis mode: Wavelengths
Number of Pixels in Spectrum: 2048
>>>>>Begin Spectral Data<<<<<
177.721	98.83
178.105	98.75
178.488	98.68
178.871	98.61
179.254	97.75
179.636	95.54
180.019	90.94
180.402	88.03
180.785	84.12
181.168	81.37
181.55	79.7
181.933	118.03
182.316	120.08
182.698	121.48
183.081	121.09
183.463	122.17
183.846	124.63
184.228	127.09
184.611	129.58
184.993	135.3
185.376	138.64
185.758	-140.41
186.14	-77.5
186.522	-39.79
186.904	-22.32
187.287	-11.98
187.669	-7.46
188.051	-5.52
188.433	-1.03
188.815	-5.45
189.197	-5.3
189.579	-5.58
189.961	-4.76
190.342	-7.81
190.724	-6.73
191.106	-6.39
191.488	-4.19
191.869	-8.5
192.251	-5.79
192.633	-8.14
193.014	-10.58
193.396	-10.66
193.777	-1.43
194.159	-0.68
194.54	-0.9
194.922	-0.54
195.303	0.8
195.684	3.42
196.065	3.66
196.447	2.01
196.828	0.59
197.209	1
197.59	-9.77
197.971	-11.06
198.352	-9
198.733	-6.59
199.114	-7.71
199.495	-7.76
199.876	-6.99
200.257	-6.5
200.638	-6.99
201.018	-12.91
201.399	-14.64
201.78	-15.47
202.16	-15.61
202.541	-13.87
202.922	-13.08
203.302	-17.3
203.683	-16.35
204.063	-16.54
204.444	-15.64
204.824	-13.72
205.204	-10.16
205.585	-1.05
205.965	-0.46
206.345	1.97
206.725	-4.35
207.106	-3.92
207.486	-3.82
207.866	-3.9
208.246	-5.3
208.626	-1.82
209.006	3.7
209.386	-1.08
209.766	-1.2
210.145	-2.61
210.525	-4.46
210.905	-2.7
211.285	-2.29
211.664	-3.35
212.044	-1.28
212.424	0.97
212.803	-4.32
213.183	-1.23
213.562	-0.65
213.942	-1.2
214.321	-4
214.701	-4.92
215.08	-3.59
215.459	-3.51
215.838	-5.16
216.218	-4.38
216.597	-5.52
216.976	-8.54
217.355	-8.34
217.734	-8.64
218.113	-8.53
218.492	-7.12
218.871	-4.06
219.25	-3.93
219.629	-4.81
220.008	-5
220.387	-3.88
220.766	-3.17
221.144	-3.81
221.523	-2.07
221.902	-1.57
222.28	0.5
222.659	1.71
223.037	1.31
223.416	1.82
223.794	3.86
224.173	3.52
224.551	3.32
224.929	4.05
225.308	4.92
225.686	4.88
226.064	5.16
226.442	5.4
226.821	4.93
227.199	4.58
227.577	4.04
227.955	3.3
228.333	3.54
228.711	3.2
229.089	3.63
229.467	3.35
229.845	4.33
230.222	4.63
230.6	4.77
230.978	4.61
231.356	4.14
231.733	3.98
232.111	4.07
232.488	3.88
232.866	3.78
233.243	3.67
233.621	3.81
233.998	3.59
234.376	3.57
234.753	3.82
235.13	3.99
235.508	4.69
235.885	4.85
236.262	4.88
236.639	4.98
237.016	4.98
237.393	5.02
237.77	4.87
238.147	4.82
238.524	4.94
238.901	5.05
239.278	5.09
239.655	5.12
240.032	5.04
240.409	5.1
240.785	5.08
241.162	5.14
241.539	5.11
241.915	5.16
242.292	5.2
242.668	5.13
243.045	5.12
243.421	5.01
243.798	4.98
244.174	4.96
244.551	4.93
244.927	4.77
245.303	4.72
245.679	4.72
246.056	4.72
246.432	4.71
246.808	4.48
247.184	4.48
247.56	4.45
247.936	4.49
248.312	4.54
248.688	4.64
249.064	4.62
249.44	4.59
249.815	4.59
250.191	4.52
250.567	4.5
250.943	4.56
251.318	4.56
251.694	4.51
252.069	4.45
252.445	4.44
252.82	4.54
253.196	4.53
253.571	4.51
253.947	4.59
254.322	4.54
254.697	4.66
255.073	4.64
255.448	4.65
255.823	4.62
256.198	4.56
256.573	4.38
256.948	4.38
257.323	4.35
257.698	4.28
258.073	4.29
258.448	4.17
258.823	4.15
259.198	4.15
259.573	4.18
259.948	4.18
260.322	4.15
260.697	4.14
261.072	4.14
261.446	4.1
261.821	4.09
262.195	4.07
262.57	4.05
262.944	4.04
263.319	4.02
263.693	4.03
264.067	4.02
264.442	4.12
264.816	4.12
265.19	4.1
265.564	4.16
265.938	4.13
266.313	4.18
266.687	4.13
267.061	4.12
267.435	4.13
267.809	4.11
268.183	4.07
268.556	4.09
268.93	4.07
269.304	4.04
269.678	4.01
270.051	3.98
270.425	3.96
270.799	3.96
271.172	3.94
271.546	3.96
271.919	3.98
272.293	3.97
272.666	3.96
273.04	3.97
273.413	3.92
273.787	3.92
274.16	3.93
274.533	3.96
274.906	3.94
275.279	3.99
275.653	3.97
276.026	3.95
276.399	3.92
276.772	3.93
277.145	3.97
277.518	3.98
277.891	4
278.263	4.03
278.636	4.03
279.009	4.05
279.382	4.03
279.755	3.97
280.127	4
280.5	4.01
280.872	4
281.245	4.12
281.617	4.14
281.99	4.18
282.362	4.22
282.735	4.21
283.107	4.23
283.479	4.26
283.852	4.29
284.224	4.32
284.596	4.3
284.968	4.2
285.34	4.21
285.713	4.21
286.085	4.15
286.457	4.18
286.829	4.16
287.201	4.18
287.572	4.24
287.944	4.28
288.316	4.35
288.688	4.41
289.06	4.42
289.431	4.45
289.803	4.47
290.175	4.51
290.546	4.54
290.918	4.58
291.289	4.59
291.661	4.63
292.032	4.62
292.403	4.67
292.775	4.78
293.146	4.82
293.517	4.87
293.889	4.97
294.26	5
294.631	5.05
295.002	5.12
295.373	5.19
295.744	5.22
296.115	5.27
296.486	5.24
296.857	5.29
297.228	5.32
297.599	5.34
297.97	5.37
298.34	5.42
298.711	5.41
299.082	5.43
299.452	5.49
299.823	5.58
300.194	5.63
300.564	5.68
300.935	5.72
301.305	5.75
301.676	5.79
302.046	5.83
302.416	5.88
302.787	5.93
303.157	5.91
303.527	5.96
303.897	6.01
304.267	6.08
304.637	6.16
305.008	6.23
305.378	6.29
305.748	6.34
306.117	6.45
306.487	6.56
306.857	6.66
307.227	6.74
307.597	6.77
307.967	6.84
308.336	6.89
308.706	6.96
309.076	7.01
309.445	7.05
309.815	7
310.184	7.04
310.554	7.01
310.923	7.08
311.293	7.13
311.662	7.18
312.031	7.21
312.401	7.26
312.77	7.29
313.139	7.33
313.508	7.39
313.877	7.38
314.246	7.43
314.616	7.45
314.985	7.44
315.353	7.48
315.722	7.51
316.091	7.56
316.46	7.61
316.829	7.66
317.198	7.74
317.567	7.91
317.935	7.95
318.304	8.03
318.672	8.12
319.041	8.17
319.41	8.21
319.778	8.26
320.147	8.32
320.515	8.37
320.883	8.39
321.252	8.38
321.62	8.45
321.988	8.48
322.357	8.51
322.725	8.62
323.093	8.66
323.461	8.68
323.829	8.71
324.197	8.74
324.565	8.76
324.933	8.79
325.301	8.8
325.669	8.85
326.037	8.89
326.405	8.86
326.772	8.88
327.14	8.9
327.508	8.9
327.875	8.92
328.243	8.95
328.61	8.94
328.978	8.98
329.346	8.99
329.713	8.99
330.08	9.02
330.448	9.04
330.815	9.03
331.182	9.06
331.55	9.08
331.917	9.12
332.284	9.12
332.651	9.15
333.018	9.17
333.385	9.21
333.752	9.22
334.119	9.26
334.486	9.28
334.853	9.29
335.22	9.31
335.587	9.32
335.954	9.36
336.32	9.39
336.687	9.41
337.054	9.44
337.42	9.48
337.787	9.49
338.153	9.53
338.52	9.59
338.886	9.62
339.253	9.62
339.619	9.63
339.986	9.63
340.352	9.65
340.718	9.69
341.084	9.7
341.451	9.71
341.817	9.71
342.183	9.71
342.549	9.75
342.915	9.76
343.281	9.8
343.647	9.82
344.013	9.86
344.379	9.89
344.745	9.91
345.11	9.92
345.476	9.95
345.842	9.98
346.208	9.97
346.573	9.98
346.939	10.01
347.304	10.02
347.67	10.04
348.035	10.07
348.401	10.07
348.766	10.12
349.132	10.12
349.497	10.16
349.862	10.18
350.228	10.21
350.593	10.22
350.958	10.22
351.323	10.21
351.688	10.24
352.053	10.25
352.418	10.25
352.783	10.26
353.148	10.26
353.513	10.24
353.878	10.26
354.243	10.26
354.608	10.26
354.972	10.28
355.337	10.28
355.702	10.25
356.066	10.26
356.431	10.26
356.795	10.26
357.16	10.24
357.524	10.24
357.889	10.24
358.253	10.24
358.618	10.24
358.982	10.25
359.346	10.24
359.71	10.24
360.075	10.24
360.439	10.23
360.803	10.21
361.167	10.2
361.531	10.21
361.895	10.2
362.259	10.19
362.623	10.17
362.987	10.14
363.351	10.14
363.714	10.12
364.078	10.11
364.442	10.09
364.806	10.07
365.169	10.04
365.533	10.01
365.896	9.99
366.26	9.97
366.623	9.93
366.987	9.89
367.35	9.87
367.714	9.84
368.077	9.81
368.44	9.77
368.803	9.74
369.167	9.7
369.53	9.67
369.893	9.64
370.256	9.6
370.619	9.57
370.982	9.52
371.345	9.47
371.708	9.43
372.071	9.39
372.434	9.34
372.797	9.31
373.159	9.27
373.522	9.22
373.885	9.17
374.247	9.11
374.61	9.07
374.973	9.01
375.335	8.96
375.698	8.92
376.06	8.87
376.423	8.81
376.785	8.76
377.147	8.71
377.51	8.67
377.872	8.62
378.234	8.57
378.596	8.53
378.958	8.5
379.321	8.46
379.683	8.41
380.045	8.36
380.407	8.31
380.769	8.27
381.13	8.24
381.492	8.2
381.854	8.16
382.216	8.12
382.578	8.07
382.939	8.04
383.301	8
383.663	7.96
384.024	7.92
384.386	7.88
384.747	7.83
385.109	7.77
385.47	7.72
385.832	7.69
386.193	7.64
386.554	7.59
386.916	7.56
387.277	7.52
387.638	7.49
387.999	7.45
388.36	7.41
388.721	7.37
389.082	7.34
389.443	7.3
389.804	7.26
390.165	7.23
390.526	7.18
390.887	7.15
391.248	7.11
391.609	7.08
391.969	7.04
392.33	7
392.691	6.96
393.051	6.92
393.412	6.87
393.772	6.82
394.133	6.79
394.493	6.74
394.854	6.7
395.214	6.66
395.574	6.61
395.935	6.57
396.295	6.52
396.655	6.48
397.015	6.44
397.376	6.39
397.736	6.35
398.096	6.31
398.456	6.27
398.816	6.24
399.176	6.19
399.535	6.17
399.895	6.14
400.255	6.1
400.615	6.07
400.975	6.04
401.334	6.01
401.694	5.97
402.054	5.94
402.413	5.89
402.773	5.87
403.132	5.85
403.492	5.83
403.851	5.8
404.211	5.78
404.57	5.76
404.929	5.75
405.288	5.73
405.648	5.71
406.007	5.69
406.366	5.68
406.725	5.67
407.084	5.65
407.443	5.63
407.802	5.6
408.161	5.59
408.52	5.57
408.879	5.56
409.238	5.55
409.596	5.53
409.955	5.53
410.314	5.51
410.673	5.49
411.031	5.48
411.39	5.47
411.748	5.46
412.107	5.45
412.465	5.44
412.824	5.45
413.182	5.46
413.54	5.46
413.899	5.47
414.257	5.48
414.615	5.51
414.974	5.53
415.332	5.56
415.69	5.59
416.048	5.6
416.406	5.64
416.764	5.65
417.122	5.67
417.48	5.69
417.838	5.71
418.195	5.72
418.553	5.73
418.911	5.73
419.269	5.71
419.626	5.69
419.984	5.67
420.342	5.63
420.699	5.6
421.057	5.56
421.414	5.53
421.772	5.5
422.129	5.48
422.486	5.46
422.844	5.45
423.201	5.43
423.558	5.42
423.915	5.41
424.273	5.39
424.63	5.38
424.987	5.37
425.344	5.35
425.701	5.34
426.058	5.33
426.415	5.32
426.772	5.3
427.128	5.29
427.485	5.27
427.842	5.25
428.199	5.22
428.555	5.19
428.912	5.16
429.269	5.13
429.625	5.1
429.982	5.06
430.338	5.02
430.695	4.99
431.051	4.95
431.407	4.92
431.764	4.89
432.12	4.86
432.476	4.85
432.832	4.84
433.189	4.84
433.545	4.84
433.901	4.86
434.257	4.88
434.613	4.91
434.969	4.94
435.325	4.97
435.681	5.02
436.036	5.03
436.392	5.06
436.748	5.07
437.104	5.08
437.459	5.1
437.815	5.11
438.171	5.13
438.526	5.16
438.882	5.19
439.237	5.22
439.593	5.26
439.948	5.29
440.304	5.33
440.659	5.35
441.014	5.37
441.369	5.4
441.725	5.41
442.08	5.43
442.435	5.43
442.79	5.43
443.145	5.43
443.5	5.43
443.855	5.41
444.21	5.41
444.565	5.4
444.92	5.38
445.275	5.36
445.629	5.34
445.984	5.33
446.339	5.31
446.693	5.3
447.048	5.27
447.403	5.25
447.757	5.21
448.112	5.18
448.466	5.14
448.82	5.11
449.175	5.08
449.529	5.06
449.883	5.03
450.238	4.99
450.592	4.98
450.946	4.96
451.3	4.96
451.654	4.96
452.008	4.95
452.362	4.95
452.716	4.95
453.07	4.95
453.424	4.93
453.778	4.93
454.132	4.91
454.486	4.89
454.839	4.87
455.193	4.85
455.547	4.83
455.9	4.79
456.254	4.77
456.607	4.74
456.961	4.71
457.314	4.7
457.668	4.69
458.021	4.69
458.375	4.68
458.728	4.69
459.081	4.7
459.434	4.71
459.787	4.73
460.141	4.75
460.494	4.76
460.847	4.77
461.2	4.78
461.553	4.8
461.906	4.82
462.259	4.83
462.611	4.85
462.964	4.86
463.317	4.88
463.67	4.9
464.022	4.91
464.375	4.93
464.728	4.94
465.08	4.95
465.433	4.97
465.785	4.98
466.138	4.97
466.49	4.97
466.843	4.96
467.195	4.96
467.547	4.95
467.899	4.94
468.252	4.92
468.604	4.9
468.956	4.89
469.308	4.89
469.66	4.89
470.012	4.9
470.364	4.91
470.716	4.93
471.068	4.96
471.42	4.99
471.772	5.02
472.123	5.04
472.475	5.06
472.827	5.07
473.178	5.08
473.53	5.09
473.882	5.11
474.233	5.14
474.585	5.18
474.936	5.25
475.288	5.35
475.639	5.48
475.99	5.64
476.342	5.81
476.693	6
477.044	6.18
477.395	6.37
477.746	6.56
478.097	6.75
478.448	6.95
478.8	7.14
479.15	7.31
479.501	7.47
479.852	7.62
480.203	7.75
480.554	7.89
480.905	8.01
481.255	8.13
481.606	8.24
481.957	8.34
482.307	8.44
482.658	8.54
483.009	8.64
483.359	8.72
483.709	8.81
484.06	8.9
484.41	8.98
484.761	9.06
485.111	9.14
485.461	9.21
485.811	9.28
486.162	9.35
486.512	9.41
486.862	9.45
487.212	9.49
487.562	9.52
487.912	9.54
488.262	9.54
488.612	9.55
488.961	9.53
489.311	9.49
489.661	9.43
490.011	9.33
490.36	9.23
490.71	9.09
491.06	8.95
491.409	8.8
491.759	8.66
492.108	8.5
492.458	8.35
492.807	8.18
493.157	8.01
493.506	7.85
493.855	7.71
494.204	7.58
494.554	7.46
494.903	7.35
495.252	7.25
495.601	7.16
495.95	7.08
496.299	7.01
496.648	6.95
496.997	6.89
497.346	6.85
497.695	6.81
498.043	6.78
498.392	6.75
498.741	6.73
499.09	6.72
499.438	6.71
499.787	6.72
500.135	6.74
500.484	6.77
500.832	6.81
501.181	6.87
501.529	6.95
501.878	7.06
502.226	7.17
502.574	7.29
502.923	7.43
503.271	7.57
503.619	7.72
503.967	7.87
504.315	8.03
504.663	8.18
505.011	8.35
505.359	8.51
505.707	8.68
506.055	8.85
506.403	9.03
506.751	9.22
507.098	9.41
507.446	9.62
507.794	9.83
508.141	10.06
508.489	10.29
508.837	10.53
509.184	10.77
509.531	11.02
509.879	11.27
510.226	11.54
510.574	11.82
510.921	12.1
511.268	12.39
511.616	12.69
511.963	13
512.31	13.31
512.657	13.62
513.004	13.93
513.351	14.22
513.698	14.49
514.045	14.76
514.392	15.01
514.739	15.25
515.086	15.48
515.432	15.72
515.779	15.96
516.126	16.2
516.473	16.46
516.819	16.73
517.166	17.03
517.512	17.34
517.859	17.67
518.205	18.02
518.552	18.4
518.898	18.82
519.245	19.28
519.591	19.84
519.937	20.49
520.283	21.23
520.629	22.04
520.976	22.89
521.322	23.76
521.668	24.65
522.014	25.53
522.36	26.4
522.706	27.26
523.052	28.1
523.398	28.9
523.743	29.64
524.089	30.31
524.435	30.94
524.781	31.55
525.126	32.15
525.472	32.74
525.817	33.31
526.163	33.87
526.509	34.41
526.854	34.96
527.199	35.5
527.545	36.04
527.89	36.59
528.235	37.14
528.581	37.66
528.926	38.15
529.271	38.61
529.616	39.05
529.961	39.45
530.306	39.81
530.651	40.16
530.996	40.48
531.341	40.77
531.686	41.05
532.031	41.3
532.376	41.58
532.721	41.89
533.065	42.23
533.41	42.58
533.755	42.88
534.099	43.12
534.444	43.32
534.788	43.47
535.133	43.62
535.477	43.72
535.822	43.79
536.166	43.81
536.51	43.76
536.855	43.65
537.199	43.49
537.543	43.34
537.887	43.23
538.231	43.17
538.576	43.11
538.92	43.03
539.264	42.95
539.608	42.84
539.951	42.7
540.295	42.56
540.639	42.4
540.983	42.21
541.327	42.01
541.671	41.83
542.014	41.66
542.358	41.52
542.701	41.49
543.045	41.51
543.389	41.57
543.732	41.64
544.075	41.75
544.419	41.87
544.762	41.99
545.105	42.13
545.449	42.3
545.792	42.47
546.135	42.65
546.478	42.76
546.821	42.82
547.165	42.81
547.508	42.71
547.851	42.57
548.194	42.37
548.536	42.12
548.879	41.83
549.222	41.51
549.565	41.18
549.908	40.86
550.25	40.57
550.593	40.34
550.936	40.2
551.278	40.12
551.621	40.1
551.963	40.09
552.306	40.1
552.648	40.16
552.991	40.25
553.333	40.36
553.675	40.51
554.017	40.7
554.36	40.91
554.702	41.17
555.044	41.47
555.386	41.82
555.728	42.15
556.07	42.45
556.412	42.75
556.754	42.93
557.096	43.09
557.438	43.27
557.78	43.45
558.121	43.62
558.463	43.79
558.805	43.96
559.147	44.15
559.488	44.32
559.83	44.48
560.171	44.64
560.513	44.8
560.854	44.94
561.196	45.08
561.537	45.24
561.878	45.38
562.22	45.53
562.561	45.66
562.902	45.8
563.243	45.94
563.584	46.08
563.925	46.22
564.266	46.36
564.607	46.5
564.948	46.63
565.289	46.76
565.63	46.89
565.971	47.02
566.312	47.15
566.653	47.27
566.993	47.4
567.334	47.51
567.675	47.63
568.015	47.75
568.356	47.85
568.696	47.96
569.037	48.06
569.377	48.15
569.718	48.25
570.058	48.33
570.398	48.42
570.739	48.51
571.079	48.58
571.419	48.65
571.759	48.72
572.099	48.78
572.439	48.85
572.779	48.92
573.119	48.96
573.459	49.02
573.799	49.08
574.139	49.13
574.479	49.19
574.819	49.26
575.158	49.32
575.498	49.38
575.838	49.43
576.177	49.49
576.517	49.55
576.856	49.6
577.196	49.65
577.535	49.7
577.875	49.74
578.214	49.79
578.553	49.84
578.893	49.88
579.232	49.93
579.571	49.96
579.91	50
580.25	50.03
580.589	50.07
580.928	50.11
581.267	50.15
581.606	50.18
581.945	50.22
582.283	50.27
582.622	50.32
582.961	50.38
583.3	50.43
583.639	50.48
583.977	50.52
584.316	50.57
584.654	50.62
584.993	50.67
585.332	50.73
585.67	50.78
586.008	50.83
586.347	50.89
586.685	50.93
587.024	51
587.362	51.06
587.7	51.12
588.038	51.19
588.376	51.25
588.715	51.3
589.053	51.37
589.391	51.43
589.729	51.5
590.067	51.57
590.404	51.64
590.742	51.68
591.08	51.75
591.418	51.79
591.756	51.84
592.093	51.89
592.431	51.95
592.769	51.99
593.106	52.03
593.444	52.07
593.781	52.1
594.119	52.14
594.456	52.17
594.793	52.21
595.131	52.26
595.468	52.3
595.805	52.35
596.143	52.4
596.48	52.43
596.817	52.47
597.154	52.51
597.491	52.57
597.828	52.62
598.165	52.68
598.502	52.73
598.839	52.78
599.176	52.82
599.512	52.86
599.849	52.9
600.186	52.94
600.523	52.99
600.859	53.02
601.196	53.04
601.532	53.08
601.869	53.1
602.205	53.14
602.542	53.16
602.878	53.17
603.215	53.2
603.551	53.23
603.887	53.24
604.223	53.26
604.56	53.29
604.896	53.32
605.232	53.34
605.568	53.36
605.904	53.39
606.24	53.41
606.576	53.43
606.912	53.46
607.248	53.47
607.583	53.5
607.919	53.52
608.255	53.55
608.591	53.57
608.926	53.59
609.262	53.6
609.597	53.61
609.933	53.62
610.268	53.64
610.604	53.66
610.939	53.67
611.275	53.68
611.61	53.69
611.945	53.7
612.281	53.7
612.616	53.7
612.951	53.7
613.286	53.7
613.621	53.71
613.956	53.71
614.291	53.7
614.626	53.72
614.961	53.73
615.296	53.74
615.631	53.76
615.966	53.75
616.3	53.76
616.635	53.8
616.97	53.81
617.304	53.82
617.639	53.83
617.973	53.83
618.308	53.85
618.642	53.86
618.977	53.87
619.311	53.87
619.646	53.89
619.98	53.93
620.314	53.94
620.648	53.98
620.983	54.02
621.317	54.04
621.651	54.06
621.985	54.07
622.319	54.09
622.653	54.11
622.987	54.15
623.321	54.16
623.655	54.18
623.988	54.18
624.322	54.2
624.656	54.22
624.99	54.23
625.323	54.25
625.657	54.25
625.99	54.27
626.324	54.3
626.657	54.32
626.991	54.35
627.324	54.37
627.658	54.39
627.991	54.4
628.324	54.43
628.657	54.44
628.991	54.47
629.324	54.49
629.657	54.52
629.99	54.53
630.323	54.53
630.656	54.55
630.989	54.56
631.322	54.59
631.655	54.61
631.987	54.62
632.32	54.62
632.653	54.65
632.986	54.67
633.318	54.68
633.651	54.69
633.984	54.71
634.316	54.72
634.649	54.71
634.981	54.73
635.313	54.74
635.646	54.77
635.978	54.78
636.31	54.79
636.643	54.8
636.975	54.82
637.307	54.83
637.639	54.86
637.971	54.86
638.303	54.88
638.635	54.88
638.967	54.9
639.299	54.91
639.631	54.94
639.963	54.95
640.295	54.96
640.626	54.99
640.958	55.01
641.29	55.03
641.621	55.05
641.953	55.06
642.285	55.08
642.616	55.09
642.948	55.1
643.279	55.13
643.61	55.16
643.942	55.17
644.273	55.17
644.604	55.18
644.936	55.18
645.267	55.19
645.598	55.21
645.929	55.24
646.26	55.24
646.591	55.24
646.922	55.26
647.253	55.27
647.584	55.27
647.915	55.28
648.245	55.31
648.576	55.32
648.907	55.34
649.238	55.35
649.568	55.36
649.899	55.37
650.229	55.38
650.56	55.41
650.89	55.42
651.221	55.43
651.551	55.45
651.882	55.47
652.212	55.5
652.542	55.51
652.872	55.51
653.203	55.53
653.533	55.56
653.863	55.59
654.193	55.59
654.523	55.59
654.853	55.6
655.183	55.62
655.513	55.62
655.843	55.64
656.172	55.66
656.502	55.68
656.832	55.67
657.162	55.68
657.491	55.71
657.821	55.72
658.15	55.73
658.48	55.74
658.809	55.74
659.139	55.76
659.468	55.76
659.798	55.79
660.127	55.82
660.456	55.84
660.785	55.86
661.115	55.88
661.444	55.91
661.773	55.91
662.102	55.92
662.431	55.92
662.76	55.93
663.089	55.94
663.418	55.94
663.747	55.95
664.076	55.96
664.404	55.97
664.733	55.99
665.062	56.01
665.39	56.03
665.719	56.03
666.048	56.04
666.376	56.06
666.705	56.05
667.033	56.06
667.362	56.06
667.69	56.07
