Data from UWBM109429_Reflection_00009.txt Node
Date: Sun May 02 13:54:37 EDT 2021
User: vgr7
Spectrometer: USB2G7710
Scans to average: 10
Trigger mode: 4
Integration Time (sec): 1.000000E-1
Electric dark correction enabled: true
Boxcar width: 20
XAxis mode: Wavelengths
Number of Pixels in Spectrum: 2048
>>>>>Begin Spectral Data<<<<<
177.721	86.77
178.105	112.5
178.488	109.65
178.871	127.19
179.254	107.98
179.636	91.74
180.019	72.05
180.402	65.26
180.785	53.57
181.168	48.97
181.55	42.08
181.933	43.38
182.316	44.38
182.698	40.19
183.081	39.87
183.463	37.03
183.846	34.83
184.228	36.11
184.611	36.7
184.993	37.47
185.376	37.14
185.758	37.7
186.14	38.52
186.522	39.96
186.904	38.28
187.287	36.98
187.669	36.58
188.051	36.91
188.433	36.34
188.815	30.35
189.197	31.2
189.579	32.75
189.961	30.39
190.342	27.3
190.724	27.59
191.106	29.55
191.488	29.95
191.869	29.59
192.251	29.87
192.633	29.89
193.014	30.37
193.396	28.4
193.777	27.81
194.159	27.86
194.54	25.65
194.922	24.44
195.303	23.12
195.684	23.59
196.065	23.86
196.447	24.72
196.828	24.17
197.209	23.8
197.59	19.78
197.971	19.11
198.352	21.09
198.733	22.3
199.114	23.39
199.495	24.12
199.876	23.36
200.257	22.46
200.638	20.27
201.018	21.16
201.399	20.5
201.78	20.45
202.16	20.72
202.541	20.89
202.922	20.81
203.302	21.06
203.683	21.55
204.063	20.82
204.444	22.11
204.824	21.84
205.204	19.59
205.585	20.65
205.965	21.57
206.345	21.1
206.725	20.18
207.106	19.85
207.486	20.4
207.866	20.65
208.246	19
208.626	19.07
209.006	20.22
209.386	19.77
209.766	18.95
210.145	19.05
210.525	19.33
210.905	20.22
211.285	18.56
211.664	19.27
212.044	18.8
212.424	18.96
212.803	18.87
213.183	21.01
213.562	22.72
213.942	21.26
214.321	19.78
214.701	18.14
215.08	18.69
215.459	18.23
215.838	17.55
216.218	18.03
216.597	16.96
216.976	18.28
217.355	18.69
217.734	17.92
218.113	17.54
218.492	16.98
218.871	16.78
219.25	16.46
219.629	16.5
220.008	14.82
220.387	13.04
220.766	13.82
221.144	13.6
221.523	13.15
221.902	12.99
222.28	13.02
222.659	12.68
223.037	12.07
223.416	11.99
223.794	12.35
224.173	12.3
224.551	11.35
224.929	11.69
225.308	11.4
225.686	11.26
226.064	11.03
226.442	10.94
226.821	11.27
227.199	11.02
227.577	11.07
227.955	10.71
228.333	10.99
228.711	10.56
229.089	9.26
229.467	9.2
229.845	9.44
230.222	9.84
230.6	9.52
230.978	9.47
231.356	9.26
231.733	8.94
232.111	8.65
232.488	8.32
232.866	7.82
233.243	7.73
233.621	7.53
233.998	7.44
234.376	7.49
234.753	7.18
235.13	7.07
235.508	7.16
235.885	7.06
236.262	6.98
236.639	6.79
237.016	6.64
237.393	6.55
237.77	6.54
238.147	6.46
238.524	6.4
238.901	6.21
239.278	6.11
239.655	5.99
240.032	5.92
240.409	5.86
240.785	5.81
241.162	5.71
241.539	5.67
241.915	5.67
242.292	5.65
242.668	5.6
243.045	5.54
243.421	5.5
243.798	5.48
244.174	5.5
244.551	5.5
244.927	5.47
245.303	5.41
245.679	5.38
246.056	5.3
246.432	5.29
246.808	5.27
247.184	5.3
247.56	5.32
247.936	5.28
248.312	5.26
248.688	5.26
249.064	5.25
249.44	5.24
249.815	5.19
250.191	5.15
250.567	5.15
250.943	5.14
251.318	5.1
251.694	5.1
252.069	5.08
252.445	5.04
252.82	5.02
253.196	4.94
253.571	4.91
253.947	4.87
254.322	4.84
254.697	4.82
255.073	4.79
255.448	4.8
255.823	4.73
256.198	4.74
256.573	4.74
256.948	4.73
257.323	4.69
257.698	4.65
258.073	4.61
258.448	4.58
258.823	4.58
259.198	4.55
259.573	4.52
259.948	4.54
260.322	4.52
260.697	4.51
261.072	4.49
261.446	4.5
261.821	4.49
262.195	4.48
262.57	4.46
262.944	4.45
263.319	4.47
263.693	4.47
264.067	4.44
264.442	4.43
264.816	4.4
265.19	4.4
265.564	4.39
265.938	4.38
266.313	4.37
266.687	4.37
267.061	4.35
267.435	4.33
267.809	4.33
268.183	4.32
268.556	4.33
268.93	4.34
269.304	4.36
269.678	4.37
270.051	4.35
270.425	4.32
270.799	4.3
271.172	4.32
271.546	4.3
271.919	4.29
272.293	4.29
272.666	4.29
273.04	4.3
273.413	4.33
273.787	4.35
274.16	4.35
274.533	4.35
274.906	4.36
275.279	4.33
275.653	4.35
276.026	4.36
276.399	4.36
276.772	4.38
277.145	4.37
277.518	4.38
277.891	4.39
278.263	4.39
278.636	4.37
279.009	4.38
279.382	4.4
279.755	4.41
280.127	4.43
280.5	4.43
280.872	4.45
281.245	4.46
281.617	4.45
281.99	4.46
282.362	4.46
282.735	4.46
283.107	4.47
283.479	4.46
283.852	4.48
284.224	4.47
284.596	4.45
284.968	4.45
285.34	4.47
285.713	4.48
286.085	4.5
286.457	4.51
286.829	4.51
287.201	4.51
287.572	4.51
287.944	4.51
288.316	4.5
288.688	4.5
289.06	4.52
289.431	4.53
289.803	4.55
290.175	4.56
290.546	4.58
290.918	4.59
291.289	4.59
291.661	4.6
292.032	4.6
292.403	4.61
292.775	4.63
293.146	4.64
293.517	4.65
293.889	4.68
294.26	4.7
294.631	4.73
295.002	4.74
295.373	4.77
295.744	4.78
296.115	4.79
296.486	4.83
296.857	4.86
297.228	4.89
297.599	4.94
297.97	4.96
298.34	4.99
298.711	5.04
299.082	5.05
299.452	5.07
299.823	5.11
300.194	5.14
300.564	5.17
300.935	5.2
301.305	5.22
301.676	5.26
302.046	5.29
302.416	5.32
302.787	5.36
303.157	5.38
303.527	5.41
303.897	5.44
304.267	5.47
304.637	5.49
305.008	5.53
305.378	5.57
305.748	5.61
306.117	5.65
306.487	5.7
306.857	5.75
307.227	5.8
307.597	5.84
307.967	5.87
308.336	5.91
308.706	5.94
309.076	5.96
309.445	5.99
309.815	6
310.184	6.04
310.554	6.05
310.923	6.1
311.293	6.13
311.662	6.14
312.031	6.16
312.401	6.19
312.77	6.2
313.139	6.23
313.508	6.27
313.877	6.3
314.246	6.35
314.616	6.38
314.985	6.42
315.353	6.45
315.722	6.48
316.091	6.52
316.46	6.54
316.829	6.58
317.198	6.63
317.567	6.67
317.935	6.71
318.304	6.75
318.672	6.8
319.041	6.86
319.41	6.89
319.778	6.94
320.147	6.96
320.515	7
320.883	7
321.252	7.03
321.62	7.06
321.988	7.09
322.357	7.12
322.725	7.14
323.093	7.18
323.461	7.19
323.829	7.24
324.197	7.25
324.565	7.27
324.933	7.3
325.301	7.31
325.669	7.35
326.037	7.36
326.405	7.38
326.772	7.4
327.14	7.42
327.508	7.44
327.875	7.46
328.243	7.48
328.61	7.48
328.978	7.49
329.346	7.48
329.713	7.52
330.08	7.54
330.448	7.54
330.815	7.55
331.182	7.55
331.55	7.57
331.917	7.58
332.284	7.56
332.651	7.57
333.018	7.59
333.385	7.6
333.752	7.62
334.119	7.64
334.486	7.65
334.853	7.67
335.22	7.68
335.587	7.71
335.954	7.74
336.32	7.75
336.687	7.75
337.054	7.76
337.42	7.78
337.787	7.8
338.153	7.81
338.52	7.82
338.886	7.82
339.253	7.82
339.619	7.85
339.986	7.86
340.352	7.87
340.718	7.88
341.084	7.9
341.451	7.92
341.817	7.94
342.183	7.95
342.549	7.95
342.915	7.96
343.281	7.96
343.647	7.97
344.013	7.98
344.379	7.99
344.745	7.98
345.11	7.99
345.476	8.01
345.842	8.01
346.208	8.04
346.573	8.03
346.939	8.03
347.304	8.04
347.67	8.04
348.035	8.04
348.401	8.06
348.766	8.06
349.132	8.06
349.497	8.06
349.862	8.07
350.228	8.07
350.593	8.06
350.958	8.07
351.323	8.06
351.688	8.07
352.053	8.07
352.418	8.06
352.783	8.05
353.148	8.04
353.513	8.04
353.878	8.03
354.243	8.03
354.608	8.01
354.972	8.01
355.337	7.99
355.702	7.98
356.066	7.97
356.431	7.95
356.795	7.92
357.16	7.9
357.524	7.89
357.889	7.88
358.253	7.86
358.618	7.85
358.982	7.84
359.346	7.82
359.71	7.8
360.075	7.8
360.439	7.78
360.803	7.76
361.167	7.73
361.531	7.72
361.895	7.71
362.259	7.68
362.623	7.66
362.987	7.63
363.351	7.61
363.714	7.59
364.078	7.56
364.442	7.53
364.806	7.5
365.169	7.47
365.533	7.45
365.896	7.42
366.26	7.4
366.623	7.36
366.987	7.33
367.35	7.29
367.714	7.26
368.077	7.23
368.44	7.21
368.803	7.17
369.167	7.13
369.53	7.09
369.893	7.05
370.256	7.01
370.619	6.97
370.982	6.93
371.345	6.89
371.708	6.87
372.071	6.83
372.434	6.79
372.797	6.74
373.159	6.7
373.522	6.66
373.885	6.62
374.247	6.57
374.61	6.53
374.973	6.48
375.335	6.44
375.698	6.4
376.06	6.36
376.423	6.33
376.785	6.29
377.147	6.26
377.51	6.23
377.872	6.19
378.234	6.15
378.596	6.12
378.958	6.08
379.321	6.05
379.683	6.02
380.045	5.98
380.407	5.95
380.769	5.92
381.13	5.89
381.492	5.86
381.854	5.84
382.216	5.81
382.578	5.78
382.939	5.75
383.301	5.72
383.663	5.7
384.024	5.67
384.386	5.65
384.747	5.62
385.109	5.59
385.47	5.57
385.832	5.54
386.193	5.52
386.554	5.49
386.916	5.46
387.277	5.44
387.638	5.42
387.999	5.4
388.36	5.38
388.721	5.36
389.082	5.35
389.443	5.33
389.804	5.31
390.165	5.3
390.526	5.28
390.887	5.26
391.248	5.24
391.609	5.22
391.969	5.2
392.33	5.19
392.691	5.17
393.051	5.15
393.412	5.13
393.772	5.11
394.133	5.09
394.493	5.07
394.854	5.06
395.214	5.03
395.574	5.01
395.935	4.99
396.295	4.97
396.655	4.95
397.015	4.93
397.376	4.92
397.736	4.9
398.096	4.88
398.456	4.87
398.816	4.85
399.176	4.83
399.535	4.81
399.895	4.8
400.255	4.79
400.615	4.77
400.975	4.75
401.334	4.74
401.694	4.73
402.054	4.72
402.413	4.7
402.773	4.68
403.132	4.67
403.492	4.66
403.851	4.65
404.211	4.64
404.57	4.63
404.929	4.62
405.288	4.61
405.648	4.6
406.007	4.6
406.366	4.59
406.725	4.58
407.084	4.58
407.443	4.57
407.802	4.57
408.161	4.56
408.52	4.55
408.879	4.55
409.238	4.55
409.596	4.54
409.955	4.54
410.314	4.53
410.673	4.53
411.031	4.53
411.39	4.53
411.748	4.53
412.107	4.53
412.465	4.53
412.824	4.55
413.182	4.57
413.54	4.58
413.899	4.61
414.257	4.64
414.615	4.68
414.974	4.7
415.332	4.74
415.69	4.78
416.048	4.8
416.406	4.85
416.764	4.87
417.122	4.9
417.48	4.93
417.838	4.96
418.195	4.98
418.553	5
418.911	5.01
419.269	5.01
419.626	5.01
419.984	4.99
420.342	4.98
420.699	4.96
421.057	4.93
421.414	4.91
421.772	4.89
422.129	4.88
422.486	4.87
422.844	4.86
423.201	4.86
423.558	4.85
423.915	4.85
424.273	4.84
424.63	4.83
424.987	4.83
425.344	4.83
425.701	4.82
426.058	4.82
426.415	4.82
426.772	4.81
427.128	4.81
427.485	4.79
427.842	4.78
428.199	4.75
428.555	4.74
428.912	4.71
429.269	4.68
429.625	4.65
429.982	4.62
430.338	4.58
430.695	4.55
431.051	4.51
431.407	4.49
431.764	4.47
432.12	4.45
432.476	4.44
432.832	4.42
433.189	4.43
433.545	4.43
433.901	4.44
434.257	4.46
434.613	4.49
434.969	4.52
435.325	4.55
435.681	4.59
436.036	4.62
436.392	4.64
436.748	4.66
437.104	4.67
437.459	4.69
437.815	4.71
438.171	4.73
438.526	4.76
438.882	4.79
439.237	4.84
439.593	4.87
439.948	4.91
440.304	4.95
440.659	4.97
441.014	4.99
441.369	5.02
441.725	5.04
442.08	5.06
442.435	5.07
442.79	5.08
443.145	5.09
443.5	5.09
443.855	5.09
444.21	5.09
444.565	5.08
444.92	5.07
445.275	5.06
445.629	5.05
445.984	5.04
446.339	5.02
446.693	5.01
447.048	4.98
447.403	4.97
447.757	4.94
448.112	4.92
448.466	4.89
448.82	4.86
449.175	4.83
449.529	4.81
449.883	4.78
450.238	4.75
450.592	4.75
450.946	4.73
451.3	4.73
451.654	4.74
452.008	4.74
452.362	4.74
452.716	4.74
453.07	4.74
453.424	4.73
453.778	4.72
454.132	4.71
454.486	4.69
454.839	4.67
455.193	4.65
455.547	4.63
455.9	4.6
456.254	4.58
456.607	4.55
456.961	4.52
457.314	4.5
457.668	4.48
458.021	4.48
458.375	4.47
458.728	4.47
459.081	4.47
459.434	4.48
459.787	4.49
460.141	4.5
460.494	4.51
460.847	4.52
461.2	4.53
461.553	4.54
461.906	4.54
462.259	4.55
462.611	4.55
462.964	4.56
463.317	4.56
463.67	4.57
464.022	4.58
464.375	4.59
464.728	4.59
465.08	4.6
465.433	4.6
465.785	4.6
466.138	4.59
466.49	4.57
466.843	4.55
467.195	4.53
467.547	4.51
467.899	4.49
468.252	4.46
468.604	4.44
468.956	4.42
469.308	4.4
469.66	4.41
470.012	4.4
470.364	4.41
470.716	4.41
471.068	4.43
471.42	4.45
471.772	4.48
472.123	4.49
472.475	4.5
472.827	4.51
473.178	4.52
473.53	4.53
473.882	4.55
474.233	4.58
474.585	4.62
474.936	4.69
475.288	4.78
475.639	4.9
475.99	5.04
476.342	5.2
476.693	5.37
477.044	5.55
477.395	5.73
477.746	5.92
478.097	6.1
478.448	6.29
478.8	6.48
479.15	6.65
479.501	6.8
479.852	6.94
480.203	7.08
480.554	7.21
480.905	7.34
481.255	7.46
481.606	7.57
481.957	7.68
482.307	7.78
482.658	7.88
483.009	7.97
483.359	8.06
483.709	8.14
484.06	8.23
484.41	8.31
484.761	8.39
485.111	8.46
485.461	8.53
485.811	8.6
486.162	8.67
486.512	8.72
486.862	8.77
487.212	8.79
487.562	8.81
487.912	8.83
488.262	8.83
488.612	8.83
488.961	8.81
489.311	8.76
489.661	8.69
490.011	8.6
490.36	8.49
490.71	8.36
491.06	8.22
491.409	8.07
491.759	7.92
492.108	7.75
492.458	7.58
492.807	7.41
493.157	7.24
493.506	7.08
493.855	6.92
494.204	6.78
494.554	6.64
494.903	6.51
495.252	6.39
495.601	6.28
495.95	6.17
496.299	6.06
496.648	5.97
496.997	5.88
497.346	5.8
497.695	5.72
498.043	5.65
498.392	5.57
498.741	5.51
499.09	5.45
499.438	5.39
499.787	5.34
500.135	5.3
500.484	5.26
500.832	5.24
501.181	5.23
501.529	5.24
501.878	5.26
502.226	5.29
502.574	5.32
502.923	5.36
503.271	5.4
503.619	5.45
503.967	5.5
504.315	5.54
504.663	5.59
505.011	5.65
505.359	5.7
505.707	5.75
506.055	5.81
506.403	5.88
506.751	5.94
507.098	6.01
507.446	6.09
507.794	6.16
508.141	6.25
508.489	6.33
508.837	6.43
509.184	6.53
509.531	6.63
509.879	6.73
510.226	6.85
510.574	6.97
510.921	7.1
511.268	7.23
511.616	7.37
511.963	7.51
512.31	7.65
512.657	7.8
513.004	7.94
513.351	8.08
513.698	8.21
514.045	8.33
514.392	8.45
514.739	8.56
515.086	8.67
515.432	8.78
515.779	8.88
516.126	9
516.473	9.12
516.819	9.26
517.166	9.41
517.512	9.57
517.859	9.75
518.205	9.94
518.552	10.14
518.898	10.37
519.245	10.63
519.591	10.94
519.937	11.31
520.283	11.74
520.629	12.21
520.976	12.71
521.322	13.23
521.668	13.76
522.014	14.3
522.36	14.84
522.706	15.38
523.052	15.9
523.398	16.39
523.743	16.85
524.089	17.27
524.435	17.66
524.781	18.06
525.126	18.44
525.472	18.82
525.817	19.2
526.163	19.56
526.509	19.92
526.854	20.29
527.199	20.65
527.545	21.01
527.89	21.39
528.235	21.76
528.581	22.12
528.926	22.46
529.271	22.78
529.616	23.09
529.961	23.39
530.306	23.69
530.651	23.96
530.996	24.21
531.341	24.45
531.686	24.68
532.031	24.9
532.376	25.14
532.721	25.4
533.065	25.69
533.41	26
533.755	26.28
534.099	26.55
534.444	26.78
534.788	27
535.133	27.21
535.477	27.4
535.822	27.57
536.166	27.71
536.51	27.8
536.855	27.85
537.199	27.87
537.543	27.89
537.887	27.94
538.231	28.02
538.576	28.09
538.92	28.15
539.264	28.21
539.608	28.25
539.951	28.27
540.295	28.29
540.639	28.3
540.983	28.29
541.327	28.26
541.671	28.22
542.014	28.21
542.358	28.2
542.701	28.26
543.045	28.36
543.389	28.5
543.732	28.66
544.075	28.83
544.419	29.01
544.762	29.2
545.105	29.41
545.449	29.63
545.792	29.86
546.135	30.09
546.478	30.28
546.821	30.44
547.165	30.54
547.508	30.59
547.851	30.62
548.194	30.6
548.536	30.55
548.879	30.47
549.222	30.37
549.565	30.27
549.908	30.17
550.25	30.1
550.593	30.08
550.936	30.13
551.278	30.21
551.621	30.32
551.963	30.46
552.306	30.61
552.648	30.79
552.991	31
553.333	31.22
553.675	31.47
554.017	31.76
554.36	32.07
554.702	32.4
555.044	32.77
555.386	33.19
555.728	33.63
556.07	34.02
556.412	34.44
556.754	34.78
557.096	35.07
557.438	35.34
557.78	35.64
558.121	35.92
558.463	36.22
558.805	36.51
559.147	36.8
559.488	37.08
559.83	37.37
560.171	37.66
560.513	37.94
560.854	38.22
561.196	38.49
561.537	38.76
561.878	39.02
562.22	39.28
562.561	39.52
562.902	39.77
563.243	40.02
563.584	40.27
563.925	40.51
564.266	40.75
564.607	40.98
564.948	41.21
565.289	41.43
565.63	41.66
565.971	41.89
566.312	42.11
566.653	42.33
566.993	42.54
567.334	42.76
567.675	42.96
568.015	43.15
568.356	43.34
568.696	43.53
569.037	43.71
569.377	43.88
569.718	44.06
570.058	44.22
570.398	44.37
570.739	44.52
571.079	44.66
571.419	44.81
571.759	44.95
572.099	45.1
572.439	45.24
572.779	45.38
573.119	45.51
573.459	45.65
573.799	45.77
574.139	45.9
574.479	46.02
574.819	46.14
575.158	46.27
575.498	46.39
575.838	46.51
576.177	46.62
576.517	46.75
576.856	46.86
577.196	46.97
577.535	47.08
577.875	47.2
578.214	47.3
578.553	47.41
578.893	47.52
579.232	47.63
579.571	47.73
579.91	47.84
580.25	47.94
580.589	48.05
580.928	48.17
581.267	48.27
581.606	48.38
581.945	48.49
582.283	48.6
582.622	48.72
582.961	48.83
583.3	48.96
583.639	49.06
583.977	49.16
584.316	49.28
584.654	49.39
584.993	49.5
585.332	49.61
585.67	49.71
586.008	49.8
586.347	49.9
586.685	49.99
587.024	50.08
587.362	50.19
587.7	50.29
588.038	50.4
588.376	50.51
588.715	50.61
589.053	50.72
589.391	50.82
589.729	50.93
590.067	51.04
590.404	51.13
590.742	51.24
591.08	51.35
591.418	51.44
591.756	51.53
592.093	51.62
592.431	51.7
592.769	51.78
593.106	51.86
593.444	51.93
593.781	52.01
594.119	52.08
594.456	52.15
594.793	52.21
595.131	52.28
595.468	52.34
595.805	52.42
596.143	52.5
596.48	52.57
596.817	52.64
597.154	52.73
597.491	52.81
597.828	52.9
598.165	52.97
598.502	53.05
598.839	53.13
599.176	53.21
599.512	53.28
599.849	53.34
600.186	53.41
600.523	53.47
600.859	53.54
601.196	53.6
601.532	53.66
601.869	53.73
602.205	53.78
602.542	53.84
602.878	53.89
603.215	53.94
603.551	53.99
603.887	54.04
604.223	54.09
604.56	54.14
604.896	54.18
605.232	54.22
605.568	54.26
605.904	54.31
606.24	54.35
606.576	54.38
606.912	54.42
607.248	54.46
607.583	54.51
607.919	54.54
608.255	54.57
608.591	54.6
608.926	54.65
609.262	54.69
609.597	54.72
609.933	54.75
610.268	54.78
610.604	54.82
610.939	54.84
611.275	54.86
611.61	54.89
611.945	54.91
612.281	54.94
612.616	54.95
612.951	54.97
613.286	54.99
613.621	55.01
613.956	55.04
614.291	55.08
614.626	55.09
614.961	55.12
615.296	55.15
615.631	55.16
615.966	55.19
616.3	55.22
616.635	55.24
616.97	55.27
617.304	55.29
617.639	55.33
617.973	55.36
618.308	55.38
618.642	55.41
618.977	55.43
619.311	55.46
619.646	55.5
619.98	55.54
620.314	55.57
620.648	55.62
620.983	55.68
621.317	55.7
621.651	55.73
621.985	55.78
622.319	55.82
622.653	55.85
622.987	55.88
623.321	55.91
623.655	55.94
623.988	55.97
624.322	55.99
624.656	56.02
624.99	56.05
625.323	56.07
625.657	56.1
625.99	56.13
626.324	56.15
626.657	56.18
626.991	56.21
627.324	56.25
627.658	56.26
627.991	56.28
628.324	56.31
628.657	56.34
628.991	56.36
629.324	56.39
629.657	56.41
629.99	56.42
630.323	56.45
630.656	56.47
630.989	56.49
631.322	56.5
631.655	56.52
631.987	56.53
632.32	56.55
632.653	56.58
632.986	56.6
633.318	56.62
633.651	56.65
633.984	56.67
634.316	56.69
634.649	56.69
634.981	56.72
635.313	56.73
635.646	56.76
635.978	56.77
636.31	56.79
636.643	56.81
636.975	56.83
637.307	56.86
637.639	56.88
637.971	56.9
638.303	56.91
638.635	56.93
638.967	56.95
639.299	56.97
639.631	56.99
639.963	57.03
640.295	57.05
640.626	57.08
640.958	57.09
641.29	57.12
641.621	57.14
641.953	57.17
642.285	57.18
642.616	57.2
642.948	57.22
643.279	57.27
643.61	57.3
643.942	57.33
644.273	57.38
644.604	57.4
644.936	57.44
645.267	57.47
645.598	57.5
645.929	57.53
646.26	57.54
646.591	57.57
646.922	57.59
647.253	57.6
647.584	57.63
647.915	57.66
648.245	57.66
648.576	57.67
648.907	57.7
649.238	57.7
649.568	57.72
649.899	57.74
650.229	57.77
650.56	57.8
650.89	57.84
651.221	57.85
651.551	57.87
651.882	57.89
652.212	57.9
652.542	57.92
652.872	57.94
653.203	57.96
653.533	57.98
653.863	58.01
654.193	58.03
654.523	58.05
654.853	58.06
655.183	58.09
655.513	58.11
655.843	58.12
656.172	58.16
656.502	58.17
656.832	58.17
657.162	58.17
657.491	58.18
657.821	58.18
658.15	58.19
658.48	58.19
658.809	58.21
659.139	58.21
659.468	58.22
659.798	58.24
660.127	58.25
660.456	58.26
660.785	58.28
661.115	58.29
661.444	58.3
661.773	58.33
662.102	58.36
662.431	58.36
662.76	58.37
663.089	58.39
663.418	58.4
663.747	58.41
664.076	58.43
664.404	58.43
664.733	58.45
665.062	58.46
665.39	58.47
665.719	58.52
666.048	58.54
666.376	58.54
666.705	58.55
667.033	58.56
667.362	58.57
667.69	58.57
668.018	58.58
668.347	58.59
668.675	58.6
669.003	58.61
669.331	58.62
669.659	58.63
669.987	58.64
