Data from UWBM59058_Reflection_00015.txt Node
Date: Sun May 02 13:03:10 EDT 2021
User: vgr7
Spectrometer: USB2G7710
Scans to average: 10
Trigger mode: 4
Integration Time (sec): 1.000000E-1
Electric dark correction enabled: true
Boxcar width: 20
XAxis mode: Wavelengths
Number of Pixels in Spectrum: 2048
>>>>>Begin Spectral Data<<<<<
177.721	97.74
178.105	96.34
178.488	96.16
178.871	96.03
179.254	95.55
179.636	94.9
180.019	93.24
180.402	90.28
180.785	87.19
181.168	84.1
181.55	82.12
181.933	117.47
182.316	117.32
182.698	118.68
183.081	119.82
183.463	121
183.846	122.3
184.228	124.39
184.611	127.51
184.993	132.69
185.376	135.57
185.758	-67.15
186.14	-30.65
186.522	-5.41
186.904	4.82
187.287	14.94
187.669	16.72
188.051	17.33
188.433	20.17
188.815	16.11
189.197	15.72
189.579	15.59
189.961	15.03
190.342	11.56
190.724	13.95
191.106	12.26
191.488	14.37
191.869	10.59
192.251	10.43
192.633	7.7
193.014	7.06
193.396	5.94
193.777	12.82
194.159	13.66
194.54	11.05
194.922	9.61
195.303	10.83
195.684	11.64
196.065	11.86
196.447	11.22
196.828	11.62
197.209	11.23
197.59	1.98
197.971	0.26
198.352	0.72
198.733	3.38
199.114	4.01
199.495	4.04
199.876	4.89
200.257	3.54
200.638	2.91
201.018	-3.76
201.399	-5.09
201.78	-7.78
202.16	-7.93
202.541	-6.48
202.922	-7.02
203.302	-7.43
203.683	-8.1
204.063	-7.29
204.444	-6.99
204.824	-5.06
205.204	-2.36
205.585	6.68
205.965	7.24
206.345	9.06
206.725	4.67
207.106	4.23
207.486	5.07
207.866	5.04
208.246	5.64
208.626	9.79
209.006	15.13
209.386	12.11
209.766	12.48
210.145	12.43
210.525	13.6
210.905	13.31
211.285	12.41
211.664	11.34
212.044	12.15
212.424	11.88
212.803	7.91
213.183	10.62
213.562	10.36
213.942	10.05
214.321	7.63
214.701	6.18
215.08	7.36
215.459	8.2
215.838	7.75
216.218	9
216.597	9.33
216.976	7.13
217.355	8.69
217.734	8.83
218.113	9.32
218.492	9.57
218.871	9.19
219.25	9.11
219.629	8.32
220.008	9.42
220.387	10.19
220.766	10.44
221.144	8.66
221.523	9.51
221.902	9.83
222.28	10.96
222.659	11.83
223.037	11.6
223.416	12.23
223.794	12.97
224.173	11.76
224.551	11.07
224.929	11.14
225.308	11.76
225.686	11.67
226.064	11.04
226.442	10.6
226.821	10.37
227.199	9.67
227.577	9.1
227.955	8.41
228.333	8.41
228.711	7.91
229.089	8.3
229.467	7.71
229.845	8.19
230.222	8.14
230.6	8.52
230.978	8.17
231.356	7.61
231.733	7.53
232.111	7.14
232.488	7.09
232.866	7.08
233.243	6.65
233.621	6.76
233.998	6.6
234.376	6.66
234.753	6.86
235.13	6.8
235.508	7.15
235.885	7.03
236.262	6.9
236.639	7.08
237.016	7.02
237.393	6.91
237.77	6.66
238.147	6.53
238.524	6.5
238.901	6.54
239.278	6.5
239.655	6.48
240.032	6.39
240.409	6.42
240.785	6.32
241.162	6.37
241.539	6.34
241.915	6.43
242.292	6.42
242.668	6.39
243.045	6.36
243.421	6.27
243.798	6.24
244.174	6.26
244.551	6.22
244.927	6.09
245.303	6.03
245.679	6.04
246.056	5.98
246.432	5.97
246.808	5.76
247.184	5.76
247.56	5.76
247.936	5.79
248.312	5.76
248.688	5.85
249.064	5.81
249.44	5.79
249.815	5.8
250.191	5.76
250.567	5.73
250.943	5.79
251.318	5.78
251.694	5.73
252.069	5.63
252.445	5.66
252.82	5.73
253.196	5.73
253.571	5.72
253.947	5.79
254.322	5.77
254.697	5.9
255.073	5.88
255.448	5.88
255.823	5.86
256.198	5.82
256.573	5.66
256.948	5.64
257.323	5.64
257.698	5.6
258.073	5.61
258.448	5.5
258.823	5.49
259.198	5.47
259.573	5.49
259.948	5.52
260.322	5.48
260.697	5.48
261.072	5.47
261.446	5.45
261.821	5.41
262.195	5.39
262.57	5.36
262.944	5.35
263.319	5.32
263.693	5.34
264.067	5.34
264.442	5.42
264.816	5.4
265.19	5.38
265.564	5.41
265.938	5.37
266.313	5.42
266.687	5.39
267.061	5.39
267.435	5.38
267.809	5.36
268.183	5.34
268.556	5.37
268.93	5.36
269.304	5.33
269.678	5.29
270.051	5.26
270.425	5.27
270.799	5.27
271.172	5.27
271.546	5.26
271.919	5.27
272.293	5.23
272.666	5.23
273.04	5.23
273.413	5.17
273.787	5.16
274.16	5.15
274.533	5.18
274.906	5.16
275.279	5.17
275.653	5.15
276.026	5.13
276.399	5.1
276.772	5.1
277.145	5.15
277.518	5.16
277.891	5.19
278.263	5.2
278.636	5.2
279.009	5.21
279.382	5.2
279.755	5.16
280.127	5.19
280.5	5.2
280.872	5.2
281.245	5.32
281.617	5.35
281.99	5.39
282.362	5.42
282.735	5.44
283.107	5.45
283.479	5.49
283.852	5.52
284.224	5.55
284.596	5.55
284.968	5.47
285.34	5.48
285.713	5.48
286.085	5.45
286.457	5.48
286.829	5.48
287.201	5.51
287.572	5.6
287.944	5.64
288.316	5.7
288.688	5.76
289.06	5.8
289.431	5.84
289.803	5.88
290.175	5.93
290.546	6
290.918	6.06
291.289	6.07
291.661	6.12
292.032	6.13
292.403	6.2
292.775	6.33
293.146	6.39
293.517	6.46
293.889	6.58
294.26	6.62
294.631	6.7
295.002	6.8
295.373	6.89
295.744	6.92
296.115	6.98
296.486	6.97
296.857	7.03
297.228	7.08
297.599	7.14
297.97	7.19
298.34	7.26
298.711	7.27
299.082	7.33
299.452	7.41
299.823	7.51
300.194	7.58
300.564	7.64
300.935	7.71
301.305	7.76
301.676	7.81
302.046	7.89
302.416	7.96
302.787	8.03
303.157	8.05
303.527	8.14
303.897	8.23
304.267	8.34
304.637	8.46
305.008	8.58
305.378	8.67
305.748	8.75
306.117	8.91
306.487	9.07
306.857	9.22
307.227	9.33
307.597	9.4
307.967	9.49
308.336	9.58
308.706	9.67
309.076	9.76
309.445	9.83
309.815	9.81
310.184	9.88
310.554	9.92
310.923	10.04
311.293	10.14
311.662	10.23
312.031	10.27
312.401	10.36
312.77	10.41
313.139	10.49
313.508	10.59
313.877	10.62
314.246	10.7
314.616	10.76
314.985	10.78
315.353	10.87
315.722	10.95
316.091	11.04
316.46	11.12
316.829	11.23
317.198	11.34
317.567	11.58
317.935	11.69
318.304	11.83
318.672	11.96
319.041	12.06
319.41	12.16
319.778	12.27
320.147	12.37
320.515	12.49
320.883	12.59
321.252	12.62
321.62	12.73
321.988	12.83
322.357	12.91
322.725	13.05
323.093	13.14
323.461	13.21
323.829	13.31
324.197	13.38
324.565	13.44
324.933	13.53
325.301	13.59
325.669	13.67
326.037	13.75
326.405	13.8
326.772	13.87
327.14	13.94
327.508	14.02
327.875	14.09
328.243	14.19
328.61	14.22
328.978	14.31
329.346	14.36
329.713	14.42
330.08	14.49
330.448	14.57
330.815	14.61
331.182	14.69
331.55	14.76
331.917	14.84
332.284	14.9
332.651	14.97
333.018	15.03
333.385	15.1
333.752	15.17
334.119	15.25
334.486	15.34
334.853	15.39
335.22	15.45
335.587	15.49
335.954	15.56
336.32	15.64
336.687	15.7
337.054	15.76
337.42	15.82
337.787	15.88
338.153	15.96
338.52	16.05
338.886	16.11
339.253	16.16
339.619	16.21
339.986	16.23
340.352	16.27
340.718	16.33
341.084	16.37
341.451	16.41
341.817	16.44
342.183	16.48
342.549	16.55
342.915	16.58
343.281	16.63
343.647	16.68
344.013	16.72
344.379	16.77
344.745	16.81
345.11	16.85
345.476	16.9
345.842	16.94
346.208	16.94
346.573	16.96
346.939	17.01
347.304	17.02
347.67	17.04
348.035	17.09
348.401	17.1
348.766	17.15
349.132	17.16
349.497	17.18
349.862	17.2
350.228	17.22
350.593	17.25
350.958	17.24
351.323	17.23
351.688	17.25
352.053	17.23
352.418	17.24
352.783	17.23
353.148	17.21
353.513	17.2
353.878	17.2
354.243	17.18
354.608	17.16
354.972	17.18
355.337	17.16
355.702	17.13
356.066	17.13
356.431	17.09
356.795	17.07
357.16	17.04
357.524	17.01
357.889	16.99
358.253	16.97
358.618	16.95
358.982	16.95
359.346	16.92
359.71	16.88
360.075	16.85
360.439	16.81
360.803	16.77
361.167	16.74
361.531	16.72
361.895	16.68
362.259	16.65
362.623	16.6
362.987	16.55
363.351	16.51
363.714	16.46
364.078	16.42
364.442	16.37
364.806	16.34
365.169	16.28
365.533	16.21
365.896	16.16
366.26	16.1
366.623	16.04
366.987	15.98
367.35	15.92
367.714	15.86
368.077	15.79
368.44	15.71
368.803	15.63
369.167	15.56
369.53	15.48
369.893	15.39
370.256	15.3
370.619	15.21
370.982	15.11
371.345	15.01
371.708	14.93
372.071	14.83
372.434	14.74
372.797	14.66
373.159	14.58
373.522	14.48
373.885	14.39
374.247	14.28
374.61	14.18
374.973	14.08
375.335	13.99
375.698	13.89
376.06	13.79
376.423	13.69
376.785	13.59
377.147	13.5
377.51	13.41
377.872	13.32
378.234	13.23
378.596	13.15
378.958	13.07
379.321	12.99
379.683	12.89
380.045	12.8
380.407	12.71
380.769	12.62
381.13	12.55
381.492	12.47
381.854	12.38
382.216	12.3
382.578	12.22
382.939	12.15
383.301	12.07
383.663	12
384.024	11.91
384.386	11.85
384.747	11.76
385.109	11.68
385.47	11.61
385.832	11.54
386.193	11.46
386.554	11.38
386.916	11.32
387.277	11.24
387.638	11.18
387.999	11.11
388.36	11.04
388.721	10.97
389.082	10.91
389.443	10.85
389.804	10.8
390.165	10.73
390.526	10.67
390.887	10.6
391.248	10.54
391.609	10.48
391.969	10.42
392.33	10.36
392.691	10.3
393.051	10.23
393.412	10.15
393.772	10.08
394.133	10.02
394.493	9.95
394.854	9.89
395.214	9.81
395.574	9.74
395.935	9.67
396.295	9.6
396.655	9.54
397.015	9.47
397.376	9.4
397.736	9.33
398.096	9.27
398.456	9.2
398.816	9.15
399.176	9.07
399.535	9.02
399.895	8.95
400.255	8.89
400.615	8.83
400.975	8.78
401.334	8.72
401.694	8.66
402.054	8.62
402.413	8.55
402.773	8.5
403.132	8.46
403.492	8.41
403.851	8.36
404.211	8.32
404.57	8.29
404.929	8.26
405.288	8.22
405.648	8.19
406.007	8.16
406.366	8.13
406.725	8.11
407.084	8.07
407.443	8.04
407.802	8
408.161	7.97
408.52	7.94
408.879	7.92
409.238	7.89
409.596	7.86
409.955	7.85
410.314	7.82
410.673	7.79
411.031	7.77
411.39	7.75
411.748	7.73
412.107	7.71
412.465	7.71
412.824	7.72
413.182	7.71
413.54	7.72
413.899	7.74
414.257	7.76
414.615	7.8
414.974	7.82
415.332	7.86
415.69	7.89
416.048	7.91
416.406	7.95
416.764	7.97
417.122	7.99
417.48	8.02
417.838	8.04
418.195	8.05
418.553	8.05
418.911	8.05
419.269	8.03
419.626	7.99
419.984	7.95
420.342	7.9
420.699	7.85
421.057	7.8
421.414	7.75
421.772	7.7
422.129	7.67
422.486	7.65
422.844	7.63
423.201	7.6
423.558	7.58
423.915	7.56
424.273	7.54
424.63	7.52
424.987	7.5
425.344	7.48
425.701	7.45
426.058	7.44
426.415	7.41
426.772	7.39
427.128	7.36
427.485	7.32
427.842	7.29
428.199	7.25
428.555	7.2
428.912	7.16
429.269	7.1
429.625	7.05
429.982	7
430.338	6.94
430.695	6.89
431.051	6.82
431.407	6.78
431.764	6.74
432.12	6.7
432.476	6.67
432.832	6.65
433.189	6.65
433.545	6.66
433.901	6.68
434.257	6.71
434.613	6.75
434.969	6.78
435.325	6.82
435.681	6.89
436.036	6.91
436.392	6.94
436.748	6.95
437.104	6.96
437.459	6.98
437.815	7.01
438.171	7.04
438.526	7.08
438.882	7.12
439.237	7.17
439.593	7.23
439.948	7.27
440.304	7.32
440.659	7.36
441.014	7.38
441.369	7.42
441.725	7.43
442.08	7.46
442.435	7.46
442.79	7.47
443.145	7.46
443.5	7.46
443.855	7.45
444.21	7.44
444.565	7.43
444.92	7.41
445.275	7.38
445.629	7.36
445.984	7.34
446.339	7.31
446.693	7.29
447.048	7.25
447.403	7.22
447.757	7.17
448.112	7.13
448.466	7.08
448.82	7.04
449.175	6.99
449.529	6.96
449.883	6.92
450.238	6.87
450.592	6.85
450.946	6.83
451.3	6.82
451.654	6.83
452.008	6.82
452.362	6.81
452.716	6.8
453.07	6.79
453.424	6.77
453.778	6.75
454.132	6.72
454.486	6.69
454.839	6.66
455.193	6.62
455.547	6.59
455.9	6.54
456.254	6.51
456.607	6.46
456.961	6.42
457.314	6.39
457.668	6.38
458.021	6.37
458.375	6.36
458.728	6.37
459.081	6.37
459.434	6.39
459.787	6.41
460.141	6.43
460.494	6.45
460.847	6.47
461.2	6.48
461.553	6.5
461.906	6.52
462.259	6.54
462.611	6.56
462.964	6.58
463.317	6.6
463.67	6.63
464.022	6.65
464.375	6.66
464.728	6.68
465.08	6.7
465.433	6.73
465.785	6.74
466.138	6.73
466.49	6.73
466.843	6.72
467.195	6.72
467.547	6.71
467.899	6.69
468.252	6.67
468.604	6.66
468.956	6.65
469.308	6.65
469.66	6.67
470.012	6.68
470.364	6.71
470.716	6.74
471.068	6.78
471.42	6.83
471.772	6.88
472.123	6.91
472.475	6.94
472.827	6.97
473.178	6.99
473.53	7.01
473.882	7.04
474.233	7.08
474.585	7.15
474.936	7.25
475.288	7.4
475.639	7.59
475.99	7.81
476.342	8.05
476.693	8.32
477.044	8.57
477.395	8.84
477.746	9.12
478.097	9.39
478.448	9.66
478.8	9.93
479.15	10.17
479.501	10.39
479.852	10.59
480.203	10.77
480.554	10.95
480.905	11.13
481.255	11.29
481.606	11.45
481.957	11.58
482.307	11.72
482.658	11.85
483.009	11.97
483.359	12.09
483.709	12.21
484.06	12.31
484.41	12.42
484.761	12.52
485.111	12.63
485.461	12.72
485.811	12.81
486.162	12.89
486.512	12.97
486.862	13.02
487.212	13.06
487.562	13.09
487.912	13.1
488.262	13.11
488.612	13.11
488.961	13.08
489.311	13.02
489.661	12.92
490.011	12.78
490.36	12.61
490.71	12.42
491.06	12.22
491.409	12.01
491.759	11.8
492.108	11.57
492.458	11.34
492.807	11.1
493.157	10.87
493.506	10.65
493.855	10.44
494.204	10.26
494.554	10.08
494.903	9.93
495.252	9.79
495.601	9.66
495.95	9.53
496.299	9.42
496.648	9.33
496.997	9.25
497.346	9.18
497.695	9.12
498.043	9.07
498.392	9.03
498.741	8.99
499.09	8.96
499.438	8.94
499.787	8.94
500.135	8.95
500.484	8.97
500.832	9.02
501.181	9.09
501.529	9.19
501.878	9.31
502.226	9.45
502.574	9.61
502.923	9.77
503.271	9.94
503.619	10.12
503.967	10.31
504.315	10.5
504.663	10.69
505.011	10.9
505.359	11.1
505.707	11.31
506.055	11.52
506.403	11.75
506.751	11.98
507.098	12.21
507.446	12.46
507.794	12.73
508.141	13
508.489	13.3
508.837	13.6
509.184	13.89
509.531	14.21
509.879	14.53
510.226	14.89
510.574	15.24
510.921	15.6
511.268	15.97
511.616	16.36
511.963	16.76
512.31	17.17
512.657	17.57
513.004	17.96
513.351	18.34
513.698	18.7
514.045	19.05
514.392	19.38
514.739	19.69
515.086	19.99
515.432	20.29
515.779	20.59
516.126	20.91
516.473	21.25
516.819	21.61
517.166	21.99
517.512	22.41
517.859	22.84
518.205	23.31
518.552	23.81
518.898	24.35
519.245	24.96
519.591	25.69
519.937	26.53
520.283	27.49
520.629	28.53
520.976	29.62
521.322	30.74
521.668	31.87
522.014	32.99
522.36	34.11
522.706	35.2
523.052	36.27
523.398	37.28
523.743	38.2
524.089	39.04
524.435	39.82
524.781	40.58
525.126	41.33
525.472	42.06
525.817	42.76
526.163	43.44
526.509	44.11
526.854	44.76
527.199	45.41
527.545	46.06
527.89	46.73
528.235	47.38
528.581	48
528.926	48.58
529.271	49.13
529.616	49.65
529.961	50.14
530.306	50.56
530.651	50.95
530.996	51.3
531.341	51.61
531.686	51.9
532.031	52.16
532.376	52.45
532.721	52.76
533.065	53.11
533.41	53.46
533.755	53.73
534.099	53.92
534.444	54.06
534.788	54.15
535.133	54.2
535.477	54.21
535.822	54.18
536.166	54.07
536.51	53.89
536.855	53.63
537.199	53.34
537.543	53.04
537.887	52.8
538.231	52.62
538.576	52.45
538.92	52.26
539.264	52.05
539.608	51.82
539.951	51.56
540.295	51.28
540.639	50.99
540.983	50.67
541.327	50.34
541.671	50.02
542.014	49.72
542.358	49.45
542.701	49.33
543.045	49.27
543.389	49.25
543.732	49.26
544.075	49.3
544.419	49.36
544.762	49.43
545.105	49.52
545.449	49.64
545.792	49.77
546.135	49.89
546.478	49.94
546.821	49.92
547.165	49.82
547.508	49.63
547.851	49.38
548.194	49.06
548.536	48.69
548.879	48.27
549.222	47.83
549.565	47.37
549.908	46.91
550.25	46.51
550.593	46.18
550.936	45.95
551.278	45.79
551.621	45.69
551.963	45.62
552.306	45.57
552.648	45.56
552.991	45.6
553.333	45.66
553.675	45.76
554.017	45.9
554.36	46.09
554.702	46.32
555.044	46.59
555.386	46.92
555.728	47.26
556.07	47.53
556.412	47.84
556.754	47.99
557.096	48.14
557.438	48.28
557.78	48.43
558.121	48.58
558.463	48.73
558.805	48.87
559.147	49.02
559.488	49.16
559.83	49.29
560.171	49.43
560.513	49.56
560.854	49.7
561.196	49.83
561.537	49.96
561.878	50.09
562.22	50.22
562.561	50.33
562.902	50.46
563.243	50.59
563.584	50.72
563.925	50.85
564.266	50.97
564.607	51.1
564.948	51.21
565.289	51.34
565.63	51.46
565.971	51.57
566.312	51.69
566.653	51.81
566.993	51.9
567.334	52
567.675	52.11
568.015	52.21
568.356	52.3
568.696	52.4
569.037	52.49
569.377	52.58
569.718	52.67
570.058	52.74
570.398	52.82
570.739	52.9
571.079	52.97
571.419	53.03
571.759	53.09
572.099	53.15
572.439	53.2
572.779	53.26
573.119	53.31
573.459	53.37
573.799	53.43
574.139	53.49
574.479	53.54
574.819	53.58
575.158	53.63
575.498	53.66
575.838	53.71
576.177	53.75
576.517	53.8
576.856	53.84
577.196	53.87
577.535	53.91
577.875	53.94
578.214	53.97
578.553	54.01
578.893	54.05
579.232	54.08
579.571	54.1
579.91	54.13
580.25	54.16
580.589	54.19
580.928	54.22
581.267	54.25
581.606	54.27
581.945	54.3
582.283	54.35
582.622	54.39
582.961	54.43
583.3	54.46
583.639	54.5
583.977	54.55
584.316	54.59
584.654	54.62
584.993	54.67
585.332	54.7
585.67	54.75
586.008	54.78
586.347	54.83
586.685	54.88
587.024	54.93
587.362	54.98
587.7	55.03
588.038	55.08
588.376	55.14
588.715	55.2
589.053	55.26
589.391	55.33
589.729	55.39
590.067	55.46
590.404	55.51
590.742	55.56
591.08	55.63
591.418	55.68
591.756	55.73
592.093	55.78
592.431	55.83
592.769	55.86
593.106	55.9
593.444	55.94
593.781	55.96
594.119	55.99
594.456	56.02
594.793	56.07
595.131	56.11
595.468	56.16
595.805	56.2
596.143	56.24
596.48	56.28
596.817	56.33
597.154	56.39
597.491	56.42
597.828	56.48
598.165	56.52
598.502	56.58
598.839	56.62
599.176	56.68
599.512	56.72
599.849	56.76
600.186	56.8
600.523	56.82
600.859	56.85
601.196	56.87
601.532	56.9
601.869	56.93
602.205	56.95
602.542	56.97
602.878	56.99
603.215	57.02
603.551	57.04
603.887	57.06
604.223	57.07
604.56	57.1
604.896	57.1
605.232	57.11
605.568	57.14
605.904	57.16
606.24	57.17
606.576	57.18
606.912	57.2
607.248	57.22
607.583	57.25
607.919	57.28
608.255	57.29
608.591	57.31
608.926	57.32
609.262	57.33
609.597	57.34
609.933	57.35
610.268	57.35
610.604	57.36
610.939	57.34
611.275	57.35
611.61	57.35
611.945	57.35
612.281	57.34
612.616	57.33
612.951	57.32
613.286	57.33
613.621	57.33
613.956	57.34
614.291	57.35
614.626	57.36
614.961	57.37
615.296	57.39
615.631	57.4
615.966	57.4
616.3	57.41
616.635	57.41
616.97	57.41
617.304	57.42
617.639	57.42
617.973	57.45
618.308	57.46
618.642	57.49
618.977	57.52
619.311	57.54
619.646	57.57
619.98	57.61
620.314	57.63
620.648	57.65
620.983	57.67
621.317	57.69
621.651	57.71
621.985	57.73
622.319	57.74
622.653	57.75
622.987	57.77
623.321	57.8
623.655	57.81
623.988	57.83
624.322	57.84
624.656	57.85
624.99	57.87
625.323	57.87
625.657	57.89
625.99	57.93
626.324	57.96
626.657	57.98
626.991	57.99
627.324	58
627.658	58
627.991	58.01
628.324	58.03
628.657	58.06
628.991	58.06
629.324	58.08
629.657	58.11
629.99	58.13
630.323	58.14
630.656	58.15
630.989	58.15
631.322	58.17
631.655	58.19
631.987	58.19
632.32	58.19
632.653	58.19
632.986	58.2
633.318	58.19
633.651	58.2
633.984	58.21
634.316	58.23
634.649	58.23
634.981	58.23
635.313	58.24
635.646	58.25
635.978	58.27
636.31	58.28
636.643	58.29
636.975	58.29
637.307	58.3
637.639	58.32
637.971	58.34
638.303	58.37
638.635	58.37
638.967	58.39
639.299	58.4
639.631	58.41
639.963	58.43
640.295	58.45
640.626	58.46
640.958	58.47
641.29	58.48
641.621	58.47
641.953	58.49
642.285	58.49
642.616	58.51
642.948	58.51
643.279	58.53
643.61	58.53
643.942	58.55
644.273	58.58
644.604	58.6
644.936	58.62
645.267	58.61
645.598	58.63
645.929	58.65
646.26	58.67
646.591	58.69
646.922	58.69
647.253	58.7
647.584	58.71
647.915	58.72
648.245	58.76
648.576	58.78
648.907	58.79
649.238	58.81
649.568	58.81
649.899	58.82
650.229	58.84
650.56	58.86
650.89	58.87
651.221	58.87
651.551	58.89
651.882	58.9
652.212	58.92
652.542	58.92
652.872	58.92
653.203	58.92
653.533	58.92
653.863	58.93
654.193	58.95
654.523	58.97
654.853	58.98
655.183	59.01
655.513	59.03
655.843	59.04
656.172	59.06
656.502	59.06
656.832	59.07
657.162	59.08
657.491	59.1
657.821	59.09
658.15	59.11
658.48	59.12
658.809	59.14
659.139	59.15
659.468	59.18
659.798	59.2
660.127	59.21
660.456	59.24
660.785	59.25
661.115	59.26
661.444	59.27
661.773	59.29
662.102	59.29
662.431	59.3
662.76	59.3
663.089	59.32
663.418	59.34
663.747	59.35
