Data from UWBM53665_Reflection_00015.txt Node
Date: Sun May 02 13:14:48 EDT 2021
User: vgr7
Spectrometer: USB2G7710
Scans to average: 10
Trigger mode: 4
Integration Time (sec): 1.000000E-1
Electric dark correction enabled: true
Boxcar width: 20
XAxis mode: Wavelengths
Number of Pixels in Spectrum: 2048
>>>>>Begin Spectral Data<<<<<
177.721	100.41
178.105	100.91
178.488	100.45
178.871	98.99
179.254	98.5
179.636	95.52
180.019	92.53
180.402	90.71
180.785	86.71
181.168	84.25
181.55	81.27
181.933	116.61
182.316	118.44
182.698	117.93
183.081	120.65
183.463	122.05
183.846	122.94
184.228	124.11
184.611	126.11
184.993	129.7
185.376	130.86
185.758	-112.18
186.14	-48.3
186.522	-15.17
186.904	-0.94
187.287	10.81
187.669	16.51
188.051	21.1
188.433	23.74
188.815	19.73
189.197	20.6
189.579	20.68
189.961	19.96
190.342	17.42
190.724	19.81
191.106	16.32
191.488	17.26
191.869	11.35
192.251	14.68
192.633	14.11
193.014	13.75
193.396	12.83
193.777	18.82
194.159	19.17
194.54	18.58
194.922	18.49
195.303	20.86
195.684	21.98
196.065	21.55
196.447	20.47
196.828	19.91
197.209	21.28
197.59	12.7
197.971	12.81
198.352	13.3
198.733	15.76
199.114	16.37
199.495	14.79
199.876	17.6
200.257	17.78
200.638	18.63
201.018	14.03
201.399	13.77
201.78	12.02
202.16	11.35
202.541	13
202.922	12.94
203.302	8.18
203.683	7.33
204.063	7.41
204.444	9.26
204.824	10.47
205.204	13.3
205.585	20.21
205.965	21.04
206.345	22.2
206.725	18.64
207.106	18.76
207.486	18.22
207.866	17.37
208.246	15.77
208.626	16.55
209.006	20.24
209.386	16.99
209.766	16.34
210.145	14.58
210.525	14.24
210.905	15.45
211.285	17.01
211.664	17.17
212.044	18.76
212.424	18.7
212.803	13.76
213.183	14.91
213.562	15.76
213.942	15.07
214.321	12.39
214.701	11.25
215.08	13.33
215.459	11.9
215.838	11.65
216.218	10.65
216.597	9.51
216.976	6.29
217.355	5.99
217.734	6.4
218.113	6.25
218.492	5.95
218.871	8.11
219.25	9.02
219.629	9.12
220.008	8.9
220.387	9.74
220.766	9.25
221.144	9.29
221.523	10.73
221.902	11.13
222.28	11.9
222.659	12.31
223.037	12.34
223.416	12.53
223.794	13.51
224.173	13.32
224.551	13.07
224.929	12.48
225.308	13.08
225.686	13.42
226.064	13.24
226.442	12.81
226.821	11.8
227.199	11
227.577	10.41
227.955	9.56
228.333	9.36
228.711	9.59
229.089	9.56
229.467	8.88
229.845	9.64
230.222	9.58
230.6	9.92
230.978	9.81
231.356	9.01
231.733	9.03
232.111	8.8
232.488	8.64
232.866	8.52
233.243	8.12
233.621	8.23
233.998	7.63
234.376	7.61
234.753	7.37
235.13	7.13
235.508	7.48
235.885	7.32
236.262	7.29
236.639	7.28
237.016	7.11
237.393	6.97
237.77	6.75
238.147	6.64
238.524	6.58
238.901	6.63
239.278	6.58
239.655	6.51
240.032	6.35
240.409	6.39
240.785	6.3
241.162	6.31
241.539	6.2
241.915	6.18
242.292	6.21
242.668	6.15
243.045	6.13
243.421	6.02
243.798	5.99
244.174	5.94
244.551	5.89
244.927	5.71
245.303	5.65
245.679	5.66
246.056	5.61
246.432	5.56
246.808	5.35
247.184	5.36
247.56	5.33
247.936	5.32
248.312	5.33
248.688	5.4
249.064	5.33
249.44	5.34
249.815	5.3
250.191	5.24
250.567	5.23
250.943	5.28
251.318	5.29
251.694	5.21
252.069	5.14
252.445	5.12
252.82	5.22
253.196	5.21
253.571	5.16
253.947	5.25
254.322	5.16
254.697	5.3
255.073	5.26
255.448	5.25
255.823	5.22
256.198	5.18
256.573	5.01
256.948	5
257.323	5.01
257.698	4.94
258.073	4.94
258.448	4.8
258.823	4.79
259.198	4.77
259.573	4.79
259.948	4.82
260.322	4.77
260.697	4.77
261.072	4.75
261.446	4.71
261.821	4.69
262.195	4.65
262.57	4.61
262.944	4.61
263.319	4.59
263.693	4.6
264.067	4.6
264.442	4.7
264.816	4.68
265.19	4.67
265.564	4.71
265.938	4.67
266.313	4.72
266.687	4.67
267.061	4.68
267.435	4.66
267.809	4.64
268.183	4.6
268.556	4.62
268.93	4.61
269.304	4.59
269.678	4.58
270.051	4.54
270.425	4.56
270.799	4.58
271.172	4.57
271.546	4.58
271.919	4.58
272.293	4.56
272.666	4.55
273.04	4.55
273.413	4.48
273.787	4.48
274.16	4.5
274.533	4.54
274.906	4.49
275.279	4.5
275.653	4.47
276.026	4.44
276.399	4.42
276.772	4.43
277.145	4.46
277.518	4.47
277.891	4.49
278.263	4.49
278.636	4.5
279.009	4.52
279.382	4.49
279.755	4.45
280.127	4.49
280.5	4.49
280.872	4.49
281.245	4.61
281.617	4.62
281.99	4.65
282.362	4.68
282.735	4.68
283.107	4.69
283.479	4.72
283.852	4.73
284.224	4.76
284.596	4.75
284.968	4.63
285.34	4.63
285.713	4.62
286.085	4.54
286.457	4.56
286.829	4.53
287.201	4.55
287.572	4.62
287.944	4.64
288.316	4.69
288.688	4.75
289.06	4.75
289.431	4.77
289.803	4.78
290.175	4.82
290.546	4.87
290.918	4.91
291.289	4.91
291.661	4.97
292.032	4.95
292.403	4.98
292.775	5.1
293.146	5.12
293.517	5.18
293.889	5.28
294.26	5.3
294.631	5.35
295.002	5.43
295.373	5.48
295.744	5.5
296.115	5.53
296.486	5.5
296.857	5.54
297.228	5.56
297.599	5.59
297.97	5.62
298.34	5.68
298.711	5.66
299.082	5.71
299.452	5.78
299.823	5.85
300.194	5.91
300.564	5.95
300.935	6.01
301.305	6.05
301.676	6.07
302.046	6.13
302.416	6.19
302.787	6.24
303.157	6.23
303.527	6.3
303.897	6.37
304.267	6.46
304.637	6.54
305.008	6.64
305.378	6.71
305.748	6.76
306.117	6.9
306.487	7.03
306.857	7.14
307.227	7.22
307.597	7.29
307.967	7.36
308.336	7.43
308.706	7.51
309.076	7.59
309.445	7.65
309.815	7.61
310.184	7.66
310.554	7.68
310.923	7.8
311.293	7.88
311.662	7.95
312.031	8
312.401	8.08
312.77	8.12
313.139	8.19
313.508	8.27
313.877	8.29
314.246	8.34
314.616	8.39
314.985	8.4
315.353	8.47
315.722	8.52
316.091	8.59
316.46	8.66
316.829	8.77
317.198	8.86
317.567	9.05
317.935	9.13
318.304	9.27
318.672	9.36
319.041	9.44
319.41	9.51
319.778	9.61
320.147	9.69
320.515	9.75
320.883	9.84
321.252	9.85
321.62	9.94
321.988	9.99
322.357	10.07
322.725	10.18
323.093	10.23
323.461	10.28
323.829	10.34
324.197	10.37
324.565	10.42
324.933	10.47
325.301	10.51
325.669	10.56
326.037	10.6
326.405	10.6
326.772	10.64
327.14	10.66
327.508	10.67
327.875	10.72
328.243	10.75
328.61	10.75
328.978	10.79
329.346	10.82
329.713	10.83
330.08	10.86
330.448	10.88
330.815	10.88
331.182	10.92
331.55	10.94
331.917	10.99
332.284	11
332.651	11.05
333.018	11.07
333.385	11.09
333.752	11.13
334.119	11.16
334.486	11.21
334.853	11.2
335.22	11.23
335.587	11.24
335.954	11.26
336.32	11.31
336.687	11.33
337.054	11.35
337.42	11.39
337.787	11.39
338.153	11.44
338.52	11.48
338.886	11.52
339.253	11.53
339.619	11.53
339.986	11.51
340.352	11.52
340.718	11.52
341.084	11.52
341.451	11.53
341.817	11.53
342.183	11.53
342.549	11.57
342.915	11.56
343.281	11.59
343.647	11.6
344.013	11.62
344.379	11.64
344.745	11.65
345.11	11.65
345.476	11.67
345.842	11.68
346.208	11.66
346.573	11.66
346.939	11.66
347.304	11.67
347.67	11.67
348.035	11.67
348.401	11.66
348.766	11.67
349.132	11.66
349.497	11.65
349.862	11.66
350.228	11.65
350.593	11.64
350.958	11.63
351.323	11.58
351.688	11.57
352.053	11.54
352.418	11.52
352.783	11.49
353.148	11.45
353.513	11.39
353.878	11.37
354.243	11.35
354.608	11.31
354.972	11.28
355.337	11.25
355.702	11.2
356.066	11.18
356.431	11.14
356.795	11.11
357.16	11.06
357.524	11.03
357.889	10.99
358.253	10.95
358.618	10.92
358.982	10.89
359.346	10.84
359.71	10.8
360.075	10.76
360.439	10.72
360.803	10.67
361.167	10.61
361.531	10.59
361.895	10.54
362.259	10.48
362.623	10.43
362.987	10.38
363.351	10.33
363.714	10.28
364.078	10.22
364.442	10.16
364.806	10.11
365.169	10.04
365.533	9.97
365.896	9.91
366.26	9.85
366.623	9.79
366.987	9.72
367.35	9.65
367.714	9.61
368.077	9.54
368.44	9.48
368.803	9.4
369.167	9.31
369.53	9.24
369.893	9.17
370.256	9.09
370.619	9.02
370.982	8.93
371.345	8.84
371.708	8.76
372.071	8.67
372.434	8.6
372.797	8.54
373.159	8.48
373.522	8.41
373.885	8.32
374.247	8.23
374.61	8.16
374.973	8.07
375.335	7.99
375.698	7.92
376.06	7.85
376.423	7.77
376.785	7.7
377.147	7.62
377.51	7.56
377.872	7.49
378.234	7.42
378.596	7.37
378.958	7.32
379.321	7.25
379.683	7.19
380.045	7.12
380.407	7.06
380.769	6.99
381.13	6.94
381.492	6.88
381.854	6.83
382.216	6.76
382.578	6.71
382.939	6.66
383.301	6.6
383.663	6.56
384.024	6.51
384.386	6.46
384.747	6.41
385.109	6.35
385.47	6.3
385.832	6.26
386.193	6.2
386.554	6.15
386.916	6.11
387.277	6.06
387.638	6.03
387.999	5.98
388.36	5.95
388.721	5.92
389.082	5.89
389.443	5.85
389.804	5.82
390.165	5.79
390.526	5.75
390.887	5.72
391.248	5.68
391.609	5.65
391.969	5.61
392.33	5.59
392.691	5.55
393.051	5.51
393.412	5.47
393.772	5.44
394.133	5.41
394.493	5.37
394.854	5.34
395.214	5.3
395.574	5.27
395.935	5.23
396.295	5.2
396.655	5.17
397.015	5.14
397.376	5.09
397.736	5.06
398.096	5.03
398.456	4.99
398.816	4.98
399.176	4.93
399.535	4.9
399.895	4.88
400.255	4.85
400.615	4.82
400.975	4.79
401.334	4.76
401.694	4.74
402.054	4.71
402.413	4.67
402.773	4.64
403.132	4.63
403.492	4.6
403.851	4.58
404.211	4.56
404.57	4.55
404.929	4.54
405.288	4.52
405.648	4.51
406.007	4.49
406.366	4.49
406.725	4.48
407.084	4.46
407.443	4.44
407.802	4.42
408.161	4.4
408.52	4.38
408.879	4.37
409.238	4.36
409.596	4.34
409.955	4.34
410.314	4.33
410.673	4.31
411.031	4.3
411.39	4.29
411.748	4.29
412.107	4.28
412.465	4.28
412.824	4.29
413.182	4.29
413.54	4.3
413.899	4.3
414.257	4.32
414.615	4.35
414.974	4.36
415.332	4.39
415.69	4.42
416.048	4.44
416.406	4.46
416.764	4.48
417.122	4.5
417.48	4.53
417.838	4.54
418.195	4.56
418.553	4.57
418.911	4.57
419.269	4.57
419.626	4.55
419.984	4.54
420.342	4.51
420.699	4.49
421.057	4.46
421.414	4.44
421.772	4.42
422.129	4.4
422.486	4.39
422.844	4.38
423.201	4.37
423.558	4.36
423.915	4.35
424.273	4.34
424.63	4.33
424.987	4.32
425.344	4.32
425.701	4.31
426.058	4.3
426.415	4.29
426.772	4.28
427.128	4.27
427.485	4.25
427.842	4.24
428.199	4.22
428.555	4.2
428.912	4.17
429.269	4.14
429.625	4.12
429.982	4.08
430.338	4.05
430.695	4.03
431.051	3.99
431.407	3.97
431.764	3.95
432.12	3.92
432.476	3.91
432.832	3.9
433.189	3.9
433.545	3.9
433.901	3.91
434.257	3.93
434.613	3.95
434.969	3.97
435.325	3.99
435.681	4.03
436.036	4.04
436.392	4.06
436.748	4.07
437.104	4.08
437.459	4.09
437.815	4.11
438.171	4.12
438.526	4.14
438.882	4.17
439.237	4.2
439.593	4.23
439.948	4.26
440.304	4.29
440.659	4.32
441.014	4.33
441.369	4.36
441.725	4.37
442.08	4.39
442.435	4.4
442.79	4.4
443.145	4.4
443.5	4.4
443.855	4.4
444.21	4.4
444.565	4.39
444.92	4.38
445.275	4.37
445.629	4.36
445.984	4.35
446.339	4.34
446.693	4.33
447.048	4.31
447.403	4.3
447.757	4.27
448.112	4.25
448.466	4.22
448.82	4.2
449.175	4.17
449.529	4.16
449.883	4.14
450.238	4.1
450.592	4.1
450.946	4.09
451.3	4.09
451.654	4.09
452.008	4.09
452.362	4.09
452.716	4.09
453.07	4.09
453.424	4.08
453.778	4.07
454.132	4.06
454.486	4.05
454.839	4.03
455.193	4
455.547	3.99
455.9	3.96
456.254	3.94
456.607	3.91
456.961	3.89
457.314	3.87
457.668	3.86
458.021	3.86
458.375	3.85
458.728	3.86
459.081	3.86
459.434	3.86
459.787	3.87
460.141	3.88
460.494	3.89
460.847	3.89
461.2	3.9
461.553	3.91
461.906	3.92
462.259	3.93
462.611	3.93
462.964	3.94
463.317	3.95
463.67	3.96
464.022	3.97
464.375	3.97
464.728	3.98
465.08	3.99
465.433	3.99
465.785	3.99
466.138	3.98
466.49	3.98
466.843	3.96
467.195	3.95
467.547	3.94
467.899	3.92
468.252	3.9
468.604	3.89
468.956	3.87
469.308	3.86
469.66	3.87
470.012	3.86
470.364	3.87
470.716	3.88
471.068	3.9
471.42	3.92
471.772	3.95
472.123	3.96
472.475	3.98
472.827	3.99
473.178	4
473.53	4.02
473.882	4.04
474.233	4.06
474.585	4.09
474.936	4.15
475.288	4.24
475.639	4.35
475.99	4.47
476.342	4.61
476.693	4.77
477.044	4.92
477.395	5.08
477.746	5.23
478.097	5.39
478.448	5.56
478.8	5.71
479.15	5.86
479.501	5.99
479.852	6.11
480.203	6.22
480.554	6.33
480.905	6.44
481.255	6.54
481.606	6.64
481.957	6.72
482.307	6.81
482.658	6.89
483.009	6.97
483.359	7.05
483.709	7.12
484.06	7.19
484.41	7.27
484.761	7.33
485.111	7.39
485.461	7.45
485.811	7.51
486.162	7.56
486.512	7.61
486.862	7.65
487.212	7.67
487.562	7.69
487.912	7.71
488.262	7.71
488.612	7.71
488.961	7.69
489.311	7.66
489.661	7.6
490.011	7.52
490.36	7.42
490.71	7.31
491.06	7.18
491.409	7.06
491.759	6.93
492.108	6.79
492.458	6.65
492.807	6.51
493.157	6.36
493.506	6.22
493.855	6.09
494.204	5.97
494.554	5.86
494.903	5.76
495.252	5.67
495.601	5.58
495.95	5.49
496.299	5.41
496.648	5.34
496.997	5.27
497.346	5.21
497.695	5.16
498.043	5.11
498.392	5.07
498.741	5.03
499.09	4.99
499.438	4.96
499.787	4.94
500.135	4.92
500.484	4.92
500.832	4.92
501.181	4.94
501.529	4.97
501.878	5.02
502.226	5.07
502.574	5.14
502.923	5.21
503.271	5.28
503.619	5.37
503.967	5.45
504.315	5.54
504.663	5.63
505.011	5.72
505.359	5.81
505.707	5.91
506.055	6.01
506.403	6.12
506.751	6.24
507.098	6.35
507.446	6.48
507.794	6.61
508.141	6.75
508.489	6.9
508.837	7.06
509.184	7.22
509.531	7.39
509.879	7.57
510.226	7.76
510.574	7.97
510.921	8.18
511.268	8.41
511.616	8.63
511.963	8.88
512.31	9.12
512.657	9.37
513.004	9.62
513.351	9.86
513.698	10.09
514.045	10.31
514.392	10.54
514.739	10.75
515.086	10.96
515.432	11.18
515.779	11.39
516.126	11.61
516.473	11.85
516.819	12.11
517.166	12.4
517.512	12.7
517.859	13.03
518.205	13.37
518.552	13.75
518.898	14.16
519.245	14.62
519.591	15.16
519.937	15.78
520.283	16.5
520.629	17.27
520.976	18.08
521.322	18.92
521.668	19.78
522.014	20.65
522.36	21.53
522.706	22.38
523.052	23.22
523.398	24.03
523.743	24.78
524.089	25.46
524.435	26.12
524.781	26.77
525.126	27.42
525.472	28.05
525.817	28.68
526.163	29.3
526.509	29.91
526.854	30.51
527.199	31.11
527.545	31.71
527.89	32.33
528.235	32.94
528.581	33.52
528.926	34.07
529.271	34.6
529.616	35.11
529.961	35.6
530.306	36.07
530.651	36.52
530.996	36.93
531.341	37.3
531.686	37.66
532.031	38
532.376	38.37
532.721	38.77
533.065	39.2
533.41	39.65
533.755	40.06
534.099	40.42
534.444	40.74
534.788	41.04
535.133	41.31
535.477	41.57
535.822	41.78
536.166	41.95
536.51	42.04
536.855	42.07
537.199	42.05
537.543	42.03
537.887	42.05
538.231	42.11
538.576	42.16
538.92	42.2
539.264	42.22
539.608	42.21
539.951	42.18
540.295	42.13
540.639	42.07
540.983	41.98
541.327	41.88
541.671	41.73
542.014	41.63
542.358	41.55
542.701	41.56
543.045	41.64
543.389	41.77
543.732	41.9
544.075	42.07
544.419	42.25
544.762	42.42
545.105	42.63
545.449	42.86
545.792	43.09
546.135	43.32
546.478	43.5
546.821	43.61
547.165	43.64
547.508	43.62
547.851	43.53
548.194	43.39
548.536	43.2
548.879	42.98
549.222	42.72
549.565	42.44
549.908	42.18
550.25	41.94
550.593	41.77
550.936	41.69
551.278	41.67
551.621	41.69
551.963	41.75
552.306	41.82
552.648	41.93
552.991	42.08
553.333	42.24
553.675	42.44
554.017	42.69
554.36	42.96
554.702	43.28
555.044	43.64
555.386	44.05
555.728	44.51
556.07	44.88
556.412	45.28
556.754	45.58
557.096	45.82
557.438	46.05
557.78	46.29
558.121	46.52
558.463	46.76
558.805	46.99
559.147	47.22
559.488	47.44
559.83	47.65
560.171	47.87
560.513	48.09
560.854	48.29
561.196	48.5
561.537	48.7
561.878	48.9
562.22	49.09
562.561	49.27
562.902	49.46
563.243	49.65
563.584	49.85
563.925	50.04
564.266	50.21
564.607	50.4
564.948	50.58
565.289	50.76
565.63	50.94
565.971	51.11
566.312	51.28
566.653	51.44
566.993	51.59
567.334	51.75
567.675	51.9
568.015	52.04
568.356	52.18
568.696	52.31
569.037	52.44
569.377	52.56
569.718	52.69
570.058	52.81
570.398	52.93
570.739	53.03
571.079	53.14
571.419	53.25
571.759	53.35
572.099	53.44
572.439	53.55
572.779	53.65
573.119	53.74
573.459	53.84
573.799	53.95
574.139	54.05
574.479	54.14
574.819	54.24
575.158	54.33
575.498	54.43
575.838	54.53
576.177	54.63
576.517	54.72
576.856	54.8
577.196	54.89
577.535	54.97
577.875	55.06
578.214	55.15
578.553	55.24
578.893	55.32
579.232	55.41
579.571	55.48
579.91	55.56
580.25	55.65
580.589	55.74
580.928	55.82
581.267	55.9
581.606	56
581.945	56.08
582.283	56.16
582.622	56.24
582.961	56.34
583.3	56.43
583.639	56.52
583.977	56.59
584.316	56.67
584.654	56.78
584.993	56.86
585.332	56.95
585.67	57.03
586.008	57.11
586.347	57.19
586.685	57.28
587.024	57.36
587.362	57.43
587.7	57.51
588.038	57.59
588.376	57.67
588.715	57.74
589.053	57.83
589.391	57.9
589.729	57.97
590.067	58.04
590.404	58.14
590.742	58.2
591.08	58.27
591.418	58.35
591.756	58.41
592.093	58.47
592.431	58.52
592.769	58.57
593.106	58.63
593.444	58.69
593.781	58.74
594.119	58.79
594.456	58.85
594.793	58.9
595.131	58.97
595.468	59.01
595.805	59.08
596.143	59.14
596.48	59.21
596.817	59.27
597.154	59.34
597.491	59.4
597.828	59.47
598.165	59.54
598.502	59.59
598.839	59.64
599.176	59.7
599.512	59.76
599.849	59.82
600.186	59.87
600.523	59.91
600.859	59.96
601.196	60.01
601.532	60.05
601.869	60.09
602.205	60.15
602.542	60.19
602.878	60.23
603.215	60.27
603.551	60.31
603.887	60.34
604.223	60.38
604.56	60.42
604.896	60.46
605.232	60.48
605.568	60.52
605.904	60.55
606.24	60.6
606.576	60.62
606.912	60.66
607.248	60.68
607.583	60.71
607.919	60.75
608.255	60.76
608.591	60.79
608.926	60.81
609.262	60.85
609.597	60.88
609.933	60.91
610.268	60.93
610.604	60.95
610.939	60.97
611.275	60.99
611.61	61.01
611.945	61.04
612.281	61.06
612.616	61.08
612.951	61.1
613.286	61.11
613.621	61.14
613.956	61.16
614.291	61.18
614.626	61.21
614.961	61.24
615.296	61.27
615.631	61.29
615.966	61.3
616.3	61.33
616.635	61.36
616.97	61.39
617.304	61.42
617.639	61.45
617.973	61.47
618.308	61.5
618.642	61.51
618.977	61.54
619.311	61.57
619.646	61.6
619.98	61.62
620.314	61.66
620.648	61.68
620.983	61.7
621.317	61.73
621.651	61.74
621.985	61.76
622.319	61.79
622.653	61.81
622.987	61.82
623.321	61.83
623.655	61.84
623.988	61.87
624.322	61.89
624.656	61.92
624.99	61.93
625.323	61.94
625.657	61.95
625.99	61.99
626.324	62.01
626.657	62.02
626.991	62.04
627.324	62.06
627.658	62.09
627.991	62.1
628.324	62.11
628.657	62.13
628.991	62.13
629.324	62.14
629.657	62.16
629.99	62.17
630.323	62.2
630.656	62.21
630.989	62.21
631.322	62.22
631.655	62.24
631.987	62.26
632.32	62.28
632.653	62.31
632.986	62.32
633.318	62.33
633.651	62.35
633.984	62.36
634.316	62.39
634.649	62.41
634.981	62.43
635.313	62.46
635.646	62.48
635.978	62.49
636.31	62.51
636.643	62.53
636.975	62.57
637.307	62.6
637.639	62.62
637.971	62.64
638.303	62.66
638.635	62.68
638.967	62.71
639.299	62.72
639.631	62.74
639.963	62.76
640.295	62.78
640.626	62.8
640.958	62.81
641.29	62.81
641.621	62.83
641.953	62.85
642.285	62.88
642.616	62.9
642.948	62.92
643.279	62.94
643.61	62.95
643.942	62.96
644.273	62.97
644.604	63
644.936	63.02
645.267	63.03
645.598	63.04
645.929	63.05
646.26	63.07
646.591	63.09
646.922	63.11
647.253	63.11
647.584	63.13
647.915	63.13
648.245	63.14
648.576	63.14
648.907	63.17
649.238	63.17
649.568	63.19
649.899	63.19
650.229	63.19
650.56	63.19
650.89	63.2
651.221	63.2
651.551	63.22
651.882	63.22
652.212	63.21
652.542	63.22
652.872	63.23
653.203	63.23
653.533	63.24
653.863	63.24
654.193	63.24
654.523	63.24
654.853	63.25
655.183	63.27
655.513	63.27
655.843	63.28
656.172	63.29
656.502	63.31
656.832	63.32
657.162	63.31
657.491	63.33
657.821	63.34
658.15	63.36
658.48	63.36
658.809	63.38
659.139	63.41
659.468	63.41
659.798	63.43
660.127	63.43
660.456	63.45
660.785	63.47
661.115	63.49
661.444	63.5
661.773	63.52
662.102	63.52
662.431	63.52
662.76	63.53
663.089	63.54
663.418	63.55
663.747	63.57
664.076	63.6
664.404	63.6
664.733	63.61
665.062	63.61
665.39	63.63
665.719	63.68
666.048	63.67
666.376	63.69
666.705	63.72
