Data from UWBM88853_Reflection_00014.txt Node
Date: Sun May 02 13:42:34 EDT 2021
User: vgr7
Spectrometer: USB2G7710
Scans to average: 10
Trigger mode: 4
Integration Time (sec): 1.000000E-1
Electric dark correction enabled: true
Boxcar width: 20
XAxis mode: Wavelengths
Number of Pixels in Spectrum: 2048
>>>>>Begin Spectral Data<<<<<
177.721	136.76
178.105	179.22
178.488	187.5
178.871	310.53
179.254	183.17
179.636	96.59
180.019	75.46
180.402	76.39
180.785	70.25
181.168	70.29
181.55	63.96
181.933	57.44
182.316	44.29
182.698	41.51
183.081	36.4
183.463	35.28
183.846	32.92
184.228	31.1
184.611	32.14
184.993	32.28
185.376	29.77
185.758	31.31
186.14	29.86
186.522	31.29
186.904	30.88
187.287	31.76
187.669	34.98
188.051	33.06
188.433	32.18
188.815	31.33
189.197	32.7
189.579	32.38
189.961	33.46
190.342	32.17
190.724	33.11
191.106	32
191.488	31.04
191.869	28.01
192.251	24.56
192.633	24.46
193.014	21.25
193.396	19.52
193.777	20.95
194.159	21.94
194.54	20.69
194.922	19.41
195.303	19.03
195.684	18.58
196.065	17.34
196.447	18.09
196.828	16.65
197.209	15.72
197.59	14.37
197.971	14.74
198.352	15.69
198.733	16.25
199.114	16.74
199.495	17.82
199.876	17.91
200.257	17.77
200.638	16.52
201.018	17.65
201.399	16.75
201.78	16.14
202.16	14.24
202.541	12.81
202.922	14.44
203.302	13.42
203.683	13.89
204.063	14.95
204.444	15.53
204.824	14.4
205.204	13.73
205.585	14.18
205.965	15.23
206.345	15.97
206.725	16.35
207.106	16.41
207.486	17.61
207.866	19.53
208.246	19.23
208.626	19.99
209.006	20.93
209.386	18.51
209.766	17.27
210.145	17.9
210.525	19.44
210.905	20.76
211.285	19.81
211.664	19.75
212.044	19.13
212.424	20.01
212.803	20.85
213.183	21.66
213.562	23.37
213.942	22.12
214.321	21.85
214.701	21.33
215.08	20.97
215.459	20.83
215.838	19.93
216.218	19.83
216.597	18.45
216.976	19.33
217.355	20.04
217.734	21.11
218.113	21.7
218.492	19.87
218.871	19.43
219.25	18.37
219.629	17.49
220.008	17.62
220.387	17.16
220.766	17.69
221.144	16.04
221.523	14.86
221.902	12.79
222.28	12.52
222.659	11.78
223.037	10.56
223.416	10.3
223.794	9.79
224.173	9.6
224.551	8.12
224.929	9.23
225.308	9.23
225.686	8.54
226.064	8.04
226.442	7.02
226.821	7.38
227.199	8.03
227.577	8.24
227.955	7.88
228.333	7.64
228.711	7.33
229.089	6.57
229.467	6.25
229.845	6.14
230.222	6.11
230.6	5.97
230.978	5.56
231.356	5.83
231.733	5.74
232.111	5.58
232.488	5.6
232.866	5.23
233.243	4.94
233.621	5.01
233.998	5.17
234.376	5.05
234.753	4.74
235.13	4.53
235.508	4.32
235.885	4.22
236.262	3.94
236.639	3.85
237.016	3.77
237.393	3.75
237.77	3.67
238.147	3.59
238.524	3.64
238.901	3.43
239.278	3.39
239.655	3.36
240.032	3.31
240.409	3.19
240.785	3.17
241.162	3.18
241.539	3.13
241.915	3.2
242.292	3.2
242.668	3.12
243.045	3.04
243.421	3.03
243.798	3.02
244.174	3.06
244.551	3.06
244.927	3.1
245.303	3.14
245.679	3.16
246.056	3.11
246.432	3.13
246.808	3.1
247.184	3.11
247.56	3.15
247.936	3.11
248.312	3.12
248.688	3.11
249.064	3.07
249.44	3.07
249.815	3.06
250.191	3.05
250.567	3.08
250.943	3.07
251.318	3.05
251.694	3.07
252.069	3.07
252.445	3.06
252.82	3.05
253.196	3.03
253.571	3.02
253.947	2.99
254.322	2.97
254.697	2.97
255.073	2.95
255.448	3
255.823	2.98
256.198	2.97
256.573	2.96
256.948	2.97
257.323	2.94
257.698	2.91
258.073	2.88
258.448	2.88
258.823	2.87
259.198	2.84
259.573	2.82
259.948	2.83
260.322	2.81
260.697	2.78
261.072	2.74
261.446	2.74
261.821	2.72
262.195	2.71
262.57	2.69
262.944	2.67
263.319	2.67
263.693	2.66
264.067	2.67
264.442	2.66
264.816	2.63
265.19	2.62
265.564	2.63
265.938	2.61
266.313	2.61
266.687	2.6
267.061	2.61
267.435	2.6
267.809	2.59
268.183	2.59
268.556	2.58
268.93	2.57
269.304	2.58
269.678	2.6
270.051	2.57
270.425	2.55
270.799	2.52
271.172	2.54
271.546	2.54
271.919	2.53
272.293	2.51
272.666	2.51
273.04	2.52
273.413	2.56
273.787	2.57
274.16	2.57
274.533	2.57
274.906	2.58
275.279	2.57
275.653	2.57
276.026	2.57
276.399	2.58
276.772	2.59
277.145	2.58
277.518	2.59
277.891	2.58
278.263	2.56
278.636	2.57
279.009	2.56
279.382	2.56
279.755	2.57
280.127	2.57
280.5	2.6
280.872	2.61
281.245	2.61
281.617	2.62
281.99	2.64
282.362	2.63
282.735	2.64
283.107	2.64
283.479	2.65
283.852	2.67
284.224	2.69
284.596	2.69
284.968	2.69
285.34	2.72
285.713	2.74
286.085	2.76
286.457	2.77
286.829	2.78
287.201	2.8
287.572	2.82
287.944	2.84
288.316	2.85
288.688	2.86
289.06	2.9
289.431	2.93
289.803	2.97
290.175	3
290.546	3.04
290.918	3.07
291.289	3.12
291.661	3.15
292.032	3.17
292.403	3.21
292.775	3.26
293.146	3.31
293.517	3.36
293.889	3.39
294.26	3.43
294.631	3.49
295.002	3.54
295.373	3.59
295.744	3.62
296.115	3.67
296.486	3.74
296.857	3.8
297.228	3.84
297.599	3.91
297.97	3.97
298.34	4.03
298.711	4.09
299.082	4.14
299.452	4.19
299.823	4.25
300.194	4.32
300.564	4.39
300.935	4.45
301.305	4.5
301.676	4.55
302.046	4.63
302.416	4.68
302.787	4.74
303.157	4.82
303.527	4.89
303.897	4.97
304.267	5.06
304.637	5.12
305.008	5.21
305.378	5.29
305.748	5.36
306.117	5.45
306.487	5.53
306.857	5.63
307.227	5.72
307.597	5.8
307.967	5.88
308.336	5.96
308.706	6.04
309.076	6.11
309.445	6.2
309.815	6.25
310.184	6.33
310.554	6.4
310.923	6.47
311.293	6.55
311.662	6.62
312.031	6.68
312.401	6.76
312.77	6.82
313.139	6.89
313.508	6.96
313.877	7.04
314.246	7.13
314.616	7.21
314.985	7.28
315.353	7.34
315.722	7.39
316.091	7.47
316.46	7.55
316.829	7.64
317.198	7.73
317.567	7.82
317.935	7.92
318.304	7.99
318.672	8.07
319.041	8.17
319.41	8.22
319.778	8.33
320.147	8.4
320.515	8.48
320.883	8.55
321.252	8.64
321.62	8.72
321.988	8.79
322.357	8.85
322.725	8.93
323.093	8.98
323.461	9.04
323.829	9.12
324.197	9.17
324.565	9.22
324.933	9.29
325.301	9.33
325.669	9.39
326.037	9.43
326.405	9.48
326.772	9.53
327.14	9.58
327.508	9.61
327.875	9.66
328.243	9.71
328.61	9.75
328.978	9.78
329.346	9.81
329.713	9.86
330.08	9.9
330.448	9.93
330.815	9.98
331.182	10.02
331.55	10.06
331.917	10.1
332.284	10.12
332.651	10.16
333.018	10.19
333.385	10.24
333.752	10.3
334.119	10.34
334.486	10.39
334.853	10.41
335.22	10.45
335.587	10.49
335.954	10.52
336.32	10.54
336.687	10.55
337.054	10.58
337.42	10.64
337.787	10.68
338.153	10.71
338.52	10.72
338.886	10.75
339.253	10.79
339.619	10.84
339.986	10.86
340.352	10.89
340.718	10.92
341.084	10.95
341.451	10.97
341.817	11
342.183	11.04
342.549	11.06
342.915	11.08
343.281	11.11
343.647	11.13
344.013	11.16
344.379	11.18
344.745	11.19
345.11	11.21
345.476	11.24
345.842	11.26
346.208	11.29
346.573	11.3
346.939	11.31
347.304	11.34
347.67	11.35
348.035	11.38
348.401	11.39
348.766	11.39
349.132	11.39
349.497	11.41
349.862	11.43
350.228	11.43
350.593	11.44
350.958	11.45
351.323	11.47
351.688	11.48
352.053	11.47
352.418	11.46
352.783	11.44
353.148	11.43
353.513	11.44
353.878	11.43
354.243	11.41
354.608	11.4
354.972	11.4
355.337	11.39
355.702	11.37
356.066	11.36
356.431	11.34
356.795	11.31
357.16	11.28
357.524	11.27
357.889	11.26
358.253	11.25
358.618	11.22
358.982	11.2
359.346	11.17
359.71	11.15
360.075	11.13
360.439	11.1
360.803	11.08
361.167	11.05
361.531	11.02
361.895	11
362.259	10.96
362.623	10.92
362.987	10.89
363.351	10.85
363.714	10.81
364.078	10.78
364.442	10.74
364.806	10.69
365.169	10.66
365.533	10.61
365.896	10.57
366.26	10.52
366.623	10.47
366.987	10.42
367.35	10.37
367.714	10.32
368.077	10.26
368.44	10.2
368.803	10.13
369.167	10.07
369.53	9.99
369.893	9.91
370.256	9.83
370.619	9.75
370.982	9.68
371.345	9.6
371.708	9.53
372.071	9.45
372.434	9.38
372.797	9.3
373.159	9.21
373.522	9.14
373.885	9.06
374.247	8.99
374.61	8.9
374.973	8.82
375.335	8.75
375.698	8.67
376.06	8.59
376.423	8.51
376.785	8.43
377.147	8.36
377.51	8.29
377.872	8.22
378.234	8.15
378.596	8.08
378.958	8
379.321	7.92
379.683	7.85
380.045	7.77
380.407	7.71
380.769	7.63
381.13	7.57
381.492	7.5
381.854	7.43
382.216	7.37
382.578	7.31
382.939	7.25
383.301	7.19
383.663	7.13
384.024	7.07
384.386	7.01
384.747	6.96
385.109	6.9
385.47	6.84
385.832	6.78
386.193	6.72
386.554	6.66
386.916	6.6
387.277	6.54
387.638	6.49
387.999	6.44
388.36	6.39
388.721	6.35
389.082	6.3
389.443	6.25
389.804	6.19
390.165	6.14
390.526	6.1
390.887	6.05
391.248	6
391.609	5.95
391.969	5.9
392.33	5.85
392.691	5.8
393.051	5.75
393.412	5.71
393.772	5.66
394.133	5.61
394.493	5.56
394.854	5.52
395.214	5.47
395.574	5.42
395.935	5.38
396.295	5.33
396.655	5.28
397.015	5.24
397.376	5.19
397.736	5.15
398.096	5.11
398.456	5.06
398.816	5.02
399.176	4.97
399.535	4.93
399.895	4.88
400.255	4.85
400.615	4.81
400.975	4.77
401.334	4.74
401.694	4.7
402.054	4.67
402.413	4.64
402.773	4.6
403.132	4.58
403.492	4.55
403.851	4.52
404.211	4.49
404.57	4.47
404.929	4.45
405.288	4.42
405.648	4.4
406.007	4.39
406.366	4.37
406.725	4.35
407.084	4.33
407.443	4.31
407.802	4.29
408.161	4.27
408.52	4.26
408.879	4.24
409.238	4.23
409.596	4.21
409.955	4.2
410.314	4.18
410.673	4.16
411.031	4.15
411.39	4.13
411.748	4.11
412.107	4.1
412.465	4.09
412.824	4.09
413.182	4.09
413.54	4.09
413.899	4.1
414.257	4.11
414.615	4.13
414.974	4.13
415.332	4.15
415.69	4.16
416.048	4.17
416.406	4.19
416.764	4.19
417.122	4.2
417.48	4.21
417.838	4.22
418.195	4.22
418.553	4.23
418.911	4.22
419.269	4.22
419.626	4.2
419.984	4.18
420.342	4.15
420.699	4.12
421.057	4.09
421.414	4.06
421.772	4.04
422.129	4.02
422.486	4
422.844	3.99
423.201	3.98
423.558	3.96
423.915	3.95
424.273	3.94
424.63	3.93
424.987	3.92
425.344	3.9
425.701	3.89
426.058	3.88
426.415	3.87
426.772	3.86
427.128	3.84
427.485	3.82
427.842	3.81
428.199	3.78
428.555	3.76
428.912	3.73
429.269	3.7
429.625	3.67
429.982	3.64
430.338	3.61
430.695	3.59
431.051	3.55
431.407	3.53
431.764	3.51
432.12	3.49
432.476	3.48
432.832	3.47
433.189	3.47
433.545	3.47
433.901	3.48
434.257	3.5
434.613	3.52
434.969	3.54
435.325	3.56
435.681	3.59
436.036	3.61
436.392	3.63
436.748	3.64
437.104	3.65
437.459	3.67
437.815	3.68
438.171	3.7
438.526	3.71
438.882	3.74
439.237	3.77
439.593	3.79
439.948	3.82
440.304	3.85
440.659	3.86
441.014	3.88
441.369	3.9
441.725	3.91
442.08	3.92
442.435	3.93
442.79	3.93
443.145	3.93
443.5	3.92
443.855	3.92
444.21	3.91
444.565	3.9
444.92	3.89
445.275	3.88
445.629	3.87
445.984	3.85
446.339	3.84
446.693	3.82
447.048	3.8
447.403	3.78
447.757	3.76
448.112	3.73
448.466	3.7
448.82	3.68
449.175	3.65
449.529	3.63
449.883	3.61
450.238	3.58
450.592	3.57
450.946	3.55
451.3	3.55
451.654	3.55
452.008	3.54
452.362	3.54
452.716	3.54
453.07	3.53
453.424	3.52
453.778	3.51
454.132	3.5
454.486	3.49
454.839	3.48
455.193	3.46
455.547	3.45
455.9	3.42
456.254	3.41
456.607	3.39
456.961	3.37
457.314	3.35
457.668	3.35
458.021	3.35
458.375	3.35
458.728	3.35
459.081	3.36
459.434	3.37
459.787	3.38
460.141	3.4
460.494	3.41
460.847	3.42
461.2	3.43
461.553	3.45
461.906	3.46
462.259	3.47
462.611	3.48
462.964	3.49
463.317	3.51
463.67	3.52
464.022	3.55
464.375	3.56
464.728	3.58
465.08	3.59
465.433	3.61
465.785	3.62
466.138	3.62
466.49	3.62
466.843	3.62
467.195	3.62
467.547	3.61
467.899	3.61
468.252	3.6
468.604	3.59
468.956	3.59
469.308	3.59
469.66	3.6
470.012	3.6
470.364	3.62
470.716	3.63
471.068	3.65
471.42	3.68
471.772	3.7
472.123	3.72
472.475	3.74
472.827	3.75
473.178	3.76
473.53	3.77
473.882	3.79
474.233	3.81
474.585	3.84
474.936	3.89
475.288	3.97
475.639	4.06
475.99	4.17
476.342	4.3
476.693	4.43
477.044	4.57
477.395	4.7
477.746	4.85
478.097	4.99
478.448	5.13
478.8	5.27
479.15	5.39
479.501	5.51
479.852	5.61
480.203	5.71
480.554	5.81
480.905	5.9
481.255	5.98
481.606	6.06
481.957	6.14
482.307	6.21
482.658	6.28
483.009	6.35
483.359	6.42
483.709	6.48
484.06	6.54
484.41	6.6
484.761	6.66
485.111	6.72
485.461	6.78
485.811	6.83
486.162	6.88
486.512	6.92
486.862	6.95
487.212	6.97
487.562	6.99
487.912	7
488.262	7.01
488.612	7.01
488.961	7
489.311	6.98
489.661	6.93
490.011	6.86
490.36	6.79
490.71	6.7
491.06	6.6
491.409	6.5
491.759	6.4
492.108	6.28
492.458	6.17
492.807	6.05
493.157	5.94
493.506	5.83
493.855	5.73
494.204	5.65
494.554	5.57
494.903	5.49
495.252	5.43
495.601	5.37
495.95	5.32
496.299	5.28
496.648	5.24
496.997	5.22
497.346	5.2
497.695	5.18
498.043	5.17
498.392	5.17
498.741	5.17
499.09	5.18
499.438	5.19
499.787	5.22
500.135	5.25
500.484	5.3
500.832	5.36
501.181	5.44
501.529	5.53
501.878	5.65
502.226	5.77
502.574	5.91
502.923	6.05
503.271	6.2
503.619	6.36
503.967	6.52
504.315	6.69
504.663	6.86
505.011	7.04
505.359	7.22
505.707	7.41
506.055	7.61
506.403	7.81
506.751	8.02
507.098	8.24
507.446	8.46
507.794	8.69
508.141	8.94
508.489	9.2
508.837	9.47
509.184	9.74
509.531	10.03
509.879	10.33
510.226	10.65
510.574	10.99
510.921	11.33
511.268	11.69
511.616	12.06
511.963	12.44
512.31	12.82
512.657	13.21
513.004	13.59
513.351	13.96
513.698	14.32
514.045	14.67
514.392	15
514.739	15.32
515.086	15.63
515.432	15.94
515.779	16.25
516.126	16.58
516.473	16.92
516.819	17.29
517.166	17.68
517.512	18.09
517.859	18.54
518.205	19
518.552	19.5
518.898	20.03
519.245	20.63
519.591	21.33
519.937	22.14
520.283	23.05
520.629	24.04
520.976	25.06
521.322	26.12
521.668	27.21
522.014	28.29
522.36	29.36
522.706	30.42
523.052	31.44
523.398	32.41
523.743	33.31
524.089	34.12
524.435	34.89
524.781	35.63
525.126	36.36
525.472	37.08
525.817	37.78
526.163	38.46
526.509	39.12
526.854	39.77
527.199	40.42
527.545	41.07
527.89	41.73
528.235	42.38
528.581	42.99
528.926	43.57
529.271	44.12
529.616	44.63
529.961	45.13
530.306	45.57
530.651	45.98
530.996	46.35
531.341	46.69
531.686	47
532.031	47.28
532.376	47.59
532.721	47.92
533.065	48.28
533.41	48.64
533.755	48.94
534.099	49.18
534.444	49.35
534.788	49.48
535.133	49.58
535.477	49.64
535.822	49.65
536.166	49.62
536.51	49.5
536.855	49.31
537.199	49.07
537.543	48.83
537.887	48.64
538.231	48.51
538.576	48.38
538.92	48.23
539.264	48.06
539.608	47.87
539.951	47.65
540.295	47.41
540.639	47.17
540.983	46.89
541.327	46.58
541.671	46.27
542.014	46
542.358	45.75
542.701	45.62
543.045	45.56
543.389	45.56
543.732	45.57
544.075	45.61
544.419	45.67
544.762	45.73
545.105	45.81
545.449	45.91
545.792	46.02
546.135	46.13
546.478	46.17
546.821	46.15
547.165	46.05
547.508	45.88
547.851	45.64
548.194	45.36
548.536	45
548.879	44.61
549.222	44.18
549.565	43.74
549.908	43.31
550.25	42.91
550.593	42.59
550.936	42.36
551.278	42.21
551.621	42.1
551.963	42.01
552.306	41.96
552.648	41.94
552.991	41.95
553.333	41.99
553.675	42.08
554.017	42.19
554.36	42.34
554.702	42.51
555.044	42.75
555.386	43.03
555.728	43.34
556.07	43.59
556.412	43.87
556.754	44.03
557.096	44.15
557.438	44.27
557.78	44.39
558.121	44.51
558.463	44.64
558.805	44.76
559.147	44.87
559.488	44.99
559.83	45.11
560.171	45.22
560.513	45.32
560.854	45.43
561.196	45.54
561.537	45.64
561.878	45.74
562.22	45.83
562.561	45.93
562.902	46.03
563.243	46.13
563.584	46.22
563.925	46.33
564.266	46.44
564.607	46.54
564.948	46.63
565.289	46.73
565.63	46.82
565.971	46.92
566.312	47.01
566.653	47.1
566.993	47.2
567.334	47.28
567.675	47.37
568.015	47.44
568.356	47.53
568.696	47.61
569.037	47.69
569.377	47.76
569.718	47.84
570.058	47.91
570.398	47.97
570.739	48.03
571.079	48.09
571.419	48.14
571.759	48.19
572.099	48.24
572.439	48.28
572.779	48.33
573.119	48.37
573.459	48.41
573.799	48.46
574.139	48.5
574.479	48.56
574.819	48.61
575.158	48.65
575.498	48.7
575.838	48.75
576.177	48.78
576.517	48.83
576.856	48.86
577.196	48.91
577.535	48.95
577.875	48.99
578.214	49.01
578.553	49.06
578.893	49.09
579.232	49.13
579.571	49.16
579.91	49.19
580.25	49.22
580.589	49.25
580.928	49.28
581.267	49.31
581.606	49.35
581.945	49.39
582.283	49.42
582.622	49.46
582.961	49.49
583.3	49.53
583.639	49.56
583.977	49.61
584.316	49.66
584.654	49.7
584.993	49.75
585.332	49.79
585.67	49.84
586.008	49.88
586.347	49.93
586.685	49.97
587.024	50.02
587.362	50.08
587.7	50.11
588.038	50.16
588.376	50.2
588.715	50.25
589.053	50.31
589.391	50.36
589.729	50.41
590.067	50.46
590.404	50.51
590.742	50.55
591.08	50.6
591.418	50.64
591.756	50.69
592.093	50.73
592.431	50.76
592.769	50.81
593.106	50.83
593.444	50.87
593.781	50.9
594.119	50.94
594.456	50.97
594.793	51
595.131	51.04
595.468	51.07
595.805	51.1
596.143	51.15
596.48	51.18
596.817	51.23
597.154	51.27
597.491	51.33
597.828	51.36
598.165	51.4
598.502	51.45
598.839	51.49
599.176	51.52
599.512	51.56
599.849	51.58
600.186	51.61
600.523	51.65
600.859	51.68
601.196	51.72
601.532	51.75
601.869	51.77
602.205	51.8
602.542	51.82
602.878	51.85
603.215	51.87
603.551	51.89
603.887	51.92
604.223	51.95
604.56	51.98
604.896	52
605.232	52.02
605.568	52.04
605.904	52.07
606.24	52.09
606.576	52.1
606.912	52.11
607.248	52.13
607.583	52.15
607.919	52.17
608.255	52.2
608.591	52.21
608.926	52.24
609.262	52.26
609.597	52.27
609.933	52.27
610.268	52.29
610.604	52.3
610.939	52.31
611.275	52.32
611.61	52.33
611.945	52.33
612.281	52.33
612.616	52.34
612.951	52.36
613.286	52.36
613.621	52.39
613.956	52.4
614.291	52.41
614.626	52.42
614.961	52.42
615.296	52.45
615.631	52.47
615.966	52.49
616.3	52.52
616.635	52.54
616.97	52.56
617.304	52.58
617.639	52.61
617.973	52.63
618.308	52.65
618.642	52.66
618.977	52.69
619.311	52.7
619.646	52.71
619.98	52.72
620.314	52.75
620.648	52.78
620.983	52.8
621.317	52.83
621.651	52.84
621.985	52.86
622.319	52.89
622.653	52.91
622.987	52.93
623.321	52.94
623.655	52.96
623.988	52.97
624.322	52.98
624.656	53
624.99	53.01
625.323	53.02
625.657	53.04
625.99	53.06
626.324	53.08
626.657	53.09
626.991	53.11
627.324	53.12
627.658	53.13
627.991	53.14
628.324	53.16
628.657	53.17
628.991	53.18
629.324	53.2
629.657	53.19
629.99	53.2
630.323	53.21
630.656	53.22
630.989	53.23
631.322	53.23
631.655	53.25
631.987	53.26
632.32	53.28
632.653	53.29
632.986	53.32
633.318	53.33
633.651	53.36
633.984	53.36
634.316	53.39
634.649	53.39
634.981	53.4
635.313	53.41
635.646	53.42
635.978	53.42
636.31	53.43
636.643	53.45
636.975	53.46
637.307	53.49
637.639	53.5
637.971	53.5
638.303	53.5
638.635	53.52
638.967	53.53
639.299	53.55
639.631	53.55
639.963	53.56
640.295	53.58
640.626	53.6
640.958	53.63
641.29	53.64
641.621	53.67
641.953	53.67
642.285	53.7
642.616	53.72
642.948	53.74
643.279	53.78
643.61	53.79
643.942	53.79
644.273	53.79
644.604	53.81
644.936	53.83
645.267	53.84
645.598	53.86
645.929	53.86
646.26	53.86
646.591	53.85
646.922	53.87
647.253	53.88
647.584	53.91
647.915	53.9
648.245	53.92
648.576	53.93
648.907	53.95
649.238	53.96
649.568	53.96
649.899	53.96
650.229	53.97
650.56	54
650.89	54.02
651.221	54.03
651.551	54.03
651.882	54.06
652.212	54.08
652.542	54.08
652.872	54.09
653.203	54.1
653.533	54.12
653.863	54.12
654.193	54.13
654.523	54.11
654.853	54.13
655.183	54.14
655.513	54.16
655.843	54.16
656.172	54.18
656.502	54.18
656.832	54.18
657.162	54.2
657.491	54.22
657.821	54.25
658.15	54.25
658.48	54.27
658.809	54.3
659.139	54.31
659.468	54.33
659.798	54.35
660.127	54.36
660.456	54.38
660.785	54.39
661.115	54.4
661.444	54.41
661.773	54.42
662.102	54.43
662.431	54.42
662.76	54.44
663.089	54.47
663.418	54.48
663.747	54.49
664.076	54.49
664.404	54.51
664.733	54.52
665.062	54.53
665.39	54.54
665.719	54.55
666.048	54.57
666.376	54.58
666.705	54.58
667.033	54.59
667.362	54.61
