Data from UWBM122617_Reflection_00012.txt Node
Date: Sun May 02 12:18:12 EDT 2021
User: vgr7
Spectrometer: USB2G7710
Scans to average: 10
Trigger mode: 4
Integration Time (sec): 1.000000E-1
Electric dark correction enabled: true
Boxcar width: 10
XAxis mode: Wavelengths
Number of Pixels in Spectrum: 2048
>>>>>Begin Spectral Data<<<<<
177.721	50
178.105	254.55
178.488	77.99
178.871	203.8
179.254	73.08
179.636	156.36
180.019	58.04
180.402	45
180.785	93.55
181.168	51.47
181.55	29.85
181.933	21.52
182.316	31.39
182.698	52.11
183.081	15.57
183.463	11.43
183.846	40.98
184.228	20
184.611	43.4
184.993	37.23
185.376	26.96
185.758	24.07
186.14	17.15
186.522	16.89
186.904	11.45
187.287	14.8
187.669	13.69
188.051	13.87
188.433	15.95
188.815	12.2
189.197	15.91
189.579	15.8
189.961	15.25
190.342	13.36
190.724	13.76
191.106	15.92
191.488	13.08
191.869	7.41
192.251	9.22
192.633	5.42
193.014	7.27
193.396	8.57
193.777	10.64
194.159	11.44
194.54	9.14
194.922	8.28
195.303	13.87
195.684	16.17
196.065	12.21
196.447	12.45
196.828	10.55
197.209	8.98
197.59	8.72
197.971	8.27
198.352	10.66
198.733	16.1
199.114	13.86
199.495	16.74
199.876	15.67
200.257	14.78
200.638	15.11
201.018	12.06
201.399	11.74
201.78	6.32
202.16	6.72
202.541	4.57
202.922	8.38
203.302	2.14
203.683	2.68
204.063	2.16
204.444	0.24
204.824	7.7
205.204	6.11
205.585	8.87
205.965	8.11
206.345	8.25
206.725	-2.02
207.106	-2.91
207.486	-7.22
207.866	-2.89
208.246	0.58
208.626	3.85
209.006	3.98
209.386	2.61
209.766	3.51
210.145	0.74
210.525	2.46
210.905	-0.8
211.285	1.75
211.664	-1.28
212.044	3.14
212.424	6.82
212.803	1.17
213.183	6.15
213.562	4.53
213.942	2.51
214.321	0.97
214.701	3.34
215.08	6.44
215.459	9.56
215.838	6.96
216.218	6.41
216.597	4.7
216.976	2.79
217.355	3.35
217.734	8.01
218.113	11.73
218.492	13.74
218.871	15.69
219.25	13.93
219.629	16.75
220.008	13.69
220.387	9.54
220.766	5.97
221.144	2.45
221.523	4.66
221.902	7.71
222.28	8.44
222.659	8.58
223.037	8.37
223.416	7.83
223.794	9.1
224.173	8.33
224.551	9.59
224.929	9.09
225.308	10.04
225.686	8.56
226.064	7.34
226.442	7.03
226.821	7.64
227.199	7.34
227.577	6.64
227.955	6.82
228.333	7.57
228.711	8.23
229.089	9.23
229.467	8.45
229.845	8.74
230.222	9.06
230.6	9.4
230.978	9.57
231.356	9.81
231.733	9.64
232.111	10.59
232.488	10.24
232.866	9.9
233.243	9.09
233.621	8.81
233.998	8.72
234.376	8.84
234.753	8.73
235.13	9.32
235.508	9.84
235.885	9.91
236.262	9.75
236.639	10.26
237.016	9.67
237.393	9.35
237.77	8.69
238.147	8.57
238.524	8.49
238.901	8.33
239.278	8.22
239.655	8.04
240.032	7.5
240.409	7.3
240.785	7.16
241.162	7.16
241.539	7.25
241.915	7.12
242.292	7.11
242.668	6.94
243.045	6.71
243.421	6.45
243.798	6.24
244.174	6.17
244.551	6.03
244.927	6.01
245.303	5.99
245.679	6.04
246.056	5.95
246.432	5.92
246.808	5.86
247.184	5.8
247.56	5.76
247.936	5.84
248.312	5.85
248.688	5.89
249.064	5.84
249.44	5.77
249.815	5.81
250.191	5.69
250.567	5.62
250.943	5.64
251.318	5.65
251.694	5.65
252.069	5.55
252.445	5.6
252.82	5.54
253.196	5.57
253.571	5.49
253.947	5.5
254.322	5.44
254.697	5.42
255.073	5.42
255.448	5.4
255.823	5.32
256.198	5.19
256.573	5.1
256.948	5.08
257.323	5.13
257.698	5.1
258.073	5.13
258.448	5.19
258.823	5.21
259.198	5.18
259.573	5.21
259.948	5.27
260.322	5.18
260.697	5.21
261.072	5.16
261.446	5.14
261.821	5.13
262.195	5.08
262.57	5.06
262.944	5.03
263.319	5.04
263.693	5.02
264.067	5.06
264.442	5.11
264.816	5.15
265.19	5.1
265.564	5.08
265.938	5.01
266.313	5
266.687	4.92
267.061	4.94
267.435	4.91
267.809	4.86
268.183	4.88
268.556	4.88
268.93	4.87
269.304	4.81
269.678	4.75
270.051	4.77
270.425	4.77
270.799	4.79
271.172	4.76
271.546	4.76
271.919	4.75
272.293	4.71
272.666	4.7
273.04	4.72
273.413	4.65
273.787	4.64
274.16	4.62
274.533	4.62
274.906	4.62
275.279	4.67
275.653	4.7
276.026	4.64
276.399	4.61
276.772	4.66
277.145	4.77
277.518	4.75
277.891	4.8
278.263	4.79
278.636	4.83
279.009	4.88
279.382	4.83
279.755	4.82
280.127	4.85
280.5	4.84
280.872	4.78
281.245	4.88
281.617	4.88
281.99	4.88
282.362	4.88
282.735	4.82
283.107	4.77
283.479	4.79
283.852	4.82
284.224	4.83
284.596	4.78
284.968	4.77
285.34	4.82
285.713	4.83
286.085	4.82
286.457	4.8
286.829	4.76
287.201	4.8
287.572	4.79
287.944	4.81
288.316	4.83
288.688	4.88
289.06	4.85
289.431	4.88
289.803	4.91
290.175	4.93
290.546	4.99
290.918	5.04
291.289	5.01
291.661	5.05
292.032	5.02
292.403	5.07
292.775	5.07
293.146	5.08
293.517	5.1
293.889	5.17
294.26	5.19
294.631	5.2
295.002	5.24
295.373	5.31
295.744	5.32
296.115	5.35
296.486	5.38
296.857	5.42
297.228	5.48
297.599	5.52
297.97	5.55
298.34	5.56
298.711	5.58
299.082	5.58
299.452	5.6
299.823	5.7
300.194	5.72
300.564	5.73
300.935	5.77
301.305	5.84
301.676	5.84
302.046	5.83
302.416	5.93
302.787	5.97
303.157	6.02
303.527	6.11
303.897	6.15
304.267	6.21
304.637	6.27
305.008	6.3
305.378	6.33
305.748	6.4
306.117	6.45
306.487	6.53
306.857	6.65
307.227	6.74
307.597	6.78
307.967	6.88
308.336	6.96
308.706	7.04
309.076	7.03
309.445	7.09
309.815	7.18
310.184	7.22
310.554	7.27
310.923	7.28
311.293	7.32
311.662	7.38
312.031	7.39
312.401	7.45
312.77	7.53
313.139	7.63
313.508	7.65
313.877	7.76
314.246	7.77
314.616	7.82
314.985	7.85
315.353	7.9
315.722	7.95
316.091	8.04
316.46	8.13
316.829	8.24
317.198	8.31
317.567	8.35
317.935	8.41
318.304	8.49
318.672	8.58
319.041	8.64
319.41	8.67
319.778	8.79
320.147	8.85
320.515	8.87
320.883	8.88
321.252	8.92
321.62	8.95
321.988	9.02
322.357	9.07
322.725	9.14
323.093	9.19
323.461	9.2
323.829	9.23
324.197	9.26
324.565	9.32
324.933	9.34
325.301	9.43
325.669	9.48
326.037	9.51
326.405	9.54
326.772	9.57
327.14	9.64
327.508	9.65
327.875	9.72
328.243	9.78
328.61	9.84
328.978	9.94
329.346	9.97
329.713	9.99
330.08	10.02
330.448	10.06
330.815	10.12
331.182	10.16
331.55	10.19
331.917	10.24
332.284	10.23
332.651	10.29
333.018	10.3
333.385	10.29
333.752	10.29
334.119	10.3
334.486	10.32
334.853	10.33
335.22	10.35
335.587	10.32
335.954	10.32
336.32	10.3
336.687	10.31
337.054	10.29
337.42	10.37
337.787	10.4
338.153	10.45
338.52	10.47
338.886	10.51
339.253	10.5
339.619	10.53
339.986	10.58
340.352	10.6
340.718	10.67
341.084	10.72
341.451	10.74
341.817	10.74
342.183	10.8
342.549	10.8
342.915	10.82
343.281	10.87
343.647	10.89
344.013	10.9
344.379	10.93
344.745	10.96
345.11	10.97
345.476	10.99
345.842	11.01
346.208	10.99
346.573	11
346.939	11.02
347.304	11
347.67	11
348.035	11.02
348.401	10.98
348.766	11
349.132	11.01
349.497	11.05
349.862	11.03
350.228	11.05
350.593	11.04
350.958	11.03
351.323	11.02
351.688	11.05
352.053	11.03
352.418	11.04
352.783	11.01
353.148	10.99
353.513	10.93
353.878	10.96
354.243	10.96
354.608	10.95
354.972	10.94
355.337	10.89
355.702	10.84
356.066	10.83
356.431	10.8
356.795	10.78
357.16	10.74
357.524	10.71
357.889	10.68
358.253	10.65
358.618	10.62
358.982	10.61
359.346	10.58
359.71	10.53
360.075	10.51
360.439	10.5
360.803	10.47
361.167	10.44
361.531	10.4
361.895	10.36
362.259	10.33
362.623	10.31
362.987	10.29
363.351	10.28
363.714	10.27
364.078	10.22
364.442	10.19
364.806	10.15
365.169	10.12
365.533	10.07
365.896	10.05
366.26	9.99
366.623	9.93
366.987	9.88
367.35	9.86
367.714	9.8
368.077	9.74
368.44	9.68
368.803	9.63
369.167	9.58
369.53	9.55
369.893	9.5
370.256	9.42
370.619	9.35
370.982	9.27
371.345	9.16
371.708	9.12
372.071	9.05
372.434	9.01
372.797	8.95
373.159	8.91
373.522	8.84
373.885	8.79
374.247	8.73
374.61	8.65
374.973	8.59
375.335	8.51
375.698	8.45
376.06	8.4
376.423	8.35
376.785	8.29
377.147	8.2
377.51	8.16
377.872	8.1
378.234	8.05
378.596	8.01
378.958	7.97
379.321	7.93
379.683	7.87
380.045	7.81
380.407	7.76
380.769	7.7
381.13	7.66
381.492	7.59
381.854	7.54
382.216	7.5
382.578	7.45
382.939	7.41
383.301	7.36
383.663	7.31
384.024	7.25
384.386	7.21
384.747	7.19
385.109	7.14
385.47	7.1
385.832	7.08
386.193	7.04
386.554	7
386.916	6.97
387.277	6.93
387.638	6.89
387.999	6.86
388.36	6.82
388.721	6.79
389.082	6.77
389.443	6.73
389.804	6.69
390.165	6.66
390.526	6.6
390.887	6.56
391.248	6.53
391.609	6.52
391.969	6.48
392.33	6.43
392.691	6.4
393.051	6.37
393.412	6.32
393.772	6.28
394.133	6.25
394.493	6.21
394.854	6.18
395.214	6.13
395.574	6.09
395.935	6.05
396.295	5.99
396.655	5.95
397.015	5.91
397.376	5.88
397.736	5.84
398.096	5.81
398.456	5.78
398.816	5.74
399.176	5.68
399.535	5.66
399.895	5.63
400.255	5.6
400.615	5.55
400.975	5.53
401.334	5.51
401.694	5.48
402.054	5.45
402.413	5.43
402.773	5.42
403.132	5.4
403.492	5.39
403.851	5.38
404.211	5.37
404.57	5.35
404.929	5.34
405.288	5.31
405.648	5.31
406.007	5.3
406.366	5.3
406.725	5.29
407.084	5.27
407.443	5.26
407.802	5.25
408.161	5.25
408.52	5.24
408.879	5.22
409.238	5.21
409.596	5.21
409.955	5.2
410.314	5.19
410.673	5.17
411.031	5.16
411.39	5.16
411.748	5.15
412.107	5.13
412.465	5.12
412.824	5.12
413.182	5.11
413.54	5.1
413.899	5.09
414.257	5.07
414.615	5.06
414.974	5.04
415.332	5.02
415.69	5.01
416.048	5
416.406	4.99
416.764	4.97
417.122	4.97
417.48	4.96
417.838	4.96
418.195	4.96
418.553	4.95
418.911	4.95
419.269	4.94
419.626	4.94
419.984	4.94
420.342	4.92
420.699	4.92
421.057	4.91
421.414	4.9
421.772	4.9
422.129	4.9
422.486	4.89
422.844	4.88
423.201	4.87
423.558	4.86
423.915	4.85
424.273	4.85
424.63	4.83
424.987	4.82
425.344	4.81
425.701	4.79
426.058	4.78
426.415	4.76
426.772	4.74
427.128	4.72
427.485	4.7
427.842	4.7
428.199	4.68
428.555	4.66
428.912	4.65
429.269	4.64
429.625	4.63
429.982	4.63
430.338	4.62
430.695	4.63
431.051	4.62
431.407	4.62
431.764	4.61
432.12	4.61
432.476	4.61
432.832	4.61
433.189	4.62
433.545	4.62
433.901	4.63
434.257	4.63
434.613	4.64
434.969	4.64
435.325	4.64
435.681	4.65
436.036	4.66
436.392	4.66
436.748	4.67
437.104	4.66
437.459	4.67
437.815	4.68
438.171	4.68
438.526	4.68
438.882	4.68
439.237	4.7
439.593	4.7
439.948	4.71
440.304	4.71
440.659	4.71
441.014	4.71
441.369	4.71
441.725	4.71
442.08	4.71
442.435	4.71
442.79	4.72
443.145	4.71
443.5	4.71
443.855	4.71
444.21	4.71
444.565	4.7
444.92	4.69
445.275	4.69
445.629	4.69
445.984	4.68
446.339	4.68
446.693	4.67
447.048	4.66
447.403	4.65
447.757	4.65
448.112	4.63
448.466	4.63
448.82	4.62
449.175	4.62
449.529	4.61
449.883	4.6
450.238	4.58
450.592	4.57
450.946	4.57
451.3	4.55
451.654	4.55
452.008	4.54
452.362	4.53
452.716	4.52
453.07	4.51
453.424	4.51
453.778	4.49
454.132	4.49
454.486	4.49
454.839	4.48
455.193	4.49
455.547	4.49
455.9	4.49
456.254	4.49
456.607	4.5
456.961	4.51
457.314	4.51
457.668	4.52
458.021	4.53
458.375	4.53
458.728	4.53
459.081	4.54
459.434	4.55
459.787	4.55
460.141	4.55
460.494	4.55
460.847	4.55
461.2	4.56
461.553	4.56
461.906	4.56
462.259	4.56
462.611	4.56
462.964	4.57
463.317	4.57
463.67	4.58
464.022	4.58
464.375	4.58
464.728	4.59
465.08	4.59
465.433	4.6
465.785	4.61
466.138	4.61
466.49	4.61
466.843	4.62
467.195	4.63
467.547	4.64
467.899	4.65
468.252	4.66
468.604	4.68
468.956	4.69
469.308	4.7
469.66	4.71
470.012	4.73
470.364	4.73
470.716	4.76
471.068	4.77
471.42	4.77
471.772	4.78
472.123	4.79
472.475	4.8
472.827	4.81
473.178	4.82
473.53	4.82
473.882	4.83
474.233	4.84
474.585	4.85
474.936	4.86
475.288	4.87
475.639	4.86
475.99	4.86
476.342	4.87
476.693	4.86
477.044	4.85
477.395	4.85
477.746	4.85
478.097	4.84
478.448	4.87
478.8	4.95
479.15	5.07
479.501	5.21
479.852	5.38
480.203	5.55
480.554	5.74
480.905	5.94
481.255	6.12
481.606	6.31
481.957	6.5
482.307	6.67
482.658	6.83
483.009	6.97
483.359	7.09
483.709	7.2
484.06	7.3
484.41	7.4
484.761	7.48
485.111	7.57
485.461	7.65
485.811	7.73
486.162	7.76
486.512	7.75
486.862	7.72
487.212	7.65
487.562	7.57
487.912	7.47
488.262	7.35
488.612	7.22
488.961	7.09
489.311	6.94
489.661	6.79
490.011	6.63
490.36	6.47
490.71	6.31
491.06	6.15
491.409	5.98
491.759	5.85
492.108	5.74
492.458	5.65
492.807	5.57
493.157	5.48
493.506	5.41
493.855	5.33
494.204	5.26
494.554	5.2
494.903	5.14
495.252	5.09
495.601	5.05
495.95	5.01
496.299	4.98
496.648	4.95
496.997	4.93
497.346	4.94
497.695	4.97
498.043	5.03
498.392	5.1
498.741	5.2
499.09	5.26
499.438	5.32
499.787	5.35
500.135	5.4
500.484	5.45
500.832	5.51
501.181	5.56
501.529	5.62
501.878	5.67
502.226	5.74
502.574	5.8
502.923	5.87
503.271	5.95
503.619	6.03
503.967	6.11
504.315	6.21
504.663	6.29
505.011	6.39
505.359	6.48
505.707	6.58
506.055	6.68
506.403	6.79
506.751	6.89
507.098	7
507.446	7.12
507.794	7.24
508.141	7.35
508.489	7.48
508.837	7.6
509.184	7.72
509.531	7.85
509.879	7.98
510.226	8.11
510.574	8.24
510.921	8.37
511.268	8.51
511.616	8.64
511.963	8.8
512.31	8.95
512.657	9.11
513.004	9.27
513.351	9.46
513.698	9.65
514.045	9.84
514.392	10.04
514.739	10.24
515.086	10.44
515.432	10.66
515.779	10.86
516.126	11.06
516.473	11.26
516.819	11.46
517.166	11.66
517.512	11.85
517.859	12.02
518.205	12.2
518.552	12.37
518.898	12.55
519.245	12.72
519.591	12.88
519.937	13.07
520.283	13.26
520.629	13.46
520.976	13.67
521.322	13.88
521.668	14.11
522.014	14.34
522.36	14.57
522.706	14.82
523.052	15.13
523.398	15.54
523.743	16.08
524.089	16.68
524.435	17.3
524.781	17.94
525.126	18.59
525.472	19.23
525.817	19.86
526.163	20.45
526.509	21
526.854	21.49
527.199	21.89
527.545	22.23
527.89	22.51
528.235	22.8
528.581	23.07
528.926	23.33
529.271	23.6
529.616	23.87
529.961	24.12
530.306	24.35
530.651	24.5
530.996	24.53
531.341	24.51
531.686	24.42
532.031	24.25
532.376	24.02
532.721	23.73
533.065	23.41
533.41	23.17
533.755	22.96
534.099	22.81
534.444	22.77
534.788	22.8
535.133	22.88
535.477	22.98
535.822	23.1
536.166	23.26
536.51	23.45
536.855	23.67
537.199	23.93
537.543	24.22
537.887	24.56
538.231	24.94
538.576	25.31
538.92	25.73
539.264	26.18
539.608	26.63
539.951	27.07
540.295	27.5
540.639	27.84
540.983	28.11
541.327	28.35
541.671	28.51
542.014	28.76
542.358	29.01
542.701	29.26
543.045	29.51
543.389	29.73
543.732	29.95
544.075	30.16
544.419	30.37
544.762	30.54
545.105	30.68
545.449	30.79
545.792	30.89
546.135	30.98
546.478	31.1
546.821	31.27
547.165	31.54
547.508	31.83
547.851	32.19
548.194	32.6
548.536	33.05
548.879	33.5
549.222	33.79
549.565	34.07
549.908	34.34
550.25	34.61
550.593	34.93
550.936	35.22
551.278	35.51
551.621	35.8
551.963	36.1
552.306	36.39
552.648	36.68
552.991	36.95
553.333	37.22
553.675	37.5
554.017	37.78
554.36	38.04
554.702	38.3
555.044	38.56
555.386	38.8
555.728	39.05
556.07	39.32
556.412	39.59
556.754	39.85
557.096	40.12
557.438	40.38
557.78	40.62
558.121	40.89
558.463	41.15
558.805	41.43
559.147	41.67
559.488	41.94
559.83	42.2
560.171	42.46
560.513	42.7
560.854	42.94
561.196	43.17
561.537	43.41
561.878	43.66
562.22	43.9
562.561	44.16
562.902	44.41
563.243	44.64
563.584	44.83
563.925	45.05
564.266	45.27
564.607	45.47
564.948	45.68
565.289	45.88
565.63	46.06
565.971	46.24
566.312	46.45
566.653	46.63
566.993	46.79
567.334	46.98
567.675	47.19
568.015	47.36
568.356	47.58
568.696	47.76
569.037	47.92
569.377	48.1
569.718	48.27
570.058	48.43
570.398	48.6
570.739	48.79
571.079	48.96
571.419	49.1
571.759	49.25
572.099	49.41
572.439	49.52
572.779	49.66
573.119	49.78
573.459	49.91
573.799	50.02
574.139	50.16
574.479	50.27
574.819	50.36
575.158	50.48
575.498	50.56
575.838	50.67
576.177	50.78
576.517	50.87
576.856	50.96
577.196	51.06
577.535	51.14
577.875	51.23
578.214	51.28
578.553	51.36
578.893	51.47
579.232	51.57
579.571	51.66
579.91	51.74
580.25	51.85
580.589	51.93
580.928	52.05
581.267	52.14
581.606	52.24
581.945	52.33
582.283	52.43
582.622	52.53
582.961	52.64
583.3	52.73
583.639	52.84
583.977	52.94
584.316	53.03
584.654	53.16
584.993	53.24
585.332	53.36
585.67	53.43
586.008	53.53
586.347	53.6
586.685	53.73
587.024	53.83
587.362	53.93
587.7	54.03
588.038	54.12
588.376	54.18
588.715	54.27
589.053	54.38
589.391	54.47
589.729	54.56
590.067	54.63
590.404	54.71
590.742	54.79
591.08	54.86
591.418	54.95
591.756	55.05
592.093	55.15
592.431	55.26
592.769	55.36
593.106	55.42
593.444	55.54
593.781	55.61
594.119	55.71
594.456	55.77
594.793	55.85
595.131	55.89
595.468	55.97
595.805	56.01
596.143	56.05
596.48	56.11
596.817	56.17
597.154	56.2
597.491	56.26
597.828	56.32
598.165	56.36
598.502	56.41
598.839	56.46
599.176	56.51
599.512	56.54
599.849	56.6
600.186	56.69
600.523	56.72
600.859	56.78
601.196	56.79
601.532	56.87
601.869	56.93
602.205	57
602.542	57.07
602.878	57.15
603.215	57.21
603.551	57.23
603.887	57.28
604.223	57.36
604.56	57.39
604.896	57.44
605.232	57.5
605.568	57.55
605.904	57.58
606.24	57.62
606.576	57.66
606.912	57.69
607.248	57.72
607.583	57.78
607.919	57.8
608.255	57.86
608.591	57.88
608.926	57.91
609.262	57.96
609.597	57.98
609.933	58
610.268	58.03
610.604	58.08
610.939	58.1
611.275	58.1
611.61	58.15
611.945	58.21
612.281	58.23
612.616	58.23
612.951	58.27
613.286	58.32
613.621	58.36
613.956	58.39
614.291	58.42
614.626	58.42
614.961	58.46
615.296	58.5
615.631	58.54
615.966	58.57
616.3	58.59
616.635	58.62
616.97	58.66
617.304	58.71
617.639	58.73
617.973	58.77
618.308	58.81
618.642	58.81
618.977	58.81
619.311	58.85
619.646	58.88
619.98	58.93
620.314	58.94
620.648	58.98
620.983	59.01
621.317	59.08
621.651	59.12
621.985	59.13
622.319	59.14
622.653	59.18
622.987	59.19
623.321	59.19
623.655	59.21
623.988	59.26
624.322	59.27
624.656	59.29
624.99	59.32
625.323	59.35
625.657	59.43
625.99	59.49
626.324	59.48
626.657	59.52
626.991	59.53
627.324	59.57
627.658	59.61
627.991	59.65
628.324	59.64
628.657	59.66
628.991	59.69
629.324	59.73
629.657	59.74
629.99	59.77
630.323	59.79
630.656	59.81
630.989	59.79
631.322	59.82
631.655	59.83
631.987	59.83
632.32	59.84
632.653	59.83
632.986	59.82
633.318	59.84
633.651	59.85
633.984	59.87
634.316	59.89
634.649	59.89
634.981	59.92
635.313	59.93
635.646	59.94
635.978	60
636.31	60.04
636.643	60.05
636.975	60.07
637.307	60.12
637.639	60.14
637.971	60.17
638.303	60.19
638.635	60.22
638.967	60.27
639.299	60.28
639.631	60.31
639.963	60.34
640.295	60.4
640.626	60.42
640.958	60.47
641.29	60.51
641.621	60.49
641.953	60.5
642.285	60.56
642.616	60.58
642.948	60.58
643.279	60.56
643.61	60.58
643.942	60.61
644.273	60.64
644.604	60.69
644.936	60.74
645.267	60.78
645.598	60.82
645.929	60.86
646.26	60.88
646.591	60.91
646.922	60.93
647.253	60.9
647.584	60.93
647.915	60.94
648.245	60.95
648.576	61
648.907	61.02
649.238	61.01
649.568	61.06
649.899	61.08
650.229	61.15
650.56	61.2
650.89	61.26
651.221	61.29
651.551	61.33
651.882	61.37
652.212	61.38
652.542	61.39
652.872	61.42
653.203	61.46
653.533	61.47
653.863	61.47
654.193	61.52
654.523	61.5
654.853	61.51
655.183	61.53
655.513	61.62
655.843	61.68
656.172	61.72
656.502	61.72
656.832	61.74
657.162	61.73
657.491	61.74
657.821	61.71
658.15	61.73
658.48	61.73
658.809	61.69
659.139	61.72
659.468	61.73
659.798	61.73
660.127	61.74
660.456	61.74
660.785	61.75
661.115	61.79
661.444	61.83
661.773	61.83
662.102	61.83
662.431	61.78
662.76	61.76
663.089	61.77
663.418	61.76
663.747	61.75
664.076	61.79
664.404	61.81
664.733	61.84
665.062	61.83
665.39	61.84
665.719	61.86
666.048	61.87
666.376	61.87
666.705	61.91
667.033	61.94
667.362	61.99
667.69	62.06
668.018	62.07
668.347	62.06
668.675	62.09
669.003	62.09
