Data from UWBM41002_Reflection_00009.txt Node
Date: Sun May 02 14:14:38 EDT 2021
User: vgr7
Spectrometer: USB2G7710
Scans to average: 10
Trigger mode: 4
Integration Time (sec): 1.000000E-1
Electric dark correction enabled: true
Boxcar width: 20
XAxis mode: Wavelengths
Number of Pixels in Spectrum: 2048
>>>>>Begin Spectral Data<<<<<
177.721	139.73
178.105	113.53
178.488	157.76
178.871	155.09
179.254	108.89
179.636	73.97
180.019	67.91
180.402	57.04
180.785	50.24
181.168	50
181.55	46.91
181.933	45.43
182.316	41
182.698	37.54
183.081	31
183.463	25.74
183.846	23.64
184.228	22.33
184.611	17.9
184.993	16.72
185.376	16.86
185.758	16.52
186.14	20.29
186.522	15.93
186.904	15.39
187.287	16.31
187.669	19.8
188.051	16.89
188.433	16.79
188.815	13.59
189.197	12.1
189.579	12.84
189.961	11.72
190.342	11.93
190.724	10.18
191.106	9.64
191.488	10.34
191.869	10.15
192.251	8.34
192.633	8.34
193.014	6.94
193.396	4.8
193.777	6.71
194.159	4.6
194.54	2.83
194.922	3.89
195.303	3.92
195.684	2.07
196.065	3.46
196.447	3.92
196.828	3.74
197.209	3.52
197.59	1.64
197.971	1.78
198.352	4.15
198.733	6.3
199.114	7.18
199.495	7.15
199.876	7.29
200.257	7.88
200.638	6.5
201.018	7.52
201.399	9.81
201.78	9.01
202.16	8.97
202.541	7.05
202.922	5.26
203.302	5.85
203.683	7.65
204.063	7.57
204.444	9.31
204.824	9.02
205.204	8.2
205.585	10.26
205.965	10.18
206.345	11.83
206.725	12.4
207.106	12.55
207.486	12.26
207.866	12.58
208.246	11.89
208.626	11.57
209.006	12.8
209.386	12.02
209.766	11.97
210.145	11.48
210.525	12.14
210.905	12.7
211.285	11.45
211.664	10.61
212.044	8.74
212.424	8.6
212.803	8.79
213.183	8
213.562	8.89
213.942	7.75
214.321	6.3
214.701	5.86
215.08	6.8
215.459	6.59
215.838	6.63
216.218	6.36
216.597	6.46
216.976	6.3
217.355	6.75
217.734	6.85
218.113	8.5
218.492	9.71
218.871	9.14
219.25	8.69
219.629	8.91
220.008	7.58
220.387	6.64
220.766	7.71
221.144	7.06
221.523	7.3
221.902	6.28
222.28	5.59
222.659	5.66
223.037	5.61
223.416	6.05
223.794	6.26
224.173	6.34
224.551	5.17
224.929	5.61
225.308	5.59
225.686	6.22
226.064	5.32
226.442	5.3
226.821	6.13
227.199	6.46
227.577	7.27
227.955	7.46
228.333	7.52
228.711	7.68
229.089	7.19
229.467	7.03
229.845	7.37
230.222	7.42
230.6	7.11
230.978	7.06
231.356	7.18
231.733	7.17
232.111	6.64
232.488	6.26
232.866	5.86
233.243	5.75
233.621	5.52
233.998	5.55
234.376	5.47
234.753	5.1
235.13	4.95
235.508	4.94
235.885	4.87
236.262	4.73
236.639	4.67
237.016	4.71
237.393	4.79
237.77	4.71
238.147	4.65
238.524	4.62
238.901	4.54
239.278	4.55
239.655	4.53
240.032	4.55
240.409	4.53
240.785	4.59
241.162	4.53
241.539	4.55
241.915	4.55
242.292	4.57
242.668	4.55
243.045	4.49
243.421	4.44
243.798	4.42
244.174	4.47
244.551	4.47
244.927	4.48
245.303	4.48
245.679	4.48
246.056	4.44
246.432	4.44
246.808	4.43
247.184	4.47
247.56	4.48
247.936	4.48
248.312	4.49
248.688	4.49
249.064	4.49
249.44	4.47
249.815	4.44
250.191	4.41
250.567	4.43
250.943	4.4
251.318	4.37
251.694	4.39
252.069	4.36
252.445	4.33
252.82	4.3
253.196	4.26
253.571	4.22
253.947	4.21
254.322	4.19
254.697	4.17
255.073	4.15
255.448	4.14
255.823	4.09
256.198	4.06
256.573	4.06
256.948	4.05
257.323	4.05
257.698	4
258.073	3.96
258.448	3.95
258.823	3.94
259.198	3.91
259.573	3.87
259.948	3.87
260.322	3.85
260.697	3.82
261.072	3.79
261.446	3.81
261.821	3.8
262.195	3.78
262.57	3.78
262.944	3.78
263.319	3.79
263.693	3.77
264.067	3.77
264.442	3.75
264.816	3.74
265.19	3.74
265.564	3.75
265.938	3.73
266.313	3.74
266.687	3.75
267.061	3.75
267.435	3.74
267.809	3.72
268.183	3.72
268.556	3.73
268.93	3.74
269.304	3.75
269.678	3.78
270.051	3.76
270.425	3.74
270.799	3.73
271.172	3.75
271.546	3.76
271.919	3.76
272.293	3.75
272.666	3.74
273.04	3.75
273.413	3.78
273.787	3.78
274.16	3.78
274.533	3.79
274.906	3.81
275.279	3.81
275.653	3.82
276.026	3.82
276.399	3.83
276.772	3.84
277.145	3.83
277.518	3.85
277.891	3.83
278.263	3.82
278.636	3.83
279.009	3.84
279.382	3.85
279.755	3.87
280.127	3.88
280.5	3.9
280.872	3.94
281.245	3.96
281.617	3.96
281.99	3.97
282.362	3.96
282.735	3.98
283.107	4
283.479	4.01
283.852	4.03
284.224	4.03
284.596	4.03
284.968	4.02
285.34	4.05
285.713	4.07
286.085	4.09
286.457	4.09
286.829	4.09
287.201	4.1
287.572	4.11
287.944	4.11
288.316	4.13
288.688	4.15
289.06	4.18
289.431	4.19
289.803	4.22
290.175	4.23
290.546	4.25
290.918	4.28
291.289	4.31
291.661	4.34
292.032	4.34
292.403	4.36
292.775	4.38
293.146	4.4
293.517	4.44
293.889	4.45
294.26	4.48
294.631	4.51
295.002	4.54
295.373	4.57
295.744	4.59
296.115	4.61
296.486	4.65
296.857	4.68
297.228	4.71
297.599	4.76
297.97	4.78
298.34	4.82
298.711	4.86
299.082	4.89
299.452	4.94
299.823	4.98
300.194	5.02
300.564	5.06
300.935	5.1
301.305	5.14
301.676	5.19
302.046	5.23
302.416	5.27
302.787	5.29
303.157	5.34
303.527	5.39
303.897	5.44
304.267	5.5
304.637	5.55
305.008	5.6
305.378	5.66
305.748	5.71
306.117	5.76
306.487	5.81
306.857	5.87
307.227	5.94
307.597	6.01
307.967	6.07
308.336	6.13
308.706	6.16
309.076	6.21
309.445	6.26
309.815	6.29
310.184	6.33
310.554	6.37
310.923	6.43
311.293	6.47
311.662	6.49
312.031	6.54
312.401	6.6
312.77	6.64
313.139	6.7
313.508	6.73
313.877	6.78
314.246	6.82
314.616	6.86
314.985	6.91
315.353	6.97
315.722	7
316.091	7.06
316.46	7.09
316.829	7.15
317.198	7.21
317.567	7.25
317.935	7.31
318.304	7.37
318.672	7.42
319.041	7.49
319.41	7.52
319.778	7.6
320.147	7.65
320.515	7.71
320.883	7.73
321.252	7.78
321.62	7.83
321.988	7.86
322.357	7.9
322.725	7.95
323.093	7.98
323.461	8.03
323.829	8.07
324.197	8.12
324.565	8.16
324.933	8.21
325.301	8.25
325.669	8.29
326.037	8.3
326.405	8.33
326.772	8.39
327.14	8.41
327.508	8.42
327.875	8.44
328.243	8.46
328.61	8.48
328.978	8.51
329.346	8.52
329.713	8.56
330.08	8.59
330.448	8.59
330.815	8.63
331.182	8.63
331.55	8.66
331.917	8.68
332.284	8.69
332.651	8.72
333.018	8.76
333.385	8.78
333.752	8.81
334.119	8.83
334.486	8.85
334.853	8.88
335.22	8.9
335.587	8.92
335.954	8.95
336.32	8.98
336.687	9
337.054	9.03
337.42	9.05
337.787	9.06
338.153	9.08
338.52	9.09
338.886	9.11
339.253	9.13
339.619	9.14
339.986	9.17
340.352	9.18
340.718	9.19
341.084	9.21
341.451	9.22
341.817	9.23
342.183	9.27
342.549	9.28
342.915	9.3
343.281	9.32
343.647	9.33
344.013	9.34
344.379	9.35
344.745	9.35
345.11	9.35
345.476	9.37
345.842	9.38
346.208	9.4
346.573	9.4
346.939	9.41
347.304	9.43
347.67	9.45
348.035	9.45
348.401	9.45
348.766	9.46
349.132	9.45
349.497	9.47
349.862	9.45
350.228	9.46
350.593	9.46
350.958	9.47
351.323	9.46
351.688	9.46
352.053	9.46
352.418	9.45
352.783	9.44
353.148	9.43
353.513	9.43
353.878	9.42
354.243	9.41
354.608	9.39
354.972	9.38
355.337	9.36
355.702	9.34
356.066	9.33
356.431	9.32
356.795	9.3
357.16	9.28
357.524	9.26
357.889	9.25
358.253	9.23
358.618	9.2
358.982	9.18
359.346	9.17
359.71	9.15
360.075	9.14
360.439	9.11
360.803	9.09
361.167	9.06
361.531	9.03
361.895	9
362.259	8.97
362.623	8.93
362.987	8.89
363.351	8.86
363.714	8.83
364.078	8.79
364.442	8.76
364.806	8.73
365.169	8.69
365.533	8.65
365.896	8.61
366.26	8.58
366.623	8.53
366.987	8.48
367.35	8.44
367.714	8.39
368.077	8.35
368.44	8.3
368.803	8.25
369.167	8.19
369.53	8.13
369.893	8.07
370.256	8.02
370.619	7.97
370.982	7.91
371.345	7.85
371.708	7.8
372.071	7.74
372.434	7.7
372.797	7.64
373.159	7.58
373.522	7.54
373.885	7.49
374.247	7.43
374.61	7.37
374.973	7.31
375.335	7.25
375.698	7.19
376.06	7.14
376.423	7.09
376.785	7.04
377.147	6.98
377.51	6.94
377.872	6.89
378.234	6.83
378.596	6.78
378.958	6.73
379.321	6.67
379.683	6.63
380.045	6.58
380.407	6.54
380.769	6.49
381.13	6.44
381.492	6.39
381.854	6.35
382.216	6.31
382.578	6.27
382.939	6.23
383.301	6.18
383.663	6.14
384.024	6.1
384.386	6.07
384.747	6.03
385.109	5.99
385.47	5.95
385.832	5.91
386.193	5.86
386.554	5.82
386.916	5.78
387.277	5.74
387.638	5.71
387.999	5.68
388.36	5.64
388.721	5.62
389.082	5.59
389.443	5.56
389.804	5.53
390.165	5.49
390.526	5.47
390.887	5.44
391.248	5.41
391.609	5.37
391.969	5.35
392.33	5.32
392.691	5.29
393.051	5.26
393.412	5.23
393.772	5.21
394.133	5.18
394.493	5.14
394.854	5.1
395.214	5.07
395.574	5.04
395.935	5.02
396.295	4.98
396.655	4.95
397.015	4.92
397.376	4.9
397.736	4.87
398.096	4.84
398.456	4.81
398.816	4.79
399.176	4.76
399.535	4.73
399.895	4.71
400.255	4.68
400.615	4.66
400.975	4.63
401.334	4.61
401.694	4.59
402.054	4.57
402.413	4.55
402.773	4.52
403.132	4.5
403.492	4.48
403.851	4.47
404.211	4.45
404.57	4.43
404.929	4.42
405.288	4.4
405.648	4.39
406.007	4.38
406.366	4.37
406.725	4.36
407.084	4.34
407.443	4.33
407.802	4.32
408.161	4.31
408.52	4.3
408.879	4.29
409.238	4.29
409.596	4.28
409.955	4.28
410.314	4.27
410.673	4.26
411.031	4.25
411.39	4.25
411.748	4.24
412.107	4.24
412.465	4.23
412.824	4.25
413.182	4.26
413.54	4.27
413.899	4.29
414.257	4.31
414.615	4.34
414.974	4.36
415.332	4.39
415.69	4.42
416.048	4.44
416.406	4.47
416.764	4.49
417.122	4.51
417.48	4.53
417.838	4.55
418.195	4.56
418.553	4.58
418.911	4.58
419.269	4.58
419.626	4.57
419.984	4.56
420.342	4.54
420.699	4.52
421.057	4.49
421.414	4.47
421.772	4.45
422.129	4.44
422.486	4.42
422.844	4.42
423.201	4.41
423.558	4.4
423.915	4.39
424.273	4.39
424.63	4.38
424.987	4.38
425.344	4.37
425.701	4.36
426.058	4.35
426.415	4.35
426.772	4.34
427.128	4.33
427.485	4.32
427.842	4.3
428.199	4.28
428.555	4.26
428.912	4.24
429.269	4.21
429.625	4.18
429.982	4.15
430.338	4.11
430.695	4.09
431.051	4.05
431.407	4.03
431.764	4
432.12	3.98
432.476	3.97
432.832	3.97
433.189	3.97
433.545	3.97
433.901	3.98
434.257	4
434.613	4.03
434.969	4.05
435.325	4.08
435.681	4.12
436.036	4.14
436.392	4.16
436.748	4.17
437.104	4.18
437.459	4.2
437.815	4.22
438.171	4.24
438.526	4.26
438.882	4.29
439.237	4.33
439.593	4.36
439.948	4.39
440.304	4.42
440.659	4.45
441.014	4.47
441.369	4.49
441.725	4.51
442.08	4.53
442.435	4.54
442.79	4.55
443.145	4.55
443.5	4.55
443.855	4.54
444.21	4.54
444.565	4.54
444.92	4.53
445.275	4.52
445.629	4.51
445.984	4.5
446.339	4.48
446.693	4.47
447.048	4.45
447.403	4.43
447.757	4.4
448.112	4.38
448.466	4.35
448.82	4.33
449.175	4.3
449.529	4.28
449.883	4.26
450.238	4.23
450.592	4.22
450.946	4.21
451.3	4.2
451.654	4.21
452.008	4.21
452.362	4.21
452.716	4.21
453.07	4.21
453.424	4.2
453.778	4.19
454.132	4.18
454.486	4.16
454.839	4.15
455.193	4.13
455.547	4.11
455.9	4.08
456.254	4.07
456.607	4.04
456.961	4.01
457.314	3.99
457.668	3.98
458.021	3.98
458.375	3.97
458.728	3.97
459.081	3.98
459.434	3.99
459.787	4
460.141	4.01
460.494	4.02
460.847	4.03
461.2	4.04
461.553	4.05
461.906	4.05
462.259	4.06
462.611	4.07
462.964	4.08
463.317	4.09
463.67	4.1
464.022	4.11
464.375	4.12
464.728	4.13
465.08	4.14
465.433	4.15
465.785	4.15
466.138	4.14
466.49	4.13
466.843	4.11
467.195	4.1
467.547	4.08
467.899	4.07
468.252	4.05
468.604	4.04
468.956	4.02
469.308	4.01
469.66	4.01
470.012	4.01
470.364	4.02
470.716	4.03
471.068	4.05
471.42	4.08
471.772	4.1
472.123	4.11
472.475	4.12
472.827	4.14
473.178	4.15
473.53	4.16
473.882	4.18
474.233	4.2
474.585	4.23
474.936	4.29
475.288	4.38
475.639	4.49
475.99	4.62
476.342	4.76
476.693	4.92
477.044	5.07
477.395	5.24
477.746	5.41
478.097	5.57
478.448	5.74
478.8	5.9
479.15	6.05
479.501	6.2
479.852	6.32
480.203	6.45
480.554	6.57
480.905	6.68
481.255	6.79
481.606	6.89
481.957	6.99
482.307	7.08
482.658	7.16
483.009	7.24
483.359	7.32
483.709	7.4
484.06	7.48
484.41	7.55
484.761	7.62
485.111	7.69
485.461	7.75
485.811	7.81
486.162	7.87
486.512	7.92
486.862	7.96
487.212	7.99
487.562	8
487.912	8.02
488.262	8.02
488.612	8.02
488.961	8.01
489.311	7.97
489.661	7.9
490.011	7.82
490.36	7.72
490.71	7.61
491.06	7.49
491.409	7.36
491.759	7.22
492.108	7.08
492.458	6.93
492.807	6.78
493.157	6.63
493.506	6.49
493.855	6.35
494.204	6.23
494.554	6.11
494.903	6
495.252	5.9
495.601	5.81
495.95	5.72
496.299	5.63
496.648	5.55
496.997	5.49
497.346	5.42
497.695	5.37
498.043	5.31
498.392	5.27
498.741	5.22
499.09	5.19
499.438	5.15
499.787	5.13
500.135	5.11
500.484	5.09
500.832	5.1
501.181	5.12
501.529	5.15
501.878	5.2
502.226	5.26
502.574	5.32
502.923	5.39
503.271	5.47
503.619	5.54
503.967	5.63
504.315	5.71
504.663	5.8
505.011	5.89
505.359	5.98
505.707	6.07
506.055	6.17
506.403	6.27
506.751	6.38
507.098	6.49
507.446	6.6
507.794	6.72
508.141	6.84
508.489	6.98
508.837	7.12
509.184	7.25
509.531	7.4
509.879	7.55
510.226	7.72
510.574	7.9
510.921	8.08
511.268	8.27
511.616	8.46
511.963	8.66
512.31	8.86
512.657	9.06
513.004	9.26
513.351	9.45
513.698	9.63
514.045	9.81
514.392	9.97
514.739	10.13
515.086	10.28
515.432	10.43
515.779	10.58
516.126	10.73
516.473	10.9
516.819	11.08
517.166	11.27
517.512	11.48
517.859	11.71
518.205	11.95
518.552	12.21
518.898	12.49
519.245	12.81
519.591	13.2
519.937	13.64
520.283	14.16
520.629	14.73
520.976	15.32
521.322	15.94
521.668	16.58
522.014	17.22
522.36	17.87
522.706	18.5
523.052	19.12
523.398	19.7
523.743	20.24
524.089	20.74
524.435	21.2
524.781	21.65
525.126	22.1
525.472	22.54
525.817	22.97
526.163	23.39
526.509	23.81
526.854	24.22
527.199	24.63
527.545	25.04
527.89	25.48
528.235	25.9
528.581	26.31
528.926	26.69
529.271	27.06
529.616	27.41
529.961	27.76
530.306	28.09
530.651	28.39
530.996	28.68
531.341	28.94
531.686	29.19
532.031	29.43
532.376	29.68
532.721	29.96
533.065	30.27
533.41	30.6
533.755	30.9
534.099	31.17
534.444	31.41
534.788	31.63
535.133	31.82
535.477	32
535.822	32.16
536.166	32.27
536.51	32.34
536.855	32.35
537.199	32.33
537.543	32.32
537.887	32.33
538.231	32.38
538.576	32.42
538.92	32.45
539.264	32.48
539.608	32.48
539.951	32.47
540.295	32.44
540.639	32.4
540.983	32.34
541.327	32.28
541.671	32.18
542.014	32.12
542.358	32.07
542.701	32.09
543.045	32.17
543.389	32.28
543.732	32.42
544.075	32.56
544.419	32.72
544.762	32.9
545.105	33.08
545.449	33.28
545.792	33.48
546.135	33.68
546.478	33.85
546.821	33.96
547.165	34.03
547.508	34.04
547.851	34
548.194	33.92
548.536	33.81
548.879	33.66
549.222	33.49
549.565	33.31
549.908	33.13
550.25	32.99
550.593	32.89
550.936	32.85
551.278	32.88
551.621	32.93
551.963	33
552.306	33.09
552.648	33.22
552.991	33.37
553.333	33.54
553.675	33.74
554.017	33.97
554.36	34.23
554.702	34.52
555.044	34.84
555.386	35.2
555.728	35.61
556.07	35.95
556.412	36.3
556.754	36.59
557.096	36.81
557.438	37.04
557.78	37.27
558.121	37.5
558.463	37.73
558.805	37.96
559.147	38.19
559.488	38.41
559.83	38.63
560.171	38.85
560.513	39.05
560.854	39.26
561.196	39.47
561.537	39.67
561.878	39.87
562.22	40.06
562.561	40.25
562.902	40.43
563.243	40.61
563.584	40.8
563.925	40.98
564.266	41.16
564.607	41.33
564.948	41.51
565.289	41.68
565.63	41.85
565.971	42.03
566.312	42.19
566.653	42.36
566.993	42.52
567.334	42.68
567.675	42.82
568.015	42.96
568.356	43.11
568.696	43.24
569.037	43.38
569.377	43.51
569.718	43.63
570.058	43.76
570.398	43.87
570.739	43.98
571.079	44.09
571.419	44.19
571.759	44.29
572.099	44.38
572.439	44.48
572.779	44.57
573.119	44.67
573.459	44.76
573.799	44.85
574.139	44.93
574.479	45.03
574.819	45.12
575.158	45.2
575.498	45.28
575.838	45.36
576.177	45.45
576.517	45.53
576.856	45.62
577.196	45.69
577.535	45.76
577.875	45.83
578.214	45.9
578.553	45.97
578.893	46.04
579.232	46.11
579.571	46.18
579.91	46.24
580.25	46.3
580.589	46.36
580.928	46.42
581.267	46.48
581.606	46.56
581.945	46.63
582.283	46.69
582.622	46.77
582.961	46.83
583.3	46.91
583.639	46.97
583.977	47.03
584.316	47.1
584.654	47.17
584.993	47.25
585.332	47.31
585.67	47.38
586.008	47.45
586.347	47.53
586.685	47.6
587.024	47.67
587.362	47.75
587.7	47.81
588.038	47.88
588.376	47.95
588.715	48.02
589.053	48.1
589.391	48.17
589.729	48.24
590.067	48.31
590.404	48.39
590.742	48.46
591.08	48.53
591.418	48.59
591.756	48.66
592.093	48.71
592.431	48.77
592.769	48.82
593.106	48.87
593.444	48.93
593.781	48.97
594.119	49.03
594.456	49.09
594.793	49.14
595.131	49.19
595.468	49.23
595.805	49.28
596.143	49.33
596.48	49.38
596.817	49.44
597.154	49.5
597.491	49.57
597.828	49.64
598.165	49.69
598.502	49.75
598.839	49.8
599.176	49.86
599.512	49.9
599.849	49.95
600.186	49.98
600.523	50.02
600.859	50.07
601.196	50.1
601.532	50.14
601.869	50.18
602.205	50.22
602.542	50.25
602.878	50.29
603.215	50.32
603.551	50.35
603.887	50.39
604.223	50.41
604.56	50.45
604.896	50.48
605.232	50.52
605.568	50.55
605.904	50.57
606.24	50.6
606.576	50.63
606.912	50.65
607.248	50.67
607.583	50.69
607.919	50.71
608.255	50.74
608.591	50.76
608.926	50.79
609.262	50.81
609.597	50.84
609.933	50.86
610.268	50.88
610.604	50.89
610.939	50.9
611.275	50.92
611.61	50.93
611.945	50.95
612.281	50.95
612.616	50.96
612.951	50.97
613.286	50.99
613.621	51.02
613.956	51.04
614.291	51.05
614.626	51.05
614.961	51.08
615.296	51.11
615.631	51.13
615.966	51.14
616.3	51.16
616.635	51.18
616.97	51.2
617.304	51.22
617.639	51.23
617.973	51.25
618.308	51.27
618.642	51.3
618.977	51.32
619.311	51.36
619.646	51.39
619.98	51.42
620.314	51.45
620.648	51.49
620.983	51.51
621.317	51.55
621.651	51.57
621.985	51.6
622.319	51.62
622.653	51.65
622.987	51.68
623.321	51.7
623.655	51.72
623.988	51.74
624.322	51.76
624.656	51.78
624.99	51.79
625.323	51.81
625.657	51.82
625.99	51.85
626.324	51.89
626.657	51.91
626.991	51.93
627.324	51.94
627.658	51.96
627.991	51.98
628.324	52.01
628.657	52.02
628.991	52.04
629.324	52.07
629.657	52.1
629.99	52.11
630.323	52.12
630.656	52.14
630.989	52.16
631.322	52.17
631.655	52.19
631.987	52.21
632.32	52.23
632.653	52.24
632.986	52.26
633.318	52.27
633.651	52.29
633.984	52.31
634.316	52.32
634.649	52.33
634.981	52.35
635.313	52.36
635.646	52.38
635.978	52.4
636.31	52.42
636.643	52.44
636.975	52.46
637.307	52.49
637.639	52.5
637.971	52.54
638.303	52.56
638.635	52.58
638.967	52.59
639.299	52.62
639.631	52.64
639.963	52.66
640.295	52.68
640.626	52.71
640.958	52.75
641.29	52.76
641.621	52.78
641.953	52.79
642.285	52.81
642.616	52.83
642.948	52.85
643.279	52.85
643.61	52.88
643.942	52.92
644.273	52.93
644.604	52.95
644.936	52.98
645.267	52.99
645.598	52.99
645.929	53
646.26	53.02
646.591	53.04
646.922	53.05
647.253	53.07
647.584	53.09
647.915	53.11
648.245	53.14
648.576	53.15
648.907	53.17
649.238	53.18
649.568	53.19
649.899	53.22
650.229	53.21
650.56	53.24
650.89	53.25
651.221	53.27
651.551	53.28
651.882	53.29
652.212	53.31
652.542	53.33
652.872	53.34
653.203	53.35
653.533	53.37
653.863	53.39
654.193	53.39
654.523	53.38
654.853	53.4
655.183	53.41
655.513	53.43
655.843	53.45
656.172	53.46
656.502	53.47
656.832	53.5
657.162	53.51
657.491	53.52
657.821	53.53
658.15	53.54
658.48	53.56
658.809	53.58
659.139	53.6
659.468	53.61
659.798	53.62
660.127	53.63
660.456	53.66
660.785	53.67
661.115	53.67
661.444	53.69
661.773	53.7
662.102	53.71
662.431	53.73
662.76	53.74
663.089	53.75
663.418	53.75
663.747	53.77
664.076	53.78
664.404	53.79
664.733	53.8
665.062	53.81
665.39	53.83
665.719	53.83
666.048	53.84
666.376	53.85
666.705	53.86
667.033	53.87
667.362	53.87
667.69	53.89
668.018	53.91
668.347	53.93
668.675	53.96
669.003	53.97
669.331	53.97
669.659	53.99
669.987	54
670.315	54
670.643	54.02
670.971	54.03
671.299	54.05
671.627	54.08
