Data from UWBM55942_Reflection_00001.txt Node
Date: Sun May 02 14:10:01 EDT 2021
User: vgr7
Spectrometer: USB2G7710
Scans to average: 10
Trigger mode: 4
Integration Time (sec): 1.000000E-1
Electric dark correction enabled: true
Boxcar width: 20
XAxis mode: Wavelengths
Number of Pixels in Spectrum: 2048
>>>>>Begin Spectral Data<<<<<
177.721	-965
178.105	-91.12
178.488	-252.41
178.871	-464.71
179.254	159.84
179.636	66.14
180.019	55.33
180.402	55.96
180.785	45.17
181.168	46.43
181.55	49.49
181.933	46.98
182.316	36.62
182.698	29.43
183.081	24.23
183.463	21.74
183.846	18.64
184.228	18.83
184.611	15.79
184.993	16.43
185.376	19.12
185.758	22.84
186.14	20.6
186.522	18.13
186.904	14.55
187.287	12.39
187.669	14.21
188.051	13.35
188.433	12.65
188.815	7.02
189.197	9.63
189.579	8.91
189.961	6.06
190.342	1.96
190.724	4.52
191.106	7.42
191.488	10.72
191.869	9.7
192.251	11.06
192.633	10.81
193.014	9.15
193.396	6.8
193.777	7.98
194.159	8
194.54	6.47
194.922	5.36
195.303	5.81
195.684	5.1
196.065	3.27
196.447	5.28
196.828	4.87
197.209	2.63
197.59	-1.29
197.971	-1.19
198.352	0.95
198.733	3.35
199.114	4.75
199.495	5.61
199.876	5.61
200.257	6.97
200.638	4.75
201.018	4.67
201.399	4.85
201.78	5.17
202.16	4.9
202.541	4.71
202.922	6.06
203.302	7.17
203.683	5.49
204.063	6.22
204.444	7.52
204.824	5.92
205.204	4.47
205.585	6.71
205.965	8.53
206.345	7.23
206.725	6.47
207.106	4.16
207.486	4.94
207.866	4.52
208.246	4.47
208.626	4.15
209.006	3.7
209.386	2.81
209.766	2.34
210.145	2.78
210.525	3.13
210.905	4.43
211.285	3.79
211.664	5.14
212.044	3.08
212.424	2.38
212.803	3.23
213.183	4.69
213.562	6.36
213.942	5.42
214.321	3.94
214.701	2.31
215.08	1.9
215.459	1.33
215.838	0.47
216.218	1.44
216.597	0.47
216.976	0.28
217.355	-0.62
217.734	0.02
218.113	0.14
218.492	-0.35
218.871	0.2
219.25	1.15
219.629	0.31
220.008	0.36
220.387	-0.27
220.766	1.22
221.144	0.54
221.523	0.11
221.902	-0.08
222.28	-0.31
222.659	-0.03
223.037	0.05
223.416	0.67
223.794	1.07
224.173	1.26
224.551	1.15
224.929	1.92
225.308	1.88
225.686	2.05
226.064	2.17
226.442	2.12
226.821	2.43
227.199	2.91
227.577	2.9
227.955	2.76
228.333	3
228.711	2.96
229.089	1.94
229.467	1.5
229.845	1.62
230.222	1.91
230.6	2.11
230.978	2.47
231.356	2.72
231.733	2.76
232.111	2.68
232.488	2.64
232.866	2.65
233.243	2.62
233.621	3.04
233.998	3.37
234.376	3.38
234.753	3.24
235.13	3.39
235.508	3.54
235.885	3.63
236.262	3.66
236.639	3.64
237.016	3.72
237.393	3.84
237.77	4.01
238.147	4
238.524	3.95
238.901	3.9
239.278	3.93
239.655	4.05
240.032	4.11
240.409	4.04
240.785	4.11
241.162	4.1
241.539	4.11
241.915	4.14
242.292	4.13
242.668	4.06
243.045	4.09
243.421	4.07
243.798	4.07
244.174	4.15
244.551	4.19
244.927	4.26
245.303	4.28
245.679	4.29
246.056	4.25
246.432	4.25
246.808	4.22
247.184	4.26
247.56	4.32
247.936	4.34
248.312	4.32
248.688	4.31
249.064	4.28
249.44	4.24
249.815	4.2
250.191	4.16
250.567	4.18
250.943	4.16
251.318	4.12
251.694	4.15
252.069	4.17
252.445	4.17
252.82	4.16
253.196	4.1
253.571	4.1
253.947	4.11
254.322	4.09
254.697	4.09
255.073	4.06
255.448	4.07
255.823	4.06
256.198	4.05
256.573	4.04
256.948	4.03
257.323	3.99
257.698	3.96
258.073	3.95
258.448	3.92
258.823	3.93
259.198	3.9
259.573	3.85
259.948	3.85
260.322	3.84
260.697	3.81
261.072	3.78
261.446	3.77
261.821	3.75
262.195	3.75
262.57	3.72
262.944	3.7
263.319	3.7
263.693	3.71
264.067	3.7
264.442	3.69
264.816	3.67
265.19	3.68
265.564	3.71
265.938	3.71
266.313	3.73
266.687	3.73
267.061	3.72
267.435	3.7
267.809	3.69
268.183	3.68
268.556	3.69
268.93	3.69
269.304	3.7
269.678	3.72
270.051	3.69
270.425	3.67
270.799	3.64
271.172	3.65
271.546	3.64
271.919	3.65
272.293	3.64
272.666	3.65
273.04	3.67
273.413	3.7
273.787	3.71
274.16	3.71
274.533	3.73
274.906	3.75
275.279	3.75
275.653	3.76
276.026	3.77
276.399	3.8
276.772	3.82
277.145	3.81
277.518	3.83
277.891	3.84
278.263	3.83
278.636	3.84
279.009	3.83
279.382	3.84
279.755	3.86
280.127	3.88
280.5	3.88
280.872	3.9
281.245	3.9
281.617	3.89
281.99	3.9
282.362	3.89
282.735	3.9
283.107	3.9
283.479	3.89
283.852	3.9
284.224	3.9
284.596	3.88
284.968	3.88
285.34	3.9
285.713	3.9
286.085	3.93
286.457	3.92
286.829	3.92
287.201	3.93
287.572	3.95
287.944	3.95
288.316	3.95
288.688	3.95
289.06	3.96
289.431	3.96
289.803	3.96
290.175	3.96
290.546	3.98
290.918	3.98
291.289	3.99
291.661	3.99
292.032	3.99
292.403	4
292.775	4.01
293.146	4.01
293.517	4.01
293.889	4.02
294.26	4.04
294.631	4.07
295.002	4.07
295.373	4.07
295.744	4.08
296.115	4.07
296.486	4.08
296.857	4.09
297.228	4.09
297.599	4.11
297.97	4.12
298.34	4.12
298.711	4.14
299.082	4.14
299.452	4.16
299.823	4.17
300.194	4.18
300.564	4.18
300.935	4.2
301.305	4.2
301.676	4.21
302.046	4.23
302.416	4.24
302.787	4.24
303.157	4.23
303.527	4.24
303.897	4.24
304.267	4.25
304.637	4.25
305.008	4.25
305.378	4.26
305.748	4.26
306.117	4.25
306.487	4.25
306.857	4.28
307.227	4.28
307.597	4.29
307.967	4.28
308.336	4.29
308.706	4.28
309.076	4.26
309.445	4.27
309.815	4.25
310.184	4.25
310.554	4.26
310.923	4.27
311.293	4.26
311.662	4.26
312.031	4.25
312.401	4.25
312.77	4.26
313.139	4.26
313.508	4.26
313.877	4.27
314.246	4.28
314.616	4.27
314.985	4.28
315.353	4.28
315.722	4.27
316.091	4.27
316.46	4.25
316.829	4.26
317.198	4.25
317.567	4.25
317.935	4.25
318.304	4.26
318.672	4.24
319.041	4.24
319.41	4.23
319.778	4.24
320.147	4.24
320.515	4.22
320.883	4.2
321.252	4.21
321.62	4.21
321.988	4.2
322.357	4.19
322.725	4.19
323.093	4.2
323.461	4.19
323.829	4.2
324.197	4.21
324.565	4.19
324.933	4.19
325.301	4.19
325.669	4.2
326.037	4.19
326.405	4.2
326.772	4.2
327.14	4.2
327.508	4.2
327.875	4.19
328.243	4.18
328.61	4.18
328.978	4.16
329.346	4.14
329.713	4.14
330.08	4.14
330.448	4.12
330.815	4.1
331.182	4.1
331.55	4.1
331.917	4.09
332.284	4.08
332.651	4.07
333.018	4.07
333.385	4.07
333.752	4.07
334.119	4.07
334.486	4.07
334.853	4.06
335.22	4.05
335.587	4.06
335.954	4.06
336.32	4.05
336.687	4.04
337.054	4.03
337.42	4.04
337.787	4.04
338.153	4.03
338.52	4.03
338.886	4.01
339.253	4.01
339.619	4.03
339.986	4.03
340.352	4.02
340.718	4.02
341.084	4.01
341.451	4.01
341.817	4.01
342.183	4.01
342.549	4.01
342.915	4.01
343.281	4.02
343.647	4.02
344.013	4.02
344.379	4.01
344.745	4.01
345.11	4.01
345.476	4.02
345.842	4.04
346.208	4.04
346.573	4.03
346.939	4.03
347.304	4.04
347.67	4.03
348.035	4.03
348.401	4.04
348.766	4.04
349.132	4.04
349.497	4.04
349.862	4.04
350.228	4.05
350.593	4.05
350.958	4.05
351.323	4.05
351.688	4.06
352.053	4.07
352.418	4.07
352.783	4.06
353.148	4.06
353.513	4.07
353.878	4.07
354.243	4.08
354.608	4.08
354.972	4.08
355.337	4.09
355.702	4.09
356.066	4.09
356.431	4.09
356.795	4.08
357.16	4.07
357.524	4.07
357.889	4.08
358.253	4.07
358.618	4.07
358.982	4.07
359.346	4.09
359.71	4.09
360.075	4.1
360.439	4.09
360.803	4.09
361.167	4.1
361.531	4.1
361.895	4.1
362.259	4.1
362.623	4.09
362.987	4.1
363.351	4.1
363.714	4.09
364.078	4.09
364.442	4.09
364.806	4.08
365.169	4.09
365.533	4.09
365.896	4.09
366.26	4.09
366.623	4.09
366.987	4.09
367.35	4.09
367.714	4.09
368.077	4.09
368.44	4.08
368.803	4.09
369.167	4.08
369.53	4.08
369.893	4.08
370.256	4.07
370.619	4.07
370.982	4.08
371.345	4.08
371.708	4.08
372.071	4.08
372.434	4.08
372.797	4.08
373.159	4.08
373.522	4.09
373.885	4.08
374.247	4.07
374.61	4.07
374.973	4.06
375.335	4.06
375.698	4.05
376.06	4.04
376.423	4.04
376.785	4.03
377.147	4.03
377.51	4.04
377.872	4.04
378.234	4.04
378.596	4.03
378.958	4.03
379.321	4.03
379.683	4.04
380.045	4.03
380.407	4.03
380.769	4.03
381.13	4.03
381.492	4.02
381.854	4.02
382.216	4.02
382.578	4.02
382.939	4.02
383.301	4.02
383.663	4.01
384.024	4.01
384.386	4.01
384.747	4.01
385.109	4.01
385.47	4
385.832	3.99
386.193	3.99
386.554	3.99
386.916	3.98
387.277	3.98
387.638	3.97
387.999	3.97
388.36	3.97
388.721	3.96
389.082	3.97
389.443	3.97
389.804	3.97
390.165	3.97
390.526	3.97
390.887	3.97
391.248	3.97
391.609	3.97
391.969	3.97
392.33	3.97
392.691	3.96
393.051	3.96
393.412	3.96
393.772	3.97
394.133	3.97
394.493	3.96
394.854	3.96
395.214	3.96
395.574	3.96
395.935	3.96
396.295	3.96
396.655	3.96
397.015	3.96
397.376	3.96
397.736	3.96
398.096	3.97
398.456	3.97
398.816	3.98
399.176	3.98
399.535	3.97
399.895	3.98
400.255	3.98
400.615	3.98
400.975	3.98
401.334	3.98
401.694	3.99
402.054	3.99
402.413	3.99
402.773	3.99
403.132	3.99
403.492	3.99
403.851	3.99
404.211	3.99
404.57	3.99
404.929	3.99
405.288	3.99
405.648	4
406.007	4
406.366	4
406.725	4
407.084	4.01
407.443	4
407.802	4.01
408.161	4.01
408.52	4.01
408.879	4.01
409.238	4.01
409.596	4.02
409.955	4.02
410.314	4.02
410.673	4.03
411.031	4.03
411.39	4.03
411.748	4.04
412.107	4.05
412.465	4.06
412.824	4.08
413.182	4.1
413.54	4.12
413.899	4.15
414.257	4.18
414.615	4.23
414.974	4.26
415.332	4.3
415.69	4.34
416.048	4.37
416.406	4.42
416.764	4.44
417.122	4.48
417.48	4.51
417.838	4.54
418.195	4.57
418.553	4.59
418.911	4.6
419.269	4.61
419.626	4.61
419.984	4.61
420.342	4.59
420.699	4.58
421.057	4.56
421.414	4.55
421.772	4.53
422.129	4.53
422.486	4.52
422.844	4.52
423.201	4.52
423.558	4.52
423.915	4.52
424.273	4.52
424.63	4.52
424.987	4.52
425.344	4.52
425.701	4.52
426.058	4.52
426.415	4.52
426.772	4.52
427.128	4.51
427.485	4.5
427.842	4.5
428.199	4.48
428.555	4.46
428.912	4.44
429.269	4.41
429.625	4.39
429.982	4.36
430.338	4.33
430.695	4.31
431.051	4.27
431.407	4.25
431.764	4.23
432.12	4.22
432.476	4.2
432.832	4.19
433.189	4.2
433.545	4.2
433.901	4.22
434.257	4.24
434.613	4.27
434.969	4.29
435.325	4.32
435.681	4.36
436.036	4.38
436.392	4.41
436.748	4.42
437.104	4.43
437.459	4.45
437.815	4.47
438.171	4.49
438.526	4.52
438.882	4.55
439.237	4.59
439.593	4.63
439.948	4.66
440.304	4.7
440.659	4.73
441.014	4.75
441.369	4.78
441.725	4.79
442.08	4.81
442.435	4.82
442.79	4.83
443.145	4.84
443.5	4.84
443.855	4.84
444.21	4.84
444.565	4.84
444.92	4.83
445.275	4.83
445.629	4.82
445.984	4.81
446.339	4.8
446.693	4.78
447.048	4.76
447.403	4.75
447.757	4.72
448.112	4.7
448.466	4.68
448.82	4.66
449.175	4.63
449.529	4.61
449.883	4.59
450.238	4.57
450.592	4.56
450.946	4.55
451.3	4.55
451.654	4.56
452.008	4.56
452.362	4.57
452.716	4.57
453.07	4.57
453.424	4.56
453.778	4.55
454.132	4.54
454.486	4.53
454.839	4.51
455.193	4.49
455.547	4.48
455.9	4.45
456.254	4.43
456.607	4.4
456.961	4.37
457.314	4.35
457.668	4.33
458.021	4.33
458.375	4.32
458.728	4.32
459.081	4.32
459.434	4.32
459.787	4.33
460.141	4.34
460.494	4.35
460.847	4.36
461.2	4.37
461.553	4.37
461.906	4.38
462.259	4.38
462.611	4.38
462.964	4.38
463.317	4.39
463.67	4.39
464.022	4.4
464.375	4.4
464.728	4.41
465.08	4.41
465.433	4.41
465.785	4.4
466.138	4.38
466.49	4.37
466.843	4.34
467.195	4.32
467.547	4.3
467.899	4.27
468.252	4.24
468.604	4.22
468.956	4.2
469.308	4.18
469.66	4.17
470.012	4.16
470.364	4.17
470.716	4.17
471.068	4.18
471.42	4.2
471.772	4.23
472.123	4.24
472.475	4.25
472.827	4.26
473.178	4.26
473.53	4.27
473.882	4.29
474.233	4.31
474.585	4.34
474.936	4.41
475.288	4.5
475.639	4.61
475.99	4.75
476.342	4.9
476.693	5.07
477.044	5.24
477.395	5.42
477.746	5.6
478.097	5.78
478.448	5.96
478.8	6.14
479.15	6.3
479.501	6.46
479.852	6.6
480.203	6.74
480.554	6.87
480.905	7
481.255	7.11
481.606	7.23
481.957	7.33
482.307	7.43
482.658	7.53
483.009	7.62
483.359	7.71
483.709	7.8
484.06	7.88
484.41	7.96
484.761	8.04
485.111	8.12
485.461	8.19
485.811	8.26
486.162	8.31
486.512	8.37
486.862	8.41
487.212	8.44
487.562	8.46
487.912	8.48
488.262	8.49
488.612	8.48
488.961	8.46
489.311	8.42
489.661	8.34
490.011	8.25
490.36	8.14
490.71	8.02
491.06	7.88
491.409	7.73
491.759	7.58
492.108	7.42
492.458	7.25
492.807	7.08
493.157	6.9
493.506	6.74
493.855	6.58
494.204	6.44
494.554	6.29
494.903	6.16
495.252	6.03
495.601	5.91
495.95	5.79
496.299	5.67
496.648	5.56
496.997	5.47
497.346	5.37
497.695	5.28
498.043	5.19
498.392	5.1
498.741	5.01
499.09	4.93
499.438	4.85
499.787	4.78
500.135	4.71
500.484	4.65
500.832	4.59
501.181	4.55
501.529	4.52
501.878	4.5
502.226	4.49
502.574	4.48
502.923	4.48
503.271	4.47
503.619	4.47
503.967	4.47
504.315	4.46
504.663	4.46
505.011	4.45
505.359	4.44
505.707	4.43
506.055	4.43
506.403	4.43
506.751	4.43
507.098	4.43
507.446	4.44
507.794	4.44
508.141	4.45
508.489	4.46
508.837	4.47
509.184	4.49
509.531	4.5
509.879	4.51
510.226	4.52
510.574	4.54
510.921	4.56
511.268	4.58
511.616	4.6
511.963	4.62
512.31	4.64
512.657	4.66
513.004	4.68
513.351	4.7
513.698	4.72
514.045	4.72
514.392	4.73
514.739	4.73
515.086	4.72
515.432	4.72
515.779	4.72
516.126	4.71
516.473	4.71
516.819	4.71
517.166	4.72
517.512	4.73
517.859	4.74
518.205	4.76
518.552	4.79
518.898	4.82
519.245	4.86
519.591	4.92
519.937	4.99
520.283	5.09
520.629	5.19
520.976	5.31
521.322	5.43
521.668	5.55
522.014	5.68
522.36	5.81
522.706	5.93
523.052	6.06
523.398	6.17
523.743	6.27
524.089	6.35
524.435	6.42
524.781	6.49
525.126	6.56
525.472	6.62
525.817	6.67
526.163	6.72
526.509	6.77
526.854	6.82
527.199	6.86
527.545	6.91
527.89	6.96
528.235	7.01
528.581	7.06
528.926	7.11
529.271	7.15
529.616	7.19
529.961	7.22
530.306	7.25
530.651	7.28
530.996	7.3
531.341	7.31
531.686	7.32
532.031	7.32
532.376	7.33
532.721	7.33
533.065	7.34
533.41	7.34
533.755	7.34
534.099	7.33
534.444	7.3
534.788	7.26
535.133	7.22
535.477	7.18
535.822	7.13
536.166	7.07
536.51	7
536.855	6.92
537.199	6.83
537.543	6.75
537.887	6.68
538.231	6.62
538.576	6.56
538.92	6.5
539.264	6.44
539.608	6.37
539.951	6.31
540.295	6.25
540.639	6.18
540.983	6.11
541.327	6.04
541.671	5.97
542.014	5.91
542.358	5.84
542.701	5.8
543.045	5.76
543.389	5.73
543.732	5.71
544.075	5.69
544.419	5.67
544.762	5.66
545.105	5.64
545.449	5.63
545.792	5.62
546.135	5.61
546.478	5.59
546.821	5.57
547.165	5.54
547.508	5.5
547.851	5.46
548.194	5.4
548.536	5.33
548.879	5.27
549.222	5.19
549.565	5.12
549.908	5.04
550.25	4.98
550.593	4.91
550.936	4.87
551.278	4.82
551.621	4.79
551.963	4.76
552.306	4.73
552.648	4.71
552.991	4.69
553.333	4.68
553.675	4.67
554.017	4.66
554.36	4.66
554.702	4.66
555.044	4.67
555.386	4.69
555.728	4.7
556.07	4.72
556.412	4.74
556.754	4.74
557.096	4.74
557.438	4.75
557.78	4.75
558.121	4.75
558.463	4.75
558.805	4.76
559.147	4.76
559.488	4.76
559.83	4.77
560.171	4.77
560.513	4.78
560.854	4.78
561.196	4.78
561.537	4.78
561.878	4.78
562.22	4.78
562.561	4.78
562.902	4.78
563.243	4.78
563.584	4.78
563.925	4.79
564.266	4.79
564.607	4.79
564.948	4.79
565.289	4.79
565.63	4.8
565.971	4.8
566.312	4.81
566.653	4.82
566.993	4.82
567.334	4.83
567.675	4.83
568.015	4.84
568.356	4.85
568.696	4.85
569.037	4.85
569.377	4.85
569.718	4.85
570.058	4.85
570.398	4.86
570.739	4.86
571.079	4.86
571.419	4.86
571.759	4.87
572.099	4.87
572.439	4.87
572.779	4.87
573.119	4.87
573.459	4.87
573.799	4.87
574.139	4.87
574.479	4.87
574.819	4.88
575.158	4.88
575.498	4.88
575.838	4.88
576.177	4.88
576.517	4.88
576.856	4.89
577.196	4.89
577.535	4.89
577.875	4.89
578.214	4.89
578.553	4.89
578.893	4.89
579.232	4.89
579.571	4.88
579.91	4.89
580.25	4.89
580.589	4.88
580.928	4.88
581.267	4.87
581.606	4.87
581.945	4.87
582.283	4.87
582.622	4.88
582.961	4.88
583.3	4.89
583.639	4.89
583.977	4.89
584.316	4.89
584.654	4.89
584.993	4.89
585.332	4.9
585.67	4.89
586.008	4.89
586.347	4.89
586.685	4.89
587.024	4.9
587.362	4.91
587.7	4.92
588.038	4.92
588.376	4.92
588.715	4.92
589.053	4.92
589.391	4.92
589.729	4.93
590.067	4.93
590.404	4.93
590.742	4.94
591.08	4.94
591.418	4.94
591.756	4.95
592.093	4.95
592.431	4.95
592.769	4.96
593.106	4.97
593.444	4.97
593.781	4.97
594.119	4.97
594.456	4.97
594.793	4.98
595.131	4.98
595.468	4.98
595.805	4.98
596.143	4.98
596.48	4.98
596.817	4.98
597.154	4.98
597.491	4.99
597.828	5
598.165	5
598.502	5.01
598.839	5.01
599.176	5.02
599.512	5.02
599.849	5.03
600.186	5.03
600.523	5.03
600.859	5.03
601.196	5.03
601.532	5.03
601.869	5.03
602.205	5.03
602.542	5.04
602.878	5.04
603.215	5.04
603.551	5.04
603.887	5.04
604.223	5.05
604.56	5.05
604.896	5.05
605.232	5.05
605.568	5.06
605.904	5.06
606.24	5.06
606.576	5.07
606.912	5.06
607.248	5.06
607.583	5.07
607.919	5.07
608.255	5.08
608.591	5.08
608.926	5.08
609.262	5.08
609.597	5.08
609.933	5.09
610.268	5.1
610.604	5.09
610.939	5.09
611.275	5.09
611.61	5.09
611.945	5.09
612.281	5.09
612.616	5.09
612.951	5.08
613.286	5.08
613.621	5.09
613.956	5.08
614.291	5.09
614.626	5.09
614.961	5.09
615.296	5.1
615.631	5.11
615.966	5.11
616.3	5.12
616.635	5.12
616.97	5.12
617.304	5.13
617.639	5.13
617.973	5.13
618.308	5.13
618.642	5.12
618.977	5.13
619.311	5.12
619.646	5.13
619.98	5.13
620.314	5.13
620.648	5.13
620.983	5.14
621.317	5.14
621.651	5.14
621.985	5.15
622.319	5.16
622.653	5.16
622.987	5.17
623.321	5.17
623.655	5.18
623.988	5.18
624.322	5.19
624.656	5.19
624.99	5.2
625.323	5.2
625.657	5.2
625.99	5.2
626.324	5.2
626.657	5.21
626.991	5.22
627.324	5.22
627.658	5.22
627.991	5.22
628.324	5.22
628.657	5.22
628.991	5.23
629.324	5.23
629.657	5.23
629.99	5.24
630.323	5.24
630.656	5.24
630.989	5.24
631.322	5.25
631.655	5.26
631.987	5.26
632.32	5.27
632.653	5.27
632.986	5.28
633.318	5.29
633.651	5.29
633.984	5.3
634.316	5.3
634.649	5.3
634.981	5.3
635.313	5.3
635.646	5.3
635.978	5.3
636.31	5.31
636.643	5.31
636.975	5.31
637.307	5.32
637.639	5.32
637.971	5.31
638.303	5.31
638.635	5.32
638.967	5.31
639.299	5.32
639.631	5.32
639.963	5.33
640.295	5.34
640.626	5.34
640.958	5.35
641.29	5.35
641.621	5.37
641.953	5.38
642.285	5.39
642.616	5.39
642.948	5.38
643.279	5.38
643.61	5.39
643.942	5.4
644.273	5.4
644.604	5.4
644.936	5.4
645.267	5.4
645.598	5.41
645.929	5.41
646.26	5.41
646.591	5.41
646.922	5.42
647.253	5.42
647.584	5.43
647.915	5.44
648.245	5.44
648.576	5.45
648.907	5.45
649.238	5.45
649.568	5.46
649.899	5.46
650.229	5.46
650.56	5.46
650.89	5.46
651.221	5.47
651.551	5.48
651.882	5.49
652.212	5.49
652.542	5.49
652.872	5.49
653.203	5.5
653.533	5.5
653.863	5.5
654.193	5.5
654.523	5.51
654.853	5.51
655.183	5.52
655.513	5.53
655.843	5.53
656.172	5.54
656.502	5.54
656.832	5.56
657.162	5.55
657.491	5.56
657.821	5.56
658.15	5.58
658.48	5.59
658.809	5.59
659.139	5.59
659.468	5.59
659.798	5.6
660.127	5.61
660.456	5.61
660.785	5.61
661.115	5.61
661.444	5.62
661.773	5.63
662.102	5.63
662.431	5.63
662.76	5.64
663.089	5.63
663.418	5.64
663.747	5.65
664.076	5.66
664.404	5.66
664.733	5.66
665.062	5.67
665.39	5.68
665.719	5.69
666.048	5.7
666.376	5.71
666.705	5.71
667.033	5.72
667.362	5.73
667.69	5.72
668.018	5.72
668.347	5.73
668.675	5.73
669.003	5.73
669.331	5.73
669.659	5.73
669.987	5.74
670.315	5.73
670.643	5.74
670.971	5.74
671.299	5.74
671.627	5.73
671.955	5.72
672.283	5.73
672.61	5.73
672.938	5.73
673.266	5.74
673.593	5.73
673.921	5.73
674.249	5.74
674.576	5.75
674.904	5.75
675.231	5.75
675.558	5.75
675.886	5.76
676.213	5.76
676.54	5.77
676.867	5.77
677.195	5.77
677.522	5.78
677.849	5.78
678.176	5.79
678.503	5.79
678.83	5.79
679.157	5.79
679.484	5.79
679.81	5.8
680.137	5.81
680.464	5.81
680.791	5.81
681.117	5.82
681.444	5.83
681.771	5.83
682.097	5.83
682.424	5.84
682.75	5.84
