Data from UWBM53665_Reflection_00003.txt Node
Date: Sun May 02 13:12:13 EDT 2021
User: vgr7
Spectrometer: USB2G7710
Scans to average: 10
Trigger mode: 4
Integration Time (sec): 1.000000E-1
Electric dark correction enabled: true
Boxcar width: 20
XAxis mode: Wavelengths
Number of Pixels in Spectrum: 2048
>>>>>Begin Spectral Data<<<<<
177.721	102.57
178.105	102.64
178.488	101.89
178.871	102.16
179.254	102.54
179.636	98.76
180.019	97.37
180.402	93.95
180.785	90.44
181.168	88.15
181.55	84.62
181.933	115.29
182.316	116.21
182.698	115.58
183.081	117.88
183.463	119.59
183.846	120.16
184.228	121.24
184.611	123.36
184.993	126.76
185.376	127.87
185.758	-91.55
186.14	-36.04
186.522	-6.38
186.904	4.88
187.287	12.43
187.669	15.17
188.051	18.06
188.433	21.21
188.815	19.65
189.197	20.88
189.579	20.94
189.961	19.57
190.342	17.13
190.724	19.74
191.106	18.63
191.488	18.6
191.869	12.8
192.251	14.07
192.633	10.4
193.014	8.64
193.396	6.36
193.777	12.19
194.159	12.9
194.54	11.12
194.922	9.39
195.303	13.62
195.684	14.52
196.065	16.56
196.447	15.27
196.828	14.79
197.209	15.12
197.59	7.54
197.971	7.04
198.352	7.51
198.733	9.22
199.114	8.6
199.495	8.05
199.876	9.42
200.257	9.7
200.638	9.94
201.018	5.79
201.399	5.05
201.78	3.24
202.16	2.28
202.541	5.17
202.922	6.27
203.302	3.8
203.683	2.83
204.063	1.62
204.444	2.51
204.824	4.2
205.204	6.29
205.585	14.2
205.965	14.64
206.345	16.29
206.725	12.47
207.106	12.37
207.486	12.82
207.866	13.54
208.246	13.22
208.626	14.35
209.006	18.51
209.386	15.63
209.766	15.8
210.145	16.42
210.525	16.85
210.905	17.44
211.285	17.85
211.664	16.49
212.044	18.1
212.424	17.17
212.803	13.59
213.183	14.74
213.562	13.83
213.942	12.33
214.321	9.72
214.701	8.52
215.08	8.92
215.459	8.23
215.838	7.39
216.218	7.5
216.597	5.88
216.976	2.66
217.355	3.22
217.734	3.22
218.113	2.41
218.492	2.04
218.871	2.63
219.25	2.65
219.629	3.39
220.008	2.6
220.387	3.39
220.766	3.8
221.144	3.6
221.523	3.44
221.902	3.4
222.28	4.39
222.659	6.03
223.037	5.76
223.416	5.45
223.794	6.77
224.173	6.16
224.551	5.63
224.929	5.74
225.308	6.22
225.686	5.43
226.064	5.83
226.442	5.59
226.821	5.11
227.199	5.16
227.577	4.35
227.955	4.39
228.333	4.04
228.711	3.74
229.089	4.66
229.467	4.15
229.845	4.82
230.222	4.85
230.6	5.47
230.978	5.43
231.356	4.56
231.733	4.3
232.111	4.16
232.488	3.64
232.866	3.62
233.243	3.44
233.621	3.71
233.998	3.5
234.376	3.68
234.753	3.72
235.13	3.79
235.508	4.4
235.885	4.42
236.262	4.36
236.639	4.38
237.016	4.52
237.393	4.49
237.77	4.31
238.147	4.14
238.524	4.3
238.901	4.29
239.278	4.29
239.655	4.31
240.032	4.24
240.409	4.26
240.785	4.22
241.162	4.28
241.539	4.22
241.915	4.2
242.292	4.23
242.668	4.11
243.045	4.1
243.421	3.96
243.798	3.96
244.174	3.97
244.551	3.86
244.927	3.71
245.303	3.69
245.679	3.74
246.056	3.68
246.432	3.71
246.808	3.52
247.184	3.53
247.56	3.48
247.936	3.55
248.312	3.53
248.688	3.61
249.064	3.55
249.44	3.54
249.815	3.55
250.191	3.51
250.567	3.49
250.943	3.56
251.318	3.57
251.694	3.48
252.069	3.42
252.445	3.4
252.82	3.48
253.196	3.5
253.571	3.47
253.947	3.54
254.322	3.52
254.697	3.63
255.073	3.63
255.448	3.61
255.823	3.57
256.198	3.53
256.573	3.36
256.948	3.36
257.323	3.36
257.698	3.28
258.073	3.28
258.448	3.16
258.823	3.16
259.198	3.14
259.573	3.15
259.948	3.21
260.322	3.18
260.697	3.17
261.072	3.16
261.446	3.15
261.821	3.1
262.195	3.08
262.57	3.06
262.944	3.07
263.319	3.03
263.693	3.05
264.067	3.06
264.442	3.17
264.816	3.16
265.19	3.13
265.564	3.18
265.938	3.14
266.313	3.18
266.687	3.13
267.061	3.15
267.435	3.16
267.809	3.15
268.183	3.12
268.556	3.13
268.93	3.13
269.304	3.1
269.678	3.05
270.051	3.05
270.425	3.04
270.799	3.06
271.172	3.07
271.546	3.06
271.919	3.06
272.293	3.02
272.666	3.03
273.04	3.04
273.413	2.98
273.787	2.96
274.16	2.97
274.533	3
274.906	2.97
275.279	2.99
275.653	2.96
276.026	2.94
276.399	2.91
276.772	2.89
277.145	2.92
277.518	2.95
277.891	2.98
278.263	2.99
278.636	2.99
279.009	3.02
279.382	2.99
279.755	2.92
280.127	2.94
280.5	2.96
280.872	2.93
281.245	3.05
281.617	3.05
281.99	3.08
282.362	3.12
282.735	3.1
283.107	3.1
283.479	3.12
283.852	3.12
284.224	3.14
284.596	3.12
284.968	3
285.34	2.98
285.713	2.96
286.085	2.88
286.457	2.88
286.829	2.86
287.201	2.86
287.572	2.92
287.944	2.92
288.316	2.97
288.688	3
289.06	3.01
289.431	3.01
289.803	3
290.175	3.01
290.546	3.02
290.918	3.04
291.289	3.01
291.661	3.01
292.032	2.97
292.403	2.99
292.775	3.07
293.146	3.06
293.517	3.08
293.889	3.15
294.26	3.15
294.631	3.17
295.002	3.21
295.373	3.24
295.744	3.22
296.115	3.21
296.486	3.15
296.857	3.16
297.228	3.15
297.599	3.13
297.97	3.1
298.34	3.12
298.711	3.06
299.082	3.06
299.452	3.09
299.823	3.12
300.194	3.15
300.564	3.14
300.935	3.15
301.305	3.14
301.676	3.12
302.046	3.11
302.416	3.1
302.787	3.09
303.157	3.02
303.527	3.02
303.897	3.03
304.267	3.02
304.637	3.02
305.008	3.03
305.378	3.05
305.748	3.03
306.117	3.09
306.487	3.14
306.857	3.18
307.227	3.18
307.597	3.17
307.967	3.16
308.336	3.16
308.706	3.17
309.076	3.18
309.445	3.16
309.815	3.05
310.184	3.03
310.554	2.97
310.923	2.98
311.293	3.01
311.662	3
312.031	2.98
312.401	2.98
312.77	2.94
313.139	2.95
313.508	2.97
313.877	2.9
314.246	2.88
314.616	2.85
314.985	2.8
315.353	2.79
315.722	2.8
316.091	2.8
316.46	2.8
316.829	2.84
317.198	2.86
317.567	3.01
317.935	3.02
318.304	3.07
318.672	3.09
319.041	3.08
319.41	3.09
319.778	3.1
320.147	3.12
320.515	3.12
320.883	3.11
321.252	3.04
321.62	3.09
321.988	3.08
322.357	3.07
322.725	3.14
323.093	3.14
323.461	3.14
323.829	3.13
324.197	3.12
324.565	3.09
324.933	3.1
325.301	3.09
325.669	3.08
326.037	3.09
326.405	3.04
326.772	3.03
327.14	3.03
327.508	3.02
327.875	3.03
328.243	3.02
328.61	2.98
328.978	2.99
329.346	2.98
329.713	2.96
330.08	2.95
330.448	2.95
330.815	2.92
331.182	2.91
331.55	2.9
331.917	2.89
332.284	2.89
332.651	2.9
333.018	2.89
333.385	2.88
333.752	2.88
334.119	2.88
334.486	2.89
334.853	2.86
335.22	2.85
335.587	2.83
335.954	2.83
336.32	2.85
336.687	2.84
337.054	2.84
337.42	2.86
337.787	2.85
338.153	2.87
338.52	2.89
338.886	2.92
339.253	2.9
339.619	2.9
339.986	2.88
340.352	2.87
340.718	2.89
341.084	2.89
341.451	2.88
341.817	2.86
342.183	2.84
342.549	2.86
342.915	2.85
343.281	2.87
343.647	2.87
344.013	2.9
344.379	2.92
344.745	2.92
345.11	2.93
345.476	2.94
345.842	2.95
346.208	2.93
346.573	2.92
346.939	2.94
347.304	2.93
347.67	2.93
348.035	2.94
348.401	2.92
348.766	2.94
349.132	2.94
349.497	2.97
349.862	2.98
350.228	3
350.593	3
350.958	2.99
351.323	2.97
351.688	2.97
352.053	2.96
352.418	2.96
352.783	2.95
353.148	2.94
353.513	2.93
353.878	2.94
354.243	2.94
354.608	2.93
354.972	2.95
355.337	2.94
355.702	2.92
356.066	2.92
356.431	2.91
356.795	2.92
357.16	2.9
357.524	2.89
357.889	2.88
358.253	2.88
358.618	2.89
358.982	2.9
359.346	2.91
359.71	2.91
360.075	2.9
360.439	2.91
360.803	2.89
361.167	2.89
361.531	2.91
361.895	2.91
362.259	2.91
362.623	2.91
362.987	2.9
363.351	2.91
363.714	2.91
364.078	2.91
364.442	2.91
364.806	2.92
365.169	2.9
365.533	2.89
365.896	2.89
366.26	2.89
366.623	2.88
366.987	2.88
367.35	2.89
367.714	2.9
368.077	2.9
368.44	2.9
368.803	2.9
369.167	2.89
369.53	2.89
369.893	2.9
370.256	2.9
370.619	2.92
370.982	2.91
371.345	2.91
371.708	2.91
372.071	2.91
372.434	2.92
372.797	2.93
373.159	2.95
373.522	2.94
373.885	2.93
374.247	2.92
374.61	2.91
374.973	2.9
375.335	2.89
375.698	2.9
376.06	2.9
376.423	2.89
376.785	2.88
377.147	2.88
377.51	2.88
377.872	2.88
378.234	2.88
378.596	2.89
378.958	2.9
379.321	2.91
379.683	2.91
380.045	2.9
380.407	2.91
380.769	2.9
381.13	2.91
381.492	2.91
381.854	2.92
382.216	2.91
382.578	2.91
382.939	2.92
383.301	2.91
383.663	2.92
384.024	2.92
384.386	2.92
384.747	2.92
385.109	2.9
385.47	2.9
385.832	2.91
386.193	2.9
386.554	2.9
386.916	2.9
387.277	2.9
387.638	2.91
387.999	2.91
388.36	2.91
388.721	2.91
389.082	2.91
389.443	2.91
389.804	2.92
390.165	2.92
390.526	2.91
390.887	2.91
391.248	2.91
391.609	2.91
391.969	2.91
392.33	2.92
392.691	2.92
393.051	2.92
393.412	2.91
393.772	2.92
394.133	2.92
394.493	2.91
394.854	2.91
395.214	2.91
395.574	2.9
395.935	2.9
396.295	2.89
396.655	2.89
397.015	2.9
397.376	2.88
397.736	2.89
398.096	2.89
398.456	2.89
398.816	2.9
399.176	2.89
399.535	2.9
399.895	2.91
400.255	2.9
400.615	2.9
400.975	2.91
401.334	2.91
401.694	2.91
402.054	2.92
402.413	2.9
402.773	2.9
403.132	2.91
403.492	2.91
403.851	2.91
404.211	2.91
404.57	2.92
404.929	2.93
405.288	2.93
405.648	2.94
406.007	2.94
406.366	2.95
406.725	2.96
407.084	2.95
407.443	2.96
407.802	2.95
408.161	2.95
408.52	2.94
408.879	2.94
409.238	2.95
409.596	2.95
409.955	2.96
410.314	2.96
410.673	2.96
411.031	2.97
411.39	2.98
411.748	2.98
412.107	2.99
412.465	2.99
412.824	3.01
413.182	3.02
413.54	3.04
413.899	3.06
414.257	3.08
414.615	3.11
414.974	3.13
415.332	3.17
415.69	3.2
416.048	3.22
416.406	3.25
416.764	3.27
417.122	3.3
417.48	3.32
417.838	3.34
418.195	3.36
418.553	3.38
418.911	3.39
419.269	3.4
419.626	3.39
419.984	3.39
420.342	3.38
420.699	3.37
421.057	3.35
421.414	3.34
421.772	3.34
422.129	3.33
422.486	3.32
422.844	3.32
423.201	3.32
423.558	3.33
423.915	3.32
424.273	3.32
424.63	3.33
424.987	3.32
425.344	3.32
425.701	3.33
426.058	3.33
426.415	3.33
426.772	3.32
427.128	3.32
427.485	3.31
427.842	3.31
428.199	3.3
428.555	3.29
428.912	3.27
429.269	3.25
429.625	3.24
429.982	3.22
430.338	3.2
430.695	3.19
431.051	3.16
431.407	3.15
431.764	3.13
432.12	3.11
432.476	3.11
432.832	3.1
433.189	3.11
433.545	3.11
433.901	3.12
434.257	3.14
434.613	3.16
434.969	3.18
435.325	3.19
435.681	3.23
436.036	3.24
436.392	3.25
436.748	3.26
437.104	3.26
437.459	3.28
437.815	3.29
438.171	3.3
438.526	3.32
438.882	3.34
439.237	3.37
439.593	3.4
439.948	3.42
440.304	3.45
440.659	3.47
441.014	3.49
441.369	3.51
441.725	3.52
442.08	3.54
442.435	3.55
442.79	3.56
443.145	3.56
443.5	3.56
443.855	3.56
444.21	3.56
444.565	3.56
444.92	3.55
445.275	3.55
445.629	3.54
445.984	3.54
446.339	3.53
446.693	3.53
447.048	3.52
447.403	3.51
447.757	3.49
448.112	3.48
448.466	3.46
448.82	3.45
449.175	3.43
449.529	3.42
449.883	3.41
450.238	3.38
450.592	3.38
450.946	3.38
451.3	3.38
451.654	3.39
452.008	3.39
452.362	3.39
452.716	3.39
453.07	3.4
453.424	3.39
453.778	3.39
454.132	3.37
454.486	3.37
454.839	3.36
455.193	3.34
455.547	3.33
455.9	3.31
456.254	3.29
456.607	3.27
456.961	3.25
457.314	3.23
457.668	3.22
458.021	3.22
458.375	3.21
458.728	3.22
459.081	3.21
459.434	3.22
459.787	3.22
460.141	3.23
460.494	3.23
460.847	3.24
461.2	3.24
461.553	3.25
461.906	3.25
462.259	3.26
462.611	3.26
462.964	3.26
463.317	3.27
463.67	3.27
464.022	3.27
464.375	3.27
464.728	3.28
465.08	3.27
465.433	3.28
465.785	3.28
466.138	3.26
466.49	3.25
466.843	3.24
467.195	3.22
467.547	3.21
467.899	3.19
468.252	3.17
468.604	3.15
468.956	3.13
469.308	3.12
469.66	3.11
470.012	3.1
470.364	3.1
470.716	3.11
471.068	3.12
471.42	3.14
471.772	3.15
472.123	3.16
472.475	3.17
472.827	3.18
473.178	3.19
473.53	3.19
473.882	3.21
474.233	3.22
474.585	3.25
474.936	3.3
475.288	3.36
475.639	3.45
475.99	3.55
476.342	3.67
476.693	3.79
477.044	3.92
477.395	4.05
477.746	4.18
478.097	4.32
478.448	4.46
478.8	4.59
479.15	4.71
479.501	4.83
479.852	4.93
480.203	5.03
480.554	5.13
480.905	5.22
481.255	5.31
481.606	5.39
481.957	5.46
482.307	5.53
482.658	5.61
483.009	5.67
483.359	5.74
483.709	5.81
484.06	5.87
484.41	5.94
484.761	5.99
485.111	6.05
485.461	6.1
485.811	6.15
486.162	6.2
486.512	6.24
486.862	6.27
487.212	6.29
487.562	6.31
487.912	6.33
488.262	6.33
488.612	6.33
488.961	6.31
489.311	6.29
489.661	6.23
490.011	6.17
490.36	6.09
490.71	5.99
491.06	5.88
491.409	5.77
491.759	5.66
492.108	5.54
492.458	5.42
492.807	5.29
493.157	5.16
493.506	5.04
493.855	4.92
494.204	4.81
494.554	4.7
494.903	4.6
495.252	4.51
495.601	4.42
495.95	4.33
496.299	4.24
496.648	4.16
496.997	4.09
497.346	4.02
497.695	3.94
498.043	3.89
498.392	3.82
498.741	3.76
499.09	3.69
499.438	3.64
499.787	3.58
500.135	3.53
500.484	3.49
500.832	3.45
501.181	3.42
501.529	3.39
501.878	3.38
502.226	3.37
502.574	3.37
502.923	3.36
503.271	3.36
503.619	3.36
503.967	3.36
504.315	3.36
504.663	3.35
505.011	3.35
505.359	3.35
505.707	3.34
506.055	3.34
506.403	3.34
506.751	3.34
507.098	3.34
507.446	3.34
507.794	3.35
508.141	3.35
508.489	3.36
508.837	3.38
509.184	3.39
509.531	3.4
509.879	3.4
510.226	3.42
510.574	3.43
510.921	3.45
511.268	3.46
511.616	3.47
511.963	3.49
512.31	3.51
512.657	3.52
513.004	3.54
513.351	3.55
513.698	3.56
514.045	3.56
514.392	3.57
514.739	3.58
515.086	3.58
515.432	3.58
515.779	3.57
516.126	3.57
516.473	3.57
516.819	3.57
517.166	3.58
517.512	3.59
517.859	3.6
518.205	3.61
518.552	3.63
518.898	3.66
519.245	3.69
519.591	3.73
519.937	3.78
520.283	3.85
520.629	3.93
520.976	4.02
521.322	4.11
521.668	4.21
522.014	4.3
522.36	4.39
522.706	4.48
523.052	4.57
523.398	4.66
523.743	4.73
524.089	4.8
524.435	4.85
524.781	4.9
525.126	4.95
525.472	5
525.817	5.04
526.163	5.09
526.509	5.12
526.854	5.16
527.199	5.19
527.545	5.23
527.89	5.26
528.235	5.3
528.581	5.34
528.926	5.37
529.271	5.41
529.616	5.44
529.961	5.47
530.306	5.49
530.651	5.52
530.996	5.53
531.341	5.54
531.686	5.55
532.031	5.54
532.376	5.55
532.721	5.55
533.065	5.55
533.41	5.55
533.755	5.55
534.099	5.51
534.444	5.49
534.788	5.46
535.133	5.43
535.477	5.39
535.822	5.36
536.166	5.31
536.51	5.26
536.855	5.2
537.199	5.13
537.543	5.07
537.887	5.02
538.231	4.97
538.576	4.92
538.92	4.87
539.264	4.83
539.608	4.79
539.951	4.74
540.295	4.69
540.639	4.64
540.983	4.59
541.327	4.56
541.671	4.51
542.014	4.46
542.358	4.42
542.701	4.38
543.045	4.35
543.389	4.34
543.732	4.31
544.075	4.3
544.419	4.29
544.762	4.26
545.105	4.25
545.449	4.25
545.792	4.25
546.135	4.24
546.478	4.23
546.821	4.21
547.165	4.18
547.508	4.15
547.851	4.11
548.194	4.07
548.536	4.03
548.879	3.97
549.222	3.92
549.565	3.86
549.908	3.8
550.25	3.76
550.593	3.71
550.936	3.67
551.278	3.64
551.621	3.62
551.963	3.59
552.306	3.58
552.648	3.56
552.991	3.54
553.333	3.53
553.675	3.52
554.017	3.52
554.36	3.52
554.702	3.53
555.044	3.53
555.386	3.54
555.728	3.55
556.07	3.56
556.412	3.57
556.754	3.57
557.096	3.57
557.438	3.57
557.78	3.57
558.121	3.57
558.463	3.57
558.805	3.57
559.147	3.57
559.488	3.57
559.83	3.58
560.171	3.58
560.513	3.58
560.854	3.57
561.196	3.57
561.537	3.57
561.878	3.57
562.22	3.58
562.561	3.57
562.902	3.58
563.243	3.59
563.584	3.59
563.925	3.59
564.266	3.59
564.607	3.59
564.948	3.59
565.289	3.6
565.63	3.6
565.971	3.6
566.312	3.6
566.653	3.6
566.993	3.6
567.334	3.6
567.675	3.6
568.015	3.61
568.356	3.62
568.696	3.62
569.037	3.62
569.377	3.62
569.718	3.62
570.058	3.63
570.398	3.63
570.739	3.63
571.079	3.63
571.419	3.63
571.759	3.63
572.099	3.63
572.439	3.63
572.779	3.63
573.119	3.63
573.459	3.62
573.799	3.62
574.139	3.63
574.479	3.64
574.819	3.63
575.158	3.63
575.498	3.63
575.838	3.63
576.177	3.63
576.517	3.63
576.856	3.63
577.196	3.63
577.535	3.63
577.875	3.63
578.214	3.62
578.553	3.63
578.893	3.62
579.232	3.62
579.571	3.62
579.91	3.62
580.25	3.62
580.589	3.62
580.928	3.62
581.267	3.61
581.606	3.61
581.945	3.6
582.283	3.61
582.622	3.61
582.961	3.61
583.3	3.61
583.639	3.61
583.977	3.61
584.316	3.61
584.654	3.62
584.993	3.62
585.332	3.61
585.67	3.61
586.008	3.6
586.347	3.6
586.685	3.61
587.024	3.61
587.362	3.61
587.7	3.63
588.038	3.62
588.376	3.62
588.715	3.63
589.053	3.63
589.391	3.63
589.729	3.63
590.067	3.63
590.404	3.62
590.742	3.62
591.08	3.62
591.418	3.63
591.756	3.63
592.093	3.64
592.431	3.65
592.769	3.66
593.106	3.66
593.444	3.66
593.781	3.65
594.119	3.65
594.456	3.65
594.793	3.65
595.131	3.65
595.468	3.66
595.805	3.66
596.143	3.66
596.48	3.66
596.817	3.66
597.154	3.67
597.491	3.67
597.828	3.67
598.165	3.67
598.502	3.67
598.839	3.67
599.176	3.67
599.512	3.67
599.849	3.68
600.186	3.68
600.523	3.68
600.859	3.68
601.196	3.68
601.532	3.68
601.869	3.68
602.205	3.68
602.542	3.68
602.878	3.68
603.215	3.67
603.551	3.67
603.887	3.67
604.223	3.68
604.56	3.68
604.896	3.68
605.232	3.68
605.568	3.68
605.904	3.68
606.24	3.68
606.576	3.68
606.912	3.69
607.248	3.69
607.583	3.69
607.919	3.69
608.255	3.69
608.591	3.69
608.926	3.69
609.262	3.69
609.597	3.7
609.933	3.7
610.268	3.72
610.604	3.72
610.939	3.72
611.275	3.71
611.61	3.72
611.945	3.72
612.281	3.72
612.616	3.72
612.951	3.71
613.286	3.71
613.621	3.7
613.956	3.7
614.291	3.7
614.626	3.7
614.961	3.71
615.296	3.71
615.631	3.72
615.966	3.72
616.3	3.72
616.635	3.73
616.97	3.72
617.304	3.72
617.639	3.72
617.973	3.72
618.308	3.72
618.642	3.71
618.977	3.7
619.311	3.7
619.646	3.7
619.98	3.71
620.314	3.71
620.648	3.71
620.983	3.71
621.317	3.72
621.651	3.72
621.985	3.72
622.319	3.71
622.653	3.71
622.987	3.71
623.321	3.71
623.655	3.71
623.988	3.72
624.322	3.72
624.656	3.72
624.99	3.72
625.323	3.73
625.657	3.73
625.99	3.75
626.324	3.75
626.657	3.76
626.991	3.76
627.324	3.76
627.658	3.76
627.991	3.76
628.324	3.77
628.657	3.77
628.991	3.77
629.324	3.78
629.657	3.79
629.99	3.79
630.323	3.8
630.656	3.79
630.989	3.79
631.322	3.8
631.655	3.8
631.987	3.79
632.32	3.8
632.653	3.8
632.986	3.81
633.318	3.81
633.651	3.81
633.984	3.81
634.316	3.82
634.649	3.82
634.981	3.83
635.313	3.83
635.646	3.83
635.978	3.83
636.31	3.82
636.643	3.82
636.975	3.82
637.307	3.82
637.639	3.83
637.971	3.84
638.303	3.84
638.635	3.84
638.967	3.84
639.299	3.83
639.631	3.84
639.963	3.85
640.295	3.85
640.626	3.86
640.958	3.87
641.29	3.86
641.621	3.86
641.953	3.87
642.285	3.88
642.616	3.89
642.948	3.89
643.279	3.9
643.61	3.89
643.942	3.88
644.273	3.88
644.604	3.88
644.936	3.88
645.267	3.89
645.598	3.9
645.929	3.9
646.26	3.9
646.591	3.9
646.922	3.9
647.253	3.9
647.584	3.9
647.915	3.9
648.245	3.91
648.576	3.91
648.907	3.91
649.238	3.91
649.568	3.9
649.899	3.9
650.229	3.91
650.56	3.91
650.89	3.92
651.221	3.92
651.551	3.92
651.882	3.92
652.212	3.92
652.542	3.92
652.872	3.93
653.203	3.94
653.533	3.93
653.863	3.93
654.193	3.92
654.523	3.92
654.853	3.92
655.183	3.93
655.513	3.93
655.843	3.93
656.172	3.94
656.502	3.94
656.832	3.93
657.162	3.93
657.491	3.94
657.821	3.94
658.15	3.94
658.48	3.93
658.809	3.93
659.139	3.93
659.468	3.95
659.798	3.95
660.127	3.95
660.456	3.98
660.785	3.98
661.115	4
661.444	4
661.773	4.01
662.102	4.01
662.431	4.01
662.76	4.02
663.089	4.02
663.418	4.03
663.747	4.03
664.076	4.04
664.404	4.04
664.733	4.04
665.062	4.05
665.39	4.06
665.719	4.06
666.048	4.06
666.376	4.05
666.705	4.05
667.033	4.03
667.362	4.02
667.69	4.03
668.018	4.03
668.347	4.04
668.675	4.03
669.003	4.03
669.331	4.03
669.659	4.02
669.987	4.03
670.315	4.02
670.643	4.05
670.971	4.05
671.299	4.05
671.627	4.05
671.955	4.05
672.283	4.04
672.61	4.05
672.938	4.07
673.266	4.07
673.593	4.07
673.921	4.08
674.249	4.09
674.576	4.1
674.904	4.1
675.231	4.1
675.558	4.11
675.886	4.13
676.213	4.12
676.54	4.13
676.867	4.14
677.195	4.14
677.522	4.15
677.849	4.17
678.176	4.18
678.503	4.2
678.83	4.2
679.157	4.2
679.484	4.2
679.81	4.19
680.137	4.19
680.464	4.2
680.791	4.2
681.117	4.19
681.444	4.19
681.771	4.18
682.097	4.18
