Data from UWBM37214_Reflection_00013.txt Node
Date: Sun May 02 14:05:13 EDT 2021
User: vgr7
Spectrometer: USB2G7710
Scans to average: 10
Trigger mode: 4
Integration Time (sec): 1.000000E-1
Electric dark correction enabled: true
Boxcar width: 20
XAxis mode: Wavelengths
Number of Pixels in Spectrum: 2048
>>>>>Begin Spectral Data<<<<<
177.721	305.26
178.105	435.59
178.488	-8540
178.871	1000
179.254	313.29
179.636	168.51
180.019	90.41
180.402	64.91
180.785	46.29
181.168	47.02
181.55	35.61
181.933	39.28
182.316	32.17
182.698	29.68
183.081	22.15
183.463	20.06
183.846	18.4
184.228	23.97
184.611	25.57
184.993	21.78
185.376	23.35
185.758	26.04
186.14	24.85
186.522	23.24
186.904	19.81
187.287	17.7
187.669	18.58
188.051	17.32
188.433	16.53
188.815	14.92
189.197	15.02
189.579	13.8
189.961	9.72
190.342	8.79
190.724	10.27
191.106	10.46
191.488	12.1
191.869	12.66
192.251	9.97
192.633	8.27
193.014	7.77
193.396	4.79
193.777	5.77
194.159	5.2
194.54	4.63
194.922	3.67
195.303	3.02
195.684	1.95
196.065	1.43
196.447	3.08
196.828	3.06
197.209	2.92
197.59	0.03
197.971	-2.12
198.352	-1.1
198.733	-0.12
199.114	0.84
199.495	1.4
199.876	-0.91
200.257	-0.33
200.638	-0.41
201.018	-0.26
201.399	-0.55
201.78	-0.62
202.16	0.03
202.541	0.03
202.922	0.03
203.302	-1.26
203.683	-0.68
204.063	0.52
204.444	0.45
204.824	-0.38
205.204	-0.39
205.585	1.24
205.965	2.28
206.345	1.54
206.725	2.17
207.106	1.7
207.486	0.76
207.866	3.12
208.246	2.7
208.626	2.68
209.006	3.46
209.386	2.63
209.766	1.63
210.145	0.03
210.525	0.59
210.905	1.99
211.285	1.99
211.664	2.85
212.044	1.52
212.424	-0.63
212.803	-1.15
213.183	-0.96
213.562	1.89
213.942	1.4
214.321	1.18
214.701	-0.73
215.08	-0.26
215.459	-0.66
215.838	-2.79
216.218	-2.84
216.597	-4.1
216.976	-3.9
217.355	-4.38
217.734	-5.13
218.113	-5.73
218.492	-6.81
218.871	-6.87
219.25	-6.61
219.629	-6.83
220.008	-6.4
220.387	-6.89
220.766	-5.46
221.144	-5.46
221.523	-4.72
221.902	-4.52
222.28	-4.8
222.659	-4.26
223.037	-3.8
223.416	-3.67
223.794	-2.71
224.173	-2.41
224.551	-2.61
224.929	-1.17
225.308	-0.48
225.686	0.17
226.064	-0.01
226.442	-0.14
226.821	0.38
227.199	0.55
227.577	0.96
227.955	1.57
228.333	1.97
228.711	2.15
229.089	1.37
229.467	1.17
229.845	1.54
230.222	2.06
230.6	1.99
230.978	2.02
231.356	2.64
231.733	2.87
232.111	2.94
232.488	2.87
232.866	2.88
233.243	3.11
233.621	3.26
233.998	3.53
234.376	3.64
234.753	3.64
235.13	3.67
235.508	3.75
235.885	4.02
236.262	3.98
236.639	3.95
237.016	3.86
237.393	3.86
237.77	3.91
238.147	3.89
238.524	3.91
238.901	3.9
239.278	3.92
239.655	4.02
240.032	4.03
240.409	3.99
240.785	4.02
241.162	4.04
241.539	4.07
241.915	4.18
242.292	4.18
242.668	4.17
243.045	4.14
243.421	4.11
243.798	4.1
244.174	4.15
244.551	4.22
244.927	4.27
245.303	4.27
245.679	4.23
246.056	4.19
246.432	4.23
246.808	4.17
247.184	4.16
247.56	4.17
247.936	4.16
248.312	4.19
248.688	4.15
249.064	4.15
249.44	4.16
249.815	4.13
250.191	4.11
250.567	4.13
250.943	4.11
251.318	4.07
251.694	4.09
252.069	4.09
252.445	4.12
252.82	4.12
253.196	4.11
253.571	4.09
253.947	4.09
254.322	4.09
254.697	4.09
255.073	4.07
255.448	4.08
255.823	4.05
256.198	4.03
256.573	4.02
256.948	4.04
257.323	3.99
257.698	3.96
258.073	3.94
258.448	3.94
258.823	3.94
259.198	3.95
259.573	3.92
259.948	3.9
260.322	3.87
260.697	3.84
261.072	3.85
261.446	3.86
261.821	3.85
262.195	3.85
262.57	3.85
262.944	3.85
263.319	3.87
263.693	3.87
264.067	3.88
264.442	3.87
264.816	3.85
265.19	3.86
265.564	3.86
265.938	3.84
266.313	3.85
266.687	3.85
267.061	3.84
267.435	3.85
267.809	3.82
268.183	3.82
268.556	3.81
268.93	3.82
269.304	3.81
269.678	3.82
270.051	3.79
270.425	3.76
270.799	3.75
271.172	3.76
271.546	3.74
271.919	3.74
272.293	3.72
272.666	3.72
273.04	3.73
273.413	3.77
273.787	3.78
274.16	3.78
274.533	3.79
274.906	3.8
275.279	3.8
275.653	3.8
276.026	3.83
276.399	3.83
276.772	3.81
277.145	3.82
277.518	3.83
277.891	3.83
278.263	3.83
278.636	3.84
279.009	3.83
279.382	3.84
279.755	3.86
280.127	3.87
280.5	3.88
280.872	3.89
281.245	3.9
281.617	3.9
281.99	3.91
282.362	3.91
282.735	3.9
283.107	3.92
283.479	3.93
283.852	3.95
284.224	3.96
284.596	3.96
284.968	3.97
285.34	4
285.713	4.03
286.085	4.05
286.457	4.07
286.829	4.1
287.201	4.12
287.572	4.13
287.944	4.15
288.316	4.15
288.688	4.16
289.06	4.19
289.431	4.21
289.803	4.24
290.175	4.26
290.546	4.3
290.918	4.33
291.289	4.36
291.661	4.4
292.032	4.44
292.403	4.46
292.775	4.5
293.146	4.54
293.517	4.57
293.889	4.6
294.26	4.64
294.631	4.68
295.002	4.72
295.373	4.76
295.744	4.79
296.115	4.84
296.486	4.89
296.857	4.92
297.228	4.96
297.599	5.02
297.97	5.07
298.34	5.1
298.711	5.15
299.082	5.19
299.452	5.25
299.823	5.3
300.194	5.33
300.564	5.38
300.935	5.43
301.305	5.46
301.676	5.5
302.046	5.55
302.416	5.6
302.787	5.65
303.157	5.7
303.527	5.76
303.897	5.8
304.267	5.86
304.637	5.91
305.008	5.98
305.378	6.04
305.748	6.09
306.117	6.15
306.487	6.22
306.857	6.29
307.227	6.35
307.597	6.41
307.967	6.46
308.336	6.51
308.706	6.57
309.076	6.61
309.445	6.68
309.815	6.72
310.184	6.76
310.554	6.81
310.923	6.85
311.293	6.91
311.662	6.97
312.031	7.02
312.401	7.06
312.77	7.11
313.139	7.17
313.508	7.22
313.877	7.27
314.246	7.32
314.616	7.36
314.985	7.4
315.353	7.46
315.722	7.5
316.091	7.57
316.46	7.62
316.829	7.69
317.198	7.75
317.567	7.81
317.935	7.86
318.304	7.92
318.672	7.99
319.041	8.08
319.41	8.11
319.778	8.19
320.147	8.23
320.515	8.28
320.883	8.31
321.252	8.36
321.62	8.4
321.988	8.45
322.357	8.49
322.725	8.54
323.093	8.57
323.461	8.6
323.829	8.65
324.197	8.69
324.565	8.72
324.933	8.76
325.301	8.79
325.669	8.83
326.037	8.88
326.405	8.92
326.772	8.93
327.14	8.96
327.508	8.99
327.875	9
328.243	9.02
328.61	9.04
328.978	9.05
329.346	9.08
329.713	9.12
330.08	9.14
330.448	9.14
330.815	9.16
331.182	9.17
331.55	9.2
331.917	9.21
332.284	9.22
332.651	9.24
333.018	9.26
333.385	9.29
333.752	9.31
334.119	9.32
334.486	9.35
334.853	9.36
335.22	9.4
335.587	9.43
335.954	9.47
336.32	9.48
336.687	9.5
337.054	9.51
337.42	9.53
337.787	9.56
338.153	9.6
338.52	9.64
338.886	9.65
339.253	9.66
339.619	9.7
339.986	9.72
340.352	9.73
340.718	9.74
341.084	9.75
341.451	9.76
341.817	9.77
342.183	9.79
342.549	9.81
342.915	9.83
343.281	9.86
343.647	9.88
344.013	9.9
344.379	9.9
344.745	9.93
345.11	9.95
345.476	9.97
345.842	9.99
346.208	10.01
346.573	10.02
346.939	10.03
347.304	10.05
347.67	10.06
348.035	10.07
348.401	10.07
348.766	10.07
349.132	10.09
349.497	10.09
349.862	10.09
350.228	10.09
350.593	10.09
350.958	10.08
351.323	10.09
351.688	10.1
352.053	10.09
352.418	10.09
352.783	10.07
353.148	10.04
353.513	10.03
353.878	10.01
354.243	10
354.608	9.98
354.972	9.97
355.337	9.95
355.702	9.94
356.066	9.92
356.431	9.9
356.795	9.89
357.16	9.86
357.524	9.85
357.889	9.83
358.253	9.8
358.618	9.77
358.982	9.75
359.346	9.73
359.71	9.7
360.075	9.67
360.439	9.64
360.803	9.62
361.167	9.59
361.531	9.56
361.895	9.53
362.259	9.5
362.623	9.47
362.987	9.44
363.351	9.4
363.714	9.37
364.078	9.32
364.442	9.28
364.806	9.24
365.169	9.21
365.533	9.16
365.896	9.12
366.26	9.08
366.623	9.03
366.987	8.99
367.35	8.95
367.714	8.9
368.077	8.86
368.44	8.81
368.803	8.75
369.167	8.69
369.53	8.63
369.893	8.57
370.256	8.51
370.619	8.45
370.982	8.39
371.345	8.33
371.708	8.27
372.071	8.21
372.434	8.14
372.797	8.08
373.159	8.02
373.522	7.97
373.885	7.91
374.247	7.85
374.61	7.79
374.973	7.73
375.335	7.67
375.698	7.6
376.06	7.54
376.423	7.49
376.785	7.43
377.147	7.37
377.51	7.31
377.872	7.25
378.234	7.2
378.596	7.15
378.958	7.1
379.321	7.04
379.683	6.99
380.045	6.94
380.407	6.9
380.769	6.84
381.13	6.79
381.492	6.74
381.854	6.69
382.216	6.64
382.578	6.6
382.939	6.55
383.301	6.5
383.663	6.47
384.024	6.42
384.386	6.37
384.747	6.32
385.109	6.28
385.47	6.24
385.832	6.19
386.193	6.15
386.554	6.11
386.916	6.07
387.277	6.03
387.638	5.99
387.999	5.95
388.36	5.91
388.721	5.88
389.082	5.84
389.443	5.81
389.804	5.77
390.165	5.74
390.526	5.71
390.887	5.67
391.248	5.64
391.609	5.61
391.969	5.57
392.33	5.54
392.691	5.51
393.051	5.47
393.412	5.44
393.772	5.41
394.133	5.38
394.493	5.34
394.854	5.31
395.214	5.27
395.574	5.24
395.935	5.21
396.295	5.17
396.655	5.14
397.015	5.11
397.376	5.07
397.736	5.04
398.096	5.01
398.456	4.98
398.816	4.95
399.176	4.93
399.535	4.9
399.895	4.87
400.255	4.85
400.615	4.82
400.975	4.79
401.334	4.77
401.694	4.75
402.054	4.73
402.413	4.7
402.773	4.68
403.132	4.66
403.492	4.64
403.851	4.62
404.211	4.6
404.57	4.59
404.929	4.57
405.288	4.55
405.648	4.54
406.007	4.53
406.366	4.51
406.725	4.5
407.084	4.49
407.443	4.47
407.802	4.46
408.161	4.45
408.52	4.44
408.879	4.42
409.238	4.41
409.596	4.4
409.955	4.39
410.314	4.38
410.673	4.37
411.031	4.36
411.39	4.35
411.748	4.34
412.107	4.33
412.465	4.33
412.824	4.34
413.182	4.35
413.54	4.36
413.899	4.38
414.257	4.4
414.615	4.42
414.974	4.44
415.332	4.46
415.69	4.49
416.048	4.51
416.406	4.54
416.764	4.55
417.122	4.57
417.48	4.59
417.838	4.61
418.195	4.62
418.553	4.63
418.911	4.64
419.269	4.63
419.626	4.62
419.984	4.6
420.342	4.58
420.699	4.56
421.057	4.53
421.414	4.51
421.772	4.48
422.129	4.46
422.486	4.45
422.844	4.43
423.201	4.42
423.558	4.42
423.915	4.41
424.273	4.4
424.63	4.39
424.987	4.38
425.344	4.37
425.701	4.36
426.058	4.36
426.415	4.35
426.772	4.34
427.128	4.33
427.485	4.31
427.842	4.29
428.199	4.27
428.555	4.24
428.912	4.22
429.269	4.18
429.625	4.15
429.982	4.12
430.338	4.09
430.695	4.06
431.051	4.02
431.407	4
431.764	3.98
432.12	3.95
432.476	3.94
432.832	3.93
433.189	3.93
433.545	3.93
433.901	3.94
434.257	3.96
434.613	3.98
434.969	4
435.325	4.03
435.681	4.06
436.036	4.08
436.392	4.1
436.748	4.12
437.104	4.13
437.459	4.15
437.815	4.16
438.171	4.18
438.526	4.21
438.882	4.23
439.237	4.27
439.593	4.3
439.948	4.33
440.304	4.36
440.659	4.38
441.014	4.4
441.369	4.42
441.725	4.44
442.08	4.45
442.435	4.46
442.79	4.47
443.145	4.47
443.5	4.46
443.855	4.46
444.21	4.46
444.565	4.45
444.92	4.44
445.275	4.43
445.629	4.41
445.984	4.4
446.339	4.38
446.693	4.37
447.048	4.35
447.403	4.33
447.757	4.3
448.112	4.27
448.466	4.25
448.82	4.22
449.175	4.19
449.529	4.16
449.883	4.14
450.238	4.11
450.592	4.1
450.946	4.08
451.3	4.08
451.654	4.08
452.008	4.08
452.362	4.08
452.716	4.08
453.07	4.07
453.424	4.07
453.778	4.06
454.132	4.05
454.486	4.04
454.839	4.02
455.193	4
455.547	3.99
455.9	3.96
456.254	3.95
456.607	3.92
456.961	3.89
457.314	3.87
457.668	3.86
458.021	3.86
458.375	3.86
458.728	3.86
459.081	3.87
459.434	3.88
459.787	3.89
460.141	3.9
460.494	3.91
460.847	3.92
461.2	3.93
461.553	3.94
461.906	3.95
462.259	3.96
462.611	3.97
462.964	3.98
463.317	3.99
463.67	4
464.022	4.02
464.375	4.03
464.728	4.04
465.08	4.05
465.433	4.06
465.785	4.07
466.138	4.06
466.49	4.05
466.843	4.04
467.195	4.03
467.547	4.01
467.899	4
468.252	3.98
468.604	3.96
468.956	3.94
469.308	3.93
469.66	3.94
470.012	3.94
470.364	3.94
470.716	3.95
471.068	3.97
471.42	3.99
471.772	4.02
472.123	4.03
472.475	4.04
472.827	4.06
473.178	4.06
473.53	4.07
473.882	4.09
474.233	4.11
474.585	4.14
474.936	4.2
475.288	4.28
475.639	4.39
475.99	4.52
476.342	4.65
476.693	4.8
477.044	4.96
477.395	5.12
477.746	5.28
478.097	5.44
478.448	5.61
478.8	5.77
479.15	5.91
479.501	6.05
479.852	6.18
480.203	6.3
480.554	6.41
480.905	6.52
481.255	6.62
481.606	6.73
481.957	6.82
482.307	6.91
482.658	7
483.009	7.08
483.359	7.17
483.709	7.24
484.06	7.32
484.41	7.39
484.761	7.47
485.111	7.54
485.461	7.61
485.811	7.67
486.162	7.73
486.512	7.78
486.862	7.82
487.212	7.85
487.562	7.87
487.912	7.89
488.262	7.9
488.612	7.9
488.961	7.89
489.311	7.86
489.661	7.8
490.011	7.72
490.36	7.63
490.71	7.52
491.06	7.41
491.409	7.29
491.759	7.16
492.108	7.02
492.458	6.89
492.807	6.74
493.157	6.6
493.506	6.47
493.855	6.34
494.204	6.23
494.554	6.12
494.903	6.02
495.252	5.92
495.601	5.84
495.95	5.76
496.299	5.68
496.648	5.61
496.997	5.55
497.346	5.5
497.695	5.45
498.043	5.4
498.392	5.36
498.741	5.32
499.09	5.29
499.438	5.26
499.787	5.25
500.135	5.24
500.484	5.23
500.832	5.24
501.181	5.27
501.529	5.31
501.878	5.37
502.226	5.43
502.574	5.5
502.923	5.58
503.271	5.66
503.619	5.75
503.967	5.84
504.315	5.93
504.663	6.02
505.011	6.12
505.359	6.22
505.707	6.32
506.055	6.42
506.403	6.53
506.751	6.64
507.098	6.76
507.446	6.88
507.794	7.01
508.141	7.14
508.489	7.28
508.837	7.43
509.184	7.57
509.531	7.72
509.879	7.89
510.226	8.06
510.574	8.25
510.921	8.44
511.268	8.64
511.616	8.84
511.963	9.05
512.31	9.27
512.657	9.48
513.004	9.69
513.351	9.9
513.698	10.09
514.045	10.28
514.392	10.45
514.739	10.62
515.086	10.79
515.432	10.95
515.779	11.11
516.126	11.27
516.473	11.45
516.819	11.64
517.166	11.85
517.512	12.08
517.859	12.33
518.205	12.59
518.552	12.87
518.898	13.18
519.245	13.53
519.591	13.95
519.937	14.44
520.283	15
520.629	15.61
520.976	16.25
521.322	16.92
521.668	17.6
522.014	18.3
522.36	19
522.706	19.69
523.052	20.36
523.398	21
523.743	21.59
524.089	22.12
524.435	22.62
524.781	23.11
525.126	23.59
525.472	24.07
525.817	24.53
526.163	24.98
526.509	25.43
526.854	25.87
527.199	26.31
527.545	26.75
527.89	27.21
528.235	27.66
528.581	28.09
528.926	28.5
529.271	28.88
529.616	29.26
529.961	29.62
530.306	29.96
530.651	30.29
530.996	30.59
531.341	30.87
531.686	31.12
532.031	31.35
532.376	31.62
532.721	31.91
533.065	32.22
533.41	32.54
533.755	32.84
534.099	33.1
534.444	33.32
534.788	33.52
535.133	33.71
535.477	33.86
535.822	33.98
536.166	34.07
536.51	34.1
536.855	34.08
537.199	34.03
537.543	33.98
537.887	33.95
538.231	33.97
538.576	33.99
538.92	33.99
539.264	33.98
539.608	33.95
539.951	33.9
540.295	33.85
540.639	33.78
540.983	33.69
541.327	33.58
541.671	33.46
542.014	33.34
542.358	33.25
542.701	33.23
543.045	33.28
543.389	33.36
543.732	33.47
544.075	33.59
544.419	33.73
544.762	33.88
545.105	34.04
545.449	34.21
545.792	34.4
546.135	34.58
546.478	34.72
546.821	34.8
547.165	34.84
547.508	34.81
547.851	34.74
548.194	34.63
548.536	34.48
548.879	34.29
549.222	34.08
549.565	33.87
549.908	33.67
550.25	33.48
550.593	33.36
550.936	33.31
551.278	33.3
551.621	33.33
551.963	33.38
552.306	33.46
552.648	33.57
552.991	33.71
553.333	33.86
553.675	34.04
554.017	34.26
554.36	34.5
554.702	34.78
555.044	35.09
555.386	35.45
555.728	35.85
556.07	36.21
556.412	36.57
556.754	36.87
557.096	37.11
557.438	37.35
557.78	37.58
558.121	37.81
558.463	38.05
558.805	38.28
559.147	38.52
559.488	38.76
559.83	38.99
560.171	39.22
560.513	39.44
560.854	39.67
561.196	39.89
561.537	40.11
561.878	40.32
562.22	40.52
562.561	40.72
562.902	40.92
563.243	41.13
563.584	41.33
563.925	41.53
564.266	41.73
564.607	41.93
564.948	42.13
565.289	42.32
565.63	42.51
565.971	42.71
566.312	42.89
566.653	43.07
566.993	43.25
567.334	43.43
567.675	43.6
568.015	43.76
568.356	43.92
568.696	44.07
569.037	44.22
569.377	44.36
569.718	44.51
570.058	44.65
570.398	44.78
570.739	44.91
571.079	45.04
571.419	45.16
571.759	45.28
572.099	45.39
572.439	45.51
572.779	45.61
573.119	45.72
573.459	45.83
573.799	45.93
574.139	46.04
574.479	46.15
574.819	46.25
575.158	46.35
575.498	46.45
575.838	46.55
576.177	46.65
576.517	46.75
576.856	46.85
577.196	46.93
577.535	47.02
577.875	47.12
578.214	47.21
578.553	47.29
578.893	47.38
579.232	47.46
579.571	47.54
579.91	47.64
580.25	47.7
580.589	47.79
580.928	47.88
581.267	47.97
581.606	48.06
581.945	48.16
582.283	48.27
582.622	48.36
582.961	48.46
583.3	48.55
583.639	48.64
583.977	48.73
584.316	48.82
584.654	48.92
584.993	49
585.332	49.09
585.67	49.17
586.008	49.27
586.347	49.35
586.685	49.45
587.024	49.53
587.362	49.62
587.7	49.7
588.038	49.79
588.376	49.88
588.715	49.97
589.053	50.07
589.391	50.17
589.729	50.26
590.067	50.35
590.404	50.44
590.742	50.53
591.08	50.62
591.418	50.69
591.756	50.76
592.093	50.83
592.431	50.9
592.769	50.96
593.106	51.04
593.444	51.1
593.781	51.14
594.119	51.21
594.456	51.27
594.793	51.32
595.131	51.37
595.468	51.43
595.805	51.48
596.143	51.54
596.48	51.61
596.817	51.68
597.154	51.75
597.491	51.82
597.828	51.89
598.165	51.95
598.502	52.02
598.839	52.08
599.176	52.15
599.512	52.21
599.849	52.26
600.186	52.32
600.523	52.37
600.859	52.41
601.196	52.46
601.532	52.51
601.869	52.55
602.205	52.59
602.542	52.63
602.878	52.68
603.215	52.72
603.551	52.76
603.887	52.8
604.223	52.84
604.56	52.87
604.896	52.9
605.232	52.93
605.568	52.96
605.904	53
606.24	53.03
606.576	53.07
606.912	53.09
607.248	53.13
607.583	53.16
607.919	53.19
608.255	53.22
608.591	53.26
608.926	53.29
609.262	53.31
609.597	53.34
609.933	53.36
610.268	53.38
610.604	53.39
610.939	53.4
611.275	53.4
611.61	53.42
611.945	53.45
612.281	53.46
612.616	53.47
612.951	53.48
613.286	53.49
613.621	53.51
613.956	53.53
614.291	53.54
614.626	53.57
614.961	53.57
615.296	53.59
615.631	53.61
615.966	53.63
616.3	53.65
616.635	53.66
616.97	53.67
617.304	53.69
617.639	53.72
617.973	53.73
618.308	53.76
618.642	53.79
618.977	53.83
619.311	53.85
619.646	53.88
619.98	53.9
620.314	53.93
620.648	53.96
620.983	53.99
621.317	54.03
621.651	54.05
621.985	54.06
622.319	54.08
622.653	54.11
622.987	54.14
623.321	54.16
623.655	54.19
623.988	54.2
624.322	54.23
624.656	54.25
624.99	54.27
625.323	54.29
625.657	54.3
625.99	54.33
626.324	54.34
626.657	54.37
626.991	54.41
627.324	54.43
627.658	54.44
627.991	54.45
628.324	54.47
628.657	54.51
628.991	54.55
629.324	54.56
629.657	54.59
629.99	54.61
630.323	54.62
630.656	54.64
630.989	54.66
631.322	54.67
631.655	54.69
631.987	54.69
632.32	54.71
632.653	54.72
632.986	54.74
633.318	54.75
633.651	54.76
633.984	54.77
634.316	54.8
634.649	54.81
634.981	54.82
635.313	54.84
635.646	54.86
635.978	54.87
636.31	54.88
636.643	54.89
636.975	54.92
637.307	54.93
637.639	54.94
637.971	54.95
638.303	54.97
638.635	55
638.967	55.02
639.299	55.03
639.631	55.03
639.963	55.05
640.295	55.06
640.626	55.05
640.958	55.07
641.29	55.09
641.621	55.1
641.953	55.1
642.285	55.1
642.616	55.09
642.948	55.12
643.279	55.13
643.61	55.15
643.942	55.17
644.273	55.19
644.604	55.2
644.936	55.22
645.267	55.24
645.598	55.26
645.929	55.29
646.26	55.31
646.591	55.32
646.922	55.35
647.253	55.37
647.584	55.38
647.915	55.4
648.245	55.41
648.576	55.42
648.907	55.44
649.238	55.46
649.568	55.47
649.899	55.49
650.229	55.51
650.56	55.53
650.89	55.56
651.221	55.58
651.551	55.63
651.882	55.64
652.212	55.64
652.542	55.65
652.872	55.65
653.203	55.67
653.533	55.69
653.863	55.71
654.193	55.73
654.523	55.74
654.853	55.77
655.183	55.8
655.513	55.82
655.843	55.84
656.172	55.88
656.502	55.87
656.832	55.89
657.162	55.9
657.491	55.9
657.821	55.91
658.15	55.93
658.48	55.94
658.809	55.95
659.139	55.97
659.468	55.98
659.798	56
660.127	56.01
660.456	56.01
660.785	56.02
661.115	56.03
661.444	56.05
661.773	56.08
662.102	56.09
662.431	56.09
662.76	56.1
663.089	56.12
663.418	56.13
663.747	56.13
664.076	56.14
664.404	56.14
664.733	56.16
665.062	56.16
665.39	56.17
665.719	56.2
666.048	56.22
666.376	56.24
666.705	56.25
667.033	56.26
667.362	56.27
667.69	56.31
668.018	56.31
668.347	56.32
668.675	56.32
669.003	56.34
669.331	56.34
669.659	56.33
669.987	56.33
670.315	56.34
