Data from UWBM50074_Reflection_00003.txt Node
Date: Sun May 02 12:34:12 EDT 2021
User: vgr7
Spectrometer: USB2G7710
Scans to average: 10
Trigger mode: 4
Integration Time (sec): 1.000000E-1
Electric dark correction enabled: true
Boxcar width: 10
XAxis mode: Wavelengths
Number of Pixels in Spectrum: 2048
>>>>>Begin Spectral Data<<<<<
177.721	203.23
178.105	272.73
178.488	-339.34
178.871	186.79
179.254	828
179.636	173.08
180.019	-103.05
180.402	73.68
180.785	34.38
181.168	-25.9
181.55	-44.88
181.933	263.08
182.316	108
182.698	10.11
183.081	55.2
183.463	11.39
183.846	57.78
184.228	40.72
184.611	41.58
184.993	45.66
185.376	45.21
185.758	38.49
186.14	23.91
186.522	23.33
186.904	23.95
187.287	31.34
187.669	22.98
188.051	12.53
188.433	14.33
188.815	11.84
189.197	16.77
189.579	18.74
189.961	18.92
190.342	20.41
190.724	23.55
191.106	25.81
191.488	28.42
191.869	25.11
192.251	24.76
192.633	21.51
193.014	19.22
193.396	17.54
193.777	19.62
194.159	23.99
194.54	21.76
194.922	20.33
195.303	21.25
195.684	22.37
196.065	24.92
196.447	20.23
196.828	22.1
197.209	20.2
197.59	19.04
197.971	16.38
198.352	13.7
198.733	11.65
199.114	9.07
199.495	5.87
199.876	5.23
200.257	7.8
200.638	10.47
201.018	11.68
201.399	11.1
201.78	9.32
202.16	5.68
202.541	8.5
202.922	7.52
203.302	5.68
203.683	6.93
204.063	8.01
204.444	9.7
204.824	11.54
205.204	11.9
205.585	12.35
205.965	15.14
206.345	17.62
206.725	13.03
207.106	12.59
207.486	13.82
207.866	16.2
208.246	14.39
208.626	14.51
209.006	12.12
209.386	12.95
209.766	13.21
210.145	14.12
210.525	9.99
210.905	7.95
211.285	7.88
211.664	6.16
212.044	4.63
212.424	8.29
212.803	7.28
213.183	8.01
213.562	9.58
213.942	8.55
214.321	4.37
214.701	6.16
215.08	7.86
215.459	9.54
215.838	8.98
216.218	8.93
216.597	8.24
216.976	8.58
217.355	9.16
217.734	9.15
218.113	8.33
218.492	8.47
218.871	10.32
219.25	9.88
219.629	9.53
220.008	10.69
220.387	6.4
220.766	3.14
221.144	1.3
221.523	1.76
221.902	2.77
222.28	4.35
222.659	3.27
223.037	3.41
223.416	3.66
223.794	4.33
224.173	5.68
224.551	5.22
224.929	5.12
225.308	6.13
225.686	5.16
226.064	6.34
226.442	7.4
226.821	7.97
227.199	8.04
227.577	8.24
227.955	7.49
228.333	8.69
228.711	9.33
229.089	9.75
229.467	8.51
229.845	8.32
230.222	8.66
230.6	8.84
230.978	8.87
231.356	8.37
231.733	8.1
232.111	8.24
232.488	7.72
232.866	7.43
233.243	7.02
233.621	7.29
233.998	6.78
234.376	6.72
234.753	6.81
235.13	6.97
235.508	7.08
235.885	7.02
236.262	6.74
236.639	6.98
237.016	6.75
237.393	6.93
237.77	6.71
238.147	6.3
238.524	6.29
238.901	6.13
239.278	5.72
239.655	5.49
240.032	5.11
240.409	5.12
240.785	5
241.162	4.98
241.539	4.8
241.915	4.73
242.292	4.68
242.668	4.58
243.045	4.48
243.421	4.29
243.798	4.29
244.174	4.22
244.551	4.09
244.927	4.03
245.303	3.97
245.679	4.01
246.056	3.95
246.432	3.93
246.808	3.84
247.184	3.88
247.56	3.88
247.936	3.93
248.312	3.9
248.688	3.95
249.064	3.86
249.44	3.87
249.815	3.9
250.191	3.91
250.567	3.86
250.943	3.88
251.318	3.92
251.694	3.86
252.069	3.85
252.445	3.9
252.82	3.91
253.196	3.93
253.571	3.86
253.947	3.96
254.322	3.94
254.697	3.98
255.073	3.94
255.448	3.91
255.823	3.81
256.198	3.77
256.573	3.66
256.948	3.67
257.323	3.72
257.698	3.66
258.073	3.61
258.448	3.6
258.823	3.59
259.198	3.57
259.573	3.57
259.948	3.58
260.322	3.53
260.697	3.55
261.072	3.53
261.446	3.52
261.821	3.49
262.195	3.44
262.57	3.43
262.944	3.41
263.319	3.4
263.693	3.44
264.067	3.46
264.442	3.49
264.816	3.49
265.19	3.44
265.564	3.46
265.938	3.42
266.313	3.41
266.687	3.36
267.061	3.39
267.435	3.38
267.809	3.4
268.183	3.43
268.556	3.38
268.93	3.37
269.304	3.33
269.678	3.31
270.051	3.34
270.425	3.34
270.799	3.36
271.172	3.33
271.546	3.33
271.919	3.33
272.293	3.3
272.666	3.3
273.04	3.32
273.413	3.27
273.787	3.25
274.16	3.26
274.533	3.29
274.906	3.26
275.279	3.27
275.653	3.24
276.026	3.2
276.399	3.21
276.772	3.2
277.145	3.24
277.518	3.28
277.891	3.28
278.263	3.3
278.636	3.31
279.009	3.32
279.382	3.28
279.755	3.25
280.127	3.28
280.5	3.28
280.872	3.25
281.245	3.31
281.617	3.35
281.99	3.37
282.362	3.36
282.735	3.33
283.107	3.28
283.479	3.31
283.852	3.31
284.224	3.32
284.596	3.33
284.968	3.35
285.34	3.33
285.713	3.36
286.085	3.33
286.457	3.32
286.829	3.29
287.201	3.31
287.572	3.32
287.944	3.33
288.316	3.34
288.688	3.35
289.06	3.33
289.431	3.32
289.803	3.32
290.175	3.34
290.546	3.37
290.918	3.42
291.289	3.4
291.661	3.44
292.032	3.4
292.403	3.41
292.775	3.38
293.146	3.37
293.517	3.36
293.889	3.37
294.26	3.37
294.631	3.4
295.002	3.39
295.373	3.4
295.744	3.38
296.115	3.36
296.486	3.36
296.857	3.37
297.228	3.38
297.599	3.37
297.97	3.34
298.34	3.35
298.711	3.33
299.082	3.32
299.452	3.32
299.823	3.34
300.194	3.36
300.564	3.34
300.935	3.37
301.305	3.35
301.676	3.31
302.046	3.28
302.416	3.27
302.787	3.28
303.157	3.29
303.527	3.32
303.897	3.32
304.267	3.31
304.637	3.3
305.008	3.34
305.378	3.31
305.748	3.32
306.117	3.31
306.487	3.32
306.857	3.34
307.227	3.32
307.597	3.31
307.967	3.28
308.336	3.28
308.706	3.28
309.076	3.27
309.445	3.31
309.815	3.31
310.184	3.31
310.554	3.31
310.923	3.3
311.293	3.27
311.662	3.26
312.031	3.28
312.401	3.28
312.77	3.23
313.139	3.25
313.508	3.24
313.877	3.24
314.246	3.23
314.616	3.24
314.985	3.24
315.353	3.25
315.722	3.26
316.091	3.26
316.46	3.26
316.829	3.28
317.198	3.27
317.567	3.29
317.935	3.3
318.304	3.31
318.672	3.3
319.041	3.32
319.41	3.34
319.778	3.33
320.147	3.34
320.515	3.37
320.883	3.4
321.252	3.42
321.62	3.36
321.988	3.37
322.357	3.36
322.725	3.35
323.093	3.36
323.461	3.34
323.829	3.34
324.197	3.32
324.565	3.32
324.933	3.29
325.301	3.29
325.669	3.3
326.037	3.27
326.405	3.28
326.772	3.25
327.14	3.23
327.508	3.22
327.875	3.2
328.243	3.19
328.61	3.16
328.978	3.16
329.346	3.15
329.713	3.12
330.08	3.09
330.448	3.09
330.815	3.06
331.182	3.06
331.55	3.06
331.917	3.08
332.284	3.05
332.651	3.06
333.018	3.06
333.385	3.06
333.752	3.08
334.119	3.07
334.486	3.1
334.853	3.1
335.22	3.08
335.587	3.09
335.954	3.09
336.32	3.08
336.687	3.06
337.054	3.07
337.42	3.1
337.787	3.14
338.153	3.14
338.52	3.14
338.886	3.16
339.253	3.15
339.619	3.14
339.986	3.14
340.352	3.15
340.718	3.16
341.084	3.15
341.451	3.14
341.817	3.13
342.183	3.13
342.549	3.12
342.915	3.12
343.281	3.13
343.647	3.15
344.013	3.15
344.379	3.18
344.745	3.18
345.11	3.18
345.476	3.18
345.842	3.19
346.208	3.18
346.573	3.17
346.939	3.19
347.304	3.19
347.67	3.17
348.035	3.2
348.401	3.2
348.766	3.19
349.132	3.21
349.497	3.22
349.862	3.23
350.228	3.23
350.593	3.25
350.958	3.25
351.323	3.23
351.688	3.25
352.053	3.25
352.418	3.26
352.783	3.24
353.148	3.23
353.513	3.23
353.878	3.26
354.243	3.27
354.608	3.28
354.972	3.28
355.337	3.29
355.702	3.26
356.066	3.26
356.431	3.24
356.795	3.23
357.16	3.2
357.524	3.2
357.889	3.19
358.253	3.2
358.618	3.19
358.982	3.21
359.346	3.19
359.71	3.19
360.075	3.18
360.439	3.19
360.803	3.17
361.167	3.16
361.531	3.16
361.895	3.15
362.259	3.15
362.623	3.15
362.987	3.16
363.351	3.17
363.714	3.18
364.078	3.19
364.442	3.19
364.806	3.19
365.169	3.21
365.533	3.21
365.896	3.2
366.26	3.2
366.623	3.18
366.987	3.18
367.35	3.18
367.714	3.19
368.077	3.19
368.44	3.21
368.803	3.2
369.167	3.19
369.53	3.21
369.893	3.21
370.256	3.21
370.619	3.21
370.982	3.2
371.345	3.19
371.708	3.2
372.071	3.2
372.434	3.22
372.797	3.21
373.159	3.23
373.522	3.24
373.885	3.25
374.247	3.26
374.61	3.26
374.973	3.26
375.335	3.25
375.698	3.25
376.06	3.25
376.423	3.26
376.785	3.27
377.147	3.26
377.51	3.26
377.872	3.25
378.234	3.24
378.596	3.25
378.958	3.25
379.321	3.25
379.683	3.26
380.045	3.25
380.407	3.24
380.769	3.24
381.13	3.23
381.492	3.23
381.854	3.22
382.216	3.24
382.578	3.23
382.939	3.24
383.301	3.24
383.663	3.25
384.024	3.24
384.386	3.25
384.747	3.26
385.109	3.25
385.47	3.25
385.832	3.25
386.193	3.26
386.554	3.26
386.916	3.26
387.277	3.27
387.638	3.27
387.999	3.28
388.36	3.28
388.721	3.28
389.082	3.29
389.443	3.28
389.804	3.27
390.165	3.28
390.526	3.28
390.887	3.28
391.248	3.28
391.609	3.28
391.969	3.28
392.33	3.29
392.691	3.29
393.051	3.3
393.412	3.3
393.772	3.3
394.133	3.3
394.493	3.29
394.854	3.29
395.214	3.29
395.574	3.29
395.935	3.29
396.295	3.29
396.655	3.29
397.015	3.3
397.376	3.3
397.736	3.3
398.096	3.29
398.456	3.3
398.816	3.3
399.176	3.3
399.535	3.3
399.895	3.3
400.255	3.3
400.615	3.29
400.975	3.3
401.334	3.3
401.694	3.3
402.054	3.31
402.413	3.31
402.773	3.32
403.132	3.32
403.492	3.32
403.851	3.32
404.211	3.32
404.57	3.32
404.929	3.33
405.288	3.32
405.648	3.33
406.007	3.34
406.366	3.34
406.725	3.34
407.084	3.34
407.443	3.34
407.802	3.34
408.161	3.35
408.52	3.35
408.879	3.36
409.238	3.36
409.596	3.36
409.955	3.36
410.314	3.36
410.673	3.36
411.031	3.37
411.39	3.37
411.748	3.39
412.107	3.39
412.465	3.39
412.824	3.4
413.182	3.4
413.54	3.41
413.899	3.41
414.257	3.42
414.615	3.42
414.974	3.43
415.332	3.44
415.69	3.44
416.048	3.46
416.406	3.5
416.764	3.52
417.122	3.56
417.48	3.6
417.838	3.64
418.195	3.71
418.553	3.74
418.911	3.8
419.269	3.85
419.626	3.89
419.984	3.94
420.342	3.99
420.699	4.03
421.057	4.08
421.414	4.12
421.772	4.16
422.129	4.19
422.486	4.22
422.844	4.24
423.201	4.24
423.558	4.23
423.915	4.2
424.273	4.17
424.63	4.13
424.987	4.07
425.344	4.02
425.701	3.96
426.058	3.93
426.415	3.88
426.772	3.83
427.128	3.79
427.485	3.73
427.842	3.69
428.199	3.64
428.555	3.59
428.912	3.53
429.269	3.5
429.625	3.46
429.982	3.43
430.338	3.4
430.695	3.4
431.051	3.4
431.407	3.42
431.764	3.43
432.12	3.45
432.476	3.48
432.832	3.5
433.189	3.52
433.545	3.52
433.901	3.52
434.257	3.53
434.613	3.54
434.969	3.55
435.325	3.56
435.681	3.59
436.036	3.62
436.392	3.65
436.748	3.69
437.104	3.73
437.459	3.76
437.815	3.8
438.171	3.84
438.526	3.87
438.882	3.9
439.237	3.94
439.593	3.95
439.948	3.97
440.304	3.99
440.659	4
441.014	4.03
441.369	4.06
441.725	4.09
442.08	4.13
442.435	4.17
442.79	4.23
443.145	4.27
443.5	4.3
443.855	4.34
444.21	4.34
444.565	4.35
444.92	4.36
445.275	4.36
445.629	4.36
445.984	4.36
446.339	4.34
446.693	4.32
447.048	4.31
447.403	4.3
447.757	4.29
448.112	4.27
448.466	4.24
448.82	4.2
449.175	4.16
449.529	4.1
449.883	4.05
450.238	3.97
450.592	3.91
450.946	3.85
451.3	3.79
451.654	3.75
452.008	3.71
452.362	3.66
452.716	3.62
453.07	3.58
453.424	3.55
453.778	3.54
454.132	3.53
454.486	3.53
454.839	3.54
455.193	3.57
455.547	3.6
455.9	3.65
456.254	3.7
456.607	3.76
456.961	3.82
457.314	3.88
457.668	3.93
458.021	3.98
458.375	4.01
458.728	4.03
459.081	4.04
459.434	4.04
459.787	4.05
460.141	4.04
460.494	4.02
460.847	4
461.2	3.99
461.553	3.98
461.906	3.97
462.259	3.96
462.611	3.92
462.964	3.9
463.317	3.86
463.67	3.82
464.022	3.78
464.375	3.74
464.728	3.68
465.08	3.64
465.433	3.6
465.785	3.57
466.138	3.56
466.49	3.54
466.843	3.54
467.195	3.54
467.547	3.55
467.899	3.58
468.252	3.61
468.604	3.62
468.956	3.63
469.308	3.65
469.66	3.65
470.012	3.65
470.364	3.66
470.716	3.66
471.068	3.65
471.42	3.65
471.772	3.65
472.123	3.66
472.475	3.66
472.827	3.66
473.178	3.67
473.53	3.67
473.882	3.67
474.233	3.68
474.585	3.7
474.936	3.7
475.288	3.7
475.639	3.71
475.99	3.72
476.342	3.73
476.693	3.73
477.044	3.74
477.395	3.77
477.746	3.8
478.097	3.86
478.448	3.96
478.8	4.12
479.15	4.31
479.501	4.53
479.852	4.77
480.203	5.03
480.554	5.31
480.905	5.59
481.255	5.88
481.606	6.17
481.957	6.46
482.307	6.74
482.658	7.01
483.009	7.27
483.359	7.51
483.709	7.73
484.06	7.95
484.41	8.17
484.761	8.35
485.111	8.53
485.461	8.67
485.811	8.76
486.162	8.8
486.512	8.79
486.862	8.76
487.212	8.68
487.562	8.58
487.912	8.46
488.262	8.32
488.612	8.17
488.961	8.01
489.311	7.84
489.661	7.66
490.011	7.49
490.36	7.3
490.71	7.11
491.06	6.91
491.409	6.72
491.759	6.53
492.108	6.35
492.458	6.16
492.807	6
493.157	5.83
493.506	5.67
493.855	5.52
494.204	5.36
494.554	5.22
494.903	5.09
495.252	4.95
495.601	4.82
495.95	4.69
496.299	4.56
496.648	4.43
496.997	4.32
497.346	4.21
497.695	4.12
498.043	4.06
498.392	4.01
498.741	3.98
499.09	3.94
499.438	3.91
499.787	3.89
500.135	3.87
500.484	3.86
500.832	3.85
501.181	3.83
501.529	3.82
501.878	3.8
502.226	3.78
502.574	3.77
502.923	3.76
503.271	3.76
503.619	3.76
503.967	3.78
504.315	3.79
504.663	3.81
505.011	3.84
505.359	3.86
505.707	3.89
506.055	3.91
506.403	3.93
506.751	3.95
507.098	3.96
507.446	3.98
507.794	3.98
508.141	3.99
508.489	4
508.837	4
509.184	4.01
509.531	4.01
509.879	4.02
510.226	4.02
510.574	4.02
510.921	4.02
511.268	4.02
511.616	4.01
511.963	4.01
512.31	4.01
512.657	4.01
513.004	4.01
513.351	4.02
513.698	4.03
514.045	4.03
514.392	4.05
514.739	4.07
515.086	4.1
515.432	4.13
515.779	4.16
516.126	4.19
516.473	4.23
516.819	4.25
517.166	4.27
517.512	4.28
517.859	4.29
518.205	4.29
518.552	4.29
518.898	4.29
519.245	4.28
519.591	4.27
519.937	4.26
520.283	4.26
520.629	4.27
520.976	4.27
521.322	4.29
521.668	4.31
522.014	4.33
522.36	4.36
522.706	4.4
523.052	4.47
523.398	4.57
523.743	4.69
524.089	4.85
524.435	5.03
524.781	5.22
525.126	5.43
525.472	5.65
525.817	5.87
526.163	6.09
526.509	6.31
526.854	6.52
527.199	6.7
527.545	6.84
527.89	6.96
528.235	7.08
528.581	7.17
528.926	7.26
529.271	7.34
529.616	7.41
529.961	7.45
530.306	7.46
530.651	7.44
530.996	7.39
531.341	7.31
531.686	7.22
532.031	7.1
532.376	6.96
532.721	6.81
533.065	6.64
533.41	6.48
533.755	6.32
534.099	6.17
534.444	6.04
534.788	5.92
535.133	5.82
535.477	5.72
535.822	5.64
536.166	5.57
536.51	5.51
536.855	5.48
537.199	5.46
537.543	5.45
537.887	5.45
538.231	5.46
538.576	5.48
538.92	5.5
539.264	5.53
539.608	5.57
539.951	5.6
540.295	5.63
540.639	5.64
540.983	5.65
541.327	5.65
541.671	5.66
542.014	5.65
542.358	5.65
542.701	5.64
543.045	5.61
543.389	5.57
543.732	5.51
544.075	5.43
544.419	5.33
544.762	5.21
545.105	5.08
545.449	4.95
545.792	4.83
546.135	4.71
546.478	4.59
546.821	4.49
547.165	4.39
547.508	4.32
547.851	4.26
548.194	4.21
548.536	4.17
548.879	4.13
549.222	4.1
549.565	4.07
549.908	4.05
550.25	4.03
550.593	4.02
550.936	4.02
551.278	4.02
551.621	4.03
551.963	4.06
552.306	4.09
552.648	4.11
552.991	4.12
553.333	4.13
553.675	4.14
554.017	4.14
554.36	4.14
554.702	4.14
555.044	4.13
555.386	4.13
555.728	4.13
556.07	4.12
556.412	4.13
556.754	4.13
557.096	4.13
557.438	4.13
557.78	4.13
558.121	4.13
558.463	4.13
558.805	4.14
559.147	4.14
559.488	4.14
559.83	4.15
560.171	4.16
560.513	4.16
560.854	4.16
561.196	4.17
561.537	4.17
561.878	4.17
562.22	4.18
562.561	4.19
562.902	4.2
563.243	4.21
563.584	4.21
563.925	4.21
564.266	4.22
564.607	4.22
564.948	4.23
565.289	4.23
565.63	4.23
565.971	4.23
566.312	4.23
566.653	4.23
566.993	4.23
567.334	4.22
567.675	4.23
568.015	4.23
568.356	4.24
568.696	4.25
569.037	4.25
569.377	4.25
569.718	4.25
570.058	4.25
570.398	4.25
570.739	4.26
571.079	4.26
571.419	4.26
571.759	4.26
572.099	4.26
572.439	4.26
572.779	4.27
573.119	4.28
573.459	4.28
573.799	4.28
574.139	4.28
574.479	4.29
574.819	4.28
575.158	4.28
575.498	4.28
575.838	4.28
576.177	4.28
576.517	4.28
576.856	4.28
577.196	4.28
577.535	4.28
577.875	4.27
578.214	4.27
578.553	4.27
578.893	4.26
579.232	4.25
579.571	4.25
579.91	4.25
580.25	4.24
580.589	4.24
580.928	4.25
581.267	4.25
581.606	4.25
581.945	4.25
582.283	4.25
582.622	4.25
582.961	4.25
583.3	4.25
583.639	4.25
583.977	4.25
584.316	4.26
584.654	4.26
584.993	4.27
585.332	4.27
585.67	4.27
586.008	4.28
586.347	4.28
586.685	4.29
587.024	4.28
587.362	4.3
587.7	4.3
588.038	4.29
588.376	4.29
588.715	4.3
589.053	4.3
589.391	4.3
589.729	4.3
590.067	4.29
590.404	4.3
590.742	4.3
591.08	4.29
591.418	4.3
591.756	4.3
592.093	4.31
592.431	4.32
592.769	4.32
593.106	4.32
593.444	4.33
593.781	4.33
594.119	4.33
594.456	4.33
594.793	4.33
595.131	4.33
595.468	4.33
595.805	4.33
596.143	4.34
596.48	4.35
596.817	4.35
597.154	4.36
597.491	4.36
597.828	4.35
598.165	4.35
598.502	4.35
598.839	4.35
599.176	4.34
599.512	4.35
599.849	4.34
600.186	4.35
600.523	4.35
600.859	4.35
601.196	4.36
601.532	4.37
601.869	4.38
602.205	4.38
602.542	4.39
602.878	4.4
603.215	4.41
603.551	4.4
603.887	4.41
604.223	4.42
604.56	4.41
604.896	4.42
605.232	4.42
605.568	4.42
605.904	4.42
606.24	4.43
606.576	4.43
606.912	4.45
607.248	4.44
607.583	4.44
607.919	4.44
608.255	4.45
608.591	4.45
608.926	4.44
609.262	4.44
609.597	4.44
609.933	4.44
610.268	4.44
610.604	4.44
610.939	4.44
611.275	4.43
611.61	4.44
611.945	4.44
612.281	4.45
612.616	4.45
612.951	4.44
613.286	4.45
613.621	4.45
613.956	4.44
614.291	4.44
614.626	4.44
614.961	4.44
615.296	4.43
615.631	4.43
615.966	4.42
616.3	4.42
616.635	4.42
616.97	4.42
617.304	4.42
617.639	4.42
617.973	4.42
618.308	4.43
618.642	4.42
618.977	4.43
619.311	4.43
619.646	4.44
619.98	4.45
620.314	4.45
620.648	4.45
620.983	4.46
621.317	4.46
621.651	4.48
621.985	4.48
622.319	4.48
622.653	4.49
622.987	4.49
623.321	4.5
623.655	4.51
623.988	4.52
624.322	4.52
624.656	4.52
624.99	4.53
625.323	4.53
625.657	4.53
625.99	4.54
626.324	4.55
626.657	4.55
626.991	4.57
627.324	4.56
627.658	4.56
627.991	4.55
628.324	4.55
628.657	4.54
628.991	4.55
629.324	4.56
629.657	4.57
629.99	4.56
630.323	4.56
630.656	4.56
630.989	4.57
631.322	4.58
631.655	4.57
631.987	4.57
632.32	4.57
632.653	4.59
632.986	4.58
633.318	4.59
633.651	4.59
633.984	4.58
634.316	4.59
634.649	4.6
634.981	4.6
635.313	4.61
635.646	4.61
635.978	4.61
636.31	4.61
636.643	4.61
636.975	4.62
637.307	4.62
637.639	4.62
637.971	4.62
638.303	4.62
638.635	4.62
638.967	4.63
639.299	4.62
639.631	4.6
639.963	4.61
640.295	4.61
640.626	4.62
640.958	4.63
641.29	4.62
641.621	4.62
641.953	4.64
642.285	4.65
642.616	4.66
642.948	4.67
643.279	4.66
643.61	4.65
643.942	4.65
644.273	4.65
644.604	4.65
644.936	4.66
645.267	4.66
645.598	4.67
645.929	4.68
646.26	4.67
646.591	4.68
646.922	4.68
647.253	4.68
647.584	4.67
647.915	4.66
648.245	4.67
648.576	4.67
648.907	4.66
649.238	4.66
649.568	4.66
649.899	4.66
650.229	4.66
650.56	4.69
650.89	4.7
651.221	4.72
651.551	4.72
651.882	4.74
652.212	4.73
652.542	4.72
652.872	4.74
653.203	4.75
653.533	4.77
653.863	4.76
654.193	4.78
654.523	4.78
654.853	4.77
655.183	4.77
655.513	4.77
655.843	4.78
656.172	4.78
656.502	4.79
656.832	4.79
657.162	4.8
657.491	4.79
657.821	4.78
658.15	4.77
658.48	4.79
658.809	4.79
659.139	4.8
659.468	4.81
659.798	4.8
660.127	4.79
660.456	4.8
660.785	4.83
661.115	4.83
661.444	4.85
661.773	4.88
662.102	4.89
662.431	4.89
662.76	4.88
663.089	4.89
663.418	4.89
663.747	4.89
664.076	4.89
664.404	4.9
664.733	4.91
665.062	4.93
665.39	4.93
665.719	4.92
666.048	4.93
666.376	4.95
666.705	4.95
667.033	4.97
667.362	4.96
667.69	4.95
668.018	4.94
668.347	4.94
668.675	4.94
669.003	4.94
669.331	4.95
669.659	4.97
669.987	4.97
670.315	4.98
670.643	4.99
670.971	5
671.299	4.99
671.627	4.98
671.955	4.98
672.283	4.98
672.61	5
672.938	5
673.266	5
673.593	5
673.921	5
674.249	5.01
674.576	5.03
674.904	5.06
675.231	5.05
675.558	5.06
675.886	5.07
676.213	5.07
676.54	5.08
676.867	5.08
677.195	5.1
677.522	5.12
677.849	5.13
678.176	5.14
678.503	5.18
678.83	5.17
679.157	5.17
679.484	5.16
679.81	5.15
680.137	5.15
680.464	5.17
680.791	5.17
681.117	5.17
681.444	5.16
681.771	5.15
