Data from UWBM50074_Reflection_00006.txt Node
Date: Sun May 02 12:34:42 EDT 2021
User: vgr7
Spectrometer: USB2G7710
Scans to average: 10
Trigger mode: 4
Integration Time (sec): 1.000000E-1
Electric dark correction enabled: true
Boxcar width: 10
XAxis mode: Wavelengths
Number of Pixels in Spectrum: 2048
>>>>>Begin Spectral Data<<<<<
177.721	227.65
178.105	104.55
178.488	150.82
178.871	-66.04
179.254	440
179.636	114.62
180.019	-24.43
180.402	5.26
180.785	39.55
181.168	55.4
181.55	39.37
181.933	61.54
182.316	41.6
182.698	17.98
183.081	-16
183.463	-5.06
183.846	17.94
184.228	0.55
184.611	22.17
184.993	32.72
185.376	28.03
185.758	21.47
186.14	6.31
186.522	6.33
186.904	5.78
187.287	10.51
187.669	3.96
188.051	-0.2
188.433	-0.69
188.815	-4.4
189.197	-2.18
189.579	-2.78
189.961	-2.29
190.342	-0.85
190.724	5.84
191.106	6.73
191.488	9.71
191.869	8.78
192.251	10.74
192.633	9.91
193.014	7.65
193.396	6.54
193.777	6.26
194.159	6.07
194.54	1.81
194.922	2.11
195.303	4.59
195.684	5.96
196.065	6.67
196.447	4.7
196.828	7.34
197.209	5.32
197.59	4.13
197.971	4.13
198.352	7.02
198.733	8.17
199.114	5.8
199.495	5.4
199.876	3.88
200.257	5
200.638	4.15
201.018	2.66
201.399	2.55
201.78	-1.01
202.16	0.79
202.541	4.34
202.922	4.06
203.302	1.97
203.683	3.26
204.063	1.85
204.444	5.21
204.824	5.71
205.204	5.5
205.585	7.75
205.965	8.77
206.345	9.48
206.725	3.47
207.106	2.04
207.486	1.5
207.866	2.69
208.246	0.19
208.626	1.54
209.006	4.02
209.386	3.23
209.766	5.64
210.145	6.55
210.525	3.48
210.905	5.26
211.285	7.73
211.664	8.43
212.044	8.8
212.424	10.6
212.803	9.01
213.183	12.26
213.562	11.27
213.942	10.8
214.321	7.05
214.701	7.34
215.08	11.33
215.459	11.46
215.838	9.77
216.218	9.36
216.597	10.88
216.976	10.72
217.355	10.92
217.734	12.24
218.113	10.96
218.492	11.9
218.871	11.16
219.25	10.39
219.629	8.8
220.008	9.04
220.387	6.9
220.766	6.41
221.144	6.57
221.523	7.28
221.902	6.85
222.28	7.14
222.659	7.22
223.037	6.12
223.416	6.9
223.794	7.37
224.173	7.63
224.551	5.69
224.929	3.99
225.308	5.57
225.686	5.47
226.064	6.27
226.442	6.66
226.821	6.42
227.199	5.66
227.577	5.29
227.955	5.32
228.333	5.43
228.711	5.14
229.089	5.18
229.467	5.35
229.845	6.3
230.222	6.18
230.6	6.62
230.978	6.96
231.356	6.75
231.733	6.9
232.111	7.13
232.488	7.08
232.866	6.55
233.243	6.05
233.621	6.51
233.998	6.16
234.376	6.18
234.753	6.29
235.13	6.62
235.508	7.5
235.885	7.51
236.262	7.3
236.639	7.33
237.016	7.16
237.393	6.84
237.77	6.3
238.147	6.39
238.524	6.35
238.901	6.3
239.278	5.95
239.655	5.96
240.032	5.84
240.409	5.87
240.785	6.01
241.162	6.08
241.539	5.88
241.915	5.8
242.292	5.74
242.668	5.57
243.045	5.55
243.421	5.32
243.798	5.28
244.174	5.27
244.551	5.32
244.927	5.26
245.303	5.18
245.679	5.18
246.056	5.03
246.432	4.98
246.808	4.91
247.184	4.92
247.56	4.88
247.936	4.87
248.312	4.87
248.688	4.9
249.064	4.84
249.44	4.85
249.815	4.82
250.191	4.77
250.567	4.78
250.943	4.76
251.318	4.75
251.694	4.72
252.069	4.67
252.445	4.68
252.82	4.63
253.196	4.75
253.571	4.71
253.947	4.85
254.322	4.81
254.697	4.88
255.073	4.88
255.448	4.82
255.823	4.73
256.198	4.6
256.573	4.48
256.948	4.48
257.323	4.48
257.698	4.49
258.073	4.46
258.448	4.44
258.823	4.43
259.198	4.44
259.573	4.39
259.948	4.4
260.322	4.33
260.697	4.32
261.072	4.27
261.446	4.23
261.821	4.2
262.195	4.17
262.57	4.11
262.944	4.06
263.319	4.05
263.693	4.07
264.067	4.1
264.442	4.1
264.816	4.06
265.19	4
265.564	3.99
265.938	3.98
266.313	4.01
266.687	3.92
267.061	3.91
267.435	3.93
267.809	3.91
268.183	3.93
268.556	3.96
268.93	3.94
269.304	3.96
269.678	3.95
270.051	3.95
270.425	3.97
270.799	3.98
271.172	3.96
271.546	3.97
271.919	3.95
272.293	3.93
272.666	3.92
273.04	3.93
273.413	3.9
273.787	3.87
274.16	3.83
274.533	3.84
274.906	3.8
275.279	3.84
275.653	3.83
276.026	3.8
276.399	3.76
276.772	3.82
277.145	3.85
277.518	3.87
277.891	3.89
278.263	3.9
278.636	3.95
279.009	3.98
279.382	3.96
279.755	3.97
280.127	4.01
280.5	4.02
280.872	4
281.245	4.04
281.617	4.07
281.99	4.09
282.362	4.11
282.735	4.11
283.107	4.07
283.479	4.1
283.852	4.1
284.224	4.11
284.596	4.06
284.968	4.04
285.34	4.01
285.713	4.02
286.085	4.01
286.457	3.98
286.829	3.95
287.201	3.95
287.572	3.95
287.944	3.96
288.316	3.96
288.688	3.98
289.06	3.96
289.431	3.95
289.803	3.94
290.175	3.95
290.546	3.95
290.918	3.97
291.289	3.93
291.661	3.97
292.032	3.94
292.403	3.96
292.775	3.94
293.146	3.95
293.517	3.94
293.889	3.97
294.26	3.95
294.631	3.96
295.002	3.96
295.373	3.96
295.744	3.95
296.115	3.95
296.486	3.96
296.857	3.94
297.228	3.95
297.599	3.94
297.97	3.92
298.34	3.92
298.711	3.91
299.082	3.91
299.452	3.88
299.823	3.9
300.194	3.91
300.564	3.92
300.935	3.92
301.305	3.9
301.676	3.87
302.046	3.88
302.416	3.9
302.787	3.92
303.157	3.92
303.527	3.92
303.897	3.91
304.267	3.9
304.637	3.89
305.008	3.9
305.378	3.93
305.748	3.92
306.117	3.92
306.487	3.9
306.857	3.93
307.227	3.9
307.597	3.9
307.967	3.89
308.336	3.9
308.706	3.92
309.076	3.95
309.445	3.95
309.815	3.93
310.184	3.9
310.554	3.88
310.923	3.86
311.293	3.84
311.662	3.85
312.031	3.84
312.401	3.85
312.77	3.84
313.139	3.81
313.508	3.8
313.877	3.8
314.246	3.78
314.616	3.76
314.985	3.76
315.353	3.74
315.722	3.71
316.091	3.68
316.46	3.65
316.829	3.63
317.198	3.63
317.567	3.64
317.935	3.62
318.304	3.61
318.672	3.62
319.041	3.65
319.41	3.64
319.778	3.65
320.147	3.65
320.515	3.64
320.883	3.63
321.252	3.64
321.62	3.61
321.988	3.67
322.357	3.67
322.725	3.67
323.093	3.7
323.461	3.71
323.829	3.73
324.197	3.75
324.565	3.75
324.933	3.74
325.301	3.75
325.669	3.77
326.037	3.78
326.405	3.76
326.772	3.75
327.14	3.74
327.508	3.74
327.875	3.74
328.243	3.76
328.61	3.78
328.978	3.81
329.346	3.82
329.713	3.81
330.08	3.82
330.448	3.8
330.815	3.78
331.182	3.77
331.55	3.76
331.917	3.74
332.284	3.73
332.651	3.74
333.018	3.73
333.385	3.72
333.752	3.72
334.119	3.73
334.486	3.74
334.853	3.74
335.22	3.73
335.587	3.71
335.954	3.69
336.32	3.67
336.687	3.65
337.054	3.65
337.42	3.65
337.787	3.64
338.153	3.68
338.52	3.7
338.886	3.72
339.253	3.69
339.619	3.7
339.986	3.71
340.352	3.71
340.718	3.72
341.084	3.72
341.451	3.7
341.817	3.7
342.183	3.71
342.549	3.72
342.915	3.73
343.281	3.75
343.647	3.76
344.013	3.77
344.379	3.77
344.745	3.78
345.11	3.8
345.476	3.81
345.842	3.79
346.208	3.78
346.573	3.79
346.939	3.81
347.304	3.8
347.67	3.8
348.035	3.82
348.401	3.8
348.766	3.82
349.132	3.83
349.497	3.84
349.862	3.82
350.228	3.83
350.593	3.83
350.958	3.82
351.323	3.82
351.688	3.84
352.053	3.84
352.418	3.84
352.783	3.81
353.148	3.81
353.513	3.81
353.878	3.81
354.243	3.82
354.608	3.81
354.972	3.81
355.337	3.81
355.702	3.78
356.066	3.78
356.431	3.76
356.795	3.76
357.16	3.76
357.524	3.74
357.889	3.73
358.253	3.73
358.618	3.73
358.982	3.74
359.346	3.73
359.71	3.72
360.075	3.71
360.439	3.72
360.803	3.71
361.167	3.71
361.531	3.72
361.895	3.71
362.259	3.71
362.623	3.71
362.987	3.72
363.351	3.75
363.714	3.76
364.078	3.76
364.442	3.76
364.806	3.76
365.169	3.78
365.533	3.78
365.896	3.77
366.26	3.76
366.623	3.75
366.987	3.75
367.35	3.76
367.714	3.77
368.077	3.77
368.44	3.78
368.803	3.77
369.167	3.76
369.53	3.76
369.893	3.76
370.256	3.76
370.619	3.77
370.982	3.76
371.345	3.74
371.708	3.76
372.071	3.75
372.434	3.75
372.797	3.74
373.159	3.75
373.522	3.76
373.885	3.77
374.247	3.78
374.61	3.78
374.973	3.79
375.335	3.8
375.698	3.8
376.06	3.81
376.423	3.82
376.785	3.83
377.147	3.83
377.51	3.85
377.872	3.85
378.234	3.84
378.596	3.85
378.958	3.86
379.321	3.86
379.683	3.87
380.045	3.87
380.407	3.87
380.769	3.87
381.13	3.87
381.492	3.87
381.854	3.87
382.216	3.88
382.578	3.88
382.939	3.88
383.301	3.87
383.663	3.87
384.024	3.87
384.386	3.86
384.747	3.86
385.109	3.86
385.47	3.85
385.832	3.85
386.193	3.85
386.554	3.85
386.916	3.86
387.277	3.86
387.638	3.87
387.999	3.87
388.36	3.87
388.721	3.87
389.082	3.87
389.443	3.87
389.804	3.87
390.165	3.87
390.526	3.87
390.887	3.87
391.248	3.87
391.609	3.88
391.969	3.88
392.33	3.89
392.691	3.89
393.051	3.9
393.412	3.9
393.772	3.9
394.133	3.9
394.493	3.89
394.854	3.89
395.214	3.88
395.574	3.89
395.935	3.89
396.295	3.9
396.655	3.89
397.015	3.89
397.376	3.88
397.736	3.89
398.096	3.89
398.456	3.89
398.816	3.9
399.176	3.9
399.535	3.91
399.895	3.9
400.255	3.9
400.615	3.89
400.975	3.9
401.334	3.9
401.694	3.9
402.054	3.91
402.413	3.91
402.773	3.91
403.132	3.92
403.492	3.92
403.851	3.91
404.211	3.92
404.57	3.92
404.929	3.92
405.288	3.92
405.648	3.92
406.007	3.93
406.366	3.93
406.725	3.94
407.084	3.93
407.443	3.93
407.802	3.93
408.161	3.93
408.52	3.94
408.879	3.94
409.238	3.94
409.596	3.94
409.955	3.94
410.314	3.95
410.673	3.94
411.031	3.94
411.39	3.95
411.748	3.96
412.107	3.96
412.465	3.97
412.824	3.97
413.182	3.98
413.54	3.98
413.899	3.98
414.257	3.98
414.615	3.99
414.974	4
415.332	4.02
415.69	4.02
416.048	4.04
416.406	4.08
416.764	4.12
417.122	4.16
417.48	4.21
417.838	4.26
418.195	4.33
418.553	4.38
418.911	4.44
419.269	4.5
419.626	4.55
419.984	4.62
420.342	4.67
420.699	4.72
421.057	4.78
421.414	4.83
421.772	4.88
422.129	4.92
422.486	4.95
422.844	4.97
423.201	4.97
423.558	4.96
423.915	4.91
424.273	4.88
424.63	4.82
424.987	4.76
425.344	4.7
425.701	4.64
426.058	4.6
426.415	4.54
426.772	4.47
427.128	4.43
427.485	4.36
427.842	4.31
428.199	4.26
428.555	4.2
428.912	4.14
429.269	4.09
429.625	4.04
429.982	4.02
430.338	3.99
430.695	3.99
431.051	4
431.407	4.03
431.764	4.04
432.12	4.07
432.476	4.1
432.832	4.13
433.189	4.14
433.545	4.15
433.901	4.16
434.257	4.17
434.613	4.17
434.969	4.19
435.325	4.2
435.681	4.22
436.036	4.25
436.392	4.28
436.748	4.32
437.104	4.36
437.459	4.4
437.815	4.45
438.171	4.49
438.526	4.52
438.882	4.55
439.237	4.6
439.593	4.61
439.948	4.64
440.304	4.66
440.659	4.67
441.014	4.71
441.369	4.74
441.725	4.78
442.08	4.84
442.435	4.88
442.79	4.94
443.145	4.99
443.5	5.02
443.855	5.07
444.21	5.07
444.565	5.08
444.92	5.09
445.275	5.09
445.629	5.09
445.984	5.09
446.339	5.07
446.693	5.04
447.048	5.03
447.403	5.01
447.757	4.98
448.112	4.96
448.466	4.91
448.82	4.87
449.175	4.81
449.529	4.75
449.883	4.67
450.238	4.59
450.592	4.52
450.946	4.46
451.3	4.38
451.654	4.34
452.008	4.29
452.362	4.22
452.716	4.17
453.07	4.12
453.424	4.09
453.778	4.07
454.132	4.07
454.486	4.07
454.839	4.08
455.193	4.12
455.547	4.17
455.9	4.22
456.254	4.28
456.607	4.35
456.961	4.42
457.314	4.49
457.668	4.55
458.021	4.6
458.375	4.64
458.728	4.66
459.081	4.68
459.434	4.68
459.787	4.69
460.141	4.68
460.494	4.66
460.847	4.63
461.2	4.62
461.553	4.61
461.906	4.59
462.259	4.58
462.611	4.54
462.964	4.51
463.317	4.46
463.67	4.42
464.022	4.37
464.375	4.32
464.728	4.26
465.08	4.21
465.433	4.16
465.785	4.13
466.138	4.12
466.49	4.09
466.843	4.1
467.195	4.1
467.547	4.12
467.899	4.15
468.252	4.19
468.604	4.2
468.956	4.22
469.308	4.23
469.66	4.23
470.012	4.24
470.364	4.24
470.716	4.24
471.068	4.24
471.42	4.24
471.772	4.24
472.123	4.25
472.475	4.25
472.827	4.26
473.178	4.26
473.53	4.26
473.882	4.27
474.233	4.26
474.585	4.27
474.936	4.27
475.288	4.27
475.639	4.27
475.99	4.28
476.342	4.3
476.693	4.3
477.044	4.31
477.395	4.34
477.746	4.38
478.097	4.45
478.448	4.57
478.8	4.74
479.15	4.96
479.501	5.22
479.852	5.5
480.203	5.79
480.554	6.1
480.905	6.42
481.255	6.75
481.606	7.08
481.957	7.42
482.307	7.75
482.658	8.05
483.009	8.34
483.359	8.61
483.709	8.86
484.06	9.12
484.41	9.36
484.761	9.57
485.111	9.77
485.461	9.93
485.811	10.03
486.162	10.08
486.512	10.07
486.862	10.01
487.212	9.92
487.562	9.8
487.912	9.67
488.262	9.51
488.612	9.34
488.961	9.16
489.311	8.96
489.661	8.77
490.011	8.57
490.36	8.36
490.71	8.14
491.06	7.92
491.409	7.7
491.759	7.48
492.108	7.26
492.458	7.06
492.807	6.86
493.157	6.66
493.506	6.48
493.855	6.3
494.204	6.13
494.554	5.97
494.903	5.82
495.252	5.67
495.601	5.51
495.95	5.37
496.299	5.22
496.648	5.08
496.997	4.94
497.346	4.82
497.695	4.71
498.043	4.63
498.392	4.58
498.741	4.54
499.09	4.5
499.438	4.48
499.787	4.45
500.135	4.43
500.484	4.41
500.832	4.4
501.181	4.38
501.529	4.36
501.878	4.34
502.226	4.32
502.574	4.31
502.923	4.3
503.271	4.29
503.619	4.3
503.967	4.31
504.315	4.32
504.663	4.34
505.011	4.37
505.359	4.4
505.707	4.43
506.055	4.45
506.403	4.47
506.751	4.49
507.098	4.51
507.446	4.53
507.794	4.54
508.141	4.55
508.489	4.56
508.837	4.56
509.184	4.57
509.531	4.58
509.879	4.58
510.226	4.59
510.574	4.59
510.921	4.58
511.268	4.58
511.616	4.57
511.963	4.57
512.31	4.57
512.657	4.57
513.004	4.57
513.351	4.58
513.698	4.59
514.045	4.61
514.392	4.64
514.739	4.66
515.086	4.69
515.432	4.73
515.779	4.76
516.126	4.8
516.473	4.83
516.819	4.86
517.166	4.88
517.512	4.9
517.859	4.9
518.205	4.91
518.552	4.91
518.898	4.91
519.245	4.9
519.591	4.9
519.937	4.9
520.283	4.9
520.629	4.9
520.976	4.91
521.322	4.93
521.668	4.94
522.014	4.97
522.36	5.01
522.706	5.05
523.052	5.13
523.398	5.25
523.743	5.39
524.089	5.58
524.435	5.78
524.781	6.01
525.126	6.24
525.472	6.49
525.817	6.75
526.163	7.01
526.509	7.26
526.854	7.48
527.199	7.68
527.545	7.85
527.89	7.99
528.235	8.12
528.581	8.22
528.926	8.32
529.271	8.41
529.616	8.48
529.961	8.53
530.306	8.54
530.651	8.51
530.996	8.45
531.341	8.36
531.686	8.25
532.031	8.11
532.376	7.95
532.721	7.78
533.065	7.59
533.41	7.4
533.755	7.22
534.099	7.05
534.444	6.89
534.788	6.76
535.133	6.64
535.477	6.53
535.822	6.44
536.166	6.36
536.51	6.31
536.855	6.27
537.199	6.24
537.543	6.22
537.887	6.22
538.231	6.24
538.576	6.26
538.92	6.29
539.264	6.33
539.608	6.38
539.951	6.41
540.295	6.44
540.639	6.45
540.983	6.46
541.327	6.46
541.671	6.47
542.014	6.47
542.358	6.46
542.701	6.46
543.045	6.42
543.389	6.37
543.732	6.3
544.075	6.2
544.419	6.09
544.762	5.96
545.105	5.81
545.449	5.66
545.792	5.51
546.135	5.37
546.478	5.24
546.821	5.12
547.165	5.01
547.508	4.93
547.851	4.86
548.194	4.8
548.536	4.75
548.879	4.69
549.222	4.66
549.565	4.63
549.908	4.6
550.25	4.59
550.593	4.57
550.936	4.58
551.278	4.59
551.621	4.6
551.963	4.64
552.306	4.67
552.648	4.69
552.991	4.71
553.333	4.72
553.675	4.72
554.017	4.72
554.36	4.72
554.702	4.72
555.044	4.7
555.386	4.71
555.728	4.71
556.07	4.71
556.412	4.71
556.754	4.71
557.096	4.71
557.438	4.71
557.78	4.7
558.121	4.7
558.463	4.69
558.805	4.69
559.147	4.68
559.488	4.68
559.83	4.7
560.171	4.7
560.513	4.7
560.854	4.71
561.196	4.72
561.537	4.73
561.878	4.73
562.22	4.74
562.561	4.74
562.902	4.75
563.243	4.76
563.584	4.77
563.925	4.78
564.266	4.78
564.607	4.79
564.948	4.79
565.289	4.79
565.63	4.8
565.971	4.8
566.312	4.81
566.653	4.8
566.993	4.8
567.334	4.8
567.675	4.81
568.015	4.81
568.356	4.81
568.696	4.81
569.037	4.81
569.377	4.81
569.718	4.81
570.058	4.82
570.398	4.81
570.739	4.81
571.079	4.8
571.419	4.81
571.759	4.81
572.099	4.82
572.439	4.82
572.779	4.82
573.119	4.82
573.459	4.81
573.799	4.82
574.139	4.82
574.479	4.83
574.819	4.83
575.158	4.83
575.498	4.82
575.838	4.83
576.177	4.83
576.517	4.82
576.856	4.82
577.196	4.82
577.535	4.81
577.875	4.81
578.214	4.8
578.553	4.8
578.893	4.79
579.232	4.79
579.571	4.78
579.91	4.77
580.25	4.77
580.589	4.78
580.928	4.77
581.267	4.77
581.606	4.76
581.945	4.75
582.283	4.75
582.622	4.75
582.961	4.75
583.3	4.75
583.639	4.75
583.977	4.76
584.316	4.76
584.654	4.77
584.993	4.77
585.332	4.77
585.67	4.78
586.008	4.78
586.347	4.78
586.685	4.79
587.024	4.8
587.362	4.79
587.7	4.8
588.038	4.8
588.376	4.8
588.715	4.81
589.053	4.81
589.391	4.82
589.729	4.82
590.067	4.81
590.404	4.81
590.742	4.82
591.08	4.82
591.418	4.82
591.756	4.82
592.093	4.83
592.431	4.83
592.769	4.83
593.106	4.83
593.444	4.84
593.781	4.83
594.119	4.83
594.456	4.84
594.793	4.84
595.131	4.85
595.468	4.86
595.805	4.85
596.143	4.85
596.48	4.85
596.817	4.86
597.154	4.87
597.491	4.87
597.828	4.86
598.165	4.86
598.502	4.86
598.839	4.86
599.176	4.86
599.512	4.86
599.849	4.86
600.186	4.86
600.523	4.86
600.859	4.87
601.196	4.88
601.532	4.89
601.869	4.89
602.205	4.89
602.542	4.89
602.878	4.9
603.215	4.91
603.551	4.91
603.887	4.92
604.223	4.92
604.56	4.92
604.896	4.92
605.232	4.92
605.568	4.92
605.904	4.93
606.24	4.93
606.576	4.94
606.912	4.95
607.248	4.95
607.583	4.95
607.919	4.95
608.255	4.94
608.591	4.94
608.926	4.94
609.262	4.94
609.597	4.94
609.933	4.94
610.268	4.94
610.604	4.94
610.939	4.94
611.275	4.94
611.61	4.94
611.945	4.94
612.281	4.95
612.616	4.95
612.951	4.95
613.286	4.95
613.621	4.95
613.956	4.94
614.291	4.94
614.626	4.94
614.961	4.94
615.296	4.95
615.631	4.94
615.966	4.94
616.3	4.94
616.635	4.94
616.97	4.93
617.304	4.94
617.639	4.93
617.973	4.94
618.308	4.93
618.642	4.93
618.977	4.93
619.311	4.92
619.646	4.91
619.98	4.92
620.314	4.91
620.648	4.91
620.983	4.91
621.317	4.91
621.651	4.91
621.985	4.91
622.319	4.9
622.653	4.91
622.987	4.91
623.321	4.92
623.655	4.93
623.988	4.93
624.322	4.93
624.656	4.93
624.99	4.94
625.323	4.94
625.657	4.95
625.99	4.96
626.324	4.97
626.657	4.97
626.991	4.97
627.324	4.97
627.658	4.98
627.991	4.98
628.324	4.98
628.657	4.98
628.991	5
629.324	5.01
629.657	5.01
629.99	5.01
630.323	5.02
630.656	5.01
630.989	5.03
631.322	5.04
631.655	5.04
631.987	5.04
632.32	5.04
632.653	5.05
632.986	5.06
633.318	5.07
633.651	5.08
633.984	5.08
634.316	5.1
634.649	5.1
634.981	5.11
635.313	5.11
635.646	5.12
635.978	5.12
636.31	5.13
636.643	5.14
636.975	5.15
637.307	5.14
637.639	5.14
637.971	5.14
638.303	5.14
638.635	5.14
638.967	5.14
639.299	5.13
639.631	5.13
639.963	5.12
640.295	5.11
640.626	5.12
640.958	5.11
641.29	5.1
641.621	5.09
641.953	5.11
642.285	5.12
642.616	5.12
642.948	5.12
643.279	5.11
643.61	5.1
643.942	5.09
644.273	5.09
644.604	5.09
644.936	5.09
645.267	5.11
645.598	5.13
645.929	5.13
646.26	5.14
646.591	5.14
646.922	5.15
647.253	5.16
647.584	5.16
647.915	5.18
648.245	5.2
648.576	5.21
648.907	5.19
649.238	5.19
649.568	5.19
649.899	5.18
650.229	5.18
650.56	5.2
650.89	5.21
651.221	5.23
651.551	5.24
651.882	5.25
652.212	5.23
652.542	5.22
652.872	5.23
653.203	5.26
653.533	5.28
653.863	5.28
654.193	5.27
654.523	5.26
654.853	5.25
655.183	5.25
655.513	5.25
655.843	5.26
656.172	5.26
656.502	5.27
656.832	5.29
657.162	5.31
657.491	5.31
657.821	5.32
658.15	5.32
658.48	5.32
658.809	5.32
659.139	5.34
659.468	5.35
659.798	5.36
660.127	5.35
660.456	5.35
660.785	5.35
661.115	5.37
661.444	5.39
661.773	5.4
662.102	5.4
662.431	5.41
662.76	5.42
663.089	5.41
663.418	5.41
663.747	5.39
664.076	5.39
664.404	5.38
664.733	5.37
665.062	5.39
665.39	5.38
665.719	5.38
666.048	5.39
666.376	5.38
666.705	5.37
667.033	5.37
667.362	5.35
667.69	5.36
668.018	5.36
668.347	5.35
668.675	5.34
669.003	5.36
669.331	5.35
669.659	5.34
669.987	5.35
670.315	5.36
670.643	5.37
670.971	5.38
671.299	5.39
671.627	5.39
671.955	5.39
672.283	5.4
672.61	5.41
672.938	5.41
673.266	5.43
673.593	5.45
673.921	5.44
674.249	5.44
674.576	5.45
674.904	5.46
675.231	5.46
675.558	5.49
675.886	5.51
676.213	5.51
676.54	5.53
676.867	5.55
677.195	5.58
677.522	5.6
677.849	5.61
678.176	5.61
678.503	5.62
678.83	5.63
679.157	5.62
679.484	5.62
679.81	5.6
680.137	5.6
680.464	5.61
680.791	5.61
681.117	5.62
681.444	5.61
681.771	5.6
682.097	5.62
682.424	5.62
