Data from UWBM50074_Reflection_00014.txt Node
Date: Sun May 02 12:36:38 EDT 2021
User: vgr7
Spectrometer: USB2G7710
Scans to average: 10
Trigger mode: 4
Integration Time (sec): 1.000000E-1
Electric dark correction enabled: true
Boxcar width: 10
XAxis mode: Wavelengths
Number of Pixels in Spectrum: 2048
>>>>>Begin Spectral Data<<<<<
177.721	-155.3
178.105	-222.73
178.488	1208.2
178.871	-552.83
179.254	-388
179.636	-40
180.019	266.41
180.402	47.37
180.785	75.28
181.168	46.76
181.55	-10.24
181.933	-7.69
182.316	39.2
182.698	75.28
183.081	125.6
183.463	-153.16
183.846	-6.6
184.228	-30.19
184.611	-29.64
184.993	-3.56
185.376	13.17
185.758	16.83
186.14	14.13
186.522	20.58
186.904	20.68
187.287	22.87
187.669	24.05
188.051	19.88
188.433	24.24
188.815	21.15
189.197	21.8
189.579	27.15
189.961	22.12
190.342	19.75
190.724	21.56
191.106	22.44
191.488	23.02
191.869	18.55
192.251	18.37
192.633	16.56
193.014	13.42
193.396	13.11
193.777	14.37
194.159	14.01
194.54	5.08
194.922	7.41
195.303	7.99
195.684	10.76
196.065	7.62
196.447	4.62
196.828	2.98
197.209	2.85
197.59	-3.47
197.971	-3.16
198.352	-0.95
198.733	-2.43
199.114	-4.45
199.495	-4.63
199.876	-1.94
200.257	-1.63
200.638	-0.61
201.018	1.57
201.399	0.42
201.78	-1.09
202.16	-0.32
202.541	1.75
202.922	-1.74
203.302	-3.27
203.683	-5.42
204.063	-2.72
204.444	1.09
204.824	4.16
205.204	4.1
205.585	7.95
205.965	7.25
206.345	7.56
206.725	8.24
207.106	11.21
207.486	11.55
207.866	10.82
208.246	9.43
208.626	11.01
209.006	12.03
209.386	11.66
209.766	12.61
210.145	13
210.525	12.95
210.905	12.57
211.285	14.99
211.664	15.73
212.044	17.88
212.424	19.26
212.803	20.15
213.183	20.02
213.562	18.54
213.942	19.47
214.321	18.43
214.701	15.17
215.08	12.67
215.459	14.61
215.838	15.39
216.218	19.73
216.597	20.22
216.976	18.16
217.355	18.87
217.734	19.4
218.113	19.62
218.492	19.07
218.871	20.19
219.25	18.69
219.629	17.81
220.008	14.92
220.387	13.2
220.766	9.75
221.144	10.67
221.523	11.76
221.902	10.6
222.28	11.96
222.659	13.62
223.037	15.26
223.416	14.09
223.794	12.66
224.173	10.23
224.551	9.71
224.929	6.64
225.308	8
225.686	6.72
226.064	6.72
226.442	7.19
226.821	7.45
227.199	7.51
227.577	7
227.955	7.02
228.333	6.99
228.711	7.25
229.089	8.17
229.467	8.13
229.845	8.44
230.222	8.48
230.6	8.7
230.978	8.4
231.356	8.35
231.733	8.22
232.111	8.06
232.488	7.12
232.866	7.51
233.243	6.96
233.621	7.66
233.998	7.41
234.376	7.5
234.753	7.71
235.13	7.76
235.508	8.12
235.885	8.37
236.262	8.39
236.639	8.59
237.016	8.04
237.393	7.76
237.77	7.46
238.147	7.05
238.524	7
238.901	6.91
239.278	6.55
239.655	6.37
240.032	6.29
240.409	6.4
240.785	6.38
241.162	6.28
241.539	6.04
241.915	5.95
242.292	5.84
242.668	5.69
243.045	5.59
243.421	5.41
243.798	5.28
244.174	5.2
244.551	5.07
244.927	4.99
245.303	4.93
245.679	4.93
246.056	4.86
246.432	4.87
246.808	4.83
247.184	4.86
247.56	4.87
247.936	4.84
248.312	4.82
248.688	4.86
249.064	4.85
249.44	4.88
249.815	4.93
250.191	4.93
250.567	4.95
250.943	4.98
251.318	5.04
251.694	5.01
252.069	4.98
252.445	5.01
252.82	5.01
253.196	5.08
253.571	5.11
253.947	5.21
254.322	5.1
254.697	5.13
255.073	5.07
255.448	5.08
255.823	5.06
256.198	4.97
256.573	4.88
256.948	4.81
257.323	4.77
257.698	4.72
258.073	4.65
258.448	4.64
258.823	4.61
259.198	4.58
259.573	4.57
259.948	4.6
260.322	4.61
260.697	4.62
261.072	4.61
261.446	4.58
261.821	4.57
262.195	4.56
262.57	4.53
262.944	4.52
263.319	4.5
263.693	4.49
264.067	4.53
264.442	4.52
264.816	4.53
265.19	4.48
265.564	4.49
265.938	4.49
266.313	4.44
266.687	4.41
267.061	4.39
267.435	4.37
267.809	4.37
268.183	4.35
268.556	4.37
268.93	4.35
269.304	4.34
269.678	4.3
270.051	4.3
270.425	4.28
270.799	4.29
271.172	4.27
271.546	4.26
271.919	4.25
272.293	4.23
272.666	4.22
273.04	4.25
273.413	4.19
273.787	4.2
274.16	4.22
274.533	4.25
274.906	4.23
275.279	4.29
275.653	4.26
276.026	4.23
276.399	4.19
276.772	4.2
277.145	4.21
277.518	4.24
277.891	4.26
278.263	4.27
278.636	4.32
279.009	4.34
279.382	4.35
279.755	4.36
280.127	4.39
280.5	4.39
280.872	4.37
281.245	4.42
281.617	4.41
281.99	4.44
282.362	4.43
282.735	4.44
283.107	4.42
283.479	4.46
283.852	4.48
284.224	4.49
284.596	4.49
284.968	4.5
285.34	4.51
285.713	4.54
286.085	4.53
286.457	4.52
286.829	4.52
287.201	4.51
287.572	4.51
287.944	4.54
288.316	4.59
288.688	4.64
289.06	4.67
289.431	4.7
289.803	4.7
290.175	4.74
290.546	4.8
290.918	4.85
291.289	4.85
291.661	4.88
292.032	4.88
292.403	4.88
292.775	4.91
293.146	4.92
293.517	4.93
293.889	5.01
294.26	5.02
294.631	5.06
295.002	5.1
295.373	5.16
295.744	5.18
296.115	5.2
296.486	5.2
296.857	5.21
297.228	5.25
297.599	5.29
297.97	5.3
298.34	5.31
298.711	5.32
299.082	5.34
299.452	5.38
299.823	5.45
300.194	5.53
300.564	5.55
300.935	5.6
301.305	5.66
301.676	5.66
302.046	5.71
302.416	5.77
302.787	5.82
303.157	5.88
303.527	5.94
303.897	6
304.267	6.06
304.637	6.1
305.008	6.15
305.378	6.2
305.748	6.24
306.117	6.33
306.487	6.38
306.857	6.43
307.227	6.47
307.597	6.52
307.967	6.55
308.336	6.63
308.706	6.69
309.076	6.74
309.445	6.8
309.815	6.86
310.184	6.9
310.554	6.96
310.923	6.98
311.293	7.04
311.662	7.05
312.031	7.09
312.401	7.16
312.77	7.22
313.139	7.25
313.508	7.29
313.877	7.33
314.246	7.4
314.616	7.49
314.985	7.53
315.353	7.58
315.722	7.65
316.091	7.69
316.46	7.78
316.829	7.85
317.198	7.91
317.567	7.95
317.935	8
318.304	8.05
318.672	8.1
319.041	8.15
319.41	8.24
319.778	8.35
320.147	8.39
320.515	8.42
320.883	8.51
321.252	8.57
321.62	8.59
321.988	8.6
322.357	8.64
322.725	8.73
323.093	8.81
323.461	8.87
323.829	8.9
324.197	8.91
324.565	8.92
324.933	8.98
325.301	9.05
325.669	9.09
326.037	9.12
326.405	9.17
326.772	9.17
327.14	9.21
327.508	9.19
327.875	9.24
328.243	9.26
328.61	9.29
328.978	9.35
329.346	9.37
329.713	9.43
330.08	9.47
330.448	9.49
330.815	9.5
331.182	9.5
331.55	9.56
331.917	9.6
332.284	9.65
332.651	9.67
333.018	9.69
333.385	9.71
333.752	9.76
334.119	9.78
334.486	9.82
334.853	9.84
335.22	9.87
335.587	9.87
335.954	9.91
336.32	9.92
336.687	9.92
337.054	9.98
337.42	9.99
337.787	10.01
338.153	10.04
338.52	10.07
338.886	10.12
339.253	10.1
339.619	10.12
339.986	10.12
340.352	10.15
340.718	10.2
341.084	10.23
341.451	10.22
341.817	10.24
342.183	10.29
342.549	10.3
342.915	10.31
343.281	10.35
343.647	10.38
344.013	10.4
344.379	10.44
344.745	10.45
345.11	10.47
345.476	10.5
345.842	10.51
346.208	10.5
346.573	10.5
346.939	10.56
347.304	10.56
347.67	10.57
348.035	10.6
348.401	10.59
348.766	10.62
349.132	10.64
349.497	10.66
349.862	10.62
350.228	10.64
350.593	10.66
350.958	10.66
351.323	10.64
351.688	10.66
352.053	10.65
352.418	10.66
352.783	10.67
353.148	10.65
353.513	10.66
353.878	10.68
354.243	10.7
354.608	10.68
354.972	10.68
355.337	10.66
355.702	10.61
356.066	10.6
356.431	10.57
356.795	10.55
357.16	10.53
357.524	10.52
357.889	10.5
358.253	10.49
358.618	10.48
358.982	10.47
359.346	10.44
359.71	10.43
360.075	10.39
360.439	10.36
360.803	10.33
361.167	10.3
361.531	10.27
361.895	10.23
362.259	10.19
362.623	10.16
362.987	10.15
363.351	10.13
363.714	10.11
364.078	10.08
364.442	10.05
364.806	10.01
365.169	9.99
365.533	9.94
365.896	9.89
366.26	9.84
366.623	9.79
366.987	9.74
367.35	9.68
367.714	9.64
368.077	9.59
368.44	9.54
368.803	9.48
369.167	9.43
369.53	9.38
369.893	9.34
370.256	9.29
370.619	9.22
370.982	9.15
371.345	9.09
371.708	9.03
372.071	8.98
372.434	8.93
372.797	8.84
373.159	8.8
373.522	8.74
373.885	8.69
374.247	8.63
374.61	8.57
374.973	8.5
375.335	8.43
375.698	8.37
376.06	8.31
376.423	8.26
376.785	8.2
377.147	8.13
377.51	8.07
377.872	8.01
378.234	7.95
378.596	7.92
378.958	7.86
379.321	7.82
379.683	7.77
380.045	7.7
380.407	7.64
380.769	7.59
381.13	7.54
381.492	7.48
381.854	7.43
382.216	7.39
382.578	7.35
382.939	7.32
383.301	7.27
383.663	7.23
384.024	7.19
384.386	7.15
384.747	7.12
385.109	7.08
385.47	7.04
385.832	7.01
386.193	6.96
386.554	6.92
386.916	6.88
387.277	6.84
387.638	6.82
387.999	6.79
388.36	6.76
388.721	6.72
389.082	6.69
389.443	6.66
389.804	6.62
390.165	6.59
390.526	6.55
390.887	6.5
391.248	6.48
391.609	6.46
391.969	6.42
392.33	6.39
392.691	6.36
393.051	6.33
393.412	6.3
393.772	6.26
394.133	6.24
394.493	6.2
394.854	6.16
395.214	6.12
395.574	6.08
395.935	6.04
396.295	6
396.655	5.96
397.015	5.92
397.376	5.88
397.736	5.86
398.096	5.81
398.456	5.79
398.816	5.75
399.176	5.7
399.535	5.67
399.895	5.63
400.255	5.6
400.615	5.57
400.975	5.54
401.334	5.51
401.694	5.48
402.054	5.47
402.413	5.45
402.773	5.43
403.132	5.41
403.492	5.4
403.851	5.38
404.211	5.37
404.57	5.35
404.929	5.34
405.288	5.32
405.648	5.31
406.007	5.29
406.366	5.29
406.725	5.28
407.084	5.27
407.443	5.26
407.802	5.25
408.161	5.24
408.52	5.24
408.879	5.23
409.238	5.22
409.596	5.2
409.955	5.19
410.314	5.18
410.673	5.17
411.031	5.15
411.39	5.15
411.748	5.14
412.107	5.13
412.465	5.12
412.824	5.11
413.182	5.1
413.54	5.1
413.899	5.09
414.257	5.07
414.615	5.07
414.974	5.06
415.332	5.05
415.69	5.05
416.048	5.05
416.406	5.08
416.764	5.1
417.122	5.14
417.48	5.17
417.838	5.22
418.195	5.29
418.553	5.33
418.911	5.39
419.269	5.44
419.626	5.48
419.984	5.54
420.342	5.58
420.699	5.62
421.057	5.67
421.414	5.71
421.772	5.75
422.129	5.78
422.486	5.81
422.844	5.82
423.201	5.8
423.558	5.78
423.915	5.72
424.273	5.67
424.63	5.59
424.987	5.52
425.344	5.44
425.701	5.35
426.058	5.29
426.415	5.22
426.772	5.15
427.128	5.08
427.485	5
427.842	4.94
428.199	4.87
428.555	4.8
428.912	4.72
429.269	4.66
429.625	4.61
429.982	4.56
430.338	4.53
430.695	4.53
431.051	4.53
431.407	4.55
431.764	4.56
432.12	4.6
432.476	4.63
432.832	4.65
433.189	4.67
433.545	4.67
433.901	4.68
434.257	4.68
434.613	4.69
434.969	4.7
435.325	4.72
435.681	4.74
436.036	4.78
436.392	4.82
436.748	4.88
437.104	4.93
437.459	4.98
437.815	5.03
438.171	5.08
438.526	5.11
438.882	5.15
439.237	5.2
439.593	5.21
439.948	5.24
440.304	5.26
440.659	5.28
441.014	5.31
441.369	5.35
441.725	5.39
442.08	5.44
442.435	5.5
442.79	5.56
443.145	5.62
443.5	5.65
443.855	5.68
444.21	5.68
444.565	5.68
444.92	5.68
445.275	5.67
445.629	5.66
445.984	5.65
446.339	5.62
446.693	5.58
447.048	5.56
447.403	5.53
447.757	5.5
448.112	5.48
448.466	5.42
448.82	5.36
449.175	5.29
449.529	5.22
449.883	5.13
450.238	5.04
450.592	4.95
450.946	4.87
451.3	4.79
451.654	4.72
452.008	4.67
452.362	4.59
452.716	4.54
453.07	4.49
453.424	4.45
453.778	4.42
454.132	4.41
454.486	4.42
454.839	4.42
455.193	4.46
455.547	4.51
455.9	4.57
456.254	4.63
456.607	4.7
456.961	4.78
457.314	4.86
457.668	4.92
458.021	4.97
458.375	5.01
458.728	5.03
459.081	5.06
459.434	5.06
459.787	5.07
460.141	5.06
460.494	5.04
460.847	5.02
461.2	5.02
461.553	5.01
461.906	5
462.259	4.99
462.611	4.96
462.964	4.93
463.317	4.88
463.67	4.84
464.022	4.8
464.375	4.75
464.728	4.7
465.08	4.66
465.433	4.63
465.785	4.6
466.138	4.6
466.49	4.59
466.843	4.61
467.195	4.62
467.547	4.66
467.899	4.71
468.252	4.76
468.604	4.79
468.956	4.81
469.308	4.84
469.66	4.86
470.012	4.87
470.364	4.89
470.716	4.9
471.068	4.92
471.42	4.93
471.772	4.94
472.123	4.94
472.475	4.95
472.827	4.96
473.178	4.97
473.53	4.97
473.882	4.98
474.233	4.98
474.585	4.99
474.936	4.99
475.288	4.99
475.639	5
475.99	5
476.342	5.01
476.693	5.01
477.044	5.01
477.395	5.04
477.746	5.08
478.097	5.15
478.448	5.27
478.8	5.46
479.15	5.69
479.501	5.97
479.852	6.27
480.203	6.59
480.554	6.93
480.905	7.28
481.255	7.63
481.606	7.99
481.957	8.35
482.307	8.7
482.658	9.04
483.009	9.35
483.359	9.63
483.709	9.91
484.06	10.18
484.41	10.44
484.761	10.68
485.111	10.89
485.461	11.06
485.811	11.16
486.162	11.2
486.512	11.18
486.862	11.12
487.212	11.02
487.562	10.89
487.912	10.73
488.262	10.56
488.612	10.38
488.961	10.18
489.311	9.96
489.661	9.75
490.011	9.53
490.36	9.31
490.71	9.09
491.06	8.86
491.409	8.62
491.759	8.39
492.108	8.17
492.458	7.96
492.807	7.76
493.157	7.57
493.506	7.39
493.855	7.23
494.204	7.07
494.554	6.91
494.903	6.77
495.252	6.63
495.601	6.49
495.95	6.35
496.299	6.23
496.648	6.09
496.997	5.97
497.346	5.87
497.695	5.79
498.043	5.75
498.392	5.73
498.741	5.74
499.09	5.75
499.438	5.77
499.787	5.8
500.135	5.83
500.484	5.87
500.832	5.92
501.181	5.97
501.529	6.03
501.878	6.09
502.226	6.15
502.574	6.23
502.923	6.32
503.271	6.43
503.619	6.55
503.967	6.7
504.315	6.85
504.663	7.02
505.011	7.21
505.359	7.41
505.707	7.6
506.055	7.79
506.403	8
506.751	8.2
507.098	8.43
507.446	8.64
507.794	8.86
508.141	9.07
508.489	9.29
508.837	9.51
509.184	9.73
509.531	9.96
509.879	10.18
510.226	10.41
510.574	10.63
510.921	10.86
511.268	11.09
511.616	11.33
511.963	11.58
512.31	11.85
512.657	12.14
513.004	12.44
513.351	12.77
513.698	13.13
514.045	13.51
514.392	13.91
514.739	14.35
515.086	14.8
515.432	15.27
515.779	15.74
516.126	16.21
516.473	16.68
516.819	17.11
517.166	17.52
517.512	17.91
517.859	18.27
518.205	18.6
518.552	18.91
518.898	19.21
519.245	19.49
519.591	19.77
519.937	20.07
520.283	20.41
520.629	20.8
520.976	21.19
521.322	21.63
521.668	22.08
522.014	22.57
522.36	23.11
522.706	23.75
523.052	24.6
523.398	25.65
523.743	26.9
524.089	28.32
524.435	29.85
524.781	31.48
525.126	33.19
525.472	34.96
525.817	36.73
526.163	38.5
526.509	40.24
526.854	41.88
527.199	43.35
527.545	44.63
527.89	45.76
528.235	46.84
528.581	47.86
528.926	48.84
529.271	49.74
529.616	50.56
529.961	51.22
530.306	51.67
530.651	51.89
530.996	51.91
531.341	51.78
531.686	51.51
532.031	51.09
532.376	50.52
532.721	49.83
533.065	49.11
533.41	48.33
533.755	47.57
534.099	46.87
534.444	46.28
534.788	45.81
535.133	45.4
535.477	45.01
535.822	44.71
536.166	44.56
536.51	44.54
536.855	44.67
537.199	44.93
537.543	45.28
537.887	45.74
538.231	46.26
538.576	46.83
538.92	47.43
539.264	48.11
539.608	48.79
539.951	49.41
540.295	49.92
540.639	50.35
540.983	50.72
541.327	51.08
541.671	51.41
542.014	51.7
542.358	51.94
542.701	52.15
543.045	52.18
543.389	52.04
543.732	51.7
544.075	51.19
544.419	50.51
544.762	49.67
545.105	48.66
545.449	47.69
545.792	46.68
546.135	45.77
546.478	44.97
546.821	44.22
547.165	43.58
547.508	43.13
547.851	42.8
548.194	42.53
548.536	42.31
548.879	42.13
549.222	42.04
549.565	42.01
549.908	42
550.25	42.08
550.593	42.21
550.936	42.39
551.278	42.64
551.621	42.96
551.963	43.4
552.306	43.94
552.648	44.38
552.991	44.82
553.333	45.13
553.675	45.28
554.017	45.45
554.36	45.62
554.702	45.76
555.044	45.9
555.386	46.05
555.728	46.2
556.07	46.35
556.412	46.49
556.754	46.63
557.096	46.78
557.438	46.91
557.78	47.05
558.121	47.18
558.463	47.32
558.805	47.46
559.147	47.61
559.488	47.76
559.83	47.92
560.171	48.09
560.513	48.24
560.854	48.41
561.196	48.57
561.537	48.74
561.878	48.92
562.22	49.09
562.561	49.27
562.902	49.43
563.243	49.6
563.584	49.75
563.925	49.9
564.266	50.06
564.607	50.2
564.948	50.35
565.289	50.47
565.63	50.62
565.971	50.74
566.312	50.85
566.653	50.96
566.993	51.08
567.334	51.18
567.675	51.31
568.015	51.46
568.356	51.58
568.696	51.7
569.037	51.81
569.377	51.93
569.718	52.03
570.058	52.12
570.398	52.24
570.739	52.35
571.079	52.47
571.419	52.57
571.759	52.65
572.099	52.75
572.439	52.85
572.779	52.93
573.119	53.03
573.459	53.1
573.799	53.18
574.139	53.25
574.479	53.34
574.819	53.37
575.158	53.39
575.498	53.43
575.838	53.45
576.177	53.5
576.517	53.52
576.856	53.57
577.196	53.61
577.535	53.62
577.875	53.64
578.214	53.64
578.553	53.66
578.893	53.69
579.232	53.7
579.571	53.73
579.91	53.75
580.25	53.78
580.589	53.84
580.928	53.88
581.267	53.91
581.606	53.94
581.945	53.98
582.283	54.04
582.622	54.1
582.961	54.17
583.3	54.18
583.639	54.25
583.977	54.29
584.316	54.36
584.654	54.46
584.993	54.52
585.332	54.61
585.67	54.67
586.008	54.75
586.347	54.83
586.685	54.9
587.024	54.98
587.362	55.07
587.7	55.14
588.038	55.2
588.376	55.26
588.715	55.34
589.053	55.42
589.391	55.5
589.729	55.58
590.067	55.64
590.404	55.74
590.742	55.78
591.08	55.87
591.418	55.94
591.756	55.98
592.093	56.06
592.431	56.13
592.769	56.25
593.106	56.33
593.444	56.41
593.781	56.49
594.119	56.57
594.456	56.63
594.793	56.69
595.131	56.76
595.468	56.82
595.805	56.89
596.143	56.94
596.48	56.97
596.817	56.99
597.154	57.04
597.491	57.07
597.828	57.14
598.165	57.16
598.502	57.2
598.839	57.26
599.176	57.3
599.512	57.34
599.849	57.36
600.186	57.43
600.523	57.47
600.859	57.55
601.196	57.62
601.532	57.68
601.869	57.75
602.205	57.8
602.542	57.87
602.878	57.92
603.215	57.97
603.551	58.03
603.887	58.09
604.223	58.13
604.56	58.19
604.896	58.22
605.232	58.29
605.568	58.32
605.904	58.38
606.24	58.42
606.576	58.44
606.912	58.47
607.248	58.48
607.583	58.52
607.919	58.5
608.255	58.52
608.591	58.52
608.926	58.51
609.262	58.52
609.597	58.51
609.933	58.52
610.268	58.52
610.604	58.52
610.939	58.5
611.275	58.5
611.61	58.5
611.945	58.5
612.281	58.48
612.616	58.48
612.951	58.46
613.286	58.45
613.621	58.45
613.956	58.43
614.291	58.43
614.626	58.42
614.961	58.45
615.296	58.41
615.631	58.42
615.966	58.42
616.3	58.42
616.635	58.44
616.97	58.43
617.304	58.46
617.639	58.51
617.973	58.54
618.308	58.57
618.642	58.59
618.977	58.64
619.311	58.66
619.646	58.69
619.98	58.71
620.314	58.73
620.648	58.77
620.983	58.82
621.317	58.85
621.651	58.89
621.985	58.89
622.319	58.93
622.653	58.98
622.987	59.06
623.321	59.11
623.655	59.14
623.988	59.21
624.322	59.25
624.656	59.27
624.99	59.33
625.323	59.36
625.657	59.38
625.99	59.38
626.324	59.41
626.657	59.45
626.991	59.48
627.324	59.5
627.658	59.54
627.991	59.53
628.324	59.55
628.657	59.56
628.991	59.61
629.324	59.62
629.657	59.63
629.99	59.62
630.323	59.63
630.656	59.66
630.989	59.65
631.322	59.66
631.655	59.67
631.987	59.68
632.32	59.7
632.653	59.73
632.986	59.77
633.318	59.79
633.651	59.8
633.984	59.83
634.316	59.86
634.649	59.86
634.981	59.89
635.313	59.88
635.646	59.9
635.978	59.87
636.31	59.9
636.643	59.92
636.975	59.93
637.307	59.94
637.639	59.95
637.971	59.98
638.303	60
638.635	60.02
638.967	60.03
639.299	60.03
639.631	60.03
639.963	60.05
640.295	60.06
640.626	60.09
640.958	60.08
641.29	60.06
641.621	60.07
641.953	60.09
642.285	60.13
642.616	60.15
642.948	60.17
643.279	60.19
643.61	60.19
643.942	60.19
644.273	60.2
644.604	60.22
644.936	60.22
645.267	60.22
645.598	60.24
645.929	60.27
646.26	60.29
646.591	60.3
646.922	60.33
647.253	60.36
647.584	60.35
647.915	60.38
648.245	60.43
648.576	60.47
648.907	60.49
649.238	60.49
649.568	60.52
649.899	60.59
650.229	60.59
650.56	60.64
650.89	60.66
651.221	60.69
651.551	60.7
651.882	60.73
652.212	60.75
652.542	60.75
652.872	60.79
653.203	60.82
653.533	60.84
653.863	60.83
654.193	60.87
654.523	60.91
654.853	60.94
655.183	60.96
655.513	60.98
655.843	61.04
656.172	61.02
656.502	61.05
656.832	61.04
657.162	61.11
657.491	61.12
657.821	61.14
658.15	61.17
658.48	61.19
658.809	61.21
659.139	61.26
659.468	61.29
659.798	61.28
660.127	61.29
660.456	61.29
660.785	61.34
661.115	61.34
661.444	61.34
661.773	61.37
662.102	61.36
662.431	61.36
662.76	61.35
663.089	61.38
663.418	61.39
663.747	61.41
664.076	61.39
664.404	61.38
664.733	61.43
665.062	61.44
665.39	61.42
665.719	61.42
666.048	61.43
666.376	61.45
666.705	61.46
667.033	61.47
667.362	61.51
667.69	61.48
668.018	61.49
