Data from UWBM12228_Reflection_00007.txt Node
Date: Sun May 02 12:53:20 EDT 2021
User: vgr7
Spectrometer: USB2G7710
Scans to average: 10
Trigger mode: 4
Integration Time (sec): 1.000000E-1
Electric dark correction enabled: true
Boxcar width: 20
XAxis mode: Wavelengths
Number of Pixels in Spectrum: 2048
>>>>>Begin Spectral Data<<<<<
177.721	98.65
178.105	98.16
178.488	97.16
178.871	96.13
179.254	94.9
179.636	91.83
180.019	89.62
180.402	87.12
180.785	85.14
181.168	82.85
181.55	80.79
181.933	118.16
182.316	118.97
182.698	120.22
183.081	122.61
183.463	123.8
183.846	125.92
184.228	127.71
184.611	128.64
184.993	132.71
185.376	134.89
185.758	-142.65
186.14	-75.74
186.522	-35.76
186.904	-14.45
187.287	-0.51
187.669	4.51
188.051	7.85
188.433	13.27
188.815	9.03
189.197	9.7
189.579	7.51
189.961	8.72
190.342	8.33
190.724	10.95
191.106	9.65
191.488	10.08
191.869	4.44
192.251	5.4
192.633	2.01
193.014	2.28
193.396	2.64
193.777	9.82
194.159	10.16
194.54	8.07
194.922	8.65
195.303	12.31
195.684	12.85
196.065	14.24
196.447	12.38
196.828	11.41
197.209	11.77
197.59	2.91
197.971	2.06
198.352	2.99
198.733	7.18
199.114	7.16
199.495	6.1
199.876	8.28
200.257	7.65
200.638	7.65
201.018	1.34
201.399	1.17
201.78	-0.64
202.16	0.15
202.541	0.74
202.922	-0.22
203.302	-4.1
203.683	-4.45
204.063	-4.9
204.444	-3.16
204.824	-0.87
205.204	1.77
205.585	10.85
205.965	10.11
206.345	9.9
206.725	5.35
207.106	4.09
207.486	5
207.866	5.56
208.246	5.58
208.626	8.53
209.006	12.98
209.386	8.8
209.766	9.23
210.145	9.15
210.525	8.74
210.905	8.76
211.285	10.3
211.664	8.51
212.044	11.22
212.424	10.93
212.803	6.39
213.183	8.74
213.562	8.84
213.942	7.81
214.321	4.72
214.701	3.95
215.08	5.34
215.459	5.07
215.838	4.72
216.218	5.4
216.597	3.93
216.976	0.57
217.355	1.83
217.734	0.75
218.113	1.73
218.492	1.93
218.871	3.13
219.25	3.07
219.629	2.02
220.008	0.94
220.387	0.91
220.766	0.84
221.144	-0.19
221.523	0.67
221.902	1.99
222.28	2.97
222.659	4.23
223.037	4.35
223.416	5.07
223.794	6.29
224.173	5.25
224.551	5.02
224.929	5.46
225.308	6.01
225.686	6.2
226.064	6.76
226.442	6.81
226.821	6.68
227.199	6.67
227.577	5.81
227.955	5.42
228.333	5.02
228.711	5.02
229.089	5.69
229.467	5.26
229.845	5.84
230.222	5.74
230.6	6.11
230.978	6.04
231.356	5.52
231.733	5.55
232.111	5.73
232.488	5.8
232.866	5.73
233.243	5.49
233.621	5.39
233.998	5.26
234.376	5.24
234.753	5.2
235.13	5.31
235.508	5.81
235.885	5.79
236.262	5.86
236.639	5.9
237.016	5.9
237.393	5.72
237.77	5.43
238.147	5.38
238.524	5.31
238.901	5.21
239.278	5.12
239.655	5.08
240.032	4.98
240.409	4.95
240.785	4.86
241.162	4.92
241.539	4.81
241.915	4.8
242.292	4.77
242.668	4.69
243.045	4.69
243.421	4.59
243.798	4.55
244.174	4.52
244.551	4.46
244.927	4.32
245.303	4.25
245.679	4.26
246.056	4.21
246.432	4.19
246.808	4
247.184	3.99
247.56	3.95
247.936	3.97
248.312	3.95
248.688	4
249.064	3.96
249.44	3.92
249.815	3.91
250.191	3.88
250.567	3.83
250.943	3.92
251.318	3.92
251.694	3.85
252.069	3.79
252.445	3.8
252.82	3.93
253.196	3.97
253.571	3.91
253.947	3.99
254.322	3.96
254.697	4.08
255.073	4.07
255.448	4.06
255.823	4.03
256.198	3.99
256.573	3.8
256.948	3.78
257.323	3.78
257.698	3.73
258.073	3.74
258.448	3.62
258.823	3.63
259.198	3.63
259.573	3.65
259.948	3.66
260.322	3.62
260.697	3.63
261.072	3.6
261.446	3.59
261.821	3.55
262.195	3.52
262.57	3.49
262.944	3.49
263.319	3.45
263.693	3.49
264.067	3.51
264.442	3.62
264.816	3.61
265.19	3.6
265.564	3.64
265.938	3.62
266.313	3.66
266.687	3.62
267.061	3.62
267.435	3.6
267.809	3.6
268.183	3.56
268.556	3.57
268.93	3.58
269.304	3.56
269.678	3.54
270.051	3.53
270.425	3.55
270.799	3.55
271.172	3.56
271.546	3.57
271.919	3.58
272.293	3.56
272.666	3.55
273.04	3.55
273.413	3.49
273.787	3.49
274.16	3.48
274.533	3.51
274.906	3.49
275.279	3.51
275.653	3.5
276.026	3.48
276.399	3.47
276.772	3.47
277.145	3.5
277.518	3.52
277.891	3.53
278.263	3.55
278.636	3.54
279.009	3.55
279.382	3.52
279.755	3.47
280.127	3.49
280.5	3.48
280.872	3.46
281.245	3.55
281.617	3.56
281.99	3.59
282.362	3.62
282.735	3.62
283.107	3.62
283.479	3.63
283.852	3.65
284.224	3.69
284.596	3.67
284.968	3.56
285.34	3.56
285.713	3.54
286.085	3.5
286.457	3.49
286.829	3.48
287.201	3.49
287.572	3.55
287.944	3.58
288.316	3.63
288.688	3.67
289.06	3.67
289.431	3.69
289.803	3.7
290.175	3.73
290.546	3.76
290.918	3.8
291.289	3.8
291.661	3.83
292.032	3.81
292.403	3.86
292.775	3.96
293.146	3.99
293.517	4.04
293.889	4.14
294.26	4.16
294.631	4.21
295.002	4.29
295.373	4.34
295.744	4.37
296.115	4.41
296.486	4.39
296.857	4.42
297.228	4.45
297.599	4.48
297.97	4.5
298.34	4.55
298.711	4.53
299.082	4.57
299.452	4.61
299.823	4.69
300.194	4.73
300.564	4.78
300.935	4.83
301.305	4.86
301.676	4.89
302.046	4.94
302.416	5
302.787	5.05
303.157	5.04
303.527	5.1
303.897	5.17
304.267	5.24
304.637	5.31
305.008	5.38
305.378	5.45
305.748	5.5
306.117	5.63
306.487	5.75
306.857	5.85
307.227	5.93
307.597	5.97
307.967	6.03
308.336	6.09
308.706	6.16
309.076	6.23
309.445	6.27
309.815	6.23
310.184	6.28
310.554	6.28
310.923	6.38
311.293	6.44
311.662	6.49
312.031	6.54
312.401	6.6
312.77	6.63
313.139	6.68
313.508	6.77
313.877	6.77
314.246	6.8
314.616	6.83
314.985	6.83
315.353	6.89
315.722	6.94
316.091	6.99
316.46	7.04
316.829	7.11
317.198	7.18
317.567	7.38
317.935	7.44
318.304	7.55
318.672	7.64
319.041	7.69
319.41	7.76
319.778	7.84
320.147	7.93
320.515	7.98
320.883	8.04
321.252	8.04
321.62	8.12
321.988	8.2
322.357	8.24
322.725	8.34
323.093	8.39
323.461	8.44
323.829	8.47
324.197	8.49
324.565	8.54
324.933	8.57
325.301	8.61
325.669	8.64
326.037	8.68
326.405	8.68
326.772	8.71
327.14	8.75
327.508	8.77
327.875	8.8
328.243	8.84
328.61	8.82
328.978	8.86
329.346	8.91
329.713	8.92
330.08	8.96
330.448	9
330.815	9
331.182	9.03
331.55	9.07
331.917	9.1
332.284	9.12
332.651	9.15
333.018	9.17
333.385	9.19
333.752	9.22
334.119	9.26
334.486	9.3
334.853	9.3
335.22	9.32
335.587	9.33
335.954	9.36
336.32	9.39
336.687	9.43
337.054	9.44
337.42	9.48
337.787	9.51
338.153	9.55
338.52	9.61
338.886	9.66
339.253	9.68
339.619	9.68
339.986	9.67
340.352	9.67
340.718	9.7
341.084	9.72
341.451	9.73
341.817	9.74
342.183	9.74
342.549	9.79
342.915	9.8
343.281	9.82
343.647	9.85
344.013	9.88
344.379	9.9
344.745	9.91
345.11	9.92
345.476	9.93
345.842	9.95
346.208	9.94
346.573	9.94
346.939	9.97
347.304	9.98
347.67	9.98
348.035	10
348.401	10
348.766	10.02
349.132	10.03
349.497	10.04
349.862	10.05
350.228	10.06
350.593	10.06
350.958	10.05
351.323	10.03
351.688	10.02
352.053	10
352.418	10
352.783	9.97
353.148	9.95
353.513	9.92
353.878	9.91
354.243	9.89
354.608	9.87
354.972	9.86
355.337	9.85
355.702	9.82
356.066	9.8
356.431	9.77
356.795	9.74
357.16	9.69
357.524	9.67
357.889	9.65
358.253	9.63
358.618	9.6
358.982	9.59
359.346	9.57
359.71	9.54
360.075	9.52
360.439	9.5
360.803	9.46
361.167	9.42
361.531	9.4
361.895	9.37
362.259	9.34
362.623	9.32
362.987	9.27
363.351	9.24
363.714	9.21
364.078	9.16
364.442	9.13
364.806	9.1
365.169	9.05
365.533	9.01
365.896	8.97
366.26	8.92
366.623	8.87
366.987	8.82
367.35	8.78
367.714	8.74
368.077	8.69
368.44	8.64
368.803	8.59
369.167	8.53
369.53	8.48
369.893	8.42
370.256	8.36
370.619	8.31
370.982	8.24
371.345	8.17
371.708	8.12
372.071	8.06
372.434	8
372.797	7.96
373.159	7.9
373.522	7.85
373.885	7.78
374.247	7.71
374.61	7.65
374.973	7.58
375.335	7.52
375.698	7.47
376.06	7.41
376.423	7.35
376.785	7.29
377.147	7.23
377.51	7.18
377.872	7.13
378.234	7.07
378.596	7.02
378.958	6.98
379.321	6.94
379.683	6.88
380.045	6.83
380.407	6.78
380.769	6.72
381.13	6.68
381.492	6.64
381.854	6.6
382.216	6.55
382.578	6.5
382.939	6.47
383.301	6.42
383.663	6.38
384.024	6.33
384.386	6.29
384.747	6.25
385.109	6.19
385.47	6.15
385.832	6.11
386.193	6.06
386.554	6.01
386.916	5.97
387.277	5.93
387.638	5.91
387.999	5.87
388.36	5.84
388.721	5.8
389.082	5.77
389.443	5.73
389.804	5.7
390.165	5.67
390.526	5.63
390.887	5.6
391.248	5.56
391.609	5.53
391.969	5.5
392.33	5.47
392.691	5.43
393.051	5.4
393.412	5.36
393.772	5.33
394.133	5.3
394.493	5.26
394.854	5.23
395.214	5.19
395.574	5.15
395.935	5.11
396.295	5.07
396.655	5.04
397.015	5
397.376	4.96
397.736	4.93
398.096	4.89
398.456	4.87
398.816	4.85
399.176	4.8
399.535	4.78
399.895	4.75
400.255	4.72
400.615	4.69
400.975	4.67
401.334	4.64
401.694	4.62
402.054	4.59
402.413	4.55
402.773	4.52
403.132	4.51
403.492	4.48
403.851	4.46
404.211	4.45
404.57	4.44
404.929	4.43
405.288	4.41
405.648	4.4
406.007	4.38
406.366	4.37
406.725	4.36
407.084	4.34
407.443	4.33
407.802	4.3
408.161	4.28
408.52	4.27
408.879	4.25
409.238	4.24
409.596	4.22
409.955	4.23
410.314	4.21
410.673	4.2
411.031	4.19
411.39	4.18
411.748	4.18
412.107	4.17
412.465	4.16
412.824	4.17
413.182	4.17
413.54	4.18
413.899	4.18
414.257	4.19
414.615	4.22
414.974	4.23
415.332	4.26
415.69	4.29
416.048	4.29
416.406	4.32
416.764	4.34
417.122	4.35
417.48	4.37
417.838	4.38
418.195	4.39
418.553	4.4
418.911	4.4
419.269	4.39
419.626	4.38
419.984	4.36
420.342	4.33
420.699	4.31
421.057	4.28
421.414	4.26
421.772	4.24
422.129	4.23
422.486	4.22
422.844	4.21
423.201	4.2
423.558	4.19
423.915	4.18
424.273	4.17
424.63	4.16
424.987	4.15
425.344	4.14
425.701	4.14
426.058	4.13
426.415	4.12
426.772	4.11
427.128	4.1
427.485	4.08
427.842	4.07
428.199	4.05
428.555	4.03
428.912	4
429.269	3.97
429.625	3.95
429.982	3.92
430.338	3.89
430.695	3.87
431.051	3.83
431.407	3.81
431.764	3.79
432.12	3.77
432.476	3.76
432.832	3.74
433.189	3.74
433.545	3.74
433.901	3.75
434.257	3.77
434.613	3.79
434.969	3.81
435.325	3.83
435.681	3.87
436.036	3.88
436.392	3.9
436.748	3.9
437.104	3.9
437.459	3.91
437.815	3.92
438.171	3.93
438.526	3.95
438.882	3.98
439.237	4.01
439.593	4.03
439.948	4.06
440.304	4.09
440.659	4.11
441.014	4.12
441.369	4.14
441.725	4.15
442.08	4.17
442.435	4.17
442.79	4.17
443.145	4.17
443.5	4.17
443.855	4.17
444.21	4.16
444.565	4.15
444.92	4.14
445.275	4.13
445.629	4.12
445.984	4.11
446.339	4.1
446.693	4.09
447.048	4.07
447.403	4.06
447.757	4.03
448.112	4.01
448.466	3.99
448.82	3.97
449.175	3.95
449.529	3.93
449.883	3.92
450.238	3.89
450.592	3.88
450.946	3.87
451.3	3.87
451.654	3.87
452.008	3.87
452.362	3.87
452.716	3.87
453.07	3.86
453.424	3.85
453.778	3.84
454.132	3.83
454.486	3.82
454.839	3.8
455.193	3.78
455.547	3.77
455.9	3.74
456.254	3.72
456.607	3.69
456.961	3.67
457.314	3.65
457.668	3.64
458.021	3.64
458.375	3.64
458.728	3.64
459.081	3.64
459.434	3.65
459.787	3.66
460.141	3.67
460.494	3.68
460.847	3.69
461.2	3.69
461.553	3.71
461.906	3.72
462.259	3.73
462.611	3.74
462.964	3.75
463.317	3.76
463.67	3.77
464.022	3.77
464.375	3.78
464.728	3.79
465.08	3.79
465.433	3.81
465.785	3.81
466.138	3.81
466.49	3.8
466.843	3.8
467.195	3.79
467.547	3.78
467.899	3.78
468.252	3.76
468.604	3.75
468.956	3.74
469.308	3.74
469.66	3.74
470.012	3.74
470.364	3.75
470.716	3.77
471.068	3.79
471.42	3.82
471.772	3.84
472.123	3.86
472.475	3.87
472.827	3.89
473.178	3.9
473.53	3.91
473.882	3.93
474.233	3.95
474.585	3.98
474.936	4.04
475.288	4.12
475.639	4.22
475.99	4.34
476.342	4.47
476.693	4.62
477.044	4.76
477.395	4.91
477.746	5.07
478.097	5.22
478.448	5.37
478.8	5.52
479.15	5.66
479.501	5.78
479.852	5.9
480.203	6
480.554	6.1
480.905	6.2
481.255	6.3
481.606	6.39
481.957	6.46
482.307	6.54
482.658	6.62
483.009	6.69
483.359	6.76
483.709	6.82
484.06	6.88
484.41	6.95
484.761	7.01
485.111	7.07
485.461	7.12
485.811	7.17
486.162	7.22
486.512	7.26
486.862	7.29
487.212	7.31
487.562	7.33
487.912	7.34
488.262	7.35
488.612	7.35
488.961	7.33
489.311	7.3
489.661	7.24
490.011	7.17
490.36	7.08
490.71	6.97
491.06	6.86
491.409	6.73
491.759	6.61
492.108	6.48
492.458	6.35
492.807	6.21
493.157	6.08
493.506	5.95
493.855	5.82
494.204	5.71
494.554	5.62
494.903	5.53
495.252	5.44
495.601	5.36
495.95	5.28
496.299	5.22
496.648	5.16
496.997	5.1
497.346	5.05
497.695	5
498.043	4.97
498.392	4.93
498.741	4.9
499.09	4.87
499.438	4.85
499.787	4.83
500.135	4.82
500.484	4.83
500.832	4.84
501.181	4.86
501.529	4.9
501.878	4.95
502.226	5
502.574	5.07
502.923	5.14
503.271	5.22
503.619	5.3
503.967	5.38
504.315	5.47
504.663	5.55
505.011	5.64
505.359	5.73
505.707	5.83
506.055	5.92
506.403	6.03
506.751	6.14
507.098	6.24
507.446	6.36
507.794	6.49
508.141	6.62
508.489	6.76
508.837	6.89
509.184	7.02
509.531	7.17
509.879	7.31
510.226	7.47
510.574	7.63
510.921	7.8
511.268	7.97
511.616	8.14
511.963	8.32
512.31	8.51
512.657	8.69
513.004	8.87
513.351	9.05
513.698	9.21
514.045	9.36
514.392	9.51
514.739	9.65
515.086	9.79
515.432	9.93
515.779	10.07
516.126	10.22
516.473	10.38
516.819	10.55
517.166	10.72
517.512	10.91
517.859	11.11
518.205	11.33
518.552	11.56
518.898	11.81
519.245	12.1
519.591	12.44
519.937	12.84
520.283	13.3
520.629	13.81
520.976	14.33
521.322	14.87
521.668	15.42
522.014	15.97
522.36	16.52
522.706	17.05
523.052	17.58
523.398	18.09
523.743	18.55
524.089	18.97
524.435	19.37
524.781	19.76
525.126	20.14
525.472	20.52
525.817	20.89
526.163	21.26
526.509	21.6
526.854	21.95
527.199	22.3
527.545	22.65
527.89	23.01
528.235	23.36
528.581	23.7
528.926	24.02
529.271	24.33
529.616	24.61
529.961	24.86
530.306	25.09
530.651	25.33
530.996	25.55
531.341	25.75
531.686	25.94
532.031	26.12
532.376	26.32
532.721	26.54
533.065	26.79
533.41	27.04
533.755	27.26
534.099	27.44
534.444	27.61
534.788	27.75
535.133	27.89
535.477	28
535.822	28.09
536.166	28.15
536.51	28.17
536.855	28.14
537.199	28.09
537.543	28.04
537.887	28.02
538.231	28.02
538.576	28.03
538.92	28.02
539.264	28.01
539.608	27.98
539.951	27.94
540.295	27.89
540.639	27.84
540.983	27.77
541.327	27.7
541.671	27.64
542.014	27.58
542.358	27.55
542.701	27.59
543.045	27.65
543.389	27.75
543.732	27.86
544.075	28
544.419	28.14
544.762	28.28
545.105	28.43
545.449	28.61
545.792	28.79
546.135	28.98
546.478	29.13
546.821	29.24
547.165	29.3
547.508	29.3
547.851	29.29
548.194	29.24
548.536	29.15
548.879	29.04
549.222	28.91
549.565	28.77
549.908	28.64
550.25	28.54
550.593	28.48
550.936	28.49
551.278	28.52
551.621	28.61
551.963	28.7
552.306	28.83
552.648	28.98
552.991	29.15
553.333	29.34
553.675	29.56
554.017	29.81
554.36	30.08
554.702	30.38
555.044	30.71
555.386	31.08
555.728	31.42
556.07	31.74
556.412	32.06
556.754	32.3
557.096	32.53
557.438	32.77
557.78	33.01
558.121	33.24
558.463	33.48
558.805	33.72
559.147	33.96
559.488	34.2
559.83	34.44
560.171	34.68
560.513	34.92
560.854	35.14
561.196	35.36
561.537	35.59
561.878	35.81
562.22	36.03
562.561	36.24
562.902	36.46
563.243	36.67
563.584	36.88
563.925	37.09
564.266	37.3
564.607	37.49
564.948	37.7
565.289	37.9
565.63	38.1
565.971	38.3
566.312	38.49
566.653	38.67
566.993	38.86
567.334	39.03
567.675	39.21
568.015	39.39
568.356	39.56
568.696	39.73
569.037	39.89
569.377	40.04
569.718	40.2
570.058	40.34
570.398	40.49
570.739	40.62
571.079	40.75
571.419	40.87
571.759	41
572.099	41.12
572.439	41.24
572.779	41.37
573.119	41.49
573.459	41.6
573.799	41.71
574.139	41.82
574.479	41.94
574.819	42.04
575.158	42.16
575.498	42.27
575.838	42.37
576.177	42.47
576.517	42.56
576.856	42.66
577.196	42.75
577.535	42.85
577.875	42.94
578.214	43.04
578.553	43.14
578.893	43.21
579.232	43.3
579.571	43.4
579.91	43.48
580.25	43.57
580.589	43.66
580.928	43.74
581.267	43.84
581.606	43.93
581.945	44.02
582.283	44.11
582.622	44.2
582.961	44.29
583.3	44.4
583.639	44.49
583.977	44.6
584.316	44.69
584.654	44.8
584.993	44.9
585.332	44.99
585.67	45.08
586.008	45.17
586.347	45.25
586.685	45.33
587.024	45.42
587.362	45.51
587.7	45.61
588.038	45.7
588.376	45.8
588.715	45.89
589.053	46
589.391	46.1
589.729	46.19
590.067	46.28
590.404	46.38
590.742	46.48
591.08	46.57
591.418	46.67
591.756	46.75
592.093	46.84
592.431	46.92
592.769	47
593.106	47.07
593.444	47.13
593.781	47.19
594.119	47.26
594.456	47.33
594.793	47.4
595.131	47.46
595.468	47.52
595.805	47.59
596.143	47.66
596.48	47.74
596.817	47.83
597.154	47.9
597.491	47.98
597.828	48.06
598.165	48.15
598.502	48.22
598.839	48.28
599.176	48.35
599.512	48.42
599.849	48.47
600.186	48.53
600.523	48.59
600.859	48.64
601.196	48.69
601.532	48.74
601.869	48.79
602.205	48.85
602.542	48.91
602.878	48.96
603.215	48.99
603.551	49.03
603.887	49.08
604.223	49.12
604.56	49.16
604.896	49.2
605.232	49.23
605.568	49.27
605.904	49.3
606.24	49.33
606.576	49.37
606.912	49.4
607.248	49.43
607.583	49.47
607.919	49.5
608.255	49.52
608.591	49.56
608.926	49.59
609.262	49.62
609.597	49.65
609.933	49.67
610.268	49.7
610.604	49.71
610.939	49.74
611.275	49.74
611.61	49.76
611.945	49.78
612.281	49.79
612.616	49.81
612.951	49.82
613.286	49.84
613.621	49.86
613.956	49.88
614.291	49.91
614.626	49.94
614.961	49.98
615.296	50
615.631	50.03
615.966	50.04
616.3	50.05
616.635	50.07
616.97	50.09
617.304	50.13
617.639	50.15
617.973	50.18
618.308	50.22
618.642	50.25
618.977	50.27
619.311	50.29
619.646	50.34
619.98	50.38
620.314	50.42
620.648	50.47
620.983	50.52
621.317	50.56
621.651	50.6
621.985	50.64
622.319	50.66
622.653	50.69
622.987	50.72
623.321	50.75
623.655	50.78
623.988	50.81
624.322	50.82
624.656	50.84
624.99	50.87
625.323	50.9
625.657	50.92
625.99	50.94
626.324	50.97
626.657	51
626.991	51.01
627.324	51.04
627.658	51.06
627.991	51.08
628.324	51.11
628.657	51.13
628.991	51.16
629.324	51.18
629.657	51.21
629.99	51.23
630.323	51.25
630.656	51.28
630.989	51.29
631.322	51.31
631.655	51.34
631.987	51.35
632.32	51.37
632.653	51.39
632.986	51.4
633.318	51.41
633.651	51.42
633.984	51.43
634.316	51.45
634.649	51.45
634.981	51.46
635.313	51.46
635.646	51.47
635.978	51.49
636.31	51.5
636.643	51.51
636.975	51.51
637.307	51.52
637.639	51.54
637.971	51.58
638.303	51.6
638.635	51.63
638.967	51.64
639.299	51.65
639.631	51.68
639.963	51.7
640.295	51.72
640.626	51.75
640.958	51.77
641.29	51.8
641.621	51.83
641.953	51.85
642.285	51.87
642.616	51.89
642.948	51.89
643.279	51.93
643.61	51.96
643.942	51.97
644.273	51.98
644.604	52
644.936	52.03
645.267	52.05
645.598	52.05
645.929	52.06
646.26	52.08
646.591	52.1
646.922	52.14
647.253	52.17
647.584	52.19
647.915	52.22
648.245	52.26
648.576	52.27
648.907	52.31
649.238	52.33
649.568	52.33
649.899	52.35
650.229	52.39
650.56	52.44
650.89	52.48
651.221	52.51
651.551	52.54
651.882	52.59
652.212	52.61
652.542	52.64
652.872	52.68
653.203	52.73
653.533	52.74
653.863	52.76
654.193	52.78
654.523	52.8
654.853	52.82
655.183	52.83
655.513	52.87
655.843	52.88
656.172	52.89
656.502	52.93
656.832	52.94
657.162	52.95
657.491	52.96
657.821	52.99
658.15	53
658.48	53.01
658.809	53.03
659.139	53.07
659.468	53.12
659.798	53.15
660.127	53.16
660.456	53.2
660.785	53.22
661.115	53.23
661.444	53.24
661.773	53.25
662.102	53.27
662.431	53.28
662.76	53.3
663.089	53.31
663.418	53.33
663.747	53.34
664.076	53.35
664.404	53.36
664.733	53.38
665.062	53.4
665.39	53.4
665.719	53.39
666.048	53.4
666.376	53.39
666.705	53.39
667.033	53.39
667.362	53.39
667.69	53.42
668.018	53.43
668.347	53.43
668.675	53.44
669.003	53.43
669.331	53.44
669.659	53.45
669.987	53.47
670.315	53.48
670.643	53.52
670.971	53.53
671.299	53.54
671.627	53.55
671.955	53.57
